Data from 0073_chest_Reflection__3__332.txt Node

Date: Fri Dec 16 16:43:43 CST 2022
User: ToomeyLab
Spectrometer: FLMS14357
Trigger mode: 0
Integration Time (sec): 1.000000E-2
Scans to average: 100
Electric dark correction enabled: true
Nonlinearity correction enabled: false
Boxcar width: 0
XAxis mode: Wavelengths
Number of Pixels in Spectrum: 2048
>>>>>Begin Spectral Data<<<<<
189.047	54.5
189.435	54.5
189.823	54.5
190.211	95.94
190.599	23.81
190.987	-7.09
191.375	-107.03
191.763	75.5
192.151	-0.96
192.538	2365.81
192.926	-927.1
193.314	57.66
193.702	-15.67
194.089	143.32
194.477	33.71
194.864	-95.82
195.252	58.13
195.639	150.7
196.027	-3601.69
196.414	70.35
196.801	77.1
197.189	76.5
197.576	207.46
197.963	182.1
198.351	32.2
198.738	22.47
199.125	18.95
199.512	0.83
199.899	-104.74
200.286	-35.91
200.673	32.8
201.06	20.36
201.447	-5.6
201.833	-6.56
202.22	16.4
202.607	15.78
202.994	2.47
203.38	-73.44
203.767	-28.17
204.154	-96.74
204.54	-1.04
204.927	6.94
205.313	-0.96
205.699	1.83
206.086	-41.37
206.472	-60.13
206.858	-14.38
207.245	-10.34
207.631	-61.19
208.017	-1.76
208.403	39.06
208.789	17.57
209.175	21.53
209.561	-29.86
209.947	-65.39
210.333	-54.97
210.719	-39.68
211.105	-19.54
211.491	-6.4
211.876	-23.32
212.262	-63.81
212.648	-87.99
213.034	-45.13
213.419	-9.75
213.805	-6.21
214.19	-17.68
214.576	-7.84
214.961	-26.99
215.346	-57.74
215.732	-46.14
216.117	-32.16
216.502	-73.94
216.888	-25.35
217.273	40.21
217.658	-41.68
218.043	-9.55
218.428	-7.21
218.813	-39.83
219.198	-38.93
219.583	-1.92
219.968	-23.69
220.353	-1.84
220.738	-23.73
221.122	-8.92
221.507	0.38
221.892	-18.22
222.276	11.04
222.661	4.79
223.046	-0.75
223.43	0.61
223.815	0.83
224.199	-8.11
224.583	-8.22
224.968	1.92
225.352	-9.66
225.736	-0.93
226.121	1.01
226.505	3.3
226.889	4.15
227.273	-4.39
227.657	-0.2
228.041	-0.93
228.425	3.28
228.809	1.16
229.193	-0.97
229.577	1.49
229.961	2.59
230.344	2.32
230.728	1.91
231.112	1.92
231.495	3.45
231.879	3.48
232.263	1.05
232.646	1.71
233.03	1.2
233.413	0.7
233.797	2.86
234.18	0.1
234.563	0.47
234.946	3.35
235.33	0.62
235.713	3.34
236.096	2.28
236.479	1.93
236.862	1.78
237.245	1.56
237.628	3.78
238.011	2.26
238.394	4.47
238.777	1.99
239.16	-0.51
239.543	0.05
239.925	5.12
240.308	2.65
240.691	1.72
241.073	1.41
241.456	2.22
241.838	2.24
242.221	2.38
242.603	2.7
242.986	3.75
243.368	2.36
243.75	2.63
244.133	2.67
244.515	2.87
244.897	2.71
245.279	2.68
245.661	2.49
246.043	3.29
246.425	2.34
246.807	2.51
247.189	2.66
247.571	2.91
247.953	2.78
248.335	2.95
248.717	2.89
249.098	3.09
249.48	2.85
249.862	2.99
250.243	2.93
250.625	2.67
251.006	2.84
251.388	3.25
251.769	2.19
252.151	3.11
252.532	2.35
252.913	3.05
253.295	2.21
253.676	2.84
254.057	2.54
254.438	1.86
254.819	2.58
255.2	1.55
255.581	1.71
255.962	2.16
256.343	2.64
256.724	1.46
257.105	2.29
257.486	2.57
257.867	1.31
258.247	2.82
258.628	3.09
259.009	2.95
259.389	2.88
259.77	2.64
260.15	3.33
260.531	2.95
260.911	2.76
261.292	2.76
261.672	2.82
262.052	2.48
262.432	2.21
262.813	2.5
263.193	2.13
263.573	2.56
263.953	2.61
264.333	2.42
264.713	2.38
265.093	2.29
265.473	3.05
265.853	1.69
266.233	1.98
266.612	2.18
266.992	1.58
267.372	1.87
267.752	2.62
268.131	3.02
268.511	3.41
268.89	3.2
269.27	2.37
269.649	2.95
270.029	2.55
270.408	2.58
270.787	3.07
271.167	2.76
271.546	1.83
271.925	2.64
272.304	2.88
272.683	2.34
273.062	2.41
273.441	2.44
273.82	3.01
274.199	2.46
274.578	2.4
274.957	2.78
275.336	2.35
275.715	2.83
276.093	3.05
276.472	3.19
276.851	2.59
277.229	3.24
277.608	2.4
277.986	2.56
278.365	2.39
278.743	2.56
279.122	2.13
279.5	2.2
279.878	1.72
280.257	2.44
280.635	2.23
281.013	2.26
281.391	2.64
281.769	2.04
282.147	2.38
282.525	2.45
282.903	2.54
283.281	2.3
283.659	2.38
284.037	2.28
284.415	3.23
284.792	2.75
285.17	2.24
285.548	2.46
285.925	2.61
286.303	2.88
286.68	2.88
287.058	2.46
287.435	2.69
287.813	2.62
288.19	3.23
288.567	2.4
288.945	2.37
289.322	2.25
289.699	2.62
290.076	3
290.453	2.42
290.83	2.81
291.207	2.64
291.584	2.49
291.961	2.66
292.338	2.41
292.715	2.73
293.092	2.8
293.469	2.99
293.845	2.83
294.222	3.08
294.599	3.11
294.975	2.65
295.352	2.31
295.728	2.78
296.105	2.45
296.481	3.03
296.858	2.87
297.234	2.53
297.61	2.84
297.986	2.65
298.363	2.05
298.739	2.69
299.115	2.48
299.491	2.56
299.867	2.6
300.243	2.69
300.619	2.63
300.995	2.47
301.371	2.26
301.746	2.74
302.122	2.75
302.498	2.91
302.874	2.49
303.249	2.99
303.625	2.66
304	2.19
304.376	2.81
304.751	2.14
305.127	2.71
305.502	2.64
305.878	2.09
306.253	2.24
306.628	2.77
307.003	3.09
307.378	2.37
307.754	2.59
308.129	1.97
308.504	2.77
308.879	3.03
309.254	2.79
309.629	2.74
310.003	2.78
310.378	2.57
310.753	2.86
311.128	2.25
311.502	2.34
311.877	2.72
312.252	2.89
312.626	2.36
313.001	2.73
313.375	2.72
313.75	2.85
314.124	3.08
314.498	3.01
314.873	2.54
315.247	2.47
315.621	3.07
315.995	2.5
316.369	2.68
316.743	3.27
317.117	3.04
317.491	3.33
317.865	2.05
318.239	2.9
318.613	2.14
318.987	2.53
319.361	2.18
319.734	2.41
320.108	2.61
320.482	3.03
320.855	2.9
321.229	2.99
321.602	2.71
321.976	2.49
322.349	2.42
322.723	2.52
323.096	2.62
323.469	2.33
323.843	3
324.216	2.23
324.589	3.41
324.962	3.3
325.335	2.52
325.708	3.19
326.081	2.94
326.454	2.9
326.827	2.74
327.2	3.16
327.573	2.97
327.945	2.53
328.318	3.1
328.691	3.01
329.063	2.78
329.436	2.62
329.809	2.8
330.181	2.92
330.553	2.88
330.926	2.89
331.298	2.58
331.671	3.1
332.043	2.69
332.415	3.1
332.787	3.42
333.159	2.64
333.532	3.17
333.904	2.98
334.276	2.76
334.648	2.93
335.02	2.54
335.391	3.02
335.763	2.58
336.135	2.75
336.507	3.26
336.879	3.23
337.25	2.53
337.622	3.41
337.993	3.23
338.365	3.18
338.736	2.55
339.108	2.6
339.479	3.12
339.851	3.48
340.222	2.98
340.593	2.44
340.964	2.57
341.336	2.59
341.707	2.73
342.078	2.45
342.449	3.37
342.82	2.59
343.191	3.01
343.562	3.21
343.933	3.09
344.303	3.05
344.674	2.99
345.045	3.01
345.416	2.96
345.786	2.82
346.157	2.86
346.527	2.79
346.898	2.76
347.268	2.67
347.639	3.02
348.009	3.24
348.38	3
348.75	3.51
349.12	3.03
349.49	2.96
349.861	3.6
350.231	2.62
350.601	2.95
350.971	2.69
351.341	2.98
351.711	2.66
352.081	3.18
352.45	3.14
352.82	3.25
353.19	3.03
353.56	3.05
353.929	3.28
354.299	2.77
354.669	3.14
355.038	2.92
355.408	3.39
355.777	2.74
356.147	3.56
356.516	3.54
356.885	3.32
357.254	3.29
357.624	3.03
357.993	3.08
358.362	3.1
358.731	3.13
359.1	3.36
359.469	3.08
359.838	3.12
360.207	3.09
360.576	3.25
360.945	3.18
361.314	3.13
361.682	2.78
362.051	3.12
362.42	3.51
362.788	2.98
363.157	2.9
363.525	3.07
363.894	2.92
364.262	3.1
364.631	3.84
364.999	2.89
365.367	3.4
365.735	2.77
366.104	3.29
366.472	3.01
366.84	3.17
367.208	3.03
367.576	3.34
367.944	3.45
368.312	2.86
368.68	3.43
369.048	3.15
369.416	2.98
369.783	3.09
370.151	3.42
370.519	2.85
370.886	3.35
371.254	3.25
371.621	3.35
371.989	3.36
372.356	2.99
372.724	3.51
373.091	3.07
373.458	3.16
373.826	3.11
374.193	3.5
374.56	2.96
374.927	3.05
375.294	3.63
375.661	3.4
376.028	3.25
376.395	2.99
376.762	3.54
377.129	3.44
377.496	3.24
377.863	3.43
378.229	3.33
378.596	3.13
378.963	3.02
379.329	3.21
379.696	3.14
380.062	3.59
380.429	3.54
380.795	3.12
381.161	3.2
381.528	2.81
381.894	3.39
382.26	3.15
382.626	3.17
382.993	3
383.359	3.06
383.725	3.34
384.091	3.07
384.457	3.31
384.823	3.23
385.188	3.49
385.554	3.57
385.92	3.49
386.286	3.67
386.651	3.42
387.017	3.59
387.383	3.53
387.748	2.94
388.114	3.42
388.479	3.09
388.845	3.29
389.21	3.39
389.575	3.4
389.94	3.28
390.306	3.35
390.671	3.37
391.036	3.64
391.401	3.75
391.766	3.54
392.131	3.3
392.496	3.42
392.861	3.32
393.226	3.34
393.591	3.61
393.956	3.64
394.32	3.4
394.685	3.45
395.05	3.38
395.414	3.4
395.779	3.41
396.143	3.36
396.508	3.46
396.872	3.58
397.236	2.98
397.601	3.74
397.965	3.19
398.329	3.45
398.694	3.44
399.058	3.57
399.422	3.3
399.786	3.45
400.15	3.61
400.514	3.47
400.878	3.41
401.242	3.36
401.605	3.46
401.969	3.55
402.333	3.72
402.697	3.56
403.06	3.52
403.424	3.29
403.787	3.45
404.151	3.4
404.514	3.78
404.878	3.56
405.241	3.51
405.604	3.63
405.968	3.54
406.331	3.51
406.694	3.43
407.057	3.61
407.42	3.65
407.783	3.65
408.146	3.43
408.509	3.4
408.872	3.56
409.235	3.66
409.598	3.57
409.961	3.66
410.323	3.51
410.686	3.33
411.049	3.32
411.411	3.62
411.774	3.63
412.136	3.63
412.499	3.6
412.861	3.27
413.223	3.67
413.586	3.64
413.948	3.67
414.31	3.64
414.672	3.67
415.035	3.78
415.397	3.52
415.759	3.43
416.121	3.87
416.483	3.72
416.845	3.64
417.206	3.55
417.568	3.68
417.93	3.61
418.292	3.65
418.653	3.59
419.015	3.67
419.377	3.71
419.738	3.57
420.1	3.64
420.461	3.55
420.822	3.58
421.184	3.67
421.545	3.64
421.906	3.68
422.267	3.51
422.629	3.6
422.99	3.61
423.351	3.63
423.712	3.54
424.073	3.65
424.434	3.62
424.795	3.61
425.155	3.6
425.516	3.58
425.877	3.64
426.238	3.6
426.598	3.72
426.959	3.55
427.32	3.64
427.68	3.78
428.041	3.71
428.401	3.64
428.761	3.69
429.122	3.5
429.482	3.48
429.842	3.84
430.202	3.76
430.563	3.78
430.923	3.52
431.283	3.66
431.643	3.74
432.003	3.96
432.363	3.73
432.722	3.6
433.082	3.46
433.442	3.71
433.802	3.64
434.161	3.64
434.521	3.74
434.881	3.87
435.24	3.78
435.6	3.73
435.959	3.71
436.319	3.6
436.678	3.78
437.037	3.73
437.396	3.85
437.756	3.81
438.115	3.77
438.474	3.83
438.833	3.82
439.192	4.11
439.551	3.85
439.91	3.91
440.269	3.9
440.628	3.73
440.987	3.77
441.345	3.69
441.704	3.88
442.063	3.75
442.421	3.81
442.78	3.82
443.138	3.77
443.497	3.75
443.855	3.73
444.214	3.85
444.572	3.64
444.93	3.93
445.288	3.92
445.647	3.94
446.005	3.71
446.363	3.95
446.721	3.78
447.079	3.81
447.437	3.79
447.795	3.78
448.153	3.81
448.51	3.8
448.868	3.88
449.226	3.89
449.584	3.81
449.941	3.95
450.299	3.84
450.656	3.97
451.014	3.78
451.371	4
451.729	3.95
452.086	3.87
452.443	3.82
452.801	3.86
453.158	3.86
453.515	3.79
453.872	3.96
454.229	3.81
454.586	3.95
454.943	3.87
455.3	4.08
455.657	3.7
456.014	3.88
456.371	3.93
456.727	3.91
457.084	3.84
457.441	3.87
457.797	3.97
458.154	3.98
458.51	4.03
458.867	3.74
459.223	3.96
459.58	3.85
459.936	4
460.292	4
460.648	3.84
461.005	3.94
461.361	3.91
461.717	3.95
462.073	4
462.429	4.05
462.785	4
463.141	4.05
463.496	4.02
463.852	4.04
464.208	3.92
464.564	3.99
464.919	3.94
465.275	4.15
465.631	3.95
465.986	3.91
466.342	3.98
466.697	4.04
467.052	4.02
467.408	3.98
467.763	3.87
468.118	4.12
468.473	4.14
468.829	3.98
469.184	4.06
469.539	4.07
469.894	4.09
470.249	4.13
470.603	4.02
470.958	4.21
471.313	4.04
471.668	4.17
472.023	4.23
472.377	4.14
472.732	4.01
473.086	3.92
473.441	4.16
473.795	4.42
474.15	4.25
474.504	4.09
474.859	4.19
475.213	4.02
475.567	4.08
475.921	4.25
476.275	4.32
476.63	4.06
476.984	4.21
477.338	4.29
477.692	4.1
478.045	4.11
478.399	4.16
478.753	4.04
479.107	4.1
479.461	4.3
479.814	4.02
480.168	4.08
480.521	4.11
480.875	4.39
481.228	4.23
481.582	4.12
481.935	4.25
482.289	4.04
482.642	4.16
482.995	4.09
483.348	4.14
483.701	4.13
484.055	4.13
484.408	4.12
484.761	3.88
485.114	3.9
485.466	3.91
485.819	3.96
486.172	4
486.525	4.12
486.878	4.09
487.23	4.23
487.583	4.11
487.936	4.16
488.288	4.09
488.641	4.19
488.993	4.05
489.345	4.09
489.698	4.13
490.05	4.11
490.402	4.2
490.754	4.2
491.107	4.2
491.459	4.25
491.811	4.33
492.163	4.21
492.515	4.19
492.866	4.03
493.218	4.12
493.57	4.21
493.922	4.17
494.274	4.36
494.625	4.3
494.977	4.29
495.328	4.45
495.68	4.51
496.031	4.5
496.383	4.37
496.734	4.53
497.086	4.29
497.437	4.45
497.788	4.34
498.139	4.39
498.49	4.43
498.842	4.27
499.193	4.33
499.544	4.5
499.894	4.43
500.245	4.4
500.596	4.31
500.947	4.38
501.298	4.41
501.648	4.42
501.999	4.55
502.35	4.49
502.7	4.52
503.051	4.58
503.401	4.42
503.752	4.46
504.102	4.47
504.452	4.32
504.803	4.47
505.153	4.53
505.503	4.45
505.853	4.5
506.203	4.6
506.553	4.56
506.903	4.52
507.253	4.44
507.603	4.55
507.953	4.71
508.303	4.48
508.652	4.6
509.002	4.63
509.352	4.59
509.701	4.55
510.051	4.58
510.4	4.6
510.75	4.56
511.099	4.57
511.449	4.58
511.798	4.77
512.147	4.57
512.496	4.71
512.846	4.57
513.195	4.65
513.544	4.6
513.893	4.54
514.242	4.71
514.591	4.65
514.939	4.63
515.288	4.73
515.637	4.69
515.986	4.67
516.334	4.7
516.683	4.73
517.032	4.79
517.38	4.78
517.729	4.77
518.077	4.88
518.426	4.63
518.774	4.74
519.122	4.67
519.47	4.67
519.819	4.66
520.167	4.73
520.515	4.68
520.863	4.64
521.211	4.84
521.559	4.7
521.907	4.72
522.255	4.86
522.602	4.93
522.95	4.94
523.298	4.92
523.645	4.77
523.993	4.89
524.341	4.92
524.688	4.89
525.036	5.03
525.383	4.93
525.73	4.98
526.078	5.03
526.425	4.94
526.772	4.68
527.119	4.73
527.466	4.89
527.814	4.81
528.161	4.93
528.508	4.89
528.854	4.82
529.201	4.82
529.548	4.81
529.895	4.69
530.242	4.71
530.588	4.79
530.935	4.83
531.282	4.89
531.628	4.99
531.975	4.96
532.321	5
532.667	5.02
533.014	5.06
533.36	4.98
533.706	5.1
534.052	4.96
534.399	4.91
534.745	4.9
535.091	4.98
535.437	5
535.783	5.14
536.129	5.07
536.474	5.19
536.82	5.09
537.166	5.16
537.512	5.18
537.857	5.09
538.203	5.06
538.549	5.2
538.894	5.13
539.239	5.25
539.585	5.37
539.93	5.27
540.276	5.22
540.621	5.27
540.966	5.4
541.311	5.32
541.656	5.22
542.001	5.29
542.346	5.2
542.691	5.12
543.036	5.15
543.381	5.18
543.726	5.25
544.071	5.32
544.415	5.37
544.76	5.29
545.105	5.4
545.449	5.36
545.794	5.45
546.138	5.46
546.483	5.44
546.827	5.46
547.171	5.43
547.516	5.58
547.86	5.51
548.204	5.36
548.548	5.48
548.892	5.6
549.236	5.65
549.58	5.47
549.924	5.59
550.268	5.67
550.612	5.83
550.956	5.78
551.3	5.7
551.643	5.69
551.987	5.59
552.33	5.79
552.674	5.79
553.017	5.76
553.361	5.67
553.704	5.75
554.048	5.82
554.391	5.74
554.734	5.79
555.077	5.95
555.42	5.78
555.764	5.95
556.107	6.02
556.45	5.75
556.793	6.09
557.135	6.1
557.478	6.18
557.821	5.98
558.164	6.06
558.507	5.87
558.849	5.99
559.192	5.92
559.534	5.97
559.877	6
560.219	6.19
560.562	6.25
560.904	6.16
561.246	6.23
561.589	6.2
561.931	6.16
562.273	6.1
562.615	6.17
562.957	6.29
563.299	6.29
563.641	6.42
563.983	6.21
564.325	6.15
564.667	6.16
565.008	6.18
565.35	6.38
565.692	6.47
566.033	6.44
566.375	6.09
566.716	6.44
567.058	6.52
567.399	6.39
567.741	6.37
568.082	6.35
568.423	6.56
568.764	6.43
569.105	6.56
569.447	6.42
569.788	6.66
570.129	6.47
570.47	6.66
570.811	6.57
571.151	6.59
571.492	6.61
571.833	6.69
572.174	6.72
572.514	6.79
572.855	6.7
573.195	6.6
573.536	6.64
573.876	6.67
574.217	6.68
574.557	6.66
574.898	6.74
575.238	6.69
575.578	7.01
575.918	6.91
576.258	6.88
576.598	6.97
576.938	7.05
577.278	6.83
577.618	6.79
577.958	6.87
578.298	7.09
578.638	7.05
578.977	6.87
579.317	7.13
579.657	7.08
579.996	7.04
580.336	7.1
580.675	7.19
581.014	7.14
581.354	7.31
581.693	7.06
582.032	7.05
582.372	7.41
582.711	7.34
583.05	7.38
583.389	7.54
583.728	7.49
584.067	7.28
584.406	7.36
584.745	7.44
585.083	7.53
585.422	7.28
585.761	7.64
586.1	7.64
586.438	7.7
586.777	7.32
587.115	7.54
587.454	7.56
587.792	7.55
588.13	8.07
588.469	7.79
588.807	7.92
589.145	7.8
589.483	7.77
589.821	7.81
590.159	7.57
590.497	7.36
590.835	7.75
591.173	7.83
591.511	7.84
591.849	7.9
592.187	7.83
592.524	7.87
592.862	8.01
593.2	7.81
593.537	7.85
593.875	7.96
594.212	7.93
594.55	7.89
594.887	8.15
595.224	8.04
595.561	7.91
595.899	8
596.236	8.2
596.573	7.98
596.91	8.07
597.247	8.27
597.584	8.13
597.921	8.19
598.258	8.09
598.594	7.93
598.931	8.2
599.268	8.36
599.604	8.51
599.941	8.44
600.277	8.39
600.614	8.55
600.95	8.38
601.287	8.47
601.623	8.55
601.959	8.51
602.296	8.5
602.632	8.82
602.968	8.55
603.304	8.51
603.64	8.45
603.976	8.69
604.312	8.87
604.648	8.7
604.984	8.58
605.319	8.68
605.655	8.64
605.991	8.57
606.326	8.63
606.662	8.5
606.998	8.88
607.333	8.74
607.668	9.06
608.004	8.91
608.339	8.64
608.674	8.73
609.01	9.15
609.345	9.08
609.68	8.94
610.015	8.91
610.35	8.98
610.685	9.04
611.02	9.39
611.355	9.25
611.689	8.92
612.024	9.46
612.359	9.54
612.694	9.38
613.028	9.42
613.363	9.38
613.697	9.2
614.032	9.7
614.366	9.42
614.7	9.78
615.035	9.5
615.369	9.52
615.703	9.71
616.037	9.44
616.371	9.63
616.705	9.55
617.039	10.07
617.373	9.59
617.707	9.45
618.041	9.82
618.375	9.67
618.709	9.53
619.042	9.77
619.376	9.42
619.71	9.75
620.043	9.83
620.377	10.07
620.71	9.82
621.043	9.55
621.377	10
621.71	9.59
622.043	10.02
622.376	10.14
622.709	10.24
623.043	9.91
623.376	10.27
623.709	10.25
624.041	10.15
624.374	9.96
624.707	9.73
625.04	10.49
625.373	10.12
625.705	10.27
626.038	10.49
626.37	10.11
626.703	10.16
627.035	10.64
627.368	10.45
627.7	10.38
628.032	10.25
628.365	10.2
628.697	10.28
629.029	10.65
629.361	10.39
629.693	10.87
630.025	10.85
630.357	10.69
630.689	10.9
631.021	10.67
631.353	10.76
631.684	10.81
632.016	10.56
632.348	10.9
632.679	10.62
633.011	10.62
633.342	10.61
633.674	11.02
634.005	10.74
634.336	11.07
634.668	10.86
634.999	10.91
635.33	10.95
635.661	10.98
635.992	11.19
636.323	11.29
636.654	11.16
636.985	10.88
637.316	11.27
637.647	11.47
637.977	11.04
638.308	11.43
638.639	11.05
638.969	11.29
639.3	11.52
639.63	11.16
639.961	11.4
640.291	11.8
640.622	11.64
640.952	11.29
641.282	11.3
641.612	11.52
641.943	11.84
642.273	11.73
642.603	11.3
642.933	12.06
643.263	11.78
643.592	11.73
643.922	12.27
644.252	11.93
644.582	11.71
644.911	11.48
645.241	11.3
645.571	11.64
645.9	12.09
646.23	11.56
646.559	11.97
646.888	11.62
647.218	11.89
647.547	12.72
647.876	12.26
648.205	11.88
648.534	11.81
648.863	12.36
649.192	12.05
649.521	11.76
649.85	12.57
650.179	12.01
650.508	12.63
650.837	12.58
651.165	12.48
651.494	12.45
651.822	12.61
652.151	13.03
652.479	13.05
652.808	12.5
653.136	12.39
653.465	12.61
653.793	12.76
654.121	12.86
654.449	12.31
654.777	12.35
655.105	13.07
655.433	13.07
655.761	12.61
656.089	13.1
656.417	12.55
656.745	13.29
657.073	13.46
657.4	13.73
657.728	13.37
658.056	12.96
658.383	13.29
658.711	12.61
659.038	13.26
659.365	13.5
659.693	13.43
660.02	13.08
660.347	12.97
660.674	13
661.001	12.77
661.329	13.19
661.656	13.07
661.982	13.46
662.309	13.03
662.636	13.58
662.963	13.56
663.29	13.05
663.616	13.63
663.943	13.98
664.27	13.69
664.596	13.3
664.923	14.09
665.249	13.52
665.576	13.69
665.902	14.3
666.228	13.58
666.554	13.71
666.881	13.94
667.207	13.87
667.533	14.47
667.859	13.82
668.185	14.35
668.511	13.27
668.837	13.73
669.162	13.74
669.488	13.83
669.814	13.74
670.139	14.92
670.465	13.94
670.791	14.31
671.116	14.2
671.442	14.34
671.767	14.3
672.092	14.48
672.418	14.68
672.743	14.09
673.068	14
673.393	14.3
673.718	13.9
674.043	14.53
674.368	14.86
674.693	14.64
675.018	14.33
675.343	14.7
675.667	15.39
675.992	14.43
676.317	14.61
676.641	14.5
676.966	15.16
677.29	14.75
677.615	14.7
677.939	15.28
678.264	14.62
678.588	14.9
678.912	15.22
679.236	15.46
679.56	15.08
679.885	14.76
680.209	14.34
680.532	15.06
680.856	15.31
681.18	14.71
681.504	15.28
681.828	14.27
682.152	15.58
682.475	15.33
682.799	15.1
683.122	15.28
683.446	15.08
683.769	15.53
684.093	15.74
684.416	14.78
684.739	15.6
685.062	15.01
685.386	16.07
685.709	15.28
686.032	15.1
686.355	15.58
686.678	15.29
687.001	15.36
687.324	15.18
687.646	15.81
687.969	16.02
