Data from 0073_forehead_Reflection__3__342.txt Node

Date: Fri Dec 16 16:46:55 CST 2022
User: ToomeyLab
Spectrometer: FLMS14357
Trigger mode: 0
Integration Time (sec): 1.000000E-2
Scans to average: 100
Electric dark correction enabled: true
Nonlinearity correction enabled: false
Boxcar width: 0
XAxis mode: Wavelengths
Number of Pixels in Spectrum: 2048
>>>>>Begin Spectral Data<<<<<
189.047	247.87
189.435	247.87
189.823	247.87
190.211	238.07
190.599	-488.36
190.987	-168.77
191.375	-176.04
191.763	84.88
192.151	59.26
192.538	203.23
192.926	956.77
193.314	71.12
193.702	12.3
194.089	-79.85
194.477	-210.86
194.864	-9.69
195.252	-96.89
195.639	125.65
196.027	-754.24
196.414	20.65
196.801	-8.77
197.189	131.14
197.576	337.1
197.963	96.27
198.351	-60.53
198.738	325.55
199.125	3.74
199.512	-1.51
199.899	-66.85
200.286	-89.31
200.673	11.58
201.06	17.91
201.447	30.61
201.833	-40.08
202.22	3.09
202.607	-70.16
202.994	-26.9
203.38	-44.99
203.767	-61.97
204.154	-40.27
204.54	10.52
204.927	-33.56
205.313	10.06
205.699	-34.32
206.086	-3.9
206.472	-44.61
206.858	-1.42
207.245	14.95
207.631	-16.48
208.017	11.45
208.403	-4.98
208.789	16.13
209.175	29.42
209.561	-17.69
209.947	-27.73
210.333	-47.57
210.719	-32.64
211.105	-95.59
211.491	-6.07
211.876	-30.66
212.262	-51.9
212.648	-94.28
213.034	8.16
213.419	16.1
213.805	13.04
214.19	-14.86
214.576	0.43
214.961	-32.83
215.346	-50.37
215.732	-62.64
216.117	-10.44
216.502	-16.83
216.888	-36.07
217.273	30.68
217.658	-42.3
218.043	0.58
218.428	-10.07
218.813	-21.79
219.198	-60.2
219.583	-17.41
219.968	-15.43
220.353	16.43
220.738	-24.49
221.122	-13.63
221.507	-27.89
221.892	4.06
222.276	9.38
222.661	-20.37
223.046	-7.28
223.43	11.31
223.815	3.5
224.199	-5.62
224.583	-0.02
224.968	8.36
225.352	-1
225.736	6.12
226.121	-0.63
226.505	4.52
226.889	8.62
227.273	4.58
227.657	2.99
228.041	3.14
228.425	4.02
228.809	3.55
229.193	3.85
229.577	3.64
229.961	4.84
230.344	4.72
230.728	4.18
231.112	3.96
231.495	2.72
231.879	4.15
232.263	3.06
232.646	1.82
233.03	1.78
233.413	3.88
233.797	3.47
234.18	1.93
234.563	0.45
234.946	3.54
235.33	4.97
235.713	3.69
236.096	3.13
236.479	3.75
236.862	3.07
237.245	4.11
237.628	4.37
238.011	3.12
238.394	5.03
238.777	3.5
239.16	0.77
239.543	3.2
239.925	4.42
240.308	3.64
240.691	2.26
241.073	4.21
241.456	3.22
241.838	3.39
242.221	3.9
242.603	3.84
242.986	4.76
243.368	4.37
243.75	3.57
244.133	3.92
244.515	3.9
244.897	3.16
245.279	3.44
245.661	3.46
246.043	3.78
246.425	3.55
246.807	4.14
247.189	3.11
247.571	4.31
247.953	4.13
248.335	4.36
248.717	4.08
249.098	3.92
249.48	4.07
249.862	3.77
250.243	4.01
250.625	4.05
251.006	4.07
251.388	4.38
251.769	3.63
252.151	3.82
252.532	3.56
252.913	4.15
253.295	4.14
253.676	4.07
254.057	3.56
254.438	3.37
254.819	3.95
255.2	3.33
255.581	3.79
255.962	3.6
256.343	4.88
256.724	3.41
257.105	3.92
257.486	3.06
257.867	2.35
258.247	3.25
258.628	4.68
259.009	3.44
259.389	4.55
259.77	4.17
260.15	4.37
260.531	4.28
260.911	4.24
261.292	3.96
261.672	3.94
262.052	3.99
262.432	3.89
262.813	3.99
263.193	3.75
263.573	3.38
263.953	3.8
264.333	3.74
264.713	3.67
265.093	3.47
265.473	4.8
265.853	3.96
266.233	4.02
266.612	3.95
266.992	3.82
267.372	3.87
267.752	3.84
268.131	3.19
268.511	3.78
268.89	4.36
269.27	3.92
269.649	3.83
270.029	3.45
270.408	3.73
270.787	3.81
271.167	3.97
271.546	2.93
271.925	3.72
272.304	3.97
272.683	3.77
273.062	4.01
273.441	3.98
273.82	4.11
274.199	4.26
274.578	3.33
274.957	3.42
275.336	3.51
275.715	3.72
276.093	4.16
276.472	3.74
276.851	4.38
277.229	4.2
277.608	3.88
277.986	3.3
278.365	3.65
278.743	3.96
279.122	3.02
279.5	3.65
279.878	2.53
280.257	3.92
280.635	3.58
281.013	4.05
281.391	3.35
281.769	3.58
282.147	3.33
282.525	3.83
282.903	3.88
283.281	3.52
283.659	4.23
284.037	3.45
284.415	3.92
284.792	3.83
285.17	3.42
285.548	3.93
285.925	3.84
286.303	3.68
286.68	3.84
287.058	3.79
287.435	3.45
287.813	4.07
288.19	4.22
288.567	3.75
288.945	3.98
289.322	3.48
289.699	3.88
290.076	4.06
290.453	3.73
290.83	4.17
291.207	3.85
291.584	3.95
291.961	4.18
292.338	4.51
292.715	4.27
293.092	4.18
293.469	4.47
293.845	4.34
294.222	3.78
294.599	4.74
294.975	4.27
295.352	4.01
295.728	4.28
296.105	4.38
296.481	4.65
296.858	4.49
297.234	4.38
297.61	4.24
297.986	4.51
298.363	4.21
298.739	4.5
299.115	4.14
299.491	4.4
299.867	4.58
300.243	4.33
300.619	3.98
300.995	4.48
301.371	4.51
301.746	4.49
302.122	4.75
302.498	4.84
302.874	4.78
303.249	4.89
303.625	4.67
304	4.52
304.376	4.99
304.751	5.28
305.127	4.56
305.502	4.95
305.878	4.38
306.253	4.5
306.628	4.86
307.003	4.83
307.378	4.38
307.754	5.35
308.129	4.42
308.504	5.09
308.879	5.17
309.254	5.62
309.629	5
310.003	5.12
310.378	5.42
310.753	5.38
311.128	4.73
311.502	5.12
311.877	5.46
312.252	5.31
312.626	4.96
313.001	5.31
313.375	5.51
313.75	5.13
314.124	5.94
314.498	5.09
314.873	5.22
315.247	5.3
315.621	5.53
315.995	5.4
316.369	5.26
316.743	5.88
317.117	5.83
317.491	5.65
317.865	5.09
318.239	5.95
318.613	5.9
318.987	5.8
319.361	5.79
319.734	6.31
320.108	5.93
320.482	5.82
320.855	5.22
321.229	5.84
321.602	5.57
321.976	5.85
322.349	5.25
322.723	5.17
323.096	6.19
323.469	5.63
323.843	6.29
324.216	5.9
324.589	6.66
324.962	6.58
325.335	6.17
325.708	6.33
326.081	6.41
326.454	6.04
326.827	6.12
327.2	6.54
327.573	6.31
327.945	5.97
328.318	6.43
328.691	5.93
329.063	5.96
329.436	6.21
329.809	6.42
330.181	6.22
330.553	6.61
330.926	6.52
331.298	6.37
331.671	6.44
332.043	6.53
332.415	6.42
332.787	7.14
333.159	6.45
333.532	6.66
333.904	6.49
334.276	6.51
334.648	6.97
335.02	6.83
335.391	6.88
335.763	6.84
336.135	7.2
336.507	7.07
336.879	7.05
337.25	6.92
337.622	7.09
337.993	6.84
338.365	7.1
338.736	7.09
339.108	6.9
339.479	6.97
339.851	7.24
340.222	7.41
340.593	7.15
340.964	7.35
341.336	6.76
341.707	7.09
342.078	7.32
342.449	7.14
342.82	7.2
343.191	6.54
343.562	7.56
343.933	7.46
344.303	7.68
344.674	7.34
345.045	8.03
345.416	7.23
345.786	7.26
346.157	7.47
346.527	7.17
346.898	7.24
347.268	7.59
347.639	7.38
348.009	7.83
348.38	7.5
348.75	7.5
349.12	7.21
349.49	7.4
349.861	7.74
350.231	7.9
350.601	7.83
350.971	7.69
351.341	7.97
351.711	7.78
352.081	8.1
352.45	8.13
352.82	8.23
353.19	7.92
353.56	8.07
353.929	8.19
354.299	7.99
354.669	8.18
355.038	8.26
355.408	8.4
355.777	8.36
356.147	8.09
356.516	8.77
356.885	8.11
357.254	8.12
357.624	8.5
357.993	8.45
358.362	8.91
358.731	8.4
359.1	8.75
359.469	8.41
359.838	8.62
360.207	8.38
360.576	8.47
360.945	8.82
361.314	8.83
361.682	8.73
362.051	8.66
362.42	8.97
362.788	8.94
363.157	8.7
363.525	8.75
363.894	8.61
364.262	8.67
364.631	9.53
364.999	8.78
365.367	9.06
365.735	8.7
366.104	8.71
366.472	9.37
366.84	9.35
367.208	8.81
367.576	8.91
367.944	9.36
368.312	8.73
368.68	9.25
369.048	9.72
369.416	9.06
369.783	9.41
370.151	9.28
370.519	9.24
370.886	9.87
371.254	9.57
371.621	9.84
371.989	9.7
372.356	9.39
372.724	9.67
373.091	9.57
373.458	9.57
373.826	9.5
374.193	10.12
374.56	9.48
374.927	9.46
375.294	10.47
375.661	9.77
376.028	9.89
376.395	9.71
376.762	10.22
377.129	10.37
377.496	9.89
377.863	10.04
378.229	10.13
378.596	10.27
378.963	9.91
379.329	10.1
379.696	10.32
380.062	10.34
380.429	10.48
380.795	10.33
381.161	10.42
381.528	9.65
381.894	10.63
382.26	10.54
382.626	10.52
382.993	10.29
383.359	10.42
383.725	10.66
384.091	10.67
384.457	10.98
384.823	10.52
385.188	10.67
385.554	10.84
385.92	11.09
386.286	10.73
386.651	10.85
387.017	11.06
387.383	10.78
387.748	10.8
388.114	10.94
388.479	10.93
388.845	11.32
389.21	11.22
389.575	11.35
389.94	11
390.306	11.45
390.671	11.05
391.036	11.24
391.401	11.6
391.766	11.41
392.131	11.36
392.496	11.5
392.861	11.46
393.226	11.49
393.591	11.67
393.956	11.62
394.32	11.62
394.685	11.69
395.05	11.49
395.414	11.82
395.779	11.56
396.143	11.59
396.508	11.99
396.872	11.66
397.236	11.5
397.601	11.92
397.965	11.77
398.329	12.25
398.694	12.06
399.058	12
399.422	12.1
399.786	12.05
400.15	12.16
400.514	12.32
400.878	12.2
401.242	12.37
401.605	12.35
401.969	12.25
402.333	12.33
402.697	12.47
403.06	12.77
403.424	12.46
403.787	12.55
404.151	12.5
404.514	12.73
404.878	12.75
405.241	12.57
405.604	12.72
405.968	12.63
406.331	12.72
406.694	12.62
407.057	12.94
407.42	12.76
407.783	12.72
408.146	12.89
408.509	12.62
408.872	12.96
409.235	13.14
409.598	13.2
409.961	13.15
410.323	13.3
410.686	13.18
411.049	12.95
411.411	13.43
411.774	13.36
412.136	13.08
412.499	13.22
412.861	13.25
413.223	13.54
413.586	13.28
413.948	13.54
414.31	13.67
414.672	13.5
415.035	13.58
415.397	13.7
415.759	13.58
416.121	13.93
416.483	13.96
416.845	13.87
417.206	13.83
417.568	13.9
417.93	13.68
418.292	13.85
418.653	13.77
419.015	13.95
419.377	13.85
419.738	13.8
420.1	13.89
420.461	13.89
420.822	13.83
421.184	13.96
421.545	13.96
421.906	13.96
422.267	14.06
422.629	13.94
422.99	13.98
423.351	14.1
423.712	14.11
424.073	14.2
424.434	14.15
424.795	14.26
425.155	14.44
425.516	14.3
425.877	14.41
426.238	14.34
426.598	14.46
426.959	14.39
427.32	14.53
427.68	14.7
428.041	14.67
428.401	14.64
428.761	14.75
429.122	14.66
429.482	14.95
429.842	14.99
430.202	14.89
430.563	14.93
430.923	15.12
431.283	15.21
431.643	14.97
432.003	15.19
432.363	15.32
432.722	15.14
433.082	15.19
433.442	15.39
433.802	15.18
434.161	15.31
434.521	15.55
434.881	15.36
435.24	15.37
435.6	15.5
435.959	15.43
436.319	15.48
436.678	15.52
437.037	15.57
437.396	15.75
437.756	15.79
438.115	15.93
438.474	16.09
438.833	16.01
439.192	16.06
439.551	15.86
439.91	15.9
440.269	16.07
440.628	15.92
440.987	16.02
441.345	16.09
441.704	16.11
442.063	16.07
442.421	16.11
442.78	16.03
443.138	16.11
443.497	16.17
443.855	16.26
444.214	16.46
444.572	16.48
444.93	16.47
445.288	16.6
445.647	16.61
446.005	16.39
446.363	16.55
446.721	16.48
447.079	16.69
447.437	16.63
447.795	16.66
448.153	16.58
448.51	16.49
448.868	16.59
449.226	16.83
449.584	16.72
449.941	16.88
450.299	16.83
450.656	17.06
451.014	17
451.371	16.98
451.729	17.05
452.086	17.01
452.443	17.13
452.801	17.42
453.158	17.25
453.515	17.31
453.872	17.42
454.229	17.32
454.586	17.29
454.943	17.43
455.3	17.71
455.657	17.47
456.014	17.74
456.371	17.68
456.727	17.72
457.084	17.79
457.441	17.76
457.797	17.99
458.154	18.02
458.51	17.95
458.867	18
459.223	18.12
459.58	17.99
459.936	18.09
460.292	18.12
460.648	18.03
461.005	17.98
461.361	17.92
461.717	17.86
462.073	17.95
462.429	18.18
462.785	18.27
463.141	18.46
463.496	18.24
463.852	18.55
464.208	18.6
464.564	18.37
464.919	18.72
465.275	18.6
465.631	18.8
465.986	18.74
466.342	18.74
466.697	18.72
467.052	18.86
467.408	19.1
467.763	18.95
468.118	19.21
468.473	19.16
468.829	19.05
469.184	19.28
469.539	19.01
469.894	19.31
470.249	19.56
470.603	19.51
470.958	19.58
471.313	19.33
471.668	19.54
472.023	19.81
472.377	19.45
472.732	19.48
473.086	19.49
473.441	19.67
473.795	19.82
474.15	19.76
474.504	19.77
474.859	19.82
475.213	19.88
475.567	19.93
475.921	20.01
476.275	20.12
476.63	20.22
476.984	20.05
477.338	20.19
477.692	20.17
478.045	20.1
478.399	20.36
478.753	20.08
479.107	20.13
479.461	20.32
479.814	20.13
480.168	20.31
480.521	20.14
480.875	20.73
481.228	20.51
481.582	20.6
481.935	20.47
482.289	20.48
482.642	20.61
482.995	20.53
483.348	20.4
483.701	20.47
484.055	20.37
484.408	20.32
484.761	20.13
485.114	20.06
485.466	19.96
485.819	19.85
486.172	19.9
486.525	19.91
486.878	20.09
487.23	20.38
487.583	20.54
487.936	20.63
488.288	20.56
488.641	20.55
488.993	20.35
489.345	20.5
489.698	20.46
490.05	20.52
490.402	20.65
490.754	20.83
491.107	20.96
491.459	21.18
491.811	21.39
492.163	21.46
492.515	21.33
492.866	21.06
493.218	21.1
493.57	21.05
493.922	21.03
494.274	21.33
494.625	21.46
494.977	21.68
495.328	21.84
495.68	21.95
496.031	22.29
496.383	22.07
496.734	22.31
497.086	22.2
497.437	22.48
497.788	22.34
498.139	22.34
498.49	22.4
498.842	22.17
499.193	22.37
499.544	22.62
499.894	22.49
500.245	22.7
500.596	22.64
500.947	22.54
501.298	22.66
501.648	22.84
501.999	23.06
502.35	22.99
502.7	23.29
503.051	23.34
503.401	23.17
503.752	23.06
504.102	23.2
504.452	23.22
504.803	23.29
505.153	23.28
505.503	23.31
505.853	23.44
506.203	23.32
506.553	23.52
506.903	23.57
507.253	23.55
507.603	23.51
507.953	23.7
508.303	23.65
508.652	23.72
509.002	23.81
509.352	23.7
509.701	23.76
510.051	23.76
510.4	23.78
510.75	23.79
511.099	23.95
511.449	23.89
511.798	24.08
512.147	23.88
512.496	24.09
512.846	24.01
513.195	24.17
513.544	24.03
513.893	23.96
514.242	24.25
514.591	24.36
514.939	24.07
515.288	24.33
515.637	24.44
515.986	24.55
516.334	24.62
516.683	24.91
517.032	24.63
517.38	24.71
517.729	24.75
518.077	24.87
518.426	24.74
518.774	25.01
519.122	24.69
519.47	24.58
519.819	24.7
520.167	24.56
520.515	24.61
520.863	24.65
521.211	24.7
521.559	24.87
521.907	24.94
522.255	25.13
522.602	25.16
522.95	25.28
523.298	25.34
523.645	25.42
523.993	25.56
524.341	25.63
524.688	25.64
525.036	25.62
525.383	25.65
525.73	25.81
526.078	25.85
526.425	25.63
526.772	25.53
527.119	25.41
527.466	25.38
527.814	25.47
528.161	25.39
528.508	25.6
528.854	25.52
529.201	25.49
529.548	25.38
529.895	25.27
530.242	25.32
530.588	25.18
530.935	25.12
531.282	25.22
531.628	25.49
531.975	25.63
532.321	25.8
532.667	26.11
533.014	26.22
533.36	26.24
533.706	26.19
534.052	26.26
534.399	26.16
534.745	26
535.091	26.01
535.437	26.04
535.783	26.16
536.129	26.2
536.474	26.39
536.82	26.66
537.166	26.75
537.512	26.82
537.857	26.76
538.203	26.77
538.549	26.69
538.894	26.76
539.239	26.99
539.585	27.05
539.93	27.18
540.276	27.14
540.621	27.52
540.966	27.54
541.311	27.53
541.656	27.44
542.001	27.43
542.346	27.1
542.691	27
543.036	26.9
543.381	26.94
543.726	26.89
544.071	26.91
544.415	27.15
544.76	27.22
545.105	27.49
545.449	27.6
545.794	27.65
546.138	27.77
546.483	27.93
546.827	28.12
547.171	28.17
547.516	28.22
547.86	28.18
548.204	28.15
548.548	28.43
548.892	28.21
549.236	28.4
549.58	28.36
549.924	28.52
550.268	28.68
550.612	28.8
550.956	28.64
551.3	28.97
551.643	28.99
551.987	29.13
552.33	29.17
552.674	29.35
553.017	29.32
553.361	29.43
553.704	29.39
554.048	29.38
554.391	29.34
554.734	29.37
555.077	29.41
555.42	29.32
555.764	29.45
556.107	29.72
556.45	29.68
556.793	29.87
557.135	30
557.478	29.97
557.821	29.86
558.164	29.91
558.507	29.7
558.849	30.1
559.192	30.1
559.534	30.21
559.877	30
560.219	30.2
560.562	30.29
560.904	30.45
561.246	30.33
561.589	30.38
561.931	30.5
562.273	30.43
562.615	30.24
562.957	30.71
563.299	30.76
563.641	30.56
563.983	30.63
564.325	30.59
564.667	30.78
565.008	30.65
565.35	30.84
565.692	31.07
566.033	31.03
566.375	30.97
566.716	30.85
567.058	30.77
567.399	30.99
567.741	30.84
568.082	30.8
568.423	30.77
568.764	30.97
569.105	31.05
569.447	31.13
569.788	31.2
570.129	31.09
570.47	31.37
570.811	31.37
571.151	31.47
571.492	31.64
571.833	31.61
572.174	31.41
572.514	31.55
572.855	31.64
573.195	31.51
573.536	31.67
573.876	31.31
574.217	31.49
574.557	31.78
574.898	31.49
575.238	31.67
575.578	32.01
575.918	31.77
576.258	32.02
576.598	32.03
576.938	32.14
577.278	32.01
577.618	32.04
577.958	32.07
578.298	32.47
578.638	32.11
578.977	32.65
579.317	32.18
579.657	32.62
579.996	32.62
580.336	32.66
580.675	32.88
581.014	32.68
581.354	33.03
581.693	32.45
582.032	32.86
582.372	33.07
582.711	32.94
583.05	33.23
583.389	33.23
583.728	33.1
584.067	32.94
584.406	33.26
584.745	33.14
585.083	33.31
585.422	33.33
585.761	33.62
586.1	33.6
586.438	33.85
586.777	33.69
587.115	33.61
587.454	34
587.792	33.62
588.13	33.93
588.469	33.78
588.807	34.22
589.145	33.94
589.483	33.83
589.821	34.28
590.159	33.96
590.497	33.87
590.835	34.11
591.173	33.94
591.511	34.03
591.849	34.07
592.187	34.24
592.524	34.13
592.862	34.24
593.2	34.39
593.537	34.36
593.875	34.02
594.212	34.63
594.55	34.53
594.887	34.74
595.224	34.35
595.561	34.72
595.899	34.52
596.236	34.56
596.573	34.65
596.91	34.36
597.247	34.74
597.584	34.72
597.921	34.58
598.258	34.47
598.594	34.67
598.931	34.54
599.268	34.58
599.604	34.72
599.941	34.48
600.277	35.07
600.614	34.87
600.95	35.1
601.287	34.88
601.623	35.37
601.959	35.14
602.296	35.56
602.632	35.35
602.968	35.05
603.304	35.34
603.64	35.35
603.976	35.34
604.312	35.78
604.648	35.55
604.984	35.43
605.319	35.4
605.655	35.38
605.991	35.24
606.326	35.44
606.662	35.32
606.998	35.5
607.333	35.48
607.668	35.48
608.004	35.85
608.339	35.73
608.674	35.84
609.01	36.06
609.345	36.19
609.68	35.7
610.015	36.07
610.35	36.32
610.685	35.86
611.02	35.88
611.355	36.07
611.689	35.93
612.024	36.2
612.359	36.3
612.694	36.49
613.028	36.71
613.363	36.36
613.697	36.64
614.032	36.76
614.366	36.55
614.7	36.77
615.035	36.36
615.369	37.17
615.703	37.03
616.037	36.77
616.371	36.63
616.705	36.98
617.039	36.87
617.373	37.25
617.707	36.98
618.041	37.12
618.375	36.75
618.709	37.07
619.042	37.1
619.376	37.24
619.71	37.27
620.043	37.2
620.377	36.98
620.71	37.71
621.043	37.58
621.377	36.99
621.71	37.76
622.043	37.5
622.376	37.27
622.709	37.89
623.043	37.46
623.376	37.93
623.709	37.51
624.041	37.72
624.374	37.84
624.707	38.07
625.04	37.79
625.373	37.75
625.705	37.7
626.038	38.02
626.37	37.87
626.703	37.79
627.035	38.18
627.368	37.81
627.7	37.85
628.032	38.18
628.365	38.18
628.697	38.32
629.029	38.28
629.361	38.33
629.693	38.34
630.025	38.41
630.357	38.34
630.689	38.55
631.021	38.41
631.353	38.42
631.684	38.61
632.016	38.94
632.348	38.53
632.679	38.54
633.011	38.77
633.342	38.46
633.674	38.97
634.005	38.94
634.336	39.05
634.668	38.77
634.999	39.1
635.33	38.81
635.661	39.03
635.992	38.84
636.323	38.93
636.654	39.03
636.985	39.31
637.316	39.29
637.647	39.25
637.977	39.01
638.308	39.52
638.639	39
638.969	39.59
639.3	39.51
639.63	39.81
639.961	39.66
640.291	39.8
640.622	39.8
640.952	39.29
641.282	39.73
641.612	39.49
641.943	39.43
642.273	39.97
642.603	39.33
642.933	39.69
643.263	40.11
643.592	40.47
643.922	40.11
644.252	40.06
644.582	39.46
644.911	39.61
645.241	39.8
645.571	40.27
645.9	40.34
646.23	40.11
646.559	39.66
646.888	40.25
647.218	39.89
647.547	40.53
647.876	41.05
648.205	40
648.534	40.2
648.863	40.83
649.192	40.77
649.521	40.33
649.85	40.77
650.179	40.41
650.508	40.86
650.837	40.63
651.165	41.07
651.494	40.55
651.822	40.8
652.151	41.05
652.479	40.72
652.808	40.76
653.136	40.56
653.465	41.33
653.793	41.18
654.121	40.82
654.449	40.52
654.777	41.12
655.105	41.7
655.433	40.8
655.761	40.73
656.089	41.25
656.417	41.06
656.745	41.35
657.073	41.93
657.4	41.4
657.728	41.34
658.056	41.28
658.383	41.73
658.711	40.85
659.038	41.31
659.365	41.27
659.693	41.67
660.02	41.18
660.347	41.72
660.674	41.76
661.001	41.38
661.329	41.58
661.656	41.58
661.982	41.48
662.309	41.42
662.636	41.74
662.963	42.45
663.29	41.55
663.616	41.61
663.943	42.29
664.27	42.23
664.596	41.5
664.923	42.25
665.249	41.75
665.576	41.73
665.902	41.73
666.228	42.1
666.554	41.61
666.881	42.3
667.207	42.05
667.533	42.43
667.859	42.32
668.185	42.43
668.511	42.18
668.837	41.78
669.162	41.83
669.488	42.6
669.814	41.99
670.139	42.59
670.465	42.88
670.791	42.64
671.116	42.83
671.442	42.65
671.767	42.39
672.092	42.98
