Data from 0073_crown_Reflection__1__335.txt Node

Date: Fri Dec 16 16:45:16 CST 2022
User: ToomeyLab
Spectrometer: FLMS14357
Trigger mode: 0
Integration Time (sec): 1.000000E-2
Scans to average: 100
Electric dark correction enabled: true
Nonlinearity correction enabled: false
Boxcar width: 0
XAxis mode: Wavelengths
Number of Pixels in Spectrum: 2048
>>>>>Begin Spectral Data<<<<<
189.047	-485.78
189.435	-485.78
189.823	-485.78
190.211	491.88
190.599	216.4
190.987	495.8
191.375	-79.34
191.763	-20.83
192.151	-62.07
192.538	1681.94
192.926	1201.94
193.314	58.03
193.702	65.99
194.089	69.02
194.477	-4.37
194.864	-44.62
195.252	-44.27
195.639	79.33
196.027	1042.37
196.414	9.1
196.801	53.97
197.189	35.51
197.576	-286.35
197.963	96.97
198.351	21.53
198.738	422.47
199.125	36.66
199.512	-15.28
199.899	46.04
200.286	-14.83
200.673	11.1
201.06	-4.27
201.447	48.17
201.833	42.79
202.22	13.12
202.607	8.43
202.994	-19.37
203.38	-30.88
203.767	-26.18
204.154	-23.39
204.54	2.75
204.927	8.16
205.313	35.66
205.699	35.22
206.086	-31.07
206.472	-24.62
206.858	-21.95
207.245	24.74
207.631	-35.41
208.017	3.27
208.403	43.17
208.789	24.5
209.175	14.74
209.561	25.77
209.947	22.19
210.333	-4.72
210.719	-21.86
211.105	-14.17
211.491	-23.79
211.876	-20.35
212.262	-20.82
212.648	-46.76
213.034	-24.14
213.419	16.27
213.805	-26.88
214.19	-27.24
214.576	-24.46
214.961	-5.4
215.346	-32.95
215.732	-12.17
216.117	-15.7
216.502	-24.95
216.888	-33.66
217.273	22.46
217.658	6.03
218.043	-30.89
218.428	2.68
218.813	-14.12
219.198	-58.49
219.583	-23.58
219.968	-12.18
220.353	7.81
220.738	3.33
221.122	-5.45
221.507	-7.89
221.892	3.84
222.276	18.06
222.661	-9.5
223.046	-0.04
223.43	1.46
223.815	6.51
224.199	1.68
224.583	3.59
224.968	2.22
225.352	-0.82
225.736	7.15
226.121	8.11
226.505	0.96
226.889	5.82
227.273	1.73
227.657	1.82
228.041	3.7
228.425	7.79
228.809	8.19
229.193	5.91
229.577	6.53
229.961	7.97
230.344	8.97
230.728	8.41
231.112	8.29
231.495	7.23
231.879	7.95
232.263	5.84
232.646	6.38
233.03	5.15
233.413	5.35
233.797	9.39
234.18	7.5
234.563	7.54
234.946	5.65
235.33	7.31
235.713	7.28
236.096	7.41
236.479	7.82
236.862	7.15
237.245	7.75
237.628	7.7
238.011	7
238.394	8.61
238.777	8.22
239.16	4.29
239.543	6.03
239.925	8.03
240.308	7.1
240.691	7.09
241.073	8.6
241.456	6.87
241.838	7.29
242.221	8.06
242.603	7.57
242.986	8.59
243.368	8.14
243.75	7.51
244.133	7.73
244.515	7.78
244.897	7.37
245.279	6.85
245.661	6.8
246.043	7.85
246.425	6.27
246.807	7.71
247.189	7.43
247.571	7.69
247.953	7.47
248.335	7.83
248.717	7.68
249.098	7.69
249.48	7.28
249.862	7.41
250.243	7.59
250.625	6.99
251.006	8.04
251.388	7.93
251.769	6.47
252.151	6.59
252.532	7.53
252.913	7.2
253.295	7.82
253.676	7.47
254.057	6.33
254.438	7.51
254.819	6.95
255.2	7.96
255.581	6.66
255.962	6.18
256.343	7.69
256.724	5.77
257.105	6.39
257.486	7.68
257.867	5.51
258.247	6.75
258.628	7.32
259.009	7.21
259.389	7.12
259.77	6.68
260.15	7.22
260.531	7.12
260.911	6.92
261.292	7
261.672	6.94
262.052	6.68
262.432	6.99
262.813	6.87
263.193	6.37
263.573	6.89
263.953	6.89
264.333	6.71
264.713	6.69
265.093	6.17
265.473	7.06
265.853	5.55
266.233	6
266.612	7.27
266.992	5.62
267.372	6.1
267.752	6.53
268.131	6.82
268.511	7.21
268.89	6.89
269.27	7.04
269.649	7.07
270.029	6.84
270.408	6.37
270.787	6.54
271.167	7.09
271.546	5.93
271.925	6.43
272.304	6.56
272.683	6.41
273.062	6.43
273.441	6.82
273.82	6.92
274.199	6.48
274.578	6.24
274.957	6.64
275.336	6.51
275.715	7.19
276.093	6.97
276.472	6.08
276.851	6.81
277.229	7.22
277.608	5.75
277.986	5.63
278.365	5.81
278.743	6.3
279.122	5.6
279.5	5.81
279.878	5.46
280.257	6.23
280.635	6.15
281.013	6.31
281.391	6.29
281.769	5.71
282.147	6.52
282.525	5.97
282.903	6.46
283.281	5.64
283.659	6.13
284.037	5.91
284.415	6.42
284.792	6.51
285.17	6.13
285.548	5.92
285.925	5.86
286.303	6.2
286.68	5.99
287.058	5.79
287.435	5.89
287.813	6.05
288.19	6.25
288.567	5.68
288.945	6.06
289.322	5.78
289.699	5.89
290.076	6.46
290.453	5.97
290.83	5.74
291.207	5.6
291.584	5.67
291.961	6.09
292.338	5.49
292.715	5.93
293.092	5.51
293.469	5.88
293.845	6.22
294.222	6.13
294.599	6.06
294.975	6.03
295.352	4.93
295.728	5.89
296.105	5.17
296.481	5.83
296.858	5.73
297.234	5.42
297.61	5.56
297.986	5.43
298.363	5.39
298.739	5.69
299.115	5.48
299.491	5.36
299.867	5.48
300.243	5.32
300.619	5.49
300.995	5.42
301.371	5.49
301.746	5.41
302.122	5.27
302.498	5.65
302.874	5.9
303.249	5.68
303.625	5.24
304	5.28
304.376	5.33
304.751	5.63
305.127	5.21
305.502	5.38
305.878	5.77
306.253	5.35
306.628	5.69
307.003	5.31
307.378	5.09
307.754	5.9
308.129	4.86
308.504	5.14
308.879	5.09
309.254	5.55
309.629	5.22
310.003	5.57
310.378	5.23
310.753	5.42
311.128	5.37
311.502	4.92
311.877	5.19
312.252	5.23
312.626	4.84
313.001	5.02
313.375	5.35
313.75	4.82
314.124	5.53
314.498	5.43
314.873	5.25
315.247	5.19
315.621	5.38
315.995	4.78
316.369	5.07
316.743	5.33
317.117	5.22
317.491	5.37
317.865	4.67
318.239	5.61
318.613	4.57
318.987	5.16
319.361	4.68
319.734	4.71
320.108	5.07
320.482	4.86
320.855	5.5
321.229	5.49
321.602	5.15
321.976	4.68
322.349	3.97
322.723	4.56
323.096	4.33
323.469	4.59
323.843	5.21
324.216	4.55
324.589	5.48
324.962	5.3
325.335	5.56
325.708	5.24
326.081	5.43
326.454	5.13
326.827	5.44
327.2	5.36
327.573	4.99
327.945	4.86
328.318	5.49
328.691	5.04
329.063	5.16
329.436	5.09
329.809	4.61
330.181	4.73
330.553	5.52
330.926	4.58
331.298	4.52
331.671	4.69
332.043	4.91
332.415	5.22
332.787	5.59
333.159	4.84
333.532	4.85
333.904	4.82
334.276	4.84
334.648	4.96
335.02	5.26
335.391	5.53
335.763	5.35
336.135	5.25
336.507	5.22
336.879	5.27
337.25	5.14
337.622	4.99
337.993	5.32
338.365	5.39
338.736	5.23
339.108	5.06
339.479	5.18
339.851	5.44
340.222	5.2
340.593	5.13
340.964	5.43
341.336	5.19
341.707	4.77
342.078	4.75
342.449	5.43
342.82	5.02
343.191	5.04
343.562	4.93
343.933	5.16
344.303	5.08
344.674	4.96
345.045	5.15
345.416	4.92
345.786	4.86
346.157	5.18
346.527	4.84
346.898	4.69
347.268	4.84
347.639	5.08
348.009	5.56
348.38	5.18
348.75	5.25
349.12	4.9
349.49	5.35
349.861	5.56
350.231	5.6
350.601	5.2
350.971	4.74
351.341	5.63
351.711	5.27
352.081	5.31
352.45	5.74
352.82	5.26
353.19	5.15
353.56	5.05
353.929	5.37
354.299	5.23
354.669	5.24
355.038	5.42
355.408	5.71
355.777	5.22
356.147	5.66
356.516	5.4
356.885	5.23
357.254	5.78
357.624	5.35
357.993	4.98
358.362	5.64
358.731	5.51
359.1	5.51
359.469	5.41
359.838	5.12
360.207	5.35
360.576	5.54
360.945	5.34
361.314	5.28
361.682	5.16
362.051	5.26
362.42	5.19
362.788	5.53
363.157	5.47
363.525	5.4
363.894	5.11
364.262	5.24
364.631	5.95
364.999	5.31
365.367	5.44
365.735	5.23
366.104	4.97
366.472	5.91
366.84	5.77
367.208	5.47
367.576	5.28
367.944	5.84
368.312	5.24
368.68	5.7
369.048	5.74
369.416	5.24
369.783	5.42
370.151	5.48
370.519	5.02
370.886	5.47
371.254	6.06
371.621	5.4
371.989	5.3
372.356	5.4
372.724	5.47
373.091	5.67
373.458	5.34
373.826	5.28
374.193	5.93
374.56	5.61
374.927	5.48
375.294	5.82
375.661	5.81
376.028	5.85
376.395	5.42
376.762	5.86
377.129	5.64
377.496	5.41
377.863	5.79
378.229	5.63
378.596	5.58
378.963	5.65
379.329	5.8
379.696	5.7
380.062	5.83
380.429	5.81
380.795	5.85
381.161	5.57
381.528	5.28
381.894	5.69
382.26	5.49
382.626	5.91
382.993	5.55
383.359	5.67
383.725	5.84
384.091	5.74
384.457	6.13
384.823	5.78
385.188	5.93
385.554	5.82
385.92	6
386.286	6.24
386.651	5.88
387.017	6.06
387.383	5.58
387.748	5.8
388.114	6.05
388.479	6.02
388.845	6.26
389.21	5.89
389.575	5.99
389.94	6.04
390.306	5.87
390.671	5.83
391.036	6.13
391.401	6.19
391.766	5.78
392.131	5.96
392.496	5.85
392.861	5.51
393.226	5.98
393.591	5.95
393.956	5.93
394.32	5.84
394.685	6.03
395.05	5.76
395.414	5.94
395.779	6.06
396.143	6.11
396.508	6.13
396.872	6.02
397.236	5.85
397.601	6.05
397.965	5.8
398.329	5.97
398.694	5.78
399.058	5.93
399.422	6.11
399.786	6.08
400.15	5.94
400.514	6.13
400.878	6.17
401.242	6.39
401.605	5.97
401.969	6.08
402.333	6.03
402.697	6.28
403.06	6.15
403.424	6.19
403.787	6.25
404.151	6.07
404.514	6.08
404.878	6.26
405.241	6.14
405.604	6.2
405.968	6.06
406.331	6.27
406.694	5.92
407.057	6.54
407.42	6.31
407.783	6.13
408.146	6.05
408.509	5.83
408.872	5.96
409.235	6.2
409.598	6.59
409.961	6.29
410.323	6.11
410.686	6.31
411.049	6.22
411.411	6.31
411.774	6.27
412.136	6.2
412.499	6.16
412.861	6.05
413.223	6.33
413.586	6.09
413.948	6.48
414.31	6.5
414.672	6.49
415.035	6.33
415.397	6.28
415.759	6.14
416.121	6.34
416.483	6.51
416.845	6.21
417.206	6.48
417.568	6.47
417.93	6.15
418.292	6.25
418.653	6.41
419.015	6.34
419.377	6.4
419.738	6.05
420.1	6.17
420.461	6.16
420.822	6.35
421.184	6.35
421.545	6.22
421.906	6.26
422.267	6.04
422.629	6.29
422.99	6.29
423.351	6.26
423.712	6.23
424.073	6.32
424.434	6.22
424.795	6.19
425.155	6.19
425.516	6.24
425.877	6.29
426.238	6.17
426.598	6.26
426.959	6.28
427.32	6.36
427.68	6.41
428.041	6.33
428.401	6.34
428.761	6.16
429.122	6.29
429.482	6.46
429.842	6.43
430.202	6.45
430.563	6.46
430.923	6.36
431.283	6.5
431.643	6.45
432.003	6.36
432.363	6.46
432.722	6.36
433.082	6.39
433.442	6.26
433.802	6.65
434.161	6.33
434.521	6.45
434.881	6.63
435.24	6.4
435.6	6.5
435.959	6.56
436.319	6.36
436.678	6.44
437.037	6.44
437.396	6.35
437.756	6.54
438.115	6.72
438.474	6.43
438.833	6.58
439.192	6.66
439.551	6.48
439.91	6.53
440.269	6.64
440.628	6.5
440.987	6.54
441.345	6.49
441.704	6.56
442.063	6.51
442.421	6.54
442.78	6.5
443.138	6.42
443.497	6.34
443.855	6.48
444.214	6.44
444.572	6.57
444.93	6.55
445.288	6.58
445.647	6.71
446.005	6.43
446.363	6.53
446.721	6.39
447.079	6.67
447.437	6.41
447.795	6.33
448.153	6.48
448.51	6.4
448.868	6.58
449.226	6.55
449.584	6.48
449.941	6.63
450.299	6.43
450.656	6.55
451.014	6.55
451.371	6.61
451.729	6.66
452.086	6.62
452.443	6.5
452.801	6.81
453.158	6.65
453.515	6.66
453.872	6.68
454.229	6.49
454.586	6.66
454.943	6.66
455.3	6.87
455.657	6.67
456.014	6.8
456.371	6.8
456.727	6.57
457.084	6.58
457.441	6.67
457.797	6.57
458.154	6.53
458.51	6.73
458.867	6.56
459.223	6.89
459.58	6.58
459.936	6.68
460.292	6.68
460.648	6.58
461.005	6.51
461.361	6.59
461.717	6.62
462.073	6.59
462.429	6.66
462.785	6.73
463.141	6.75
463.496	6.7
463.852	6.81
464.208	6.77
464.564	6.5
464.919	6.67
465.275	6.81
465.631	6.91
465.986	6.65
466.342	6.72
466.697	6.72
467.052	6.93
467.408	6.77
467.763	6.6
468.118	6.69
468.473	6.92
468.829	6.78
469.184	6.92
469.539	6.76
469.894	6.87
470.249	6.85
470.603	6.78
470.958	6.91
471.313	6.8
471.668	6.72
472.023	7.07
472.377	6.71
472.732	6.76
473.086	6.56
473.441	6.71
473.795	6.92
474.15	6.7
474.504	6.8
474.859	6.84
475.213	6.85
475.567	6.74
475.921	6.98
476.275	6.86
476.63	6.8
476.984	6.87
477.338	6.95
477.692	6.82
478.045	6.92
478.399	7.04
478.753	6.6
479.107	6.79
479.461	6.91
479.814	6.66
480.168	6.79
480.521	6.76
480.875	6.92
481.228	6.9
481.582	6.76
481.935	6.85
482.289	6.61
482.642	6.81
482.995	6.72
483.348	6.71
483.701	6.73
484.055	6.67
484.408	6.69
484.761	6.49
485.114	6.45
485.466	6.38
485.819	6.39
486.172	6.45
486.525	6.56
486.878	6.56
487.23	6.67
487.583	6.64
487.936	6.68
488.288	6.64
488.641	6.58
488.993	6.48
489.345	6.47
489.698	6.57
490.05	6.56
490.402	6.67
490.754	6.73
491.107	6.68
491.459	6.83
491.811	6.77
492.163	6.86
492.515	6.64
492.866	6.52
493.218	6.51
493.57	6.56
493.922	6.6
494.274	6.7
494.625	6.72
494.977	6.79
495.328	6.95
495.68	7.05
496.031	6.93
496.383	6.88
496.734	6.86
497.086	6.82
497.437	6.99
497.788	6.82
498.139	6.81
498.49	6.83
498.842	6.83
499.193	6.83
499.544	7
499.894	6.79
500.245	6.86
500.596	6.86
500.947	6.84
501.298	6.81
501.648	6.81
501.999	7.06
502.35	6.92
502.7	6.99
503.051	7.1
503.401	7.04
503.752	6.82
504.102	6.86
504.452	6.86
504.803	6.8
505.153	6.87
505.503	6.84
505.853	6.82
506.203	6.83
506.553	6.9
506.903	6.91
507.253	6.85
507.603	6.94
507.953	7.02
508.303	6.94
508.652	6.89
509.002	6.97
509.352	6.95
509.701	6.79
510.051	6.97
510.4	6.95
510.75	6.94
511.099	6.88
511.449	6.84
511.798	7.09
512.147	6.92
512.496	6.86
512.846	6.84
513.195	6.91
513.544	6.87
513.893	6.82
514.242	6.91
514.591	6.89
514.939	6.85
515.288	7.04
515.637	7.01
515.986	6.91
516.334	7.08
516.683	6.92
517.032	6.83
517.38	6.91
517.729	6.8
518.077	6.93
518.426	6.85
518.774	6.84
519.122	6.82
519.47	6.86
519.819	6.83
520.167	6.79
520.515	6.77
520.863	6.75
521.211	6.8
521.559	6.78
521.907	6.8
522.255	6.92
522.602	6.85
522.95	6.93
523.298	6.9
523.645	7.03
523.993	7.01
524.341	6.91
524.688	6.93
525.036	6.97
525.383	6.89
525.73	6.94
526.078	6.82
526.425	6.89
526.772	6.73
527.119	6.74
527.466	6.64
527.814	6.68
528.161	6.81
528.508	6.7
528.854	6.73
529.201	6.69
529.548	6.6
529.895	6.49
530.242	6.5
530.588	6.52
530.935	6.56
531.282	6.61
531.628	6.59
531.975	6.73
532.321	6.69
532.667	6.73
533.014	6.8
533.36	6.77
533.706	6.75
534.052	6.66
534.399	6.62
534.745	6.55
535.091	6.55
535.437	6.64
535.783	6.7
536.129	6.69
536.474	6.85
536.82	6.8
537.166	6.93
537.512	6.74
537.857	6.74
538.203	6.63
538.549	6.66
538.894	6.69
539.239	6.8
539.585	6.85
539.93	6.81
540.276	6.72
540.621	6.76
540.966	6.81
541.311	6.91
541.656	6.78
542.001	6.82
542.346	6.65
542.691	6.49
543.036	6.5
543.381	6.54
543.726	6.56
544.071	6.63
544.415	6.62
544.76	6.63
545.105	6.73
545.449	6.65
545.794	6.64
546.138	6.77
546.483	6.69
546.827	6.81
547.171	6.73
547.516	6.75
547.86	6.65
548.204	6.6
548.548	6.84
548.892	6.75
549.236	6.73
549.58	6.75
549.924	6.77
550.268	6.91
550.612	6.84
550.956	6.71
551.3	6.78
551.643	6.74
551.987	6.62
552.33	6.79
552.674	6.9
553.017	6.82
553.361	6.79
553.704	6.83
554.048	6.8
554.391	6.63
554.734	6.67
555.077	6.7
555.42	6.56
555.764	6.84
556.107	6.8
556.45	6.69
556.793	6.81
557.135	6.89
557.478	7.02
557.821	6.77
558.164	6.87
558.507	6.63
558.849	6.63
559.192	6.67
559.534	6.67
559.877	6.91
560.219	6.86
560.562	6.89
560.904	6.64
561.246	6.94
561.589	6.8
561.931	6.94
562.273	6.81
562.615	6.83
562.957	6.78
563.299	6.8
563.641	6.83
563.983	6.79
564.325	6.55
564.667	6.76
565.008	6.85
565.35	6.75
565.692	6.88
566.033	6.71
566.375	6.44
566.716	6.63
567.058	6.77
567.399	6.76
567.741	6.7
568.082	6.4
568.423	6.68
568.764	6.63
569.105	6.71
569.447	6.83
569.788	6.78
570.129	6.64
570.47	6.83
570.811	6.54
571.151	6.75
571.492	6.81
571.833	6.53
572.174	6.51
572.514	6.52
572.855	6.69
573.195	6.63
573.536	6.62
573.876	6.55
574.217	6.49
574.557	6.74
574.898	6.51
575.238	6.46
575.578	6.67
575.918	6.5
576.258	6.59
576.598	6.54
576.938	6.86
577.278	6.49
577.618	6.5
577.958	6.57
578.298	6.67
578.638	6.58
578.977	6.51
579.317	6.66
579.657	6.62
579.996	6.47
580.336	6.57
580.675	6.75
581.014	6.52
581.354	6.5
581.693	6.38
582.032	6.52
582.372	6.52
582.711	6.54
583.05	6.61
583.389	6.63
583.728	6.55
584.067	6.73
584.406	6.73
584.745	6.49
585.083	6.76
585.422	6.47
585.761	6.58
586.1	6.67
586.438	6.68
586.777	6.53
587.115	6.71
587.454	6.49
587.792	6.26
588.13	6.74
588.469	6.72
588.807	6.66
589.145	6.83
589.483	6.45
589.821	6.81
590.159	6.56
590.497	6.34
590.835	6.27
591.173	6.64
591.511	6.6
591.849	6.59
592.187	6.5
592.524	6.3
592.862	6.55
593.2	6.4
593.537	6.61
593.875	6.37
594.212	6.52
594.55	6.44
594.887	6.37
595.224	6.3
595.561	6.39
595.899	6.48
596.236	6.45
596.573	6.29
596.91	6.58
597.247	6.47
597.584	6.44
597.921	6.42
598.258	6.37
598.594	6.19
598.931	6.29
599.268	6.26
599.604	6.42
599.941	6.48
600.277	6.53
600.614	6.46
600.95	6.49
601.287	6.41
601.623	6.37
601.959	6.43
602.296	6.55
602.632	6.47
602.968	6.23
603.304	6.28
603.64	6.19
603.976	6.43
604.312	6.52
604.648	6.54
604.984	6.42
605.319	6.23
605.655	6.48
605.991	6.33
606.326	6.33
606.662	6.36
606.998	6.16
607.333	6.1
607.668	6.42
608.004	6.21
608.339	6.33
608.674	6.37
609.01	6.41
609.345	6.32
609.68	5.9
610.015	6.23
610.35	6.24
610.685	6.41
611.02	6.39
611.355	6.27
611.689	6.14
612.024	6.54
612.359	6.34
612.694	6.27
613.028	6.64
613.363	6.27
613.697	6.39
614.032	6.14
614.366	6.07
614.7	6.54
615.035	6.13
615.369	6.41
615.703	6.97
616.037	6.34
616.371	6.12
616.705	6.11
617.039	6.37
617.373	6.36
617.707	6.26
618.041	6.57
618.375	6.28
618.709	6.41
619.042	6.27
619.376	6.24
619.71	6.25
620.043	6.07
620.377	6.53
620.71	6.26
621.043	6.02
621.377	6.21
621.71	6.43
622.043	6.38
622.376	5.86
622.709	6.39
623.043	6.36
623.376	6.5
623.709	6.68
624.041	5.92
624.374	6.02
624.707	6.09
625.04	6.39
625.373	5.95
625.705	6.36
626.038	6.06
626.37	6.29
626.703	6.37
627.035	6.32
627.368	6.44
627.7	6.33
628.032	5.97
628.365	6.06
628.697	6.05
629.029	6.37
629.361	6.03
629.693	6.29
630.025	6.09
630.357	6.11
630.689	6.37
631.021	6.37
631.353	6.53
631.684	6.39
632.016	6.39
632.348	6.36
632.679	6.2
633.011	6.25
633.342	6.13
633.674	6.06
634.005	6.31
634.336	6.07
634.668	6.3
634.999	6.26
635.33	5.9
635.661	6.47
635.992	6.15
636.323	6.34
636.654	6.21
636.985	6.07
637.316	6.06
637.647	6.57
637.977	6.28
638.308	6.16
638.639	6.15
638.969	6.31
639.3	6.08
639.63	5.9
639.961	6.01
640.291	6.48
640.622	6.23
640.952	6.04
641.282	6.21
641.612	6.04
641.943	6.51
642.273	6.26
642.603	6.11
642.933	6.45
643.263	6.38
643.592	6.4
643.922	6.15
644.252	6.03
644.582	5.59
644.911	6.21
645.241	5.75
645.571	6.09
645.9	6.43
646.23	5.75
646.559	6.4
646.888	5.93
647.218	6.31
647.547	5.84
647.876	6.84
648.205	5.72
648.534	5.81
648.863	6.46
649.192	5.98
649.521	6.28
649.85	6.25
650.179	5.43
650.508	6.23
650.837	5.72
651.165	6.27
651.494	6.2
651.822	6.24
652.151	6.59
652.479	6.33
652.808	5.98
653.136	6.44
653.465	5.95
653.793	6.27
654.121	6.38
654.449	6.32
654.777	6.2
655.105	6.56
655.433	6.33
655.761	5.98
656.089	6.37
656.417	6.24
656.745	6.88
657.073	6.59
657.4	6
657.728	6.17
658.056	5.74
658.383	6.7
658.711	5.89
659.038	6.16
659.365	6.55
659.693	6.11
660.02	5.88
660.347	6.14
660.674	5.99
661.001	5.68
661.329	5.82
661.656	6.07
661.982	6.25
662.309	6.17
662.636	6.08
662.963	6.07
663.29	6.13
663.616	6.23
663.943	6.42
664.27	6.16
664.596	5.9
664.923	7.18
665.249	6.28
665.576	6.13
665.902	6.05
666.228	6.19
666.554	6.08
666.881	6.17
667.207	6.14
667.533	6.81
667.859	5.81
668.185	6.62
668.511	5.96
668.837	5.94
669.162	6.22
669.488	6.13
669.814	6.27
670.139	6.67
670.465	6.3
670.791	6.54
671.116	5.92
671.442	5.81
671.767	6.3
672.092	6.63
672.418	6.95
672.743	6.54
673.068	6.09
673.393	6.16
673.718	5.99
674.043	6.57
674.368	6.83
674.693	6.07
675.018	6.4
675.343	6.61
675.667	5.67
675.992	5.28
676.317	6.75
676.641	6.3
676.966	5.96
677.29	5.92
677.615	6.46
677.939	5.92
678.264	5.64
678.588	6.3
678.912	6.68
679.236	6.78
679.56	5.82
679.885	6.21
680.209	6.07
680.532	5.62
680.856	6.25
681.18	5.96
681.504	5.93
681.828	5.58
682.152	5.65
682.475	6.14
682.799	6.12
683.122	5.5
683.446	5.85
683.769	5.82
684.093	6.14
684.416	5.75
684.739	6.28
685.062	6.22
685.386	5.86
685.709	6.09
686.032	5.99
686.355	6.08
686.678	6.41
687.001	5.5
687.324	5.54
687.646	6.04
687.969	5.88
688.292	6.25
688.614	6.82
688.937	5.78
689.26	5.94
689.582	5.33
689.904	6.57
690.227	5.77
690.549	6.1
690.871	6.38
691.194	6.11
691.516	5.94
