Data from 0073_forehead_Reflection__1__340.txt Node

Date: Fri Dec 16 16:46:31 CST 2022
User: ToomeyLab
Spectrometer: FLMS14357
Trigger mode: 0
Integration Time (sec): 1.000000E-2
Scans to average: 100
Electric dark correction enabled: true
Nonlinearity correction enabled: false
Boxcar width: 0
XAxis mode: Wavelengths
Number of Pixels in Spectrum: 2048
>>>>>Begin Spectral Data<<<<<
189.047	-552.84
189.435	-552.84
189.823	-552.84
190.211	165.74
190.599	-593.39
190.987	-136.88
191.375	69.17
191.763	35.03
192.151	-38.27
192.538	821.61
192.926	-1010.65
193.314	74.59
193.702	50
194.089	20.94
194.477	192.44
194.864	35.22
195.252	-153.68
195.639	172.07
196.027	-878.81
196.414	136.98
196.801	32.83
197.189	144.6
197.576	-31.02
197.963	194.14
198.351	-32.14
198.738	-397.58
199.125	37.82
199.512	-16.77
199.899	-128.13
200.286	-66.8
200.673	-1.38
201.06	10.99
201.447	62.25
201.833	25.38
202.22	1.19
202.607	3.78
202.994	7.94
203.38	-53.28
203.767	-53.2
204.154	-90.27
204.54	37.14
204.927	20.28
205.313	57.65
205.699	-16.97
206.086	-21.55
206.472	-40.02
206.858	10.67
207.245	1.66
207.631	-4.13
208.017	-5.67
208.403	46
208.789	-11.01
209.175	39.87
209.561	20.01
209.947	-59.62
210.333	-57.75
210.719	-15.94
211.105	-23.69
211.491	-6.6
211.876	-9.26
212.262	-44.12
212.648	-61.09
213.034	3.05
213.419	23.47
213.805	-5.76
214.19	1.63
214.576	-19.7
214.961	9.38
215.346	-49.33
215.732	-1.42
216.117	-10.65
216.502	6.78
216.888	-37.33
217.273	32.86
217.658	-35.49
218.043	14.14
218.428	-13.02
218.813	-17.56
219.198	-73.48
219.583	-17.12
219.968	3.84
220.353	12.82
220.738	-23.72
221.122	-19.68
221.507	-2.38
221.892	-8.18
222.276	11.05
222.661	-10.56
223.046	1.65
223.43	-15.27
223.815	-3.92
224.199	-10.93
224.583	-1.82
224.968	-7.95
225.352	-4.38
225.736	-9.99
226.121	-6.19
226.505	-5.21
226.889	7.28
227.273	2.09
227.657	-0.09
228.041	0.6
228.425	4.74
228.809	1.31
229.193	-0.45
229.577	1.17
229.961	1.62
230.344	2.97
230.728	2.07
231.112	1.53
231.495	1.31
231.879	2
232.263	-1.38
232.646	1.18
233.03	0.49
233.413	1.09
233.797	3.37
234.18	0.58
234.563	1.59
234.946	0.9
235.33	0.65
235.713	1.94
236.096	1.26
236.479	1.71
236.862	3.49
237.245	2.87
237.628	4.01
238.011	0.16
238.394	2.25
238.777	3.95
239.16	-0.29
239.543	-0.34
239.925	1.83
240.308	0
240.691	0.51
241.073	1.99
241.456	1.92
241.838	0.77
242.221	2.05
242.603	2.11
242.986	3.27
243.368	2.36
243.75	2.4
244.133	2.53
244.515	2.74
244.897	2.15
245.279	2.73
245.661	2.73
246.043	2.23
246.425	2.86
246.807	2.43
247.189	2.45
247.571	2.59
247.953	2.59
248.335	2.91
248.717	2.84
249.098	2.79
249.48	2.18
249.862	2.95
250.243	2.64
250.625	2.61
251.006	2.77
251.388	2.46
251.769	2.04
252.151	3.07
252.532	2.55
252.913	3.08
253.295	2.88
253.676	2.94
254.057	2.8
254.438	2.16
254.819	2.46
255.2	2.44
255.581	1.62
255.962	2.75
256.343	3.71
256.724	2.49
257.105	3.11
257.486	1.73
257.867	1.58
258.247	2.65
258.628	2.98
259.009	1.55
259.389	3.31
259.77	2.48
260.15	3.1
260.531	2.66
260.911	2.89
261.292	2.69
261.672	2.52
262.052	2.61
262.432	2.4
262.813	2.85
263.193	2.23
263.573	2.87
263.953	2.53
264.333	2.69
264.713	2.41
265.093	1.82
265.473	3.29
265.853	2.05
266.233	2.54
266.612	2.15
266.992	1.91
267.372	2.68
267.752	2
268.131	2.33
268.511	2.55
268.89	2.89
269.27	2.89
269.649	2.58
270.029	2.3
270.408	2.16
270.787	2.58
271.167	2.85
271.546	2.35
271.925	2.34
272.304	2.57
272.683	2.53
273.062	2.54
273.441	2.89
273.82	2.41
274.199	2.68
274.578	2.23
274.957	2.69
275.336	2.28
275.715	2.78
276.093	2.95
276.472	3
276.851	2.35
277.229	2.8
277.608	2.59
277.986	2.28
278.365	2.09
278.743	2.28
279.122	2.21
279.5	2.18
279.878	1.51
280.257	2.8
280.635	1.93
281.013	3.24
281.391	2.41
281.769	2.39
282.147	3.03
282.525	2.36
282.903	2.39
283.281	2.97
283.659	2.26
284.037	2.31
284.415	2.28
284.792	2.69
285.17	1.97
285.548	2.51
285.925	2.57
286.303	2.53
286.68	2.56
287.058	2.39
287.435	2.28
287.813	2.61
288.19	3.09
288.567	2.39
288.945	2.52
289.322	2.79
289.699	2.65
290.076	2.97
290.453	2.97
290.83	3.06
291.207	2.82
291.584	2.86
291.961	2.7
292.338	3.11
292.715	3.24
293.092	3.25
293.469	3.17
293.845	2.95
294.222	3.19
294.599	3.68
294.975	3.3
295.352	3.08
295.728	3.43
296.105	3.01
296.481	3.75
296.858	3.4
297.234	3.51
297.61	3.59
297.986	3.56
298.363	3.14
298.739	3.82
299.115	3.41
299.491	3.54
299.867	3.81
300.243	3.47
300.619	3.94
300.995	3.8
301.371	3.71
301.746	3.33
302.122	3.48
302.498	3.24
302.874	3.49
303.249	3.69
303.625	3.88
304	3.18
304.376	3.75
304.751	4.01
305.127	4.08
305.502	4.17
305.878	3.92
306.253	3.74
306.628	4.04
307.003	3.96
307.378	4
307.754	4.24
308.129	3.22
308.504	4.09
308.879	3.89
309.254	4.41
309.629	4.59
310.003	4.37
310.378	4.26
310.753	4.35
311.128	4.14
311.502	4.39
311.877	4.18
312.252	4.41
312.626	4.14
313.001	4.47
313.375	4.21
313.75	4.48
314.124	4.6
314.498	4.1
314.873	4.13
315.247	4.25
315.621	4.8
315.995	4.65
316.369	4.5
316.743	5
317.117	4.57
317.491	4.77
317.865	4.04
318.239	5.03
318.613	4.49
318.987	5.2
319.361	4.54
319.734	5.03
320.108	5.02
320.482	4.82
320.855	4.94
321.229	4.9
321.602	4.93
321.976	4.84
322.349	4.39
322.723	4.32
323.096	4.89
323.469	4.28
323.843	4.88
324.216	4.24
324.589	5.47
324.962	5.24
325.335	5.09
325.708	5.68
326.081	5.32
326.454	5.1
326.827	5.77
327.2	5.79
327.573	5.49
327.945	4.95
328.318	4.93
328.691	5.24
329.063	5.46
329.436	5.25
329.809	4.56
330.181	5.23
330.553	5.75
330.926	5.35
331.298	4.68
331.671	5.01
332.043	5.28
332.415	5.64
332.787	5.8
333.159	5.04
333.532	5.21
333.904	5.1
334.276	5.77
334.648	5.62
335.02	5.26
335.391	4.89
335.763	5.31
336.135	5.24
336.507	5.86
336.879	5.12
337.25	5.86
337.622	5.47
337.993	5.51
338.365	5.53
338.736	5.77
339.108	5.57
339.479	5.3
339.851	5.83
340.222	5.49
340.593	5.58
340.964	5.41
341.336	4.86
341.707	5.41
342.078	5.05
342.449	6.22
342.82	5.66
343.191	5.65
343.562	6.01
343.933	5.33
344.303	5.79
344.674	5.63
345.045	6.09
345.416	5.59
345.786	5.54
346.157	5.64
346.527	5.29
346.898	5.1
347.268	5.75
347.639	5.35
348.009	6.1
348.38	5.7
348.75	5.9
349.12	5.49
349.49	5.4
349.861	6.35
350.231	6.41
350.601	6.12
350.971	6.07
351.341	5.97
351.711	5.69
352.081	5.78
352.45	5.87
352.82	6.06
353.19	5.79
353.56	5.92
353.929	6
354.299	5.85
354.669	6.29
355.038	5.96
355.408	6.53
355.777	6.09
356.147	6.09
356.516	6.21
356.885	5.77
357.254	6.3
357.624	5.9
357.993	5.97
358.362	6.14
358.731	6.02
359.1	6.19
359.469	6.17
359.838	5.84
360.207	5.84
360.576	5.99
360.945	5.7
361.314	6.05
361.682	5.89
362.051	5.97
362.42	6.35
362.788	6.12
363.157	6.05
363.525	6.06
363.894	5.84
364.262	6.13
364.631	7.01
364.999	5.93
365.367	6.59
365.735	6.22
366.104	6.13
366.472	6.1
366.84	6.26
367.208	6.24
367.576	6.2
367.944	6.39
368.312	5.91
368.68	6.32
369.048	6.73
369.416	6.42
369.783	6.63
370.151	6.26
370.519	5.99
370.886	6.37
371.254	6.63
371.621	6.26
371.989	6.54
372.356	6.11
372.724	6.72
373.091	6.29
373.458	6.43
373.826	6.12
374.193	6.82
374.56	6.27
374.927	6.2
375.294	6.67
375.661	6.64
376.028	6.64
376.395	6.45
376.762	6.76
377.129	6.89
377.496	6.45
377.863	6.57
378.229	6.6
378.596	6.59
378.963	6.59
379.329	6.57
379.696	6.3
380.062	6.51
380.429	6.99
380.795	6.51
381.161	6.69
381.528	6.16
381.894	6.86
382.26	6.56
382.626	6.62
382.993	6.21
383.359	6.46
383.725	6.5
384.091	6.86
384.457	6.77
384.823	7.07
385.188	7.07
385.554	6.67
385.92	6.91
386.286	7.05
386.651	6.75
387.017	7.07
387.383	6.84
387.748	6.85
388.114	6.99
388.479	7.11
388.845	7.14
389.21	6.88
389.575	6.75
389.94	6.7
390.306	6.9
390.671	6.86
391.036	6.95
391.401	7.1
391.766	6.83
392.131	6.9
392.496	6.96
392.861	6.71
393.226	7.04
393.591	7.02
393.956	7.18
394.32	7.09
394.685	7.37
395.05	7.13
395.414	7.32
395.779	6.94
396.143	7.2
396.508	7.27
396.872	7.2
397.236	7.02
397.601	7.29
397.965	7.06
398.329	7.3
398.694	7.12
399.058	7.11
399.422	7.17
399.786	7.22
400.15	7.21
400.514	7.35
400.878	7.3
401.242	7.53
401.605	7.32
401.969	7.29
402.333	7.14
402.697	7.34
403.06	7.4
403.424	7.36
403.787	7.72
404.151	7.12
404.514	7.36
404.878	7.48
405.241	7.37
405.604	7.45
405.968	7.49
406.331	7.41
406.694	7.46
407.057	7.65
407.42	7.65
407.783	7.35
408.146	7.57
408.509	7.23
408.872	7.51
409.235	7.54
409.598	7.53
409.961	7.48
410.323	7.45
410.686	7.34
411.049	7.34
411.411	7.45
411.774	7.42
412.136	7.76
412.499	7.49
412.861	7.58
413.223	7.85
413.586	7.63
413.948	7.82
414.31	7.61
414.672	7.5
415.035	7.79
415.397	7.85
415.759	7.54
416.121	7.83
416.483	7.68
416.845	7.84
417.206	7.81
417.568	7.91
417.93	7.63
418.292	7.89
418.653	7.63
419.015	7.81
419.377	7.8
419.738	7.61
420.1	7.65
420.461	7.6
420.822	7.79
421.184	7.79
421.545	7.67
421.906	7.72
422.267	7.6
422.629	7.73
422.99	7.68
423.351	7.81
423.712	7.79
424.073	7.93
424.434	7.69
424.795	7.83
425.155	7.71
425.516	7.74
425.877	7.83
426.238	7.82
426.598	7.96
426.959	7.86
427.32	7.94
427.68	8.09
428.041	8.09
428.401	8.16
428.761	8.14
429.122	8.07
429.482	7.99
429.842	8.22
430.202	8.32
430.563	8.28
430.923	8.05
431.283	8.23
431.643	8.18
432.003	8.19
432.363	8.16
432.722	8.08
433.082	8.11
433.442	8.13
433.802	8.15
434.161	8.07
434.521	8.28
434.881	8.35
435.24	8.19
435.6	8.35
435.959	8.15
436.319	8.27
436.678	8.34
437.037	8.39
437.396	8.42
437.756	8.56
438.115	8.37
438.474	8.5
438.833	8.43
439.192	8.49
439.551	8.36
439.91	8.57
440.269	8.43
440.628	8.51
440.987	8.44
441.345	8.38
441.704	8.39
442.063	8.33
442.421	8.45
442.78	8.46
443.138	8.47
443.497	8.5
443.855	8.35
444.214	8.62
444.572	8.61
444.93	8.62
445.288	8.68
445.647	8.7
446.005	8.43
446.363	8.59
446.721	8.49
447.079	8.69
447.437	8.42
447.795	8.53
448.153	8.6
448.51	8.52
448.868	8.66
449.226	8.66
449.584	8.69
449.941	8.74
450.299	8.76
450.656	8.81
451.014	8.7
451.371	8.95
451.729	8.97
452.086	8.83
452.443	8.68
452.801	8.92
453.158	8.75
453.515	8.71
453.872	8.96
454.229	8.86
454.586	8.95
454.943	8.89
455.3	9.14
455.657	9.1
456.014	8.93
456.371	9.06
456.727	9.05
457.084	9
457.441	8.89
457.797	9.1
458.154	9.13
458.51	9.02
458.867	8.94
459.223	9.1
459.58	8.95
459.936	8.87
460.292	9.08
460.648	8.81
461.005	8.73
461.361	8.98
461.717	8.94
462.073	9.2
462.429	9.28
462.785	9.35
463.141	9.47
463.496	9.16
463.852	9.45
464.208	9.26
464.564	9.33
464.919	9.47
465.275	9.36
465.631	9.23
465.986	9.19
466.342	9.15
466.697	9.41
467.052	9.51
467.408	9.4
467.763	9.28
468.118	9.32
468.473	9.67
468.829	9.3
469.184	9.56
469.539	9.41
469.894	9.58
470.249	9.63
470.603	9.52
470.958	9.62
471.313	9.61
471.668	9.66
472.023	9.55
472.377	9.52
472.732	9.72
473.086	9.45
473.441	9.58
473.795	9.8
474.15	9.61
474.504	9.66
474.859	9.75
475.213	9.7
475.567	9.68
475.921	9.76
476.275	9.92
476.63	9.66
476.984	9.71
477.338	9.91
477.692	9.9
478.045	9.63
478.399	9.94
478.753	9.79
479.107	9.69
479.461	9.82
479.814	9.86
480.168	9.95
480.521	9.78
480.875	9.98
481.228	10.03
481.582	9.76
481.935	9.83
482.289	9.76
482.642	9.81
482.995	9.86
483.348	9.83
483.701	9.71
484.055	9.54
484.408	9.57
484.761	9.23
485.114	9.1
485.466	9.24
485.819	9.45
486.172	9.7
486.525	9.89
486.878	9.91
487.23	9.95
487.583	9.86
487.936	9.83
488.288	9.56
488.641	9.51
488.993	9.51
489.345	9.63
489.698	9.76
490.05	9.85
490.402	10
490.754	10.14
491.107	10.17
491.459	10.28
491.811	10.12
492.163	10.11
492.515	9.82
492.866	9.64
493.218	9.64
493.57	9.96
493.922	10.07
494.274	10.38
494.625	10.36
494.977	10.42
495.328	10.54
495.68	10.61
496.031	10.55
496.383	10.45
496.734	10.49
497.086	10.35
497.437	10.48
497.788	10.43
498.139	10.32
498.49	10.41
498.842	10.54
499.193	10.5
499.544	10.65
499.894	10.53
500.245	10.54
500.596	10.54
500.947	10.63
501.298	10.59
501.648	10.69
501.999	10.84
502.35	10.84
502.7	10.84
503.051	10.76
503.401	10.74
503.752	10.73
504.102	10.73
504.452	10.73
504.803	10.56
505.153	10.74
505.503	10.68
505.853	10.59
506.203	10.78
506.553	10.88
506.903	10.79
507.253	10.83
507.603	10.8
507.953	11.03
508.303	10.8
508.652	10.9
509.002	10.92
509.352	10.76
509.701	10.79
510.051	10.85
510.4	10.91
510.75	10.88
511.099	10.89
511.449	10.87
511.798	11.19
512.147	10.99
512.496	11.03
512.846	10.9
513.195	10.94
513.544	10.96
513.893	10.92
514.242	11.11
514.591	11.15
514.939	11.07
515.288	11.1
515.637	11.29
515.986	11.1
516.334	11.27
516.683	11.33
517.032	11.24
517.38	11.34
517.729	11.2
518.077	11.27
518.426	11.01
518.774	11.19
519.122	11.05
519.47	10.92
519.819	10.99
520.167	11.08
520.515	11.04
520.863	11.23
521.211	11.16
521.559	11.31
521.907	11.44
522.255	11.35
522.602	11.41
522.95	11.42
523.298	11.33
523.645	11.35
523.993	11.4
524.341	11.52
524.688	11.47
525.036	11.66
525.383	11.57
525.73	11.56
526.078	11.46
526.425	11.28
526.772	11.03
527.119	11.17
527.466	11.21
527.814	11.33
528.161	11.46
528.508	11.43
528.854	11.26
529.201	11.13
529.548	10.85
529.895	10.67
530.242	10.75
530.588	11.12
530.935	11.32
531.282	11.51
531.628	11.52
531.975	11.63
532.321	11.71
532.667	11.67
533.014	11.72
533.36	11.56
533.706	11.51
534.052	11.45
534.399	11.21
534.745	11.15
535.091	11.32
535.437	11.59
535.783	11.78
536.129	11.83
536.474	11.88
536.82	11.85
537.166	11.86
537.512	11.74
537.857	11.6
538.203	11.49
538.549	11.81
538.894	11.92
539.239	12
539.585	12.07
539.93	12.12
540.276	12.09
540.621	12.07
540.966	12.05
541.311	12.01
541.656	11.79
542.001	11.77
542.346	11.5
542.691	11.33
543.036	11.4
543.381	11.74
543.726	11.93
544.071	12.13
544.415	12
544.76	11.86
545.105	12.1
545.449	12.07
545.794	12.16
546.138	12.3
546.483	12.13
546.827	12.2
547.171	12.1
547.516	12.38
547.86	12.17
548.204	12.05
548.548	12.25
548.892	12.4
549.236	12.46
549.58	12.39
549.924	12.59
550.268	12.57
550.612	12.74
550.956	12.44
551.3	12.68
551.643	12.66
551.987	12.69
552.33	12.65
552.674	12.62
553.017	12.69
553.361	12.61
553.704	12.55
554.048	12.56
554.391	12.49
554.734	12.51
555.077	12.76
555.42	12.76
555.764	12.75
556.107	12.88
556.45	12.83
556.793	13.07
557.135	12.95
557.478	12.93
557.821	13.01
558.164	13.09
558.507	12.79
558.849	13.06
559.192	12.89
559.534	12.82
559.877	12.95
560.219	12.99
560.562	13.07
560.904	13.06
561.246	13.2
561.589	13.05
561.931	13.26
562.273	12.83
562.615	13
562.957	13.03
563.299	13.1
563.641	13.22
563.983	13.02
564.325	13.09
564.667	13.08
565.008	13.28
565.35	13.53
565.692	13.33
566.033	13.23
566.375	12.94
566.716	13.24
567.058	13.18
567.399	13.24
567.741	13.11
568.082	12.98
568.423	13.14
568.764	13.26
569.105	13.23
569.447	13.47
569.788	13.35
570.129	13.29
570.47	13.49
570.811	13.32
571.151	13.26
571.492	13.47
571.833	13.23
572.174	13.2
572.514	13.17
572.855	13.48
573.195	13.28
573.536	13.35
573.876	13.3
574.217	13.26
574.557	13.56
574.898	13.35
575.238	13.45
575.578	13.49
575.918	13.54
576.258	13.46
576.598	13.49
576.938	13.6
577.278	13.48
577.618	13.62
577.958	13.7
578.298	13.77
578.638	13.55
578.977	13.7
579.317	13.68
579.657	13.74
579.996	13.81
580.336	13.88
580.675	13.96
581.014	13.95
581.354	13.82
581.693	13.65
582.032	13.88
582.372	13.97
582.711	13.98
583.05	13.96
583.389	14.13
583.728	13.89
584.067	13.78
584.406	14.08
584.745	14.02
585.083	14.2
585.422	13.9
585.761	14.07
586.1	14.18
586.438	14.11
586.777	14.04
587.115	14.25
587.454	14.18
587.792	14.18
588.13	14.32
588.469	14.26
588.807	14.43
589.145	14.06
589.483	13.81
589.821	14.36
590.159	14.1
590.497	14.11
590.835	14.21
591.173	14.34
591.511	14.21
591.849	14.29
592.187	14.14
592.524	14.28
592.862	14.44
593.2	14.51
593.537	14.31
593.875	14.44
594.212	14.12
594.55	14.47
594.887	14.42
595.224	14.21
595.561	14.49
595.899	14.37
596.236	14.55
596.573	14.18
596.91	14.35
597.247	14.37
597.584	14.56
597.921	14.33
598.258	14.13
598.594	14.02
598.931	14.37
599.268	14.52
599.604	14.67
599.941	14.76
600.277	14.71
600.614	14.7
600.95	14.79
601.287	14.85
601.623	14.9
601.959	14.75
602.296	14.7
602.632	14.93
602.968	14.64
603.304	14.76
603.64	14.72
603.976	14.59
604.312	14.74
604.648	14.73
604.984	14.62
605.319	14.51
605.655	14.52
605.991	14.64
606.326	14.33
606.662	14.3
606.998	14.73
607.333	14.85
607.668	14.97
608.004	14.93
608.339	15.03
608.674	15.11
609.01	15.15
609.345	15.28
609.68	14.92
610.015	14.84
610.35	14.76
610.685	14.78
611.02	14.82
611.355	14.93
611.689	14.85
612.024	15.05
612.359	15.12
612.694	15.24
613.028	15.56
613.363	15.03
613.697	15.49
614.032	15.42
614.366	14.9
614.7	15.58
615.035	14.87
615.369	15.69
615.703	15.49
616.037	15.46
616.371	15.28
616.705	15.17
617.039	15.5
617.373	15.45
617.707	15.48
618.041	15.25
618.375	15.18
618.709	15.46
619.042	15.48
619.376	15.64
619.71	15.25
620.043	15.4
620.377	15.8
620.71	15.43
621.043	15.46
621.377	15.37
621.71	15.28
622.043	15.78
622.376	15.45
622.709	16.21
623.043	15.5
623.376	15.61
623.709	15.8
624.041	15.51
624.374	15.56
624.707	15.53
625.04	15.8
625.373	15.65
625.705	15.84
626.038	15.59
626.37	15.65
626.703	15.55
627.035	15.92
627.368	15.71
627.7	15.65
628.032	15.63
628.365	15.6
628.697	15.42
629.029	15.98
629.361	15.79
629.693	16.01
630.025	16.12
630.357	15.89
630.689	16.07
631.021	15.84
631.353	15.93
631.684	15.97
632.016	15.88
632.348	16.06
632.679	15.63
633.011	16.05
633.342	15.82
633.674	16.24
634.005	15.95
634.336	15.93
634.668	16.01
634.999	15.93
635.33	15.93
635.661	15.95
635.992	16.07
636.323	16.26
636.654	16.22
636.985	16.06
637.316	16.45
637.647	16.66
637.977	16.12
638.308	16.1
638.639	15.99
638.969	16.19
639.3	16.03
639.63	16.31
639.961	16.12
640.291	17.02
640.622	16.52
640.952	16.63
641.282	15.94
641.612	16.13
641.943	16.41
642.273	16.54
642.603	16.53
642.933	16.48
643.263	16.45
643.592	16.68
643.922	16.76
644.252	16.95
644.582	16.56
644.911	16.44
645.241	16.83
645.571	16.13
645.9	16.64
646.23	16.15
646.559	16.56
646.888	16.4
647.218	16.88
647.547	17.03
647.876	17
648.205	16.24
648.534	16.41
648.863	16.66
649.192	16.35
649.521	16.16
649.85	16.69
650.179	16.04
650.508	16.5
650.837	16.61
651.165	16.91
651.494	16.67
651.822	16.41
652.151	17.14
652.479	17.29
652.808	16.65
653.136	16.61
653.465	16.74
653.793	17.05
654.121	17.02
654.449	16.78
654.777	17.35
655.105	17.35
655.433	17.16
655.761	16.65
656.089	16.92
656.417	17.21
656.745	17.27
657.073	17.36
657.4	16.68
657.728	16.77
658.056	16.93
658.383	17.42
658.711	16.57
659.038	17.17
659.365	17.05
659.693	17.2
660.02	16.58
660.347	17.17
660.674	16.72
661.001	16.48
661.329	16.93
661.656	16.89
661.982	17.49
662.309	17.25
662.636	17.41
662.963	17.7
663.29	17.4
663.616	17.07
663.943	17.85
664.27	17.37
664.596	16.94
664.923	17.71
665.249	17.02
665.576	16.95
665.902	16.98
666.228	17.12
666.554	16.94
666.881	17.44
667.207	17.55
667.533	17.36
667.859	17.47
668.185	17.28
668.511	16.95
668.837	17.72
669.162	17.56
669.488	18.03
669.814	17.64
670.139	17.98
670.465	17.3
670.791	17.85
671.116	17.47
671.442	17.45
671.767	17.84
672.092	18.01
672.418	17.67
672.743	17.71
673.068	17.3
673.393	18.07
673.718	18.01
674.043	17.4
674.368	18.46
674.693	17.44
675.018	18.37
675.343	17.7
675.667	18.16
675.992	17.19
676.317	17.1
676.641	17.71
676.966	17.81
677.29	17.28
677.615	17.89
677.939	17.72
678.264	17.69
678.588	18.02
678.912	18.64
