Data from 0073_chest_Reflection__1__330.txt Node

Date: Fri Dec 16 16:43:20 CST 2022
User: ToomeyLab
Spectrometer: FLMS14357
Trigger mode: 0
Integration Time (sec): 1.000000E-2
Scans to average: 100
Electric dark correction enabled: true
Nonlinearity correction enabled: false
Boxcar width: 0
XAxis mode: Wavelengths
Number of Pixels in Spectrum: 2048
>>>>>Begin Spectral Data<<<<<
189.047	-1321.33
189.435	-1321.33
189.823	-1321.33
190.211	976.65
190.599	361.9
190.987	324.41
191.375	-89.88
191.763	66.09
192.151	74.69
192.538	260.65
192.926	-260.65
193.314	90.18
193.702	39.53
194.089	44.69
194.477	-163.49
194.864	117.19
195.252	-112.59
195.639	111.81
196.027	983.05
196.414	-22.02
196.801	-2.15
197.189	58.61
197.576	-84.43
197.963	230.2
198.351	10.05
198.738	135.68
199.125	45.88
199.512	-2.43
199.899	-32.92
200.286	-114.52
200.673	39.55
201.06	38.7
201.447	21.42
201.833	28.78
202.22	34.34
202.607	-101.69
202.994	-22.39
203.38	-10.43
203.767	-33.71
204.154	-60.49
204.54	-18.83
204.927	1.96
205.313	-2.4
205.699	11.51
206.086	-27.17
206.472	-8.35
206.858	1.34
207.245	3.86
207.631	-13
208.017	-9.62
208.403	-53.27
208.789	2.61
209.175	51.16
209.561	-23.31
209.947	-18.95
210.333	-43.59
210.719	22.11
211.105	-45.21
211.491	-4.22
211.876	-28.52
212.262	-61.45
212.648	-68.29
213.034	-42.41
213.419	2.88
213.805	-2.39
214.19	-20.69
214.576	-21.05
214.961	-9.34
215.346	-50.24
215.732	-50.98
216.117	-11.84
216.502	-50.03
216.888	-4.13
217.273	51.87
217.658	-33.38
218.043	-27.54
218.428	-15.82
218.813	-24.51
219.198	-59.84
219.583	-16.34
219.968	17.77
220.353	24.53
220.738	-21.86
221.122	-26.73
221.507	-11.44
221.892	-18.61
222.276	-3.75
222.661	-23.86
223.046	-14.88
223.43	-11.15
223.815	1.47
224.199	-3.7
224.583	11.9
224.968	6.46
225.352	-9.51
225.736	2.2
226.121	-2.94
226.505	1.43
226.889	-0.63
227.273	1.24
227.657	0.44
228.041	0.77
228.425	2.53
228.809	4.6
229.193	2.51
229.577	4.78
229.961	4.63
230.344	4.62
230.728	4
231.112	4.34
231.495	3.46
231.879	4.64
232.263	1.91
232.646	3.28
233.03	1
233.413	3.02
233.797	6.38
234.18	3.14
234.563	2.82
234.946	3.55
235.33	4.55
235.713	4.93
236.096	2.51
236.479	5.78
236.862	5.16
237.245	3.11
237.628	2.3
238.011	4.6
238.394	5.6
238.777	3.24
239.16	1.61
239.543	1.84
239.925	4.92
240.308	4.25
240.691	2.76
241.073	3.86
241.456	4.12
241.838	4.84
242.221	4.21
242.603	4.13
242.986	5.04
243.368	4.26
243.75	3.85
244.133	4.07
244.515	4.08
244.897	4.06
245.279	4.23
245.661	3.59
246.043	4.45
246.425	3.13
246.807	4.34
247.189	3.51
247.571	4.32
247.953	4.3
248.335	4.26
248.717	4.28
249.098	4.1
249.48	3.9
249.862	3.88
250.243	4.05
250.625	4.31
251.006	3.54
251.388	3.85
251.769	3.56
252.151	3.81
252.532	3.52
252.913	3.82
253.295	3.61
253.676	4.31
254.057	3.86
254.438	3.68
254.819	4.16
255.2	3.62
255.581	3.94
255.962	3.73
256.343	4.41
256.724	3.61
257.105	4.76
257.486	4.18
257.867	2.13
258.247	3.48
258.628	3.89
259.009	3.2
259.389	3.91
259.77	3.57
260.15	4.77
260.531	3.82
260.911	4.06
261.292	4.01
261.672	3.8
262.052	3.96
262.432	3.48
262.813	3.77
263.193	3.68
263.573	3.97
263.953	4.07
264.333	3.66
264.713	3.01
265.093	3.54
265.473	4.07
265.853	4.75
266.233	3.02
266.612	3.7
266.992	3.3
267.372	3.88
267.752	3.57
268.131	3.74
268.511	4.42
268.89	3.77
269.27	3.65
269.649	4.2
270.029	3.42
270.408	3.57
270.787	3.65
271.167	3.73
271.546	3.45
271.925	3.44
272.304	3.7
272.683	3.83
273.062	3.73
273.441	3.81
273.82	3.92
274.199	3.48
274.578	4.05
274.957	3.53
275.336	3.24
275.715	3.67
276.093	4.35
276.472	3.57
276.851	4.08
277.229	3.28
277.608	3.57
277.986	3.57
278.365	3.41
278.743	4.08
279.122	3
279.5	3.22
279.878	3.29
280.257	3.57
280.635	3.39
281.013	3.58
281.391	3.62
281.769	3.33
282.147	3.64
282.525	3.64
282.903	3.84
283.281	3.15
283.659	3.32
284.037	3.38
284.415	3.69
284.792	4.11
285.17	3.03
285.548	2.93
285.925	3.68
286.303	3.39
286.68	3.69
287.058	3.68
287.435	3.47
287.813	3.68
288.19	4.08
288.567	2.98
288.945	3.41
289.322	3.38
289.699	3.49
290.076	3.84
290.453	3.6
290.83	3.42
291.207	3.31
291.584	3.36
291.961	3.51
292.338	3.56
292.715	3.64
293.092	3.27
293.469	3.78
293.845	3.63
294.222	3.51
294.599	3.57
294.975	3.7
295.352	3.29
295.728	3.42
296.105	3.78
296.481	3.57
296.858	3.81
297.234	3.75
297.61	3.61
297.986	3.73
298.363	3.37
298.739	3.73
299.115	2.98
299.491	3.86
299.867	3.58
300.243	3.73
300.619	3.55
300.995	3.62
301.371	3.96
301.746	3.38
302.122	4.02
302.498	3.51
302.874	3.79
303.249	4.1
303.625	3.84
304	3.3
304.376	3.77
304.751	3.84
305.127	3.55
305.502	3.56
305.878	3.2
306.253	3.32
306.628	3.57
307.003	3.73
307.378	3.1
307.754	3.57
308.129	3.16
308.504	3.85
308.879	3.32
309.254	3.76
309.629	3.67
310.003	3.72
310.378	3.65
310.753	3.23
311.128	2.71
311.502	3.12
311.877	3.18
312.252	3.28
312.626	3.09
313.001	3.48
313.375	3.68
313.75	3.38
314.124	3.95
314.498	3.3
314.873	3.65
315.247	3.44
315.621	3.37
315.995	3.62
316.369	3.83
316.743	3.86
317.117	3.53
317.491	3.52
317.865	2.9
318.239	3.27
318.613	3.26
318.987	3.28
319.361	3.43
319.734	3.37
320.108	3.67
320.482	3.49
320.855	3.65
321.229	3.62
321.602	3.93
321.976	3.41
322.349	2.82
322.723	2.57
323.096	3.53
323.469	3.5
323.843	3.47
324.216	3.19
324.589	4.07
324.962	3.4
325.335	3.24
325.708	3.63
326.081	3.77
326.454	3.41
326.827	3.23
327.2	4.22
327.573	4.09
327.945	3.66
328.318	3.73
328.691	3.45
329.063	3.77
329.436	3.24
329.809	3.66
330.181	3.51
330.553	3.53
330.926	3.29
331.298	3.01
331.671	3.27
332.043	3.52
332.415	3.72
332.787	3.77
333.159	3.09
333.532	3.57
333.904	3.55
334.276	3.53
334.648	3.69
335.02	3.63
335.391	4.03
335.763	3.26
336.135	3.49
336.507	3.61
336.879	3.62
337.25	3.06
337.622	3.68
337.993	3.41
338.365	4.26
338.736	3.49
339.108	3.24
339.479	3.37
339.851	3.31
340.222	3.38
340.593	3.26
340.964	3.36
341.336	3.55
341.707	3.86
342.078	3.51
342.449	4.06
342.82	3.55
343.191	3.1
343.562	3.55
343.933	3.3
344.303	3.94
344.674	3.39
345.045	3.7
345.416	3.36
345.786	2.99
346.157	3.58
346.527	3.21
346.898	3.48
347.268	3.44
347.639	3.51
348.009	3.58
348.38	3.29
348.75	3.43
349.12	3.64
349.49	3.52
349.861	3.93
350.231	3.89
350.601	3.48
350.971	3.53
351.341	3.81
351.711	3.28
352.081	3.66
352.45	3.31
352.82	3.34
353.19	3.35
353.56	3.43
353.929	3.89
354.299	3.28
354.669	3.76
355.038	3.56
355.408	3.85
355.777	3.84
356.147	3.69
356.516	3.64
356.885	3.67
357.254	3.82
357.624	3.51
357.993	3.41
358.362	3.85
358.731	3.76
359.1	4.1
359.469	3.95
359.838	3.61
360.207	3.53
360.576	3.72
360.945	3.51
361.314	3.74
361.682	3.52
362.051	3.49
362.42	3.84
362.788	3.68
363.157	3.65
363.525	3.77
363.894	3.44
364.262	3.65
364.631	4.24
364.999	3.35
365.367	4.04
365.735	3.26
366.104	3.25
366.472	3.49
366.84	3.75
367.208	3.44
367.576	3.6
367.944	4.12
368.312	3.26
368.68	3.88
369.048	3.77
369.416	3.57
369.783	3.86
370.151	3.92
370.519	3.38
370.886	3.73
371.254	3.88
371.621	3.49
371.989	3.76
372.356	3.57
372.724	3.54
373.091	3.83
373.458	3.55
373.826	3.52
374.193	4.04
374.56	3.78
374.927	3.84
375.294	4.21
375.661	4.01
376.028	3.65
376.395	3.67
376.762	4.17
377.129	4.04
377.496	3.84
377.863	3.58
378.229	3.67
378.596	3.38
378.963	3.55
379.329	3.68
379.696	3.71
380.062	3.99
380.429	4.04
380.795	3.58
381.161	4.11
381.528	3.04
381.894	3.72
382.26	3.52
382.626	3.76
382.993	3.5
383.359	3.11
383.725	3.74
384.091	3.63
384.457	3.78
384.823	3.8
385.188	4.12
385.554	3.56
385.92	4.17
386.286	4.19
386.651	3.74
387.017	3.9
387.383	3.6
387.748	3.58
388.114	4.01
388.479	3.79
388.845	3.72
389.21	3.96
389.575	3.84
389.94	3.75
390.306	3.59
390.671	3.79
391.036	3.86
391.401	4.13
391.766	3.83
392.131	3.81
392.496	3.9
392.861	3.71
393.226	4.06
393.591	3.99
393.956	3.92
394.32	3.88
394.685	3.83
395.05	3.64
395.414	3.71
395.779	3.77
396.143	3.93
396.508	3.91
396.872	3.97
397.236	3.54
397.601	3.92
397.965	3.55
398.329	4.14
398.694	3.55
399.058	3.53
399.422	3.89
399.786	3.88
400.15	3.79
400.514	3.92
400.878	3.83
401.242	4.1
401.605	3.67
401.969	4.03
402.333	3.73
402.697	4.06
403.06	4.2
403.424	3.79
403.787	4.11
404.151	3.85
404.514	4.15
404.878	3.94
405.241	3.99
405.604	3.82
405.968	4.01
406.331	3.97
406.694	3.92
407.057	4.11
407.42	3.91
407.783	3.86
408.146	3.72
408.509	3.93
408.872	3.9
409.235	3.92
409.598	4.09
409.961	3.99
410.323	3.84
410.686	4.08
411.049	3.89
411.411	4.06
411.774	3.96
412.136	3.88
412.499	3.85
412.861	3.83
413.223	4.13
413.586	3.77
413.948	3.84
414.31	3.93
414.672	4.16
415.035	4.02
415.397	3.89
415.759	3.98
416.121	4.13
416.483	4.07
416.845	4.01
417.206	4.2
417.568	4
417.93	3.87
418.292	3.97
418.653	4
419.015	4
419.377	4.1
419.738	4.02
420.1	3.94
420.461	3.87
420.822	4.06
421.184	3.86
421.545	3.96
421.906	4.02
422.267	3.74
422.629	3.91
422.99	3.92
423.351	3.92
423.712	3.91
424.073	4.06
424.434	3.86
424.795	3.9
425.155	3.98
425.516	4.02
425.877	4.02
426.238	3.76
426.598	4
426.959	3.89
427.32	4.02
427.68	4
428.041	3.96
428.401	3.9
428.761	3.93
429.122	3.95
429.482	3.88
429.842	4.05
430.202	4.03
430.563	4.03
430.923	4.02
431.283	4.18
431.643	3.98
432.003	4.03
432.363	4.1
432.722	3.98
433.082	3.99
433.442	4
433.802	4.1
434.161	3.92
434.521	4.14
434.881	4.17
435.24	3.96
435.6	3.98
435.959	3.96
436.319	3.84
436.678	4.03
437.037	4.11
437.396	4.01
437.756	4.07
438.115	4.11
438.474	4.12
438.833	4.05
439.192	4.1
439.551	4.13
439.91	4.12
440.269	4.04
440.628	4
440.987	4.02
441.345	3.98
441.704	4.11
442.063	3.97
442.421	4.08
442.78	4.1
443.138	4
443.497	3.98
443.855	4
444.214	4.12
444.572	3.94
444.93	4.26
445.288	4.2
445.647	4.08
446.005	3.95
446.363	4.04
446.721	3.96
447.079	4.09
447.437	4.03
447.795	4.07
448.153	4
448.51	4.03
448.868	4.11
449.226	4.04
449.584	4.07
449.941	4.18
450.299	4.13
450.656	4.13
451.014	4.11
451.371	4.25
451.729	4.16
452.086	3.95
452.443	3.97
452.801	4.21
453.158	4.28
453.515	4.16
453.872	4.2
454.229	4
454.586	4.09
454.943	4.17
455.3	4.28
455.657	4.09
456.014	4.17
456.371	4.23
456.727	3.94
457.084	4.1
457.441	4.07
457.797	4.24
458.154	4.07
458.51	4.14
458.867	4.06
459.223	3.98
459.58	4.06
459.936	4.15
460.292	4.19
460.648	4.11
461.005	3.96
461.361	4.18
461.717	4.14
462.073	4.15
462.429	4.18
462.785	4.28
463.141	4.22
463.496	4.02
463.852	4.37
464.208	4.16
464.564	4.12
464.919	4.18
465.275	4.25
465.631	4.13
465.986	4.15
466.342	4.13
466.697	4.06
467.052	4.21
467.408	4
467.763	4.09
468.118	4.23
468.473	4.27
468.829	4.11
469.184	4.12
469.539	4.04
469.894	4.16
470.249	4.17
470.603	4.13
470.958	4.31
471.313	4.27
471.668	4.32
472.023	4.46
472.377	4.24
472.732	4.29
473.086	4.12
473.441	4.28
473.795	4.28
474.15	4.31
474.504	4.29
474.859	4.21
475.213	4.19
475.567	4.05
475.921	4.31
476.275	4.38
476.63	4.36
476.984	4.3
477.338	4.58
477.692	4.26
478.045	4.14
478.399	4.25
478.753	4.16
479.107	4.34
479.461	4.36
479.814	4.23
480.168	4.22
480.521	4.29
480.875	4.39
481.228	4.4
481.582	4.26
481.935	4.31
482.289	4.18
482.642	4.32
482.995	4.31
483.348	4.18
483.701	4.19
484.055	4.15
484.408	4.16
484.761	4.09
485.114	4.05
485.466	4.02
485.819	4.05
486.172	4.08
486.525	4.14
486.878	4.15
487.23	4.21
487.583	4.17
487.936	4.23
488.288	4.18
488.641	4.15
488.993	4.07
489.345	4.15
489.698	4.19
490.05	4.14
490.402	4.22
490.754	4.28
491.107	4.24
491.459	4.3
491.811	4.36
492.163	4.4
492.515	4.28
492.866	4.12
493.218	4.16
493.57	4.2
493.922	4.22
494.274	4.29
494.625	4.36
494.977	4.26
495.328	4.41
495.68	4.46
496.031	4.49
496.383	4.35
496.734	4.51
497.086	4.25
497.437	4.45
497.788	4.43
498.139	4.43
498.49	4.47
498.842	4.41
499.193	4.33
499.544	4.48
499.894	4.42
500.245	4.41
500.596	4.37
500.947	4.39
501.298	4.4
501.648	4.41
501.999	4.57
502.35	4.6
502.7	4.55
503.051	4.64
503.401	4.52
503.752	4.42
504.102	4.49
504.452	4.47
504.803	4.25
505.153	4.55
505.503	4.37
505.853	4.41
506.203	4.54
506.553	4.51
506.903	4.41
507.253	4.52
507.603	4.5
507.953	4.66
508.303	4.5
508.652	4.42
509.002	4.51
509.352	4.55
509.701	4.52
510.051	4.57
510.4	4.55
510.75	4.48
511.099	4.51
511.449	4.37
511.798	4.58
512.147	4.5
512.496	4.64
512.846	4.42
513.195	4.59
513.544	4.48
513.893	4.43
514.242	4.61
514.591	4.49
514.939	4.54
515.288	4.64
515.637	4.66
515.986	4.46
516.334	4.66
516.683	4.46
517.032	4.48
517.38	4.61
517.729	4.59
518.077	4.58
518.426	4.58
518.774	4.62
519.122	4.56
519.47	4.51
519.819	4.58
520.167	4.7
520.515	4.55
520.863	4.6
521.211	4.59
521.559	4.63
521.907	4.57
522.255	4.62
522.602	4.84
522.95	4.7
523.298	4.69
523.645	4.61
523.993	4.76
524.341	4.77
524.688	4.72
525.036	4.76
525.383	4.71
525.73	4.67
526.078	4.67
526.425	4.78
526.772	4.62
527.119	4.63
527.466	4.64
527.814	4.66
528.161	4.65
528.508	4.68
528.854	4.52
529.201	4.66
529.548	4.58
529.895	4.52
530.242	4.51
530.588	4.59
530.935	4.57
531.282	4.65
531.628	4.66
531.975	4.76
532.321	4.79
532.667	4.75
533.014	4.75
533.36	4.85
533.706	4.82
534.052	4.7
534.399	4.71
534.745	4.75
535.091	4.72
535.437	4.81
535.783	4.76
536.129	4.83
536.474	4.78
536.82	4.87
537.166	4.91
537.512	4.9
537.857	4.95
538.203	4.82
538.549	4.93
538.894	4.96
539.239	5.1
539.585	4.95
539.93	5.01
540.276	4.89
540.621	5.02
540.966	4.95
541.311	5.02
541.656	4.98
542.001	5.1
542.346	4.92
542.691	4.83
543.036	4.87
543.381	4.92
543.726	5.03
544.071	4.95
544.415	5.01
544.76	4.95
545.105	5.03
545.449	5.04
545.794	4.96
546.138	5.15
546.483	5.2
546.827	5.09
547.171	5.12
547.516	5.25
547.86	5.14
548.204	5.1
548.548	5.35
548.892	5.27
549.236	5.26
549.58	5.32
549.924	5.4
550.268	5.39
550.612	5.4
550.956	5.24
551.3	5.27
551.643	5.34
551.987	5.27
552.33	5.37
552.674	5.44
553.017	5.42
553.361	5.34
553.704	5.23
554.048	5.44
554.391	5.44
554.734	5.39
555.077	5.47
555.42	5.37
555.764	5.44
556.107	5.53
556.45	5.29
556.793	5.74
557.135	5.62
557.478	5.49
557.821	5.6
558.164	5.71
558.507	5.56
558.849	5.59
559.192	5.7
559.534	5.51
559.877	5.72
560.219	5.75
560.562	5.66
560.904	5.71
561.246	5.83
561.589	5.79
561.931	5.95
562.273	5.58
562.615	5.77
562.957	5.96
563.299	5.83
563.641	5.87
563.983	5.67
564.325	5.69
564.667	5.84
565.008	5.93
565.35	5.89
565.692	6.03
566.033	5.86
566.375	5.66
566.716	6.04
567.058	5.98
567.399	6.03
567.741	6.03
568.082	5.91
568.423	5.85
568.764	6
569.105	5.97
569.447	6.05
569.788	6.06
570.129	5.92
570.47	6.12
570.811	6.14
571.151	6.17
571.492	6.2
571.833	6.18
572.174	6.15
572.514	6.1
572.855	6.26
573.195	5.98
573.536	6.1
573.876	6.23
574.217	6.27
574.557	6.27
574.898	6.18
575.238	6.09
575.578	6.29
575.918	6.29
576.258	6.38
576.598	6.33
576.938	6.52
577.278	6.44
577.618	6.33
577.958	6.46
578.298	6.65
578.638	6.38
578.977	6.58
579.317	6.52
579.657	6.64
579.996	6.46
580.336	6.51
580.675	6.67
581.014	6.62
581.354	6.55
581.693	6.66
582.032	6.43
582.372	6.67
582.711	6.54
583.05	6.83
583.389	6.73
583.728	6.74
584.067	6.74
584.406	6.95
584.745	6.8
585.083	7.05
585.422	7.13
585.761	7.12
586.1	7.01
586.438	7.02
586.777	6.86
587.115	7.24
587.454	7.03
587.792	6.8
588.13	7.27
588.469	7.26
588.807	7.29
589.145	7.1
589.483	6.86
589.821	6.99
590.159	7.26
590.497	6.94
590.835	7.01
591.173	7.21
591.511	7.43
591.849	7.27
592.187	7.47
592.524	7.31
592.862	7.43
593.2	7.32
593.537	7.4
593.875	7.37
594.212	7.57
594.55	7.27
594.887	7.58
595.224	7.59
595.561	7.44
595.899	7.55
596.236	7.8
596.573	7.54
596.91	7.6
597.247	7.58
597.584	7.8
597.921	7.8
598.258	7.65
598.594	7.49
598.931	7.67
599.268	7.69
599.604	7.74
599.941	7.81
600.277	7.87
600.614	7.97
600.95	7.98
601.287	7.85
601.623	8.23
601.959	7.71
602.296	8
602.632	8.25
602.968	7.72
603.304	7.92
603.64	7.79
603.976	7.85
604.312	8.17
604.648	8.15
604.984	8.17
605.319	7.89
605.655	8.04
605.991	8.16
606.326	8.01
606.662	8.09
606.998	8.29
607.333	8.22
607.668	8.21
608.004	8.33
608.339	8.17
608.674	8.36
609.01	8.5
609.345	8.65
609.68	8.16
610.015	8.53
610.35	8.6
610.685	8.61
611.02	8.59
611.355	8.64
611.689	8.37
612.024	8.66
612.359	8.77
612.694	8.83
613.028	8.84
613.363	8.55
613.697	8.77
614.032	8.63
614.366	8.67
614.7	9.09
615.035	8.87
615.369	9.08
615.703	9.39
616.037	9.08
616.371	9.05
616.705	8.8
617.039	9.02
617.373	8.88
617.707	9.25
618.041	9.03
618.375	9.06
618.709	9.28
619.042	9.32
619.376	9.28
619.71	8.97
620.043	9.26
620.377	9.05
620.71	9.1
621.043	9.16
621.377	9.13
621.71	9.31
622.043	9.35
622.376	8.99
622.709	9.65
623.043	9.87
623.376	10.15
623.709	9.78
624.041	9.55
624.374	9.35
624.707	9.37
625.04	9.56
625.373	9.62
625.705	9.46
626.038	9.57
626.37	9.98
626.703	9.74
627.035	10.18
627.368	9.64
627.7	9.75
628.032	10.11
628.365	9.42
628.697	9.76
629.029	10.03
629.361	10.07
629.693	10.22
630.025	9.85
630.357	9.92
630.689	10.27
631.021	10.18
631.353	10.46
631.684	10.09
632.016	10.02
632.348	10.19
632.679	10.15
633.011	10.02
633.342	10.14
633.674	10.46
634.005	10.61
634.336	10.34
634.668	10.44
634.999	10.39
635.33	10.41
635.661	10.7
635.992	10.49
636.323	10.72
636.654	10.61
636.985	10.73
637.316	10.84
637.647	10.77
637.977	10.55
638.308	10.95
638.639	10.41
638.969	10.51
639.3	10.49
639.63	10.84
639.961	10.98
640.291	11.29
640.622	11.42
640.952	10.96
641.282	11.1
641.612	11.08
641.943	11.21
642.273	11.08
642.603	11.07
642.933	11.03
643.263	11.39
643.592	11.23
643.922	11.85
644.252	11.34
644.582	11.39
644.911	10.82
645.241	10.97
645.571	10.75
645.9	11.75
646.23	11.15
646.559	11.4
646.888	11.22
647.218	11.72
647.547	11.54
647.876	11.7
648.205	11.34
648.534	11.4
648.863	11.81
649.192	11.31
649.521	11.63
649.85	12.31
650.179	11.4
650.508	11.79
650.837	12.36
651.165	11.99
651.494	11.99
651.822	11.83
652.151	12.1
652.479	12
652.808	11.83
653.136	11.78
653.465	12.18
653.793	12.49
654.121	12.06
654.449	12.25
654.777	12.3
655.105	12.64
655.433	11.71
655.761	11.74
656.089	12.35
656.417	12.32
656.745	12.96
657.073	12.17
657.4	12.46
657.728	12.75
658.056	12.88
658.383	13.07
658.711	12.31
659.038	12.82
659.365	12.53
659.693	12.19
660.02	12.22
660.347	12.75
660.674	12.63
661.001	12.14
661.329	12.56
661.656	12.64
661.982	13.01
662.309	12.84
662.636	13.1
662.963	13.3
663.29	13.18
663.616	12.83
663.943	13.29
664.27	13.13
664.596	12.98
664.923	13.72
665.249	13.61
665.576	13.38
665.902	13.02
666.228	12.75
666.554	12.76
666.881	13.31
667.207	12.86
667.533	13.73
667.859	13.24
668.185	13.68
668.511	13
668.837	12.94
669.162	13.33
669.488	13.8
669.814	13.75
670.139	14.17
670.465	14.02
670.791	13.87
671.116	13.51
671.442	13.76
671.767	13.55
672.092	13.69
672.418	13.96
672.743	13.53
673.068	13.23
673.393	13.57
673.718	13.93
674.043	14.17
674.368	14.07
674.693	13.71
675.018	13.98
675.343	13.96
675.667	13.99
675.992	13.82
676.317	14.38
676.641	14.48
676.966	13.97
677.29	14.21
677.615	14.55
677.939	14.5
678.264	13.62
678.588	14.55
678.912	14.39
679.236	15.06
679.56	14.01
679.885	14.46
680.209	13.87
680.532	13.49
680.856	14.62
681.18	14.84
681.504	14.53
681.828	14.4
682.152	14.64
682.475	14.7
682.799	15.09
683.122	14.6
683.446	14.67
683.769	14.93
684.093	14.61
684.416	14.62
684.739	14.91
685.062	14.65
685.386	15.01
685.709	15.12
686.032	15.05
686.355	14.86
686.678	14.44
687.001	14.33
687.324	14.78
687.646	15.05
