Data from 0073_chest_Reflection__2__331.txt Node

Date: Fri Dec 16 16:43:31 CST 2022
User: ToomeyLab
Spectrometer: FLMS14357
Trigger mode: 0
Integration Time (sec): 1.000000E-2
Scans to average: 100
Electric dark correction enabled: true
Nonlinearity correction enabled: false
Boxcar width: 0
XAxis mode: Wavelengths
Number of Pixels in Spectrum: 2048
>>>>>Begin Spectral Data<<<<<
189.047	-1050.24
189.435	-1050.24
189.823	-1050.24
190.211	259.9
190.599	389.42
190.987	96.59
191.375	-270.93
191.763	-26.92
192.151	144.65
192.538	552.26
192.926	247.74
193.314	76.84
193.702	-35.22
194.089	84.44
194.477	75.25
194.864	-37.28
195.252	151.63
195.639	123.43
196.027	-2061.02
196.414	-10.9
196.801	124.99
197.189	119.87
197.576	-366.74
197.963	115.69
198.351	-35.07
198.738	616.74
199.125	53.06
199.512	26.64
199.899	-58.32
200.286	-80.39
200.673	64.22
201.06	26.82
201.447	35.6
201.833	-18.72
202.22	5.75
202.607	-15.28
202.994	-5.8
203.38	-36.55
203.767	-70.26
204.154	-29.84
204.54	20.76
204.927	-4.34
205.313	48.08
205.699	16.74
206.086	-8.5
206.472	-65.47
206.858	27.21
207.245	23.05
207.631	-35.43
208.017	14.84
208.403	11.79
208.789	-8.64
209.175	25.69
209.561	-10.85
209.947	-51.47
210.333	-21.91
210.719	-7.34
211.105	-35.11
211.491	16.34
211.876	-17.96
212.262	-49.24
212.648	-56.86
213.034	16.11
213.419	18.18
213.805	-21.05
214.19	-16.46
214.576	-32.99
214.961	-6.13
215.346	-42.07
215.732	-17.52
216.117	-20.91
216.502	-56.93
216.888	-4.18
217.273	32.12
217.658	-62.59
218.043	-17.98
218.428	4.91
218.813	-22.55
219.198	-33.81
219.583	-2.07
219.968	-23.82
220.353	2.99
220.738	0.38
221.122	-5.38
221.507	4.89
221.892	-13.98
222.276	3.5
222.661	-23.37
223.046	0.1
223.43	-17.16
223.815	-1.94
224.199	4.62
224.583	-1.48
224.968	1.11
225.352	1.22
225.736	5.68
226.121	-12.68
226.505	-1.68
226.889	5.64
227.273	-1.85
227.657	-0.33
228.041	7.88
228.425	1.99
228.809	3.57
229.193	2.63
229.577	3.5
229.961	2.6
230.344	3.83
230.728	3.18
231.112	2.78
231.495	2.37
231.879	3.98
232.263	2.22
232.646	1.99
233.03	2.27
233.413	-0.61
233.797	3.56
234.18	0.22
234.563	4.81
234.946	1.16
235.33	2.31
235.713	2.83
236.096	2.36
236.479	2.91
236.862	3.97
237.245	4.95
237.628	4
238.011	1.19
238.394	5.87
238.777	2.3
239.16	1.65
239.543	1.05
239.925	4.12
240.308	3.43
240.691	2.65
241.073	3.85
241.456	1.84
241.838	2.58
242.221	3.09
242.603	2.66
242.986	4.35
243.368	3.8
243.75	3.34
244.133	3.44
244.515	3.78
244.897	4.01
245.279	3.23
245.661	4.06
246.043	3.64
246.425	3.41
246.807	3.22
247.189	3.75
247.571	3.89
247.953	3.49
248.335	3.62
248.717	3.59
249.098	3.76
249.48	3.4
249.862	3.72
250.243	3.65
250.625	3.68
251.006	3.55
251.388	3.27
251.769	2.84
252.151	3.1
252.532	4.49
252.913	4.12
253.295	3.23
253.676	3.9
254.057	3.14
254.438	3.06
254.819	3.62
255.2	3.28
255.581	2.79
255.962	2.59
256.343	4.66
256.724	3.08
257.105	2.28
257.486	3.29
257.867	1.29
258.247	3.31
258.628	3.29
259.009	2.82
259.389	3.43
259.77	2.94
260.15	3.95
260.531	3.57
260.911	3.38
261.292	3.44
261.672	3.27
262.052	3.14
262.432	2.9
262.813	3.38
263.193	3.09
263.573	3.16
263.953	2.94
264.333	3.17
264.713	2.68
265.093	2.01
265.473	3.81
265.853	2.67
266.233	2.3
266.612	3.01
266.992	2.9
267.372	2.67
267.752	2.52
268.131	3.09
268.511	3.46
268.89	3.8
269.27	3.6
269.649	3.08
270.029	3.09
270.408	2.65
270.787	3.19
271.167	3.21
271.546	2.5
271.925	2.97
272.304	2.74
272.683	2.73
273.062	3.24
273.441	3.23
273.82	3.39
274.199	3.34
274.578	3.03
274.957	3.5
275.336	3.18
275.715	3.32
276.093	3.29
276.472	3.23
276.851	3.43
277.229	3.64
277.608	2.72
277.986	2.95
278.365	2.94
278.743	3.34
279.122	2.45
279.5	2.81
279.878	1.62
280.257	3.09
280.635	2.57
281.013	3.25
281.391	2.9
281.769	2.76
282.147	2.92
282.525	2.7
282.903	3.77
283.281	3.1
283.659	2.99
284.037	2.82
284.415	2.99
284.792	2.9
285.17	2.7
285.548	3.22
285.925	3.01
286.303	2.58
286.68	3.49
287.058	2.86
287.435	2.86
287.813	2.96
288.19	3.44
288.567	2.68
288.945	2.96
289.322	2.53
289.699	3.5
290.076	3.5
290.453	3.08
290.83	3.33
291.207	2.9
291.584	3.19
291.961	2.98
292.338	3.21
292.715	3.22
293.092	3.17
293.469	3.43
293.845	3.33
294.222	3.17
294.599	3.81
294.975	3.77
295.352	3.21
295.728	2.8
296.105	3.43
296.481	3.51
296.858	3.27
297.234	3.17
297.61	3.16
297.986	3.16
298.363	2.77
298.739	3.35
299.115	2.64
299.491	2.96
299.867	3.31
300.243	2.95
300.619	2.6
300.995	3.12
301.371	3.59
301.746	2.88
302.122	3.12
302.498	3.26
302.874	3.28
303.249	3.27
303.625	2.85
304	2.42
304.376	2.91
304.751	3.37
305.127	2.96
305.502	2.84
305.878	2.79
306.253	2.57
306.628	3.39
307.003	2.82
307.378	2.53
307.754	2.91
308.129	2.52
308.504	2.63
308.879	2.88
309.254	3.15
309.629	3.01
310.003	3.25
310.378	2.66
310.753	3.23
311.128	2.81
311.502	2.63
311.877	3.22
312.252	2.83
312.626	2.94
313.001	2.9
313.375	2.89
313.75	2.82
314.124	3.75
314.498	3.06
314.873	2.88
315.247	2.16
315.621	2.85
315.995	2.76
316.369	3.05
316.743	3.49
317.117	2.78
317.491	2.84
317.865	2.48
318.239	3.25
318.613	3.4
318.987	3.01
319.361	3.21
319.734	3.2
320.108	3.11
320.482	2.79
320.855	3.15
321.229	3.01
321.602	3
321.976	2.97
322.349	2.18
322.723	2.38
323.096	2.53
323.469	2.55
323.843	2.66
324.216	2.75
324.589	3.13
324.962	3.02
325.335	2.33
325.708	3.28
326.081	3.42
326.454	3.32
326.827	2.93
327.2	3.19
327.573	3.16
327.945	3.42
328.318	3.17
328.691	3.02
329.063	2.47
329.436	2.85
329.809	2.29
330.181	3.26
330.553	3.63
330.926	3.2
331.298	2.83
331.671	2.55
332.043	2.98
332.415	3.65
332.787	3.59
333.159	2.44
333.532	3.27
333.904	3.29
334.276	3.37
334.648	2.95
335.02	2.84
335.391	3.1
335.763	2.92
336.135	3.48
336.507	3.59
336.879	2.83
337.25	2.88
337.622	3.4
337.993	2.84
338.365	3.57
338.736	3.21
339.108	2.85
339.479	3.11
339.851	3.3
340.222	2.69
340.593	3.12
340.964	2.65
341.336	2.44
341.707	3
342.078	2.82
342.449	3.27
342.82	3.11
343.191	2.95
343.562	3.26
343.933	3.37
344.303	3
344.674	3.16
345.045	3.28
345.416	2.89
345.786	3.17
346.157	2.94
346.527	2.88
346.898	2.73
347.268	3.16
347.639	2.92
348.009	3.46
348.38	3.32
348.75	3.15
349.12	3.04
349.49	2.71
349.861	3.06
350.231	3.07
350.601	3.17
350.971	2.66
351.341	3.09
351.711	2.78
352.081	3.06
352.45	3.3
352.82	3.08
353.19	3.15
353.56	2.89
353.929	3.5
354.299	2.99
354.669	2.79
355.038	3.18
355.408	3.41
355.777	3.17
356.147	3.34
356.516	3.33
356.885	2.91
357.254	3.44
357.624	3.13
357.993	3.11
358.362	3.13
358.731	3.54
359.1	3.26
359.469	3.31
359.838	3
360.207	3.26
360.576	3.21
360.945	2.94
361.314	3.44
361.682	3.15
362.051	3.05
362.42	3.61
362.788	3.16
363.157	3.05
363.525	3.01
363.894	3.02
364.262	3.17
364.631	3.57
364.999	2.74
365.367	3.33
365.735	2.75
366.104	2.96
366.472	3.26
366.84	3.26
367.208	2.88
367.576	3.21
367.944	3.38
368.312	2.62
368.68	3.39
369.048	3.42
369.416	3.16
369.783	3.34
370.151	3.1
370.519	3.15
370.886	3.12
371.254	3.29
371.621	3.33
371.989	3.09
372.356	3.12
372.724	3.31
373.091	3.1
373.458	2.97
373.826	2.94
374.193	3.81
374.56	3.19
374.927	3.16
375.294	3.25
375.661	3.36
376.028	3.16
376.395	3.09
376.762	3.51
377.129	3.51
377.496	3.45
377.863	3.25
378.229	3.18
378.596	3.28
378.963	3.12
379.329	3.42
379.696	3.18
380.062	3.15
380.429	3.44
380.795	2.96
381.161	3.12
381.528	2.82
381.894	3.15
382.26	3.04
382.626	2.89
382.993	3.15
383.359	3.03
383.725	3.15
384.091	3.14
384.457	3.46
384.823	3.46
385.188	3.47
385.554	3.25
385.92	3.43
386.286	3.45
386.651	3.15
387.017	3.37
387.383	3.3
387.748	3.36
388.114	3.46
388.479	3.13
388.845	3.4
389.21	3.46
389.575	3.46
389.94	3.26
390.306	3.43
390.671	3.24
391.036	3.6
391.401	3.81
391.766	3.25
392.131	3.2
392.496	3.44
392.861	3.22
393.226	3.47
393.591	3.57
393.956	3.49
394.32	3.55
394.685	3.5
395.05	3.04
395.414	3.36
395.779	3.23
396.143	3.42
396.508	3.37
396.872	3.34
397.236	3.08
397.601	3.59
397.965	3.01
398.329	3.2
398.694	3.23
399.058	3.25
399.422	3.38
399.786	3.3
400.15	3.24
400.514	3.26
400.878	3.44
401.242	3.69
401.605	3.14
401.969	3.57
402.333	3.17
402.697	3.59
403.06	3.45
403.424	3.18
403.787	3.64
404.151	3.17
404.514	3.45
404.878	3.43
405.241	3.45
405.604	3.32
405.968	3.44
406.331	3.58
406.694	3.46
407.057	3.96
407.42	3.25
407.783	3.39
408.146	3.41
408.509	3.37
408.872	3.15
409.235	3.48
409.598	3.75
409.961	3.3
410.323	3.46
410.686	3.11
411.049	3.28
411.411	3.39
411.774	3.26
412.136	3.4
412.499	3.47
412.861	3.01
413.223	3.6
413.586	3.38
413.948	3.52
414.31	3.34
414.672	3.42
415.035	3.53
415.397	3.59
415.759	3.31
416.121	3.52
416.483	3.56
416.845	3.3
417.206	3.54
417.568	3.31
417.93	3.46
418.292	3.26
418.653	3.44
419.015	3.45
419.377	3.57
419.738	3.46
420.1	3.38
420.461	3.37
420.822	3.48
421.184	3.35
421.545	3.41
421.906	3.53
422.267	3.33
422.629	3.44
422.99	3.47
423.351	3.39
423.712	3.36
424.073	3.43
424.434	3.41
424.795	3.34
425.155	3.44
425.516	3.32
425.877	3.53
426.238	3.36
426.598	3.5
426.959	3.41
427.32	3.49
427.68	3.52
428.041	3.48
428.401	3.51
428.761	3.63
429.122	3.41
429.482	3.32
429.842	3.4
430.202	3.53
430.563	3.76
430.923	3.45
431.283	3.62
431.643	3.5
432.003	3.52
432.363	3.68
432.722	3.49
433.082	3.61
433.442	3.49
433.802	3.54
434.161	3.53
434.521	3.49
434.881	3.64
435.24	3.42
435.6	3.57
435.959	3.51
436.319	3.51
436.678	3.62
437.037	3.63
437.396	3.64
437.756	3.51
438.115	3.65
438.474	3.68
438.833	3.57
439.192	3.48
439.551	3.72
439.91	3.6
440.269	3.69
440.628	3.49
440.987	3.53
441.345	3.6
441.704	3.64
442.063	3.48
442.421	3.58
442.78	3.5
443.138	3.38
443.497	3.41
443.855	3.44
444.214	3.6
444.572	3.48
444.93	3.52
445.288	3.49
445.647	3.69
446.005	3.41
446.363	3.51
446.721	3.45
447.079	3.53
447.437	3.39
447.795	3.49
448.153	3.49
448.51	3.5
448.868	3.62
449.226	3.63
449.584	3.67
449.941	3.59
450.299	3.52
450.656	3.6
451.014	3.6
451.371	3.62
451.729	3.55
452.086	3.55
452.443	3.49
452.801	3.58
453.158	3.62
453.515	3.49
453.872	3.79
454.229	3.54
454.586	3.56
454.943	3.54
455.3	3.79
455.657	3.56
456.014	3.77
456.371	3.71
456.727	3.52
457.084	3.66
457.441	3.58
457.797	3.58
458.154	3.69
458.51	3.4
458.867	3.63
459.223	3.6
459.58	3.54
459.936	3.58
460.292	3.65
460.648	3.44
461.005	3.5
461.361	3.55
461.717	3.59
462.073	3.59
462.429	3.68
462.785	3.72
463.141	3.66
463.496	3.65
463.852	3.78
464.208	3.74
464.564	3.68
464.919	3.68
465.275	3.73
465.631	3.48
465.986	3.63
466.342	3.43
466.697	3.47
467.052	3.7
467.408	3.49
467.763	3.66
468.118	3.68
468.473	3.8
468.829	3.72
469.184	3.82
469.539	3.58
469.894	3.72
470.249	3.76
470.603	3.72
470.958	3.78
471.313	3.57
471.668	3.88
472.023	3.94
472.377	3.69
472.732	3.76
473.086	3.61
473.441	3.73
473.795	3.88
474.15	3.69
474.504	3.66
474.859	3.75
475.213	3.72
475.567	3.57
475.921	3.74
476.275	3.78
476.63	3.74
476.984	3.96
477.338	3.74
477.692	3.64
478.045	3.59
478.399	3.58
478.753	3.64
479.107	3.73
479.461	3.76
479.814	3.65
480.168	3.76
480.521	3.69
480.875	3.85
481.228	3.9
481.582	3.63
481.935	3.71
482.289	3.71
482.642	3.79
482.995	3.7
483.348	3.68
483.701	3.64
484.055	3.64
484.408	3.62
484.761	3.44
485.114	3.43
485.466	3.47
485.819	3.5
486.172	3.58
486.525	3.71
486.878	3.6
487.23	3.73
487.583	3.63
487.936	3.62
488.288	3.64
488.641	3.57
488.993	3.45
489.345	3.53
489.698	3.64
490.05	3.63
490.402	3.69
490.754	3.78
491.107	3.75
491.459	3.81
491.811	3.85
492.163	3.78
492.515	3.66
492.866	3.55
493.218	3.59
493.57	3.69
493.922	3.73
494.274	3.84
494.625	3.79
494.977	3.86
495.328	3.95
495.68	3.98
496.031	3.81
496.383	3.76
496.734	3.93
497.086	3.76
497.437	3.95
497.788	3.82
498.139	3.8
498.49	3.84
498.842	3.8
499.193	3.76
499.544	3.91
499.894	3.85
500.245	3.77
500.596	3.8
500.947	3.89
501.298	3.88
501.648	3.82
501.999	3.95
502.35	3.9
502.7	3.88
503.051	3.94
503.401	3.88
503.752	3.86
504.102	3.92
504.452	3.88
504.803	3.72
505.153	3.91
505.503	3.89
505.853	3.85
506.203	3.89
506.553	3.95
506.903	3.88
507.253	3.94
507.603	3.82
507.953	4.03
508.303	3.99
508.652	3.88
509.002	3.93
509.352	3.87
509.701	3.85
510.051	4.04
510.4	3.9
510.75	3.92
511.099	3.88
511.449	3.9
511.798	4.1
512.147	3.97
512.496	4.02
512.846	3.94
513.195	3.95
513.544	3.89
513.893	3.83
514.242	4
514.591	4.08
514.939	3.86
515.288	4.08
515.637	4.06
515.986	4.01
516.334	4.05
516.683	4.03
517.032	4.03
517.38	4.13
517.729	3.96
518.077	3.95
518.426	3.95
518.774	3.94
519.122	4.07
519.47	3.94
519.819	3.97
520.167	3.88
520.515	3.83
520.863	3.99
521.211	3.91
521.559	3.99
521.907	4.04
522.255	4.03
522.602	4.11
522.95	4.13
523.298	4.13
523.645	4.12
523.993	4.11
524.341	4.1
524.688	4.11
525.036	4.28
525.383	4.14
525.73	4.09
526.078	4.1
526.425	4.05
526.772	3.93
527.119	3.96
527.466	3.99
527.814	4
528.161	4.13
528.508	4.06
528.854	3.96
529.201	4.03
529.548	3.97
529.895	3.83
530.242	3.87
530.588	3.98
530.935	4.01
531.282	4.07
531.628	4.08
531.975	4.11
532.321	4.14
532.667	4.16
533.014	4.07
533.36	4.14
533.706	4.15
534.052	4.08
534.399	3.99
534.745	3.98
535.091	4.02
535.437	4.12
535.783	4.13
536.129	4.24
536.474	4.24
536.82	4.28
537.166	4.37
537.512	4.24
537.857	4.2
538.203	4.2
538.549	4.27
538.894	4.16
539.239	4.34
539.585	4.39
539.93	4.31
540.276	4.35
540.621	4.33
540.966	4.35
541.311	4.46
541.656	4.26
542.001	4.32
542.346	4.24
542.691	4.13
543.036	4.14
543.381	4.25
543.726	4.33
544.071	4.35
544.415	4.34
544.76	4.27
545.105	4.41
545.449	4.37
545.794	4.43
546.138	4.43
546.483	4.43
546.827	4.42
547.171	4.42
547.516	4.61
547.86	4.38
548.204	4.41
548.548	4.52
548.892	4.53
549.236	4.6
549.58	4.53
549.924	4.46
550.268	4.73
550.612	4.72
550.956	4.47
551.3	4.63
551.643	4.62
551.987	4.57
552.33	4.71
552.674	4.72
553.017	4.64
553.361	4.67
553.704	4.59
554.048	4.69
554.391	4.59
554.734	4.68
555.077	4.71
555.42	4.67
555.764	4.65
556.107	4.62
556.45	4.7
556.793	4.97
557.135	4.9
557.478	4.84
557.821	4.82
558.164	4.91
558.507	4.67
558.849	4.75
559.192	4.9
559.534	4.61
559.877	4.97
560.219	5.04
560.562	5
560.904	4.78
561.246	4.98
561.589	5.18
561.931	5.27
562.273	4.77
562.615	4.91
562.957	5.1
563.299	5.15
563.641	5.08
563.983	4.82
564.325	4.84
564.667	5.03
565.008	4.89
565.35	5.16
565.692	5.2
566.033	5.13
566.375	4.87
566.716	5.07
567.058	5.14
567.399	5.17
567.741	5.16
568.082	5.16
568.423	5.1
568.764	5.23
569.105	5.26
569.447	5.32
569.788	5.11
570.129	5.23
570.47	5.33
570.811	5.36
571.151	5.31
571.492	5.3
571.833	5.3
572.174	5.38
572.514	5.1
572.855	5.36
573.195	5.35
573.536	5.33
573.876	5.37
574.217	5.29
574.557	5.59
574.898	5.47
575.238	5.49
575.578	5.61
575.918	5.48
576.258	5.46
576.598	5.47
576.938	5.67
577.278	5.38
577.618	5.51
577.958	5.45
578.298	5.66
578.638	5.49
578.977	5.7
579.317	5.69
579.657	5.69
579.996	5.48
580.336	5.56
580.675	5.7
581.014	5.88
581.354	5.94
581.693	5.64
582.032	5.73
582.372	6.12
582.711	5.87
583.05	5.9
583.389	5.99
583.728	5.9
584.067	5.98
584.406	6.08
584.745	5.98
585.083	6.19
585.422	5.77
585.761	6.24
586.1	6.01
586.438	6.08
586.777	6
587.115	6.08
587.454	6.09
587.792	5.9
588.13	6.34
588.469	6.14
588.807	6.45
589.145	6.18
589.483	6.09
589.821	6.38
590.159	6.04
590.497	5.94
590.835	6.17
591.173	6.3
591.511	6.35
591.849	6.26
592.187	6.4
592.524	6.46
592.862	6.49
593.2	6.36
593.537	6.24
593.875	6.25
594.212	6.45
594.55	6.43
594.887	6.48
595.224	6.26
595.561	6.45
595.899	6.41
596.236	6.61
596.573	6.5
596.91	6.46
597.247	6.66
597.584	6.82
597.921	6.76
598.258	6.52
598.594	6.46
598.931	6.59
599.268	6.55
599.604	6.88
599.941	6.4
600.277	6.69
600.614	6.86
600.95	6.89
601.287	6.76
601.623	7.04
601.959	6.8
602.296	6.82
602.632	7.33
602.968	6.76
603.304	6.95
603.64	6.85
603.976	7.1
604.312	7.24
604.648	7.2
604.984	7.11
605.319	7.02
605.655	7.03
605.991	6.97
606.326	7.04
606.662	6.99
606.998	7.18
607.333	6.95
607.668	7.27
608.004	7.25
608.339	7.24
608.674	7.22
609.01	7.29
609.345	7.57
609.68	7.14
610.015	7.43
610.35	7.37
610.685	7.37
611.02	7.38
611.355	7.39
611.689	7.23
612.024	7.71
612.359	7.41
612.694	7.71
613.028	8.11
613.363	7.47
613.697	7.52
614.032	7.65
614.366	7.55
614.7	7.88
615.035	7.46
615.369	7.7
615.703	7.92
616.037	7.76
616.371	7.81
616.705	7.78
617.039	7.93
617.373	7.73
617.707	7.78
618.041	7.96
618.375	7.62
618.709	8.2
619.042	8.02
619.376	8.29
619.71	7.94
620.043	7.84
620.377	7.95
620.71	8.1
621.043	8.08
621.377	8.04
621.71	8.13
622.043	8.42
622.376	8.09
622.709	8.37
623.043	8.13
623.376	8.28
623.709	8.69
624.041	8.24
624.374	8.2
624.707	8.29
625.04	8.57
625.373	8.3
625.705	8.51
626.038	8.52
626.37	8.51
626.703	8.8
627.035	8.46
627.368	8.71
627.7	8.42
628.032	8.56
628.365	8.5
628.697	8.41
629.029	8.85
629.361	8.48
629.693	8.84
630.025	8.31
630.357	8.81
630.689	9.21
631.021	8.9
631.353	9.04
631.684	8.9
632.016	9.02
632.348	9.03
632.679	8.65
633.011	9.02
633.342	9.03
633.674	9.09
634.005	9.2
634.336	9.09
634.668	8.98
634.999	9.25
635.33	9.04
635.661	9.32
635.992	8.89
636.323	9.19
636.654	9.1
636.985	8.96
637.316	9.2
637.647	9.71
637.977	8.87
638.308	9.17
638.639	9.43
638.969	9.49
639.3	9.68
639.63	8.93
639.961	9.56
640.291	9.59
640.622	9.45
640.952	9.5
641.282	9.42
641.612	9.43
641.943	9.75
642.273	9.91
642.603	9.75
642.933	9.67
643.263	10.05
643.592	10.03
643.922	10.18
644.252	10.1
644.582	9.82
644.911	9.28
645.241	9.52
645.571	9.91
645.9	10.22
646.23	9.5
646.559	9.87
646.888	9.89
647.218	9.99
647.547	10.3
647.876	10.6
648.205	9.8
648.534	9.99
648.863	10.48
649.192	10.07
649.521	9.8
649.85	10.7
650.179	10.07
650.508	10.02
650.837	10.28
651.165	10.53
651.494	10.1
651.822	10.69
652.151	10.29
652.479	10.46
652.808	10.49
653.136	10.37
653.465	10.81
653.793	10.43
654.121	10.76
654.449	10.29
654.777	10.24
655.105	10.77
655.433	11.12
655.761	10.4
656.089	10.3
656.417	10.21
656.745	10.91
657.073	10.87
657.4	11.04
657.728	11.17
658.056	10.34
658.383	11.08
658.711	10.62
659.038	11.36
659.365	10.57
659.693	10.83
660.02	10.67
660.347	10.89
660.674	10.86
661.001	10.64
661.329	10.92
661.656	11.09
661.982	11.1
662.309	11.37
662.636	11.07
662.963	11.55
663.29	11.08
663.616	10.94
663.943	11.37
664.27	11.73
664.596	11.37
664.923	12.08
665.249	11.32
665.576	11.48
665.902	11.54
666.228	11.21
666.554	11.05
666.881	11.81
667.207	11.29
667.533	11.85
667.859	11.72
668.185	11.82
668.511	11.21
668.837	11.05
669.162	11.41
669.488	11.37
669.814	12.38
670.139	12.44
670.465	12.05
670.791	11.98
671.116	12.24
671.442	11.87
671.767	12.04
672.092	11.9
672.418	11.94
672.743	11.6
673.068	11.76
673.393	11.83
673.718	11.43
674.043	12.21
674.368	12.61
674.693	12.16
675.018	12.21
675.343	12.28
675.667	12.15
675.992	12.28
676.317	12.45
676.641	12.59
676.966	12.56
677.29	12.19
677.615	11.74
677.939	12.45
678.264	11.85
678.588	12.45
678.912	12.98
679.236	12.96
679.56	12.46
679.885	12.31
680.209	11.75
680.532	12.35
680.856	13
681.18	12.68
681.504	12.44
681.828	12.21
682.152	12.73
682.475	12.56
682.799	12.86
683.122	12.47
683.446	12.72
683.769	13.11
684.093	12.61
684.416	12.62
684.739	13.39
685.062	13.07
685.386	12.65
685.709	13.22
686.032	12.91
686.355	13.3
686.678	12.86
687.001	12.48
687.324	12.51
687.646	13.11
687.969	12.58
688.292	13.25
688.614	13.51
688.937	13.45
