Data from 0262_forehead_Reflection__4__137.txt Node

Date: Fri Oct 20 21:40:43 CDT 2023
User: ToomeyLab
Spectrometer: FLMS14357
Trigger mode: 0
Integration Time (sec): 1.000000E-2
Scans to average: 100
Electric dark correction enabled: true
Nonlinearity correction enabled: false
Boxcar width: 0
XAxis mode: Wavelengths
Number of Pixels in Spectrum: 2048
>>>>>Begin Spectral Data<<<<<
189.047	-24.21
189.435	-24.21
189.823	-24.21
190.211	123.88
190.599	59
190.987	85.43
191.375	-52.82
191.763	392.55
192.151	-124.66
192.538	32.11
192.926	-13.11
193.314	304.86
193.702	82.7
194.089	43.72
194.477	-31.01
194.864	-546.62
195.252	160.44
195.639	191.69
196.027	82.66
196.414	158.4
196.801	49.22
197.189	161.97
197.576	137.75
197.963	-1.09
198.351	33.62
198.738	44.51
199.125	23.07
199.512	30.85
199.899	30.41
200.286	-9.54
200.673	31.36
201.06	27.14
201.447	2.41
201.833	37.29
202.22	59.35
202.607	38.87
202.994	40.88
203.38	4.97
203.767	27.25
204.154	35.08
204.54	40.72
204.927	51.9
205.313	21.4
205.699	71.25
206.086	30.13
206.472	32.67
206.858	54.22
207.245	35.29
207.631	25.23
208.017	21.09
208.403	7.17
208.789	38.04
209.175	32.63
209.561	25.54
209.947	2.78
210.333	15.31
210.719	21.46
211.105	42.44
211.491	21.66
211.876	6.11
212.262	27.23
212.648	29.5
213.034	39.7
213.419	33.15
213.805	-10.69
214.19	15.02
214.576	1.94
214.961	30.48
215.346	22.71
215.732	17.05
216.117	-6.93
216.502	32.81
216.888	-6.58
217.273	18.54
217.658	12.89
218.043	7.04
218.428	7.7
218.813	10.77
219.198	33.07
219.583	15.8
219.968	9.36
220.353	8.36
220.738	18.95
221.122	17.21
221.507	0.37
221.892	8.27
222.276	26.66
222.661	25.07
223.046	15.15
223.43	17.82
223.815	6.25
224.199	20.68
224.583	2.45
224.968	9.33
225.352	2.35
225.736	5.26
226.121	13.18
226.505	5.81
226.889	17.16
227.273	13.63
227.657	6.44
228.041	5.94
228.425	5.19
228.809	8.6
229.193	3.83
229.577	6.52
229.961	3.48
230.344	3.64
230.728	2.86
231.112	3.98
231.495	2.56
231.879	3.98
232.263	4.19
232.646	3.23
233.03	3.29
233.413	3.41
233.797	2.83
234.18	5.28
234.563	4.07
234.946	5.66
235.33	3.07
235.713	4.52
236.096	4.88
236.479	4.63
236.862	4.59
237.245	4.15
237.628	3.25
238.011	3.43
238.394	3.37
238.777	5.1
239.16	4.89
239.543	5.75
239.925	4.75
240.308	3.51
240.691	4.69
241.073	4.63
241.456	4.6
241.838	4.4
242.221	5.05
242.603	4.62
242.986	3.93
243.368	4.58
243.75	3.57
244.133	3.37
244.515	3.13
244.897	3.43
245.279	3.42
245.661	3.7
246.043	3.56
246.425	4.1
246.807	3.13
247.189	3.64
247.571	3.29
247.953	3.87
248.335	3.88
248.717	3.26
249.098	3.27
249.48	3.41
249.862	3.39
250.243	4.02
250.625	3.4
251.006	3.72
251.388	3.93
251.769	4.36
252.151	4.12
252.532	4.47
252.913	3.99
253.295	3.59
253.676	4.11
254.057	3.78
254.438	3.71
254.819	3.9
255.2	3.52
255.581	3.58
255.962	4.35
256.343	4.3
256.724	3.59
257.105	4.55
257.486	4.43
257.867	4.06
258.247	3.13
258.628	3.52
259.009	3.23
259.389	3.41
259.77	3.61
260.15	4.22
260.531	4.04
260.911	4
261.292	3.41
261.672	3.53
262.052	3.73
262.432	3.64
262.813	3.59
263.193	3.76
263.573	3.65
263.953	3.5
264.333	3.97
264.713	4.16
265.093	3.92
265.473	3.95
265.853	3.48
266.233	3.59
266.612	3.99
266.992	4.63
267.372	3.94
267.752	3.74
268.131	4.25
268.511	3.8
268.89	3.9
269.27	3.37
269.649	3.07
270.029	3.13
270.408	3.89
270.787	4.39
271.167	3.9
271.546	4.15
271.925	4.37
272.304	4.06
272.683	3.86
273.062	4.15
273.441	3.66
273.82	3.43
274.199	3.67
274.578	3.63
274.957	3.7
275.336	3.61
275.715	3.63
276.093	3.21
276.472	3.57
276.851	3.98
277.229	4.28
277.608	3.6
277.986	3.63
278.365	4.04
278.743	3.73
279.122	3.78
279.5	3.58
279.878	3.02
280.257	3.65
280.635	3.9
281.013	3.48
281.391	4.31
281.769	3.27
282.147	3.94
282.525	3.86
282.903	3.36
283.281	3.7
283.659	3.73
284.037	3.59
284.415	2.97
284.792	3.63
285.17	4.11
285.548	3.34
285.925	3.17
286.303	3.75
286.68	3.61
287.058	4.07
287.435	4.06
287.813	3.18
288.19	3.85
288.567	3.59
288.945	4.18
289.322	4.2
289.699	3.36
290.076	4.15
290.453	3.97
290.83	4.01
291.207	4.27
291.584	3.72
291.961	4.02
292.338	3.73
292.715	3.86
293.092	4.18
293.469	4.36
293.845	4.36
294.222	3.93
294.599	4.72
294.975	5.45
295.352	4.5
295.728	4.32
296.105	4.07
296.481	4.64
296.858	4.03
297.234	4.73
297.61	3.96
297.986	4.13
298.363	4.44
298.739	4.43
299.115	4.34
299.491	4.32
299.867	4.44
300.243	4.44
300.619	4.75
300.995	4.49
301.371	4.48
301.746	4.77
302.122	4.84
302.498	4.1
302.874	5.07
303.249	4.79
303.625	5.38
304	5.31
304.376	4.84
304.751	4.84
305.127	4.87
305.502	5.7
305.878	5.32
306.253	5
306.628	5.55
307.003	5.39
307.378	5.2
307.754	5.21
308.129	5.52
308.504	5.7
308.879	6
309.254	6.34
309.629	5.76
310.003	4.88
310.378	6.05
310.753	6.02
311.128	5.64
311.502	5.77
311.877	5.73
312.252	5.74
312.626	6.17
313.001	5.83
313.375	5.63
313.75	5.58
314.124	5.5
314.498	5.69
314.873	5.52
315.247	6.4
315.621	6.48
315.995	6.41
316.369	6.3
316.743	6.09
317.117	6.17
317.491	5.72
317.865	6.84
318.239	7.15
318.613	6.5
318.987	6.54
319.361	6.14
319.734	6.86
320.108	6.68
320.482	6.79
320.855	6.34
321.229	6.88
321.602	6.45
321.976	6.33
322.349	7.44
322.723	6.27
323.096	6.63
323.469	6.61
323.843	6.9
324.216	7.05
324.589	7.76
324.962	7.81
325.335	7.4
325.708	6.89
326.081	6.98
326.454	7.34
326.827	7.41
327.2	7.67
327.573	7.19
327.945	7.2
328.318	7.08
328.691	7.49
329.063	8.08
329.436	7.18
329.809	7.31
330.181	7.64
330.553	7.71
330.926	7.69
331.298	7.26
331.671	7.62
332.043	7.97
332.415	7.61
332.787	8.57
333.159	7.72
333.532	7.96
333.904	7.84
334.276	8.04
334.648	8.5
335.02	8.79
335.391	7.91
335.763	8.26
336.135	8.63
336.507	8.33
336.879	8.02
337.25	8.29
337.622	8.6
337.993	7.8
338.365	8.12
338.736	8.86
339.108	8.41
339.479	7.91
339.851	8.48
340.222	8.08
340.593	8.19
340.964	8.38
341.336	8.67
341.707	8.59
342.078	9.16
342.449	8.21
342.82	8.4
343.191	8.28
343.562	8.81
343.933	8.52
344.303	8.93
344.674	8.64
345.045	8.86
345.416	8.98
345.786	8.75
346.157	9.2
346.527	8.85
346.898	8.89
347.268	9.06
347.639	9.34
348.009	9.31
348.38	9.25
348.75	8.91
349.12	9.28
349.49	8.87
349.861	9.54
350.231	8.68
350.601	9.22
350.971	9.49
351.341	9.52
351.711	9.57
352.081	9.44
352.45	9.52
352.82	9.54
353.19	10.07
353.56	9.77
353.929	9.69
354.299	9.41
354.669	9.35
355.038	10.07
355.408	9.96
355.777	9.76
356.147	9.71
356.516	9.47
356.885	9.46
357.254	10.07
357.624	9.88
357.993	10.13
358.362	9.8
358.731	9.78
359.1	9.51
359.469	10.01
359.838	10
360.207	9.67
360.576	10.21
360.945	9.96
361.314	9.91
361.682	10.41
362.051	10
362.42	9.74
362.788	10.06
363.157	10.17
363.525	9.72
363.894	10.12
364.262	10.1
364.631	10.2
364.999	10.26
365.367	10.3
365.735	10.34
366.104	10.64
366.472	10.33
366.84	11.07
367.208	10.44
367.576	10.48
367.944	10.76
368.312	10.93
368.68	10.86
369.048	10.73
369.416	11.04
369.783	11.01
370.151	11.03
370.519	10.74
370.886	10.85
371.254	11.45
371.621	11.03
371.989	10.91
372.356	11.35
372.724	11.25
373.091	11.1
373.458	10.96
373.826	11.12
374.193	10.77
374.56	11.04
374.927	11.28
375.294	11.26
375.661	11.18
376.028	11.61
376.395	11.67
376.762	11.2
377.129	11.43
377.496	11.56
377.863	11.81
378.229	11.9
378.596	11.74
378.963	11.94
379.329	11.59
379.696	11.68
380.062	11.75
380.429	11.55
380.795	11.4
381.161	11.48
381.528	12.08
381.894	11.94
382.26	11.89
382.626	11.99
382.993	12.23
383.359	11.78
383.725	11.92
384.091	12.19
384.457	12.07
384.823	12.16
385.188	12.35
385.554	12.33
385.92	12.28
386.286	12.37
386.651	11.91
387.017	12.24
387.383	12.31
387.748	12.09
388.114	12.09
388.479	12.41
388.845	12.54
389.21	12.57
389.575	12.16
389.94	12.59
390.306	12.42
390.671	12.55
391.036	12.79
391.401	13.05
391.766	12.68
392.131	12.77
392.496	12.95
392.861	12.92
393.226	12.88
393.591	12.93
393.956	12.88
394.32	13.02
394.685	12.88
395.05	13.01
395.414	13.03
395.779	12.75
396.143	13.06
396.508	12.93
396.872	13.12
397.236	13.21
397.601	13.12
397.965	13.22
398.329	12.97
398.694	13.39
399.058	13.4
399.422	13.49
399.786	13.22
400.15	13.41
400.514	13.44
400.878	13.5
401.242	13.55
401.605	13.47
401.969	13.51
402.333	13.57
402.697	13.6
403.06	13.59
403.424	13.61
403.787	13.66
404.151	13.65
404.514	13.69
404.878	13.76
405.241	13.74
405.604	13.79
405.968	13.79
406.331	13.71
406.694	13.74
407.057	13.65
407.42	14.16
407.783	13.79
408.146	13.87
408.509	13.9
408.872	14.34
409.235	14.08
409.598	14.14
409.961	14.16
410.323	14.03
410.686	14.03
411.049	14.4
411.411	14.29
411.774	14.37
412.136	14.29
412.499	14.47
412.861	14.48
413.223	14.69
413.586	14.36
413.948	14.49
414.31	14.64
414.672	14.62
415.035	14.76
415.397	14.66
415.759	14.73
416.121	14.74
416.483	14.85
416.845	14.66
417.206	14.95
417.568	14.91
417.93	14.88
418.292	14.43
418.653	14.86
419.015	14.78
419.377	14.53
419.738	14.62
420.1	14.72
420.461	14.69
420.822	14.73
421.184	14.79
421.545	14.81
421.906	14.83
422.267	14.9
422.629	14.83
422.99	14.79
423.351	14.82
423.712	14.89
424.073	14.87
424.434	14.98
424.795	15
425.155	15.09
425.516	15.04
425.877	15.08
426.238	15.04
426.598	14.99
426.959	14.99
427.32	15.2
427.68	15.18
428.041	15.29
428.401	15.39
428.761	15.68
429.122	15.59
429.482	15.71
429.842	15.67
430.202	15.68
430.563	15.75
430.923	15.96
431.283	15.75
431.643	16.04
432.003	15.98
432.363	15.96
432.722	16.15
433.082	15.9
433.442	15.91
433.802	16.14
434.161	15.95
434.521	16
434.881	16.09
435.24	15.96
435.6	15.9
435.959	15.94
436.319	16.11
436.678	16.3
437.037	16.16
437.396	16.42
437.756	16.51
438.115	16.35
438.474	16.51
438.833	16.34
439.192	16.22
439.551	16.3
439.91	16.66
440.269	16.7
440.628	16.49
440.987	16.49
441.345	16.34
441.704	16.53
442.063	16.54
442.421	16.52
442.78	16.45
443.138	16.68
443.497	16.68
443.855	16.72
444.214	16.69
444.572	16.83
444.93	17
445.288	17.03
445.647	17.16
446.005	16.97
446.363	16.84
446.721	16.81
447.079	17.01
447.437	16.89
447.795	16.95
448.153	16.82
448.51	16.89
448.868	16.93
449.226	16.74
449.584	16.97
449.941	17
450.299	17.2
450.656	17.26
451.014	17.27
451.371	17.34
451.729	17.47
452.086	17.55
452.443	17.48
452.801	17.6
453.158	17.62
453.515	17.63
453.872	17.75
454.229	17.85
454.586	17.81
454.943	17.74
455.3	17.64
455.657	17.84
456.014	17.71
456.371	17.82
456.727	17.99
457.084	18.03
457.441	17.78
457.797	17.99
458.154	17.93
458.51	18.05
458.867	18.18
459.223	18.28
459.58	18.11
459.936	18.08
460.292	18.09
460.648	18.13
461.005	18.05
461.361	18.08
461.717	17.94
462.073	17.98
462.429	18.08
462.785	18.12
463.141	18.3
463.496	18.27
463.852	18.52
464.208	18.73
464.564	18.59
464.919	18.66
465.275	18.75
465.631	18.53
465.986	18.99
466.342	18.83
466.697	18.84
467.052	18.69
467.408	18.74
467.763	18.99
468.118	19.02
468.473	19.03
468.829	18.93
469.184	18.82
469.539	19.12
469.894	18.98
470.249	18.98
470.603	19.05
470.958	19.16
471.313	19.28
471.668	19.24
472.023	19.26
472.377	19.29
472.732	19.35
473.086	19.5
473.441	19.49
473.795	19.44
474.15	19.28
474.504	19.57
474.859	19.52
475.213	19.63
475.567	19.68
475.921	19.69
476.275	19.78
476.63	19.72
476.984	19.84
477.338	19.9
477.692	19.88
478.045	19.76
478.399	19.7
478.753	19.77
479.107	19.99
479.461	20.03
479.814	19.95
480.168	19.9
480.521	20.03
480.875	20.07
481.228	20.09
481.582	20.06
481.935	20.08
482.289	20.26
482.642	20.15
482.995	20.06
483.348	20.13
483.701	20.07
484.055	20.07
484.408	19.95
484.761	19.86
485.114	19.73
485.466	19.53
485.819	19.37
486.172	19.37
486.525	19.36
486.878	19.5
487.23	19.55
487.583	19.77
487.936	19.84
488.288	20.01
488.641	20.04
488.993	19.83
489.345	19.9
489.698	19.8
490.05	19.8
490.402	19.85
490.754	19.91
491.107	20.1
491.459	20.2
491.811	20.44
492.163	20.48
492.515	20.63
492.866	20.58
493.218	20.5
493.57	20.21
493.922	20.22
494.274	20.28
494.625	20.4
494.977	20.51
495.328	20.77
495.68	20.97
496.031	20.98
496.383	21.24
496.734	21.26
497.086	21.37
497.437	21.36
497.788	21.39
498.139	21.58
498.49	21.55
498.842	21.3
499.193	21.32
499.544	21.34
499.894	21.39
500.245	21.4
500.596	21.51
500.947	21.6
501.298	21.74
501.648	21.77
501.999	21.78
502.35	22.03
502.7	22.15
503.051	21.96
503.401	22.04
503.752	22.32
504.102	22.24
504.452	22.17
504.803	22
505.153	22.21
505.503	22.28
505.853	22.27
506.203	22.09
506.553	22.11
506.903	22.24
507.253	22.36
507.603	22.28
507.953	22.56
508.303	22.35
508.652	22.47
509.002	22.34
509.352	22.53
509.701	22.57
510.051	22.64
510.4	22.52
510.75	22.5
511.099	22.56
511.449	22.41
511.798	22.63
512.147	22.52
512.496	22.61
512.846	22.65
513.195	22.77
513.544	22.86
513.893	22.64
514.242	22.8
514.591	22.63
514.939	22.8
515.288	22.84
515.637	22.95
515.986	22.91
516.334	23.14
516.683	23.23
517.032	23.21
517.38	23.14
517.729	23.32
518.077	23.35
518.426	23.31
518.774	23.29
519.122	23.38
519.47	23.47
519.819	23.27
520.167	23.12
520.515	23.18
520.863	23.07
521.211	23.11
521.559	23.27
521.907	23.3
522.255	23.39
522.602	23.47
522.95	23.57
523.298	23.68
523.645	23.73
523.993	23.85
524.341	24
524.688	23.92
525.036	24.12
525.383	23.76
525.73	24.22
526.078	24.08
526.425	24.08
526.772	24.01
527.119	23.91
527.466	23.78
527.814	23.77
528.161	23.73
528.508	23.93
528.854	23.83
529.201	23.74
529.548	23.9
529.895	23.8
530.242	23.5
530.588	23.36
530.935	23.49
531.282	23.59
531.628	23.61
531.975	23.71
532.321	23.83
532.667	23.98
533.014	24.26
533.36	24.19
533.706	24.45
534.052	24.34
534.399	24.35
534.745	24.32
535.091	24.29
535.437	24.16
535.783	24.16
536.129	24.33
536.474	24.49
536.82	24.64
537.166	24.75
537.512	24.81
537.857	24.89
538.203	24.91
538.549	24.87
538.894	24.88
539.239	24.87
539.585	24.83
539.93	25.16
540.276	25.1
540.621	25.33
540.966	25.48
541.311	25.51
541.656	25.54
542.001	25.52
542.346	25.53
542.691	25.31
543.036	25.07
543.381	24.87
543.726	24.83
544.071	24.92
544.415	25.03
544.76	25.14
545.105	25.26
545.449	25.48
545.794	25.58
546.138	25.52
546.483	25.68
546.827	25.7
547.171	25.92
547.516	25.9
547.86	26.01
548.204	25.87
548.548	26.01
548.892	25.88
549.236	26.04
549.58	26.01
549.924	26.1
550.268	26.24
550.612	26.46
550.956	26.55
551.3	26.68
551.643	26.65
551.987	26.74
552.33	26.86
552.674	26.87
553.017	26.84
553.361	26.8
553.704	26.95
554.048	26.98
554.391	27.02
554.734	26.93
555.077	26.82
555.42	27.07
555.764	27
556.107	26.88
556.45	27.09
556.793	27.1
557.135	27.32
557.478	27.4
557.821	27.34
558.164	27.73
558.507	27.7
558.849	27.53
559.192	27.69
559.534	27.64
559.877	27.46
560.219	27.8
560.562	27.86
560.904	27.75
561.246	27.84
561.589	27.74
561.931	27.99
562.273	27.9
562.615	27.96
562.957	27.89
563.299	27.94
563.641	28.12
563.983	27.96
564.325	28.06
564.667	28.36
565.008	28.11
565.35	28.17
565.692	28.21
566.033	28.15
566.375	28.35
566.716	28.32
567.058	28.26
567.399	28.3
567.741	28.16
568.082	28.38
568.423	28.24
568.764	28.08
569.105	28.55
569.447	28.21
569.788	28.59
570.129	28.63
570.47	28.55
570.811	28.6
571.151	28.53
571.492	28.99
571.833	29.04
572.174	29.07
572.514	28.76
572.855	28.73
573.195	28.85
573.536	28.9
573.876	29.06
574.217	28.76
574.557	28.77
574.898	28.76
575.238	28.95
575.578	29.2
575.918	29
576.258	29.05
576.598	29.14
576.938	29.33
577.278	29.16
577.618	29.11
577.958	29.35
578.298	29.46
578.638	29.35
578.977	29.43
579.317	29.39
579.657	29.45
579.996	29.87
580.336	29.83
580.675	29.67
581.014	29.71
581.354	30
581.693	29.97
582.032	29.91
582.372	30
582.711	30.18
583.05	30.62
583.389	30.17
583.728	29.98
584.067	30.29
584.406	30.34
584.745	30.03
585.083	30.54
585.422	30.43
585.761	30.55
586.1	30.4
586.438	30.2
586.777	30.6
587.115	30.74
587.454	31.04
587.792	30.36
588.13	30.64
588.469	30.78
588.807	30.58
589.145	30.99
589.483	30.82
589.821	30.74
590.159	30.72
590.497	31
590.835	31.02
591.173	30.72
591.511	30.97
591.849	30.77
592.187	31.26
592.524	30.93
592.862	30.97
593.2	31.02
593.537	30.92
593.875	31.17
594.212	31.37
594.55	31.25
594.887	31.28
595.224	31.17
595.561	31.19
595.899	31.49
596.236	31.45
596.573	31.54
596.91	31.74
597.247	31.72
597.584	31.35
597.921	31.77
598.258	31.69
598.594	31.48
598.931	31.54
599.268	31.44
599.604	31.47
599.941	31.54
600.277	31.7
600.614	31.9
600.95	31.49
601.287	31.84
601.623	31.64
601.959	32.01
602.296	32.02
602.632	32.23
602.968	31.79
603.304	32.11
603.64	32.17
603.976	32.05
604.312	32.26
604.648	32.15
604.984	31.99
605.319	32.46
605.655	32.23
605.991	32.05
606.326	32.3
606.662	31.96
606.998	31.98
607.333	32.09
607.668	32.13
608.004	32.23
608.339	32.27
608.674	32.35
609.01	32.4
609.345	32.93
609.68	32.96
610.015	32.79
610.35	33.09
610.685	32.82
611.02	32.61
611.355	32.63
611.689	32.54
612.024	32.75
612.359	33.08
612.694	32.78
613.028	33.06
613.363	33.13
613.697	33.1
614.032	33.24
614.366	33.35
614.7	33.4
615.035	33.39
615.369	33.47
615.703	33.26
616.037	33.35
616.371	33.12
616.705	33.15
617.039	33.73
617.373	33.51
617.707	33.53
618.041	33.41
618.375	33.64
618.709	33.7
619.042	33.67
619.376	33.77
619.71	34.12
620.043	34.12
620.377	33.59
620.71	34
621.043	34.01
621.377	33.92
621.71	34.11
622.043	33.82
622.376	34.1
622.709	33.92
623.043	34.26
623.376	33.85
623.709	33.73
624.041	34.15
624.374	34.3
624.707	34.43
625.04	34.18
625.373	34.4
625.705	33.99
626.038	34.48
626.37	34.25
626.703	34.7
627.035	34.2
627.368	34.53
627.7	34.66
628.032	34.39
628.365	34.44
628.697	34.63
629.029	34.74
629.361	34.54
629.693	34.42
630.025	34.72
630.357	34.89
630.689	34.57
631.021	34.95
631.353	35.16
631.684	34.93
632.016	35.4
632.348	34.62
632.679	34.99
633.011	34.96
633.342	34.88
633.674	34.84
634.005	34.99
634.336	34.91
634.668	34.94
634.999	35.44
635.33	34.77
635.661	35.34
635.992	35.66
636.323	35.61
636.654	35.66
636.985	35.53
637.316	35.54
637.647	34.93
637.977	35.12
638.308	35.31
638.639	35.28
638.969	35.87
639.3	35.19
639.63	35.64
639.961	35.62
640.291	35.85
640.622	35.48
640.952	35.51
641.282	35.68
641.612	36.12
641.943	35.85
642.273	35.54
642.603	36.31
642.933	35.66
643.263	36.42
643.592	35.77
643.922	35.78
644.252	36.1
644.582	35.64
644.911	36.14
645.241	36.36
645.571	36.91
645.9	36.22
646.23	36.47
646.559	36.28
646.888	35.95
647.218	36.27
647.547	36.31
647.876	36.02
648.205	36.58
648.534	36.72
648.863	36.8
649.192	36.79
649.521	36.91
649.85	36.68
650.179	36.8
650.508	36.37
650.837	36.64
651.165	36.49
651.494	36.26
651.822	37.06
652.151	36.98
652.479	37.01
652.808	37.19
653.136	36.86
653.465	36.89
653.793	37.29
654.121	36.92
654.449	37.06
654.777	37.43
655.105	37.11
655.433	37.46
655.761	37.22
656.089	37.07
656.417	37.26
656.745	37.24
657.073	36.88
657.4	38.01
657.728	37.64
658.056	37.17
658.383	37.2
658.711	37.23
659.038	37.72
659.365	37.03
659.693	36.75
660.02	37.96
660.347	37.31
660.674	36.89
661.001	37.24
661.329	37.27
661.656	37.68
661.982	37.56
662.309	37.95
662.636	37.46
662.963	37.27
663.29	37.74
663.616	37.64
663.943	37.31
664.27	37.64
664.596	37.69
664.923	37.6
665.249	37.58
665.576	37.35
665.902	37.77
666.228	37.55
666.554	37.63
666.881	37.96
667.207	37.71
667.533	37.68
667.859	37.91
668.185	38.3
668.511	38.5
668.837	38.03
669.162	38.17
669.488	38.51
669.814	37.92
670.139	38.28
670.465	38.31
670.791	38.68
671.116	38.24
671.442	38.19
671.767	38.46
672.092	38.27
672.418	38.45
