Data from 0262_chest_Reflection__3__126.txt Node

Date: Fri Oct 20 21:36:45 CDT 2023
User: ToomeyLab
Spectrometer: FLMS14357
Trigger mode: 0
Integration Time (sec): 1.000000E-2
Scans to average: 100
Electric dark correction enabled: true
Nonlinearity correction enabled: false
Boxcar width: 0
XAxis mode: Wavelengths
Number of Pixels in Spectrum: 2048
>>>>>Begin Spectral Data<<<<<
189.047	-27.78
189.435	-27.78
189.823	-27.78
190.211	158.82
190.599	88.56
190.987	16.57
191.375	197.28
191.763	562.47
192.151	-114.9
192.538	-129.29
192.926	212.27
193.314	240.72
193.702	123.28
194.089	75.71
194.477	-345.24
194.864	-191.98
195.252	24.92
195.639	65.88
196.027	169.14
196.414	151.05
196.801	154.9
197.189	42.02
197.576	38.15
197.963	-17.65
198.351	18.14
198.738	10.02
199.125	60.36
199.512	27.16
199.899	-0.1
200.286	-23.97
200.673	24.25
201.06	-7.88
201.447	-13.11
201.833	28.64
202.22	12.61
202.607	17.24
202.994	20.97
203.38	16.38
203.767	24.4
204.154	24.08
204.54	26.52
204.927	56.28
205.313	42.43
205.699	50.56
206.086	31.21
206.472	54.01
206.858	53.74
207.245	7.68
207.631	29.41
208.017	25.79
208.403	23.91
208.789	21.77
209.175	17.81
209.561	34.67
209.947	12.13
210.333	28.05
210.719	23.33
211.105	14.61
211.491	28.26
211.876	-5.14
212.262	13.33
212.648	6.73
213.034	25.19
213.419	22.97
213.805	17.66
214.19	13.31
214.576	3.21
214.961	25.97
215.346	20.58
215.732	8.23
216.117	-30.15
216.502	19.58
216.888	27.39
217.273	-6.71
217.658	29.59
218.043	-2.49
218.428	11.29
218.813	-2.47
219.198	2.56
219.583	-19.62
219.968	-20.24
220.353	11.04
220.738	9.98
221.122	17.32
221.507	9.49
221.892	4.89
222.276	16.05
222.661	23.61
223.046	12.81
223.43	10.34
223.815	4.79
224.199	28.38
224.583	-1.12
224.968	-1.46
225.352	6.19
225.736	7.97
226.121	3.34
226.505	8.81
226.889	11.33
227.273	6
227.657	11.36
228.041	8.23
228.425	8.75
228.809	5.41
229.193	1.61
229.577	7.05
229.961	3.3
230.344	2.65
230.728	2.53
231.112	3.84
231.495	2.69
231.879	3.53
232.263	3.92
232.646	1.76
233.03	2.08
233.413	2.54
233.797	3.57
234.18	3.48
234.563	3.72
234.946	4.28
235.33	3.52
235.713	3.49
236.096	4.11
236.479	3.94
236.862	3.27
237.245	1.98
237.628	3.68
238.011	4.4
238.394	3.55
238.777	4.3
239.16	2.34
239.543	6.16
239.925	4.35
240.308	5.72
240.691	3.12
241.073	5.61
241.456	2.59
241.838	3.42
242.221	4.16
242.603	4.66
242.986	3.04
243.368	3.46
243.75	2.97
244.133	3.1
244.515	2.94
244.897	2.88
245.279	3.21
245.661	2.79
246.043	2.33
246.425	2.42
246.807	3.16
247.189	2.22
247.571	2.61
247.953	3.05
248.335	3.23
248.717	2.92
249.098	2.67
249.48	2.73
249.862	3.02
250.243	3.42
250.625	3.2
251.006	3.29
251.388	2.54
251.769	3.22
252.151	2.97
252.532	3.21
252.913	2.83
253.295	2.23
253.676	3.9
254.057	3.25
254.438	2.68
254.819	2.98
255.2	3.14
255.581	2.19
255.962	2.31
256.343	3.9
256.724	2.88
257.105	2.84
257.486	3.5
257.867	3.3
258.247	3.24
258.628	2.54
259.009	2.85
259.389	3.05
259.77	2.25
260.15	3.27
260.531	2.78
260.911	2.96
261.292	2.59
261.672	2.91
262.052	2.74
262.432	2.81
262.813	2.67
263.193	2.89
263.573	3.05
263.953	2.75
264.333	2.85
264.713	3.18
265.093	2.88
265.473	3.44
265.853	2.71
266.233	2.9
266.612	3.16
266.992	3.01
267.372	2.5
267.752	2.29
268.131	3.46
268.511	2.96
268.89	2.99
269.27	2.99
269.649	1.87
270.029	2.74
270.408	2.9
270.787	2.8
271.167	2.62
271.546	3.36
271.925	3.1
272.304	3.41
272.683	3.15
273.062	3.32
273.441	2.85
273.82	3.08
274.199	3
274.578	2.77
274.957	2.94
275.336	3.06
275.715	3.24
276.093	2.83
276.472	3.22
276.851	2.48
277.229	2.66
277.608	2.63
277.986	2.36
278.365	3.42
278.743	2.95
279.122	3.04
279.5	3.04
279.878	2.27
280.257	3.04
280.635	2.7
281.013	3.13
281.391	2.96
281.769	2.59
282.147	2.12
282.525	3.21
282.903	2.9
283.281	2.83
283.659	2.74
284.037	2.73
284.415	2.17
284.792	2.58
285.17	2.94
285.548	2.73
285.925	2.27
286.303	2.23
286.68	2.76
287.058	3.24
287.435	2.9
287.813	2.49
288.19	2.6
288.567	2.24
288.945	3.2
289.322	2.92
289.699	2.48
290.076	3.13
290.453	2.73
290.83	3.01
291.207	3.2
291.584	2.48
291.961	2.82
292.338	2.92
292.715	2.63
293.092	2.58
293.469	3.23
293.845	2.53
294.222	3.09
294.599	3.21
294.975	3.62
295.352	2.64
295.728	2.9
296.105	2.74
296.481	2.91
296.858	3.29
297.234	3.21
297.61	2.68
297.986	2.58
298.363	2.82
298.739	2.88
299.115	2.87
299.491	2.94
299.867	3.02
300.243	3.11
300.619	2.89
300.995	2.76
301.371	3.31
301.746	3.62
302.122	3.51
302.498	3.02
302.874	3.02
303.249	2.96
303.625	3.42
304	3.67
304.376	3.16
304.751	2.97
305.127	2.21
305.502	3.78
305.878	3.04
306.253	3
306.628	3.29
307.003	3.07
307.378	2.96
307.754	3.1
308.129	3.24
308.504	3.11
308.879	3.16
309.254	3.67
309.629	2.9
310.003	3.09
310.378	3.08
310.753	3.19
311.128	3.09
311.502	3.01
311.877	3.49
312.252	2.69
312.626	3.14
313.001	3.11
313.375	2.8
313.75	3.07
314.124	2.73
314.498	3.33
314.873	3.08
315.247	3.44
315.621	3.12
315.995	3.82
316.369	3.07
316.743	2.97
317.117	3.21
317.491	2.46
317.865	3.47
318.239	3.92
318.613	3.01
318.987	2.75
319.361	2.7
319.734	2.83
320.108	2.91
320.482	3.61
320.855	3.43
321.229	3.58
321.602	3.64
321.976	3.18
322.349	3.68
322.723	2.89
323.096	3.34
323.469	3.49
323.843	3.12
324.216	3.04
324.589	3.28
324.962	4
325.335	2.88
325.708	3.42
326.081	3.29
326.454	3.56
326.827	3.37
327.2	3.7
327.573	3.79
327.945	3.42
328.318	3.21
328.691	3.59
329.063	3.51
329.436	2.92
329.809	3.34
330.181	3.48
330.553	3.77
330.926	3.31
331.298	2.63
331.671	3.25
332.043	3.03
332.415	3.58
332.787	3.86
333.159	3.19
333.532	3.76
333.904	3.37
334.276	3.03
334.648	3.81
335.02	3.46
335.391	3.19
335.763	3.7
336.135	3.59
336.507	3.54
336.879	3.35
337.25	3.56
337.622	3.72
337.993	3.97
338.365	3.66
338.736	3.77
339.108	3.88
339.479	3.26
339.851	3.53
340.222	3.16
340.593	3.35
340.964	3.33
341.336	3.55
341.707	3.37
342.078	3.62
342.449	3.32
342.82	3.45
343.191	3.34
343.562	3.36
343.933	3.54
344.303	3.29
344.674	3.69
345.045	3.45
345.416	3.58
345.786	3.57
346.157	3.48
346.527	3.62
346.898	3.73
347.268	3.58
347.639	3.92
348.009	3.41
348.38	3.68
348.75	3.57
349.12	3.39
349.49	3.31
349.861	3.79
350.231	3.02
350.601	3.31
350.971	3.59
351.341	3.37
351.711	3.96
352.081	3.28
352.45	3.26
352.82	3.67
353.19	3.7
353.56	3.64
353.929	3.65
354.299	3.64
354.669	3.76
355.038	3.53
355.408	3.55
355.777	3.33
356.147	3.44
356.516	3.59
356.885	3.61
357.254	3.66
357.624	3.71
357.993	2.9
358.362	3.69
358.731	3.33
359.1	3.1
359.469	3.32
359.838	3.34
360.207	3.51
360.576	3.78
360.945	3.42
361.314	3.44
361.682	3.36
362.051	3.49
362.42	3.5
362.788	3.59
363.157	3.42
363.525	3.5
363.894	3.46
364.262	3.46
364.631	3.72
364.999	3.47
365.367	3.63
365.735	3.66
366.104	3.43
366.472	3.59
366.84	3.66
367.208	3.82
367.576	3.44
367.944	3.59
368.312	3.6
368.68	3.82
369.048	3.51
369.416	3.46
369.783	3.9
370.151	3.78
370.519	3.85
370.886	3.64
371.254	3.89
371.621	3.7
371.989	3.41
372.356	3.88
372.724	3.8
373.091	3.59
373.458	3.42
373.826	3.47
374.193	3.58
374.56	3.69
374.927	3.65
375.294	3.68
375.661	3.72
376.028	4.02
376.395	3.96
376.762	3.54
377.129	3.76
377.496	3.65
377.863	4.01
378.229	3.89
378.596	3.78
378.963	3.85
379.329	3.52
379.696	3.76
380.062	3.58
380.429	3.53
380.795	3.72
381.161	3.5
381.528	4.05
381.894	3.6
382.26	3.93
382.626	4.05
382.993	3.85
383.359	3.77
383.725	3.93
384.091	3.52
384.457	3.71
384.823	3.81
385.188	4.05
385.554	3.71
385.92	3.74
386.286	3.77
386.651	3.4
387.017	3.88
387.383	3.74
387.748	3.77
388.114	3.47
388.479	3.75
388.845	3.89
389.21	3.62
389.575	3.51
389.94	3.57
390.306	3.69
390.671	3.62
391.036	3.82
391.401	3.86
391.766	3.7
392.131	3.83
392.496	3.99
392.861	3.81
393.226	4.15
393.591	3.8
393.956	3.66
394.32	3.97
394.685	3.75
395.05	4.01
395.414	3.8
395.779	3.64
396.143	3.69
396.508	3.47
396.872	3.68
397.236	3.82
397.601	3.93
397.965	3.59
398.329	3.58
398.694	4.1
399.058	3.37
399.422	3.91
399.786	3.89
400.15	3.69
400.514	3.84
400.878	3.86
401.242	4.03
401.605	3.92
401.969	3.75
402.333	3.87
402.697	4.07
403.06	3.9
403.424	3.83
403.787	3.91
404.151	3.85
404.514	3.9
404.878	3.98
405.241	3.99
405.604	3.94
405.968	3.92
406.331	3.94
406.694	3.9
407.057	3.67
407.42	3.98
407.783	4
408.146	3.8
408.509	3.89
408.872	4.02
409.235	3.88
409.598	4
409.961	3.95
410.323	3.97
410.686	3.99
411.049	3.94
411.411	3.77
411.774	3.94
412.136	3.95
412.499	4.24
412.861	4.1
413.223	4
413.586	4.04
413.948	4.12
414.31	4.21
414.672	3.71
415.035	3.7
415.397	4.04
415.759	3.82
416.121	3.94
416.483	4.29
416.845	3.86
417.206	3.85
417.568	4.12
417.93	3.92
418.292	3.67
418.653	4.06
419.015	3.88
419.377	3.93
419.738	3.97
420.1	3.82
420.461	3.77
420.822	3.94
421.184	3.93
421.545	3.97
421.906	3.91
422.267	3.87
422.629	3.9
422.99	3.72
423.351	3.8
423.712	3.9
424.073	4.02
424.434	3.93
424.795	3.97
425.155	3.94
425.516	3.83
425.877	3.91
426.238	3.83
426.598	3.96
426.959	3.81
427.32	3.91
427.68	4.02
428.041	4.01
428.401	3.99
428.761	3.99
429.122	3.9
429.482	3.84
429.842	4.05
430.202	4.09
430.563	4.25
430.923	4.08
431.283	4.04
431.643	4.25
432.003	4.28
432.363	3.93
432.722	4.06
433.082	4.16
433.442	3.88
433.802	4.32
434.161	3.89
434.521	4.21
434.881	4.2
435.24	4.25
435.6	4.03
435.959	4.09
436.319	4.16
436.678	4.05
437.037	4.18
437.396	4.2
437.756	4.16
438.115	3.91
438.474	4.27
438.833	4.28
439.192	4.12
439.551	4.2
439.91	4.17
440.269	4.34
440.628	4.15
440.987	4.23
441.345	4.22
441.704	4.11
442.063	4.05
442.421	4.07
442.78	4.03
443.138	4.22
443.497	4.17
443.855	4.2
444.214	4.13
444.572	4.13
444.93	4.27
445.288	4.16
445.647	4.37
446.005	4.1
446.363	4.22
446.721	4.11
447.079	4.25
447.437	4.2
447.795	4.07
448.153	4.05
448.51	4.08
448.868	4.06
449.226	4.22
449.584	4.17
449.941	4.3
450.299	4.2
450.656	4.17
451.014	4.22
451.371	4.14
451.729	4.14
452.086	4.25
452.443	4.27
452.801	4.2
453.158	4.3
453.515	4.32
453.872	4.22
454.229	4.38
454.586	4.31
454.943	4.31
455.3	4.23
455.657	4.37
456.014	4.23
456.371	4.28
456.727	4.29
457.084	4.22
457.441	4.43
457.797	4.31
458.154	4.27
458.51	4.39
458.867	4.33
459.223	4.44
459.58	4.42
459.936	4.37
460.292	4.29
460.648	4.09
461.005	4.21
461.361	4.37
461.717	4.03
462.073	4.24
462.429	4.31
462.785	4.29
463.141	4.32
463.496	4.29
463.852	4.39
464.208	4.62
464.564	4.49
464.919	4.39
465.275	4.58
465.631	4.51
465.986	4.43
466.342	4.46
466.697	4.28
467.052	4.31
467.408	4.56
467.763	4.59
468.118	4.59
468.473	4.49
468.829	4.32
469.184	4.39
469.539	4.54
469.894	4.58
470.249	4.5
470.603	4.58
470.958	4.66
471.313	4.54
471.668	4.54
472.023	4.66
472.377	4.49
472.732	4.45
473.086	4.72
473.441	4.62
473.795	4.79
474.15	4.58
474.504	4.5
474.859	4.56
475.213	4.67
475.567	4.63
475.921	4.71
476.275	4.51
476.63	4.78
476.984	4.64
477.338	4.56
477.692	4.74
478.045	4.7
478.399	4.68
478.753	4.72
479.107	4.62
479.461	4.57
479.814	4.93
480.168	4.81
480.521	4.71
480.875	4.74
481.228	4.6
481.582	4.83
481.935	4.7
482.289	4.61
482.642	4.71
482.995	4.58
483.348	4.69
483.701	4.53
484.055	4.66
484.408	4.64
484.761	4.56
485.114	4.48
485.466	4.41
485.819	4.35
486.172	4.28
486.525	4.34
486.878	4.42
487.23	4.45
487.583	4.5
487.936	4.53
488.288	4.56
488.641	4.6
488.993	4.51
489.345	4.5
489.698	4.49
490.05	4.44
490.402	4.47
490.754	4.47
491.107	4.57
491.459	4.68
491.811	4.61
492.163	4.63
492.515	4.68
492.866	4.74
493.218	4.61
493.57	4.56
493.922	4.52
494.274	4.54
494.625	4.63
494.977	4.69
495.328	4.76
495.68	4.79
496.031	4.71
496.383	4.91
496.734	4.89
497.086	4.86
497.437	4.82
497.788	4.82
498.139	5.02
498.49	4.78
498.842	4.78
499.193	4.93
499.544	4.84
499.894	4.91
500.245	4.71
500.596	4.96
500.947	5
501.298	4.93
501.648	4.86
501.999	4.91
502.35	4.96
502.7	5.19
503.051	5.01
503.401	5.08
503.752	5.09
504.102	5.09
504.452	4.99
504.803	5.05
505.153	5.02
505.503	5.03
505.853	5.1
506.203	5.04
506.553	4.93
506.903	5.11
507.253	5.07
507.603	4.99
507.953	5.16
508.303	4.95
508.652	5.2
509.002	5.16
509.352	5.15
509.701	5.23
510.051	5.03
510.4	5.14
510.75	5.06
511.099	5.1
511.449	5.14
511.798	5.2
512.147	5.19
512.496	5.21
512.846	5.09
513.195	5.22
513.544	5.24
513.893	5.09
514.242	5.22
514.591	5.2
514.939	5.14
515.288	5.16
515.637	5.3
515.986	5.31
516.334	5.24
516.683	5.17
517.032	5.12
517.38	5.21
517.729	5.41
518.077	5.45
518.426	5.26
518.774	5.1
519.122	5.3
519.47	5.27
519.819	5.24
520.167	5.31
520.515	5.27
520.863	5.29
521.211	5.22
521.559	5.39
521.907	5.35
522.255	5.36
522.602	5.49
522.95	5.38
523.298	5.44
523.645	5.47
523.993	5.39
524.341	5.4
524.688	5.64
525.036	5.62
525.383	5.41
525.73	5.76
526.078	5.55
526.425	5.59
526.772	5.51
527.119	5.58
527.466	5.4
527.814	5.54
528.161	5.48
528.508	5.44
528.854	5.51
529.201	5.52
529.548	5.52
529.895	5.49
530.242	5.43
530.588	5.32
530.935	5.29
531.282	5.41
531.628	5.48
531.975	5.42
532.321	5.5
532.667	5.56
533.014	5.6
533.36	5.68
533.706	5.75
534.052	5.74
534.399	5.62
534.745	5.63
535.091	5.64
535.437	5.62
535.783	5.65
536.129	5.71
536.474	5.78
536.82	5.83
537.166	5.79
537.512	5.96
537.857	5.92
538.203	5.94
538.549	5.99
538.894	5.85
539.239	5.8
539.585	5.92
539.93	6.01
540.276	6.05
540.621	6.08
540.966	6.09
541.311	6.02
541.656	6.11
542.001	6.15
542.346	6.15
542.691	6.07
543.036	5.95
543.381	5.94
543.726	5.9
544.071	5.94
544.415	5.96
544.76	6.03
545.105	6.12
545.449	6.08
545.794	6.19
546.138	6.21
546.483	6.25
546.827	6.32
547.171	6.4
547.516	6.33
547.86	6.39
548.204	6.18
548.548	6.34
548.892	6.34
549.236	6.37
549.58	6.31
549.924	6.42
550.268	6.53
550.612	6.54
550.956	6.7
551.3	6.53
551.643	6.58
551.987	6.71
552.33	6.65
552.674	6.84
553.017	6.57
553.361	6.9
553.704	6.86
554.048	6.81
554.391	6.78
554.734	6.88
555.077	6.76
555.42	6.67
555.764	6.77
556.107	7.05
556.45	6.87
556.793	6.85
557.135	6.89
557.478	6.86
557.821	6.96
558.164	7.29
558.507	6.99
558.849	7.11
559.192	7
559.534	7.26
559.877	6.86
560.219	7.13
560.562	7.26
560.904	7.03
561.246	7.09
561.589	7.1
561.931	7.28
562.273	7.23
562.615	7.42
562.957	7.38
563.299	7.29
563.641	7.33
563.983	7.23
564.325	7.3
564.667	7.35
565.008	7.35
565.35	7.46
565.692	7.54
566.033	7.7
566.375	7.43
566.716	7.57
567.058	7.5
567.399	7.58
567.741	7.34
568.082	7.5
568.423	7.6
568.764	7.56
569.105	7.78
569.447	7.69
569.788	7.7
570.129	7.71
570.47	7.74
570.811	7.79
571.151	7.71
571.492	7.85
571.833	7.99
572.174	8.01
572.514	7.79
572.855	7.91
573.195	8.1
573.536	7.87
573.876	8.06
574.217	7.81
574.557	7.97
574.898	7.84
575.238	7.97
575.578	8.12
575.918	8.09
576.258	8.15
576.598	8.26
576.938	8.19
577.278	8.22
577.618	8.17
577.958	8.21
578.298	8.2
578.638	8.29
578.977	8.37
579.317	8.11
579.657	8.3
579.996	8.49
580.336	8.48
580.675	8.52
581.014	8.48
581.354	8.67
581.693	8.76
582.032	8.67
582.372	8.48
582.711	8.72
583.05	9.09
583.389	8.8
583.728	8.88
584.067	8.82
584.406	8.76
584.745	8.87
585.083	8.93
585.422	9
585.761	9.16
586.1	9.05
586.438	8.66
586.777	8.95
587.115	9.34
587.454	9.03
587.792	9.07
588.13	9.18
588.469	9.16
588.807	8.94
589.145	9.13
589.483	9.13
589.821	9.07
590.159	9.16
590.497	9.54
590.835	9.36
591.173	9.3
591.511	9.48
591.849	9.29
592.187	9.38
592.524	9.14
592.862	9.38
593.2	9.52
593.537	9.52
593.875	9.55
594.212	9.78
594.55	9.73
594.887	9.7
595.224	9.6
595.561	9.6
595.899	9.64
596.236	9.96
596.573	9.71
596.91	9.76
597.247	10.1
597.584	9.6
597.921	9.76
598.258	10.1
598.594	10.04
598.931	9.78
599.268	9.78
599.604	9.99
599.941	10.09
600.277	9.94
600.614	10.18
600.95	10.37
601.287	10.18
601.623	10.42
601.959	10.23
602.296	10.13
602.632	10.48
602.968	10.14
603.304	10.5
603.64	10.17
603.976	10.4
604.312	10.71
604.648	10.41
604.984	10.56
605.319	10.45
605.655	10.46
605.991	10.49
606.326	10.46
606.662	10.48
606.998	10.51
607.333	10.59
607.668	10.38
608.004	10.76
608.339	10.56
608.674	10.95
609.01	11.01
609.345	11.15
609.68	10.96
610.015	10.6
610.35	11.12
610.685	11.24
611.02	10.89
611.355	10.67
611.689	10.86
612.024	11.1
612.359	11.16
612.694	11.35
613.028	11.16
613.363	11.17
613.697	11.36
614.032	11.35
614.366	11.32
614.7	11.47
615.035	11.59
615.369	11.73
615.703	11.27
616.037	11.68
616.371	11.76
616.705	11.66
617.039	11.44
617.373	11.72
617.707	11.9
618.041	11.72
618.375	11.71
618.709	11.75
619.042	11.81
619.376	12.09
619.71	11.61
620.043	11.98
620.377	12.09
620.71	12.05
621.043	12.17
621.377	12.1
621.71	12.25
622.043	12.11
622.376	12.21
622.709	12.25
623.043	12.48
623.376	12.21
623.709	12.21
624.041	12.12
624.374	12.51
624.707	12.51
625.04	12.47
625.373	12.76
625.705	12.27
626.038	12.96
626.37	12.19
626.703	12.72
627.035	12.18
627.368	12.54
627.7	12.96
628.032	12.55
628.365	12.74
628.697	12.54
629.029	12.46
629.361	12.43
629.693	12.6
630.025	12.9
630.357	12.98
630.689	12.79
631.021	13.11
631.353	13.06
631.684	13.06
632.016	13.44
632.348	13.29
632.679	12.79
633.011	13.08
633.342	13.13
633.674	13.26
634.005	13.46
634.336	13.9
634.668	13.48
634.999	13.43
635.33	13.35
635.661	13.65
635.992	13.59
636.323	13.94
636.654	13.64
636.985	13.47
637.316	13.91
637.647	13.49
637.977	13.41
638.308	13.67
638.639	13.9
638.969	13.84
639.3	13.6
639.63	13.78
639.961	13.76
640.291	13.85
640.622	13.75
640.952	13.78
641.282	14.06
641.612	14.09
641.943	14.28
642.273	13.8
642.603	14.04
642.933	13.95
643.263	14.32
643.592	14.19
643.922	14.78
644.252	14.27
644.582	14.08
644.911	14.71
645.241	14.63
645.571	15.25
645.9	14.62
646.23	14.55
646.559	14.49
646.888	15.09
647.218	14.59
647.547	14.9
647.876	14.71
648.205	14.71
648.534	14.76
648.863	15.17
649.192	14.14
649.521	14.89
649.85	14.62
650.179	14.79
650.508	15.01
650.837	15.25
651.165	15.07
651.494	14.51
651.822	14.8
652.151	15.01
652.479	15.6
652.808	15.55
653.136	14.92
653.465	15.87
653.793	15.18
654.121	15.56
654.449	15.33
654.777	15.46
655.105	15.46
655.433	15.88
655.761	15.69
656.089	15.85
656.417	15.7
656.745	15.46
657.073	15.94
657.4	16.15
657.728	16.1
658.056	15.74
658.383	15.69
658.711	15.39
659.038	16.29
659.365	15.67
659.693	15.74
660.02	15.82
660.347	15.57
660.674	15.65
661.001	15.57
661.329	16.09
661.656	16.16
661.982	15.91
662.309	15.93
662.636	15.83
662.963	16.33
663.29	16.05
663.616	16.27
663.943	16.01
664.27	16.44
664.596	16.21
664.923	15.86
665.249	16.1
665.576	15.79
665.902	16.29
666.228	16.18
666.554	17.06
666.881	16.48
667.207	16.81
667.533	16.84
667.859	17.06
668.185	17.04
668.511	17.06
668.837	16.86
669.162	17.12
669.488	17.5
669.814	17.33
670.139	16.89
670.465	16.62
670.791	17.16
671.116	17.44
671.442	17.06
671.767	17.29
672.092	17.25
672.418	17.39
672.743	17.69
673.068	17.65
673.393	17.22
673.718	17.28
674.043	17.12
674.368	17.39
674.693	17.72
675.018	17.81
675.343	17.56
675.667	17.85
675.992	17.66
676.317	18.16
676.641	18.08
676.966	17.86
677.29	17.56
677.615	18.09
677.939	18.03
678.264	18.16
678.588	17.41
678.912	18.11
679.236	17.71
679.56	18.11
679.885	18.41
680.209	18.16
680.532	17.87
680.856	18.38
681.18	18.67
681.504	18.35
681.828	18.36
682.152	18.34
682.475	18.03
682.799	18.66
683.122	18.19
683.446	18.59
683.769	18.3
684.093	18.69
684.416	19.08
684.739	18.6
685.062	18.01
685.386	18.54
685.709	18.91
686.032	18.97
686.355	19.56
686.678	18.59
