Data from 0262_forehead_Reflection__0__133.txt Node

Date: Fri Oct 20 21:39:56 CDT 2023
User: ToomeyLab
Spectrometer: FLMS14357
Trigger mode: 0
Integration Time (sec): 1.000000E-2
Scans to average: 100
Electric dark correction enabled: true
Nonlinearity correction enabled: false
Boxcar width: 0
XAxis mode: Wavelengths
Number of Pixels in Spectrum: 2048
>>>>>Begin Spectral Data<<<<<
189.047	42.61
189.435	42.61
189.823	42.61
190.211	186.79
190.599	63.5
190.987	80.75
191.375	-20.5
191.763	234.5
192.151	98.48
192.538	183.03
192.926	-154.66
193.314	55.66
193.702	47.74
194.089	21.42
194.477	281.99
194.864	370.18
195.252	131.31
195.639	46.85
196.027	0.81
196.414	461.35
196.801	140.73
197.189	13.37
197.576	2.43
197.963	12.71
198.351	64.62
198.738	52.38
199.125	42.57
199.512	45.63
199.899	12.81
200.286	-7.4
200.673	27.05
201.06	20.44
201.447	18.95
201.833	4.14
202.22	49.73
202.607	91.12
202.994	31.41
203.38	24.99
203.767	-4.05
204.154	46.83
204.54	23.98
204.927	-3.55
205.313	47.59
205.699	54.81
206.086	18.22
206.472	49.61
206.858	54.93
207.245	38.58
207.631	31.18
208.017	26.19
208.403	20.57
208.789	39.04
209.175	-0.98
209.561	22.71
209.947	16.79
210.333	50.9
210.719	19.12
211.105	27.41
211.491	24.85
211.876	10.15
212.262	28.96
212.648	17.79
213.034	47.78
213.419	21.4
213.805	28.67
214.19	24.4
214.576	10.28
214.961	32.23
215.346	10.07
215.732	29.99
216.117	-0.58
216.502	9.23
216.888	26.01
217.273	12.76
217.658	19.05
218.043	-8.04
218.428	7.29
218.813	20.23
219.198	9.46
219.583	3.08
219.968	12.65
220.353	18.71
220.738	27.81
221.122	22.96
221.507	13.99
221.892	4.16
222.276	22.39
222.661	35.73
223.046	11
223.43	9.06
223.815	19.11
224.199	18.34
224.583	-1.46
224.968	-2.42
225.352	9.67
225.736	-3.06
226.121	7.63
226.505	4.96
226.889	2.08
227.273	3.29
227.657	12.22
228.041	9.23
228.425	6.14
228.809	5.93
229.193	2.62
229.577	4.32
229.961	4.24
230.344	2.74
230.728	2.28
231.112	2.56
231.495	1.89
231.879	2.55
232.263	2.92
232.646	1.74
233.03	2.52
233.413	2.62
233.797	3.45
234.18	3.46
234.563	4.42
234.946	4.93
235.33	3.62
235.713	2.58
236.096	2.68
236.479	3.74
236.862	3.16
237.245	1.9
237.628	2.63
238.011	3.68
238.394	2.32
238.777	4.83
239.16	2.48
239.543	3.76
239.925	6.66
240.308	3.45
240.691	3.49
241.073	4.12
241.456	4.12
241.838	4.2
242.221	3.25
242.603	3.11
242.986	2.56
243.368	3.58
243.75	1.83
244.133	2.47
244.515	2.3
244.897	2.76
245.279	2.76
245.661	2.56
246.043	2.77
246.425	3.02
246.807	3.33
247.189	3.3
247.571	2.28
247.953	2.58
248.335	2.85
248.717	2.29
249.098	2.41
249.48	2.38
249.862	2.68
250.243	2.82
250.625	2.82
251.006	2.66
251.388	2.79
251.769	2.66
252.151	2.89
252.532	3.31
252.913	3.21
253.295	2.48
253.676	2.08
254.057	2.85
254.438	2.62
254.819	3.12
255.2	2.82
255.581	2.76
255.962	3.27
256.343	3.59
256.724	2.8
257.105	4.49
257.486	4.34
257.867	3.38
258.247	3.17
258.628	3.25
259.009	2.19
259.389	2.25
259.77	2.47
260.15	3.19
260.531	2.88
260.911	3.37
261.292	2.34
261.672	2.47
262.052	2.68
262.432	2.51
262.813	2.52
263.193	2.69
263.573	2.75
263.953	2.63
264.333	3.07
264.713	2.98
265.093	3.67
265.473	3.82
265.853	2.45
266.233	2.95
266.612	3.12
266.992	2.81
267.372	3.07
267.752	2.26
268.131	2.65
268.511	2.59
268.89	3.1
269.27	2.22
269.649	2.32
270.029	2.41
270.408	3.3
270.787	3.01
271.167	2.47
271.546	2.71
271.925	3.46
272.304	3.73
272.683	2.93
273.062	2.92
273.441	2.73
273.82	3.16
274.199	2.69
274.578	2.8
274.957	2.83
275.336	2.64
275.715	2.71
276.093	2.63
276.472	2.9
276.851	3.49
277.229	2.9
277.608	2.76
277.986	2.42
278.365	3.56
278.743	2.75
279.122	3.12
279.5	2.76
279.878	2.18
280.257	2.41
280.635	3.43
281.013	3.29
281.391	3
281.769	2.41
282.147	2.53
282.525	2.9
282.903	2.88
283.281	2.59
283.659	3.06
284.037	3.01
284.415	2.2
284.792	2.57
285.17	2.72
285.548	2.75
285.925	2.16
286.303	2.22
286.68	2.44
287.058	3.23
287.435	3.15
287.813	2.22
288.19	2.77
288.567	2.86
288.945	3.13
289.322	3.28
289.699	2.48
290.076	3.48
290.453	2.95
290.83	2.72
291.207	3.46
291.584	2.54
291.961	3.09
292.338	2.86
292.715	3.01
293.092	3.03
293.469	3.22
293.845	2.77
294.222	3.18
294.599	3.03
294.975	4.01
295.352	3.61
295.728	3.21
296.105	3.27
296.481	3.43
296.858	3.5
297.234	3.48
297.61	3.2
297.986	3.34
298.363	3.64
298.739	3.61
299.115	3.22
299.491	3.63
299.867	3.53
300.243	3.82
300.619	3.76
300.995	3.54
301.371	4.01
301.746	4
302.122	3.79
302.498	3.79
302.874	3.82
303.249	3.93
303.625	4
304	3.97
304.376	3.7
304.751	3.3
305.127	3.86
305.502	4.73
305.878	3.87
306.253	3.94
306.628	4.65
307.003	4.48
307.378	4.21
307.754	4.32
308.129	5.23
308.504	4.63
308.879	4.53
309.254	4.68
309.629	4.42
310.003	4.16
310.378	4.78
310.753	4.64
311.128	5.1
311.502	4.61
311.877	4.35
312.252	4.31
312.626	4.8
313.001	4.73
313.375	4.96
313.75	4.78
314.124	4.53
314.498	4.86
314.873	4.49
315.247	5.06
315.621	4.92
315.995	5.37
316.369	4.92
316.743	5.54
317.117	5.56
317.491	4.62
317.865	5.29
318.239	5.7
318.613	5.51
318.987	4.94
319.361	5.42
319.734	4.92
320.108	5.5
320.482	5.3
320.855	6.33
321.229	5.84
321.602	5.94
321.976	5.56
322.349	6.32
322.723	5.73
323.096	5.98
323.469	5.9
323.843	6.18
324.216	5.87
324.589	5.99
324.962	5.64
325.335	6.19
325.708	5.94
326.081	6.36
326.454	6.17
326.827	6.52
327.2	6.2
327.573	6.51
327.945	6.04
328.318	6.13
328.691	6.04
329.063	6.28
329.436	5.72
329.809	6.38
330.181	6.75
330.553	6.77
330.926	6.52
331.298	6.11
331.671	6.08
332.043	6.32
332.415	6.37
332.787	6.97
333.159	6.76
333.532	6.62
333.904	6.92
334.276	6.46
334.648	6.67
335.02	7.07
335.391	6.86
335.763	7.29
336.135	7.02
336.507	6.89
336.879	6.96
337.25	7.86
337.622	7.74
337.993	7.61
338.365	7.29
338.736	7.05
339.108	7.23
339.479	7.11
339.851	7.58
340.222	6.73
340.593	6.41
340.964	6.68
341.336	7.5
341.707	8.01
342.078	7.32
342.449	7.07
342.82	7.31
343.191	7.31
343.562	7.6
343.933	7.42
344.303	7.42
344.674	7.82
345.045	7.54
345.416	7.6
345.786	7.16
346.157	7.39
346.527	7.34
346.898	7.64
347.268	7.79
347.639	8.07
348.009	7.2
348.38	7.58
348.75	7.96
349.12	7.8
349.49	7.5
349.861	8.47
350.231	7.53
350.601	7.85
350.971	8.4
351.341	8.12
351.711	8.93
352.081	8.11
352.45	8.36
352.82	7.86
353.19	7.94
353.56	8.38
353.929	7.97
354.299	8.21
354.669	8.29
355.038	8.44
355.408	8.65
355.777	8.15
356.147	8.13
356.516	8.24
356.885	8.53
357.254	8.49
357.624	8.27
357.993	8.28
358.362	8.61
358.731	8.11
359.1	8.48
359.469	8.39
359.838	8.49
360.207	8.59
360.576	8.72
360.945	8.57
361.314	8.82
361.682	9.07
362.051	8.48
362.42	8.39
362.788	8.9
363.157	8.76
363.525	8.35
363.894	8.69
364.262	8.53
364.631	8.76
364.999	8.97
365.367	8.95
365.735	8.93
366.104	9.04
366.472	8.98
366.84	9
367.208	9.06
367.576	9.06
367.944	9.35
368.312	9.42
368.68	8.96
369.048	9.24
369.416	9.57
369.783	9.47
370.151	9.42
370.519	9.17
370.886	9.61
371.254	10.18
371.621	9.77
371.989	9.52
372.356	9.43
372.724	9.98
373.091	9.54
373.458	9.53
373.826	9.37
374.193	9.35
374.56	9.58
374.927	9.53
375.294	10.13
375.661	10.06
376.028	9.99
376.395	10.11
376.762	9.72
377.129	9.92
377.496	9.97
377.863	10.12
378.229	9.85
378.596	10.16
378.963	10.34
379.329	10.42
379.696	10.07
380.062	10.05
380.429	10.13
380.795	9.96
381.161	10.18
381.528	10.7
381.894	10.19
382.26	10.27
382.626	10.29
382.993	10.38
383.359	10.24
383.725	10.57
384.091	10.5
384.457	10.52
384.823	10.76
385.188	10.65
385.554	10.54
385.92	10.68
386.286	10.92
386.651	10.56
387.017	10.92
387.383	10.88
387.748	10.78
388.114	10.79
388.479	10.58
388.845	11.15
389.21	11.14
389.575	10.78
389.94	10.73
390.306	11.08
390.671	10.73
391.036	11.06
391.401	11.33
391.766	11.42
392.131	11.07
392.496	11.07
392.861	11.35
393.226	11.29
393.591	11.02
393.956	11.22
394.32	11.52
394.685	10.88
395.05	11.37
395.414	11.58
395.779	11.33
396.143	11.27
396.508	11.25
396.872	11.71
397.236	11.77
397.601	11.65
397.965	11.6
398.329	11.63
398.694	11.88
399.058	11.42
399.422	11.79
399.786	11.69
400.15	11.8
400.514	11.86
400.878	11.96
401.242	12.14
401.605	12.08
401.969	11.71
402.333	11.9
402.697	11.89
403.06	11.9
403.424	11.83
403.787	12.3
404.151	12.16
404.514	11.92
404.878	12.32
405.241	12.02
405.604	11.98
405.968	12.4
406.331	12.15
406.694	12.01
407.057	11.98
407.42	12.54
407.783	12.39
408.146	12.31
408.509	12.36
408.872	12.44
409.235	12.32
409.598	12.4
409.961	12.55
410.323	12.45
410.686	12.47
411.049	12.41
411.411	12.55
411.774	12.66
412.136	12.65
412.499	12.65
412.861	12.8
413.223	12.86
413.586	12.78
413.948	13.01
414.31	12.85
414.672	12.85
415.035	13.08
415.397	13.38
415.759	12.91
416.121	13.11
416.483	13.15
416.845	13.16
417.206	12.88
417.568	13.19
417.93	13.12
418.292	12.82
418.653	13.13
419.015	13.15
419.377	13.08
419.738	12.98
420.1	12.97
420.461	12.98
420.822	13
421.184	13.13
421.545	13
421.906	13.09
422.267	13.06
422.629	13.11
422.99	13.03
423.351	13.03
423.712	13.16
424.073	13.21
424.434	13.25
424.795	13.36
425.155	13.48
425.516	13.42
425.877	13.46
426.238	13.31
426.598	13.31
426.959	13.32
427.32	13.64
427.68	13.81
428.041	13.69
428.401	13.75
428.761	13.86
429.122	13.99
429.482	14
429.842	14.16
430.202	14.31
430.563	14.12
430.923	14.14
431.283	14.14
431.643	14.22
432.003	14.34
432.363	14.14
432.722	14.4
433.082	14.3
433.442	14.28
433.802	14.53
434.161	14.39
434.521	14.58
434.881	14.31
435.24	14.34
435.6	14.43
435.959	14.34
436.319	14.54
436.678	14.62
437.037	14.43
437.396	14.79
437.756	14.7
438.115	14.52
438.474	14.87
438.833	14.92
439.192	14.7
439.551	14.7
439.91	14.82
440.269	14.86
440.628	14.75
440.987	14.75
441.345	14.76
441.704	14.9
442.063	14.9
442.421	14.79
442.78	14.8
443.138	15.03
443.497	15.06
443.855	14.95
444.214	15.17
444.572	15.1
444.93	15.31
445.288	15.29
445.647	15.44
446.005	15.14
446.363	15.27
446.721	15.28
447.079	15.39
447.437	15.31
447.795	15.29
448.153	15.08
448.51	15.14
448.868	15.19
449.226	15.12
449.584	15.23
449.941	15.36
450.299	15.6
450.656	15.42
451.014	15.65
451.371	15.64
451.729	15.58
452.086	15.96
452.443	15.99
452.801	15.67
453.158	15.85
453.515	15.9
453.872	16.09
454.229	16.2
454.586	16.07
454.943	16.16
455.3	16.23
455.657	16.07
456.014	16.27
456.371	16.33
456.727	16.27
457.084	16.28
457.441	16.36
457.797	16.52
458.154	16.28
458.51	16.4
458.867	16.42
459.223	16.63
459.58	16.51
459.936	16.65
460.292	16.7
460.648	16.36
461.005	16.43
461.361	16.45
461.717	16.29
462.073	16.23
462.429	16.39
462.785	16.5
463.141	16.76
463.496	16.7
463.852	16.87
464.208	17.02
464.564	17.27
464.919	17.04
465.275	17.09
465.631	17.38
465.986	17.24
466.342	17.2
466.697	17.21
467.052	17.18
467.408	17.22
467.763	17.48
468.118	17.41
468.473	17.35
468.829	17.54
469.184	17.4
469.539	17.3
469.894	17.47
470.249	17.5
470.603	17.52
470.958	17.81
471.313	17.7
471.668	17.67
472.023	17.66
472.377	17.71
472.732	17.55
473.086	17.88
473.441	17.91
473.795	18.08
474.15	17.91
474.504	17.81
474.859	17.91
475.213	17.89
475.567	18
475.921	18.18
476.275	18.15
476.63	18.28
476.984	18.32
477.338	18.19
477.692	18.38
478.045	18.22
478.399	18.11
478.753	18.35
479.107	18.37
479.461	18.33
479.814	18.42
480.168	18.41
480.521	18.45
480.875	18.32
481.228	18.55
481.582	18.48
481.935	18.43
482.289	18.51
482.642	18.56
482.995	18.56
483.348	18.54
483.701	18.54
484.055	18.5
484.408	18.28
484.761	18.32
485.114	18.14
485.466	17.86
485.819	17.68
486.172	17.64
486.525	17.76
486.878	17.99
487.23	18.19
487.583	18.22
487.936	18.41
488.288	18.51
488.641	18.57
488.993	18.36
489.345	18.2
489.698	18.16
490.05	18.2
490.402	18.25
490.754	18.38
491.107	18.55
491.459	18.91
491.811	19.09
492.163	19.02
492.515	19.17
492.866	19.1
493.218	18.9
493.57	18.64
493.922	18.57
494.274	18.76
494.625	18.97
494.977	19.12
495.328	19.41
495.68	19.58
496.031	19.45
496.383	19.81
496.734	19.68
497.086	19.89
497.437	19.94
497.788	19.93
498.139	20.09
498.49	20
498.842	19.87
499.193	19.71
499.544	19.84
499.894	19.92
500.245	19.96
500.596	20.09
500.947	20.05
501.298	20.12
501.648	20.27
501.999	20.37
502.35	20.5
502.7	20.63
503.051	20.51
503.401	20.7
503.752	20.64
504.102	20.56
504.452	20.67
504.803	20.86
505.153	20.72
505.503	20.84
505.853	21.01
506.203	20.64
506.553	20.76
506.903	20.92
507.253	21.03
507.603	20.83
507.953	21.11
508.303	20.97
508.652	21.16
509.002	21.14
509.352	21.2
509.701	21.29
510.051	21.13
510.4	21.16
510.75	21.02
511.099	21.1
511.449	21.07
511.798	21.29
512.147	21.22
512.496	21.19
512.846	21.19
513.195	21.26
513.544	21.5
513.893	21.36
514.242	21.41
514.591	21.29
514.939	21.44
515.288	21.48
515.637	21.64
515.986	21.64
516.334	21.69
516.683	21.89
517.032	21.7
517.38	21.87
517.729	21.88
518.077	21.98
518.426	21.88
518.774	21.98
519.122	21.88
519.47	21.96
519.819	21.88
520.167	21.78
520.515	21.68
520.863	21.7
521.211	21.75
521.559	22
521.907	21.94
522.255	22.13
522.602	22.31
522.95	22.2
523.298	22.21
523.645	22.31
523.993	22.59
524.341	22.51
524.688	22.62
525.036	22.58
525.383	22.52
525.73	22.67
526.078	22.75
526.425	22.69
526.772	22.68
527.119	22.5
527.466	22.38
527.814	22.37
528.161	22.43
528.508	22.42
528.854	22.35
529.201	22.4
529.548	22.6
529.895	22.46
530.242	22.15
530.588	21.9
530.935	21.98
531.282	22.14
531.628	22.41
531.975	22.4
532.321	22.61
532.667	22.68
533.014	22.89
533.36	22.97
533.706	23.1
534.052	23.2
534.399	23.07
534.745	23.02
535.091	22.86
535.437	22.77
535.783	22.8
536.129	23
536.474	23.25
536.82	23.32
537.166	23.4
537.512	23.58
537.857	23.62
538.203	23.47
538.549	23.58
538.894	23.35
539.239	23.47
539.585	23.68
539.93	23.87
540.276	24.04
540.621	24.11
540.966	24.19
541.311	24.23
541.656	24.24
542.001	24.3
542.346	24.14
542.691	23.92
543.036	23.68
543.381	23.55
543.726	23.42
544.071	23.62
544.415	23.77
544.76	23.9
545.105	24.14
545.449	24.04
545.794	24.27
546.138	24.27
546.483	24.42
546.827	24.58
547.171	24.8
547.516	24.67
547.86	24.6
548.204	24.65
548.548	24.78
548.892	24.67
549.236	24.68
549.58	24.81
549.924	24.94
550.268	25.1
550.612	25.27
550.956	25.61
551.3	25.43
551.643	25.46
551.987	25.67
552.33	25.63
552.674	25.68
553.017	25.61
553.361	25.63
553.704	25.79
554.048	25.75
554.391	25.96
554.734	25.89
555.077	25.63
555.42	25.75
555.764	25.82
556.107	26.11
556.45	26.25
556.793	26.13
557.135	26.06
557.478	25.98
557.821	26.28
558.164	26.36
558.507	26.6
558.849	26.52
559.192	26.46
559.534	26.43
559.877	26.45
560.219	26.43
560.562	26.7
560.904	26.48
561.246	26.85
561.589	26.96
561.931	26.85
562.273	26.91
562.615	26.9
562.957	26.85
563.299	26.79
563.641	27.1
563.983	26.93
564.325	26.74
564.667	27.06
565.008	27.15
565.35	27.32
565.692	27.09
566.033	27.36
566.375	27.34
566.716	27.28
567.058	27.28
567.399	27.1
567.741	27.31
568.082	27.31
568.423	27.34
568.764	27.14
569.105	27.54
569.447	27.16
569.788	27.64
570.129	27.74
570.47	27.61
570.811	27.8
571.151	27.59
571.492	27.88
571.833	27.91
572.174	27.78
572.514	27.88
572.855	27.81
573.195	28
573.536	27.73
573.876	27.91
574.217	27.57
574.557	27.68
574.898	27.78
575.238	27.69
575.578	27.9
575.918	27.91
576.258	28.18
576.598	28.28
576.938	28.31
577.278	28.31
577.618	28.2
577.958	28.26
578.298	28.44
578.638	28.41
578.977	28.62
579.317	28.42
579.657	28.6
579.996	28.95
580.336	28.83
580.675	28.77
581.014	29.03
581.354	29.18
581.693	28.96
582.032	28.98
582.372	29.33
582.711	29.39
583.05	29.53
583.389	29.34
583.728	29.13
584.067	29.46
584.406	29.5
584.745	29.45
585.083	29.47
585.422	29.51
585.761	29.4
586.1	29.67
586.438	29.49
586.777	29.9
587.115	29.98
587.454	29.95
587.792	29.54
588.13	30.21
588.469	29.97
588.807	29.6
589.145	29.84
589.483	30.17
589.821	29.82
590.159	29.96
590.497	30.06
590.835	29.98
591.173	29.97
591.511	30.23
591.849	30.11
592.187	30.35
592.524	29.79
592.862	30.35
593.2	30.35
593.537	30.26
593.875	30.27
594.212	30.64
594.55	30.26
594.887	30.53
595.224	30.28
595.561	30.11
595.899	30.55
596.236	30.43
596.573	30.78
596.91	30.77
597.247	30.83
597.584	30.42
597.921	30.78
598.258	30.68
598.594	30.92
598.931	30.43
599.268	30.46
599.604	30.71
599.941	30.65
600.277	30.52
600.614	30.81
600.95	30.75
601.287	30.88
601.623	31.19
601.959	31.26
602.296	31.13
602.632	31.53
602.968	31.18
603.304	31.54
603.64	31.19
603.976	31.42
604.312	31.37
604.648	31.35
604.984	31.58
605.319	31.24
605.655	31.56
605.991	31.26
606.326	31.15
606.662	31.42
606.998	31.35
607.333	31.3
607.668	31.52
608.004	31.57
608.339	31.74
608.674	31.67
609.01	31.95
609.345	32.11
609.68	32.44
610.015	31.87
610.35	32.21
610.685	32.32
611.02	32.08
611.355	31.76
611.689	32.04
612.024	32.03
612.359	32
612.694	32.47
613.028	32.12
613.363	32.3
613.697	32.24
614.032	32.52
614.366	32.98
614.7	32.79
615.035	32.87
615.369	32.92
615.703	32.6
616.037	33.15
616.371	33
616.705	33.07
617.039	32.85
617.373	32.94
617.707	33.24
618.041	33.08
618.375	32.86
618.709	32.88
619.042	33.19
619.376	33.4
619.71	33.53
620.043	33.31
620.377	33.11
620.71	33.5
621.043	33.27
621.377	33.28
621.71	33.92
622.043	33.43
622.376	33.53
622.709	33.79
623.043	33.62
623.376	33.57
623.709	33.67
624.041	33.93
624.374	33.74
624.707	33.46
625.04	34.01
625.373	34.01
625.705	33.38
626.038	33.84
626.37	34.18
626.703	33.98
627.035	33.58
627.368	34.15
627.7	34.12
628.032	33.84
628.365	34.05
628.697	34.06
629.029	33.91
629.361	33.84
629.693	33.85
630.025	34.08
630.357	34.32
630.689	34.22
631.021	34.56
631.353	34.32
631.684	34.32
632.016	34.89
632.348	34.56
632.679	34.04
633.011	35.09
633.342	34.43
633.674	34.59
634.005	34.68
634.336	35.17
634.668	34.3
634.999	35.09
635.33	34.44
635.661	35.13
635.992	34.75
636.323	35.08
636.654	35.03
636.985	34.96
637.316	34.56
637.647	34.86
637.977	34.5
638.308	34.75
638.639	35.41
638.969	35.27
639.3	35.1
639.63	34.97
639.961	34.91
640.291	35.57
640.622	35.16
640.952	35.63
641.282	35.43
641.612	35.61
641.943	36.07
642.273	35.41
642.603	35.77
642.933	35.7
643.263	35.77
643.592	35.46
643.922	35.69
644.252	35.76
644.582	35.25
644.911	36
645.241	36.16
645.571	36.05
645.9	35.65
646.23	35.74
646.559	36.2
646.888	36.07
647.218	36.16
647.547	36.09
647.876	36.18
648.205	36.05
648.534	36.08
648.863	36.76
649.192	36.1
649.521	36.4
649.85	36.38
650.179	36.53
650.508	36.8
650.837	36.92
651.165	36.5
651.494	35.89
651.822	36.75
652.151	36.79
652.479	36.09
652.808	36.73
653.136	36.45
653.465	36.96
653.793	36.55
654.121	37.07
654.449	36.76
654.777	36.92
655.105	36.55
655.433	36.96
655.761	37.01
656.089	37.12
656.417	37.51
656.745	37.35
657.073	37.02
657.4	37.27
657.728	37.67
658.056	36.91
658.383	37.29
658.711	37.38
659.038	36.84
659.365	37.09
659.693	37.26
660.02	37
660.347	37.47
660.674	37.01
661.001	37.26
661.329	37.22
661.656	37.36
661.982	37.22
662.309	37.17
662.636	37.37
662.963	37.25
663.29	37.08
663.616	37.46
663.943	37.79
664.27	37.91
664.596	37.74
664.923	37.55
665.249	37.44
665.576	37.28
665.902	38.37
666.228	37.91
666.554	37.77
666.881	37.81
667.207	38.54
667.533	37.89
667.859	38.12
668.185	38.51
668.511	38.8
668.837	38.88
669.162	38.29
669.488	37.98
669.814	37.73
670.139	37.8
670.465	37.82
670.791	38.5
671.116	37.81
671.442	38.44
671.767	38.66
672.092	38.85
672.418	38.48
672.743	38.54
673.068	38.84
673.393	38.71
