Data from 0262_forehead_Reflection__1__134.txt Node

Date: Fri Oct 20 21:40:07 CDT 2023
User: ToomeyLab
Spectrometer: FLMS14357
Trigger mode: 0
Integration Time (sec): 1.000000E-2
Scans to average: 100
Electric dark correction enabled: true
Nonlinearity correction enabled: false
Boxcar width: 0
XAxis mode: Wavelengths
Number of Pixels in Spectrum: 2048
>>>>>Begin Spectral Data<<<<<
189.047	43.2
189.435	43.2
189.823	43.2
190.211	-9.36
190.599	68.44
190.987	155.89
191.375	177.89
191.763	281.97
192.151	-235.13
192.538	66.62
192.926	-41.55
193.314	190.65
193.702	55.04
194.089	80.12
194.477	324.69
194.864	691.98
195.252	194.74
195.639	99.41
196.027	91.04
196.414	394.85
196.801	13.83
197.189	46.48
197.576	27.24
197.963	-17.03
198.351	62.28
198.738	37.74
199.125	20.46
199.512	44.21
199.899	24.01
200.286	-41.22
200.673	36.08
201.06	27.91
201.447	1.38
201.833	35.27
202.22	24.15
202.607	124.86
202.994	72.13
203.38	14.51
203.767	24.98
204.154	48.02
204.54	38.34
204.927	-1.65
205.313	5.65
205.699	27.4
206.086	18.15
206.472	46.04
206.858	37.09
207.245	40.52
207.631	15.93
208.017	27.22
208.403	-9.74
208.789	45.54
209.175	21.7
209.561	20.95
209.947	14.78
210.333	45.35
210.719	35.51
211.105	21.2
211.491	23.71
211.876	13.24
212.262	27.29
212.648	22.13
213.034	19.37
213.419	41.85
213.805	-0.71
214.19	11.6
214.576	12.68
214.961	18.25
215.346	36.4
215.732	25.2
216.117	3.28
216.502	26.41
216.888	13.24
217.273	-3.75
217.658	5.63
218.043	10.85
218.428	-0.79
218.813	24.46
219.198	4.3
219.583	20.64
219.968	-22.06
220.353	15.86
220.738	10.49
221.122	6.27
221.507	2.3
221.892	14.32
222.276	11.14
222.661	28.79
223.046	13.63
223.43	5.45
223.815	9.06
224.199	16.92
224.583	-7.93
224.968	-2.71
225.352	6.51
225.736	8.05
226.121	5.27
226.505	5.66
226.889	9.29
227.273	12.13
227.657	12.33
228.041	6.44
228.425	-0.28
228.809	4.12
229.193	4.76
229.577	5.25
229.961	3.31
230.344	3.73
230.728	3.29
231.112	3.13
231.495	2.05
231.879	3.47
232.263	4.66
232.646	2.2
233.03	3.25
233.413	3.47
233.797	3.28
234.18	3.28
234.563	4.74
234.946	6.75
235.33	3.84
235.713	3.72
236.096	4.49
236.479	2.88
236.862	3.66
237.245	2.79
237.628	2.69
238.011	4.76
238.394	3.2
238.777	4.06
239.16	3.37
239.543	6.02
239.925	4.9
240.308	3.33
240.691	2.73
241.073	5.92
241.456	3.51
241.838	3.91
242.221	4.38
242.603	3.27
242.986	3.05
243.368	3.11
243.75	3.05
244.133	2.52
244.515	2.65
244.897	2.64
245.279	2.84
245.661	3.1
246.043	3.27
246.425	2.18
246.807	3.81
247.189	3.41
247.571	3.56
247.953	3.38
248.335	3.46
248.717	2.66
249.098	2.39
249.48	2.59
249.862	3.04
250.243	3.14
250.625	3.04
251.006	3.19
251.388	3.03
251.769	4.06
252.151	3.23
252.532	2.95
252.913	3.26
253.295	1.66
253.676	2.59
254.057	3.13
254.438	3.11
254.819	2.99
255.2	3.27
255.581	2.6
255.962	2.75
256.343	3.05
256.724	1.47
257.105	3.6
257.486	3.69
257.867	3.29
258.247	3.34
258.628	2.68
259.009	2.88
259.389	3.02
259.77	2.63
260.15	3.51
260.531	3.41
260.911	2.9
261.292	2.66
261.672	2.99
262.052	2.93
262.432	2.92
262.813	2.73
263.193	3.09
263.573	2.59
263.953	3.14
264.333	3.39
264.713	3.64
265.093	3.57
265.473	3.84
265.853	2.82
266.233	3.23
266.612	3.55
266.992	3.22
267.372	2.78
267.752	3.05
268.131	3.28
268.511	3.48
268.89	2.92
269.27	2.88
269.649	2.54
270.029	2.85
270.408	3.41
270.787	2.85
271.167	3.22
271.546	3.7
271.925	3.37
272.304	3.81
272.683	2.84
273.062	3.11
273.441	3.2
273.82	3.02
274.199	3.34
274.578	3.28
274.957	3.15
275.336	3.33
275.715	3.03
276.093	2.84
276.472	3.64
276.851	3.2
277.229	2.87
277.608	2.91
277.986	3.46
278.365	3.05
278.743	2.61
279.122	2.56
279.5	2.81
279.878	2.14
280.257	2.72
280.635	3.09
281.013	3.61
281.391	3.36
281.769	3.25
282.147	2.6
282.525	3.17
282.903	3.13
283.281	2.74
283.659	3
284.037	3.11
284.415	2.17
284.792	2.97
285.17	3.26
285.548	3.32
285.925	2.94
286.303	2.85
286.68	3.01
287.058	3.39
287.435	3.1
287.813	2.71
288.19	3.03
288.567	2.92
288.945	3.21
289.322	3.46
289.699	3.08
290.076	3.79
290.453	2.87
290.83	3.43
291.207	3.71
291.584	2.71
291.961	3.1
292.338	3.16
292.715	3.36
293.092	2.88
293.469	3.63
293.845	3.51
294.222	3.51
294.599	3.39
294.975	4.41
295.352	3.31
295.728	3.79
296.105	3.79
296.481	3.53
296.858	3.69
297.234	3.64
297.61	3.65
297.986	3.29
298.363	3.64
298.739	3.62
299.115	3.48
299.491	3.5
299.867	3.93
300.243	3.79
300.619	3.98
300.995	3.5
301.371	3.84
301.746	3.79
302.122	4.09
302.498	4.25
302.874	4.01
303.249	4.18
303.625	4.03
304	4.45
304.376	4.09
304.751	4.07
305.127	3.74
305.502	4.4
305.878	4.18
306.253	4.28
306.628	4.72
307.003	4.78
307.378	4.53
307.754	4.5
308.129	4.86
308.504	4.35
308.879	4.75
309.254	5.17
309.629	4.32
310.003	4.09
310.378	4.86
310.753	4.35
311.128	4.8
311.502	4.45
311.877	4.96
312.252	4.83
312.626	5
313.001	4.85
313.375	5.08
313.75	5.01
314.124	4.89
314.498	5.16
314.873	5.11
315.247	4.96
315.621	5.16
315.995	5.79
316.369	4.94
316.743	5.62
317.117	5.46
317.491	4.93
317.865	5.41
318.239	5.62
318.613	5.44
318.987	5.91
319.361	5.36
319.734	5.49
320.108	5.45
320.482	6
320.855	6.13
321.229	6.25
321.602	5.85
321.976	5.82
322.349	5.69
322.723	5.77
323.096	6.28
323.469	5.5
323.843	6.23
324.216	6.42
324.589	6.26
324.962	6.84
325.335	6.27
325.708	6.26
326.081	6.58
326.454	6.24
326.827	6.57
327.2	6.72
327.573	6.18
327.945	6.77
328.318	6.24
328.691	6.61
329.063	6.94
329.436	6.17
329.809	6.57
330.181	7.23
330.553	7.11
330.926	6.71
331.298	6.05
331.671	6.15
332.043	6.15
332.415	6.89
332.787	6.88
333.159	6.29
333.532	7.06
333.904	6.74
334.276	6.52
334.648	7.31
335.02	7.56
335.391	6.95
335.763	7.63
336.135	7.18
336.507	7.42
336.879	6.9
337.25	7.98
337.622	7.7
337.993	7.7
338.365	7.1
338.736	7.63
339.108	7.82
339.479	7.14
339.851	7.48
340.222	7.48
340.593	6.82
340.964	7.35
341.336	8.21
341.707	7.8
342.078	8.12
342.449	7.31
342.82	7.06
343.191	7.21
343.562	7.79
343.933	7.75
344.303	7.97
344.674	8.13
345.045	8.04
345.416	8.39
345.786	7.85
346.157	8.3
346.527	8.27
346.898	8.06
347.268	8.1
347.639	8.55
348.009	8.07
348.38	8.05
348.75	8.02
349.12	8.09
349.49	8.01
349.861	8.84
350.231	7.93
350.601	8.37
350.971	8.85
351.341	8.8
351.711	8.89
352.081	8.95
352.45	8.67
352.82	8.8
353.19	8.84
353.56	8.32
353.929	8.71
354.299	8.62
354.669	8.23
355.038	8.86
355.408	8.96
355.777	8.77
356.147	8.67
356.516	9.05
356.885	8.66
357.254	9.05
357.624	8.9
357.993	8.92
358.362	9.26
358.731	8.59
359.1	8.49
359.469	8.74
359.838	8.86
360.207	9
360.576	9.5
360.945	8.97
361.314	8.99
361.682	9.08
362.051	9.18
362.42	9.1
362.788	9.38
363.157	9.38
363.525	9.25
363.894	9.17
364.262	8.97
364.631	9.63
364.999	9.68
365.367	9.49
365.735	9.44
366.104	9.44
366.472	9.73
366.84	9.78
367.208	9.77
367.576	9.61
367.944	9.94
368.312	9.87
368.68	10.04
369.048	9.92
369.416	9.9
369.783	9.96
370.151	10.02
370.519	10.13
370.886	10.12
371.254	10.2
371.621	10.59
371.989	10.2
372.356	10.37
372.724	10.48
373.091	10.39
373.458	10.36
373.826	10.21
374.193	10.26
374.56	10.44
374.927	10.48
375.294	10.71
375.661	10.71
376.028	10.93
376.395	10.81
376.762	10.59
377.129	10.46
377.496	10.76
377.863	10.92
378.229	11.11
378.596	10.95
378.963	10.85
379.329	10.82
379.696	11.14
380.062	10.87
380.429	10.74
380.795	10.77
381.161	10.98
381.528	11.38
381.894	10.87
382.26	11.07
382.626	11.21
382.993	11.04
383.359	11.24
383.725	11.36
384.091	11.35
384.457	11.49
384.823	11.02
385.188	11.73
385.554	11.53
385.92	11.37
386.286	11.52
386.651	11.27
387.017	11.62
387.383	11.57
387.748	11.58
388.114	11.37
388.479	11.62
388.845	11.93
389.21	11.71
389.575	11.44
389.94	12
390.306	11.8
390.671	11.78
391.036	12.04
391.401	12.09
391.766	12.13
392.131	11.91
392.496	12.08
392.861	11.97
393.226	12.08
393.591	11.96
393.956	12.08
394.32	12.42
394.685	11.97
395.05	12.4
395.414	12.44
395.779	12.14
396.143	12.36
396.508	12.48
396.872	12.43
397.236	12.26
397.601	12.35
397.965	12.27
398.329	12.42
398.694	12.76
399.058	12.46
399.422	12.82
399.786	12.68
400.15	12.45
400.514	12.66
400.878	12.63
401.242	12.84
401.605	12.89
401.969	12.62
402.333	12.83
402.697	13.08
403.06	12.94
403.424	12.81
403.787	12.95
404.151	13.13
404.514	13.18
404.878	13.31
405.241	13.04
405.604	12.93
405.968	13
406.331	13.09
406.694	13.19
407.057	13.15
407.42	13.59
407.783	13.31
408.146	13.38
408.509	13.48
408.872	13.68
409.235	13.31
409.598	13.35
409.961	13.6
410.323	13.6
410.686	13.49
411.049	13.69
411.411	13.68
411.774	13.64
412.136	13.61
412.499	13.63
412.861	13.71
413.223	13.82
413.586	13.61
413.948	14.06
414.31	13.9
414.672	13.92
415.035	14.07
415.397	13.85
415.759	13.98
416.121	14.23
416.483	14.08
416.845	14.28
417.206	14.19
417.568	14.11
417.93	14.26
418.292	13.87
418.653	14.42
419.015	14.12
419.377	14.21
419.738	14
420.1	14.25
420.461	14.26
420.822	14.11
421.184	14.16
421.545	14.3
421.906	14.19
422.267	14.16
422.629	14.25
422.99	14.15
423.351	14.18
423.712	14.18
424.073	14.27
424.434	14.22
424.795	14.47
425.155	14.55
425.516	14.57
425.877	14.47
426.238	14.34
426.598	14.61
426.959	14.44
427.32	14.61
427.68	14.76
428.041	14.83
428.401	14.8
428.761	14.88
429.122	14.85
429.482	15.17
429.842	15.09
430.202	15.31
430.563	15.14
430.923	15.34
431.283	15.36
431.643	15.64
432.003	15.13
432.363	15.32
432.722	15.61
433.082	15.61
433.442	15.41
433.802	15.63
434.161	15.46
434.521	15.57
434.881	15.6
435.24	15.6
435.6	15.68
435.959	15.54
436.319	15.74
436.678	15.77
437.037	15.95
437.396	15.94
437.756	15.81
438.115	15.69
438.474	15.92
438.833	15.86
439.192	15.91
439.551	15.95
439.91	15.92
440.269	16.15
440.628	16.15
440.987	16.03
441.345	16.18
441.704	15.97
442.063	16.22
442.421	16.05
442.78	16.06
443.138	16.18
443.497	16.12
443.855	16.28
444.214	16.34
444.572	16.41
444.93	16.39
445.288	16.59
445.647	16.47
446.005	16.31
446.363	16.49
446.721	16.56
447.079	16.69
447.437	16.54
447.795	16.54
448.153	16.38
448.51	16.43
448.868	16.46
449.226	16.42
449.584	16.64
449.941	16.6
450.299	16.79
450.656	16.73
451.014	16.95
451.371	17
451.729	16.95
452.086	16.96
452.443	17.17
452.801	17.14
453.158	17.19
453.515	17.16
453.872	17.32
454.229	17.3
454.586	17.41
454.943	17.44
455.3	17.37
455.657	17.67
456.014	17.43
456.371	17.54
456.727	17.67
457.084	17.71
457.441	17.66
457.797	17.72
458.154	17.55
458.51	17.87
458.867	17.93
459.223	17.95
459.58	17.89
459.936	17.88
460.292	17.83
460.648	17.73
461.005	17.68
461.361	17.77
461.717	17.53
462.073	17.64
462.429	17.69
462.785	17.73
463.141	17.89
463.496	18.01
463.852	18.16
464.208	18.35
464.564	18.34
464.919	18.34
465.275	18.52
465.631	18.59
465.986	18.35
466.342	18.44
466.697	18.43
467.052	18.58
467.408	18.52
467.763	18.64
468.118	18.86
468.473	18.76
468.829	18.82
469.184	18.62
469.539	18.86
469.894	18.81
470.249	18.87
470.603	18.76
470.958	19
471.313	19.25
471.668	18.97
472.023	19.11
472.377	19.17
472.732	18.98
473.086	19.25
473.441	19.16
473.795	19.56
474.15	19.43
474.504	19.24
474.859	19.38
475.213	19.41
475.567	19.35
475.921	19.49
476.275	19.52
476.63	19.56
476.984	19.58
477.338	19.58
477.692	19.59
478.045	19.72
478.399	19.74
478.753	19.65
479.107	19.62
479.461	19.85
479.814	19.89
480.168	19.86
480.521	19.69
480.875	19.75
481.228	19.85
481.582	19.83
481.935	19.84
482.289	19.89
482.642	20.01
482.995	19.84
483.348	19.89
483.701	20.01
484.055	19.93
484.408	19.79
484.761	19.78
485.114	19.57
485.466	19.31
485.819	19.24
486.172	19.14
486.525	19.28
486.878	19.32
487.23	19.45
487.583	19.6
487.936	19.68
488.288	19.92
488.641	19.93
488.993	19.81
489.345	19.77
489.698	19.66
490.05	19.68
490.402	19.8
490.754	19.84
491.107	19.91
491.459	20.19
491.811	20.35
492.163	20.35
492.515	20.48
492.866	20.63
493.218	20.38
493.57	20.21
493.922	20.1
494.274	20.2
494.625	20.19
494.977	20.4
495.328	20.71
495.68	20.94
496.031	20.97
496.383	21.25
496.734	21.37
497.086	21.33
497.437	21.26
497.788	21.31
498.139	21.5
498.49	21.32
498.842	21.19
499.193	21.24
499.544	21.31
499.894	21.37
500.245	21.52
500.596	21.57
500.947	21.63
501.298	21.69
501.648	21.74
501.999	21.71
502.35	21.85
502.7	22.09
503.051	22.02
503.401	21.83
503.752	22.17
504.102	22.07
504.452	22.13
504.803	22.06
505.153	22.13
505.503	22.18
505.853	22.26
506.203	22.26
506.553	22.32
506.903	22.28
507.253	22.34
507.603	22.33
507.953	22.39
508.303	22.51
508.652	22.54
509.002	22.59
509.352	22.47
509.701	22.69
510.051	22.53
510.4	22.43
510.75	22.46
511.099	22.52
511.449	22.46
511.798	22.7
512.147	22.62
512.496	22.82
512.846	22.74
513.195	22.81
513.544	22.94
513.893	22.72
514.242	22.95
514.591	22.83
514.939	22.92
515.288	22.9
515.637	23.1
515.986	23.12
516.334	23.14
516.683	23.36
517.032	23.09
517.38	23.25
517.729	23.25
518.077	23.47
518.426	23.45
518.774	23.44
519.122	23.49
519.47	23.5
519.819	23.42
520.167	23.19
520.515	23.35
520.863	23.31
521.211	23.2
521.559	23.34
521.907	23.5
522.255	23.47
522.602	23.61
522.95	23.73
523.298	23.83
523.645	23.81
523.993	23.65
524.341	24.07
524.688	24.04
525.036	23.99
525.383	24.14
525.73	24.22
526.078	24.27
526.425	24.2
526.772	24.17
527.119	24.13
527.466	23.9
527.814	23.9
528.161	23.86
528.508	24.04
528.854	24.01
529.201	23.87
529.548	24.17
529.895	23.96
530.242	23.81
530.588	23.65
530.935	23.63
531.282	23.72
531.628	23.75
531.975	23.8
532.321	23.92
532.667	24.22
533.014	24.38
533.36	24.47
533.706	24.59
534.052	24.68
534.399	24.57
534.745	24.61
535.091	24.47
535.437	24.41
535.783	24.35
536.129	24.4
536.474	24.57
536.82	24.68
537.166	24.88
537.512	24.99
537.857	25.12
538.203	25.11
538.549	25.17
538.894	25.03
539.239	25.15
539.585	25.2
539.93	25.34
540.276	25.46
540.621	25.53
540.966	25.66
541.311	25.71
541.656	25.71
542.001	25.73
542.346	25.69
542.691	25.58
543.036	25.39
543.381	25.18
543.726	25.17
544.071	25.26
544.415	25.28
544.76	25.5
545.105	25.65
545.449	25.61
545.794	25.71
546.138	25.94
546.483	26.09
546.827	26.08
547.171	26.12
547.516	26.37
547.86	26.3
548.204	26.31
548.548	26.32
548.892	26.26
549.236	26.24
549.58	26.38
549.924	26.54
550.268	26.69
550.612	26.66
550.956	26.93
551.3	26.97
551.643	27.06
551.987	27.11
552.33	27.19
552.674	27.21
553.017	27.29
553.361	27.29
553.704	27.37
554.048	27.39
554.391	27.3
554.734	27.37
555.077	27.39
555.42	27.22
555.764	27.35
556.107	27.61
556.45	27.63
556.793	27.37
557.135	27.73
557.478	27.76
557.821	27.84
558.164	27.91
558.507	28.07
558.849	28.13
559.192	27.95
559.534	28.11
559.877	27.97
560.219	28.08
560.562	28.3
560.904	28.06
561.246	28.36
561.589	28.07
561.931	28.37
562.273	28.5
562.615	28.48
562.957	28.4
563.299	28.41
563.641	28.4
563.983	28.46
564.325	28.47
564.667	28.64
565.008	28.7
565.35	28.57
565.692	28.69
566.033	28.86
566.375	28.67
566.716	29.01
567.058	28.62
567.399	28.81
567.741	28.83
568.082	28.79
568.423	28.93
568.764	28.58
569.105	28.87
569.447	28.91
569.788	28.81
570.129	29.09
570.47	29.03
570.811	29.08
571.151	28.94
571.492	29.34
571.833	29.36
572.174	29.26
572.514	29.38
572.855	29.24
573.195	29.43
573.536	29.2
573.876	29.39
574.217	29.22
574.557	29.39
574.898	29.35
575.238	29.59
575.578	29.64
575.918	29.52
576.258	29.52
576.598	29.59
576.938	29.72
577.278	29.72
577.618	29.67
577.958	29.78
578.298	29.73
578.638	29.89
578.977	29.9
579.317	29.97
579.657	30.19
579.996	30.06
580.336	30.4
580.675	30.37
581.014	30.52
581.354	30.59
581.693	30.34
582.032	30.59
582.372	30.51
582.711	30.72
583.05	30.8
583.389	30.56
583.728	30.89
584.067	30.89
584.406	30.83
584.745	30.63
585.083	31.14
585.422	30.91
585.761	31.12
586.1	31.04
586.438	30.76
586.777	30.83
587.115	31.35
587.454	31.23
587.792	30.86
588.13	31.32
588.469	31.33
588.807	30.9
589.145	31.37
589.483	31.73
589.821	31.36
590.159	31.51
590.497	31.42
590.835	31.65
591.173	31.5
591.511	31.56
591.849	31.6
592.187	31.61
592.524	31.65
592.862	31.8
593.2	31.8
593.537	31.62
593.875	32.08
594.212	32.1
594.55	31.92
594.887	32.09
595.224	31.81
595.561	31.86
595.899	31.94
596.236	32.24
596.573	32.21
596.91	32.37
597.247	32.36
597.584	32.05
597.921	32.07
598.258	32.25
598.594	32.46
598.931	32.06
599.268	31.92
599.604	32.16
599.941	32.02
600.277	32.15
600.614	32.49
600.95	32.36
601.287	32.54
601.623	32.82
601.959	32.86
602.296	32.9
602.632	32.93
602.968	32.82
603.304	32.87
603.64	32.84
603.976	32.9
604.312	33.02
604.648	32.94
604.984	33.11
605.319	32.84
605.655	32.94
605.991	32.95
606.326	32.87
606.662	32.73
606.998	32.78
607.333	33.07
607.668	32.81
608.004	33.07
608.339	32.89
608.674	33.27
609.01	33.24
609.345	33.8
609.68	33.39
610.015	33.11
610.35	33.58
610.685	33.5
611.02	33.68
611.355	33.32
611.689	33.34
612.024	33.64
612.359	33.84
612.694	33.82
613.028	33.93
613.363	33.75
613.697	33.83
614.032	34.14
614.366	34.23
614.7	34.08
615.035	34.04
615.369	34.46
615.703	33.85
616.037	34.66
616.371	34.31
616.705	34.43
617.039	34.39
617.373	34.56
617.707	34.6
618.041	34.18
618.375	34.54
618.709	34.23
619.042	34.74
619.376	34.99
619.71	34.73
620.043	34.81
620.377	34.52
620.71	34.61
621.043	34.66
621.377	34.51
621.71	35.36
622.043	34.69
622.376	34.7
622.709	35.24
623.043	35.24
623.376	34.91
623.709	34.74
624.041	35.08
624.374	35.31
624.707	34.97
625.04	35.46
625.373	35.6
625.705	35.17
626.038	35.04
626.37	35.18
626.703	35.49
627.035	35.04
627.368	35.49
627.7	35.81
628.032	35.38
628.365	35.43
628.697	35.26
629.029	35.29
629.361	35.62
629.693	35.39
630.025	35.53
630.357	35.75
630.689	35.38
631.021	36.07
631.353	35.39
631.684	35.61
632.016	36.11
632.348	35.64
632.679	35.79
633.011	36.23
633.342	35.63
633.674	35.97
634.005	35.56
634.336	36.63
634.668	35.97
634.999	36.66
635.33	36.3
635.661	36.27
635.992	36.4
636.323	36.57
636.654	36.29
636.985	36.83
637.316	36.44
637.647	35.88
637.977	36.3
638.308	35.99
638.639	36.97
638.969	36.73
639.3	36.82
639.63	36.67
639.961	36.79
640.291	36.47
640.622	37.02
640.952	36.89
641.282	36.66
641.612	36.77
641.943	37.34
642.273	36.63
642.603	36.63
642.933	36.96
643.263	37.16
643.592	36.94
643.922	37.22
644.252	37.23
644.582	36.37
644.911	37.1
645.241	37.63
645.571	37.33
645.9	36.89
646.23	37.42
646.559	37.23
646.888	37.42
647.218	37.36
647.547	37.78
647.876	37.45
648.205	37.34
648.534	37.27
648.863	37.71
649.192	37.53
649.521	37.76
649.85	37.81
650.179	37.81
650.508	37.33
650.837	37.27
651.165	37.78
651.494	37.56
651.822	38.04
652.151	37.8
652.479	37.95
652.808	37.89
653.136	37.54
653.465	38.56
653.793	37.76
654.121	38.49
654.449	38.25
654.777	38.17
655.105	38.14
655.433	38.31
655.761	38.37
656.089	38.58
656.417	38.4
656.745	38.32
657.073	37.99
657.4	38.63
657.728	38.84
658.056	39.05
658.383	38.81
658.711	38.89
659.038	38.97
659.365	38.19
659.693	38.43
660.02	38.19
660.347	38.55
660.674	38.49
661.001	38.2
661.329	38.92
661.656	38.85
661.982	38.85
662.309	39.29
662.636	38.51
662.963	39.21
663.29	38.85
663.616	38.92
663.943	39.53
664.27	38.93
664.596	39.11
664.923	39.2
665.249	38.63
665.576	39
665.902	39.23
666.228	39.79
666.554	38.76
666.881	38.9
667.207	39.31
667.533	38.56
667.859	39.16
668.185	39.34
668.511	39.41
668.837	39.55
669.162	39.51
669.488	39.27
669.814	39.35
670.139	39.61
670.465	39.68
670.791	39.39
671.116	39.46
671.442	40.11
671.767	39.62
672.092	40
