Data from 0262_crown_Reflection__2__130.txt Node

Date: Fri Oct 20 21:39:05 CDT 2023
User: ToomeyLab
Spectrometer: FLMS14357
Trigger mode: 0
Integration Time (sec): 1.000000E-2
Scans to average: 100
Electric dark correction enabled: true
Nonlinearity correction enabled: false
Boxcar width: 0
XAxis mode: Wavelengths
Number of Pixels in Spectrum: 2048
>>>>>Begin Spectral Data<<<<<
189.047	-73.08
189.435	-73.08
189.823	-73.08
190.211	147.53
190.599	-214.97
190.987	81.98
191.375	286.44
191.763	-2.76
192.151	30.98
192.538	82.09
192.926	22.2
193.314	257.26
193.702	130.08
194.089	200.83
194.477	364.71
194.864	333.33
195.252	85.23
195.639	75.31
196.027	1.03
196.414	259.07
196.801	18.12
197.189	81.84
197.576	41.67
197.963	-14.11
198.351	51.11
198.738	34.43
199.125	38.8
199.512	33.07
199.899	10.85
200.286	-73.37
200.673	42.45
201.06	25.5
201.447	-9.65
201.833	21.42
202.22	23
202.607	30.25
202.994	58
203.38	-5.13
203.767	-9.22
204.154	34.87
204.54	30.33
204.927	33.83
205.313	14.61
205.699	32.02
206.086	17.73
206.472	27.01
206.858	39.35
207.245	-20.88
207.631	32.43
208.017	25.55
208.403	19.21
208.789	23.27
209.175	15.38
209.561	28.06
209.947	-0.47
210.333	20.74
210.719	25.41
211.105	18.87
211.491	15.26
211.876	13.38
212.262	2.58
212.648	21.37
213.034	0.47
213.419	22.22
213.805	27.32
214.19	1.4
214.576	-12.05
214.961	10.89
215.346	30.93
215.732	22.24
216.117	2.9
216.502	2.89
216.888	8.95
217.273	-19.62
217.658	21.91
218.043	1.07
218.428	5.46
218.813	13.46
219.198	8.72
219.583	-12.98
219.968	-2.14
220.353	18.29
220.738	30.52
221.122	-0.45
221.507	5
221.892	18.25
222.276	21.74
222.661	12.25
223.046	14.03
223.43	6.72
223.815	7.77
224.199	18.34
224.583	8.43
224.968	1.63
225.352	12.19
225.736	8.01
226.121	8.96
226.505	7.89
226.889	12.9
227.273	10.84
227.657	14.68
228.041	12.95
228.425	11.28
228.809	7.58
229.193	6.89
229.577	11.76
229.961	8.17
230.344	9.33
230.728	9.22
231.112	9.86
231.495	9.18
231.879	9.96
232.263	9.58
232.646	8.4
233.03	8.14
233.413	8.34
233.797	10.15
234.18	9.67
234.563	10.18
234.946	11.49
235.33	11.33
235.713	10.08
236.096	10.05
236.479	10.03
236.862	8.49
237.245	8.59
237.628	8.98
238.011	9.96
238.394	9.49
238.777	10.99
239.16	10.07
239.543	10.3
239.925	9.62
240.308	7.05
240.691	8.51
241.073	9.46
241.456	9.82
241.838	9.01
242.221	10.96
242.603	9.2
242.986	8.73
243.368	9.02
243.75	9.5
244.133	8.56
244.515	8.29
244.897	8.84
245.279	8.74
245.661	8.36
246.043	8.39
246.425	8.63
246.807	8.72
247.189	7.67
247.571	8.16
247.953	8.39
248.335	9.16
248.717	8.5
249.098	8.37
249.48	8.32
249.862	8.59
250.243	9.03
250.625	8.47
251.006	9.18
251.388	8.82
251.769	9.24
252.151	8.24
252.532	7.71
252.913	7.69
253.295	8.17
253.676	8.41
254.057	7.99
254.438	8.22
254.819	8.71
255.2	8.27
255.581	7.76
255.962	8.45
256.343	8.71
256.724	7.21
257.105	8.17
257.486	8.23
257.867	8.04
258.247	8.23
258.628	7.74
259.009	7.71
259.389	8
259.77	7.31
260.15	7.51
260.531	8.31
260.911	8.52
261.292	7.69
261.672	7.8
262.052	8.05
262.432	7.74
262.813	7.91
263.193	8.24
263.573	8.34
263.953	7.56
264.333	7.89
264.713	8.16
265.093	7.68
265.473	8.7
265.853	7.65
266.233	8.08
266.612	7.56
266.992	7.46
267.372	8.23
267.752	7.27
268.131	8.17
268.511	7.68
268.89	7.64
269.27	7.19
269.649	7.38
270.029	7.3
270.408	8.18
270.787	7.87
271.167	7.55
271.546	8.03
271.925	7.89
272.304	7.93
272.683	8.05
273.062	7.49
273.441	7.96
273.82	7.97
274.199	7.76
274.578	7.47
274.957	8.1
275.336	7.44
275.715	7.61
276.093	7.69
276.472	7.69
276.851	7.55
277.229	7.79
277.608	7.22
277.986	7.92
278.365	7.68
278.743	7.33
279.122	7.14
279.5	7.71
279.878	6.71
280.257	7.59
280.635	7.88
281.013	7.6
281.391	8.13
281.769	6.58
282.147	6.86
282.525	7.38
282.903	6.9
283.281	7.03
283.659	6.87
284.037	6.83
284.415	6.57
284.792	7.12
285.17	7
285.548	7.39
285.925	6.56
286.303	6.94
286.68	6.66
287.058	7.26
287.435	6.87
287.813	6.4
288.19	6.61
288.567	7.05
288.945	7.49
289.322	7.31
289.699	6.38
290.076	7.37
290.453	6.79
290.83	6.88
291.207	6.93
291.584	6.64
291.961	6.61
292.338	6.66
292.715	6.97
293.092	6.72
293.469	6.98
293.845	6.41
294.222	6.5
294.599	6.68
294.975	7.09
295.352	6.27
295.728	6.19
296.105	6.38
296.481	6.44
296.858	6.53
297.234	6.57
297.61	5.88
297.986	6.62
298.363	6.63
298.739	6.38
299.115	5.97
299.491	6.37
299.867	6.44
300.243	6.44
300.619	6.44
300.995	6.41
301.371	6.43
301.746	6.12
302.122	6.56
302.498	6.01
302.874	6.3
303.249	6.2
303.625	6.36
304	6.7
304.376	5.7
304.751	5.88
305.127	5.73
305.502	6.29
305.878	5.72
306.253	6.31
306.628	5.96
307.003	6.46
307.378	5.93
307.754	5.71
308.129	6.74
308.504	6.09
308.879	5.96
309.254	6.66
309.629	5.77
310.003	6.04
310.378	6.55
310.753	6.16
311.128	6.41
311.502	5.53
311.877	5.9
312.252	5.99
312.626	6.09
313.001	6.03
313.375	6
313.75	5.9
314.124	5.72
314.498	6.04
314.873	5.71
315.247	6.05
315.621	5.86
315.995	5.98
316.369	5.82
316.743	5.77
317.117	6.08
317.491	5.41
317.865	6.37
318.239	6.23
318.613	6.27
318.987	5.59
319.361	5.21
319.734	5.51
320.108	5.14
320.482	6.46
320.855	5.38
321.229	6.18
321.602	5.89
321.976	5.76
322.349	6.03
322.723	5.93
323.096	5.91
323.469	5.3
323.843	5.83
324.216	5.5
324.589	5.76
324.962	6.02
325.335	6.17
325.708	5.71
326.081	5.66
326.454	5.59
326.827	6.3
327.2	5.64
327.573	6.25
327.945	5.7
328.318	5.65
328.691	5.57
329.063	6.14
329.436	5.48
329.809	5.42
330.181	5.8
330.553	5.55
330.926	5.17
331.298	5.65
331.671	5.82
332.043	5.31
332.415	5.8
332.787	5.79
333.159	5.65
333.532	6.33
333.904	5.57
334.276	5.37
334.648	5.4
335.02	5.94
335.391	5.33
335.763	6.21
336.135	5.59
336.507	5.76
336.879	5.67
337.25	5.52
337.622	5.81
337.993	5.94
338.365	5.8
338.736	5.46
339.108	5.75
339.479	5.59
339.851	5.83
340.222	5.49
340.593	5.52
340.964	5.6
341.336	5.72
341.707	6.03
342.078	5.83
342.449	5.48
342.82	5.89
343.191	6.11
343.562	5.61
343.933	5.81
344.303	5.81
344.674	5.97
345.045	6.38
345.416	5.92
345.786	5.44
346.157	5.56
346.527	5.37
346.898	6.17
347.268	5.77
347.639	5.98
348.009	5.6
348.38	5.89
348.75	5.72
349.12	5.52
349.49	5.72
349.861	6.24
350.231	5.76
350.601	5.8
350.971	5.84
351.341	5.68
351.711	6.16
352.081	5.97
352.45	5.56
352.82	5.68
353.19	5.66
353.56	5.65
353.929	5.65
354.299	5.76
354.669	5.71
355.038	5.83
355.408	6.12
355.777	5.79
356.147	6.07
356.516	5.65
356.885	5.89
357.254	5.77
357.624	6.06
357.993	5.55
358.362	5.89
358.731	5.72
359.1	5.41
359.469	5.97
359.838	5.98
360.207	5.96
360.576	5.95
360.945	5.71
361.314	5.75
361.682	6.03
362.051	5.85
362.42	5.83
362.788	5.97
363.157	5.93
363.525	5.8
363.894	6.14
364.262	5.88
364.631	5.92
364.999	5.91
365.367	5.92
365.735	5.79
366.104	5.74
366.472	5.58
366.84	6.07
367.208	5.92
367.576	6.26
367.944	6.05
368.312	5.86
368.68	5.82
369.048	6.06
369.416	6.06
369.783	6.37
370.151	5.99
370.519	5.96
370.886	6.04
371.254	6.37
371.621	6.26
371.989	5.58
372.356	6.05
372.724	6.43
373.091	6.34
373.458	5.96
373.826	6.13
374.193	6.09
374.56	5.85
374.927	6.09
375.294	6.14
375.661	5.97
376.028	6.41
376.395	6.4
376.762	6.13
377.129	6.41
377.496	6.59
377.863	6.52
378.229	6.57
378.596	6.29
378.963	6.23
379.329	6.48
379.696	6.36
380.062	6.58
380.429	6.3
380.795	6.01
381.161	6.28
381.528	6.72
381.894	6.24
382.26	6.45
382.626	6.49
382.993	6.15
383.359	6.57
383.725	6.65
384.091	6.43
384.457	6.27
384.823	6.32
385.188	6.65
385.554	6.31
385.92	6.57
386.286	6.61
386.651	6.47
387.017	6.57
387.383	6.27
387.748	6.22
388.114	6.23
388.479	6.55
388.845	6.82
389.21	6.76
389.575	6.13
389.94	6.44
390.306	6.73
390.671	6.44
391.036	6.52
391.401	6.66
391.766	6.61
392.131	6.41
392.496	6.83
392.861	6.86
393.226	6.61
393.591	6.5
393.956	6.78
394.32	6.83
394.685	6.4
395.05	6.58
395.414	6.83
395.779	6.45
396.143	6.59
396.508	6.59
396.872	6.68
397.236	6.82
397.601	6.62
397.965	6.47
398.329	6.67
398.694	6.9
399.058	6.61
399.422	6.71
399.786	6.6
400.15	6.69
400.514	6.57
400.878	6.99
401.242	6.99
401.605	7.02
401.969	6.68
402.333	6.73
402.697	6.91
403.06	6.75
403.424	6.76
403.787	6.64
404.151	6.68
404.514	6.86
404.878	6.95
405.241	6.8
405.604	6.81
405.968	6.76
406.331	6.66
406.694	6.81
407.057	6.78
407.42	7.01
407.783	6.72
408.146	6.76
408.509	6.93
408.872	7.22
409.235	6.85
409.598	7.14
409.961	6.98
410.323	6.89
410.686	6.69
411.049	6.88
411.411	6.93
411.774	6.93
412.136	6.66
412.499	6.91
412.861	6.95
413.223	6.96
413.586	6.81
413.948	6.94
414.31	7.15
414.672	6.82
415.035	6.97
415.397	7.19
415.759	7.33
416.121	7.07
416.483	7.17
416.845	6.93
417.206	7.05
417.568	6.99
417.93	6.99
418.292	6.98
418.653	7.05
419.015	6.92
419.377	7.05
419.738	6.91
420.1	6.88
420.461	6.99
420.822	6.86
421.184	6.97
421.545	7.02
421.906	6.97
422.267	7.02
422.629	7.04
422.99	6.84
423.351	6.92
423.712	6.93
424.073	6.92
424.434	6.85
424.795	7.03
425.155	7.08
425.516	6.94
425.877	6.94
426.238	6.89
426.598	6.97
426.959	6.94
427.32	6.99
427.68	7.1
428.041	7.05
428.401	7.06
428.761	6.98
429.122	7.16
429.482	7.05
429.842	7.1
430.202	7.2
430.563	7.16
430.923	7.16
431.283	7.16
431.643	7.34
432.003	7.39
432.363	7.08
432.722	7.22
433.082	7.16
433.442	6.97
433.802	7.33
434.161	7.09
434.521	7.22
434.881	7.2
435.24	7.15
435.6	7.22
435.959	7
436.319	7.2
436.678	7.17
437.037	7.24
437.396	7.21
437.756	7.28
438.115	7.1
438.474	7.4
438.833	7.24
439.192	7.24
439.551	7.19
439.91	7.23
440.269	7.38
440.628	7.29
440.987	7.15
441.345	7.27
441.704	7.23
442.063	7.27
442.421	7.16
442.78	7.13
443.138	7.3
443.497	7.32
443.855	7.21
444.214	7.2
444.572	7.21
444.93	7.43
445.288	7.39
445.647	7.56
446.005	7.08
446.363	7.31
446.721	7.17
447.079	7.32
447.437	7.18
447.795	7.17
448.153	7.15
448.51	7.17
448.868	7.15
449.226	7.15
449.584	7.2
449.941	7.11
450.299	7.15
450.656	7.2
451.014	7.28
451.371	7.38
451.729	7.17
452.086	7.3
452.443	7.3
452.801	7.28
453.158	7.39
453.515	7.37
453.872	7.45
454.229	7.41
454.586	7.38
454.943	7.33
455.3	7.33
455.657	7.47
456.014	7.27
456.371	7.39
456.727	7.47
457.084	7.43
457.441	7.29
457.797	7.52
458.154	7.28
458.51	7.38
458.867	7.5
459.223	7.48
459.58	7.34
459.936	7.5
460.292	7.28
460.648	7.21
461.005	7.23
461.361	7.34
461.717	7.12
462.073	7.23
462.429	7.3
462.785	7.21
463.141	7.31
463.496	7.22
463.852	7.43
464.208	7.56
464.564	7.41
464.919	7.51
465.275	7.58
465.631	7.43
465.986	7.46
466.342	7.4
466.697	7.44
467.052	7.28
467.408	7.67
467.763	7.62
468.118	7.61
468.473	7.42
468.829	7.31
469.184	7.36
469.539	7.37
469.894	7.47
470.249	7.53
470.603	7.43
470.958	7.57
471.313	7.43
471.668	7.54
472.023	7.39
472.377	7.37
472.732	7.37
473.086	7.55
473.441	7.45
473.795	7.66
474.15	7.52
474.504	7.28
474.859	7.5
475.213	7.58
475.567	7.5
475.921	7.58
476.275	7.42
476.63	7.62
476.984	7.64
477.338	7.39
477.692	7.55
478.045	7.58
478.399	7.56
478.753	7.47
479.107	7.4
479.461	7.51
479.814	7.61
480.168	7.55
480.521	7.48
480.875	7.43
481.228	7.51
481.582	7.44
481.935	7.58
482.289	7.4
482.642	7.34
482.995	7.41
483.348	7.4
483.701	7.43
484.055	7.39
484.408	7.37
484.761	7.37
485.114	7.26
485.466	7.17
485.819	7.13
486.172	7.08
486.525	7.05
486.878	7.01
487.23	7.1
487.583	7.16
487.936	7.18
488.288	7.23
488.641	7.25
488.993	7.23
489.345	7.14
489.698	7.17
490.05	7.09
490.402	7.11
490.754	7.1
491.107	7.13
491.459	7.27
491.811	7.29
492.163	7.29
492.515	7.41
492.866	7.31
493.218	7.3
493.57	7.22
493.922	7.19
494.274	7.16
494.625	7.16
494.977	7.18
495.328	7.28
495.68	7.38
496.031	7.37
496.383	7.33
496.734	7.43
497.086	7.41
497.437	7.47
497.788	7.21
498.139	7.54
498.49	7.43
498.842	7.37
499.193	7.44
499.544	7.46
499.894	7.46
500.245	7.3
500.596	7.4
500.947	7.44
501.298	7.33
501.648	7.46
501.999	7.39
502.35	7.44
502.7	7.63
503.051	7.46
503.401	7.59
503.752	7.66
504.102	7.56
504.452	7.3
504.803	7.36
505.153	7.55
505.503	7.5
505.853	7.6
506.203	7.48
506.553	7.44
506.903	7.44
507.253	7.48
507.603	7.48
507.953	7.59
508.303	7.46
508.652	7.45
509.002	7.46
509.352	7.51
509.701	7.63
510.051	7.45
510.4	7.43
510.75	7.47
511.099	7.35
511.449	7.4
511.798	7.53
512.147	7.47
512.496	7.48
512.846	7.5
513.195	7.37
513.544	7.4
513.893	7.28
514.242	7.41
514.591	7.34
514.939	7.44
515.288	7.23
515.637	7.52
515.986	7.51
516.334	7.42
516.683	7.38
517.032	7.44
517.38	7.36
517.729	7.44
518.077	7.45
518.426	7.53
518.774	7.4
519.122	7.45
519.47	7.32
519.819	7.51
520.167	7.37
520.515	7.41
520.863	7.48
521.211	7.38
521.559	7.3
521.907	7.39
522.255	7.48
522.602	7.58
522.95	7.37
523.298	7.54
523.645	7.55
523.993	7.43
524.341	7.55
524.688	7.43
525.036	7.63
525.383	7.33
525.73	7.62
526.078	7.47
526.425	7.48
526.772	7.44
527.119	7.42
527.466	7.42
527.814	7.39
528.161	7.31
528.508	7.29
528.854	7.4
529.201	7.33
529.548	7.34
529.895	7.3
530.242	7.2
530.588	7.14
530.935	7.1
531.282	7.11
531.628	7.17
531.975	7.07
532.321	7.09
532.667	7.2
533.014	7.37
533.36	7.23
533.706	7.45
534.052	7.36
534.399	7.24
534.745	7.19
535.091	7.2
535.437	7.25
535.783	7.22
536.129	7.22
536.474	7.27
536.82	7.27
537.166	7.22
537.512	7.29
537.857	7.38
538.203	7.35
538.549	7.48
538.894	7.27
539.239	7.27
539.585	7.35
539.93	7.4
540.276	7.43
540.621	7.33
540.966	7.38
541.311	7.45
541.656	7.54
542.001	7.45
542.346	7.47
542.691	7.4
543.036	7.29
543.381	7.2
543.726	7.22
544.071	7.18
544.415	7.16
544.76	7.15
545.105	7.29
545.449	7.32
545.794	7.3
546.138	7.23
546.483	7.18
546.827	7.33
547.171	7.46
547.516	7.32
547.86	7.33
548.204	7.28
548.548	7.36
548.892	7.34
549.236	7.45
549.58	7.28
549.924	7.3
550.268	7.33
550.612	7.27
550.956	7.43
551.3	7.34
551.643	7.46
551.987	7.52
552.33	7.44
552.674	7.25
553.017	7.39
553.361	7.38
553.704	7.5
554.048	7.26
554.391	7.56
554.734	7.52
555.077	7.42
555.42	7.24
555.764	7.28
556.107	7.38
556.45	7.31
556.793	7.07
557.135	7.18
557.478	7.19
557.821	7.46
558.164	7.47
558.507	7.44
558.849	7.4
559.192	7.56
559.534	7.67
559.877	7.24
560.219	7.47
560.562	7.33
560.904	7.3
561.246	7.23
561.589	7.34
561.931	7.45
562.273	7.63
562.615	7.56
562.957	7.5
563.299	7.25
563.641	7.33
563.983	7.16
564.325	7.14
564.667	7.26
565.008	7.16
565.35	7.25
565.692	7.33
566.033	7.37
566.375	7.27
566.716	7.48
567.058	7.25
567.399	7.29
567.741	7.43
568.082	7.39
568.423	7.24
568.764	7.08
569.105	7.5
569.447	7.17
569.788	7.37
570.129	7.18
570.47	7.24
570.811	7.32
571.151	7.21
571.492	7.39
571.833	7.41
572.174	7.44
572.514	7.17
572.855	7.13
573.195	7.23
573.536	7.1
573.876	7.4
574.217	7.15
574.557	7.12
574.898	7.1
575.238	7.02
575.578	7.17
575.918	6.98
576.258	7.27
576.598	7.21
576.938	7.17
577.278	7.08
577.618	7.2
577.958	7.14
578.298	7.17
578.638	7.04
578.977	7.19
579.317	7.07
579.657	7.21
579.996	7.31
580.336	7.27
580.675	7.18
581.014	7.21
581.354	7.06
581.693	7.15
582.032	7.29
582.372	7.14
582.711	7.37
583.05	7.4
583.389	7.18
583.728	7.3
584.067	7.25
584.406	7.13
584.745	7.18
585.083	7.2
585.422	7.37
585.761	7.12
586.1	7.21
586.438	6.92
586.777	7.21
587.115	7.08
587.454	7.37
587.792	7.08
588.13	7.32
588.469	7.17
588.807	6.81
589.145	7.19
589.483	6.98
589.821	7.08
590.159	7.19
590.497	7.33
590.835	7.23
591.173	6.97
591.511	6.93
591.849	7
592.187	7.03
592.524	6.87
592.862	7.06
593.2	7.24
593.537	6.96
593.875	6.82
594.212	7.09
594.55	6.98
594.887	6.85
595.224	7.11
595.561	6.82
595.899	6.99
596.236	7.08
596.573	6.96
596.91	7.13
597.247	7.02
597.584	6.98
597.921	6.92
598.258	7.09
598.594	7.1
598.931	6.8
599.268	6.81
599.604	7.03
599.941	6.86
600.277	6.8
600.614	6.89
600.95	7.08
601.287	7.02
601.623	7.08
601.959	6.96
602.296	7.2
602.632	6.96
602.968	6.69
603.304	7.19
603.64	6.97
603.976	7.04
604.312	7.24
604.648	6.93
604.984	7.21
605.319	6.86
605.655	6.89
605.991	6.89
606.326	6.98
606.662	6.74
606.998	6.88
607.333	6.75
607.668	6.66
608.004	6.89
608.339	6.75
608.674	6.93
609.01	6.76
609.345	6.92
609.68	6.91
610.015	6.61
610.35	6.89
610.685	6.97
611.02	6.87
611.355	6.81
611.689	6.79
612.024	6.87
612.359	6.97
612.694	6.82
613.028	6.72
613.363	6.69
613.697	7.04
614.032	6.76
614.366	6.83
614.7	6.67
615.035	6.86
615.369	7.18
615.703	6.37
616.037	6.64
616.371	6.77
616.705	6.61
617.039	6.84
617.373	6.85
617.707	6.69
618.041	6.82
618.375	6.73
618.709	6.69
619.042	7.06
619.376	6.81
619.71	6.75
620.043	6.96
620.377	6.65
620.71	7.05
621.043	6.67
621.377	6.64
621.71	6.92
622.043	6.83
622.376	6.97
622.709	6.73
623.043	6.66
623.376	6.58
623.709	6.49
624.041	6.46
624.374	7.07
624.707	6.57
625.04	6.87
625.373	7.06
625.705	6.59
626.038	6.62
626.37	6.41
626.703	6.62
627.035	6.26
627.368	6.87
627.7	7.01
628.032	6.61
628.365	6.78
628.697	6.61
629.029	6.71
629.361	6.74
629.693	6.51
630.025	6.8
630.357	6.63
630.689	6.68
631.021	6.73
631.353	6.44
631.684	6.51
632.016	6.84
632.348	6.52
632.679	6.52
633.011	6.23
633.342	6.36
633.674	6.57
634.005	6.71
634.336	6.84
634.668	6.04
634.999	6.43
635.33	6.34
635.661	6.72
635.992	6.46
636.323	6.84
636.654	6.67
636.985	6.47
637.316	6.6
637.647	6.53
637.977	6.3
638.308	6.45
638.639	6.51
638.969	6.87
639.3	6.21
639.63	6.52
639.961	6.42
640.291	6.37
640.622	6.64
640.952	6.7
641.282	6.29
641.612	6.74
641.943	6.78
642.273	6.03
642.603	6.74
642.933	6.53
643.263	6.63
643.592	6.61
643.922	6.65
644.252	6.3
644.582	6.46
644.911	6.9
645.241	6.75
645.571	6.3
645.9	6.64
646.23	6.68
646.559	6.42
646.888	6.95
647.218	6.51
647.547	6.71
647.876	6.59
648.205	6.66
648.534	6.4
648.863	6.52
649.192	6.1
649.521	6.55
649.85	6.19
650.179	6.1
650.508	6.55
650.837	6.55
651.165	6.52
651.494	6.03
651.822	6.61
652.151	6.56
652.479	6.24
652.808	6.48
653.136	6.38
653.465	6.43
653.793	6.71
654.121	6.49
654.449	6.86
654.777	6.73
655.105	6.28
655.433	7.09
655.761	6.62
656.089	6.88
656.417	6.32
656.745	6.75
657.073	6.09
657.4	7.4
657.728	6.63
658.056	6.66
658.383	6.39
658.711	6.21
659.038	6.57
659.365	6.82
659.693	6.62
660.02	6.18
660.347	6.21
660.674	6.59
661.001	6.33
661.329	6.78
661.656	6.76
661.982	6.46
662.309	6.43
662.636	6.31
662.963	6.53
663.29	6.09
663.616	6.66
663.943	6.24
664.27	6.3
664.596	6.29
664.923	6.41
665.249	6.63
665.576	6.32
665.902	6.38
666.228	6.55
666.554	7.41
666.881	5.93
667.207	6.45
667.533	6.31
667.859	6.51
668.185	6.48
668.511	6.7
668.837	6.74
669.162	6.89
669.488	6.21
669.814	6.1
670.139	6.38
670.465	6.35
670.791	6.66
671.116	6.37
671.442	6.21
671.767	6.49
672.092	6.08
672.418	6.78
672.743	5.71
673.068	6.82
673.393	5.85
673.718	6.17
674.043	6.3
674.368	6.41
674.693	6.82
675.018	6.66
675.343	5.85
675.667	6.51
675.992	6.52
676.317	6.48
676.641	6.34
676.966	6.65
677.29	6.47
677.615	6.33
677.939	6.14
678.264	6.28
678.588	6.19
678.912	6.8
679.236	6.36
679.56	6.11
679.885	6.52
680.209	6.24
680.532	6.25
680.856	6.06
681.18	6.32
681.504	6.61
681.828	6.87
682.152	6.36
682.475	6.54
682.799	6.45
683.122	6.69
683.446	6.36
683.769	6.66
684.093	6.42
684.416	6.4
684.739	5.91
685.062	5.89
685.386	5.97
685.709	6.05
686.032	6.23
686.355	6.13
686.678	6.41
687.001	6.51
687.324	6.21
687.646	6.72
687.969	6.33
688.292	6.49
688.614	6.52
688.937	6.21
689.26	5.84
689.582	6.4
689.904	6.08
690.227	6.48
690.549	6.81
690.871	6.56
691.194	6.79
691.516	6.34
691.838	6.7
692.16	6.81
692.482	6.39
