Data from 0262_crown_Reflection__4__132.txt Node

Date: Fri Oct 20 21:39:24 CDT 2023
User: ToomeyLab
Spectrometer: FLMS14357
Trigger mode: 0
Integration Time (sec): 1.000000E-2
Scans to average: 100
Electric dark correction enabled: true
Nonlinearity correction enabled: false
Boxcar width: 0
XAxis mode: Wavelengths
Number of Pixels in Spectrum: 2048
>>>>>Begin Spectral Data<<<<<
189.047	-2.48
189.435	-2.48
189.823	-2.48
190.211	68.27
190.599	-98.17
190.987	-4.39
191.375	249.41
191.763	176.26
192.151	-234.02
192.538	32.91
192.926	-111.32
193.314	289.2
193.702	20.71
194.089	77.94
194.477	-38.05
194.864	71.18
195.252	210.39
195.639	41.72
196.027	-143.13
196.414	51.65
196.801	54.19
197.189	23.69
197.576	29.71
197.963	28.22
198.351	41.8
198.738	-2.24
199.125	5.08
199.512	49.93
199.899	4.99
200.286	-29.29
200.673	54.39
201.06	18.35
201.447	9.49
201.833	27.68
202.22	15.2
202.607	30.83
202.994	45.43
203.38	15.47
203.767	31.66
204.154	43.63
204.54	20.38
204.927	35.65
205.313	12.06
205.699	52.52
206.086	11.57
206.472	50.91
206.858	32.01
207.245	16.32
207.631	30.5
208.017	42.3
208.403	18.4
208.789	28.84
209.175	19.9
209.561	12.26
209.947	-4.87
210.333	24.82
210.719	12.2
211.105	5.82
211.491	20.64
211.876	-12.58
212.262	16.55
212.648	14.62
213.034	17.24
213.419	-7.52
213.805	20.28
214.19	23.1
214.576	5.07
214.961	14.34
215.346	29.47
215.732	-2.25
216.117	6.71
216.502	30.62
216.888	16.46
217.273	16.95
217.658	-0.11
218.043	7.8
218.428	5.89
218.813	-0.26
219.198	-5.13
219.583	-24.27
219.968	21.8
220.353	5.35
220.738	9.29
221.122	1.8
221.507	4.7
221.892	21.75
222.276	24.48
222.661	22.63
223.046	2.57
223.43	8.61
223.815	21.35
224.199	16.67
224.583	-4
224.968	-6.19
225.352	-3.69
225.736	4.77
226.121	13.51
226.505	5.5
226.889	10.86
227.273	2.64
227.657	5.71
228.041	4.91
228.425	5.39
228.809	4.96
229.193	3.98
229.577	4.06
229.961	3.63
230.344	3.29
230.728	3.27
231.112	4.46
231.495	2.31
231.879	3.28
232.263	3.94
232.646	2.51
233.03	3.61
233.413	3.01
233.797	2.84
234.18	4.83
234.563	6.83
234.946	6.14
235.33	4.31
235.713	3.36
236.096	5.6
236.479	2.72
236.862	3.3
237.245	3.24
237.628	2.4
238.011	4.48
238.394	2.38
238.777	4.06
239.16	2.63
239.543	5
239.925	5.13
240.308	3.99
240.691	3.5
241.073	5.24
241.456	3.6
241.838	4.54
242.221	4.41
242.603	4.51
242.986	3.31
243.368	4.23
243.75	3.8
244.133	3.22
244.515	2.83
244.897	3.18
245.279	3.29
245.661	3.11
246.043	2.72
246.425	3.6
246.807	3.72
247.189	3.43
247.571	2.52
247.953	3.18
248.335	3.71
248.717	3.06
249.098	2.84
249.48	2.93
249.862	2.96
250.243	2.98
250.625	3.25
251.006	3.67
251.388	3.12
251.769	3.87
252.151	3.24
252.532	3.87
252.913	2.55
253.295	2.54
253.676	3.39
254.057	3.46
254.438	2.86
254.819	3.07
255.2	2.56
255.581	2.43
255.962	3.32
256.343	2.94
256.724	2.1
257.105	3.93
257.486	3.4
257.867	3.53
258.247	3.72
258.628	2.58
259.009	2.68
259.389	2.84
259.77	2.31
260.15	3.45
260.531	3.24
260.911	3.45
261.292	2.64
261.672	2.91
262.052	2.99
262.432	3.13
262.813	3.2
263.193	3.23
263.573	2.96
263.953	3.37
264.333	3.53
264.713	3.97
265.093	3.43
265.473	2.94
265.853	2.74
266.233	3.29
266.612	3.23
266.992	3.89
267.372	3.32
267.752	2.52
268.131	3.55
268.511	3
268.89	3.15
269.27	2.73
269.649	2.86
270.029	3.09
270.408	2.74
270.787	3.36
271.167	2.76
271.546	3.31
271.925	3.71
272.304	3
272.683	2.96
273.062	3.39
273.441	3.26
273.82	2.97
274.199	3.32
274.578	3.06
274.957	3.12
275.336	2.95
275.715	2.98
276.093	2.94
276.472	2.73
276.851	3.51
277.229	2.96
277.608	2.38
277.986	2.96
278.365	3.27
278.743	2.9
279.122	2.89
279.5	2.97
279.878	2.2
280.257	3.23
280.635	3.1
281.013	2.96
281.391	3.21
281.769	2.73
282.147	2.67
282.525	2.9
282.903	2.98
283.281	3.18
283.659	3.26
284.037	3.14
284.415	2.46
284.792	2.89
285.17	2.53
285.548	2.79
285.925	2.35
286.303	2.62
286.68	2.53
287.058	3.21
287.435	3
287.813	2.48
288.19	2.82
288.567	2.76
288.945	3.16
289.322	3.16
289.699	2.56
290.076	3.42
290.453	2.76
290.83	2.62
291.207	3.2
291.584	2.36
291.961	2.82
292.338	2.45
292.715	2.75
293.092	2.69
293.469	3.02
293.845	2.57
294.222	2.76
294.599	2.41
294.975	3.19
295.352	2.76
295.728	2.97
296.105	2.62
296.481	2.75
296.858	2.83
297.234	2.45
297.61	2.65
297.986	2.45
298.363	2.37
298.739	2.68
299.115	2.76
299.491	2.63
299.867	2.84
300.243	2.72
300.619	2.56
300.995	2.52
301.371	3.22
301.746	2.86
302.122	2.93
302.498	2.79
302.874	2.77
303.249	2.63
303.625	2.98
304	3.37
304.376	2.34
304.751	2.35
305.127	2.47
305.502	3.16
305.878	2.46
306.253	2.83
306.628	2.6
307.003	2.71
307.378	2.47
307.754	2.54
308.129	2.96
308.504	2.73
308.879	3.37
309.254	3.24
309.629	2.42
310.003	1.79
310.378	2.89
310.753	2.49
311.128	3.01
311.502	2.45
311.877	2.62
312.252	2.64
312.626	2.87
313.001	2.62
313.375	2.63
313.75	2.65
314.124	2.15
314.498	2.69
314.873	2.52
315.247	2.62
315.621	2.75
315.995	2.84
316.369	2.3
316.743	2.63
317.117	2.23
317.491	1.79
317.865	2.91
318.239	2.91
318.613	2.62
318.987	2.86
319.361	1.97
319.734	2.59
320.108	2.39
320.482	2.46
320.855	2.48
321.229	3.21
321.602	2.66
321.976	2.28
322.349	3.06
322.723	2.86
323.096	2.71
323.469	2.36
323.843	2.53
324.216	3.07
324.589	3.07
324.962	3.08
325.335	2.61
325.708	2.33
326.081	2.42
326.454	2.61
326.827	3.12
327.2	3.11
327.573	2.94
327.945	2.37
328.318	2.68
328.691	2.77
329.063	2.73
329.436	2.2
329.809	2.41
330.181	2.97
330.553	2.85
330.926	2.2
331.298	2.19
331.671	2.38
332.043	2.1
332.415	2.68
332.787	2.78
333.159	2
333.532	2.6
333.904	3.04
334.276	2.23
334.648	2.55
335.02	2.58
335.391	2.38
335.763	2.84
336.135	2.58
336.507	3.16
336.879	2.27
337.25	2.59
337.622	2.92
337.993	3.24
338.365	2.51
338.736	2.99
339.108	2.87
339.479	2.83
339.851	2.58
340.222	2.48
340.593	2.48
340.964	2.54
341.336	2.92
341.707	2.48
342.078	2.59
342.449	2.79
342.82	2.32
343.191	2.71
343.562	2.77
343.933	2.41
344.303	2.54
344.674	2.92
345.045	2.89
345.416	2.39
345.786	2.42
346.157	2.75
346.527	2.64
346.898	2.54
347.268	2.75
347.639	3
348.009	2.12
348.38	2.67
348.75	2.89
349.12	2.64
349.49	2.42
349.861	3.16
350.231	2.32
350.601	2.74
350.971	2.94
351.341	2.58
351.711	2.98
352.081	2.53
352.45	2.48
352.82	2.31
353.19	2.57
353.56	2.63
353.929	2.35
354.299	2.53
354.669	2.75
355.038	2.98
355.408	2.71
355.777	2.6
356.147	2.57
356.516	2.31
356.885	2.84
357.254	2.52
357.624	2.62
357.993	2.82
358.362	2.52
358.731	2.23
359.1	2.11
359.469	2.54
359.838	2.57
360.207	2.8
360.576	2.92
360.945	2.5
361.314	2.7
361.682	2.55
362.051	2.47
362.42	2.45
362.788	2.74
363.157	2.61
363.525	2.49
363.894	2.47
364.262	2.67
364.631	2.57
364.999	2.54
365.367	2.55
365.735	2.64
366.104	2.35
366.472	2.65
366.84	2.91
367.208	2.77
367.576	2.63
367.944	2.57
368.312	2.72
368.68	2.82
369.048	2.83
369.416	3.02
369.783	2.88
370.151	2.83
370.519	2.83
370.886	2.6
371.254	3.12
371.621	3.04
371.989	2.59
372.356	2.9
372.724	3.02
373.091	2.55
373.458	2.73
373.826	2.77
374.193	2.76
374.56	2.68
374.927	2.82
375.294	2.89
375.661	2.85
376.028	2.98
376.395	3.07
376.762	2.68
377.129	2.51
377.496	2.82
377.863	3.02
378.229	2.85
378.596	2.89
378.963	2.61
379.329	2.77
379.696	2.72
380.062	2.76
380.429	2.57
380.795	2.73
381.161	3.07
381.528	3.2
381.894	2.74
382.26	2.8
382.626	2.91
382.993	2.81
383.359	2.86
383.725	3.03
384.091	2.76
384.457	2.89
384.823	3
385.188	2.95
385.554	2.91
385.92	3.01
386.286	3.09
386.651	2.75
387.017	3.18
387.383	2.97
387.748	2.74
388.114	2.82
388.479	2.77
388.845	3.04
389.21	2.95
389.575	2.85
389.94	2.95
390.306	2.7
390.671	3.02
391.036	2.91
391.401	2.89
391.766	3
392.131	2.9
392.496	2.97
392.861	2.87
393.226	2.71
393.591	2.86
393.956	2.8
394.32	2.93
394.685	2.93
395.05	3.07
395.414	3.24
395.779	2.87
396.143	2.84
396.508	2.82
396.872	2.94
397.236	3.03
397.601	2.88
397.965	2.83
398.329	2.66
398.694	2.85
399.058	2.69
399.422	3.01
399.786	2.96
400.15	2.96
400.514	3.04
400.878	2.98
401.242	2.88
401.605	3.05
401.969	2.89
402.333	3.04
402.697	3.21
403.06	3.16
403.424	2.85
403.787	3.16
404.151	2.96
404.514	2.88
404.878	3.13
405.241	2.95
405.604	2.94
405.968	3.03
406.331	3.01
406.694	2.88
407.057	2.73
407.42	3.26
407.783	3.14
408.146	3.03
408.509	2.89
408.872	3.37
409.235	3.03
409.598	3.03
409.961	3.08
410.323	3.03
410.686	2.92
411.049	3.14
411.411	3.07
411.774	2.9
412.136	3.06
412.499	3.04
412.861	3.12
413.223	3.23
413.586	3.05
413.948	3.08
414.31	3.16
414.672	3.05
415.035	3.18
415.397	3.09
415.759	3.12
416.121	3.06
416.483	3.23
416.845	3.15
417.206	3.16
417.568	3.19
417.93	3.1
418.292	2.8
418.653	3.17
419.015	3.03
419.377	3.04
419.738	2.99
420.1	2.9
420.461	3.03
420.822	2.99
421.184	2.94
421.545	3.02
421.906	2.93
422.267	2.98
422.629	3.02
422.99	2.86
423.351	2.92
423.712	3
424.073	3.07
424.434	2.9
424.795	2.85
425.155	2.98
425.516	2.98
425.877	3.03
426.238	2.83
426.598	2.96
426.959	2.91
427.32	3
427.68	3.09
428.041	2.98
428.401	3.02
428.761	3.1
429.122	3.09
429.482	3.09
429.842	3.03
430.202	3.14
430.563	3.15
430.923	3.36
431.283	3.14
431.643	3.25
432.003	3.16
432.363	3.08
432.722	3.31
433.082	3.14
433.442	2.99
433.802	3.29
434.161	2.99
434.521	3.21
434.881	3.18
435.24	3.05
435.6	3.07
435.959	3.01
436.319	3.09
436.678	3.18
437.037	3.12
437.396	3.29
437.756	3.21
438.115	2.96
438.474	3.21
438.833	3.23
439.192	3
439.551	3.15
439.91	3.22
440.269	3.28
440.628	3.18
440.987	3.23
441.345	3.08
441.704	3.18
442.063	3.2
442.421	3.05
442.78	3.1
443.138	3.24
443.497	3.14
443.855	3.2
444.214	3.17
444.572	3.11
444.93	3.27
445.288	3.24
445.647	3.39
446.005	2.96
446.363	3.26
446.721	3.09
447.079	3.27
447.437	3.12
447.795	3.07
448.153	3.05
448.51	3.18
448.868	3.15
449.226	3.14
449.584	3.12
449.941	3.12
450.299	3.15
450.656	3.12
451.014	3.18
451.371	3.23
451.729	3.16
452.086	3.29
452.443	3.19
452.801	3.34
453.158	3.32
453.515	3.2
453.872	3.18
454.229	3.46
454.586	3.37
454.943	3.19
455.3	3.13
455.657	3.23
456.014	3.13
456.371	3.27
456.727	3.34
457.084	3.31
457.441	3.22
457.797	3.32
458.154	3.09
458.51	3.37
458.867	3.28
459.223	3.26
459.58	3.31
459.936	3.32
460.292	3.29
460.648	3.1
461.005	3.07
461.361	3.28
461.717	3.02
462.073	3.21
462.429	3.26
462.785	3.21
463.141	3.43
463.496	3.26
463.852	3.32
464.208	3.38
464.564	3.28
464.919	3.24
465.275	3.49
465.631	3.49
465.986	3.43
466.342	3.39
466.697	3.27
467.052	3.17
467.408	3.22
467.763	3.4
468.118	3.68
468.473	3.41
468.829	3.37
469.184	3.43
469.539	3.39
469.894	3.45
470.249	3.36
470.603	3.31
470.958	3.27
471.313	3.54
471.668	3.41
472.023	3.51
472.377	3.4
472.732	3.25
473.086	3.47
473.441	3.41
473.795	3.59
474.15	3.35
474.504	3.27
474.859	3.51
475.213	3.52
475.567	3.52
475.921	3.49
476.275	3.42
476.63	3.45
476.984	3.52
477.338	3.45
477.692	3.43
478.045	3.5
478.399	3.36
478.753	3.39
479.107	3.42
479.461	3.45
479.814	3.58
480.168	3.51
480.521	3.46
480.875	3.33
481.228	3.37
481.582	3.4
481.935	3.4
482.289	3.43
482.642	3.41
482.995	3.33
483.348	3.38
483.701	3.36
484.055	3.44
484.408	3.27
484.761	3.31
485.114	3.15
485.466	3.17
485.819	3.11
486.172	3.02
486.525	3.12
486.878	3.2
487.23	3.28
487.583	3.23
487.936	3.28
488.288	3.26
488.641	3.35
488.993	3.17
489.345	3.2
489.698	3.19
490.05	3.17
490.402	3.21
490.754	3.25
491.107	3.28
491.459	3.38
491.811	3.39
492.163	3.35
492.515	3.38
492.866	3.35
493.218	3.28
493.57	3.2
493.922	3.19
494.274	3.29
494.625	3.24
494.977	3.34
495.328	3.51
495.68	3.59
496.031	3.39
496.383	3.48
496.734	3.43
497.086	3.55
497.437	3.44
497.788	3.47
498.139	3.53
498.49	3.48
498.842	3.42
499.193	3.46
499.544	3.43
499.894	3.51
500.245	3.41
500.596	3.59
500.947	3.49
501.298	3.61
501.648	3.46
501.999	3.54
502.35	3.46
502.7	3.76
503.051	3.55
503.401	3.61
503.752	3.59
504.102	3.63
504.452	3.54
504.803	3.47
505.153	3.46
505.503	3.54
505.853	3.65
506.203	3.46
506.553	3.47
506.903	3.52
507.253	3.63
507.603	3.58
507.953	3.5
508.303	3.54
508.652	3.6
509.002	3.43
509.352	3.6
509.701	3.68
510.051	3.47
510.4	3.52
510.75	3.48
511.099	3.49
511.449	3.6
511.798	3.51
512.147	3.46
512.496	3.52
512.846	3.53
513.195	3.55
513.544	3.57
513.893	3.41
514.242	3.55
514.591	3.59
514.939	3.5
515.288	3.49
515.637	3.53
515.986	3.66
516.334	3.55
516.683	3.53
517.032	3.36
517.38	3.47
517.729	3.63
518.077	3.6
518.426	3.44
518.774	3.52
519.122	3.5
519.47	3.51
519.819	3.48
520.167	3.47
520.515	3.47
520.863	3.49
521.211	3.41
521.559	3.54
521.907	3.54
522.255	3.6
522.602	3.59
522.95	3.5
523.298	3.5
523.645	3.53
523.993	3.55
524.341	3.61
524.688	3.61
525.036	3.68
525.383	3.47
525.73	3.75
526.078	3.62
526.425	3.61
526.772	3.49
527.119	3.57
527.466	3.46
527.814	3.48
528.161	3.45
528.508	3.49
528.854	3.47
529.201	3.46
529.548	3.55
529.895	3.39
530.242	3.38
530.588	3.26
530.935	3.23
531.282	3.36
531.628	3.41
531.975	3.41
532.321	3.48
532.667	3.49
533.014	3.49
533.36	3.5
533.706	3.65
534.052	3.57
534.399	3.4
534.745	3.43
535.091	3.34
535.437	3.37
535.783	3.44
536.129	3.46
536.474	3.59
536.82	3.66
537.166	3.63
537.512	3.61
537.857	3.61
538.203	3.62
538.549	3.59
538.894	3.45
539.239	3.53
539.585	3.55
539.93	3.7
540.276	3.61
540.621	3.63
540.966	3.64
541.311	3.75
541.656	3.66
542.001	3.71
542.346	3.62
542.691	3.53
543.036	3.45
543.381	3.39
543.726	3.37
544.071	3.4
544.415	3.49
544.76	3.5
545.105	3.59
545.449	3.52
545.794	3.56
546.138	3.54
546.483	3.6
546.827	3.62
547.171	3.74
547.516	3.5
547.86	3.59
548.204	3.46
548.548	3.57
548.892	3.64
549.236	3.59
549.58	3.54
549.924	3.6
550.268	3.67
550.612	3.72
550.956	3.81
551.3	3.64
551.643	3.71
551.987	3.82
552.33	3.63
552.674	3.61
553.017	3.66
553.361	3.8
553.704	3.9
554.048	3.77
554.391	3.74
554.734	3.77
555.077	3.68
555.42	3.54
555.764	3.66
556.107	3.81
556.45	3.89
556.793	3.63
557.135	3.68
557.478	3.56
557.821	3.8
558.164	3.84
558.507	3.88
558.849	3.84
559.192	3.72
559.534	4
559.877	3.62
560.219	3.82
560.562	3.77
560.904	3.61
561.246	3.63
561.589	3.71
561.931	3.84
562.273	3.99
562.615	3.96
562.957	3.82
563.299	3.66
563.641	3.59
563.983	3.71
564.325	3.71
564.667	3.77
565.008	3.87
565.35	3.71
565.692	3.68
566.033	3.91
566.375	3.74
566.716	3.7
567.058	3.65
567.399	3.79
567.741	3.65
568.082	3.67
568.423	3.73
568.764	3.68
569.105	3.8
569.447	3.73
569.788	3.67
570.129	3.87
570.47	3.85
570.811	3.79
571.151	3.76
571.492	3.82
571.833	3.95
572.174	3.96
572.514	3.7
572.855	3.73
573.195	3.92
573.536	3.65
573.876	3.81
574.217	3.72
574.557	3.61
574.898	3.5
575.238	3.61
575.578	3.82
575.918	3.66
576.258	3.74
576.598	3.8
576.938	3.79
577.278	3.79
577.618	3.53
577.958	3.67
578.298	3.7
578.638	3.76
578.977	3.73
579.317	3.83
579.657	3.85
579.996	3.87
580.336	3.88
580.675	3.82
581.014	3.94
581.354	3.79
581.693	3.69
582.032	3.92
582.372	3.82
582.711	4.07
583.05	4.25
583.389	3.86
583.728	3.92
584.067	3.87
584.406	3.9
584.745	3.94
585.083	3.77
585.422	3.9
585.761	3.87
586.1	4.15
586.438	3.67
586.777	3.9
587.115	4.08
587.454	3.85
587.792	3.76
588.13	3.87
588.469	3.81
588.807	3.57
589.145	3.81
589.483	3.85
589.821	3.79
590.159	4.06
590.497	3.77
590.835	3.92
591.173	3.72
591.511	3.86
591.849	3.74
592.187	3.88
592.524	3.51
592.862	3.81
593.2	3.9
593.537	3.68
593.875	3.74
594.212	4.13
594.55	4.06
594.887	3.86
595.224	3.72
595.561	3.67
595.899	3.84
596.236	3.69
596.573	3.69
596.91	3.94
597.247	3.7
597.584	3.69
597.921	3.75
598.258	3.85
598.594	3.94
598.931	3.47
599.268	3.61
599.604	3.61
599.941	3.76
600.277	3.77
600.614	3.88
600.95	3.89
601.287	3.71
601.623	4.05
601.959	3.83
602.296	3.89
602.632	3.71
602.968	3.82
603.304	4.12
603.64	3.71
603.976	3.87
604.312	4.03
604.648	3.72
604.984	4.01
605.319	3.83
605.655	3.73
605.991	3.92
606.326	3.74
606.662	3.72
606.998	3.6
607.333	3.66
607.668	3.63
608.004	3.73
608.339	3.92
608.674	3.87
609.01	3.76
609.345	4.07
609.68	4.17
610.015	3.77
610.35	4
610.685	3.97
611.02	3.73
611.355	3.81
611.689	3.82
612.024	3.87
612.359	3.9
612.694	3.93
613.028	4.01
613.363	3.69
613.697	3.76
614.032	3.69
614.366	3.94
614.7	4.03
615.035	3.77
615.369	3.8
615.703	3.62
616.037	4.02
616.371	3.8
616.705	4.06
617.039	3.91
617.373	4.19
617.707	3.83
618.041	3.62
618.375	3.78
618.709	3.73
619.042	4.07
619.376	4.42
619.71	4.06
620.043	4.03
620.377	3.91
620.71	4.07
621.043	4.1
621.377	3.89
621.71	4.2
622.043	3.57
622.376	3.83
622.709	4.07
623.043	3.93
623.376	3.72
623.709	3.58
624.041	3.85
624.374	3.92
624.707	3.81
625.04	4.13
625.373	3.93
625.705	3.8
626.038	3.87
626.37	3.39
626.703	3.83
627.035	3.35
627.368	4.04
627.7	4.12
628.032	3.91
628.365	4.16
628.697	3.91
629.029	3.72
629.361	3.69
629.693	3.66
630.025	4.09
630.357	3.89
630.689	4.05
631.021	3.96
631.353	4.06
631.684	3.85
632.016	3.61
632.348	3.97
632.679	3.67
633.011	3.98
633.342	3.77
633.674	3.85
634.005	4.14
634.336	4.54
634.668	4
634.999	3.59
635.33	3.37
635.661	4.06
635.992	3.92
636.323	4.14
636.654	4
636.985	3.89
637.316	3.71
637.647	3.64
637.977	3.48
638.308	3.87
638.639	4.05
638.969	4.16
639.3	3.87
639.63	3.85
639.961	3.78
640.291	3.78
640.622	4.12
640.952	4.27
641.282	4.08
641.612	3.85
641.943	4.13
642.273	3.81
642.603	4.01
642.933	3.9
643.263	4.29
643.592	3.95
643.922	4.57
644.252	3.53
644.582	3.79
644.911	4.15
645.241	4.36
645.571	4.57
645.9	4.06
646.23	4.03
646.559	4.09
646.888	4.15
647.218	4.13
647.547	3.83
647.876	3.78
648.205	4.24
648.534	4.06
648.863	4.01
649.192	3.72
649.521	4.22
649.85	4.08
650.179	3.89
650.508	3.94
650.837	3.98
651.165	4.29
651.494	3.46
651.822	4.33
652.151	4.41
652.479	4
652.808	3.97
653.136	3.98
653.465	4.17
653.793	4.78
654.121	4.08
654.449	4.09
654.777	4.23
655.105	3.84
655.433	4.33
655.761	4.24
656.089	4.07
656.417	4.26
656.745	3.42
657.073	4.38
657.4	5.01
657.728	4.69
658.056	4.34
658.383	4.37
658.711	3.83
659.038	4.21
659.365	4.18
659.693	3.71
660.02	4.29
660.347	4.06
660.674	4.1
661.001	3.61
661.329	3.89
661.656	3.67
661.982	4.05
662.309	4.1
662.636	3.9
662.963	4.04
663.29	4.26
663.616	3.91
663.943	4.02
664.27	4.32
664.596	3.99
664.923	4.05
665.249	4.24
665.576	3.6
665.902	3.96
666.228	4.3
666.554	4.15
666.881	3.98
667.207	4
667.533	4.16
667.859	4.34
668.185	4.23
668.511	4.34
668.837	4.25
669.162	4.63
669.488	4.32
669.814	3.93
670.139	4.04
670.465	3.98
670.791	4.51
671.116	4.02
671.442	3.99
671.767	3.96
672.092	3.72
672.418	4.22
672.743	4.23
673.068	4.45
673.393	4.42
673.718	3.99
674.043	4.56
674.368	4.13
674.693	4.32
675.018	4.32
675.343	4.32
675.667	4.03
675.992	4.48
676.317	4.77
676.641	4.29
676.966	4.64
677.29	3.71
677.615	4.64
677.939	3.53
678.264	4.31
678.588	3.38
678.912	3.98
679.236	4.78
679.56	4.2
679.885	4.79
680.209	4.53
680.532	3.85
680.856	4.4
681.18	3.65
681.504	4.74
681.828	4.43
682.152	4.1
682.475	3.88
682.799	4.22
683.122	4.33
683.446	4.05
683.769	3.97
684.093	4.4
684.416	3.99
684.739	3.76
685.062	4.44
685.386	3.92
685.709	4.26
686.032	4.2
686.355	4.73
686.678	4.62
687.001	3.87
687.324	4.09
687.646	4.27
687.969	4.89
688.292	4.4
688.614	4.46
688.937	4.29
689.26	4.12
689.582	3.38
689.904	3.85
690.227	4.55
690.549	4.36
690.871	4.58
691.194	4.55
691.516	4.53
691.838	4.82
692.16	4.98
692.482	4.24
692.804	4.57
693.126	4.34
693.448	5.16
