Data from 0262_chest_Reflection__0__123.txt Node

Date: Fri Oct 20 21:36:01 CDT 2023
User: ToomeyLab
Spectrometer: FLMS14357
Trigger mode: 0
Integration Time (sec): 1.000000E-2
Scans to average: 100
Electric dark correction enabled: true
Nonlinearity correction enabled: false
Boxcar width: 0
XAxis mode: Wavelengths
Number of Pixels in Spectrum: 2048
>>>>>Begin Spectral Data<<<<<
189.047	-27.6
189.435	-27.6
189.823	-27.6
190.211	-80.87
190.599	130.33
190.987	10.82
191.375	97.59
191.763	342.23
192.151	-59.38
192.538	71.09
192.926	25.43
193.314	268.32
193.702	12.2
194.089	31.96
194.477	324.76
194.864	543.36
195.252	25.26
195.639	83.44
196.027	85.23
196.414	22.28
196.801	117.01
197.189	-51.09
197.576	44.09
197.963	35.23
198.351	57.89
198.738	19.55
199.125	53.85
199.512	46.58
199.899	46.92
200.286	-17.64
200.673	30.04
201.06	32.41
201.447	5.56
201.833	33.79
202.22	53.18
202.607	45.67
202.994	57.6
203.38	33.22
203.767	-1.02
204.154	40.54
204.54	26.3
204.927	45.69
205.313	-16.14
205.699	42.72
206.086	25.5
206.472	40.47
206.858	26.83
207.245	-1.26
207.631	21.63
208.017	30.79
208.403	24.04
208.789	34.55
209.175	2.58
209.561	11.46
209.947	21.08
210.333	1.05
210.719	5.55
211.105	39.11
211.491	7.76
211.876	-6.1
212.262	22.96
212.648	43.72
213.034	-14.39
213.419	16.17
213.805	23.7
214.19	-6.65
214.576	7.59
214.961	26.36
215.346	25.87
215.732	27.49
216.117	-20.59
216.502	13.08
216.888	25.94
217.273	12.07
217.658	25.18
218.043	12.78
218.428	16.69
218.813	19.93
219.198	6.26
219.583	-18.69
219.968	-19.23
220.353	27.61
220.738	32.48
221.122	10.67
221.507	0.53
221.892	3.99
222.276	6.19
222.661	25.75
223.046	9.95
223.43	11.53
223.815	20.29
224.199	14.9
224.583	1.04
224.968	2.78
225.352	-1.62
225.736	9.43
226.121	8.86
226.505	4.79
226.889	13.42
227.273	10.63
227.657	8.19
228.041	6.93
228.425	8.48
228.809	7.12
229.193	5.34
229.577	7.28
229.961	3.96
230.344	5.75
230.728	5.55
231.112	6.21
231.495	5.99
231.879	5.95
232.263	6.55
232.646	5.25
233.03	6.03
233.413	5.58
233.797	5.15
234.18	5.85
234.563	8.63
234.946	8.02
235.33	7.83
235.713	6
236.096	7.65
236.479	5.99
236.862	6.34
237.245	4.35
237.628	5.4
238.011	7.12
238.394	4.78
238.777	7.31
239.16	5.69
239.543	5.73
239.925	7.62
240.308	3.96
240.691	6.37
241.073	8.17
241.456	5.57
241.838	4.51
242.221	6.42
242.603	5.36
242.986	6.25
243.368	5.97
243.75	5.79
244.133	5.44
244.515	5.5
244.897	5.46
245.279	5.71
245.661	5.77
246.043	4.86
246.425	5.32
246.807	4.95
247.189	5.7
247.571	4.84
247.953	5.45
248.335	6.1
248.717	5.06
249.098	5.14
249.48	5.16
249.862	5.54
250.243	5.74
250.625	5.54
251.006	5.45
251.388	5.08
251.769	5.61
252.151	4.91
252.532	6.18
252.913	5.33
253.295	4.9
253.676	5.57
254.057	5.07
254.438	5.27
254.819	5.09
255.2	5.29
255.581	5.45
255.962	4.72
256.343	5.19
256.724	4.9
257.105	5.67
257.486	5
257.867	4.65
258.247	5.28
258.628	5.45
259.009	4.77
259.389	4.84
259.77	4.34
260.15	5.88
260.531	5.08
260.911	5.14
261.292	5.08
261.672	5.2
262.052	5.22
262.432	4.93
262.813	4.99
263.193	5.39
263.573	4.84
263.953	5.69
264.333	5.21
264.713	5.93
265.093	6.08
265.473	5.41
265.853	4.89
266.233	4.39
266.612	4.82
266.992	5.24
267.372	5.15
267.752	4.98
268.131	5.3
268.511	4.95
268.89	4.89
269.27	4.84
269.649	4.7
270.029	5.46
270.408	5.14
270.787	4.79
271.167	5.37
271.546	5.28
271.925	6.15
272.304	5.16
272.683	5.07
273.062	5.05
273.441	5.15
273.82	5.41
274.199	5.38
274.578	5.09
274.957	4.97
275.336	4.99
275.715	5.16
276.093	4.92
276.472	4.8
276.851	5.25
277.229	5.63
277.608	4.63
277.986	4.68
278.365	5.11
278.743	4.53
279.122	4.78
279.5	4.74
279.878	4.59
280.257	4.75
280.635	5.17
281.013	4.81
281.391	4.41
281.769	5.03
282.147	4.74
282.525	4.77
282.903	4.58
283.281	4.74
283.659	4.98
284.037	5.27
284.415	4.19
284.792	4.4
285.17	5.06
285.548	4.59
285.925	4.29
286.303	4.56
286.68	4.71
287.058	4.94
287.435	5.24
287.813	4.23
288.19	4.77
288.567	4.79
288.945	5.15
289.322	4.77
289.699	4.28
290.076	5.58
290.453	4.47
290.83	4.93
291.207	5.43
291.584	4.51
291.961	4.8
292.338	4.79
292.715	4.99
293.092	4.86
293.469	5.3
293.845	4.93
294.222	5.1
294.599	4.6
294.975	5.65
295.352	4.69
295.728	4.86
296.105	5
296.481	4.55
296.858	4.96
297.234	4.9
297.61	4.55
297.986	4.75
298.363	5.1
298.739	5.01
299.115	4.61
299.491	4.98
299.867	4.98
300.243	4.74
300.619	5.11
300.995	4.81
301.371	5.37
301.746	4.88
302.122	5.46
302.498	4.85
302.874	4.4
303.249	4.58
303.625	4.91
304	5.49
304.376	5.06
304.751	4.63
305.127	4.57
305.502	5.07
305.878	4.93
306.253	4.72
306.628	4.74
307.003	4.89
307.378	4.89
307.754	4.89
308.129	5.35
308.504	5.35
308.879	4.63
309.254	5.25
309.629	4.47
310.003	4.52
310.378	4.99
310.753	5.22
311.128	5.6
311.502	4.82
311.877	5.08
312.252	4.86
312.626	5.16
313.001	4.94
313.375	4.91
313.75	5
314.124	4.92
314.498	5.03
314.873	4.5
315.247	5.15
315.621	4.88
315.995	5.68
316.369	4.72
316.743	5.2
317.117	5.01
317.491	4.51
317.865	5.36
318.239	5.27
318.613	5.23
318.987	4.91
319.361	4.63
319.734	4.87
320.108	4.78
320.482	5.44
320.855	5.24
321.229	5.74
321.602	5.16
321.976	5.04
322.349	5.45
322.723	4.39
323.096	5.22
323.469	4.93
323.843	4.95
324.216	5.3
324.589	5.14
324.962	5.44
325.335	5.43
325.708	5.38
326.081	5.11
326.454	5.19
326.827	5.25
327.2	5.41
327.573	5.41
327.945	4.96
328.318	4.89
328.691	5.15
329.063	5.36
329.436	4.93
329.809	5.08
330.181	5.44
330.553	5.35
330.926	5.63
331.298	4.9
331.671	5.25
332.043	5.1
332.415	4.98
332.787	5.32
333.159	4.52
333.532	5.67
333.904	5.18
334.276	4.95
334.648	5.44
335.02	5.53
335.391	4.9
335.763	5.17
336.135	5.16
336.507	4.95
336.879	5.29
337.25	5.38
337.622	5.23
337.993	5.94
338.365	5.13
338.736	5.03
339.108	5.4
339.479	4.89
339.851	5.2
340.222	5.29
340.593	5.01
340.964	5.25
341.336	5.37
341.707	4.79
342.078	5.05
342.449	5.13
342.82	5.06
343.191	4.86
343.562	5.17
343.933	5.08
344.303	5.58
344.674	5.46
345.045	4.98
345.416	5.52
345.786	5.09
346.157	5.32
346.527	4.88
346.898	5.28
347.268	5.27
347.639	5.39
348.009	5.06
348.38	5.02
348.75	4.78
349.12	5.59
349.49	4.99
349.861	5.33
350.231	5.08
350.601	5.14
350.971	5.84
351.341	5.07
351.711	5.63
352.081	5.28
352.45	5.38
352.82	5.36
353.19	5.5
353.56	5.79
353.929	4.82
354.299	4.93
354.669	5.07
355.038	5.4
355.408	5.02
355.777	5.37
356.147	5.07
356.516	5.25
356.885	5.17
357.254	5.4
357.624	5.32
357.993	4.97
358.362	5.3
358.731	5.21
359.1	4.79
359.469	4.8
359.838	5.29
360.207	5.24
360.576	5.56
360.945	5.14
361.314	5.26
361.682	5.02
362.051	5.3
362.42	5.19
362.788	5.32
363.157	5.28
363.525	5.12
363.894	5.22
364.262	5.21
364.631	5.34
364.999	5.27
365.367	5.24
365.735	4.98
366.104	5.6
366.472	5.16
366.84	5.2
367.208	5.38
367.576	5.2
367.944	5.1
368.312	4.86
368.68	5.56
369.048	5.26
369.416	5.69
369.783	5.45
370.151	5.4
370.519	5.45
370.886	5.56
371.254	5.25
371.621	5.45
371.989	5.16
372.356	5.4
372.724	5.6
373.091	4.97
373.458	5.27
373.826	5.2
374.193	5.47
374.56	5.44
374.927	5.33
375.294	5.66
375.661	5.41
376.028	5.51
376.395	5.76
376.762	5.08
377.129	5.43
377.496	5.45
377.863	5.7
378.229	5.54
378.596	5.51
378.963	5.51
379.329	5.45
379.696	5.36
380.062	5.44
380.429	5.2
380.795	5.29
381.161	5.49
381.528	5.47
381.894	5.32
382.26	5.53
382.626	5.87
382.993	5.5
383.359	4.9
383.725	5.44
384.091	5.38
384.457	5.66
384.823	5.39
385.188	5.6
385.554	5.51
385.92	5.43
386.286	5.6
386.651	5.51
387.017	5.44
387.383	5.31
387.748	5.35
388.114	5.34
388.479	5.55
388.845	5.49
389.21	5.42
389.575	5.17
389.94	5.53
390.306	5.52
390.671	5.57
391.036	5.34
391.401	5.48
391.766	5.46
392.131	5.46
392.496	5.73
392.861	5.72
393.226	5.46
393.591	5.64
393.956	5.37
394.32	5.66
394.685	5.45
395.05	5.87
395.414	5.63
395.779	5.35
396.143	5.29
396.508	5.47
396.872	5.69
397.236	5.46
397.601	5.56
397.965	5.47
398.329	5.53
398.694	5.68
399.058	5.27
399.422	5.66
399.786	5.54
400.15	5.28
400.514	5.38
400.878	5.59
401.242	5.73
401.605	5.66
401.969	5.36
402.333	5.7
402.697	5.63
403.06	5.54
403.424	5.52
403.787	5.44
404.151	5.59
404.514	5.88
404.878	5.76
405.241	5.75
405.604	5.57
405.968	5.71
406.331	5.46
406.694	5.65
407.057	5.58
407.42	5.78
407.783	5.69
408.146	5.48
408.509	5.55
408.872	5.9
409.235	5.65
409.598	5.64
409.961	5.78
410.323	5.59
410.686	5.53
411.049	5.8
411.411	5.58
411.774	5.74
412.136	5.77
412.499	5.72
412.861	5.8
413.223	5.8
413.586	5.61
413.948	5.83
414.31	5.97
414.672	5.72
415.035	5.9
415.397	5.87
415.759	5.86
416.121	5.84
416.483	6.07
416.845	5.7
417.206	5.7
417.568	5.96
417.93	5.82
418.292	5.65
418.653	5.73
419.015	5.74
419.377	5.61
419.738	5.82
420.1	5.62
420.461	5.69
420.822	5.62
421.184	5.7
421.545	5.63
421.906	5.69
422.267	5.63
422.629	5.69
422.99	5.62
423.351	5.65
423.712	5.54
424.073	5.69
424.434	5.59
424.795	5.62
425.155	5.66
425.516	5.58
425.877	5.66
426.238	5.63
426.598	5.7
426.959	5.68
427.32	5.65
427.68	5.84
428.041	5.68
428.401	5.84
428.761	5.78
429.122	5.74
429.482	5.84
429.842	5.9
430.202	5.87
430.563	5.77
430.923	5.94
431.283	5.77
431.643	6
432.003	5.9
432.363	5.71
432.722	5.96
433.082	5.83
433.442	5.84
433.802	6.23
434.161	5.9
434.521	6.01
434.881	6.03
435.24	5.9
435.6	5.98
435.959	5.77
436.319	5.92
436.678	5.85
437.037	5.89
437.396	6.11
437.756	5.99
438.115	5.7
438.474	6.03
438.833	6.14
439.192	5.86
439.551	5.78
439.91	5.94
440.269	6.09
440.628	6.09
440.987	5.97
441.345	5.88
441.704	5.88
442.063	5.96
442.421	5.91
442.78	5.71
443.138	6.07
443.497	5.98
443.855	5.92
444.214	5.97
444.572	5.96
444.93	6.19
445.288	6.16
445.647	6.05
446.005	5.89
446.363	5.96
446.721	5.95
447.079	6.14
447.437	6.08
447.795	5.88
448.153	5.9
448.51	5.87
448.868	5.9
449.226	5.93
449.584	6.02
449.941	5.86
450.299	6.04
450.656	5.87
451.014	6.08
451.371	6.07
451.729	5.9
452.086	6.05
452.443	5.98
452.801	6.02
453.158	6.2
453.515	6.15
453.872	5.98
454.229	6.15
454.586	6.12
454.943	6.08
455.3	5.97
455.657	6.12
456.014	5.98
456.371	6.19
456.727	6.13
457.084	6.18
457.441	6.14
457.797	6.17
458.154	6.14
458.51	6.15
458.867	6.06
459.223	6.08
459.58	6.21
459.936	6.06
460.292	6.17
460.648	5.98
461.005	6.07
461.361	6.31
461.717	6
462.073	6.03
462.429	6.06
462.785	6.1
463.141	6.14
463.496	6.14
463.852	6.25
464.208	6.48
464.564	6.35
464.919	6.28
465.275	6.25
465.631	6.3
465.986	6.31
466.342	6.57
466.697	6.33
467.052	6.17
467.408	6.38
467.763	6.43
468.118	6.65
468.473	6.39
468.829	6.22
469.184	6.28
469.539	6.27
469.894	6.32
470.249	6.17
470.603	6.28
470.958	6.36
471.313	6.43
471.668	6.37
472.023	6.32
472.377	6.48
472.732	6.22
473.086	6.57
473.441	6.3
473.795	6.5
474.15	6.37
474.504	6.24
474.859	6.28
475.213	6.6
475.567	6.43
475.921	6.47
476.275	6.41
476.63	6.52
476.984	6.64
477.338	6.24
477.692	6.4
478.045	6.26
478.399	6.38
478.753	6.41
479.107	6.42
479.461	6.37
479.814	6.55
480.168	6.69
480.521	6.5
480.875	6.61
481.228	6.56
481.582	6.56
481.935	6.44
482.289	6.47
482.642	6.57
482.995	6.33
483.348	6.43
483.701	6.51
484.055	6.48
484.408	6.31
484.761	6.36
485.114	6.28
485.466	6.21
485.819	6.16
486.172	6.06
486.525	6.12
486.878	6.14
487.23	6.17
487.583	6.27
487.936	6.29
488.288	6.35
488.641	6.4
488.993	6.27
489.345	6.29
489.698	6.22
490.05	6.26
490.402	6.24
490.754	6.3
491.107	6.3
491.459	6.38
491.811	6.44
492.163	6.38
492.515	6.55
492.866	6.51
493.218	6.42
493.57	6.33
493.922	6.34
494.274	6.41
494.625	6.36
494.977	6.34
495.328	6.57
495.68	6.59
496.031	6.49
496.383	6.78
496.734	6.52
497.086	6.67
497.437	6.61
497.788	6.61
498.139	6.73
498.49	6.73
498.842	6.63
499.193	6.66
499.544	6.57
499.894	6.66
500.245	6.61
500.596	6.78
500.947	6.78
501.298	6.82
501.648	6.64
501.999	6.73
502.35	6.67
502.7	6.9
503.051	6.78
503.401	6.77
503.752	6.99
504.102	6.88
504.452	6.83
504.803	6.9
505.153	6.9
505.503	6.91
505.853	7
506.203	6.87
506.553	6.88
506.903	6.9
507.253	6.89
507.603	6.77
507.953	6.86
508.303	6.82
508.652	6.89
509.002	6.89
509.352	7.06
509.701	7
510.051	6.89
510.4	6.98
510.75	6.85
511.099	6.93
511.449	6.9
511.798	7.03
512.147	6.94
512.496	6.96
512.846	6.97
513.195	7.05
513.544	7.1
513.893	6.9
514.242	6.98
514.591	7.03
514.939	7
515.288	7.07
515.637	7.08
515.986	7.17
516.334	7.1
516.683	7.09
517.032	7.01
517.38	6.99
517.729	7.11
518.077	7.15
518.426	7.07
518.774	7.03
519.122	7.12
519.47	7.18
519.819	7.19
520.167	7.1
520.515	7.14
520.863	7.15
521.211	7.08
521.559	7.11
521.907	7.19
522.255	7.18
522.602	7.35
522.95	7.23
523.298	7.23
523.645	7.31
523.993	7.31
524.341	7.32
524.688	7.31
525.036	7.39
525.383	7.29
525.73	7.47
526.078	7.38
526.425	7.45
526.772	7.31
527.119	7.39
527.466	7.3
527.814	7.41
528.161	7.26
528.508	7.4
528.854	7.3
529.201	7.33
529.548	7.4
529.895	7.33
530.242	7.26
530.588	7.17
530.935	7.18
531.282	7.23
531.628	7.27
531.975	7.21
532.321	7.32
532.667	7.42
533.014	7.48
533.36	7.49
533.706	7.56
534.052	7.59
534.399	7.41
534.745	7.5
535.091	7.49
535.437	7.52
535.783	7.45
536.129	7.53
536.474	7.57
536.82	7.63
537.166	7.57
537.512	7.6
537.857	7.73
538.203	7.67
538.549	7.92
538.894	7.66
539.239	7.72
539.585	7.7
539.93	7.82
540.276	7.89
540.621	7.73
540.966	8
541.311	7.94
541.656	8.03
542.001	8.14
542.346	8.01
542.691	7.81
543.036	7.88
543.381	7.8
543.726	7.76
544.071	7.78
544.415	7.83
544.76	7.88
545.105	8.02
545.449	7.92
545.794	8.07
546.138	8.03
546.483	8.05
546.827	8.11
547.171	8.15
547.516	8.19
547.86	8.25
548.204	8.2
548.548	8.16
548.892	8.19
549.236	8.26
549.58	8.27
549.924	8.23
550.268	8.39
550.612	8.4
550.956	8.63
551.3	8.49
551.643	8.31
551.987	8.54
552.33	8.53
552.674	8.74
553.017	8.55
553.361	8.74
553.704	8.62
554.048	8.76
554.391	8.62
554.734	8.64
555.077	8.69
555.42	8.56
555.764	8.7
556.107	8.87
556.45	8.73
556.793	8.74
557.135	8.71
557.478	8.95
557.821	8.98
558.164	8.92
558.507	9.13
558.849	9.02
559.192	9.05
559.534	9.26
559.877	8.82
560.219	9.11
560.562	9.17
560.904	8.83
561.246	9.05
561.589	8.87
561.931	9.33
562.273	9.37
562.615	9.23
562.957	9.42
563.299	9.21
563.641	9.36
563.983	9.22
564.325	9.27
564.667	9.5
565.008	9.49
565.35	9.38
565.692	9.6
566.033	9.53
566.375	9.65
566.716	9.54
567.058	9.54
567.399	9.66
567.741	9.34
568.082	9.44
568.423	9.63
568.764	9.48
569.105	9.62
569.447	9.47
569.788	9.69
570.129	9.73
570.47	9.62
570.811	9.86
571.151	9.72
571.492	9.7
571.833	10
572.174	9.88
572.514	9.95
572.855	9.82
573.195	10
573.536	9.85
573.876	9.94
574.217	9.88
574.557	9.87
574.898	10
575.238	9.89
575.578	10.1
575.918	10.04
576.258	10.13
576.598	10.19
576.938	10.16
577.278	10.19
577.618	10.18
577.958	10.2
578.298	10.17
578.638	10.37
578.977	10.36
579.317	10.25
579.657	10.47
579.996	10.67
580.336	10.54
580.675	10.35
581.014	10.65
581.354	10.49
581.693	10.53
582.032	10.73
582.372	10.88
582.711	10.81
583.05	10.8
583.389	10.79
583.728	10.96
584.067	10.63
584.406	10.94
584.745	10.89
585.083	10.92
585.422	10.9
585.761	11.07
586.1	11.22
586.438	10.69
586.777	11.17
587.115	11.27
587.454	11.27
587.792	11.07
588.13	11.29
588.469	11.29
588.807	10.93
589.145	11.15
589.483	11.26
589.821	11.41
590.159	11.46
590.497	11.31
590.835	11.6
591.173	11.77
591.511	11.57
591.849	11.2
592.187	11.52
592.524	11.54
592.862	11.55
593.2	11.61
593.537	11.69
593.875	11.62
594.212	11.64
594.55	11.76
594.887	11.74
595.224	11.62
595.561	11.93
595.899	11.75
596.236	11.88
596.573	11.84
596.91	12.03
597.247	11.93
597.584	11.74
597.921	11.91
598.258	12.1
598.594	12.27
598.931	11.98
599.268	12.07
599.604	12.07
599.941	11.97
600.277	12.01
600.614	12.28
600.95	12.25
601.287	12.29
601.623	12.39
601.959	12.42
602.296	12.31
602.632	12.78
602.968	12.59
603.304	12.75
603.64	12.38
603.976	12.51
604.312	13
604.648	12.55
604.984	12.78
605.319	12.7
605.655	12.62
605.991	12.57
606.326	12.87
606.662	12.66
606.998	12.62
607.333	12.89
607.668	12.64
608.004	12.86
608.339	12.96
608.674	12.94
609.01	13.16
609.345	13.42
609.68	13.31
610.015	13.16
610.35	13.23
610.685	13.47
611.02	13.2
611.355	13.06
611.689	13.29
612.024	13.52
612.359	13.51
612.694	13.38
613.028	13.46
613.363	13.68
613.697	13.37
614.032	13.47
614.366	13.55
614.7	13.6
615.035	13.77
615.369	13.88
615.703	13.81
616.037	13.86
616.371	13.75
616.705	13.9
617.039	13.95
617.373	14.07
617.707	14.28
618.041	13.86
618.375	14.05
618.709	14.14
619.042	14.31
619.376	14.69
619.71	14.47
620.043	14.5
620.377	14.2
620.71	14.45
621.043	14.26
621.377	14.38
621.71	14.4
622.043	14.5
622.376	14.8
622.709	14.3
623.043	14.62
623.376	14.48
623.709	14.53
624.041	14.63
624.374	14.7
624.707	14.48
625.04	14.96
625.373	15.04
625.705	14.7
626.038	14.56
626.37	14.87
626.703	15.12
627.035	14.87
627.368	15.35
627.7	15.57
628.032	15.04
628.365	14.93
628.697	14.97
629.029	15.14
629.361	15.07
629.693	15.16
630.025	15.5
630.357	15.36
630.689	15.2
631.021	15.59
631.353	15.3
631.684	15.53
632.016	15.84
632.348	15.42
632.679	15.36
633.011	15.81
633.342	15.72
633.674	15.71
634.005	15.92
634.336	16.21
634.668	15.57
634.999	16.08
635.33	15.74
635.661	16.03
635.992	16.02
636.323	16.29
636.654	16.01
636.985	16.25
637.316	16.2
637.647	16.04
637.977	15.81
638.308	16.46
638.639	16.36
638.969	16.53
639.3	16.43
639.63	15.95
639.961	16.1
640.291	16.23
640.622	16.34
640.952	16.68
641.282	16.38
641.612	16.93
641.943	16.41
642.273	16.53
642.603	17.04
642.933	16.72
643.263	17.3
643.592	17.04
643.922	17.02
644.252	16.85
644.582	16.53
644.911	16.99
645.241	17.21
645.571	17.57
645.9	17.33
646.23	17.08
646.559	16.92
646.888	17.27
647.218	17.54
647.547	16.81
647.876	17.33
648.205	17.36
648.534	17.62
648.863	17.69
649.192	17.26
649.521	17.8
649.85	17.27
650.179	17.74
650.508	17.58
650.837	17.59
651.165	17.87
651.494	17.74
651.822	17.96
652.151	18.02
652.479	17.72
652.808	17.75
653.136	18.02
653.465	18.47
653.793	18.42
654.121	18.64
654.449	18.03
654.777	18.03
655.105	18.23
655.433	18.42
655.761	18.31
656.089	18.66
656.417	18.46
656.745	18.15
657.073	18.25
657.4	18.67
657.728	18.55
658.056	18.62
658.383	18.57
658.711	18.03
659.038	18.75
659.365	18.74
659.693	18.43
660.02	18.94
660.347	18.76
660.674	18.76
661.001	19.16
661.329	19.29
661.656	19.42
661.982	19.02
662.309	18.93
662.636	18.89
662.963	19.21
663.29	18.81
663.616	19.07
663.943	18.41
664.27	19.36
664.596	19.32
664.923	18.7
665.249	19.35
665.576	19.25
665.902	19.4
666.228	19.33
666.554	19.62
666.881	19.69
667.207	19.61
667.533	19.87
667.859	20.29
668.185	18.97
668.511	19.88
668.837	20.31
669.162	19.96
669.488	20.07
669.814	19.69
670.139	20.14
670.465	19.49
670.791	20.57
671.116	20.27
671.442	19.88
671.767	19.68
672.092	20.25
672.418	19.91
672.743	19.88
673.068	20.49
673.393	20.11
673.718	19.91
674.043	20.29
674.368	19.96
674.693	20.57
675.018	20.61
675.343	20.47
675.667	20.46
675.992	21.03
676.317	20.77
676.641	21.22
676.966	21.19
677.29	20.97
677.615	20.82
677.939	20.38
678.264	21.43
678.588	20.59
678.912	21.16
679.236	20.38
679.56	21.11
679.885	21.57
680.209	20.55
680.532	20.85
680.856	20.9
681.18	21.07
681.504	21.81
681.828	21.62
682.152	20.95
682.475	21.29
682.799	21.52
683.122	21.27
683.446	21.55
683.769	21.74
684.093	21.71
684.416	21.47
684.739	21.04
685.062	20.57
685.386	21.55
685.709	21.54
