Data from 0262_crown_Reflection__0__128.txt Node

Date: Fri Oct 20 21:38:41 CDT 2023
User: ToomeyLab
Spectrometer: FLMS14357
Trigger mode: 0
Integration Time (sec): 1.000000E-2
Scans to average: 100
Electric dark correction enabled: true
Nonlinearity correction enabled: false
Boxcar width: 0
XAxis mode: Wavelengths
Number of Pixels in Spectrum: 2048
>>>>>Begin Spectral Data<<<<<
189.047	42.26
189.435	42.26
189.823	42.26
190.211	224.59
190.599	186.18
190.987	114.92
191.375	149.16
191.763	314.35
192.151	37.93
192.538	202.02
192.926	-52.26
193.314	146.82
193.702	29.43
194.089	160.1
194.477	205.01
194.864	619.8
195.252	157.25
195.639	30.58
196.027	5.22
196.414	336.79
196.801	140.16
197.189	85.68
197.576	32.77
197.963	-81.94
198.351	41.11
198.738	16.31
199.125	19.5
199.512	31.67
199.899	41.34
200.286	-9.57
200.673	15.93
201.06	-12.56
201.447	-29.21
201.833	42.79
202.22	31.01
202.607	54.97
202.994	50.4
203.38	26.84
203.767	43.78
204.154	23.62
204.54	18.56
204.927	15.62
205.313	-1.08
205.699	22.75
206.086	14.1
206.472	24.73
206.858	42.26
207.245	-0.75
207.631	41.32
208.017	12.31
208.403	14.16
208.789	33.74
209.175	31.4
209.561	12.48
209.947	9.26
210.333	32.75
210.719	32.55
211.105	18.2
211.491	13.1
211.876	-10.07
212.262	29.11
212.648	20.69
213.034	-15.06
213.419	8.77
213.805	9.61
214.19	10.14
214.576	2.75
214.961	45.9
215.346	35.8
215.732	0.11
216.117	-22.24
216.502	6.63
216.888	4.39
217.273	9.69
217.658	9.65
218.043	20.35
218.428	24.8
218.813	15.29
219.198	23.3
219.583	-26.3
219.968	-5.13
220.353	-5.44
220.738	31.7
221.122	16.67
221.507	4.91
221.892	5.91
222.276	18.95
222.661	11.3
223.046	4.76
223.43	6.11
223.815	7
224.199	22.44
224.583	2.31
224.968	-4.64
225.352	-6.48
225.736	5.29
226.121	7.87
226.505	5.77
226.889	16.57
227.273	7.2
227.657	8.37
228.041	11.58
228.425	7.11
228.809	5.6
229.193	4.95
229.577	7.59
229.961	6.08
230.344	3.97
230.728	3.85
231.112	5.41
231.495	4.65
231.879	4.31
232.263	4.93
232.646	4.9
233.03	4.29
233.413	3.77
233.797	4.55
234.18	4.35
234.563	6.07
234.946	6.15
235.33	5.1
235.713	4.9
236.096	5.07
236.479	5.12
236.862	5.24
237.245	4.58
237.628	4.08
238.011	4.85
238.394	5
238.777	7.04
239.16	5.02
239.543	7.8
239.925	6.62
240.308	5.4
240.691	4.63
241.073	5.77
241.456	6.8
241.838	4.66
242.221	5.28
242.603	5.44
242.986	4.91
243.368	5.51
243.75	4.51
244.133	4.27
244.515	4.44
244.897	4.62
245.279	4.46
245.661	4.89
246.043	4.61
246.425	4
246.807	4.38
247.189	4.79
247.571	4.34
247.953	4.57
248.335	4.98
248.717	4.51
249.098	4.11
249.48	4.35
249.862	4.4
250.243	4.59
250.625	4.68
251.006	4.59
251.388	4.64
251.769	4.57
252.151	4.3
252.532	5.55
252.913	4.36
253.295	3.41
253.676	4.74
254.057	4.31
254.438	4.31
254.819	4.62
255.2	4.53
255.581	3.95
255.962	4.89
256.343	5.27
256.724	3.39
257.105	5.52
257.486	4.82
257.867	4.17
258.247	4.77
258.628	3.95
259.009	3.73
259.389	3.62
259.77	4.06
260.15	4.91
260.531	4.65
260.911	4.71
261.292	4.04
261.672	4.43
262.052	4.29
262.432	4.27
262.813	4.18
263.193	4.64
263.573	3.74
263.953	4.62
264.333	3.95
264.713	4.93
265.093	4.2
265.473	5.31
265.853	4.35
266.233	4.67
266.612	5.01
266.992	4.94
267.372	4.49
267.752	4.17
268.131	4.57
268.511	4.53
268.89	4.48
269.27	3.96
269.649	3.69
270.029	4.54
270.408	3.93
270.787	4.5
271.167	4.43
271.546	4.54
271.925	5.04
272.304	4.57
272.683	4.12
273.062	3.67
273.441	4.13
273.82	4.04
274.199	4.2
274.578	4.55
274.957	4.19
275.336	4.58
275.715	4.04
276.093	3.65
276.472	4.14
276.851	4.18
277.229	4.48
277.608	3.97
277.986	3.72
278.365	4.37
278.743	4.33
279.122	3.84
279.5	3.81
279.878	3.91
280.257	4.19
280.635	4.19
281.013	3.8
281.391	3.9
281.769	3.37
282.147	3.75
282.525	4.44
282.903	3.94
283.281	3.88
283.659	4.31
284.037	3.75
284.415	3.43
284.792	3.86
285.17	3.57
285.548	3.4
285.925	3.24
286.303	3.63
286.68	3.28
287.058	3.96
287.435	3.95
287.813	3.62
288.19	3.85
288.567	3.95
288.945	3.99
289.322	4.06
289.699	3.22
290.076	4.42
290.453	3.68
290.83	3.46
291.207	4.19
291.584	3.31
291.961	3.64
292.338	3.68
292.715	3.66
293.092	3.71
293.469	4.1
293.845	3.79
294.222	3.02
294.599	3.62
294.975	4.01
295.352	3.95
295.728	3.78
296.105	3.58
296.481	3.64
296.858	3.67
297.234	3.83
297.61	3.26
297.986	3.12
298.363	3.79
298.739	3.38
299.115	3.51
299.491	3.5
299.867	3.44
300.243	3.79
300.619	3.26
300.995	3.27
301.371	3.6
301.746	3.82
302.122	4.05
302.498	3.2
302.874	3.79
303.249	3.72
303.625	3.68
304	3.69
304.376	2.92
304.751	3.4
305.127	3.08
305.502	3.77
305.878	3.11
306.253	3.53
306.628	3.5
307.003	3.62
307.378	3.82
307.754	3.9
308.129	4
308.504	3.61
308.879	3.47
309.254	4.3
309.629	3.74
310.003	3.14
310.378	3.59
310.753	3.52
311.128	3.56
311.502	3.36
311.877	3.64
312.252	3.17
312.626	3.69
313.001	3.43
313.375	3.39
313.75	3.34
314.124	3.31
314.498	3.34
314.873	3.23
315.247	3.74
315.621	3.69
315.995	3.78
316.369	3.42
316.743	3.49
317.117	3.23
317.491	2.95
317.865	3.33
318.239	3.81
318.613	3.44
318.987	3.16
319.361	2.38
319.734	3.24
320.108	2.97
320.482	3.59
320.855	3.55
321.229	4.05
321.602	3.11
321.976	3.43
322.349	3.91
322.723	3.21
323.096	3.4
323.469	3.27
323.843	3.13
324.216	3.46
324.589	3.54
324.962	3.91
325.335	3.52
325.708	3.42
326.081	3.39
326.454	3.16
326.827	3.68
327.2	3.69
327.573	3.79
327.945	3.34
328.318	3.33
328.691	3.43
329.063	4.09
329.436	2.93
329.809	3.56
330.181	3.29
330.553	3.4
330.926	3.28
331.298	2.98
331.671	3.33
332.043	3.28
332.415	3.55
332.787	3.77
333.159	2.71
333.532	3.8
333.904	3.39
334.276	2.82
334.648	3.51
335.02	3.84
335.391	3.31
335.763	3.77
336.135	3.34
336.507	3.52
336.879	3.52
337.25	2.98
337.622	3.62
337.993	4.09
338.365	3.47
338.736	3.08
339.108	4.08
339.479	3.32
339.851	3.38
340.222	3.1
340.593	3.2
340.964	3.37
341.336	3.9
341.707	3.27
342.078	3.16
342.449	3.7
342.82	3.22
343.191	3.54
343.562	3.58
343.933	3.12
344.303	2.94
344.674	3.8
345.045	3.75
345.416	3.84
345.786	3.38
346.157	3.56
346.527	3.3
346.898	3.67
347.268	3.76
347.639	3.56
348.009	2.93
348.38	3.76
348.75	3.64
349.12	3.36
349.49	3.61
349.861	3.69
350.231	3.57
350.601	3.69
350.971	3.51
351.341	3.03
351.711	4.13
352.081	3.43
352.45	3.35
352.82	3.72
353.19	3.64
353.56	3.8
353.929	3.41
354.299	3.35
354.669	3.76
355.038	3.51
355.408	3.51
355.777	3.44
356.147	3.52
356.516	3.56
356.885	3.55
357.254	3.91
357.624	3.95
357.993	3.34
358.362	3.67
358.731	3.11
359.1	3.33
359.469	3.57
359.838	3.29
360.207	3.59
360.576	3.93
360.945	3.42
361.314	3.52
361.682	3.53
362.051	3.4
362.42	3.39
362.788	3.83
363.157	3.7
363.525	3.28
363.894	3.56
364.262	3.55
364.631	3.54
364.999	3.67
365.367	3.66
365.735	3.57
366.104	3.33
366.472	3.7
366.84	3.63
367.208	3.43
367.576	3.41
367.944	3.8
368.312	3.7
368.68	3.78
369.048	3.56
369.416	3.7
369.783	3.9
370.151	3.7
370.519	3.77
370.886	3.7
371.254	4
371.621	3.83
371.989	3.43
372.356	3.9
372.724	3.84
373.091	3.64
373.458	3.61
373.826	3.52
374.193	3.47
374.56	3.54
374.927	3.76
375.294	3.64
375.661	3.77
376.028	3.81
376.395	3.57
376.762	3.64
377.129	3.78
377.496	3.79
377.863	4.03
378.229	3.64
378.596	3.73
378.963	3.79
379.329	3.79
379.696	3.63
380.062	3.89
380.429	3.4
380.795	3.54
381.161	3.77
381.528	4.18
381.894	3.8
382.26	4.14
382.626	4.03
382.993	3.99
383.359	3.71
383.725	4.17
384.091	3.8
384.457	3.87
384.823	3.8
385.188	3.91
385.554	3.76
385.92	3.77
386.286	3.88
386.651	3.79
387.017	3.98
387.383	3.98
387.748	3.72
388.114	3.67
388.479	3.81
388.845	4
389.21	3.88
389.575	3.58
389.94	3.81
390.306	3.67
390.671	3.94
391.036	3.79
391.401	3.93
391.766	3.88
392.131	3.97
392.496	3.93
392.861	3.9
393.226	4.02
393.591	4.01
393.956	4.02
394.32	4.05
394.685	4
395.05	3.95
395.414	4.28
395.779	3.87
396.143	3.74
396.508	3.91
396.872	3.89
397.236	4.1
397.601	4.07
397.965	3.92
398.329	3.85
398.694	4.05
399.058	3.74
399.422	4.06
399.786	3.88
400.15	3.82
400.514	4.08
400.878	4.22
401.242	4.06
401.605	4.01
401.969	3.71
402.333	3.83
402.697	4.24
403.06	3.88
403.424	3.8
403.787	3.97
404.151	4.04
404.514	4.12
404.878	4.32
405.241	4.16
405.604	3.91
405.968	4.09
406.331	3.8
406.694	4
407.057	3.81
407.42	4.17
407.783	3.99
408.146	4.03
408.509	4
408.872	4.38
409.235	3.88
409.598	4.14
409.961	4.17
410.323	4.19
410.686	3.86
411.049	3.94
411.411	4.13
411.774	4.02
412.136	3.89
412.499	4.09
412.861	3.86
413.223	4.18
413.586	4
413.948	4.12
414.31	4.31
414.672	4.27
415.035	4
415.397	4.06
415.759	4.02
416.121	4.29
416.483	4.37
416.845	4.09
417.206	4.07
417.568	4.19
417.93	4.18
418.292	3.97
418.653	4.02
419.015	4.07
419.377	3.9
419.738	4.06
420.1	3.9
420.461	4.05
420.822	3.93
421.184	4.05
421.545	4.05
421.906	3.93
422.267	3.93
422.629	3.99
422.99	3.92
423.351	3.98
423.712	3.95
424.073	4.01
424.434	3.86
424.795	3.93
425.155	4.07
425.516	3.98
425.877	3.95
426.238	3.8
426.598	4.02
426.959	3.94
427.32	3.94
427.68	4.02
428.041	3.98
428.401	4.03
428.761	4.03
429.122	3.98
429.482	4.13
429.842	4.03
430.202	4.11
430.563	4.26
430.923	4.19
431.283	4.07
431.643	4.3
432.003	4.36
432.363	3.99
432.722	4.07
433.082	4.14
433.442	4.27
433.802	4.46
434.161	4.01
434.521	4.11
434.881	4.1
435.24	4.09
435.6	4.07
435.959	4.13
436.319	4.13
436.678	4.19
437.037	4.1
437.396	4.24
437.756	4.18
438.115	3.98
438.474	4.31
438.833	4.42
439.192	3.94
439.551	4.1
439.91	4.11
440.269	4.14
440.628	4.2
440.987	4.14
441.345	4.17
441.704	4.12
442.063	4.23
442.421	4.03
442.78	4.07
443.138	4.09
443.497	4.09
443.855	4.12
444.214	4.12
444.572	4.02
444.93	4.2
445.288	4.07
445.647	4.39
446.005	4.02
446.363	4.1
446.721	4.21
447.079	4.27
447.437	4.07
447.795	4.12
448.153	4.06
448.51	4.23
448.868	4.11
449.226	4.01
449.584	4.19
449.941	4.11
450.299	4.21
450.656	4.03
451.014	4.25
451.371	4.17
451.729	4.01
452.086	4.13
452.443	4.29
452.801	4.24
453.158	4.35
453.515	4.22
453.872	4.12
454.229	4.31
454.586	4.27
454.943	4.09
455.3	4.21
455.657	4.24
456.014	4.06
456.371	4.1
456.727	4.28
457.084	4.24
457.441	4.14
457.797	4.33
458.154	4.19
458.51	4.41
458.867	4.23
459.223	4.3
459.58	4.17
459.936	4.25
460.292	4.2
460.648	4.2
461.005	4.04
461.361	4.17
461.717	4.01
462.073	4.13
462.429	4.17
462.785	4.14
463.141	4.33
463.496	4.26
463.852	4.25
464.208	4.23
464.564	4.34
464.919	4.28
465.275	4.39
465.631	4.37
465.986	4.24
466.342	4.43
466.697	4.05
467.052	4.18
467.408	4.15
467.763	4.39
468.118	4.59
468.473	4.09
468.829	4.23
469.184	4.18
469.539	4.11
469.894	4.54
470.249	4.15
470.603	4.21
470.958	4.26
471.313	4.34
471.668	4.25
472.023	4.42
472.377	4.2
472.732	4.27
473.086	4.3
473.441	4.34
473.795	4.49
474.15	4.25
474.504	4.15
474.859	4.38
475.213	4.38
475.567	4.46
475.921	4.3
476.275	4.33
476.63	4.43
476.984	4.49
477.338	4.25
477.692	4.26
478.045	4.28
478.399	4.29
478.753	4.43
479.107	4.28
479.461	4.35
479.814	4.43
480.168	4.3
480.521	4.17
480.875	4.32
481.228	4.31
481.582	4.44
481.935	4.23
482.289	4.34
482.642	4.24
482.995	4.23
483.348	4.32
483.701	4.25
484.055	4.15
484.408	4.23
484.761	4.15
485.114	3.93
485.466	4.03
485.819	3.98
486.172	3.92
486.525	3.93
486.878	4
487.23	4.1
487.583	4.07
487.936	4.11
488.288	4.17
488.641	4.19
488.993	4.04
489.345	4.04
489.698	4.03
490.05	4
490.402	4
490.754	4.06
491.107	4.06
491.459	4.15
491.811	4.13
492.163	4.16
492.515	4.3
492.866	4.16
493.218	4.15
493.57	4.03
493.922	4.02
494.274	4.05
494.625	4.13
494.977	4.15
495.328	4.27
495.68	4.25
496.031	4.16
496.383	4.38
496.734	4.29
497.086	4.3
497.437	4.25
497.788	4.21
498.139	4.38
498.49	4.27
498.842	4.12
499.193	4.32
499.544	4.3
499.894	4.22
500.245	4.21
500.596	4.38
500.947	4.23
501.298	4.32
501.648	4.24
501.999	4.28
502.35	4.26
502.7	4.52
503.051	4.3
503.401	4.36
503.752	4.44
504.102	4.34
504.452	4.44
504.803	4.32
505.153	4.38
505.503	4.4
505.853	4.36
506.203	4.28
506.553	4.19
506.903	4.36
507.253	4.4
507.603	4.33
507.953	4.38
508.303	4.16
508.652	4.36
509.002	4.34
509.352	4.33
509.701	4.49
510.051	4.33
510.4	4.25
510.75	4.26
511.099	4.23
511.449	4.24
511.798	4.4
512.147	4.19
512.496	4.25
512.846	4.35
513.195	4.25
513.544	4.28
513.893	4.19
514.242	4.34
514.591	4.24
514.939	4.17
515.288	4.17
515.637	4.24
515.986	4.26
516.334	4.24
516.683	4.31
517.032	4.23
517.38	4.16
517.729	4.35
518.077	4.25
518.426	4.22
518.774	4.27
519.122	4.29
519.47	4.27
519.819	4.25
520.167	4.17
520.515	4.2
520.863	4.18
521.211	4.15
521.559	4.24
521.907	4.21
522.255	4.17
522.602	4.26
522.95	4.18
523.298	4.24
523.645	4.19
523.993	4.22
524.341	4.24
524.688	4.26
525.036	4.24
525.383	4.15
525.73	4.38
526.078	4.29
526.425	4.33
526.772	4.19
527.119	4.21
527.466	4.08
527.814	4.22
528.161	4.17
528.508	4.12
528.854	4.19
529.201	4.13
529.548	4.11
529.895	4.1
530.242	4.05
530.588	3.95
530.935	3.94
531.282	4.02
531.628	4.06
531.975	4.04
532.321	4.09
532.667	4.1
533.014	4.11
533.36	4.15
533.706	4.19
534.052	4.07
534.399	4.06
534.745	3.98
535.091	4.09
535.437	4.09
535.783	4.05
536.129	4.1
536.474	4.14
536.82	4.26
537.166	4.06
537.512	4.22
537.857	4.27
538.203	4.14
538.549	4.15
538.894	4.07
539.239	4.1
539.585	4.18
539.93	4.16
540.276	4.32
540.621	4.19
540.966	4.24
541.311	4.32
541.656	4.3
542.001	4.31
542.346	4.26
542.691	4.12
543.036	4.09
543.381	4.02
543.726	3.99
544.071	4.04
544.415	4.03
544.76	4.05
545.105	4.22
545.449	4.09
545.794	4.17
546.138	4.16
546.483	4.08
546.827	4.22
547.171	4.27
547.516	4.06
547.86	4.27
548.204	4.15
548.548	4.22
548.892	4.12
549.236	4.11
549.58	4.07
549.924	4.08
550.268	4.33
550.612	4.18
550.956	4.32
551.3	4.29
551.643	4.23
551.987	4.18
552.33	4.21
552.674	4.34
553.017	4.27
553.361	4.24
553.704	4.31
554.048	4.21
554.391	4.28
554.734	4.27
555.077	4.22
555.42	4.09
555.764	4.15
556.107	4.26
556.45	4.24
556.793	4.21
557.135	4.12
557.478	4.16
557.821	4.38
558.164	4.33
558.507	4.26
558.849	4.29
559.192	4.43
559.534	4.57
559.877	4.17
560.219	4.23
560.562	4.37
560.904	4.18
561.246	4.31
561.589	4.24
561.931	4.3
562.273	4.33
562.615	4.45
562.957	4.33
563.299	4.29
563.641	4.28
563.983	4.24
564.325	4.2
564.667	4.28
565.008	4.28
565.35	4.26
565.692	4.19
566.033	4.39
566.375	4.18
566.716	4.36
567.058	4.14
567.399	4.29
567.741	4.24
568.082	4.19
568.423	4.26
568.764	4.16
569.105	4.28
569.447	4.1
569.788	4.07
570.129	4.34
570.47	4.29
570.811	4.26
571.151	4.15
571.492	4.25
571.833	4.35
572.174	4.22
572.514	4.18
572.855	4.26
573.195	4.28
573.536	4.15
573.876	4.18
574.217	4.15
574.557	3.98
574.898	4.1
575.238	4.25
575.578	4.22
575.918	4.06
576.258	4.3
576.598	4.26
576.938	4.25
577.278	4.16
577.618	3.97
577.958	4.11
578.298	4.19
578.638	4.25
578.977	4.13
579.317	4.02
579.657	4.13
579.996	4.24
580.336	4.34
580.675	4.2
581.014	4.31
581.354	4.09
581.693	4.13
582.032	4.23
582.372	4.3
582.711	4.12
583.05	4.49
583.389	4.31
583.728	4.19
584.067	4.16
584.406	4.2
584.745	4.42
585.083	4.02
585.422	4.01
585.761	4.2
586.1	4.33
586.438	3.91
586.777	4.21
587.115	4.34
587.454	3.97
587.792	4.15
588.13	4.29
588.469	4.44
588.807	3.9
589.145	3.91
589.483	3.92
589.821	4.04
590.159	4.3
590.497	4.23
590.835	4.23
591.173	3.97
591.511	4.24
591.849	4.16
592.187	4.02
592.524	3.83
592.862	3.96
593.2	4.27
593.537	4.21
593.875	4.16
594.212	4.04
594.55	4.13
594.887	4.31
595.224	4.12
595.561	3.91
595.899	4.22
596.236	4.35
596.573	4.23
596.91	4.04
597.247	4.17
597.584	4.04
597.921	4.22
598.258	4.12
598.594	4.23
598.931	3.95
599.268	3.88
599.604	4.06
599.941	4.11
600.277	4.03
600.614	4.23
600.95	4.05
601.287	3.91
601.623	4.21
601.959	4.31
602.296	4.1
602.632	4.21
602.968	4.02
603.304	4.39
603.64	3.97
603.976	3.98
604.312	4.24
604.648	3.83
604.984	4.15
605.319	4.05
605.655	4.02
605.991	3.94
606.326	4.06
606.662	3.91
606.998	3.81
607.333	4.05
607.668	3.84
608.004	4.14
608.339	3.96
608.674	3.98
609.01	4.09
609.345	4.15
609.68	4.19
610.015	4.21
610.35	4.17
610.685	4.04
611.02	4.15
611.355	3.82
611.689	4.1
612.024	4.01
612.359	4.15
612.694	4.01
613.028	4.29
613.363	4.13
613.697	3.96
614.032	4.37
614.366	4.36
614.7	4.15
615.035	4.23
615.369	4.06
615.703	3.77
616.037	4.15
616.371	4.11
616.705	3.98
617.039	3.94
617.373	4.15
617.707	4.18
618.041	4.17
618.375	4.17
618.709	4.08
619.042	4.17
619.376	4.32
619.71	4.08
620.043	4.65
620.377	3.98
620.71	4.04
621.043	4.47
621.377	4.2
621.71	4.17
622.043	4.16
622.376	4.15
622.709	4.36
623.043	4.16
623.376	3.96
623.709	4.12
624.041	4.15
624.374	3.98
624.707	4.14
625.04	4.36
625.373	4.4
625.705	4.04
626.038	4.04
626.37	3.94
626.703	3.96
627.035	4.3
627.368	4.09
627.7	4.03
628.032	4.12
628.365	4.19
628.697	4.18
629.029	3.9
629.361	3.96
629.693	3.84
630.025	4.06
630.357	4
630.689	3.74
631.021	4.21
631.353	4.32
631.684	3.78
632.016	4.09
632.348	4.35
632.679	3.63
633.011	4.01
633.342	3.66
633.674	4.15
634.005	4.13
634.336	4.41
634.668	4.15
634.999	4.17
635.33	3.75
635.661	4.34
635.992	4.2
636.323	4.43
636.654	4.12
636.985	3.97
637.316	3.97
637.647	4.28
637.977	3.86
638.308	4.05
638.639	4.1
638.969	4.34
639.3	3.87
639.63	4
639.961	4.42
640.291	4.19
640.622	4.24
640.952	4.29
641.282	3.75
641.612	4.39
641.943	4.12
642.273	3.74
642.603	4.3
642.933	4.17
643.263	4.5
643.592	3.83
643.922	4.29
644.252	3.59
644.582	4.08
644.911	4.23
645.241	4.77
645.571	4.64
645.9	3.76
646.23	4
646.559	4.03
646.888	4.64
647.218	4.18
647.547	4
647.876	4.11
648.205	3.74
648.534	3.92
648.863	4.3
649.192	3.68
649.521	4.18
649.85	4.46
650.179	4.61
650.508	3.79
650.837	4.24
651.165	3.83
651.494	3.99
651.822	3.69
652.151	4.16
652.479	4.16
652.808	4.17
653.136	3.94
653.465	4.45
653.793	4.17
654.121	4.43
654.449	4.63
654.777	3.99
655.105	4.49
655.433	4.84
655.761	4.25
656.089	4.41
656.417	4.05
656.745	4.13
657.073	4.02
657.4	5.19
657.728	4.39
658.056	4.34
658.383	4.28
658.711	3.92
659.038	4.44
659.365	4.35
659.693	4.17
660.02	3.99
660.347	4.29
660.674	3.77
661.001	3.46
661.329	4.25
661.656	4.25
661.982	3.88
662.309	4.59
662.636	4.04
662.963	4.11
663.29	4.42
663.616	4.08
663.943	3.97
664.27	4.15
664.596	4.35
664.923	3.94
665.249	4.19
665.576	3.77
665.902	4.51
666.228	4.09
666.554	4.41
666.881	4.21
667.207	4.25
667.533	4.06
667.859	4.33
668.185	4.72
668.511	4.29
668.837	4.77
669.162	4.79
669.488	4.22
669.814	3.55
670.139	4.1
670.465	4.3
670.791	4.74
671.116	3.97
671.442	3.8
671.767	4.04
672.092	4.12
672.418	4.62
672.743	4.21
673.068	4.8
673.393	3.98
673.718	3.99
674.043	4.15
674.368	3.76
674.693	4.25
675.018	4.41
675.343	4.16
675.667	3.85
675.992	4.59
676.317	4.54
676.641	4.33
676.966	4.64
677.29	3.99
677.615	4.27
677.939	4.18
678.264	4.16
678.588	4.39
678.912	4.69
679.236	4.23
679.56	4.18
679.885	4.07
680.209	4.35
680.532	3.73
680.856	4.23
681.18	4.35
681.504	4.48
681.828	4
682.152	4.54
682.475	4.23
682.799	4.15
683.122	3.77
683.446	4.27
683.769	4.31
684.093	4.04
684.416	4.41
684.739	4.09
685.062	3.13
685.386	4.05
685.709	4.41
686.032	4.34
686.355	4.76
686.678	3.91
687.001	4.02
687.324	4.4
687.646	4.38
687.969	4.42
688.292	5.08
688.614	4.16
688.937	4.3
689.26	3.93
689.582	3.84
689.904	3.58
690.227	4.14
690.549	4.24
690.871	4.71
691.194	4.82
691.516	4.26
691.838	4.25
692.16	4.24
692.482	4.41
692.804	4.44
693.126	3.46
693.448	5.16
