Data from 0262_chest_Reflection__2__125.txt Node

Date: Fri Oct 20 21:36:30 CDT 2023
User: ToomeyLab
Spectrometer: FLMS14357
Trigger mode: 0
Integration Time (sec): 1.000000E-2
Scans to average: 100
Electric dark correction enabled: true
Nonlinearity correction enabled: false
Boxcar width: 0
XAxis mode: Wavelengths
Number of Pixels in Spectrum: 2048
>>>>>Begin Spectral Data<<<<<
189.047	49.66
189.435	49.66
189.823	49.66
190.211	-70.52
190.599	100.21
190.987	54.53
191.375	108.24
191.763	285.92
192.151	83.46
192.538	31.78
192.926	-154.6
193.314	232.56
193.702	0.5
194.089	90.82
194.477	240.23
194.864	-347.87
195.252	44.96
195.639	303.36
196.027	-116.68
196.414	122.53
196.801	52.6
197.189	80.96
197.576	13.5
197.963	-27.21
198.351	52.47
198.738	10.03
199.125	38.04
199.512	23.45
199.899	24.09
200.286	-11.04
200.673	28.72
201.06	-29.17
201.447	10.28
201.833	29.97
202.22	14.04
202.607	43.78
202.994	47.04
203.38	11.18
203.767	34.94
204.154	53.88
204.54	28.21
204.927	20.47
205.313	16.45
205.699	39.49
206.086	14.26
206.472	25.22
206.858	50.06
207.245	-4.72
207.631	16.26
208.017	26.26
208.403	34.77
208.789	35.35
209.175	2.35
209.561	16.8
209.947	16.3
210.333	20.75
210.719	27.66
211.105	22.91
211.491	8.36
211.876	17.82
212.262	28.15
212.648	5.06
213.034	9.74
213.419	6.87
213.805	21.67
214.19	21.82
214.576	12.41
214.961	11.44
215.346	43.62
215.732	-4.58
216.117	-33.81
216.502	11.69
216.888	0.59
217.273	12.14
217.658	2.03
218.043	14.64
218.428	17.28
218.813	12.42
219.198	1.06
219.583	-14.16
219.968	1.49
220.353	9.87
220.738	18.51
221.122	6.93
221.507	4.5
221.892	3.66
222.276	14.57
222.661	14.42
223.046	7.28
223.43	15.58
223.815	17.83
224.199	14
224.583	-5.42
224.968	2.24
225.352	8.83
225.736	3.56
226.121	12.63
226.505	5.96
226.889	1.4
227.273	12.24
227.657	11.04
228.041	10.79
228.425	6.18
228.809	11.54
229.193	5.02
229.577	7.19
229.961	4
230.344	4.75
230.728	4
231.112	4.98
231.495	4.64
231.879	4.96
232.263	6.68
232.646	3.66
233.03	3.74
233.413	4.62
233.797	3.97
234.18	3.44
234.563	7.15
234.946	5.54
235.33	6.23
235.713	5.32
236.096	5.74
236.479	4.72
236.862	4.88
237.245	4.36
237.628	3.99
238.011	6.48
238.394	4.71
238.777	7.14
239.16	5.08
239.543	6.32
239.925	6.75
240.308	6.07
240.691	5.51
241.073	6.21
241.456	5.87
241.838	5.04
242.221	4.78
242.603	4.89
242.986	5.02
243.368	4.83
243.75	5.05
244.133	4.7
244.515	4.55
244.897	4.52
245.279	4.71
245.661	4.44
246.043	4.48
246.425	4.4
246.807	5.15
247.189	4.55
247.571	4.1
247.953	4.7
248.335	4.78
248.717	4.19
249.098	4.2
249.48	4.33
249.862	4.52
250.243	4.81
250.625	4.22
251.006	4.66
251.388	4.6
251.769	4.58
252.151	3.86
252.532	4.69
252.913	4.58
253.295	3.85
253.676	5.08
254.057	4.3
254.438	4.48
254.819	4.44
255.2	4.74
255.581	4.64
255.962	4.19
256.343	5.31
256.724	3.54
257.105	4.75
257.486	4.86
257.867	5.17
258.247	4.08
258.628	3.78
259.009	4.18
259.389	4.12
259.77	3.92
260.15	4.06
260.531	4.99
260.911	4.36
261.292	3.93
261.672	4.28
262.052	4.3
262.432	4.17
262.813	4.18
263.193	4.34
263.573	3.87
263.953	4.62
264.333	4.08
264.713	5.09
265.093	4.74
265.473	4.91
265.853	4.73
266.233	4.3
266.612	3.48
266.992	3.82
267.372	4.43
267.752	4.17
268.131	4.69
268.511	4.33
268.89	3.85
269.27	4.19
269.649	3.84
270.029	4.31
270.408	4.54
270.787	4.32
271.167	4.16
271.546	4.69
271.925	4.12
272.304	4.47
272.683	4.46
273.062	4.45
273.441	4.61
273.82	3.98
274.199	4.27
274.578	3.85
274.957	4.95
275.336	4.48
275.715	4.14
276.093	4.09
276.472	4.45
276.851	4.46
277.229	4.57
277.608	3.6
277.986	4.1
278.365	4.43
278.743	3.75
279.122	3.74
279.5	3.96
279.878	3.63
280.257	4.35
280.635	3.97
281.013	4.96
281.391	4.57
281.769	3.7
282.147	3.89
282.525	4.11
282.903	3.57
283.281	3.96
283.659	3.98
284.037	4.31
284.415	3.81
284.792	3.94
285.17	3.99
285.548	3.71
285.925	3.81
286.303	3.56
286.68	3.95
287.058	4.48
287.435	3.95
287.813	3.68
288.19	4.1
288.567	3.94
288.945	4.39
289.322	4.22
289.699	3.65
290.076	4.51
290.453	4.27
290.83	3.44
291.207	4.16
291.584	3.83
291.961	3.92
292.338	3.98
292.715	3.93
293.092	3.95
293.469	4.23
293.845	3.86
294.222	3.84
294.599	3.92
294.975	4.96
295.352	4.49
295.728	4.06
296.105	3.66
296.481	4.23
296.858	4.11
297.234	3.92
297.61	3.87
297.986	3.62
298.363	4.34
298.739	4.25
299.115	4.01
299.491	4.25
299.867	4.42
300.243	4
300.619	4.19
300.995	4.15
301.371	4.23
301.746	4.2
302.122	4.25
302.498	3.8
302.874	4
303.249	4.01
303.625	3.83
304	4.4
304.376	3.85
304.751	3.78
305.127	3.88
305.502	4.71
305.878	3.82
306.253	4.21
306.628	4.04
307.003	4.05
307.378	3.69
307.754	4.53
308.129	4.25
308.504	4.11
308.879	4.08
309.254	4.99
309.629	4.05
310.003	3.83
310.378	4.37
310.753	4.29
311.128	4.32
311.502	4.12
311.877	4.32
312.252	4.31
312.626	4.19
313.001	3.6
313.375	4.11
313.75	4.29
314.124	4.21
314.498	4.05
314.873	3.86
315.247	4
315.621	4.4
315.995	4.16
316.369	4.06
316.743	4.43
317.117	4.12
317.491	3.54
317.865	4.57
318.239	4.73
318.613	4.18
318.987	3.98
319.361	3.69
319.734	3.54
320.108	3.92
320.482	4.51
320.855	4.07
321.229	5.09
321.602	4.14
321.976	4.68
322.349	4.55
322.723	4.17
323.096	4.53
323.469	4.17
323.843	3.77
324.216	4.08
324.589	4.66
324.962	5.26
325.335	4.41
325.708	3.98
326.081	4.27
326.454	4.37
326.827	4.8
327.2	4.49
327.573	4.61
327.945	4.29
328.318	4.04
328.691	4.42
329.063	4.56
329.436	3.78
329.809	4.41
330.181	4.46
330.553	4.57
330.926	4.41
331.298	4.07
331.671	4.06
332.043	3.98
332.415	4.18
332.787	4.65
333.159	4.07
333.532	4.45
333.904	4.35
334.276	4.12
334.648	4.71
335.02	4.36
335.391	4.02
335.763	4.34
336.135	4.3
336.507	4.59
336.879	4.58
337.25	3.83
337.622	4.28
337.993	4.71
338.365	4.33
338.736	4.46
339.108	4.67
339.479	3.7
339.851	4.46
340.222	3.65
340.593	3.96
340.964	4.03
341.336	4.4
341.707	4.44
342.078	4.54
342.449	4.07
342.82	4.25
343.191	4.41
343.562	4.3
343.933	4.02
344.303	4.14
344.674	4.39
345.045	4.68
345.416	4.51
345.786	4.15
346.157	4.36
346.527	4.2
346.898	4.66
347.268	4.26
347.639	4.39
348.009	4.08
348.38	4.4
348.75	4.35
349.12	4.66
349.49	4.24
349.861	4.83
350.231	4.42
350.601	4.46
350.971	4.46
351.341	4.74
351.711	4.68
352.081	4.24
352.45	4.33
352.82	4.51
353.19	4.5
353.56	4.68
353.929	3.99
354.299	4.31
354.669	4.21
355.038	4.3
355.408	4.71
355.777	4.39
356.147	4.38
356.516	3.95
356.885	4.3
357.254	3.96
357.624	4.45
357.993	4.01
358.362	3.93
358.731	3.85
359.1	3.89
359.469	4.24
359.838	4.32
360.207	4.37
360.576	4.6
360.945	4.57
361.314	4.47
361.682	4.56
362.051	4.13
362.42	4.02
362.788	4.62
363.157	4.3
363.525	4
363.894	4.48
364.262	4.32
364.631	4.43
364.999	4.47
365.367	4.29
365.735	4.41
366.104	4.07
366.472	4.46
366.84	4.64
367.208	4.77
367.576	4.36
367.944	4.5
368.312	4.32
368.68	4.57
369.048	4.35
369.416	4.58
369.783	4.86
370.151	4.41
370.519	4.38
370.886	4.45
371.254	4.35
371.621	4.57
371.989	4.13
372.356	4.68
372.724	4.34
373.091	4.47
373.458	4.22
373.826	4.34
374.193	4.26
374.56	4.35
374.927	4.47
375.294	4.41
375.661	4.49
376.028	4.57
376.395	4.67
376.762	4.59
377.129	4.37
377.496	4.54
377.863	4.68
378.229	4.61
378.596	4.78
378.963	4.66
379.329	4.58
379.696	4.45
380.062	4.39
380.429	4.35
380.795	4.25
381.161	4.58
381.528	4.64
381.894	4.52
382.26	4.56
382.626	4.92
382.993	4.57
383.359	4.69
383.725	4.48
384.091	4.74
384.457	4.63
384.823	4.5
385.188	4.87
385.554	4.36
385.92	4.6
386.286	4.69
386.651	4.47
387.017	4.6
387.383	4.48
387.748	4.34
388.114	4.25
388.479	4.61
388.845	4.65
389.21	4.41
389.575	4.25
389.94	4.52
390.306	4.64
390.671	4.58
391.036	4.88
391.401	4.51
391.766	4.84
392.131	4.64
392.496	4.62
392.861	4.6
393.226	4.56
393.591	4.36
393.956	4.59
394.32	4.72
394.685	4.4
395.05	4.68
395.414	4.9
395.779	4.44
396.143	4.54
396.508	4.66
396.872	4.6
397.236	4.64
397.601	4.58
397.965	4.38
398.329	4.56
398.694	4.57
399.058	4.32
399.422	4.55
399.786	4.85
400.15	4.44
400.514	4.5
400.878	4.82
401.242	4.82
401.605	4.78
401.969	4.35
402.333	4.43
402.697	4.65
403.06	4.68
403.424	4.55
403.787	4.66
404.151	4.69
404.514	4.79
404.878	4.75
405.241	4.58
405.604	4.51
405.968	4.71
406.331	4.52
406.694	4.55
407.057	4.51
407.42	4.93
407.783	4.57
408.146	4.61
408.509	4.67
408.872	4.95
409.235	4.52
409.598	4.81
409.961	4.69
410.323	4.78
410.686	4.6
411.049	4.83
411.411	4.64
411.774	4.72
412.136	4.65
412.499	4.84
412.861	4.77
413.223	4.87
413.586	4.87
413.948	4.85
414.31	4.96
414.672	4.65
415.035	4.51
415.397	4.81
415.759	4.79
416.121	4.84
416.483	4.93
416.845	4.76
417.206	4.73
417.568	5.08
417.93	4.92
418.292	4.71
418.653	4.65
419.015	4.64
419.377	4.67
419.738	4.69
420.1	4.61
420.461	4.66
420.822	4.63
421.184	4.61
421.545	4.73
421.906	4.67
422.267	4.7
422.629	4.74
422.99	4.62
423.351	4.68
423.712	4.59
424.073	4.84
424.434	4.68
424.795	4.6
425.155	4.65
425.516	4.68
425.877	4.68
426.238	4.6
426.598	4.74
426.959	4.58
427.32	4.71
427.68	4.82
428.041	4.76
428.401	4.81
428.761	4.74
429.122	4.72
429.482	4.83
429.842	4.87
430.202	4.93
430.563	4.83
430.923	5
431.283	4.76
431.643	5.01
432.003	5.03
432.363	4.68
432.722	4.9
433.082	4.81
433.442	4.93
433.802	5.03
434.161	4.86
434.521	4.99
434.881	4.89
435.24	4.88
435.6	4.8
435.959	4.79
436.319	5.11
436.678	4.96
437.037	4.77
437.396	5.09
437.756	4.88
438.115	4.73
438.474	5.11
438.833	5.02
439.192	4.79
439.551	4.74
439.91	4.83
440.269	5.08
440.628	4.99
440.987	4.92
441.345	4.79
441.704	4.81
442.063	5.07
442.421	4.85
442.78	4.79
443.138	4.8
443.497	4.99
443.855	4.93
444.214	4.95
444.572	4.95
444.93	5.09
445.288	5.02
445.647	5.05
446.005	4.81
446.363	5.01
446.721	5
447.079	4.97
447.437	5.01
447.795	4.79
448.153	4.85
448.51	4.87
448.868	4.87
449.226	4.88
449.584	4.93
449.941	4.92
450.299	4.98
450.656	4.93
451.014	5.15
451.371	4.97
451.729	4.95
452.086	5
452.443	4.88
452.801	4.83
453.158	5.07
453.515	5.17
453.872	5.12
454.229	5.14
454.586	5.14
454.943	5.07
455.3	4.95
455.657	5.08
456.014	4.97
456.371	5.11
456.727	5.18
457.084	5.17
457.441	5.17
457.797	5.22
458.154	5.08
458.51	5.18
458.867	4.99
459.223	5.25
459.58	5.2
459.936	5.06
460.292	5.06
460.648	4.97
461.005	4.89
461.361	5.02
461.717	4.93
462.073	5.03
462.429	5.05
462.785	5.09
463.141	5.18
463.496	5.16
463.852	5.12
464.208	5.25
464.564	5.28
464.919	5.07
465.275	5.26
465.631	5.28
465.986	5.3
466.342	5.23
466.697	5.16
467.052	5.25
467.408	5.14
467.763	5.18
468.118	5.36
468.473	5.26
468.829	5.29
469.184	5.27
469.539	5.29
469.894	5.29
470.249	5.31
470.603	5.22
470.958	5.3
471.313	5.43
471.668	5.22
472.023	5.3
472.377	5.33
472.732	5.2
473.086	5.36
473.441	5.39
473.795	5.49
474.15	5.22
474.504	5.3
474.859	5.48
475.213	5.4
475.567	5.3
475.921	5.31
476.275	5.32
476.63	5.46
476.984	5.45
477.338	5.18
477.692	5.25
478.045	5.26
478.399	5.31
478.753	5.32
479.107	5.26
479.461	5.4
479.814	5.38
480.168	5.65
480.521	5.42
480.875	5.4
481.228	5.43
481.582	5.56
481.935	5.39
482.289	5.4
482.642	5.39
482.995	5.38
483.348	5.42
483.701	5.35
484.055	5.4
484.408	5.31
484.761	5.26
485.114	5.13
485.466	5.14
485.819	5.08
486.172	5.03
486.525	5.05
486.878	5.12
487.23	5.14
487.583	5.18
487.936	5.29
488.288	5.3
488.641	5.33
488.993	5.22
489.345	5.27
489.698	5.24
490.05	5.13
490.402	5.16
490.754	5.23
491.107	5.26
491.459	5.39
491.811	5.5
492.163	5.41
492.515	5.45
492.866	5.48
493.218	5.37
493.57	5.29
493.922	5.26
494.274	5.27
494.625	5.38
494.977	5.37
495.328	5.51
495.68	5.58
496.031	5.43
496.383	5.67
496.734	5.59
497.086	5.52
497.437	5.7
497.788	5.54
498.139	5.74
498.49	5.65
498.842	5.55
499.193	5.58
499.544	5.61
499.894	5.67
500.245	5.5
500.596	5.61
500.947	5.66
501.298	5.58
501.648	5.6
501.999	5.7
502.35	5.63
502.7	5.8
503.051	5.81
503.401	5.76
503.752	5.78
504.102	5.66
504.452	5.78
504.803	5.64
505.153	5.73
505.503	5.79
505.853	5.83
506.203	5.7
506.553	5.77
506.903	5.74
507.253	5.79
507.603	5.72
507.953	5.76
508.303	5.75
508.652	5.96
509.002	5.77
509.352	5.87
509.701	5.98
510.051	5.86
510.4	5.85
510.75	5.86
511.099	5.88
511.449	5.91
511.798	5.87
512.147	5.9
512.496	5.78
512.846	5.78
513.195	5.83
513.544	5.95
513.893	5.81
514.242	5.81
514.591	5.93
514.939	5.93
515.288	5.78
515.637	5.98
515.986	6.02
516.334	5.91
516.683	5.93
517.032	5.89
517.38	5.9
517.729	6.05
518.077	6.1
518.426	6.06
518.774	5.83
519.122	6.09
519.47	6.07
519.819	6
520.167	6.01
520.515	5.98
520.863	6.1
521.211	6.05
521.559	5.99
521.907	6
522.255	6.04
522.602	6.19
522.95	6.1
523.298	6.19
523.645	6.18
523.993	6.18
524.341	6.17
524.688	6.3
525.036	6.26
525.383	6.2
525.73	6.38
526.078	6.27
526.425	6.31
526.772	6.19
527.119	6.21
527.466	6.14
527.814	6.17
528.161	6.24
528.508	6.21
528.854	6.24
529.201	6.2
529.548	6.25
529.895	6.11
530.242	6.11
530.588	6.07
530.935	5.99
531.282	6.09
531.628	6.15
531.975	6.11
532.321	6.22
532.667	6.3
533.014	6.33
533.36	6.36
533.706	6.44
534.052	6.49
534.399	6.42
534.745	6.35
535.091	6.31
535.437	6.34
535.783	6.34
536.129	6.37
536.474	6.46
536.82	6.54
537.166	6.43
537.512	6.63
537.857	6.54
538.203	6.55
538.549	6.65
538.894	6.55
539.239	6.56
539.585	6.52
539.93	6.64
540.276	6.71
540.621	6.9
540.966	6.83
541.311	6.89
541.656	6.82
542.001	6.91
542.346	6.81
542.691	6.7
543.036	6.64
543.381	6.58
543.726	6.59
544.071	6.7
544.415	6.73
544.76	6.74
545.105	6.84
545.449	6.77
545.794	7
546.138	6.79
546.483	6.93
546.827	6.94
547.171	7.01
547.516	6.93
547.86	7.03
548.204	6.93
548.548	7.13
548.892	7.12
549.236	7.09
549.58	7.01
549.924	7.17
550.268	7.15
550.612	7.19
550.956	7.34
551.3	7.16
551.643	7.33
551.987	7.42
552.33	7.28
552.674	7.37
553.017	7.22
553.361	7.44
553.704	7.45
554.048	7.49
554.391	7.43
554.734	7.51
555.077	7.52
555.42	7.55
555.764	7.41
556.107	7.58
556.45	7.53
556.793	7.58
557.135	7.33
557.478	7.46
557.821	7.77
558.164	7.79
558.507	7.77
558.849	8.06
559.192	7.99
559.534	7.93
559.877	7.43
560.219	7.91
560.562	7.9
560.904	7.75
561.246	7.91
561.589	7.91
561.931	8.03
562.273	8
562.615	8.09
562.957	8.13
563.299	7.9
563.641	8.06
563.983	7.98
564.325	7.96
564.667	8.15
565.008	8.16
565.35	8.28
565.692	7.98
566.033	8.25
566.375	8.16
566.716	8.34
567.058	8.09
567.399	8.34
567.741	8.18
568.082	8.26
568.423	8.38
568.764	8.23
569.105	8.37
569.447	8.35
569.788	8.48
570.129	8.41
570.47	8.43
570.811	8.49
571.151	8.43
571.492	8.65
571.833	8.71
572.174	8.8
572.514	8.68
572.855	8.53
573.195	8.79
573.536	8.6
573.876	8.77
574.217	8.62
574.557	8.53
574.898	8.7
575.238	8.65
575.578	8.68
575.918	8.77
576.258	8.96
576.598	8.84
576.938	8.9
577.278	8.99
577.618	8.72
577.958	8.81
578.298	8.86
578.638	9.12
578.977	9.15
579.317	9.03
579.657	9.16
579.996	9.36
580.336	9.21
580.675	9.32
581.014	9.2
581.354	9.32
581.693	9.33
582.032	9.44
582.372	9.4
582.711	9.55
583.05	9.86
583.389	9.55
583.728	9.55
584.067	9.48
584.406	9.68
584.745	9.64
585.083	9.44
585.422	9.69
585.761	9.61
586.1	9.86
586.438	9.57
586.777	9.91
587.115	9.89
587.454	9.71
587.792	9.82
588.13	9.95
588.469	9.95
588.807	9.79
589.145	9.85
589.483	9.93
589.821	9.9
590.159	10.13
590.497	10.09
590.835	10.12
591.173	10.15
591.511	10.13
591.849	10.04
592.187	10.24
592.524	9.89
592.862	10.3
593.2	10.54
593.537	10.15
593.875	10.54
594.212	10.42
594.55	10.52
594.887	10.54
595.224	10.37
595.561	10.13
595.899	10.39
596.236	10.62
596.573	10.69
596.91	10.59
597.247	10.79
597.584	10.57
597.921	10.78
598.258	10.72
598.594	10.85
598.931	10.71
599.268	10.52
599.604	10.83
599.941	10.68
600.277	10.68
600.614	10.96
600.95	10.88
601.287	10.82
601.623	11.05
601.959	10.91
602.296	11.32
602.632	10.98
602.968	11.07
603.304	11.29
603.64	11.1
603.976	11.26
604.312	11.32
604.648	11.3
604.984	11.21
605.319	11.37
605.655	11.24
605.991	11.27
606.326	11.5
606.662	11.26
606.998	11.35
607.333	11.24
607.668	11.32
608.004	11.61
608.339	11.61
608.674	11.63
609.01	11.75
609.345	12.07
609.68	11.82
610.015	11.94
610.35	11.93
610.685	12.16
611.02	12.11
611.355	11.72
611.689	11.66
612.024	12
612.359	11.89
612.694	11.91
613.028	11.92
613.363	12.02
613.697	12.17
614.032	12.25
614.366	12.48
614.7	12.51
615.035	12.48
615.369	12.38
615.703	12.11
616.037	12.63
616.371	12.48
616.705	12.42
617.039	12.44
617.373	12.53
617.707	12.75
618.041	12.84
618.375	12.63
618.709	12.4
619.042	12.71
619.376	12.94
619.71	12.73
620.043	13.07
620.377	12.65
620.71	12.99
621.043	13.12
621.377	13.09
621.71	12.91
622.043	12.87
622.376	13.42
622.709	13.16
623.043	13.31
623.376	12.93
623.709	13.08
624.041	13.05
624.374	13.18
624.707	13.06
625.04	13.5
625.373	13.55
625.705	13.42
626.038	13.69
626.37	13.19
626.703	13.27
627.035	13.41
627.368	13.51
627.7	13.72
628.032	13.62
628.365	13.82
628.697	13.77
629.029	13.71
629.361	13.79
629.693	13.45
630.025	13.76
630.357	13.82
630.689	13.88
631.021	13.94
631.353	14.21
631.684	13.72
632.016	14.32
632.348	13.96
632.679	13.79
633.011	14.35
633.342	14.16
633.674	14.52
634.005	14.15
634.336	14.57
634.668	13.98
634.999	14.32
635.33	14.07
635.661	14.64
635.992	14.74
636.323	14.66
636.654	14.64
636.985	14.38
637.316	14.92
637.647	14.87
637.977	14.33
638.308	14.96
638.639	14.76
638.969	14.76
639.3	14.47
639.63	14.85
639.961	15.36
640.291	14.56
640.622	15.05
640.952	14.94
641.282	15.05
641.612	15.08
641.943	15.12
642.273	14.74
642.603	15.67
642.933	15.12
643.263	15.72
643.592	15.2
643.922	15.57
644.252	15.18
644.582	15.35
644.911	15.64
645.241	15.65
645.571	16.08
645.9	15.61
646.23	15.58
646.559	15.35
646.888	15.95
647.218	15.92
647.547	15.57
647.876	16.2
648.205	15.72
648.534	15.67
648.863	16.11
649.192	15.47
649.521	16.32
649.85	16.17
650.179	16.04
650.508	16.27
650.837	16.41
651.165	16.38
651.494	16.03
651.822	16.41
652.151	16.02
652.479	15.89
652.808	15.63
653.136	15.86
653.465	16.5
653.793	16.33
654.121	17.03
654.449	16.54
654.777	16.15
655.105	16.72
655.433	16.88
655.761	16.9
656.089	17.04
656.417	16.77
656.745	16.75
657.073	16.8
657.4	17.47
657.728	17.08
658.056	16.86
658.383	16.79
658.711	16.74
659.038	17.41
659.365	17.53
659.693	17.21
660.02	16.57
660.347	16.8
660.674	17.29
661.001	17.03
661.329	17.39
661.656	17.36
661.982	17.18
662.309	17.71
662.636	17.43
662.963	17.55
663.29	17.3
663.616	17.71
663.943	17.06
664.27	17.91
664.596	17.8
664.923	17.16
665.249	17.11
665.576	17.5
665.902	17.32
666.228	17.85
666.554	18.05
666.881	17.22
667.207	18.33
667.533	17.93
667.859	18.13
668.185	18.04
668.511	17.88
668.837	18.87
669.162	17.95
669.488	18.29
669.814	17.58
670.139	17.64
670.465	18.18
670.791	18.58
671.116	18.33
671.442	18.39
671.767	18.15
672.092	18.45
672.418	18.26
672.743	18.7
673.068	19.03
673.393	18.54
673.718	18.87
674.043	18.88
674.368	18.78
674.693	19.48
675.018	19.16
675.343	18.65
675.667	18.35
675.992	19.17
676.317	18.57
676.641	19.37
676.966	19.67
677.29	19.18
677.615	20.08
677.939	19.17
678.264	19.12
678.588	18.72
678.912	19.36
679.236	19.59
679.56	18.98
679.885	19.81
680.209	19.42
680.532	19.38
680.856	19.02
681.18	19.75
681.504	19.17
681.828	19.88
682.152	19.68
682.475	19.66
682.799	20.06
683.122	19.47
683.446	19.6
683.769	19.89
684.093	20.23
684.416	19.95
684.739	19.23
685.062	19.33
685.386	20.09
685.709	19.84
686.032	20.4
