Data from 0262_crown_Reflection__1__129.txt Node

Date: Fri Oct 20 21:38:54 CDT 2023
User: ToomeyLab
Spectrometer: FLMS14357
Trigger mode: 0
Integration Time (sec): 1.000000E-2
Scans to average: 100
Electric dark correction enabled: true
Nonlinearity correction enabled: false
Boxcar width: 0
XAxis mode: Wavelengths
Number of Pixels in Spectrum: 2048
>>>>>Begin Spectral Data<<<<<
189.047	13.27
189.435	13.27
189.823	13.27
190.211	218.24
190.599	114.42
190.987	45.84
191.375	262.66
191.763	453.54
192.151	131.97
192.538	-43.54
192.926	134.63
193.314	392.04
193.702	49.26
194.089	166.9
194.477	362.38
194.864	-292.23
195.252	150.97
195.639	-89.69
196.027	-78.91
196.414	6.58
196.801	103.1
197.189	53.75
197.576	-5.31
197.963	3.06
198.351	55.58
198.738	32.36
199.125	32.06
199.512	36.91
199.899	41.29
200.286	19.99
200.673	36.78
201.06	37.22
201.447	24.84
201.833	34.3
202.22	34.09
202.607	68.79
202.994	46.91
203.38	4.19
203.767	16.13
204.154	40.84
204.54	37.75
204.927	20.16
205.313	12.9
205.699	43.24
206.086	32.91
206.472	47.35
206.858	67.17
207.245	9.6
207.631	32.08
208.017	34.79
208.403	1.16
208.789	23.82
209.175	31.06
209.561	17.8
209.947	9.32
210.333	27.14
210.719	4.08
211.105	28.27
211.491	33.8
211.876	11.39
212.262	23.54
212.648	32.17
213.034	0.8
213.419	16.41
213.805	22.43
214.19	3.91
214.576	6.57
214.961	17.32
215.346	29.14
215.732	12.06
216.117	-14.24
216.502	21.92
216.888	13.29
217.273	7.62
217.658	13.45
218.043	5.38
218.428	13.94
218.813	21.4
219.198	2.96
219.583	-11.11
219.968	4.51
220.353	13.39
220.738	15.78
221.122	9.96
221.507	-4.21
221.892	2.98
222.276	3.67
222.661	27.07
223.046	10.82
223.43	17.06
223.815	30.34
224.199	9.26
224.583	-7.03
224.968	3.76
225.352	12.08
225.736	5.09
226.121	8.22
226.505	0.26
226.889	7.21
227.273	3.26
227.657	12.93
228.041	6.5
228.425	3.62
228.809	8.56
229.193	9.43
229.577	8.32
229.961	5.21
230.344	6.47
230.728	5.63
231.112	5.97
231.495	5.1
231.879	5.54
232.263	5.79
232.646	4.28
233.03	4.55
233.413	4.81
233.797	4.41
234.18	5.3
234.563	7.08
234.946	9.52
235.33	4.72
235.713	5.2
236.096	7.17
236.479	6.41
236.862	6.26
237.245	4.39
237.628	4.68
238.011	7.64
238.394	5.63
238.777	8.03
239.16	4.19
239.543	8.24
239.925	6.21
240.308	5.42
240.691	4.9
241.073	7.16
241.456	6.35
241.838	5
242.221	6.12
242.603	5.82
242.986	5.47
243.368	5.72
243.75	5.02
244.133	5.02
244.515	5.06
244.897	4.89
245.279	5.37
245.661	4.26
246.043	4.66
246.425	5.49
246.807	5.9
247.189	4.34
247.571	5.08
247.953	5.18
248.335	5.53
248.717	4.65
249.098	4.57
249.48	4.53
249.862	4.89
250.243	4.88
250.625	4.88
251.006	5.27
251.388	4.88
251.769	4.88
252.151	4.78
252.532	3.84
252.913	4.33
253.295	4.82
253.676	4.68
254.057	4.75
254.438	4.81
254.819	4.7
255.2	5.05
255.581	4.22
255.962	5.32
256.343	4.99
256.724	3.28
257.105	4.74
257.486	5.25
257.867	4.29
258.247	5.01
258.628	4.93
259.009	4.99
259.389	4.33
259.77	4.69
260.15	5.13
260.531	4.86
260.911	4.85
261.292	4.26
261.672	4.61
262.052	4.58
262.432	4.61
262.813	4.4
263.193	4.67
263.573	4.36
263.953	4.57
264.333	5.39
264.713	5.34
265.093	4.86
265.473	5.23
265.853	4.57
266.233	4.46
266.612	4.94
266.992	5.25
267.372	4.42
267.752	4.2
268.131	5.01
268.511	4.69
268.89	4.57
269.27	4.46
269.649	4.05
270.029	4.71
270.408	4.77
270.787	4.58
271.167	5.42
271.546	5.06
271.925	4.92
272.304	4.86
272.683	4.64
273.062	4.58
273.441	4.97
273.82	4.41
274.199	4.38
274.578	4.38
274.957	4.3
275.336	4.2
275.715	4.54
276.093	4.02
276.472	4.9
276.851	4.55
277.229	4.22
277.608	3.98
277.986	4.31
278.365	4.51
278.743	4.37
279.122	4.52
279.5	4.48
279.878	3.63
280.257	4.36
280.635	5.03
281.013	4.75
281.391	4.58
281.769	3.98
282.147	4.16
282.525	4.38
282.903	4.21
283.281	4.14
283.659	4.33
284.037	4.3
284.415	3.75
284.792	4.04
285.17	4.37
285.548	4.03
285.925	4.29
286.303	3.55
286.68	4.1
287.058	4.4
287.435	4.35
287.813	3.49
288.19	4.1
288.567	4.11
288.945	4.2
289.322	4.54
289.699	3.95
290.076	4.83
290.453	4.43
290.83	4.32
291.207	4.16
291.584	3.98
291.961	4
292.338	4.19
292.715	4.16
293.092	3.93
293.469	4.42
293.845	4.07
294.222	4.41
294.599	4.08
294.975	5.23
295.352	4.5
295.728	3.95
296.105	4.31
296.481	4.1
296.858	4.21
297.234	4.34
297.61	4.14
297.986	3.77
298.363	4.45
298.739	4.24
299.115	3.92
299.491	3.95
299.867	4.01
300.243	4.27
300.619	4.24
300.995	3.97
301.371	4.65
301.746	4.18
302.122	3.89
302.498	3.58
302.874	3.92
303.249	3.98
303.625	3.91
304	4.24
304.376	3.5
304.751	3.61
305.127	3.77
305.502	4.64
305.878	3.7
306.253	4.12
306.628	3.98
307.003	4.3
307.378	4.05
307.754	3.88
308.129	4.43
308.504	3.85
308.879	4.35
309.254	4.55
309.629	3.64
310.003	3.41
310.378	4.49
310.753	4.51
311.128	4.11
311.502	3.75
311.877	4
312.252	3.61
312.626	3.94
313.001	3.61
313.375	3.94
313.75	4.06
314.124	3.72
314.498	3.84
314.873	3.54
315.247	3.99
315.621	4.15
315.995	4.17
316.369	3.4
316.743	4.06
317.117	4.06
317.491	2.94
317.865	4.24
318.239	4.09
318.613	3.99
318.987	3.64
319.361	3.18
319.734	3.55
320.108	3.8
320.482	4.47
320.855	4.03
321.229	4.11
321.602	4
321.976	3.83
322.349	4.48
322.723	3.87
323.096	3.92
323.469	3.78
323.843	4.45
324.216	3.68
324.589	3.87
324.962	4.45
325.335	4.05
325.708	3.63
326.081	4.03
326.454	3.96
326.827	4.13
327.2	4.24
327.573	3.89
327.945	3.36
328.318	3.43
328.691	3.53
329.063	4.37
329.436	3.34
329.809	4.63
330.181	4.05
330.553	4.1
330.926	3.91
331.298	3.6
331.671	3.57
332.043	3.37
332.415	3.59
332.787	4.13
333.159	3.45
333.532	3.76
333.904	3.68
334.276	3.51
334.648	3.61
335.02	4.01
335.391	3.89
335.763	4.2
336.135	4.5
336.507	3.7
336.879	3.82
337.25	3.98
337.622	4.17
337.993	4.21
338.365	3.97
338.736	4.03
339.108	4.11
339.479	4.02
339.851	4.07
340.222	3.3
340.593	3.04
340.964	3.74
341.336	3.81
341.707	3.78
342.078	4.21
342.449	3.44
342.82	3.56
343.191	3.54
343.562	3.53
343.933	3.92
344.303	3.55
344.674	3.97
345.045	4.21
345.416	4.05
345.786	3.62
346.157	4
346.527	3.55
346.898	3.79
347.268	3.72
347.639	4.15
348.009	3.63
348.38	3.78
348.75	3.8
349.12	3.87
349.49	3.65
349.861	4.04
350.231	3.63
350.601	3.76
350.971	4.15
351.341	3.37
351.711	4.16
352.081	3.85
352.45	4.08
352.82	3.75
353.19	4.04
353.56	3.69
353.929	3.73
354.299	3.51
354.669	3.55
355.038	4.14
355.408	3.66
355.777	3.76
356.147	3.92
356.516	3.53
356.885	3.82
357.254	3.73
357.624	3.96
357.993	3.95
358.362	3.74
358.731	3.63
359.1	3.37
359.469	3.63
359.838	3.94
360.207	3.84
360.576	4.25
360.945	3.28
361.314	4.01
361.682	3.86
362.051	3.4
362.42	3.87
362.788	3.99
363.157	3.85
363.525	3.65
363.894	3.76
364.262	3.64
364.631	3.84
364.999	3.96
365.367	3.8
365.735	3.47
366.104	3.75
366.472	3.98
366.84	4.08
367.208	3.81
367.576	3.94
367.944	3.88
368.312	3.96
368.68	3.69
369.048	3.78
369.416	4.14
369.783	4.11
370.151	3.74
370.519	3.72
370.886	4.16
371.254	4.25
371.621	4.44
371.989	3.6
372.356	4.04
372.724	4.03
373.091	4.12
373.458	3.7
373.826	4.21
374.193	3.46
374.56	3.98
374.927	3.99
375.294	4.05
375.661	3.82
376.028	4.03
376.395	3.89
376.762	4.21
377.129	4.01
377.496	3.78
377.863	4.2
378.229	4.18
378.596	4.21
378.963	4.25
379.329	3.84
379.696	4.08
380.062	4.05
380.429	3.81
380.795	3.76
381.161	3.78
381.528	4.55
381.894	3.92
382.26	4.2
382.626	4.37
382.993	4.12
383.359	3.85
383.725	4.28
384.091	4.03
384.457	4
384.823	3.79
385.188	4.05
385.554	3.96
385.92	4.09
386.286	4.51
386.651	4.15
387.017	4.11
387.383	4.17
387.748	3.92
388.114	3.76
388.479	3.97
388.845	4.37
389.21	3.99
389.575	4.08
389.94	4
390.306	4.07
390.671	4.05
391.036	3.94
391.401	4.31
391.766	4.3
392.131	3.97
392.496	4.04
392.861	4.18
393.226	4.24
393.591	4.04
393.956	4.19
394.32	4.2
394.685	4.05
395.05	4.2
395.414	4.19
395.779	4.1
396.143	4.1
396.508	4.01
396.872	4.2
397.236	4.1
397.601	4.1
397.965	3.91
398.329	3.87
398.694	4.18
399.058	3.8
399.422	4.01
399.786	4.2
400.15	4.22
400.514	4.08
400.878	4.44
401.242	4.34
401.605	4.47
401.969	3.93
402.333	3.99
402.697	4.34
403.06	4.28
403.424	4.07
403.787	4.23
404.151	4.33
404.514	4.09
404.878	4.37
405.241	4.21
405.604	4.21
405.968	4.21
406.331	4.15
406.694	3.99
407.057	4.21
407.42	4.39
407.783	4.3
408.146	4.26
408.509	4.27
408.872	4.58
409.235	4.18
409.598	4.18
409.961	4.25
410.323	4.38
410.686	4
411.049	4.22
411.411	4.09
411.774	4.36
412.136	4.3
412.499	4.16
412.861	4.37
413.223	4.35
413.586	4.32
413.948	4.4
414.31	4.48
414.672	4.11
415.035	4.56
415.397	4.38
415.759	4.31
416.121	4.28
416.483	4.34
416.845	4.24
417.206	4.44
417.568	4.33
417.93	4.4
418.292	4.04
418.653	4.18
419.015	4.18
419.377	4.14
419.738	4.19
420.1	4.33
420.461	4.21
420.822	4.2
421.184	4.22
421.545	4.35
421.906	4.2
422.267	4.27
422.629	4.28
422.99	4.06
423.351	4.09
423.712	4.13
424.073	4.23
424.434	4.2
424.795	4.23
425.155	4.26
425.516	4.21
425.877	4.24
426.238	4.12
426.598	4.24
426.959	4.07
427.32	4.21
427.68	4.26
428.041	4.18
428.401	4.28
428.761	4.22
429.122	4.41
429.482	4.35
429.842	4.33
430.202	4.31
430.563	4.24
430.923	4.7
431.283	4.43
431.643	4.48
432.003	4.47
432.363	4.41
432.722	4.25
433.082	4.34
433.442	4.3
433.802	4.49
434.161	4.28
434.521	4.4
434.881	4.4
435.24	4.44
435.6	4.44
435.959	4.27
436.319	4.34
436.678	4.37
437.037	4.26
437.396	4.39
437.756	4.47
438.115	4.26
438.474	4.45
438.833	4.37
439.192	4.32
439.551	4.3
439.91	4.42
440.269	4.31
440.628	4.38
440.987	4.45
441.345	4.31
441.704	4.34
442.063	4.39
442.421	4.32
442.78	4.24
443.138	4.35
443.497	4.39
443.855	4.37
444.214	4.47
444.572	4.32
444.93	4.48
445.288	4.53
445.647	4.62
446.005	4.24
446.363	4.27
446.721	4.48
447.079	4.57
447.437	4.21
447.795	4.33
448.153	4.3
448.51	4.41
448.868	4.41
449.226	4.42
449.584	4.35
449.941	4.43
450.299	4.45
450.656	4.36
451.014	4.48
451.371	4.43
451.729	4.29
452.086	4.43
452.443	4.54
452.801	4.47
453.158	4.63
453.515	4.35
453.872	4.4
454.229	4.6
454.586	4.63
454.943	4.45
455.3	4.43
455.657	4.6
456.014	4.53
456.371	4.49
456.727	4.58
457.084	4.63
457.441	4.57
457.797	4.54
458.154	4.6
458.51	4.61
458.867	4.51
459.223	4.55
459.58	4.47
459.936	4.72
460.292	4.67
460.648	4.36
461.005	4.31
461.361	4.62
461.717	4.4
462.073	4.48
462.429	4.43
462.785	4.45
463.141	4.63
463.496	4.49
463.852	4.53
464.208	4.6
464.564	4.65
464.919	4.54
465.275	4.76
465.631	4.81
465.986	4.57
466.342	4.78
466.697	4.61
467.052	4.57
467.408	4.56
467.763	4.61
468.118	4.7
468.473	4.78
468.829	4.59
469.184	4.67
469.539	4.53
469.894	4.62
470.249	4.6
470.603	4.52
470.958	4.81
471.313	4.7
471.668	4.67
472.023	4.77
472.377	4.65
472.732	4.66
473.086	4.73
473.441	4.7
473.795	4.92
474.15	4.68
474.504	4.68
474.859	4.75
475.213	4.78
475.567	4.67
475.921	4.67
476.275	4.72
476.63	4.95
476.984	4.77
477.338	4.67
477.692	4.66
478.045	4.81
478.399	4.83
478.753	4.74
479.107	4.61
479.461	4.75
479.814	4.81
480.168	4.74
480.521	4.78
480.875	4.66
481.228	4.76
481.582	4.78
481.935	4.75
482.289	4.66
482.642	4.61
482.995	4.62
483.348	4.61
483.701	4.73
484.055	4.57
484.408	4.56
484.761	4.51
485.114	4.51
485.466	4.4
485.819	4.34
486.172	4.31
486.525	4.33
486.878	4.41
487.23	4.44
487.583	4.53
487.936	4.5
488.288	4.51
488.641	4.66
488.993	4.44
489.345	4.46
489.698	4.42
490.05	4.42
490.402	4.39
490.754	4.45
491.107	4.53
491.459	4.55
491.811	4.65
492.163	4.6
492.515	4.56
492.866	4.67
493.218	4.48
493.57	4.5
493.922	4.45
494.274	4.51
494.625	4.51
494.977	4.54
495.328	4.68
495.68	4.64
496.031	4.59
496.383	4.87
496.734	4.69
497.086	4.77
497.437	4.76
497.788	4.72
498.139	4.79
498.49	4.64
498.842	4.55
499.193	4.68
499.544	4.68
499.894	4.72
500.245	4.7
500.596	4.74
500.947	4.7
501.298	4.68
501.648	4.66
501.999	4.78
502.35	4.68
502.7	4.93
503.051	4.82
503.401	4.86
503.752	4.88
504.102	4.76
504.452	4.71
504.803	4.77
505.153	4.77
505.503	4.9
505.853	4.84
506.203	4.72
506.553	4.81
506.903	4.73
507.253	4.79
507.603	4.77
507.953	4.91
508.303	4.66
508.652	4.9
509.002	4.83
509.352	4.94
509.701	4.79
510.051	4.71
510.4	4.78
510.75	4.8
511.099	4.74
511.449	4.8
511.798	4.79
512.147	4.77
512.496	4.83
512.846	4.82
513.195	4.83
513.544	4.81
513.893	4.8
514.242	4.84
514.591	4.78
514.939	4.82
515.288	4.69
515.637	4.83
515.986	4.92
516.334	4.78
516.683	4.92
517.032	4.73
517.38	4.77
517.729	4.88
518.077	4.86
518.426	4.81
518.774	4.67
519.122	4.82
519.47	4.78
519.819	4.78
520.167	4.75
520.515	4.79
520.863	4.77
521.211	4.72
521.559	4.75
521.907	4.78
522.255	4.87
522.602	4.86
522.95	4.81
523.298	4.87
523.645	4.89
523.993	4.83
524.341	4.83
524.688	4.87
525.036	4.88
525.383	4.66
525.73	5.06
526.078	4.8
526.425	4.97
526.772	4.82
527.119	4.84
527.466	4.81
527.814	4.78
528.161	4.75
528.508	4.83
528.854	4.79
529.201	4.72
529.548	4.81
529.895	4.7
530.242	4.67
530.588	4.59
530.935	4.56
531.282	4.62
531.628	4.69
531.975	4.65
532.321	4.7
532.667	4.76
533.014	4.82
533.36	4.83
533.706	4.81
534.052	4.86
534.399	4.75
534.745	4.68
535.091	4.7
535.437	4.73
535.783	4.66
536.129	4.78
536.474	4.84
536.82	4.84
537.166	4.83
537.512	4.85
537.857	4.87
538.203	4.83
538.549	4.87
538.894	4.8
539.239	4.85
539.585	4.8
539.93	4.84
540.276	4.96
540.621	4.93
540.966	4.9
541.311	4.97
541.656	4.91
542.001	4.91
542.346	4.94
542.691	4.85
543.036	4.8
543.381	4.68
543.726	4.68
544.071	4.73
544.415	4.77
544.76	4.83
545.105	4.82
545.449	4.81
545.794	4.96
546.138	4.78
546.483	4.83
546.827	4.94
547.171	4.88
547.516	4.87
547.86	5.07
548.204	4.71
548.548	4.91
548.892	4.9
549.236	4.91
549.58	4.75
549.924	4.91
550.268	4.87
550.612	5.05
550.956	5.16
551.3	5.02
551.643	4.89
551.987	5.04
552.33	5.07
552.674	4.91
553.017	4.94
553.361	4.95
553.704	5.06
554.048	5.02
554.391	4.99
554.734	5.05
555.077	4.9
555.42	4.86
555.764	4.99
556.107	5.21
556.45	4.92
556.793	4.85
557.135	4.97
557.478	4.96
557.821	5.13
558.164	5.23
558.507	5.05
558.849	5.34
559.192	5.07
559.534	5.16
559.877	4.91
560.219	5.15
560.562	5.16
560.904	5
561.246	5.05
561.589	5.04
561.931	5.09
562.273	5.21
562.615	5.19
562.957	5.12
563.299	5.02
563.641	5.23
563.983	4.85
564.325	4.94
564.667	5.17
565.008	5.12
565.35	5.2
565.692	5.08
566.033	5.09
566.375	5.27
566.716	5.16
567.058	5.08
567.399	5.2
567.741	4.85
568.082	5.13
568.423	5.01
568.764	4.88
569.105	5.14
569.447	5.01
569.788	5.12
570.129	5.07
570.47	5.21
570.811	5.21
571.151	5.04
571.492	5.16
571.833	5.14
572.174	5.16
572.514	5.11
572.855	5.03
573.195	5.23
573.536	4.83
573.876	5.07
574.217	4.96
574.557	4.98
574.898	5
575.238	5.05
575.578	5.11
575.918	4.9
576.258	5.08
576.598	5.02
576.938	4.93
577.278	5.02
577.618	4.82
577.958	5.03
578.298	4.83
578.638	5.1
578.977	5.23
579.317	5.12
579.657	5.2
579.996	5.19
580.336	5.24
580.675	5.07
581.014	5.15
581.354	5.1
581.693	5.19
582.032	5.26
582.372	5.14
582.711	5.05
583.05	5.17
583.389	5.24
583.728	5.03
584.067	5.07
584.406	5.12
584.745	5.18
585.083	5.27
585.422	5.16
585.761	5.08
586.1	5.28
586.438	4.82
586.777	5.13
587.115	5.21
587.454	5.14
587.792	5.18
588.13	5.19
588.469	5.17
588.807	4.83
589.145	5.14
589.483	4.99
589.821	5.11
590.159	5.25
590.497	5.11
590.835	5.22
591.173	5.2
591.511	5.09
591.849	5.15
592.187	5.15
592.524	4.99
592.862	5.09
593.2	5.12
593.537	5.09
593.875	5.13
594.212	5.1
594.55	5.11
594.887	5.38
595.224	5.07
595.561	4.84
595.899	5.08
596.236	5.27
596.573	5.19
596.91	5.24
597.247	5.17
597.584	4.79
597.921	5.18
598.258	5.09
598.594	5.23
598.931	5.03
599.268	4.93
599.604	5.24
599.941	5.07
600.277	4.92
600.614	5.16
600.95	5.07
601.287	5.19
601.623	5.21
601.959	5.02
602.296	4.99
602.632	5.21
602.968	4.95
603.304	5.23
603.64	5.06
603.976	5.17
604.312	5.56
604.648	5.23
604.984	5.35
605.319	5.15
605.655	5.13
605.991	4.96
606.326	5.26
606.662	5.09
606.998	4.96
607.333	4.98
607.668	5.06
608.004	5.06
608.339	5.04
608.674	5.16
609.01	5.04
609.345	5.27
609.68	5.48
610.015	5.07
610.35	5.43
610.685	5.35
611.02	5.13
611.355	5.06
611.689	5.12
612.024	5.04
612.359	5.33
612.694	5
613.028	5.14
613.363	5.05
613.697	5.09
614.032	5.47
614.366	5.27
614.7	5.29
615.035	5.17
615.369	5.29
615.703	4.9
616.037	5.2
616.371	5.09
616.705	5.26
617.039	5.21
617.373	5.17
617.707	5.22
618.041	5.46
618.375	5.07
618.709	5.23
619.042	4.94
619.376	5.41
619.71	5.38
620.043	5.28
620.377	4.93
620.71	5.41
621.043	5.47
621.377	5.07
621.71	5.19
622.043	5.59
622.376	5.22
622.709	5.66
623.043	5.43
623.376	4.99
623.709	5.11
624.041	5.21
624.374	5.08
624.707	5.13
625.04	5.56
625.373	5.24
625.705	5.14
626.038	5.31
626.37	4.76
626.703	5.11
627.035	4.86
627.368	5.05
627.7	5.53
628.032	5.1
628.365	5.44
628.697	5.39
629.029	5.03
629.361	5.14
629.693	5.11
630.025	5.24
630.357	5.22
630.689	5.2
631.021	5.52
631.353	5.56
631.684	5.19
632.016	5.44
632.348	5.18
632.679	5.31
633.011	5.39
633.342	5.24
633.674	5.19
634.005	4.85
634.336	6
634.668	5.22
634.999	5.05
635.33	4.81
635.661	5.36
635.992	5.22
636.323	5.21
636.654	5.23
636.985	5.01
637.316	5.19
637.647	5.24
637.977	5.11
638.308	5.32
638.639	5.54
638.969	5.28
639.3	5.04
639.63	4.99
639.961	5.53
640.291	5.18
640.622	5.1
640.952	5.45
641.282	4.91
641.612	5.32
641.943	5.6
642.273	5.41
642.603	5.35
642.933	5.5
643.263	5.3
643.592	5.34
643.922	6.02
644.252	5.25
644.582	5.05
644.911	5.22
645.241	5.73
645.571	5.95
645.9	5.16
646.23	5.28
646.559	5.26
646.888	5.5
647.218	5.39
647.547	5
647.876	5.11
648.205	5.17
648.534	4.84
648.863	5.3
649.192	5.32
649.521	5.52
649.85	5.28
650.179	5.2
650.508	5.47
650.837	5.36
651.165	5.41
651.494	5.25
651.822	5.51
652.151	5.57
652.479	5.47
652.808	5.27
653.136	5.05
653.465	5.36
653.793	5.47
654.121	5.72
654.449	5.75
654.777	5.27
655.105	5.33
655.433	5.55
655.761	5.49
656.089	5.53
656.417	5.85
656.745	5.5
657.073	5.21
657.4	6.44
657.728	5.6
658.056	5.51
658.383	5.57
658.711	5.54
659.038	5.68
659.365	5.6
659.693	5.72
660.02	5.53
660.347	5.33
660.674	5.19
661.001	5.19
661.329	5.45
661.656	5.43
661.982	5.23
662.309	5.38
662.636	5.39
662.963	5.21
663.29	5.42
663.616	5.82
663.943	5.3
664.27	6.05
664.596	5.88
664.923	5.71
665.249	5.69
665.576	5.59
665.902	5.35
666.228	5.99
666.554	5.49
666.881	4.94
667.207	5.65
667.533	5.5
667.859	5.64
668.185	6.07
668.511	5.69
668.837	6.54
669.162	6.28
669.488	5.78
669.814	5.03
670.139	5.75
670.465	5.41
670.791	5.71
671.116	5.45
671.442	5.49
671.767	5.81
672.092	5.78
672.418	5.34
672.743	5.6
673.068	6.07
673.393	5.52
673.718	5.3
674.043	5.08
674.368	5.34
674.693	5.8
675.018	6.04
675.343	5.69
675.667	5.8
675.992	5.57
676.317	5.74
676.641	6.14
676.966	5.82
677.29	6.12
677.615	5.6
677.939	5.81
678.264	5.68
678.588	5.79
678.912	5.42
679.236	6.21
679.56	5.02
679.885	5.62
680.209	5.88
680.532	5.73
680.856	5.71
681.18	5.74
681.504	5.59
681.828	5.64
682.152	5.68
682.475	5.44
682.799	5.69
683.122	5.45
683.446	5.6
683.769	5.54
684.093	5.3
684.416	5.45
684.739	4.94
685.062	5.19
685.386	5.06
685.709	5.36
686.032	6.06
686.355	6.18
686.678	6.16
687.001	6.05
687.324	5.33
687.646	5.79
687.969	5.96
688.292	6.25
688.614	6.45
688.937	5.57
689.26	5.61
689.582	5.59
689.904	5.76
690.227	5.61
690.549	5.8
690.871	5.78
691.194	6.25
691.516	5.91
691.838	6
692.16	5.37
692.482	5.43
692.804	5.31
693.126	5.53
693.448	6.73
