Data from 0262_forehead_Reflection__2__135.txt Node

Date: Fri Oct 20 21:40:18 CDT 2023
User: ToomeyLab
Spectrometer: FLMS14357
Trigger mode: 0
Integration Time (sec): 1.000000E-2
Scans to average: 100
Electric dark correction enabled: true
Nonlinearity correction enabled: false
Boxcar width: 0
XAxis mode: Wavelengths
Number of Pixels in Spectrum: 2048
>>>>>Begin Spectral Data<<<<<
189.047	-24.15
189.435	-24.15
189.823	-24.15
190.211	92.38
190.599	-49.13
190.987	75.03
191.375	227.68
191.763	592.92
192.151	138.22
192.538	-30.23
192.926	23.37
193.314	93.28
193.702	-56.49
194.089	-13.27
194.477	459.19
194.864	-64.91
195.252	50.63
195.639	107.66
196.027	-69.14
196.414	260.84
196.801	123.23
197.189	-0.68
197.576	26.17
197.963	4.75
198.351	43.07
198.738	50.11
199.125	51.57
199.512	33.25
199.899	55.97
200.286	7.42
200.673	56.16
201.06	17.12
201.447	18.88
201.833	30.63
202.22	19.03
202.607	81.27
202.994	42.78
203.38	19
203.767	25.22
204.154	46.38
204.54	59.07
204.927	44.01
205.313	1.92
205.699	41.51
206.086	38.53
206.472	37.99
206.858	24.42
207.245	38.53
207.631	56.32
208.017	25.76
208.403	17.35
208.789	31.43
209.175	16.56
209.561	37.36
209.947	1.53
210.333	36.7
210.719	20.83
211.105	20.9
211.491	42.19
211.876	15.16
212.262	7.09
212.648	19.59
213.034	17.81
213.419	38.88
213.805	31.28
214.19	15.59
214.576	14.01
214.961	47.71
215.346	20.56
215.732	9.95
216.117	5.14
216.502	20.11
216.888	34
217.273	2.99
217.658	17.09
218.043	23.49
218.428	26.71
218.813	16.73
219.198	7.2
219.583	8.42
219.968	-8.53
220.353	19.35
220.738	13.52
221.122	11.07
221.507	6.86
221.892	0.36
222.276	17.79
222.661	24.75
223.046	17.65
223.43	10.33
223.815	14.08
224.199	21.81
224.583	2.25
224.968	2.49
225.352	2.7
225.736	5.91
226.121	9
226.505	0.36
226.889	9.69
227.273	14.85
227.657	12.14
228.041	13.39
228.425	3.4
228.809	5.85
229.193	4.36
229.577	5.9
229.961	3.5
230.344	3.94
230.728	2.58
231.112	4.19
231.495	3.33
231.879	3.51
232.263	4.4
232.646	3.54
233.03	4.41
233.413	3.82
233.797	3.82
234.18	4.22
234.563	6.88
234.946	5.95
235.33	3.32
235.713	3.38
236.096	5.4
236.479	4.13
236.862	4.14
237.245	4.06
237.628	4.23
238.011	6.2
238.394	3.79
238.777	4.94
239.16	5.32
239.543	5.06
239.925	5.14
240.308	5.8
240.691	4.26
241.073	6.62
241.456	5.37
241.838	3.72
242.221	3.44
242.603	4.21
242.986	4.37
243.368	4.31
243.75	3.87
244.133	3
244.515	2.83
244.897	3.23
245.279	3.68
245.661	3.12
246.043	2.89
246.425	2.98
246.807	3.34
247.189	3.34
247.571	3.05
247.953	4.24
248.335	3.42
248.717	3.07
249.098	2.98
249.48	2.91
249.862	3.39
250.243	3.55
250.625	3.39
251.006	3.51
251.388	3.13
251.769	3.6
252.151	3.44
252.532	4.14
252.913	4.07
253.295	2.48
253.676	3.94
254.057	3.37
254.438	3.14
254.819	3.94
255.2	3.78
255.581	3.33
255.962	4
256.343	3.84
256.724	3.59
257.105	2.74
257.486	3.25
257.867	4.48
258.247	3.82
258.628	3.67
259.009	3.79
259.389	3.52
259.77	3.08
260.15	4.07
260.531	3.31
260.911	3.37
261.292	3.35
261.672	3.3
262.052	3.33
262.432	3.08
262.813	3.28
263.193	3.4
263.573	3.32
263.953	3.35
264.333	4.21
264.713	3.39
265.093	4.06
265.473	3.65
265.853	3.32
266.233	3.88
266.612	3.22
266.992	3.59
267.372	3.57
267.752	2.96
268.131	3.8
268.511	3.24
268.89	3.37
269.27	3.25
269.649	2.72
270.029	3.27
270.408	3.89
270.787	3.66
271.167	3.79
271.546	3.7
271.925	4
272.304	3.75
272.683	3.38
273.062	3.88
273.441	3.66
273.82	3.4
274.199	3.53
274.578	3.28
274.957	3.81
275.336	3.57
275.715	3.45
276.093	3.25
276.472	3.26
276.851	4.12
277.229	3.16
277.608	3.15
277.986	3.05
278.365	3.81
278.743	2.99
279.122	3.66
279.5	3.47
279.878	3.13
280.257	3.65
280.635	3.61
281.013	3.57
281.391	3.56
281.769	2.86
282.147	3.11
282.525	3.59
282.903	3.33
283.281	3.78
283.659	3.27
284.037	3.01
284.415	2.53
284.792	2.78
285.17	3.53
285.548	3.46
285.925	2.91
286.303	3.29
286.68	3.05
287.058	3.74
287.435	3.76
287.813	2.87
288.19	3.23
288.567	3.29
288.945	3.71
289.322	3.84
289.699	3.06
290.076	4.01
290.453	3.72
290.83	3.39
291.207	3.64
291.584	3.5
291.961	3.4
292.338	3.24
292.715	3.41
293.092	3.48
293.469	3.91
293.845	3.43
294.222	3.67
294.599	3.55
294.975	3.84
295.352	4.01
295.728	4.24
296.105	3.81
296.481	3.5
296.858	4.06
297.234	3.91
297.61	3.77
297.986	3.47
298.363	3.85
298.739	4.17
299.115	3.58
299.491	3.69
299.867	4.07
300.243	3.98
300.619	4.25
300.995	3.73
301.371	3.93
301.746	3.71
302.122	4.53
302.498	3.69
302.874	3.87
303.249	3.96
303.625	4.28
304	4.41
304.376	3.88
304.751	3.96
305.127	3.81
305.502	5.15
305.878	4.59
306.253	4.66
306.628	4.6
307.003	4.44
307.378	4.73
307.754	4.55
308.129	4.73
308.504	5.09
308.879	4.65
309.254	4.64
309.629	4.29
310.003	3.96
310.378	5.16
310.753	4.69
311.128	5.42
311.502	4.6
311.877	4.63
312.252	4.7
312.626	4.92
313.001	5.01
313.375	4.97
313.75	4.85
314.124	4.63
314.498	4.79
314.873	4.51
315.247	5.08
315.621	5.3
315.995	5.75
316.369	4.85
316.743	4.94
317.117	5.23
317.491	4.48
317.865	5.4
318.239	5.81
318.613	5.21
318.987	5.09
319.361	4.63
319.734	5.45
320.108	5.01
320.482	5.91
320.855	5.75
321.229	5.83
321.602	5.42
321.976	5.15
322.349	6.2
322.723	5.53
323.096	5.94
323.469	5.83
323.843	5.84
324.216	5.56
324.589	5.64
324.962	5.94
325.335	5.84
325.708	5.63
326.081	6.02
326.454	5.89
326.827	6.14
327.2	6.06
327.573	5.98
327.945	5.51
328.318	5.6
328.691	5.63
329.063	6.11
329.436	5.81
329.809	6.53
330.181	5.98
330.553	6.42
330.926	5.98
331.298	5.96
331.671	5.49
332.043	6.16
332.415	6.42
332.787	6.67
333.159	6.42
333.532	6.28
333.904	5.84
334.276	5.75
334.648	6.41
335.02	6.42
335.391	6.24
335.763	6.66
336.135	6.54
336.507	6.63
336.879	6.46
337.25	6.28
337.622	6.75
337.993	6.96
338.365	6.64
338.736	6.58
339.108	6.71
339.479	6.23
339.851	6.72
340.222	6.05
340.593	6.15
340.964	6.57
341.336	7.14
341.707	6.88
342.078	6.88
342.449	7.11
342.82	6.81
343.191	6.67
343.562	6.87
343.933	6.84
344.303	6.74
344.674	6.86
345.045	7.11
345.416	7.34
345.786	6.81
346.157	6.99
346.527	7.1
346.898	7.03
347.268	7.01
347.639	7.35
348.009	7.12
348.38	7
348.75	7.5
349.12	7.06
349.49	7.21
349.861	7.39
350.231	6.88
350.601	6.98
350.971	7.7
351.341	7.31
351.711	7.85
352.081	7.6
352.45	7.24
352.82	7.36
353.19	7.68
353.56	7.74
353.929	7
354.299	7.36
354.669	7.43
355.038	7.33
355.408	7.48
355.777	7.27
356.147	7.5
356.516	7.21
356.885	7.44
357.254	7.52
357.624	7.67
357.993	7.51
358.362	7.73
358.731	7.46
359.1	7.21
359.469	7.57
359.838	7.79
360.207	7.93
360.576	8.02
360.945	7.75
361.314	7.9
361.682	8.05
362.051	8.04
362.42	7.67
362.788	8.15
363.157	7.74
363.525	7.75
363.894	7.67
364.262	7.98
364.631	8.16
364.999	8.11
365.367	8.26
365.735	8.17
366.104	8.2
366.472	8.19
366.84	8.22
367.208	7.71
367.576	8.37
367.944	8.1
368.312	8.27
368.68	8.64
369.048	8.38
369.416	8.44
369.783	8.54
370.151	8.48
370.519	8.1
370.886	8.44
371.254	8.96
371.621	8.81
371.989	8.34
372.356	8.93
372.724	8.73
373.091	8.77
373.458	8.42
373.826	8.71
374.193	8.59
374.56	8.58
374.927	8.81
375.294	8.83
375.661	9.02
376.028	8.94
376.395	8.97
376.762	8.92
377.129	8.85
377.496	8.9
377.863	9.06
378.229	9.15
378.596	9.05
378.963	8.89
379.329	9.09
379.696	8.81
380.062	9.08
380.429	8.98
380.795	9.09
381.161	9.13
381.528	9.57
381.894	9.25
382.26	9.23
382.626	9.54
382.993	9.23
383.359	9.17
383.725	9.25
384.091	9.24
384.457	9.4
384.823	9.27
385.188	9.62
385.554	9.18
385.92	9.77
386.286	9.67
386.651	9.28
387.017	9.54
387.383	9.54
387.748	9.33
388.114	9.15
388.479	9.62
388.845	9.72
389.21	9.57
389.575	9.47
389.94	9.55
390.306	9.55
390.671	9.75
391.036	9.9
391.401	10.21
391.766	9.94
392.131	9.68
392.496	9.98
392.861	9.99
393.226	9.77
393.591	9.76
393.956	10.13
394.32	10.07
394.685	9.73
395.05	10.22
395.414	10.08
395.779	9.95
396.143	10.08
396.508	10.12
396.872	10.16
397.236	10.21
397.601	10.11
397.965	9.89
398.329	10.19
398.694	10.47
399.058	9.93
399.422	10.35
399.786	10.24
400.15	10.19
400.514	10.35
400.878	10.51
401.242	10.54
401.605	10.56
401.969	10.31
402.333	10.33
402.697	10.55
403.06	10.35
403.424	10.67
403.787	10.45
404.151	10.58
404.514	10.58
404.878	10.76
405.241	10.71
405.604	10.59
405.968	10.73
406.331	10.71
406.694	10.59
407.057	10.58
407.42	10.93
407.783	10.72
408.146	10.89
408.509	10.82
408.872	11.07
409.235	10.67
409.598	11.02
409.961	11.26
410.323	10.88
410.686	10.94
411.049	11.07
411.411	11.07
411.774	11.1
412.136	11.03
412.499	11.02
412.861	11.32
413.223	11.37
413.586	11.13
413.948	11.33
414.31	11.19
414.672	11.32
415.035	11.21
415.397	11.45
415.759	11.44
416.121	11.4
416.483	11.65
416.845	11.37
417.206	11.55
417.568	11.39
417.93	11.29
418.292	11.11
418.653	11.42
419.015	11.35
419.377	11.41
419.738	11.39
420.1	11.29
420.461	11.32
420.822	11.29
421.184	11.29
421.545	11.31
421.906	11.27
422.267	11.33
422.629	11.3
422.99	11.25
423.351	11.28
423.712	11.38
424.073	11.38
424.434	11.4
424.795	11.48
425.155	11.53
425.516	11.52
425.877	11.6
426.238	11.48
426.598	11.59
426.959	11.49
427.32	11.61
427.68	11.68
428.041	11.61
428.401	11.9
428.761	11.83
429.122	11.9
429.482	12.07
429.842	12.09
430.202	12.17
430.563	11.95
430.923	12.24
431.283	12.08
431.643	12.43
432.003	12.35
432.363	12.22
432.722	12.38
433.082	12.22
433.442	12.33
433.802	12.39
434.161	12.22
434.521	12.4
434.881	12.37
435.24	12.27
435.6	12.28
435.959	12.2
436.319	12.26
436.678	12.43
437.037	12.39
437.396	12.42
437.756	12.78
438.115	12.43
438.474	12.68
438.833	12.43
439.192	12.52
439.551	12.54
439.91	12.69
440.269	12.79
440.628	12.72
440.987	12.61
441.345	12.58
441.704	12.45
442.063	12.58
442.421	12.69
442.78	12.61
443.138	12.83
443.497	12.73
443.855	12.74
444.214	12.79
444.572	12.88
444.93	12.92
445.288	12.9
445.647	13.12
446.005	12.92
446.363	12.87
446.721	12.91
447.079	13.05
447.437	12.88
447.795	12.87
448.153	12.85
448.51	12.8
448.868	12.88
449.226	12.85
449.584	13.08
449.941	13.06
450.299	13.14
450.656	13
451.014	13.3
451.371	13.36
451.729	13.31
452.086	13.35
452.443	13.43
452.801	13.33
453.158	13.56
453.515	13.55
453.872	13.42
454.229	13.61
454.586	13.47
454.943	13.31
455.3	13.45
455.657	13.57
456.014	13.57
456.371	13.63
456.727	13.84
457.084	13.78
457.441	13.77
457.797	13.8
458.154	13.68
458.51	13.89
458.867	13.87
459.223	14.04
459.58	13.86
459.936	13.92
460.292	13.9
460.648	13.88
461.005	13.69
461.361	13.85
461.717	13.68
462.073	13.61
462.429	13.74
462.785	13.85
463.141	13.96
463.496	13.93
463.852	14.08
464.208	14.23
464.564	14.23
464.919	14.23
465.275	14.48
465.631	14.33
465.986	14.42
466.342	14.49
466.697	14.35
467.052	14.2
467.408	14.39
467.763	14.51
468.118	14.53
468.473	14.39
468.829	14.31
469.184	14.33
469.539	14.57
469.894	14.42
470.249	14.55
470.603	14.61
470.958	14.74
471.313	14.78
471.668	14.53
472.023	14.49
472.377	14.74
472.732	14.58
473.086	14.9
473.441	15.07
473.795	14.89
474.15	14.77
474.504	14.77
474.859	14.89
475.213	14.85
475.567	14.91
475.921	15.01
476.275	14.96
476.63	15.13
476.984	14.97
477.338	15.04
477.692	15.16
478.045	15.08
478.399	14.96
478.753	15.22
479.107	15.09
479.461	15.16
479.814	15.34
480.168	15.17
480.521	15.15
480.875	15.29
481.228	15.27
481.582	15.3
481.935	15.18
482.289	15.42
482.642	15.32
482.995	15.08
483.348	15.3
483.701	15.17
484.055	15.25
484.408	15.14
484.761	15.01
485.114	14.91
485.466	14.67
485.819	14.52
486.172	14.4
486.525	14.57
486.878	14.71
487.23	14.8
487.583	14.99
487.936	15.03
488.288	15.14
488.641	15.15
488.993	15.03
489.345	14.97
489.698	14.92
490.05	14.86
490.402	14.85
490.754	14.99
491.107	15.17
491.459	15.4
491.811	15.48
492.163	15.54
492.515	15.67
492.866	15.6
493.218	15.35
493.57	15.12
493.922	15.17
494.274	15.24
494.625	15.37
494.977	15.59
495.328	15.72
495.68	15.9
496.031	15.86
496.383	16.09
496.734	16.21
497.086	16.13
497.437	16.21
497.788	16.18
498.139	16.24
498.49	16.14
498.842	16.07
499.193	16.17
499.544	16.1
499.894	16.16
500.245	16.24
500.596	16.37
500.947	16.35
501.298	16.5
501.648	16.42
501.999	16.52
502.35	16.55
502.7	16.78
503.051	16.73
503.401	16.48
503.752	16.64
504.102	16.73
504.452	16.54
504.803	16.7
505.153	16.77
505.503	16.81
505.853	16.86
506.203	16.64
506.553	16.75
506.903	16.83
507.253	16.87
507.603	16.9
507.953	16.96
508.303	16.86
508.652	16.93
509.002	16.83
509.352	16.88
509.701	16.92
510.051	16.85
510.4	16.9
510.75	16.96
511.099	16.88
511.449	16.97
511.798	16.99
512.147	17.04
512.496	17
512.846	17.15
513.195	17.1
513.544	17.21
513.893	17.01
514.242	17.11
514.591	17
514.939	17.09
515.288	17.21
515.637	17.16
515.986	17.28
516.334	17.32
516.683	17.5
517.032	17.48
517.38	17.44
517.729	17.46
518.077	17.5
518.426	17.51
518.774	17.49
519.122	17.42
519.47	17.47
519.819	17.25
520.167	17.3
520.515	17.22
520.863	17.26
521.211	17.22
521.559	17.32
521.907	17.48
522.255	17.42
522.602	17.59
522.95	17.65
523.298	17.72
523.645	17.74
523.993	17.72
524.341	17.86
524.688	17.83
525.036	18.07
525.383	17.81
525.73	17.98
526.078	17.93
526.425	17.96
526.772	18.11
527.119	17.84
527.466	17.73
527.814	17.63
528.161	17.54
528.508	17.76
528.854	17.64
529.201	17.72
529.548	17.82
529.895	17.61
530.242	17.43
530.588	17.27
530.935	17.23
531.282	17.41
531.628	17.42
531.975	17.54
532.321	17.63
532.667	17.82
533.014	17.98
533.36	18.04
533.706	18.16
534.052	18.07
534.399	17.95
534.745	17.99
535.091	17.87
535.437	17.77
535.783	17.74
536.129	17.93
536.474	18.09
536.82	18.16
537.166	18.29
537.512	18.34
537.857	18.39
538.203	18.26
538.549	18.4
538.894	18.24
539.239	18.4
539.585	18.5
539.93	18.49
540.276	18.71
540.621	18.76
540.966	18.73
541.311	18.84
541.656	18.89
542.001	19.08
542.346	18.83
542.691	18.61
543.036	18.44
543.381	18.29
543.726	18.17
544.071	18.32
544.415	18.38
544.76	18.52
545.105	18.71
545.449	18.66
545.794	18.7
546.138	18.87
546.483	18.93
546.827	19.14
547.171	19.31
547.516	19.13
547.86	19.16
548.204	18.98
548.548	19.24
548.892	19.03
549.236	19.13
549.58	19.06
549.924	19.28
550.268	19.44
550.612	19.5
550.956	19.83
551.3	19.48
551.643	19.74
551.987	19.93
552.33	19.77
552.674	19.77
553.017	19.92
553.361	19.82
553.704	19.81
554.048	19.79
554.391	19.75
554.734	19.81
555.077	19.7
555.42	19.65
555.764	19.72
556.107	20.11
556.45	20.08
556.793	19.95
557.135	19.9
557.478	19.91
557.821	20.1
558.164	20.11
558.507	20.27
558.849	20.43
559.192	20.32
559.534	20.44
559.877	20.16
560.219	20.4
560.562	20.36
560.904	20.34
561.246	20.48
561.589	20.44
561.931	20.43
562.273	20.45
562.615	20.66
562.957	20.54
563.299	20.39
563.641	20.46
563.983	20.46
564.325	20.4
564.667	20.69
565.008	20.73
565.35	20.74
565.692	20.59
566.033	20.69
566.375	20.8
566.716	20.62
567.058	20.38
567.399	20.69
567.741	20.63
568.082	20.65
568.423	20.85
568.764	20.62
569.105	20.81
569.447	20.68
569.788	20.77
570.129	20.92
570.47	20.8
570.811	20.65
571.151	20.86
571.492	21.02
571.833	21.24
572.174	20.89
572.514	21.05
572.855	21.02
573.195	21.28
573.536	20.96
573.876	21.14
574.217	20.82
574.557	20.99
574.898	20.87
575.238	21.11
575.578	21.09
575.918	20.97
576.258	21.38
576.598	21.27
576.938	21.31
577.278	21.21
577.618	21.19
577.958	21.29
578.298	21.43
578.638	21.52
578.977	21.57
579.317	21.55
579.657	21.47
579.996	21.6
580.336	21.86
580.675	21.69
581.014	21.47
581.354	21.64
581.693	21.68
582.032	21.73
582.372	21.97
582.711	22.3
583.05	22.03
583.389	21.82
583.728	22.02
584.067	22.13
584.406	21.86
584.745	21.75
585.083	22.04
585.422	22
585.761	21.96
586.1	22.15
586.438	21.79
586.777	22.07
587.115	22.44
587.454	22.29
587.792	22.27
588.13	22.31
588.469	22.38
588.807	21.98
589.145	22.36
589.483	22.24
589.821	21.89
590.159	22.06
590.497	22.27
590.835	22.48
591.173	22.27
591.511	22.25
591.849	22.26
592.187	22.19
592.524	22.2
592.862	22.33
593.2	22.46
593.537	22.21
593.875	22.46
594.212	22.63
594.55	22.53
594.887	22.63
595.224	22.57
595.561	22.4
595.899	22.23
596.236	22.54
596.573	22.78
596.91	22.77
597.247	22.53
597.584	22.37
597.921	22.76
598.258	22.92
598.594	22.73
598.931	22.44
599.268	22.4
599.604	22.83
599.941	22.64
600.277	22.61
600.614	22.9
600.95	22.8
601.287	22.87
601.623	22.9
601.959	23.1
602.296	22.98
602.632	23.11
602.968	22.76
603.304	23.13
603.64	23.2
603.976	23.05
604.312	23.11
604.648	23.09
604.984	22.97
605.319	22.93
605.655	22.86
605.991	22.83
606.326	22.77
606.662	22.93
606.998	22.81
607.333	22.8
607.668	23.01
608.004	23.12
608.339	23.17
608.674	23.37
609.01	23.35
609.345	23.49
609.68	23.48
610.015	22.96
610.35	23.34
610.685	23.49
611.02	23.22
611.355	23.08
611.689	23.11
612.024	23.44
612.359	23.63
612.694	23.7
613.028	23.51
613.363	23.57
613.697	23.47
614.032	23.61
614.366	23.62
614.7	23.9
615.035	23.45
615.369	23.76
615.703	23.76
616.037	23.98
616.371	23.7
616.705	24.04
617.039	23.97
617.373	24.2
617.707	24.02
618.041	23.69
618.375	23.71
618.709	24.02
619.042	24.04
619.376	24.18
619.71	24.49
620.043	24.32
620.377	24.26
620.71	24.42
621.043	24.45
621.377	24.19
621.71	24.42
622.043	23.84
622.376	24.39
622.709	24.42
623.043	24.02
623.376	24.6
623.709	24.53
624.041	24.03
624.374	24.34
624.707	24.28
625.04	24.7
625.373	24.72
625.705	24.48
626.038	24.53
626.37	23.96
626.703	24.81
627.035	24.39
627.368	24.37
627.7	24.64
628.032	24.45
628.365	24.7
628.697	24.53
629.029	24.41
629.361	24.47
629.693	24.52
630.025	24.55
630.357	24.75
630.689	24.7
631.021	24.93
631.353	24.73
631.684	24.36
632.016	25.02
632.348	24.85
632.679	24.73
633.011	24.75
633.342	24.73
633.674	24.56
634.005	24.58
634.336	25.65
634.668	24.57
634.999	25.26
635.33	24.39
635.661	24.94
635.992	25.38
636.323	25.11
636.654	25.03
636.985	25.17
637.316	24.76
637.647	24.77
637.977	24.84
638.308	25.11
638.639	25.39
638.969	25.07
639.3	24.95
639.63	25.52
639.961	25.13
640.291	25.3
640.622	24.95
640.952	25.54
641.282	25.48
641.612	25.25
641.943	25.36
642.273	25.33
642.603	25.71
642.933	25.15
643.263	25.58
643.592	25.28
643.922	25.61
644.252	25.54
644.582	25.27
644.911	25.73
645.241	25.45
645.571	25.94
645.9	25.3
646.23	25.46
646.559	25.34
646.888	25.86
647.218	25.7
647.547	25.38
647.876	25.6
648.205	25.53
648.534	25.68
648.863	25.92
649.192	25.59
649.521	25.78
649.85	25.21
650.179	26.13
650.508	26.11
650.837	25.99
651.165	26.49
651.494	25.69
651.822	25.62
652.151	26.01
652.479	25.69
652.808	25.79
653.136	25.87
653.465	26.26
653.793	26.06
654.121	26.07
654.449	26.25
654.777	26.25
655.105	25.94
655.433	26.37
655.761	26.15
656.089	26.84
656.417	26.39
656.745	26.35
657.073	25.88
657.4	26.49
657.728	26.43
658.056	26.02
658.383	26.42
658.711	25.65
659.038	26.34
659.365	26.27
659.693	26.72
660.02	26.19
660.347	26.67
660.674	26.22
661.001	26.04
661.329	25.93
661.656	26.52
661.982	25.85
662.309	26.45
662.636	26.29
662.963	26.53
663.29	26.31
663.616	26.1
663.943	26.37
664.27	26.81
664.596	26.49
664.923	25.92
665.249	26.64
665.576	26.28
665.902	27.25
666.228	27.14
666.554	26.91
666.881	26.91
667.207	26.87
667.533	26.42
667.859	26.67
668.185	27.39
668.511	26.87
668.837	27.31
669.162	26.9
669.488	27.04
669.814	26.57
670.139	27.13
670.465	26.96
670.791	26.83
671.116	27.03
671.442	26.7
671.767	27.22
672.092	26.82
672.418	27.1
672.743	26.9
673.068	27.29
673.393	27.41
673.718	26.97
