Data from 0262_forehead_Reflection__3__136.txt Node

Date: Fri Oct 20 21:40:33 CDT 2023
User: ToomeyLab
Spectrometer: FLMS14357
Trigger mode: 0
Integration Time (sec): 1.000000E-2
Scans to average: 100
Electric dark correction enabled: true
Nonlinearity correction enabled: false
Boxcar width: 0
XAxis mode: Wavelengths
Number of Pixels in Spectrum: 2048
>>>>>Begin Spectral Data<<<<<
189.047	-54.29
189.435	-54.29
189.823	-54.29
190.211	173.72
190.599	-77.63
190.987	71.75
191.375	133.68
191.763	235.42
192.151	-194.56
192.538	181.99
192.926	-52.59
193.314	312.51
193.702	46.79
194.089	88.79
194.477	380.03
194.864	589.22
195.252	185.84
195.639	336.65
196.027	129.39
196.414	-105.23
196.801	-18.15
197.189	29.62
197.576	9.31
197.963	-35.88
198.351	31.03
198.738	-18.58
199.125	26.66
199.512	28.39
199.899	40.47
200.286	9.46
200.673	23.86
201.06	24.12
201.447	47.33
201.833	11.24
202.22	45.16
202.607	58.36
202.994	33.7
203.38	32.67
203.767	10.52
204.154	48.21
204.54	41.67
204.927	29.2
205.313	8.2
205.699	35.5
206.086	18.47
206.472	48.56
206.858	23.54
207.245	-4.95
207.631	13.64
208.017	17.46
208.403	9.3
208.789	44.27
209.175	27.09
209.561	25.02
209.947	5.42
210.333	42.1
210.719	5.83
211.105	33.3
211.491	9.3
211.876	25.65
212.262	49.63
212.648	34.4
213.034	32.95
213.419	28.86
213.805	8.21
214.19	4.73
214.576	13.78
214.961	34.07
215.346	35.46
215.732	15.61
216.117	-5.08
216.502	3.91
216.888	-2.05
217.273	9.54
217.658	9.77
218.043	-1.13
218.428	5.29
218.813	7.31
219.198	14.54
219.583	-4.11
219.968	-16.84
220.353	16.95
220.738	19.63
221.122	7.66
221.507	11.58
221.892	-2.29
222.276	19.92
222.661	6.76
223.046	17.36
223.43	3.39
223.815	21.55
224.199	17.07
224.583	3.51
224.968	0.3
225.352	10.18
225.736	12.84
226.121	5.51
226.505	5.87
226.889	4.42
227.273	5.62
227.657	8.73
228.041	8.42
228.425	5.7
228.809	1.48
229.193	5.4
229.577	8.52
229.961	3.67
230.344	4.56
230.728	4.1
231.112	4.62
231.495	3.83
231.879	4.28
232.263	4.62
232.646	3.76
233.03	3.73
233.413	3.27
233.797	5.07
234.18	2.98
234.563	6.17
234.946	6.45
235.33	6.12
235.713	6.01
236.096	6.48
236.479	5.16
236.862	3.93
237.245	4.17
237.628	5.02
238.011	5.69
238.394	3.81
238.777	7.07
239.16	5.14
239.543	6.4
239.925	6.13
240.308	5.16
240.691	4.22
241.073	5.23
241.456	4.42
241.838	3.54
242.221	5.23
242.603	3.47
242.986	4.66
243.368	4.06
243.75	3.9
244.133	3.99
244.515	4.08
244.897	4.21
245.279	4.28
245.661	3.93
246.043	4.07
246.425	3.63
246.807	4.63
247.189	4.8
247.571	4.16
247.953	4.14
248.335	4.56
248.717	3.72
249.098	3.69
249.48	3.76
249.862	4.05
250.243	4.3
250.625	4.39
251.006	4.47
251.388	4.23
251.769	4.69
252.151	3.77
252.532	5.33
252.913	3.87
253.295	4.12
253.676	4.03
254.057	3.88
254.438	4.34
254.819	4.27
255.2	3.53
255.581	3.75
255.962	3.38
256.343	4.25
256.724	3.95
257.105	4.11
257.486	5.27
257.867	4.37
258.247	5.12
258.628	3.67
259.009	3.78
259.389	3.53
259.77	3.84
260.15	3.86
260.531	4.22
260.911	4.23
261.292	3.98
261.672	4.29
262.052	4.02
262.432	3.99
262.813	3.87
263.193	3.91
263.573	3.68
263.953	4.19
264.333	4.28
264.713	4.85
265.093	4.61
265.473	4.27
265.853	4.44
266.233	4.04
266.612	4.43
266.992	3.95
267.372	4.25
267.752	4.01
268.131	4.1
268.511	4.3
268.89	3.79
269.27	3.79
269.649	3.65
270.029	4.1
270.408	4.29
270.787	4.16
271.167	3.94
271.546	4.19
271.925	4.37
272.304	4.26
272.683	4.16
273.062	4.19
273.441	4.59
273.82	3.81
274.199	4.28
274.578	4.33
274.957	4.33
275.336	4.26
275.715	3.97
276.093	4.07
276.472	3.52
276.851	4.71
277.229	4.32
277.608	3.89
277.986	3.77
278.365	4.04
278.743	3.82
279.122	4.03
279.5	3.74
279.878	3.02
280.257	4.15
280.635	4.17
281.013	4.24
281.391	4.59
281.769	3.93
282.147	3.93
282.525	3.97
282.903	3.79
283.281	3.96
283.659	3.83
284.037	4.33
284.415	3.67
284.792	3.49
285.17	4.12
285.548	3.96
285.925	3.84
286.303	3.79
286.68	4
287.058	4.59
287.435	4.34
287.813	3.74
288.19	3.98
288.567	4.07
288.945	4.16
289.322	4.67
289.699	3.57
290.076	4.32
290.453	4.07
290.83	3.96
291.207	4.65
291.584	3.62
291.961	3.87
292.338	3.88
292.715	4.43
293.092	4.11
293.469	4.71
293.845	4.06
294.222	4.66
294.599	4.41
294.975	4.94
295.352	4.49
295.728	4.18
296.105	4.76
296.481	4.63
296.858	4.35
297.234	4.67
297.61	4.52
297.986	4.54
298.363	4.68
298.739	4.32
299.115	4.35
299.491	4.45
299.867	4.75
300.243	4.09
300.619	4.4
300.995	4.75
301.371	4.51
301.746	4.94
302.122	5.04
302.498	4.41
302.874	4.33
303.249	4.49
303.625	4.96
304	5
304.376	4.67
304.751	4.84
305.127	4.77
305.502	5.54
305.878	5
306.253	4.99
306.628	5.13
307.003	5.24
307.378	5.38
307.754	5.19
308.129	5.31
308.504	5.5
308.879	5.6
309.254	5.47
309.629	4.89
310.003	4.55
310.378	6.11
310.753	5.61
311.128	5.24
311.502	5.54
311.877	5.42
312.252	5.42
312.626	5.29
313.001	5.41
313.375	5.86
313.75	5.54
314.124	5.3
314.498	5.92
314.873	5.42
315.247	5.71
315.621	5.93
315.995	5.72
316.369	5.49
316.743	5.85
317.117	6.13
317.491	4.9
317.865	5.99
318.239	6.51
318.613	5.96
318.987	5.74
319.361	5.23
319.734	6.01
320.108	6.09
320.482	6.6
320.855	6.61
321.229	6.64
321.602	6
321.976	6.52
322.349	6.49
322.723	6.18
323.096	6.44
323.469	6.96
323.843	6.24
324.216	6.65
324.589	6.5
324.962	6.83
325.335	6.92
325.708	6.56
326.081	6.88
326.454	6.76
326.827	6.67
327.2	6.52
327.573	6.86
327.945	6.85
328.318	6.72
328.691	5.98
329.063	6.94
329.436	6.4
329.809	7.12
330.181	7.18
330.553	7.22
330.926	6.99
331.298	7.01
331.671	6.88
332.043	6.82
332.415	7.26
332.787	7.18
333.159	6.68
333.532	7.48
333.904	7.33
334.276	6.84
334.648	7.12
335.02	7.24
335.391	7.16
335.763	7.84
336.135	7.53
336.507	7.36
336.879	7.14
337.25	7.63
337.622	7.53
337.993	8.27
338.365	7.41
338.736	8.19
339.108	7.94
339.479	7.48
339.851	7.61
340.222	7.58
340.593	7.01
340.964	7.44
341.336	8.33
341.707	7.56
342.078	7.9
342.449	7.83
342.82	7.45
343.191	7.51
343.562	7.99
343.933	8.04
344.303	7.98
344.674	8.28
345.045	8.33
345.416	8.18
345.786	8.03
346.157	7.66
346.527	7.68
346.898	8.01
347.268	8.26
347.639	8.29
348.009	8.03
348.38	8.57
348.75	7.84
349.12	8.02
349.49	7.85
349.861	8.77
350.231	7.98
350.601	8.45
350.971	8.69
351.341	8.35
351.711	9.21
352.081	8.1
352.45	8.32
352.82	8.58
353.19	8.56
353.56	8.61
353.929	8.6
354.299	8.46
354.669	8.54
355.038	8.37
355.408	9.11
355.777	8.74
356.147	8.94
356.516	8.7
356.885	8.77
357.254	8.98
357.624	8.85
357.993	8.61
358.362	9.05
358.731	8.51
359.1	8.34
359.469	8.78
359.838	8.96
360.207	8.84
360.576	9.22
360.945	8.64
361.314	8.83
361.682	9.06
362.051	9.05
362.42	8.97
362.788	9.46
363.157	9.36
363.525	8.88
363.894	9.2
364.262	9.1
364.631	8.97
364.999	9.51
365.367	9.26
365.735	9.36
366.104	9.46
366.472	9.28
366.84	9.88
367.208	9.54
367.576	9.38
367.944	9.42
368.312	9.78
368.68	9.77
369.048	9.22
369.416	9.89
369.783	9.59
370.151	9.71
370.519	9.71
370.886	9.78
371.254	9.82
371.621	9.73
371.989	9.78
372.356	9.78
372.724	9.91
373.091	10.01
373.458	9.48
373.826	9.96
374.193	9.98
374.56	9.61
374.927	10.13
375.294	10.41
375.661	10.19
376.028	10.27
376.395	10.34
376.762	10.46
377.129	10.09
377.496	10.22
377.863	10.87
378.229	10.33
378.596	10.45
378.963	10.28
379.329	10.49
379.696	10.34
380.062	10.28
380.429	10.27
380.795	10.21
381.161	10.37
381.528	10.92
381.894	10.65
382.26	10.75
382.626	10.69
382.993	10.48
383.359	10.57
383.725	10.91
384.091	10.81
384.457	10.85
384.823	10.89
385.188	11.4
385.554	10.74
385.92	10.85
386.286	10.94
386.651	10.76
387.017	11.13
387.383	11.18
387.748	10.73
388.114	10.64
388.479	11.03
388.845	11.47
389.21	10.8
389.575	10.81
389.94	11.31
390.306	11.13
390.671	11.16
391.036	11.23
391.401	11.59
391.766	11.27
392.131	11.16
392.496	11.39
392.861	11.79
393.226	11.36
393.591	11.54
393.956	11.54
394.32	11.55
394.685	11.48
395.05	11.67
395.414	11.79
395.779	11.45
396.143	11.5
396.508	11.69
396.872	11.74
397.236	11.67
397.601	11.7
397.965	11.47
398.329	11.77
398.694	11.77
399.058	11.72
399.422	12.03
399.786	11.86
400.15	12.07
400.514	11.89
400.878	12.16
401.242	11.99
401.605	12.24
401.969	11.96
402.333	12.13
402.697	12.25
403.06	12.12
403.424	12.26
403.787	12.18
404.151	12.16
404.514	12.1
404.878	12.26
405.241	12.23
405.604	12.16
405.968	12.15
406.331	12.26
406.694	12.16
407.057	12.16
407.42	12.56
407.783	12.41
408.146	12.55
408.509	12.43
408.872	12.65
409.235	12.28
409.598	12.54
409.961	12.63
410.323	12.72
410.686	12.19
411.049	12.63
411.411	12.47
411.774	12.61
412.136	12.67
412.499	12.73
412.861	12.92
413.223	12.7
413.586	12.9
413.948	12.77
414.31	13.1
414.672	12.93
415.035	12.86
415.397	13.01
415.759	13.35
416.121	13.14
416.483	13.24
416.845	13.17
417.206	13.03
417.568	13.19
417.93	13.24
418.292	13
418.653	13.11
419.015	13.03
419.377	12.92
419.738	13.05
420.1	13.02
420.461	13.03
420.822	13.14
421.184	13.06
421.545	13.14
421.906	13.06
422.267	13.08
422.629	13.13
422.99	13.02
423.351	13.12
423.712	13.09
424.073	13.11
424.434	13.17
424.795	13.3
425.155	13.28
425.516	13.38
425.877	13.23
426.238	13.14
426.598	13.42
426.959	13.22
427.32	13.31
427.68	13.48
428.041	13.59
428.401	13.69
428.761	13.6
429.122	13.62
429.482	13.96
429.842	13.87
430.202	14.06
430.563	13.85
430.923	14.16
431.283	14.02
431.643	14.26
432.003	14.26
432.363	14.17
432.722	14.04
433.082	14.11
433.442	13.9
433.802	14.15
434.161	14.12
434.521	14.19
434.881	14.21
435.24	14.29
435.6	14.19
435.959	14.05
436.319	14.29
436.678	14.11
437.037	14.23
437.396	14.47
437.756	14.43
438.115	14.31
438.474	14.48
438.833	14.56
439.192	14.37
439.551	14.43
439.91	14.52
440.269	14.51
440.628	14.76
440.987	14.53
441.345	14.4
441.704	14.54
442.063	14.57
442.421	14.35
442.78	14.41
443.138	14.68
443.497	14.57
443.855	14.81
444.214	14.79
444.572	14.77
444.93	14.87
445.288	14.96
445.647	15.04
446.005	14.69
446.363	14.95
446.721	14.93
447.079	14.94
447.437	15
447.795	14.85
448.153	14.73
448.51	14.89
448.868	14.75
449.226	14.88
449.584	14.99
449.941	15.07
450.299	15.07
450.656	15.07
451.014	15.26
451.371	15.31
451.729	15.29
452.086	15.46
452.443	15.42
452.801	15.41
453.158	15.51
453.515	15.54
453.872	15.49
454.229	15.69
454.586	15.58
454.943	15.57
455.3	15.53
455.657	15.75
456.014	15.57
456.371	15.82
456.727	15.59
457.084	15.94
457.441	15.93
457.797	15.92
458.154	15.87
458.51	15.89
458.867	15.98
459.223	15.99
459.58	15.93
459.936	15.83
460.292	15.94
460.648	15.93
461.005	15.73
461.361	15.96
461.717	15.78
462.073	15.85
462.429	15.9
462.785	15.81
463.141	15.98
463.496	16.16
463.852	16.13
464.208	16.23
464.564	16.33
464.919	16.23
465.275	16.52
465.631	16.42
465.986	16.59
466.342	16.52
466.697	16.41
467.052	16.57
467.408	16.58
467.763	16.64
468.118	16.76
468.473	16.68
468.829	16.77
469.184	16.73
469.539	16.81
469.894	16.68
470.249	16.78
470.603	16.87
470.958	16.81
471.313	16.87
471.668	17.01
472.023	17.1
472.377	16.87
472.732	16.89
473.086	17.02
473.441	17.09
473.795	17.11
474.15	16.91
474.504	16.96
474.859	17.09
475.213	17.04
475.567	17.17
475.921	17.25
476.275	17.2
476.63	17.44
476.984	17.42
477.338	17.26
477.692	17.32
478.045	17.51
478.399	17.18
478.753	17.37
479.107	17.45
479.461	17.35
479.814	17.64
480.168	17.49
480.521	17.45
480.875	17.6
481.228	17.7
481.582	17.55
481.935	17.44
482.289	17.56
482.642	17.57
482.995	17.52
483.348	17.49
483.701	17.46
484.055	17.62
484.408	17.35
484.761	17.36
485.114	17.12
485.466	16.9
485.819	16.85
486.172	16.73
486.525	16.83
486.878	16.93
487.23	17.11
487.583	17.19
487.936	17.35
488.288	17.51
488.641	17.49
488.993	17.21
489.345	17.13
489.698	17.17
490.05	17.09
490.402	17.16
490.754	17.34
491.107	17.41
491.459	17.79
491.811	17.73
492.163	17.88
492.515	17.9
492.866	17.91
493.218	17.71
493.57	17.51
493.922	17.44
494.274	17.53
494.625	17.8
494.977	17.86
495.328	18.08
495.68	18.24
496.031	18.33
496.383	18.5
496.734	18.48
497.086	18.62
497.437	18.8
497.788	18.63
498.139	18.69
498.49	18.62
498.842	18.38
499.193	18.62
499.544	18.63
499.894	18.65
500.245	18.64
500.596	18.62
500.947	18.68
501.298	18.84
501.648	18.92
501.999	18.84
502.35	18.96
502.7	19.22
503.051	19.1
503.401	19.1
503.752	19.08
504.102	19.27
504.452	19.07
504.803	19.25
505.153	19.3
505.503	19.33
505.853	19.4
506.203	19.07
506.553	19.19
506.903	19.29
507.253	19.37
507.603	19.22
507.953	19.52
508.303	19.37
508.652	19.48
509.002	19.47
509.352	19.47
509.701	19.54
510.051	19.45
510.4	19.36
510.75	19.52
511.099	19.38
511.449	19.45
511.798	19.52
512.147	19.43
512.496	19.55
512.846	19.59
513.195	19.58
513.544	19.71
513.893	19.54
514.242	19.66
514.591	19.65
514.939	19.54
515.288	19.67
515.637	19.87
515.986	19.84
516.334	19.97
516.683	20.23
517.032	20.02
517.38	19.96
517.729	20.26
518.077	20.25
518.426	20.06
518.774	20.03
519.122	19.98
519.47	20.1
519.819	19.93
520.167	19.81
520.515	19.91
520.863	19.82
521.211	19.85
521.559	19.84
521.907	19.95
522.255	20.11
522.602	20.16
522.95	20.34
523.298	20.3
523.645	20.37
523.993	20.41
524.341	20.63
524.688	20.66
525.036	20.68
525.383	20.42
525.73	20.65
526.078	20.51
526.425	20.67
526.772	20.59
527.119	20.46
527.466	20.37
527.814	20.25
528.161	20.18
528.508	20.37
528.854	20.31
529.201	20.29
529.548	20.48
529.895	20.21
530.242	20.02
530.588	19.7
530.935	19.82
531.282	20.01
531.628	20.13
531.975	20.12
532.321	20.22
532.667	20.42
533.014	20.61
533.36	20.79
533.706	20.8
534.052	20.71
534.399	20.79
534.745	20.74
535.091	20.59
535.437	20.47
535.783	20.52
536.129	20.54
536.474	20.79
536.82	20.89
537.166	21
537.512	21.11
537.857	21.14
538.203	21.14
538.549	21.12
538.894	20.98
539.239	21.09
539.585	21.23
539.93	21.33
540.276	21.46
540.621	21.59
540.966	21.63
541.311	21.63
541.656	21.6
542.001	21.79
542.346	21.68
542.691	21.41
543.036	21.16
543.381	20.84
543.726	20.88
544.071	21
544.415	21.15
544.76	21.35
545.105	21.49
545.449	21.43
545.794	21.54
546.138	21.56
546.483	21.71
546.827	21.89
547.171	22.03
547.516	21.88
547.86	21.96
548.204	21.77
548.548	22.08
548.892	21.82
549.236	21.88
549.58	21.89
549.924	22.12
550.268	22.27
550.612	22.3
550.956	22.65
551.3	22.38
551.643	22.49
551.987	22.73
552.33	22.52
552.674	22.73
553.017	22.64
553.361	22.8
553.704	22.79
554.048	22.67
554.391	22.8
554.734	22.68
555.077	22.57
555.42	22.62
555.764	22.7
556.107	22.9
556.45	22.91
556.793	22.97
557.135	22.91
557.478	22.97
557.821	23.07
558.164	23.18
558.507	23.19
558.849	23.11
559.192	23.35
559.534	23.23
559.877	23.42
560.219	23.28
560.562	23.53
560.904	23.21
561.246	23.57
561.589	23.5
561.931	23.53
562.273	23.47
562.615	23.73
562.957	23.47
563.299	23.42
563.641	23.65
563.983	23.64
564.325	23.42
564.667	23.63
565.008	23.93
565.35	23.7
565.692	23.78
566.033	23.79
566.375	23.77
566.716	23.72
567.058	23.64
567.399	23.84
567.741	23.7
568.082	23.7
568.423	23.81
568.764	23.64
569.105	23.71
569.447	23.7
569.788	23.93
570.129	24.07
570.47	23.89
570.811	23.95
571.151	23.9
571.492	24.03
571.833	24.29
572.174	24.18
572.514	23.99
572.855	24.12
573.195	24.17
573.536	24.06
573.876	24.06
574.217	23.88
574.557	24.01
574.898	24.05
575.238	23.95
575.578	24.4
575.918	24.19
576.258	24.42
576.598	24.55
576.938	24.37
577.278	24.52
577.618	24.38
577.958	24.46
578.298	24.51
578.638	24.46
578.977	24.51
579.317	24.53
579.657	24.63
579.996	24.83
580.336	24.88
580.675	24.65
581.014	24.75
581.354	25.13
581.693	25.13
582.032	25.03
582.372	25.02
582.711	25.19
583.05	25.19
583.389	24.78
583.728	24.96
584.067	25.22
584.406	25.13
584.745	25.07
585.083	25.43
585.422	25.06
585.761	25.16
586.1	25.26
586.438	24.99
586.777	25.76
587.115	25.72
587.454	25.48
587.792	25.27
588.13	25.49
588.469	25.49
588.807	25.21
589.145	25.32
589.483	25.55
589.821	25.3
590.159	25.32
590.497	25.58
590.835	25.72
591.173	25.57
591.511	25.52
591.849	25.54
592.187	25.43
592.524	25.39
592.862	25.86
593.2	25.67
593.537	25.68
593.875	25.64
594.212	25.76
594.55	25.96
594.887	25.83
595.224	25.75
595.561	25.66
595.899	25.74
596.236	25.94
596.573	25.86
596.91	25.99
597.247	26.06
597.584	25.58
597.921	26.03
598.258	26.22
598.594	26.12
598.931	25.71
599.268	25.57
599.604	25.77
599.941	25.92
600.277	25.77
600.614	26.2
600.95	26.01
601.287	25.88
601.623	26.2
601.959	26.34
602.296	26.19
602.632	26.57
602.968	25.95
603.304	26.64
603.64	26.14
603.976	26.69
604.312	26.32
604.648	26.5
604.984	26.54
605.319	26.43
605.655	26.23
605.991	26.16
606.326	26.12
606.662	26.19
606.998	25.95
607.333	26.23
607.668	26.41
608.004	26.37
608.339	26.43
608.674	26.59
609.01	26.47
609.345	26.9
609.68	26.8
610.015	26.58
610.35	26.83
610.685	27.03
611.02	26.74
611.355	26.53
611.689	26.64
612.024	26.73
612.359	26.8
612.694	26.82
613.028	26.7
613.363	27.1
613.697	26.94
614.032	27.29
614.366	26.97
614.7	27.24
615.035	27
615.369	27.21
615.703	26.92
616.037	27.3
616.371	27.18
616.705	27.22
617.039	27.15
617.373	27.24
617.707	27.71
618.041	27.55
618.375	27.21
618.709	26.98
619.042	27.65
619.376	27.78
619.71	27.58
620.043	28.05
620.377	27.34
620.71	27.61
621.043	28.11
621.377	27.81
621.71	27.6
622.043	27.86
622.376	27.85
622.709	27.93
623.043	28.2
623.376	27.55
623.709	27.4
624.041	27.81
624.374	27.87
624.707	27.76
625.04	27.89
625.373	27.97
625.705	27.57
626.038	27.95
626.37	27.73
626.703	27.9
627.035	27.86
627.368	28.04
627.7	28.16
628.032	27.85
628.365	28.08
628.697	27.98
629.029	28.04
629.361	28.04
629.693	27.79
630.025	27.96
630.357	28.09
630.689	27.85
631.021	28.59
631.353	28.18
631.684	28.24
632.016	28.66
632.348	28.11
632.679	27.9
633.011	28.22
633.342	28
633.674	28.46
634.005	28.03
634.336	28.7
634.668	28.27
634.999	28.57
635.33	28.29
635.661	28.69
635.992	28.51
636.323	28.51
636.654	28.61
636.985	28.52
637.316	28.26
637.647	28.24
637.977	28.22
638.308	28.48
638.639	28.59
638.969	29.05
639.3	28.47
639.63	28.49
639.961	28.44
640.291	29.11
640.622	28.81
640.952	29.07
641.282	28.87
641.612	29.06
641.943	28.84
642.273	28.55
642.603	29.44
642.933	28.83
643.263	29.24
643.592	29.15
643.922	29.5
644.252	29.11
644.582	28.79
644.911	28.89
645.241	29.44
645.571	29.71
645.9	29.27
646.23	29.36
646.559	28.98
646.888	29.33
647.218	29.24
647.547	29.1
647.876	29.48
648.205	29.43
648.534	29.3
648.863	29.78
649.192	29.09
649.521	29.54
649.85	29.43
650.179	29.61
650.508	29.2
650.837	29.96
651.165	29.18
651.494	29.38
651.822	29.55
652.151	30.03
652.479	28.98
652.808	29.61
653.136	29.3
653.465	29.61
653.793	29.86
654.121	30.14
654.449	29.75
654.777	29.52
655.105	29.42
655.433	29.73
655.761	29.76
656.089	30.07
656.417	30.14
656.745	29.62
657.073	30.03
657.4	30.18
657.728	30.62
658.056	29.89
658.383	29.84
658.711	29.95
659.038	29.77
659.365	29.65
659.693	30.34
660.02	29.62
660.347	29.91
660.674	29.98
661.001	29.3
661.329	29.65
661.656	30.27
661.982	29.74
662.309	29.94
662.636	29.96
662.963	29.94
663.29	29.39
663.616	30.24
663.943	29.81
664.27	30.3
664.596	29.8
664.923	30.33
665.249	30.34
665.576	30.17
665.902	30.11
666.228	30.39
666.554	30.9
666.881	30.09
667.207	30.47
667.533	29.82
667.859	30.15
668.185	30.53
668.511	30.28
668.837	30.93
669.162	30.88
669.488	30.52
669.814	30.32
670.139	30.54
670.465	30.44
670.791	30.79
671.116	30.62
671.442	30.36
671.767	29.73
672.092	30.6
672.418	31.05
