Data from 0262_chest_Reflection__1__124.txt Node

Date: Fri Oct 20 21:36:11 CDT 2023
User: ToomeyLab
Spectrometer: FLMS14357
Trigger mode: 0
Integration Time (sec): 1.000000E-2
Scans to average: 100
Electric dark correction enabled: true
Nonlinearity correction enabled: false
Boxcar width: 0
XAxis mode: Wavelengths
Number of Pixels in Spectrum: 2048
>>>>>Begin Spectral Data<<<<<
189.047	151.22
189.435	151.22
189.823	151.22
190.211	50.02
190.599	162.99
190.987	51.28
191.375	107.49
191.763	-21.34
192.151	-66.86
192.538	-28.21
192.926	-169.1
193.314	370.85
193.702	100.23
194.089	52.87
194.477	242.27
194.864	-675.69
195.252	10.59
195.639	120.21
196.027	44.09
196.414	200.51
196.801	86.57
197.189	49.55
197.576	-2.39
197.963	29.42
198.351	69.44
198.738	56.56
199.125	12.66
199.512	29.28
199.899	31.42
200.286	-31.15
200.673	21.03
201.06	-4.34
201.447	12.34
201.833	40.61
202.22	53.58
202.607	72.31
202.994	36.42
203.38	18.25
203.767	5.64
204.154	30.75
204.54	45.07
204.927	50.72
205.313	-4.05
205.699	27.19
206.086	57.45
206.472	40.08
206.858	70.59
207.245	25.58
207.631	25.63
208.017	28.46
208.403	20.3
208.789	25.62
209.175	6.62
209.561	31.35
209.947	35.81
210.333	21.23
210.719	27.44
211.105	19.38
211.491	22.06
211.876	-3.93
212.262	26.67
212.648	59
213.034	-2.09
213.419	26.2
213.805	1.72
214.19	25.11
214.576	29.74
214.961	22.26
215.346	18.93
215.732	27.7
216.117	-4.06
216.502	19.75
216.888	4.71
217.273	29.58
217.658	2.84
218.043	8.59
218.428	5.72
218.813	4.62
219.198	-9.08
219.583	-16.61
219.968	0.73
220.353	9.42
220.738	15.74
221.122	7.18
221.507	13.66
221.892	8.32
222.276	13.36
222.661	27.64
223.046	14.81
223.43	-4.62
223.815	16.49
224.199	18.18
224.583	5.85
224.968	5.34
225.352	2.06
225.736	1.98
226.121	7.15
226.505	3.84
226.889	10.42
227.273	11.18
227.657	10.49
228.041	9.97
228.425	4
228.809	5.24
229.193	2.94
229.577	9.71
229.961	3.83
230.344	3.6
230.728	4.49
231.112	4.65
231.495	4.07
231.879	5.42
232.263	5.82
232.646	4.67
233.03	3.92
233.413	4.01
233.797	3.89
234.18	4.86
234.563	5.47
234.946	6.03
235.33	5.35
235.713	5.35
236.096	5.58
236.479	4.92
236.862	4.8
237.245	4.17
237.628	5.32
238.011	6.05
238.394	5.58
238.777	6.07
239.16	4.78
239.543	5.76
239.925	8.13
240.308	5.18
240.691	4.13
241.073	6.32
241.456	6.32
241.838	4.92
242.221	6.37
242.603	5.72
242.986	5.04
243.368	5.26
243.75	4.35
244.133	4.16
244.515	4.39
244.897	4.14
245.279	4.78
245.661	3.97
246.043	4.27
246.425	5.37
246.807	3.86
247.189	4.77
247.571	4.11
247.953	4.77
248.335	4.42
248.717	4.37
249.098	4.06
249.48	4.13
249.862	4.29
250.243	4.44
250.625	4.49
251.006	4.78
251.388	4.77
251.769	5.05
252.151	4.32
252.532	4.48
252.913	5.19
253.295	3.87
253.676	4
254.057	3.96
254.438	4.34
254.819	4.59
255.2	4.83
255.581	4.43
255.962	4.17
256.343	5.42
256.724	3.87
257.105	4.67
257.486	4.58
257.867	4.4
258.247	4.4
258.628	4.79
259.009	4.39
259.389	4.2
259.77	3.96
260.15	4.52
260.531	4.68
260.911	4.75
261.292	3.88
261.672	4.48
262.052	4.25
262.432	4.19
262.813	4.18
263.193	4.33
263.573	4.01
263.953	3.98
264.333	4.05
264.713	4.47
265.093	4.77
265.473	4.57
265.853	3.88
266.233	4.59
266.612	4.95
266.992	4.25
267.372	3.5
267.752	4.52
268.131	4.09
268.511	4.12
268.89	4.27
269.27	3.64
269.649	3.21
270.029	3.98
270.408	4.14
270.787	4.42
271.167	4.38
271.546	4.05
271.925	4.63
272.304	4.06
272.683	4.11
273.062	3.89
273.441	4.06
273.82	3.89
274.199	3.78
274.578	4.09
274.957	4.17
275.336	3.99
275.715	4.51
276.093	3.82
276.472	4.14
276.851	3.88
277.229	4.14
277.608	4.04
277.986	3.61
278.365	4.11
278.743	3.3
279.122	3.68
279.5	4.49
279.878	3.81
280.257	3.89
280.635	4.3
281.013	3.98
281.391	4.33
281.769	3.51
282.147	4.05
282.525	4.29
282.903	3.98
283.281	4.31
283.659	3.84
284.037	3.95
284.415	3.56
284.792	3.79
285.17	3.96
285.548	4.36
285.925	3.72
286.303	3.59
286.68	3.76
287.058	4.27
287.435	4.24
287.813	3.76
288.19	3.99
288.567	3.95
288.945	3.96
289.322	4.34
289.699	3.62
290.076	4.39
290.453	4.23
290.83	4.16
291.207	4.2
291.584	3.7
291.961	3.9
292.338	3.46
292.715	4.09
293.092	4.11
293.469	4.42
293.845	4.06
294.222	3.96
294.599	3.5
294.975	4.89
295.352	4.46
295.728	4.07
296.105	4.24
296.481	4.4
296.858	4.3
297.234	4.51
297.61	3.67
297.986	3.72
298.363	3.88
298.739	4.07
299.115	3.98
299.491	3.95
299.867	4.34
300.243	4.14
300.619	4.06
300.995	3.98
301.371	4.43
301.746	4.12
302.122	4.45
302.498	3.84
302.874	4
303.249	4.54
303.625	4.46
304	4.63
304.376	4.28
304.751	4.11
305.127	4.05
305.502	4.84
305.878	4.08
306.253	4.54
306.628	4.61
307.003	4.24
307.378	4.33
307.754	4.39
308.129	4.51
308.504	4.51
308.879	3.96
309.254	4.67
309.629	3.45
310.003	4.19
310.378	4.86
310.753	4.43
311.128	4.61
311.502	4.18
311.877	4.05
312.252	4.24
312.626	4.57
313.001	4.37
313.375	4.42
313.75	4.22
314.124	4.14
314.498	4.31
314.873	4.53
315.247	4.6
315.621	4.51
315.995	5.44
316.369	4.59
316.743	4.81
317.117	4.92
317.491	4
317.865	4.83
318.239	5.36
318.613	4.77
318.987	4.42
319.361	4.27
319.734	3.86
320.108	3.96
320.482	5.11
320.855	4.41
321.229	4.6
321.602	4.71
321.976	4.46
322.349	5.35
322.723	4.27
323.096	4.3
323.469	4.24
323.843	4.35
324.216	4.37
324.589	4.57
324.962	4.52
325.335	4.56
325.708	4.41
326.081	4.98
326.454	4.68
326.827	4.24
327.2	5.11
327.573	5.12
327.945	4.75
328.318	4.36
328.691	4.63
329.063	4.6
329.436	4.27
329.809	4.85
330.181	4.83
330.553	4.81
330.926	5.04
331.298	4.06
331.671	4.65
332.043	4.64
332.415	4.58
332.787	4.62
333.159	4.41
333.532	4.34
333.904	4.72
334.276	4.09
334.648	4.76
335.02	4.86
335.391	4.62
335.763	4.6
336.135	5.05
336.507	4.93
336.879	4.29
337.25	4.68
337.622	4.76
337.993	5.23
338.365	4.63
338.736	4.9
339.108	4.76
339.479	4.54
339.851	4.93
340.222	4.08
340.593	4.48
340.964	4.08
341.336	4.66
341.707	4.85
342.078	4.95
342.449	4.6
342.82	4.57
343.191	4.5
343.562	4.32
343.933	4.87
344.303	4.66
344.674	4.73
345.045	5.02
345.416	4.76
345.786	4.74
346.157	4.72
346.527	4.61
346.898	4.33
347.268	4.82
347.639	4.8
348.009	4.81
348.38	4.89
348.75	4.79
349.12	4.54
349.49	4.07
349.861	5.24
350.231	4.51
350.601	4.99
350.971	5.32
351.341	5.11
351.711	5.02
352.081	4.65
352.45	4.64
352.82	5.31
353.19	4.77
353.56	5.06
353.929	4.4
354.299	4.84
354.669	4.74
355.038	4.7
355.408	5.07
355.777	4.62
356.147	4.87
356.516	4.88
356.885	4.77
357.254	4.93
357.624	4.73
357.993	4.4
358.362	4.96
358.731	4.37
359.1	4.12
359.469	4.5
359.838	4.69
360.207	4.67
360.576	4.98
360.945	4.52
361.314	4.78
361.682	4.6
362.051	4.49
362.42	4.55
362.788	4.94
363.157	4.84
363.525	4.63
363.894	4.68
364.262	4.77
364.631	4.87
364.999	4.87
365.367	4.68
365.735	4.54
366.104	4.73
366.472	4.74
366.84	5
367.208	4.71
367.576	4.78
367.944	4.78
368.312	4.92
368.68	5.14
369.048	4.82
369.416	5.06
369.783	4.91
370.151	5.02
370.519	4.67
370.886	5.11
371.254	4.89
371.621	5.35
371.989	4.68
372.356	4.95
372.724	4.82
373.091	4.77
373.458	4.9
373.826	4.72
374.193	4.69
374.56	4.65
374.927	5.04
375.294	4.98
375.661	4.84
376.028	5.13
376.395	5.13
376.762	4.58
377.129	4.92
377.496	4.76
377.863	5.09
378.229	5.36
378.596	5.01
378.963	5.05
379.329	5.17
379.696	4.93
380.062	4.75
380.429	4.7
380.795	4.79
381.161	4.73
381.528	5.27
381.894	4.88
382.26	5
382.626	5.23
382.993	4.85
383.359	5.2
383.725	4.73
384.091	5
384.457	4.67
384.823	4.93
385.188	5.08
385.554	4.88
385.92	4.96
386.286	5.22
386.651	4.72
387.017	5.02
387.383	5
387.748	4.92
388.114	5.02
388.479	5.01
388.845	5.27
389.21	5.14
389.575	4.67
389.94	5.11
390.306	5.17
390.671	5.31
391.036	5.06
391.401	5.45
391.766	5.08
392.131	5.11
392.496	5.31
392.861	5.19
393.226	5.08
393.591	4.86
393.956	5.22
394.32	5.23
394.685	4.94
395.05	5.26
395.414	5.25
395.779	5.04
396.143	4.89
396.508	4.96
396.872	4.96
397.236	4.98
397.601	4.94
397.965	4.9
398.329	4.97
398.694	5.12
399.058	4.87
399.422	5.01
399.786	4.72
400.15	5.09
400.514	5.27
400.878	5.26
401.242	5.26
401.605	5.19
401.969	5.12
402.333	5.07
402.697	4.98
403.06	4.99
403.424	5.33
403.787	5.25
404.151	5.26
404.514	5.17
404.878	5.25
405.241	5.19
405.604	4.93
405.968	5.36
406.331	4.88
406.694	5.23
407.057	5.08
407.42	5.53
407.783	5.17
408.146	5.29
408.509	5.35
408.872	5.55
409.235	5
409.598	5.2
409.961	5.16
410.323	5.02
410.686	5.18
411.049	5.34
411.411	4.92
411.774	5.18
412.136	5.2
412.499	5.22
412.861	5.34
413.223	5.39
413.586	5.1
413.948	5.2
414.31	5.6
414.672	5.01
415.035	5.04
415.397	5.32
415.759	5.36
416.121	5.45
416.483	5.4
416.845	5.26
417.206	5.3
417.568	5.37
417.93	5.32
418.292	5.05
418.653	5.37
419.015	5.09
419.377	5.32
419.738	5.06
420.1	5.17
420.461	5.17
420.822	5.21
421.184	5.21
421.545	5.14
421.906	5.17
422.267	5.14
422.629	5.16
422.99	5.05
423.351	5.14
423.712	5.17
424.073	5.16
424.434	5.19
424.795	5.05
425.155	5.21
425.516	5.25
425.877	5.16
426.238	5.09
426.598	5.24
426.959	5.17
427.32	5.23
427.68	5.29
428.041	5.22
428.401	5.31
428.761	5.31
429.122	5.24
429.482	5.28
429.842	5.42
430.202	5.41
430.563	5.39
430.923	5.5
431.283	5.33
431.643	5.52
432.003	5.79
432.363	5.32
432.722	5.52
433.082	5.47
433.442	5.36
433.802	5.59
434.161	5.25
434.521	5.43
434.881	5.44
435.24	5.42
435.6	5.51
435.959	5.27
436.319	5.53
436.678	5.44
437.037	5.51
437.396	5.53
437.756	5.67
438.115	5.4
438.474	5.71
438.833	5.52
439.192	5.37
439.551	5.3
439.91	5.46
440.269	5.61
440.628	5.47
440.987	5.44
441.345	5.42
441.704	5.36
442.063	5.54
442.421	5.43
442.78	5.46
443.138	5.6
443.497	5.52
443.855	5.48
444.214	5.36
444.572	5.55
444.93	5.68
445.288	5.47
445.647	5.86
446.005	5.49
446.363	5.53
446.721	5.57
447.079	5.76
447.437	5.6
447.795	5.55
448.153	5.5
448.51	5.49
448.868	5.45
449.226	5.39
449.584	5.6
449.941	5.55
450.299	5.56
450.656	5.53
451.014	5.61
451.371	5.62
451.729	5.48
452.086	5.7
452.443	5.67
452.801	5.5
453.158	5.87
453.515	5.6
453.872	5.73
454.229	5.83
454.586	5.87
454.943	5.71
455.3	5.67
455.657	5.58
456.014	5.63
456.371	5.81
456.727	5.77
457.084	5.7
457.441	5.72
457.797	5.69
458.154	5.81
458.51	5.81
458.867	5.75
459.223	5.76
459.58	5.79
459.936	5.76
460.292	5.73
460.648	5.7
461.005	5.7
461.361	5.78
461.717	5.55
462.073	5.68
462.429	5.67
462.785	5.63
463.141	5.78
463.496	5.76
463.852	5.78
464.208	5.98
464.564	5.83
464.919	5.91
465.275	6.04
465.631	6.03
465.986	6
466.342	5.86
466.697	5.95
467.052	5.77
467.408	5.95
467.763	5.9
468.118	5.94
468.473	5.91
468.829	5.99
469.184	5.92
469.539	5.85
469.894	5.8
470.249	5.96
470.603	5.88
470.958	6.01
471.313	6.01
471.668	5.96
472.023	6.04
472.377	5.95
472.732	5.83
473.086	6.07
473.441	6.1
473.795	6
474.15	5.93
474.504	5.79
474.859	5.99
475.213	6.07
475.567	5.97
475.921	6.02
476.275	6.02
476.63	6.26
476.984	6.08
477.338	5.95
477.692	6.24
478.045	5.93
478.399	6.06
478.753	6.2
479.107	6.02
479.461	6.03
479.814	6.16
480.168	6.16
480.521	6.21
480.875	6.05
481.228	6.06
481.582	6.18
481.935	6.09
482.289	6.02
482.642	6.13
482.995	6.13
483.348	6.11
483.701	6.03
484.055	5.99
484.408	6
484.761	5.93
485.114	5.88
485.466	5.84
485.819	5.78
486.172	5.73
486.525	5.74
486.878	5.75
487.23	5.82
487.583	5.84
487.936	5.9
488.288	5.97
488.641	6.03
488.993	5.95
489.345	5.98
489.698	5.93
490.05	5.9
490.402	5.89
490.754	5.95
491.107	5.94
491.459	6.06
491.811	6.11
492.163	6.07
492.515	6.1
492.866	6.15
493.218	6.06
493.57	5.99
493.922	6.12
494.274	6.05
494.625	6.09
494.977	6.03
495.328	6.15
495.68	6.24
496.031	6.21
496.383	6.35
496.734	6.26
497.086	6.29
497.437	6.45
497.788	6.37
498.139	6.4
498.49	6.33
498.842	6.36
499.193	6.36
499.544	6.29
499.894	6.33
500.245	6.32
500.596	6.36
500.947	6.51
501.298	6.39
501.648	6.32
501.999	6.38
502.35	6.45
502.7	6.57
503.051	6.53
503.401	6.54
503.752	6.58
504.102	6.55
504.452	6.53
504.803	6.41
505.153	6.63
505.503	6.59
505.853	6.72
506.203	6.55
506.553	6.6
506.903	6.68
507.253	6.6
507.603	6.52
507.953	6.65
508.303	6.54
508.652	6.57
509.002	6.63
509.352	6.62
509.701	6.8
510.051	6.6
510.4	6.68
510.75	6.65
511.099	6.69
511.449	6.62
511.798	6.75
512.147	6.72
512.496	6.71
512.846	6.71
513.195	6.76
513.544	6.78
513.893	6.65
514.242	6.79
514.591	6.69
514.939	6.81
515.288	6.73
515.637	6.77
515.986	6.82
516.334	6.85
516.683	6.95
517.032	6.66
517.38	6.84
517.729	6.9
518.077	6.91
518.426	6.86
518.774	6.76
519.122	6.89
519.47	6.92
519.819	6.84
520.167	6.79
520.515	6.82
520.863	6.81
521.211	6.85
521.559	6.92
521.907	6.88
522.255	6.9
522.602	7.08
522.95	6.93
523.298	7.03
523.645	7.06
523.993	7.04
524.341	7.03
524.688	7.18
525.036	7.18
525.383	6.98
525.73	7.2
526.078	7.1
526.425	7.17
526.772	7.02
527.119	7.1
527.466	7.07
527.814	7.11
528.161	7.12
528.508	7.05
528.854	7.13
529.201	7.06
529.548	7.14
529.895	7.1
530.242	7.02
530.588	6.96
530.935	6.95
531.282	7.02
531.628	6.99
531.975	6.9
532.321	7.07
532.667	7.16
533.014	7.24
533.36	7.33
533.706	7.34
534.052	7.2
534.399	7.3
534.745	7.18
535.091	7.27
535.437	7.31
535.783	7.23
536.129	7.32
536.474	7.38
536.82	7.37
537.166	7.43
537.512	7.52
537.857	7.62
538.203	7.38
538.549	7.58
538.894	7.49
539.239	7.51
539.585	7.53
539.93	7.61
540.276	7.71
540.621	7.74
540.966	7.75
541.311	7.81
541.656	7.76
542.001	7.81
542.346	7.76
542.691	7.64
543.036	7.68
543.381	7.67
543.726	7.49
544.071	7.57
544.415	7.6
544.76	7.64
545.105	7.71
545.449	7.71
545.794	7.78
546.138	7.83
546.483	7.84
546.827	7.91
547.171	8.03
547.516	7.92
547.86	8.06
548.204	7.92
548.548	8.01
548.892	7.93
549.236	8.13
549.58	7.95
549.924	8.04
550.268	8.07
550.612	8.11
550.956	8.28
551.3	8.13
551.643	8.22
551.987	8.28
552.33	8.34
552.674	8.45
553.017	8.46
553.361	8.48
553.704	8.54
554.048	8.41
554.391	8.47
554.734	8.58
555.077	8.4
555.42	8.32
555.764	8.51
556.107	8.56
556.45	8.68
556.793	8.4
557.135	8.62
557.478	8.62
557.821	8.77
558.164	8.81
558.507	8.91
558.849	8.76
559.192	8.7
559.534	9.05
559.877	8.67
560.219	9.02
560.562	8.94
560.904	8.7
561.246	8.86
561.589	8.78
561.931	9.05
562.273	9.06
562.615	9.04
562.957	9.11
563.299	8.91
563.641	9.19
563.983	8.99
564.325	9.04
564.667	9.3
565.008	9.04
565.35	9.22
565.692	9.21
566.033	9.28
566.375	9.43
566.716	9.23
567.058	9.25
567.399	9.25
567.741	9.32
568.082	9.43
568.423	9.49
568.764	9.24
569.105	9.42
569.447	9.47
569.788	9.38
570.129	9.59
570.47	9.56
570.811	9.78
571.151	9.58
571.492	9.65
571.833	9.67
572.174	9.78
572.514	9.82
572.855	9.6
573.195	9.84
573.536	9.56
573.876	9.85
574.217	9.72
574.557	9.74
574.898	9.57
575.238	9.61
575.578	9.88
575.918	9.8
576.258	9.99
576.598	9.97
576.938	10.22
577.278	10.18
577.618	10.03
577.958	9.94
578.298	9.97
578.638	9.97
578.977	10.18
579.317	10.12
579.657	10.25
579.996	10.36
580.336	10.29
580.675	10.38
581.014	10.3
581.354	10.27
581.693	10.46
582.032	10.46
582.372	10.4
582.711	10.65
583.05	10.76
583.389	10.67
583.728	10.58
584.067	10.69
584.406	10.61
584.745	10.7
585.083	10.75
585.422	10.56
585.761	10.78
586.1	11.06
586.438	10.68
586.777	11.05
587.115	11.07
587.454	10.91
587.792	11.09
588.13	11.01
588.469	10.95
588.807	10.79
589.145	10.95
589.483	11.14
589.821	11.03
590.159	11.34
590.497	11.13
590.835	11.24
591.173	11.21
591.511	11.2
591.849	11.18
592.187	11.14
592.524	11.05
592.862	11.45
593.2	11.55
593.537	11.31
593.875	11.3
594.212	11.55
594.55	11.55
594.887	11.71
595.224	11.57
595.561	11.51
595.899	11.85
596.236	11.72
596.573	11.82
596.91	11.86
597.247	11.77
597.584	11.67
597.921	11.86
598.258	11.79
598.594	11.74
598.931	11.67
599.268	11.68
599.604	11.94
599.941	11.72
600.277	11.88
600.614	11.89
600.95	12.1
601.287	12.25
601.623	12.03
601.959	12.12
602.296	12.27
602.632	12.28
602.968	12.19
603.304	12.43
603.64	12.33
603.976	12.28
604.312	12.53
604.648	12.37
604.984	12.47
605.319	12.36
605.655	12.49
605.991	12.29
606.326	12.62
606.662	12.33
606.998	12.16
607.333	12.31
607.668	12.35
608.004	12.56
608.339	12.57
608.674	12.64
609.01	12.71
609.345	12.97
609.68	12.93
610.015	12.74
610.35	13.04
610.685	13.2
611.02	13.02
611.355	12.83
611.689	13
612.024	13.16
612.359	12.97
612.694	12.95
613.028	12.99
613.363	13.19
613.697	13
614.032	13.15
614.366	13.3
614.7	13.19
615.035	13.32
615.369	13.36
615.703	12.99
616.037	13.41
616.371	13.87
616.705	13.56
617.039	13.45
617.373	13.72
617.707	13.84
618.041	13.7
618.375	13.76
618.709	13.39
619.042	13.8
619.376	13.94
619.71	14.03
620.043	14.25
620.377	13.71
620.71	13.85
621.043	14.34
621.377	13.93
621.71	14.17
622.043	13.99
622.376	14.1
622.709	14.16
623.043	14.05
623.376	14.09
623.709	14.15
624.041	14.06
624.374	14.23
624.707	14.15
625.04	14.68
625.373	14.49
625.705	14.05
626.038	14.46
626.37	14.25
626.703	14.74
627.035	14.21
627.368	14.6
627.7	14.87
628.032	14.4
628.365	14.85
628.697	14.88
629.029	14.85
629.361	14.56
629.693	14.54
630.025	14.8
630.357	14.94
630.689	14.74
631.021	15.18
631.353	14.89
631.684	14.77
632.016	15.11
632.348	14.8
632.679	14.95
633.011	15.23
633.342	14.85
633.674	15.43
634.005	15.28
634.336	15.35
634.668	14.86
634.999	15.05
635.33	15.44
635.661	15.63
635.992	15.45
636.323	15.76
636.654	15.52
636.985	15.67
637.316	15.53
637.647	15.24
637.977	15.26
638.308	15.43
638.639	16.01
638.969	16.03
639.3	15.2
639.63	15.83
639.961	16.18
640.291	15.98
640.622	15.82
640.952	15.93
641.282	15.79
641.612	16.18
641.943	16.34
642.273	15.83
642.603	15.92
642.933	16.23
643.263	16.2
643.592	15.87
643.922	16.88
644.252	16.07
644.582	16.06
644.911	16.05
645.241	16.28
645.571	16.8
645.9	16.23
646.23	16.2
646.559	16.32
646.888	16.37
647.218	16.39
647.547	16.64
647.876	16.58
648.205	16.66
648.534	16.2
648.863	16.74
649.192	16.3
649.521	16.58
649.85	16.48
650.179	16.64
650.508	16.67
650.837	17.02
651.165	17.43
651.494	16.3
651.822	17.13
652.151	16.79
652.479	17
652.808	17.47
653.136	16.66
653.465	16.74
653.793	17.25
654.121	17.3
654.449	17.44
654.777	16.83
655.105	17.27
655.433	17.58
655.761	17.43
656.089	17.64
656.417	17.72
656.745	17.64
657.073	17.6
657.4	18.21
657.728	17.89
658.056	17.57
658.383	17.54
658.711	17.19
659.038	17.36
659.365	17.64
659.693	17.51
660.02	17.96
660.347	17.63
660.674	17.66
661.001	17.72
661.329	17.7
661.656	17.97
661.982	17.59
662.309	17.87
662.636	18.24
662.963	17.7
663.29	18.21
663.616	18.16
663.943	17.72
664.27	18.41
664.596	17.96
664.923	18.22
665.249	17.96
665.576	18.48
665.902	18.26
666.228	18.68
666.554	18.31
666.881	17.86
667.207	18.38
667.533	18.46
667.859	18.56
668.185	18.47
668.511	18.72
668.837	18.49
669.162	18.66
669.488	18.16
669.814	18.59
670.139	18.87
670.465	18.88
670.791	19.13
671.116	19.1
671.442	19.26
671.767	19.1
672.092	19.12
672.418	19.16
672.743	19.28
673.068	18.85
673.393	18.98
673.718	19.04
674.043	19.62
674.368	19.27
674.693	19.65
675.018	19.78
675.343	18.84
675.667	18.86
675.992	19.3
676.317	19.18
676.641	19.72
676.966	19.93
677.29	19.4
677.615	19.59
677.939	18.78
678.264	19.71
678.588	19.02
678.912	19.36
679.236	19.43
679.56	19.42
679.885	19.51
680.209	20.29
680.532	19.79
680.856	19.24
681.18	19.59
681.504	19.73
681.828	19.85
682.152	20.1
682.475	20.09
682.799	19.85
683.122	19.79
683.446	20.32
683.769	20.05
684.093	19.56
684.416	20.17
684.739	19.1
685.062	20.12
685.386	19.71
