Data from 0262_chest_Reflection__4__127.txt Node

Date: Fri Oct 20 21:36:55 CDT 2023
User: ToomeyLab
Spectrometer: FLMS14357
Trigger mode: 0
Integration Time (sec): 1.000000E-2
Scans to average: 100
Electric dark correction enabled: true
Nonlinearity correction enabled: false
Boxcar width: 0
XAxis mode: Wavelengths
Number of Pixels in Spectrum: 2048
>>>>>Begin Spectral Data<<<<<
189.047	2.39
189.435	2.39
189.823	2.39
190.211	135.45
190.599	103.49
190.987	78.15
191.375	173.44
191.763	454.92
192.151	44.94
192.538	-39.82
192.926	122.2
193.314	356.43
193.702	15.23
194.089	73.91
194.477	209.08
194.864	429.32
195.252	13.01
195.639	326.16
196.027	148.05
196.414	383.38
196.801	9.97
197.189	-21.9
197.576	8.02
197.963	-28.27
198.351	54.22
198.738	13.78
199.125	46.59
199.512	19.18
199.899	32.85
200.286	-37.9
200.673	56.83
201.06	29.89
201.447	-4.18
201.833	39.42
202.22	2.22
202.607	83.78
202.994	17.3
203.38	5.58
203.767	20.95
204.154	22.5
204.54	39.06
204.927	60.01
205.313	13.35
205.699	41.32
206.086	10.85
206.472	28.22
206.858	38.31
207.245	-6.35
207.631	35.24
208.017	38.44
208.403	13.35
208.789	44.41
209.175	7.69
209.561	32.17
209.947	26.36
210.333	-12.32
210.719	19.34
211.105	20.37
211.491	21.82
211.876	21.6
212.262	20.83
212.648	35.37
213.034	1.93
213.419	31.03
213.805	36.3
214.19	23.33
214.576	5.17
214.961	12.23
215.346	42.11
215.732	15.55
216.117	4.64
216.502	17.24
216.888	24.51
217.273	13
217.658	8.56
218.043	18.5
218.428	28.92
218.813	12.65
219.198	9.38
219.583	-8.58
219.968	44.33
220.353	0.92
220.738	29.19
221.122	3.35
221.507	3.72
221.892	19.3
222.276	27.95
222.661	26
223.046	7.99
223.43	6.21
223.815	20.9
224.199	16.29
224.583	-1.67
224.968	5.52
225.352	0.84
225.736	2.91
226.121	7.6
226.505	10.29
226.889	7.91
227.273	15.45
227.657	13.11
228.041	10.16
228.425	5.29
228.809	4.76
229.193	6.28
229.577	8.25
229.961	5.86
230.344	5.62
230.728	4.46
231.112	5.31
231.495	5.19
231.879	5.65
232.263	5.61
232.646	5.05
233.03	3.77
233.413	4.97
233.797	5.92
234.18	7.04
234.563	7.17
234.946	8.79
235.33	6.28
235.713	5.47
236.096	6.55
236.479	6.18
236.862	6.54
237.245	5.52
237.628	7.18
238.011	6.38
238.394	4.62
238.777	7
239.16	4.99
239.543	6.72
239.925	5.76
240.308	6.49
240.691	6.59
241.073	7.38
241.456	6.19
241.838	6.41
242.221	6.76
242.603	6.31
242.986	6.81
243.368	5.51
243.75	5.33
244.133	4.93
244.515	4.9
244.897	5.26
245.279	5.51
245.661	5.21
246.043	5.47
246.425	5.66
246.807	5.3
247.189	4.64
247.571	5
247.953	5.21
248.335	5.51
248.717	4.74
249.098	4.67
249.48	4.99
249.862	5.07
250.243	5.38
250.625	5.34
251.006	5.72
251.388	5.35
251.769	5.62
252.151	4.96
252.532	5.98
252.913	6.76
253.295	4.68
253.676	5.21
254.057	4.68
254.438	4.99
254.819	5.11
255.2	5.59
255.581	4.64
255.962	5.02
256.343	5.86
256.724	4.45
257.105	5.88
257.486	5.27
257.867	4.99
258.247	5.46
258.628	4.82
259.009	4.43
259.389	4.9
259.77	4.63
260.15	5.74
260.531	5.08
260.911	5.05
261.292	4.83
261.672	4.75
262.052	4.84
262.432	4.84
262.813	4.62
263.193	4.73
263.573	4.87
263.953	5.38
264.333	5.21
264.713	5.17
265.093	5.04
265.473	5.43
265.853	4.92
266.233	5.06
266.612	5.37
266.992	4.82
267.372	5.14
267.752	4.51
268.131	5.11
268.511	5.08
268.89	4.51
269.27	4.48
269.649	3.75
270.029	4.75
270.408	4.92
270.787	5.42
271.167	5.37
271.546	4.67
271.925	5.42
272.304	5.35
272.683	4.7
273.062	5.02
273.441	4.63
273.82	4.72
274.199	4.63
274.578	4.79
274.957	4.82
275.336	4.77
275.715	4.52
276.093	4.57
276.472	4.75
276.851	4.77
277.229	4.44
277.608	4.51
277.986	4.85
278.365	4.88
278.743	4.31
279.122	4.61
279.5	4.79
279.878	4.49
280.257	4.44
280.635	4.87
281.013	5.46
281.391	5.02
281.769	4.99
282.147	4.82
282.525	4.5
282.903	4.81
283.281	4.72
283.659	4.46
284.037	4.9
284.415	4.24
284.792	4.14
285.17	4.44
285.548	4.38
285.925	4.54
286.303	4.19
286.68	4.42
287.058	4.95
287.435	4.6
287.813	4.24
288.19	4.27
288.567	4.6
288.945	4.78
289.322	5.29
289.699	4.19
290.076	5.19
290.453	4.75
290.83	4.23
291.207	4.87
291.584	4.28
291.961	4.29
292.338	4.57
292.715	4.82
293.092	4.57
293.469	5.08
293.845	4.62
294.222	4.56
294.599	4.77
294.975	4.99
295.352	4.68
295.728	4.69
296.105	4.27
296.481	4.77
296.858	4.98
297.234	4.98
297.61	4.13
297.986	4.49
298.363	4.83
298.739	4.48
299.115	4.48
299.491	4.72
299.867	4.89
300.243	4.78
300.619	4.54
300.995	4.49
301.371	5.16
301.746	5.23
302.122	4.87
302.498	4.55
302.874	4.86
303.249	4.84
303.625	5.11
304	5.25
304.376	4.38
304.751	4.42
305.127	4.78
305.502	5.44
305.878	4.81
306.253	4.94
306.628	4.74
307.003	4.78
307.378	4.74
307.754	4.67
308.129	5.34
308.504	4.78
308.879	4.81
309.254	5.19
309.629	4.49
310.003	4.54
310.378	5.23
310.753	4.97
311.128	4.74
311.502	4.75
311.877	4.75
312.252	4.7
312.626	5.09
313.001	4.87
313.375	4.9
313.75	4.76
314.124	4.71
314.498	4.84
314.873	4.85
315.247	4.54
315.621	4.79
315.995	5.28
316.369	4.42
316.743	5.02
317.117	4.97
317.491	4.71
317.865	5.07
318.239	5.41
318.613	4.49
318.987	5.01
319.361	4.78
319.734	4.29
320.108	4.67
320.482	4.66
320.855	5.12
321.229	5.55
321.602	5.23
321.976	5.19
322.349	5.33
322.723	4.99
323.096	5.03
323.469	4.99
323.843	5.14
324.216	5.3
324.589	5.36
324.962	5.42
325.335	5.02
325.708	4.89
326.081	4.87
326.454	5.29
326.827	4.68
327.2	5.23
327.573	4.77
327.945	4.93
328.318	5.09
328.691	4.73
329.063	5.42
329.436	4.72
329.809	5.17
330.181	5.33
330.553	4.92
330.926	5.08
331.298	4.75
331.671	5.06
332.043	4.58
332.415	5.16
332.787	5.15
333.159	5.06
333.532	4.59
333.904	5.13
334.276	4.67
334.648	5.21
335.02	5.23
335.391	4.73
335.763	5.18
336.135	5.14
336.507	5.24
336.879	4.87
337.25	5.12
337.622	4.96
337.993	5.48
338.365	5.21
338.736	5.19
339.108	5.22
339.479	5.02
339.851	5.2
340.222	4.49
340.593	4.73
340.964	4.61
341.336	5.35
341.707	5.02
342.078	4.96
342.449	4.66
342.82	4.89
343.191	4.72
343.562	5.25
343.933	5.04
344.303	4.83
344.674	5.49
345.045	4.98
345.416	5.16
345.786	5.14
346.157	4.87
346.527	5.02
346.898	5.19
347.268	5.46
347.639	4.87
348.009	4.99
348.38	5.39
348.75	5.02
349.12	5.08
349.49	4.44
349.861	5.28
350.231	5.14
350.601	4.63
350.971	5.23
351.341	5.19
351.711	5.63
352.081	4.91
352.45	4.94
352.82	4.99
353.19	5.49
353.56	5.05
353.929	4.94
354.299	5.03
354.669	5.17
355.038	5.17
355.408	5.13
355.777	5.25
356.147	5.02
356.516	4.88
356.885	5.03
357.254	4.87
357.624	5.08
357.993	4.78
358.362	5.35
358.731	4.83
359.1	4.67
359.469	4.97
359.838	4.9
360.207	5.12
360.576	5.39
360.945	4.79
361.314	5.07
361.682	5.25
362.051	5.11
362.42	4.82
362.788	5.23
363.157	5.04
363.525	5.01
363.894	4.71
364.262	4.92
364.631	5.18
364.999	5.09
365.367	5.18
365.735	4.79
366.104	5.02
366.472	5.21
366.84	5.18
367.208	4.99
367.576	5.07
367.944	5.18
368.312	5.14
368.68	5.63
369.048	5.28
369.416	5.36
369.783	5.26
370.151	5.08
370.519	5.15
370.886	5.16
371.254	5.44
371.621	5.31
371.989	5.34
372.356	5.21
372.724	5.35
373.091	4.84
373.458	4.81
373.826	5.11
374.193	5.17
374.56	5.32
374.927	5.37
375.294	5.41
375.661	5.18
376.028	5.42
376.395	5.26
376.762	5.21
377.129	5.36
377.496	5.32
377.863	5.4
378.229	5.5
378.596	5.16
378.963	5.42
379.329	5.56
379.696	5.41
380.062	5.31
380.429	5.1
380.795	5.24
381.161	5.2
381.528	5.54
381.894	4.89
382.26	5.4
382.626	5.32
382.993	5.21
383.359	5.23
383.725	5.15
384.091	5.24
384.457	5.39
384.823	5.48
385.188	5.47
385.554	5.36
385.92	5.35
386.286	5.45
386.651	5.01
387.017	5.46
387.383	5.04
387.748	5.12
388.114	4.73
388.479	5.1
388.845	5.57
389.21	5.31
389.575	5.01
389.94	5.27
390.306	5.27
390.671	5.14
391.036	5.4
391.401	5.52
391.766	5.48
392.131	5.49
392.496	5.45
392.861	5.43
393.226	5.3
393.591	5.27
393.956	5.3
394.32	5.4
394.685	5.26
395.05	5.59
395.414	5.72
395.779	5.1
396.143	5.2
396.508	5.19
396.872	5.33
397.236	5.5
397.601	5.39
397.965	5.35
398.329	5.28
398.694	5.41
399.058	5.03
399.422	5.4
399.786	5.13
400.15	5.43
400.514	5.26
400.878	5.42
401.242	5.9
401.605	5.26
401.969	5.23
402.333	5.31
402.697	5.61
403.06	5.24
403.424	5.24
403.787	5.41
404.151	5.17
404.514	5.55
404.878	5.48
405.241	5.61
405.604	5.34
405.968	5.49
406.331	5.39
406.694	5.29
407.057	5.4
407.42	5.65
407.783	5.35
408.146	5.34
408.509	5.48
408.872	5.54
409.235	5.31
409.598	5.66
409.961	5.61
410.323	5.58
410.686	5.37
411.049	5.3
411.411	5.36
411.774	5.52
412.136	5.39
412.499	5.51
412.861	5.51
413.223	5.46
413.586	5.48
413.948	5.67
414.31	5.68
414.672	5.48
415.035	5.4
415.397	5.47
415.759	5.5
416.121	5.56
416.483	5.73
416.845	5.49
417.206	5.8
417.568	5.81
417.93	5.68
418.292	5.25
418.653	5.55
419.015	5.51
419.377	5.43
419.738	5.41
420.1	5.4
420.461	5.38
420.822	5.34
421.184	5.28
421.545	5.45
421.906	5.44
422.267	5.31
422.629	5.4
422.99	5.38
423.351	5.39
423.712	5.34
424.073	5.38
424.434	5.34
424.795	5.36
425.155	5.42
425.516	5.35
425.877	5.42
426.238	5.36
426.598	5.38
426.959	5.3
427.32	5.46
427.68	5.42
428.041	5.48
428.401	5.56
428.761	5.53
429.122	5.62
429.482	5.66
429.842	5.72
430.202	5.59
430.563	5.57
430.923	5.62
431.283	5.66
431.643	5.86
432.003	5.72
432.363	5.65
432.722	5.45
433.082	5.59
433.442	5.56
433.802	5.72
434.161	5.55
434.521	5.66
434.881	5.65
435.24	5.69
435.6	5.63
435.959	5.51
436.319	5.64
436.678	5.55
437.037	5.7
437.396	5.62
437.756	5.72
438.115	5.65
438.474	5.7
438.833	5.75
439.192	5.47
439.551	5.48
439.91	5.72
440.269	5.72
440.628	5.71
440.987	5.71
441.345	5.63
441.704	5.54
442.063	5.7
442.421	5.51
442.78	5.52
443.138	5.71
443.497	5.7
443.855	5.67
444.214	5.63
444.572	5.58
444.93	5.7
445.288	5.76
445.647	5.71
446.005	5.56
446.363	5.67
446.721	5.55
447.079	5.79
447.437	5.67
447.795	5.64
448.153	5.51
448.51	5.6
448.868	5.69
449.226	5.58
449.584	5.59
449.941	5.62
450.299	5.68
450.656	5.67
451.014	5.74
451.371	5.73
451.729	5.73
452.086	5.76
452.443	5.81
452.801	5.82
453.158	5.83
453.515	5.88
453.872	5.74
454.229	5.94
454.586	5.98
454.943	5.75
455.3	5.79
455.657	5.97
456.014	5.83
456.371	5.82
456.727	5.83
457.084	5.87
457.441	5.88
457.797	5.89
458.154	5.82
458.51	5.86
458.867	5.9
459.223	5.98
459.58	5.91
459.936	5.9
460.292	5.87
460.648	5.79
461.005	5.71
461.361	5.95
461.717	5.65
462.073	5.79
462.429	5.69
462.785	5.73
463.141	5.88
463.496	5.81
463.852	5.86
464.208	5.96
464.564	6.06
464.919	6
465.275	6.11
465.631	6.13
465.986	6.21
466.342	6.01
466.697	6.15
467.052	5.83
467.408	5.96
467.763	5.97
468.118	6.1
468.473	6.05
468.829	6
469.184	6.04
469.539	6.05
469.894	6.03
470.249	6.03
470.603	6.05
470.958	5.99
471.313	6
471.668	6.11
472.023	6.05
472.377	6.2
472.732	6.01
473.086	6.2
473.441	6.06
473.795	6.02
474.15	5.98
474.504	6.11
474.859	6.03
475.213	6.22
475.567	6.04
475.921	6.09
476.275	6.03
476.63	6.23
476.984	6.31
477.338	6.06
477.692	6.26
478.045	6.27
478.399	6.08
478.753	6.13
479.107	6.21
479.461	6
479.814	6.27
480.168	6.18
480.521	6.27
480.875	6.04
481.228	6.15
481.582	6.3
481.935	6.16
482.289	6.12
482.642	6.05
482.995	6.15
483.348	6.14
483.701	6.14
484.055	6.06
484.408	6.04
484.761	5.98
485.114	5.95
485.466	5.88
485.819	5.79
486.172	5.69
486.525	5.76
486.878	5.8
487.23	5.87
487.583	5.96
487.936	5.93
488.288	6.06
488.641	6.05
488.993	5.89
489.345	5.96
489.698	5.86
490.05	5.9
490.402	5.84
490.754	5.96
491.107	5.94
491.459	6.1
491.811	6.12
492.163	6.1
492.515	6.19
492.866	6.23
493.218	6.05
493.57	5.96
493.922	5.98
494.274	5.97
494.625	6.05
494.977	6.05
495.328	6.27
495.68	6.29
496.031	6.2
496.383	6.36
496.734	6.31
497.086	6.29
497.437	6.46
497.788	6.21
498.139	6.47
498.49	6.35
498.842	6.36
499.193	6.27
499.544	6.4
499.894	6.41
500.245	6.36
500.596	6.54
500.947	6.32
501.298	6.43
501.648	6.44
501.999	6.4
502.35	6.43
502.7	6.54
503.051	6.55
503.401	6.56
503.752	6.48
504.102	6.45
504.452	6.37
504.803	6.53
505.153	6.53
505.503	6.52
505.853	6.72
506.203	6.4
506.553	6.46
506.903	6.51
507.253	6.41
507.603	6.61
507.953	6.52
508.303	6.55
508.652	6.76
509.002	6.53
509.352	6.66
509.701	6.64
510.051	6.46
510.4	6.54
510.75	6.59
511.099	6.52
511.449	6.72
511.798	6.61
512.147	6.52
512.496	6.61
512.846	6.67
513.195	6.7
513.544	6.72
513.893	6.56
514.242	6.64
514.591	6.6
514.939	6.7
515.288	6.62
515.637	6.74
515.986	6.85
516.334	6.7
516.683	6.72
517.032	6.71
517.38	6.78
517.729	6.88
518.077	6.72
518.426	6.8
518.774	6.72
519.122	6.85
519.47	6.82
519.819	6.81
520.167	6.8
520.515	6.74
520.863	6.71
521.211	6.71
521.559	6.81
521.907	6.76
522.255	6.85
522.602	6.96
522.95	6.78
523.298	6.85
523.645	6.9
523.993	6.99
524.341	6.97
524.688	6.93
525.036	7.04
525.383	6.95
525.73	7.06
526.078	7.06
526.425	6.97
526.772	7.02
527.119	6.95
527.466	6.94
527.814	7.01
528.161	6.87
528.508	6.9
528.854	7.01
529.201	6.96
529.548	7
529.895	6.98
530.242	6.89
530.588	6.74
530.935	6.73
531.282	6.82
531.628	6.81
531.975	6.83
532.321	6.93
532.667	6.96
533.014	7.02
533.36	7.17
533.706	7.15
534.052	7.08
534.399	7.08
534.745	7.09
535.091	7.07
535.437	7.08
535.783	7.08
536.129	7.23
536.474	7.17
536.82	7.31
537.166	7.22
537.512	7.34
537.857	7.39
538.203	7.28
538.549	7.38
538.894	7.27
539.239	7.27
539.585	7.36
539.93	7.49
540.276	7.55
540.621	7.53
540.966	7.53
541.311	7.61
541.656	7.58
542.001	7.55
542.346	7.63
542.691	7.47
543.036	7.41
543.381	7.32
543.726	7.28
544.071	7.38
544.415	7.36
544.76	7.49
545.105	7.51
545.449	7.55
545.794	7.56
546.138	7.55
546.483	7.63
546.827	7.77
547.171	7.85
547.516	7.7
547.86	7.87
548.204	7.72
548.548	7.86
548.892	7.79
549.236	7.89
549.58	7.82
549.924	7.85
550.268	7.92
550.612	8.05
550.956	8.21
551.3	8.02
551.643	8.06
551.987	8.28
552.33	8.16
552.674	8.07
553.017	8.18
553.361	8.28
553.704	8.2
554.048	8.24
554.391	8.22
554.734	8.31
555.077	8.25
555.42	8.14
555.764	8.15
556.107	8.39
556.45	8.37
556.793	8.27
557.135	8.3
557.478	8.47
557.821	8.6
558.164	8.63
558.507	8.54
558.849	8.58
559.192	8.42
559.534	8.64
559.877	8.34
560.219	8.63
560.562	8.67
560.904	8.67
561.246	8.68
561.589	8.51
561.931	8.62
562.273	8.87
562.615	8.86
562.957	8.88
563.299	8.89
563.641	8.74
563.983	8.75
564.325	8.72
564.667	9.04
565.008	8.89
565.35	8.91
565.692	8.96
566.033	8.94
566.375	8.73
566.716	9.09
567.058	8.89
567.399	9.02
567.741	8.97
568.082	8.95
568.423	9.1
568.764	9.05
569.105	9.24
569.447	9.03
569.788	9.23
570.129	9.38
570.47	9.22
570.811	9.38
571.151	9.15
571.492	9.25
571.833	9.46
572.174	9.35
572.514	9.32
572.855	9.35
573.195	9.66
573.536	9.27
573.876	9.48
574.217	9.33
574.557	9.47
574.898	9.38
575.238	9.37
575.578	9.54
575.918	9.69
576.258	9.72
576.598	9.6
576.938	9.7
577.278	9.65
577.618	9.55
577.958	9.62
578.298	9.98
578.638	9.8
578.977	9.84
579.317	9.75
579.657	9.95
579.996	9.85
580.336	10.1
580.675	10.02
581.014	9.98
581.354	10.24
581.693	9.93
582.032	10.18
582.372	10.37
582.711	10.13
583.05	10.27
583.389	10.03
583.728	10.23
584.067	10.46
584.406	10.43
584.745	10.2
585.083	10.44
585.422	10.37
585.761	10.56
586.1	10.58
586.438	10.3
586.777	10.68
587.115	10.87
587.454	10.51
587.792	10.75
588.13	10.73
588.469	10.96
588.807	10.3
589.145	10.7
589.483	10.66
589.821	10.89
590.159	10.83
590.497	10.91
590.835	11.01
591.173	10.8
591.511	11.06
591.849	10.86
592.187	11.02
592.524	10.87
592.862	11.04
593.2	11.19
593.537	11.04
593.875	10.91
594.212	11.21
594.55	11.12
594.887	11.25
595.224	11.14
595.561	10.89
595.899	11.2
596.236	11.35
596.573	11.22
596.91	11.55
597.247	11.49
597.584	11.24
597.921	11.38
598.258	11.56
598.594	11.57
598.931	11.3
599.268	11.13
599.604	11.52
599.941	11.52
600.277	11.62
600.614	11.58
600.95	11.51
601.287	11.51
601.623	11.86
601.959	11.84
602.296	12.08
602.632	11.99
602.968	11.86
603.304	12.14
603.64	12.11
603.976	12.18
604.312	12.33
604.648	12.03
604.984	12.36
605.319	12.17
605.655	11.91
605.991	12.09
606.326	12.08
606.662	12.04
606.998	12.08
607.333	12.19
607.668	12.02
608.004	12.4
608.339	12.26
608.674	12.32
609.01	12.6
609.345	12.67
609.68	12.73
610.015	12.53
610.35	12.72
610.685	12.68
611.02	12.71
611.355	12.63
611.689	12.63
612.024	12.72
612.359	12.85
612.694	12.76
613.028	12.8
613.363	12.88
613.697	12.89
614.032	13.18
614.366	13.07
614.7	13.13
615.035	13.3
615.369	13.12
615.703	12.93
616.037	13.3
616.371	13.27
616.705	13.22
617.039	13.3
617.373	13.55
617.707	13.4
618.041	13.42
618.375	13.41
618.709	13.3
619.042	13.73
619.376	14.03
619.71	13.47
620.043	13.68
620.377	13.55
620.71	13.62
621.043	13.86
621.377	13.78
621.71	14.01
622.043	13.9
622.376	14.04
622.709	13.9
623.043	14.02
623.376	13.87
623.709	13.8
624.041	13.86
624.374	14.01
624.707	14.08
625.04	14.07
625.373	14.56
625.705	14.16
626.038	14.35
626.37	14.1
626.703	14.14
627.035	14.13
627.368	14.28
627.7	14.67
628.032	14.5
628.365	14.52
628.697	14.2
629.029	14.35
629.361	14.39
629.693	14.42
630.025	14.66
630.357	14.57
630.689	14.37
631.021	15.08
631.353	14.65
631.684	14.63
632.016	14.9
632.348	14.72
632.679	14.76
633.011	14.8
633.342	14.68
633.674	15.03
634.005	14.85
634.336	15.51
634.668	14.89
634.999	15.2
635.33	14.95
635.661	15.3
635.992	15.35
636.323	15.35
636.654	15.4
636.985	15.21
637.316	15.85
637.647	15.31
637.977	15.34
638.308	15.1
638.639	15.39
638.969	15.6
639.3	15.39
639.63	15.54
639.961	15.75
640.291	16.27
640.622	15.59
640.952	16.11
641.282	15.37
641.612	15.66
641.943	15.95
642.273	15.88
642.603	16.31
642.933	15.89
643.263	16.25
643.592	16.23
643.922	16.42
644.252	16.12
644.582	16.02
644.911	16.61
645.241	16.63
645.571	16.8
645.9	16.21
646.23	16.42
646.559	16.34
646.888	16.6
647.218	16.54
647.547	16.34
647.876	16.2
648.205	16.62
648.534	16.97
648.863	16.79
649.192	16.37
649.521	16.88
649.85	16.94
650.179	16.88
650.508	16.42
650.837	16.6
651.165	16.92
651.494	16.47
651.822	16.86
652.151	17.14
652.479	17.24
652.808	16.91
653.136	16.92
653.465	17.34
653.793	17.23
654.121	17.29
654.449	17.04
654.777	17.25
655.105	17.46
655.433	17.68
655.761	17.7
656.089	17.76
656.417	18.09
656.745	17.48
657.073	17.69
657.4	18.07
657.728	18.28
658.056	17.54
658.383	17.76
658.711	17.62
659.038	17.86
659.365	17.72
659.693	17.55
660.02	17.93
660.347	17.78
660.674	17.6
661.001	17.52
661.329	17.82
661.656	18.19
661.982	17.95
662.309	18.1
662.636	17.75
662.963	18.3
663.29	18.42
663.616	18.27
663.943	17.97
664.27	18.55
664.596	18.59
664.923	18.66
665.249	18.14
665.576	18.08
665.902	18.49
666.228	18.54
666.554	18.32
666.881	18.15
667.207	18.48
667.533	18.74
667.859	19.13
668.185	18.92
668.511	18.6
668.837	19.22
669.162	19.63
669.488	18.82
669.814	18.93
670.139	19.36
670.465	19.32
670.791	19.35
671.116	19.07
671.442	19.4
671.767	19.52
672.092	19.3
672.418	19.43
672.743	19.21
673.068	19.25
673.393	19.01
673.718	18.87
674.043	19.3
674.368	19.24
674.693	19.84
675.018	20.52
675.343	19.25
675.667	19.5
675.992	20.11
676.317	20.23
676.641	19.71
676.966	20.31
677.29	19.82
677.615	19.92
677.939	19.25
678.264	20.17
678.588	19.37
678.912	20.06
679.236	20.2
679.56	19.74
679.885	20.49
680.209	20.03
680.532	19.72
680.856	19.81
681.18	20.55
681.504	20.28
681.828	20.28
682.152	20.11
682.475	20.19
682.799	20.56
683.122	20.28
683.446	20.93
683.769	20.21
684.093	20.59
684.416	21.02
684.739	20.67
685.062	20.29
685.386	20.52
685.709	20.67
