Data from 0195_crown_Reflection__3__364.txt Node

Date: Fri Dec 15 19:50:43 CST 2023
User: ToomeyLab
Spectrometer: FLMS14357
Trigger mode: 0
Integration Time (sec): 1.000000E-2
Scans to average: 100
Electric dark correction enabled: true
Nonlinearity correction enabled: false
Boxcar width: 0
XAxis mode: Wavelengths
Number of Pixels in Spectrum: 2048
>>>>>Begin Spectral Data<<<<<
189.047	-921.53
189.435	-921.53
189.823	-921.53
190.211	-419.82
190.599	52.6
190.987	6.14
191.375	-61.09
191.763	-19.53
192.151	124.92
192.538	168.87
192.926	-73.87
193.314	98.74
193.702	146.73
194.089	-79.57
194.477	-175.3
194.864	-557.07
195.252	72.38
195.639	65.47
196.027	-70.42
196.414	30.19
196.801	712.4
197.189	243.11
197.576	151.82
197.963	-173.33
198.351	-9.38
198.738	-888.2
199.125	-55.79
199.512	5
199.899	11.78
200.286	48.47
200.673	23.11
201.06	3.87
201.447	-55.51
201.833	10.68
202.22	-23.66
202.607	14.47
202.994	29.67
203.38	5.63
203.767	4.96
204.154	24.51
204.54	43.8
204.927	-174.94
205.313	-58.3
205.699	30.53
206.086	36.88
206.472	20.24
206.858	7.12
207.245	-46.47
207.631	8.01
208.017	-18.73
208.403	1.01
208.789	-2
209.175	18.08
209.561	-18.68
209.947	-24.96
210.333	-5.1
210.719	4.88
211.105	31.12
211.491	0.37
211.876	-7.31
212.262	31.74
212.648	-10.86
213.034	-3.5
213.419	-73.47
213.805	-3.62
214.19	-31.87
214.576	29.36
214.961	-27.49
215.346	-111.62
215.732	-1.86
216.117	6.27
216.502	-54.69
216.888	-27.85
217.273	4.4
217.658	18.16
218.043	0.54
218.428	-44.71
218.813	-37.3
219.198	-20.12
219.583	-14.21
219.968	1.99
220.353	-29.28
220.738	4.9
221.122	7.65
221.507	-13.99
221.892	-18.2
222.276	-1.54
222.661	-4.11
223.046	6
223.43	5.85
223.815	17.76
224.199	4.77
224.583	11.15
224.968	4.82
225.352	17.88
225.736	5.46
226.121	-4.35
226.505	3.51
226.889	1.22
227.273	8.42
227.657	11.28
228.041	4.96
228.425	4.82
228.809	9.22
229.193	8.29
229.577	6.39
229.961	7.9
230.344	5.66
230.728	6.19
231.112	6.82
231.495	6.15
231.879	4.64
232.263	4.9
232.646	5.82
233.03	6.57
233.413	3.32
233.797	7.12
234.18	3.33
234.563	7.44
234.946	6.12
235.33	9.83
235.713	6.63
236.096	5.34
236.479	6.24
236.862	3.94
237.245	7.43
237.628	5.71
238.011	5.63
238.394	8.37
238.777	5.21
239.16	5.31
239.543	6.98
239.925	5.75
240.308	6.09
240.691	5.67
241.073	7.46
241.456	6.66
241.838	5.54
242.221	4.39
242.603	6.21
242.986	6.17
243.368	6.42
243.75	6.72
244.133	6.19
244.515	6.33
244.897	6.43
245.279	6.48
245.661	6.18
246.043	5.02
246.425	4.74
246.807	6.68
247.189	6.28
247.571	6.61
247.953	6.31
248.335	5.85
248.717	6.24
249.098	6.02
249.48	6.36
249.862	6.01
250.243	5.92
250.625	5.98
251.006	6.53
251.388	4.64
251.769	4.82
252.151	5.88
252.532	4.78
252.913	5.27
253.295	4.82
253.676	5.31
254.057	5.34
254.438	5.98
254.819	5.55
255.2	4.61
255.581	6.37
255.962	4.61
256.343	4.68
256.724	6.19
257.105	5.5
257.486	4.13
257.867	5.34
258.247	5.82
258.628	5.75
259.009	5.62
259.389	5.73
259.77	4.64
260.15	4.56
260.531	4.85
260.911	6.43
261.292	5.7
261.672	6.1
262.052	5.82
262.432	6.03
262.813	5.96
263.193	5.38
263.573	5.04
263.953	5.31
264.333	6.07
264.713	5.64
265.093	4.78
265.473	5.33
265.853	3.96
266.233	5.28
266.612	4.47
266.992	4.2
267.372	5.29
267.752	4.92
268.131	5.57
268.511	5.58
268.89	5.84
269.27	5.41
269.649	5.15
270.029	4.89
270.408	6.51
270.787	6.16
271.167	5.53
271.546	6.08
271.925	4.8
272.304	4.81
272.683	5.89
273.062	4.81
273.441	5.57
273.82	5.32
274.199	5.33
274.578	5.29
274.957	5.35
275.336	5.49
275.715	5.71
276.093	5.05
276.472	5.73
276.851	5.09
277.229	4.29
277.608	4.18
277.986	5.05
278.365	5.67
278.743	5.35
279.122	4.9
279.5	5.66
279.878	5.92
280.257	4.82
280.635	5.02
281.013	5.02
281.391	5.44
281.769	5.02
282.147	5.03
282.525	5.94
282.903	4.85
283.281	4.94
283.659	5.36
284.037	5.11
284.415	5.35
284.792	5.39
285.17	4.86
285.548	4.33
285.925	4.83
286.303	5.31
286.68	4.87
287.058	5.3
287.435	5.12
287.813	4.83
288.19	5.27
288.567	5
288.945	5.57
289.322	4.66
289.699	5.31
290.076	4.91
290.453	5.16
290.83	5
291.207	4.67
291.584	4.79
291.961	5.16
292.338	5.19
292.715	5.56
293.092	4.62
293.469	5.17
293.845	5.18
294.222	4.5
294.599	4.83
294.975	4.79
295.352	5.06
295.728	4.48
296.105	4.91
296.481	5.22
296.858	5.41
297.234	4.78
297.61	4.29
297.986	4.59
298.363	4.93
298.739	5.18
299.115	4.97
299.491	4.92
299.867	4.96
300.243	5.07
300.619	4.32
300.995	4.48
301.371	4.62
301.746	4.75
302.122	5.46
302.498	4.7
302.874	4.7
303.249	4.79
303.625	4.36
304	4.87
304.376	5.24
304.751	4.06
305.127	5.7
305.502	4.05
305.878	3.93
306.253	4.6
306.628	4.76
307.003	4.53
307.378	4.31
307.754	4.19
308.129	3.82
308.504	4.42
308.879	4.5
309.254	5.03
309.629	4.45
310.003	4.39
310.378	5.08
310.753	4.91
311.128	4.37
311.502	4.91
311.877	4.72
312.252	4.26
312.626	4.21
313.001	4.41
313.375	4.66
313.75	4.26
314.124	4.58
314.498	4.6
314.873	4.53
315.247	4.25
315.621	4.18
315.995	3.46
316.369	4.48
316.743	4.86
317.117	4.84
317.491	3.95
317.865	4.47
318.239	4.56
318.613	4.76
318.987	5
319.361	4.14
319.734	4.76
320.108	5.23
320.482	4
320.855	5.08
321.229	3.95
321.602	4.01
321.976	3.99
322.349	4.44
322.723	4.25
323.096	4.73
323.469	4.38
323.843	3.91
324.216	4.86
324.589	3.85
324.962	4.58
325.335	4.12
325.708	4.7
326.081	4.39
326.454	4.52
326.827	4.31
327.2	4.38
327.573	3.89
327.945	4.79
328.318	4.14
328.691	4.41
329.063	4.64
329.436	3.98
329.809	4.27
330.181	4.91
330.553	4.75
330.926	4.61
331.298	4.51
331.671	4.37
332.043	4.39
332.415	4.3
332.787	4.49
333.159	5.28
333.532	4.29
333.904	4.09
334.276	4.55
334.648	4.42
335.02	4.23
335.391	4.17
335.763	4.48
336.135	4.41
336.507	4.85
336.879	4.71
337.25	4.02
337.622	4.43
337.993	4.26
338.365	4.5
338.736	4.51
339.108	4.57
339.479	3.91
339.851	4.95
340.222	4.28
340.593	4.26
340.964	4.28
341.336	4.46
341.707	4.13
342.078	4.83
342.449	4.5
342.82	4.48
343.191	4.68
343.562	4.45
343.933	4.79
344.303	4.73
344.674	4.48
345.045	3.97
345.416	4.87
345.786	4.27
346.157	4.44
346.527	4.26
346.898	4.05
347.268	4.94
347.639	4.64
348.009	4.8
348.38	4.04
348.75	4.16
349.12	4.2
349.49	5.3
349.861	4.89
350.231	4.25
350.601	4.39
350.971	4.77
351.341	4.42
351.711	4.72
352.081	4.87
352.45	4.38
352.82	4.64
353.19	4.23
353.56	3.87
353.929	4.7
354.299	4.49
354.669	4.23
355.038	4.71
355.408	4.45
355.777	4.32
356.147	4.45
356.516	4.84
356.885	4.77
357.254	4.48
357.624	5.11
357.993	4.91
358.362	4.36
358.731	4.1
359.1	4.56
359.469	4.61
359.838	4.98
360.207	4.78
360.576	4.77
360.945	4.82
361.314	5.24
361.682	4.69
362.051	4.6
362.42	5.07
362.788	4.62
363.157	4.81
363.525	4.81
363.894	4.81
364.262	4.98
364.631	5.03
364.999	4.76
365.367	4.73
365.735	5.23
366.104	4.87
366.472	4.77
366.84	4.6
367.208	4.63
367.576	4.95
367.944	4.89
368.312	4.04
368.68	4.53
369.048	4.98
369.416	5.1
369.783	4.69
370.151	4.95
370.519	5.33
370.886	5.49
371.254	4.65
371.621	4.86
371.989	4.86
372.356	4.48
372.724	4.86
373.091	4.71
373.458	4.76
373.826	4.75
374.193	4.79
374.56	5.17
374.927	5.08
375.294	5.09
375.661	4.71
376.028	4.62
376.395	4.82
376.762	5.03
377.129	4.94
377.496	4.98
377.863	4.78
378.229	4.63
378.596	4.72
378.963	4.79
379.329	4.63
379.696	4.91
380.062	5.14
380.429	4.82
380.795	4.49
381.161	4.71
381.528	5.06
381.894	4.82
382.26	4.64
382.626	4.99
382.993	4.76
383.359	5.15
383.725	4.9
384.091	4.66
384.457	5.09
384.823	5.35
385.188	5.16
385.554	5.01
385.92	5.33
386.286	5.26
386.651	5.14
387.017	5.19
387.383	5.07
387.748	5.17
388.114	5.33
388.479	5.02
388.845	5.26
389.21	5.3
389.575	5.2
389.94	5.05
390.306	4.88
390.671	5.38
391.036	4.63
391.401	4.67
391.766	4.91
392.131	5.12
392.496	5.22
392.861	5.23
393.226	5.37
393.591	5.19
393.956	5.18
394.32	5.16
394.685	4.79
395.05	4.93
395.414	5.24
395.779	4.92
396.143	5.08
396.508	5.06
396.872	5.24
397.236	5.15
397.601	5.22
397.965	5.27
398.329	5.5
398.694	5.43
399.058	5.27
399.422	5.26
399.786	5.44
400.15	5.28
400.514	5.3
400.878	5.48
401.242	5.54
401.605	5.3
401.969	5.26
402.333	5.62
402.697	5.23
403.06	5.17
403.424	5.43
403.787	5.25
404.151	5.49
404.514	5.19
404.878	5.25
405.241	5.45
405.604	5.34
405.968	5.21
406.331	5.15
406.694	5.33
407.057	5.24
407.42	5.51
407.783	5.06
408.146	5.33
408.509	5.24
408.872	5.27
409.235	5.3
409.598	5.66
409.961	5.85
410.323	5.41
410.686	5.35
411.049	5.05
411.411	5.34
411.774	5.6
412.136	5.24
412.499	5.19
412.861	5.45
413.223	5.36
413.586	5.49
413.948	5.34
414.31	5.22
414.672	5.18
415.035	5.21
415.397	5.66
415.759	5.12
416.121	5.45
416.483	5.28
416.845	5.53
417.206	5.29
417.568	5.47
417.93	5
418.292	5.34
418.653	5.41
419.015	5.43
419.377	5.33
419.738	5.54
420.1	5.4
420.461	5.44
420.822	5.52
421.184	5.41
421.545	5.38
421.906	5.21
422.267	5.5
422.629	5.37
422.99	5.42
423.351	5.3
423.712	5.43
424.073	5.28
424.434	5.34
424.795	5.33
425.155	5.39
425.516	5.47
425.877	5.36
426.238	5.27
426.598	5.41
426.959	5.47
427.32	5.34
427.68	5.48
428.041	5.32
428.401	5.53
428.761	5.5
429.122	5.52
429.482	5.4
429.842	5.42
430.202	5.69
430.563	5.69
430.923	5.36
431.283	5.55
431.643	5.51
432.003	5.61
432.363	5.68
432.722	5.48
433.082	5.66
433.442	5.43
433.802	5.46
434.161	5.51
434.521	5.76
434.881	5.56
435.24	5.38
435.6	5.52
435.959	5.46
436.319	5.49
436.678	5.42
437.037	5.56
437.396	5.49
437.756	5.61
438.115	5.53
438.474	5.66
438.833	5.43
439.192	5.44
439.551	5.56
439.91	5.67
440.269	5.64
440.628	5.33
440.987	5.62
441.345	5.37
441.704	5.52
442.063	5.51
442.421	5.61
442.78	5.55
443.138	5.54
443.497	5.68
443.855	5.52
444.214	5.49
444.572	5.75
444.93	5.54
445.288	5.62
445.647	5.82
446.005	5.48
446.363	5.55
446.721	5.7
447.079	5.45
447.437	5.53
447.795	5.51
448.153	5.44
448.51	5.43
448.868	5.39
449.226	5.58
449.584	5.56
449.941	5.74
450.299	5.59
450.656	5.65
451.014	5.53
451.371	5.53
451.729	5.39
452.086	5.73
452.443	5.53
452.801	5.59
453.158	5.58
453.515	5.57
453.872	5.79
454.229	5.61
454.586	5.65
454.943	5.78
455.3	5.72
455.657	5.63
456.014	5.69
456.371	5.67
456.727	5.57
457.084	5.82
457.441	5.65
457.797	5.61
458.154	6
458.51	5.73
458.867	5.7
459.223	5.71
459.58	5.65
459.936	5.7
460.292	5.68
460.648	5.6
461.005	5.65
461.361	5.65
461.717	5.63
462.073	5.54
462.429	5.58
462.785	5.6
463.141	5.59
463.496	5.78
463.852	5.85
464.208	5.7
464.564	5.8
464.919	5.87
465.275	5.75
465.631	5.97
465.986	5.69
466.342	5.86
466.697	5.69
467.052	5.75
467.408	5.76
467.763	5.78
468.118	5.68
468.473	5.73
468.829	5.74
469.184	5.69
469.539	5.84
469.894	5.53
470.249	5.87
470.603	5.72
470.958	5.95
471.313	5.88
471.668	5.9
472.023	5.73
472.377	5.65
472.732	5.78
473.086	5.64
473.441	5.61
473.795	5.93
474.15	5.73
474.504	5.59
474.859	6.1
475.213	5.66
475.567	5.72
475.921	5.68
476.275	5.78
476.63	5.89
476.984	5.91
477.338	5.83
477.692	5.66
478.045	5.66
478.399	5.85
478.753	5.88
479.107	5.8
479.461	5.78
479.814	5.76
480.168	5.59
480.521	5.76
480.875	5.68
481.228	5.75
481.582	5.71
481.935	5.68
482.289	5.81
482.642	5.75
482.995	5.72
483.348	5.72
483.701	5.64
484.055	5.75
484.408	5.78
484.761	5.59
485.114	5.52
485.466	5.38
485.819	5.36
486.172	5.41
486.525	5.53
486.878	5.63
487.23	5.66
487.583	5.69
487.936	5.8
488.288	5.67
488.641	5.6
488.993	5.57
489.345	5.51
489.698	5.52
490.05	5.56
490.402	5.61
490.754	5.65
491.107	5.77
491.459	5.71
491.811	5.72
492.163	5.78
492.515	5.87
492.866	5.65
493.218	5.62
493.57	5.52
493.922	5.58
494.274	5.69
494.625	5.81
494.977	5.83
495.328	5.79
495.68	5.93
496.031	6
496.383	5.8
496.734	5.9
497.086	5.82
497.437	5.77
497.788	5.83
498.139	5.69
498.49	5.78
498.842	5.74
499.193	5.67
499.544	5.82
499.894	5.74
500.245	5.89
500.596	5.73
500.947	5.88
501.298	5.76
501.648	5.92
501.999	5.93
502.35	5.9
502.7	5.97
503.051	5.66
503.401	5.84
503.752	5.97
504.102	5.89
504.452	5.94
504.803	5.89
505.153	5.91
505.503	5.93
505.853	5.9
506.203	5.78
506.553	5.8
506.903	5.78
507.253	5.97
507.603	5.83
507.953	5.9
508.303	6.03
508.652	5.78
509.002	5.85
509.352	5.86
509.701	5.86
510.051	5.83
510.4	5.8
510.75	5.74
511.099	5.85
511.449	5.78
511.798	5.78
512.147	6
512.496	5.79
512.846	5.93
513.195	5.87
513.544	5.83
513.893	5.89
514.242	5.95
514.591	6.01
514.939	5.77
515.288	5.91
515.637	5.97
515.986	5.99
516.334	5.91
516.683	5.95
517.032	5.85
517.38	6
517.729	6.05
518.077	5.77
518.426	5.88
518.774	5.86
519.122	5.79
519.47	5.9
519.819	5.61
520.167	5.78
520.515	5.76
520.863	5.86
521.211	5.88
521.559	5.98
521.907	5.93
522.255	5.88
522.602	5.92
522.95	5.75
523.298	5.84
523.645	6.01
523.993	5.87
524.341	6
524.688	6.01
525.036	5.88
525.383	6.02
525.73	5.98
526.078	5.94
526.425	5.7
526.772	5.95
527.119	5.8
527.466	5.73
527.814	5.78
528.161	5.78
528.508	5.91
528.854	5.83
529.201	5.8
529.548	5.76
529.895	5.74
530.242	5.59
530.588	5.51
530.935	5.6
531.282	5.74
531.628	5.75
531.975	5.88
532.321	5.85
532.667	5.89
533.014	5.83
533.36	5.88
533.706	5.9
534.052	5.71
534.399	5.7
534.745	5.78
535.091	5.7
535.437	5.72
535.783	5.81
536.129	5.74
536.474	5.71
536.82	5.9
537.166	5.94
537.512	5.9
537.857	5.75
538.203	5.99
538.549	5.89
538.894	5.76
539.239	5.87
539.585	5.88
539.93	5.8
540.276	6.01
540.621	5.97
540.966	5.83
541.311	5.75
541.656	5.8
542.001	5.81
542.346	5.92
542.691	5.75
543.036	5.71
543.381	5.6
543.726	5.63
544.071	5.82
544.415	5.86
544.76	5.75
545.105	5.76
545.449	5.87
545.794	5.96
546.138	5.95
546.483	5.99
546.827	5.97
547.171	5.87
547.516	5.99
547.86	5.86
548.204	5.72
548.548	5.78
548.892	5.86
549.236	5.84
549.58	5.82
549.924	5.99
550.268	6.17
550.612	5.94
550.956	6.09
551.3	6.15
551.643	6.06
551.987	6.1
552.33	5.94
552.674	6.11
553.017	6.09
553.361	6.02
553.704	5.98
554.048	5.9
554.391	5.83
554.734	6.02
555.077	5.96
555.42	5.83
555.764	5.85
556.107	6.03
556.45	5.92
556.793	5.94
557.135	5.93
557.478	6.15
557.821	5.99
558.164	5.78
558.507	5.96
558.849	5.81
559.192	6
559.534	6.01
559.877	5.97
560.219	5.87
560.562	6.29
560.904	5.99
561.246	5.9
561.589	5.91
561.931	5.94
562.273	5.81
562.615	6.1
562.957	6.22
563.299	5.61
563.641	5.97
563.983	6.02
564.325	5.83
564.667	5.79
565.008	5.78
565.35	5.92
565.692	5.79
566.033	5.88
566.375	6.06
566.716	6.2
567.058	5.71
567.399	5.75
567.741	5.64
568.082	5.76
568.423	5.84
568.764	5.96
569.105	5.91
569.447	5.94
569.788	5.95
570.129	6.15
570.47	5.92
570.811	6.05
571.151	6.11
571.492	5.99
571.833	5.86
572.174	5.75
572.514	5.96
572.855	5.84
573.195	5.9
573.536	5.81
573.876	5.6
574.217	5.88
574.557	5.92
574.898	6.01
575.238	6
575.578	5.88
575.918	5.93
576.258	6.02
576.598	6.06
576.938	5.79
577.278	5.8
577.618	5.83
577.958	5.96
578.298	5.9
578.638	5.7
578.977	5.81
579.317	5.79
579.657	5.74
579.996	6
580.336	5.83
580.675	5.99
581.014	5.83
581.354	5.86
581.693	5.8
582.032	5.86
582.372	5.91
582.711	6.01
583.05	5.84
583.389	5.86
583.728	5.48
584.067	5.96
584.406	6.1
584.745	5.88
585.083	6.01
585.422	5.8
585.761	5.91
586.1	5.75
586.438	5.73
586.777	5.98
587.115	6.18
587.454	5.68
587.792	5.77
588.13	5.98
588.469	5.72
588.807	5.88
589.145	5.81
589.483	5.87
589.821	5.69
590.159	5.85
590.497	6.01
590.835	6.23
591.173	5.62
591.511	6.13
591.849	5.97
592.187	5.68
592.524	6.23
592.862	5.67
593.2	6.06
593.537	5.79
593.875	5.7
594.212	5.72
594.55	5.64
594.887	5.94
595.224	5.93
595.561	5.59
595.899	5.72
596.236	5.85
596.573	5.9
596.91	5.35
597.247	5.73
597.584	6.05
597.921	5.55
598.258	5.61
598.594	5.73
598.931	5.81
599.268	5.95
599.604	5.42
599.941	5.82
600.277	5.79
600.614	5.64
600.95	5.84
601.287	5.82
601.623	5.86
601.959	5.69
602.296	5.71
602.632	6.11
602.968	6.02
603.304	5.89
603.64	5.92
603.976	5.76
604.312	5.57
604.648	5.9
604.984	5.96
605.319	5.76
605.655	5.73
605.991	5.67
606.326	5.76
606.662	5.78
606.998	5.58
607.333	6.02
607.668	5.86
608.004	5.88
608.339	5.79
608.674	5.95
609.01	5.83
609.345	5.7
609.68	6.03
610.015	5.69
610.35	5.59
610.685	5.69
611.02	5.68
611.355	5.88
611.689	5.57
612.024	5.76
612.359	5.7
612.694	5.72
613.028	5.66
613.363	5.97
613.697	5.95
614.032	5.85
614.366	5.77
614.7	6.08
615.035	5.67
615.369	5.85
615.703	5.89
616.037	6.04
616.371	5.39
616.705	5.76
617.039	5.95
617.373	5.72
617.707	5.35
618.041	5.36
618.375	5.9
618.709	6.04
619.042	5.71
619.376	6.13
619.71	5.97
620.043	5.45
620.377	5.43
620.71	5.99
621.043	5.74
621.377	5.75
621.71	5.69
622.043	5.59
622.376	5.45
622.709	5.75
623.043	5.97
623.376	5.82
623.709	5.53
624.041	6.14
624.374	5.54
624.707	5.51
625.04	5.67
625.373	5.2
625.705	5.43
626.038	5.84
626.37	5.56
626.703	5.89
627.035	5.83
627.368	6.08
627.7	5.76
628.032	5.78
628.365	5.75
628.697	5.61
629.029	5.31
629.361	5.4
629.693	5.81
630.025	5.78
630.357	5.72
630.689	5.91
631.021	5.91
631.353	5.97
631.684	5.72
632.016	5.31
632.348	5.52
632.679	5.97
633.011	5.89
633.342	6.01
633.674	5.71
634.005	5.98
634.336	5.39
634.668	5.88
634.999	5.11
635.33	5.64
635.661	5.76
635.992	5.35
636.323	5.87
636.654	6.29
636.985	5.71
637.316	5.62
637.647	5.45
637.977	5.9
638.308	5.6
638.639	4.94
638.969	5.36
639.3	5.38
639.63	5.39
639.961	5.43
640.291	5.6
640.622	5.38
640.952	5.3
641.282	6.08
641.612	5.68
641.943	5.18
642.273	5.66
642.603	5.77
642.933	5.98
643.263	6.16
643.592	5.44
643.922	5.21
644.252	5.14
644.582	5.65
644.911	5.71
645.241	5.42
645.571	5.58
645.9	5.08
646.23	5.42
646.559	5.83
646.888	5.09
647.218	5.78
647.547	5.9
647.876	5.44
648.205	5.44
648.534	5.51
648.863	5.12
649.192	5.61
649.521	5.24
649.85	5.39
650.179	5.59
650.508	5.4
650.837	5.29
651.165	5.65
651.494	5.3
651.822	5.6
652.151	5.66
652.479	6.1
652.808	5.31
653.136	5.6
653.465	4.82
653.793	5
654.121	5.03
654.449	5.48
654.777	5.79
655.105	5.79
655.433	5.51
655.761	5.36
656.089	5.63
656.417	5.22
656.745	4.65
657.073	5.29
657.4	6.36
657.728	5.68
658.056	5.55
658.383	5.63
658.711	5.3
659.038	5.53
659.365	6.1
659.693	5.51
660.02	5.79
660.347	5.75
660.674	5.68
661.001	5.38
661.329	5.2
661.656	5.77
661.982	5.71
662.309	5.53
662.636	5.94
662.963	5.85
663.29	5.91
663.616	5.94
663.943	5.36
664.27	5.58
664.596	5.38
664.923	5.45
665.249	5.41
665.576	5.35
665.902	6.41
666.228	5.51
666.554	5.58
666.881	5.37
667.207	5.79
667.533	5.38
667.859	5.51
668.185	5.85
668.511	4.65
668.837	4.48
669.162	5.33
669.488	4.84
669.814	5.45
670.139	5.55
670.465	6.06
670.791	5.86
671.116	6.68
671.442	5.22
671.767	5.59
672.092	6
672.418	5.6
672.743	6.25
673.068	5.53
673.393	5.2
673.718	6.51
674.043	5.17
674.368	5.61
674.693	6.45
675.018	4.88
675.343	5.62
675.667	5.95
675.992	5.87
676.317	5.67
676.641	6.24
676.966	5.59
677.29	4.75
677.615	6.06
677.939	5.85
678.264	5.96
678.588	5.81
678.912	6.06
679.236	6.41
679.56	4.89
679.885	5.93
680.209	5.7
680.532	5.98
680.856	5.89
681.18	4.86
681.504	5.79
681.828	6.28
682.152	5.75
682.475	5.88
682.799	6.13
683.122	5.48
683.446	5.36
683.769	5.83
684.093	5.66
684.416	6.04
684.739	5.2
685.062	5.64
685.386	6.42
685.709	6.05
686.032	5.33
686.355	5.96
686.678	5.45
687.001	4.83
687.324	6.69
687.646	4.8
687.969	5.3
688.292	5.88
688.614	4.57
688.937	6.54
689.26	5.71
689.582	5.9
689.904	5.51
690.227	5.68
690.549	6.52
690.871	6.21
691.194	5.89
691.516	5.3
691.838	5.54
692.16	4.94
692.482	5.28
692.804	6.16
