Data from 0195_crown_Reflection__4__365.txt Node

Date: Fri Dec 15 19:50:51 CST 2023
User: ToomeyLab
Spectrometer: FLMS14357
Trigger mode: 0
Integration Time (sec): 1.000000E-2
Scans to average: 100
Electric dark correction enabled: true
Nonlinearity correction enabled: false
Boxcar width: 0
XAxis mode: Wavelengths
Number of Pixels in Spectrum: 2048
>>>>>Begin Spectral Data<<<<<
189.047	837.23
189.435	837.23
189.823	837.23
190.211	83.12
190.599	-23.84
190.987	49.05
191.375	188.3
191.763	58.55
192.151	-665.52
192.538	126.89
192.926	-125.83
193.314	109.34
193.702	96.96
194.089	-25.57
194.477	73.29
194.864	259.6
195.252	79.52
195.639	217.81
196.027	180.57
196.414	151.6
196.801	-105.45
197.189	88.77
197.576	266.33
197.963	-332.72
198.351	-146.74
198.738	-1138.2
199.125	-0.9
199.512	-76.02
199.899	0.37
200.286	-23.72
200.673	-10.25
201.06	-45.04
201.447	-34.62
201.833	54.99
202.22	28.07
202.607	14.11
202.994	-1.41
203.38	19.92
203.767	41.23
204.154	13.19
204.54	25.55
204.927	-77.64
205.313	-32.63
205.699	-5.05
206.086	37.82
206.472	3.15
206.858	37.42
207.245	-104.01
207.631	2.06
208.017	-0.5
208.403	42.22
208.789	17.78
209.175	16.27
209.561	-14.76
209.947	27.53
210.333	-129.67
210.719	-11.96
211.105	16.64
211.491	10.53
211.876	12.46
212.262	-27.11
212.648	10.09
213.034	11.74
213.419	-52.31
213.805	-1.96
214.19	-20.82
214.576	11.4
214.961	-34
215.346	6.21
215.732	-60.03
216.117	-29.16
216.502	-67.49
216.888	31.98
217.273	-4.91
217.658	35.54
218.043	17.86
218.428	-10.71
218.813	-16.38
219.198	-37.73
219.583	-2.76
219.968	2.94
220.353	-27.46
220.738	24.9
221.122	9.73
221.507	-33.29
221.892	-30.11
222.276	-17.68
222.661	-26.68
223.046	6.42
223.43	12.89
223.815	7.44
224.199	-8.77
224.583	1.58
224.968	5.73
225.352	6.34
225.736	-0.7
226.121	-19.05
226.505	4.31
226.889	12.59
227.273	8.4
227.657	8.85
228.041	5.32
228.425	3.89
228.809	11.57
229.193	5.25
229.577	6.36
229.961	8.83
230.344	8.17
230.728	8.63
231.112	8.14
231.495	8.74
231.879	7.45
232.263	7.94
232.646	6.92
233.03	8.53
233.413	6.31
233.797	8.06
234.18	7.32
234.563	7.17
234.946	7.3
235.33	10.19
235.713	10.07
236.096	8.34
236.479	8.28
236.862	6.98
237.245	6.96
237.628	6.07
238.011	7.09
238.394	8.31
238.777	7.79
239.16	6.59
239.543	7.3
239.925	10.2
240.308	6.78
240.691	8.37
241.073	8.85
241.456	7.32
241.838	7.35
242.221	6.68
242.603	8.38
242.986	7.37
243.368	8.57
243.75	8.55
244.133	7.49
244.515	8.21
244.897	7.7
245.279	8.23
245.661	7.32
246.043	6.69
246.425	6.25
246.807	8.6
247.189	8.97
247.571	8.52
247.953	7.83
248.335	8.45
248.717	8.26
249.098	7.82
249.48	7.83
249.862	7.76
250.243	7.57
250.625	7.75
251.006	7.73
251.388	6.66
251.769	7.61
252.151	8.17
252.532	8
252.913	7.18
253.295	6.89
253.676	7.67
254.057	7.73
254.438	7.84
254.819	7.01
255.2	7.61
255.581	7.47
255.962	6.11
256.343	6.5
256.724	6.77
257.105	7.69
257.486	8.41
257.867	7.14
258.247	5.51
258.628	6.06
259.009	6.89
259.389	7.06
259.77	7.03
260.15	6.39
260.531	6.79
260.911	7.54
261.292	7.1
261.672	7.66
262.052	7.24
262.432	7.46
262.813	7.3
263.193	7.03
263.573	6.81
263.953	6.47
264.333	7.89
264.713	7.08
265.093	6.03
265.473	6.37
265.853	6.3
266.233	7.57
266.612	5.45
266.992	5.57
267.372	6.85
267.752	7.02
268.131	7.04
268.511	7.16
268.89	7.61
269.27	6.87
269.649	5.75
270.029	6.24
270.408	7.69
270.787	7.25
271.167	7.47
271.546	6.81
271.925	6.79
272.304	6.71
272.683	7.22
273.062	6.5
273.441	7
273.82	6.02
274.199	6.52
274.578	7.01
274.957	6.54
275.336	6.87
275.715	6.15
276.093	6.01
276.472	6.64
276.851	6.28
277.229	6.45
277.608	6.2
277.986	6.62
278.365	6.42
278.743	5.85
279.122	6.22
279.5	6.59
279.878	6.41
280.257	6.17
280.635	6.54
281.013	6.14
281.391	6.51
281.769	6.06
282.147	6.41
282.525	7.05
282.903	6.51
283.281	6.4
283.659	6.75
284.037	6.93
284.415	6.62
284.792	6.56
285.17	5.87
285.548	6.16
285.925	6.88
286.303	6.6
286.68	5.95
287.058	6.13
287.435	6.06
287.813	6.62
288.19	6.05
288.567	6.33
288.945	6.39
289.322	6.04
289.699	5.6
290.076	5.84
290.453	6.32
290.83	5.51
291.207	5.87
291.584	6.25
291.961	6.33
292.338	5.72
292.715	6.53
293.092	6.12
293.469	6.08
293.845	6.2
294.222	5.26
294.599	5.76
294.975	5.61
295.352	6.63
295.728	5.37
296.105	6.07
296.481	5.9
296.858	5.94
297.234	5.96
297.61	5.95
297.986	5.89
298.363	6.28
298.739	6.23
299.115	5.69
299.491	5.81
299.867	5.53
300.243	5.94
300.619	5.55
300.995	5.75
301.371	5.64
301.746	5.58
302.122	6.32
302.498	5.85
302.874	5.22
303.249	5.74
303.625	6.07
304	6.11
304.376	5.44
304.751	5.03
305.127	6.53
305.502	5.17
305.878	5.21
306.253	5.86
306.628	5.98
307.003	5.29
307.378	6.37
307.754	5.78
308.129	4.76
308.504	5.64
308.879	5.11
309.254	6.39
309.629	6.14
310.003	5.58
310.378	5.96
310.753	6.08
311.128	5.87
311.502	5.54
311.877	5.8
312.252	5.51
312.626	5.76
313.001	5.56
313.375	5.87
313.75	5.33
314.124	5.61
314.498	5.79
314.873	5.42
315.247	5.23
315.621	5.45
315.995	4.66
316.369	5.54
316.743	5.04
317.117	5.34
317.491	4.96
317.865	5
318.239	5.41
318.613	5.15
318.987	5.44
319.361	5.03
319.734	5.76
320.108	5.64
320.482	5.22
320.855	5.6
321.229	5.27
321.602	5.17
321.976	5.51
322.349	5.28
322.723	5.27
323.096	5.32
323.469	4.6
323.843	5.03
324.216	5.66
324.589	5.22
324.962	5.25
325.335	5.33
325.708	5.57
326.081	5.65
326.454	5.16
326.827	4.86
327.2	5.09
327.573	5.47
327.945	5.44
328.318	4.86
328.691	4.8
329.063	5.13
329.436	5.32
329.809	5.59
330.181	5.28
330.553	5.45
330.926	5.87
331.298	5.41
331.671	4.89
332.043	5.59
332.415	5.77
332.787	5.55
333.159	5.89
333.532	5.41
333.904	5.11
334.276	5.49
334.648	5.74
335.02	5.33
335.391	5.19
335.763	5.45
336.135	5.61
336.507	5.51
336.879	4.83
337.25	4.93
337.622	5.72
337.993	5.17
338.365	5.77
338.736	4.95
339.108	5.2
339.479	5.08
339.851	5.43
340.222	4.93
340.593	5.45
340.964	5.97
341.336	5.95
341.707	5.12
342.078	5.72
342.449	5.41
342.82	5.11
343.191	5.35
343.562	5.26
343.933	5.36
344.303	5.34
344.674	5.17
345.045	5.34
345.416	5.81
345.786	5.1
346.157	5.38
346.527	5.13
346.898	5.57
347.268	5.72
347.639	5.18
348.009	5.71
348.38	5.39
348.75	5.3
349.12	4.97
349.49	6.22
349.861	5.6
350.231	5.46
350.601	5.5
350.971	5.37
351.341	6.08
351.711	5.51
352.081	5.39
352.45	5.64
352.82	5.66
353.19	5.19
353.56	5.4
353.929	5.72
354.299	5.59
354.669	5.36
355.038	5.85
355.408	5.77
355.777	5.76
356.147	5.16
356.516	5.74
356.885	5.46
357.254	5.42
357.624	5.78
357.993	5.55
358.362	5.15
358.731	5.11
359.1	5.69
359.469	5.92
359.838	5.81
360.207	5.48
360.576	5.46
360.945	5.42
361.314	6.34
361.682	5.58
362.051	5.63
362.42	5.92
362.788	5.76
363.157	6.06
363.525	6.09
363.894	5.82
364.262	5.96
364.631	5.76
364.999	5.72
365.367	5.23
365.735	6.39
366.104	5.7
366.472	5.95
366.84	5.45
367.208	6.11
367.576	5.94
367.944	6.02
368.312	5.68
368.68	5.82
369.048	6.23
369.416	5.8
369.783	5.42
370.151	6.25
370.519	6.06
370.886	6.25
371.254	5.5
371.621	6.27
371.989	5.95
372.356	5.58
372.724	5.99
373.091	5.64
373.458	6.06
373.826	5.97
374.193	5.9
374.56	6.28
374.927	6.31
375.294	5.88
375.661	5.88
376.028	6.09
376.395	5.76
376.762	6.03
377.129	6.08
377.496	6.14
377.863	6.1
378.229	5.53
378.596	5.93
378.963	6.02
379.329	6
379.696	6.44
380.062	6.06
380.429	5.79
380.795	5.82
381.161	6.4
381.528	6.25
381.894	6.14
382.26	5.64
382.626	6.42
382.993	5.9
383.359	6.35
383.725	6.13
384.091	6.17
384.457	6.06
384.823	6
385.188	6.13
385.554	6.01
385.92	6.15
386.286	6.36
386.651	6.24
387.017	6.33
387.383	6.59
387.748	6.16
388.114	6.28
388.479	6.07
388.845	6.48
389.21	6.48
389.575	6.11
389.94	6.02
390.306	6.29
390.671	6.64
391.036	6.12
391.401	5.8
391.766	6.46
392.131	6.24
392.496	6.52
392.861	6.5
393.226	6.39
393.591	6.44
393.956	6.36
394.32	6.45
394.685	6.3
395.05	6.28
395.414	6.69
395.779	6.18
396.143	6.49
396.508	6.33
396.872	6.54
397.236	6.46
397.601	6.27
397.965	6.41
398.329	6.64
398.694	6.37
399.058	6.55
399.422	6.5
399.786	6.54
400.15	6.32
400.514	6.65
400.878	6.58
401.242	6.8
401.605	6.62
401.969	6.46
402.333	6.46
402.697	6.54
403.06	6.69
403.424	6.49
403.787	6.63
404.151	6.61
404.514	6.4
404.878	6.43
405.241	6.74
405.604	6.63
405.968	6.64
406.331	6.74
406.694	6.7
407.057	6.69
407.42	6.68
407.783	6.74
408.146	6.81
408.509	6.47
408.872	6.78
409.235	6.36
409.598	6.75
409.961	6.63
410.323	6.93
410.686	6.59
411.049	6.54
411.411	6.64
411.774	6.99
412.136	6.73
412.499	6.6
412.861	6.74
413.223	6.49
413.586	6.73
413.948	6.97
414.31	6.76
414.672	6.07
415.035	6.43
415.397	6.85
415.759	6.54
416.121	6.91
416.483	6.68
416.845	6.79
417.206	6.85
417.568	6.78
417.93	6.61
418.292	6.76
418.653	6.77
419.015	6.95
419.377	6.79
419.738	6.83
420.1	6.74
420.461	6.88
420.822	6.82
421.184	6.68
421.545	6.76
421.906	6.54
422.267	6.67
422.629	6.78
422.99	6.74
423.351	6.66
423.712	6.65
424.073	6.75
424.434	6.65
424.795	6.59
425.155	6.62
425.516	6.86
425.877	6.77
426.238	6.76
426.598	6.83
426.959	6.64
427.32	6.66
427.68	6.5
428.041	6.73
428.401	6.98
428.761	6.6
429.122	6.85
429.482	6.68
429.842	6.9
430.202	6.84
430.563	6.67
430.923	6.67
431.283	7.02
431.643	6.85
432.003	6.95
432.363	6.94
432.722	6.8
433.082	6.79
433.442	6.94
433.802	6.68
434.161	6.82
434.521	7.2
434.881	6.88
435.24	7.01
435.6	6.85
435.959	6.82
436.319	6.87
436.678	6.73
437.037	6.81
437.396	6.91
437.756	6.91
438.115	6.89
438.474	6.95
438.833	6.77
439.192	6.82
439.551	6.96
439.91	7
440.269	7.13
440.628	6.85
440.987	7.06
441.345	6.97
441.704	6.95
442.063	6.82
442.421	6.88
442.78	7.01
443.138	6.75
443.497	6.81
443.855	6.82
444.214	7.03
444.572	7.04
444.93	7.02
445.288	7.12
445.647	7.21
446.005	6.94
446.363	7.01
446.721	7.17
447.079	6.81
447.437	6.96
447.795	7.13
448.153	6.86
448.51	7.02
448.868	6.98
449.226	6.96
449.584	6.89
449.941	7
450.299	6.9
450.656	6.95
451.014	6.99
451.371	6.95
451.729	7
452.086	7.16
452.443	7
452.801	7
453.158	7.2
453.515	6.9
453.872	7.24
454.229	6.93
454.586	6.94
454.943	7.11
455.3	7.15
455.657	6.92
456.014	6.79
456.371	7.1
456.727	6.97
457.084	7.2
457.441	7.12
457.797	7.01
458.154	7.21
458.51	7.11
458.867	7.03
459.223	7.06
459.58	7.01
459.936	7.28
460.292	7.12
460.648	7.12
461.005	7.25
461.361	7.17
461.717	7.15
462.073	6.98
462.429	6.95
462.785	6.98
463.141	7.09
463.496	7.06
463.852	7.06
464.208	7.09
464.564	7.27
464.919	7.21
465.275	7.19
465.631	7.3
465.986	7.14
466.342	7.1
466.697	6.98
467.052	7.37
467.408	7
467.763	7.15
468.118	7.28
468.473	7.12
468.829	7.18
469.184	7.05
469.539	7.17
469.894	7.16
470.249	7.26
470.603	7.09
470.958	7.31
471.313	7.23
471.668	7.19
472.023	7.29
472.377	7.16
472.732	7.15
473.086	7.01
473.441	7.03
473.795	7.26
474.15	7.11
474.504	7.16
474.859	7.32
475.213	7.2
475.567	7.17
475.921	7.15
476.275	7.16
476.63	7.1
476.984	7.15
477.338	7.29
477.692	7.16
478.045	7.19
478.399	7.16
478.753	7.26
479.107	7.27
479.461	7.27
479.814	7.21
480.168	7.19
480.521	7.12
480.875	7.09
481.228	7.22
481.582	7.18
481.935	7.29
482.289	7.54
482.642	7.27
482.995	7.31
483.348	7.11
483.701	7.26
484.055	7.31
484.408	7.27
484.761	7.16
485.114	7.19
485.466	7.1
485.819	7.04
486.172	6.93
486.525	6.82
486.878	6.81
487.23	6.89
487.583	6.97
487.936	7.07
488.288	7.16
488.641	7.25
488.993	7.04
489.345	7.11
489.698	6.99
490.05	6.94
490.402	7
490.754	6.89
491.107	6.98
491.459	7.08
491.811	7.21
492.163	7.15
492.515	7.1
492.866	7.23
493.218	7.28
493.57	7.12
493.922	7.04
494.274	7.06
494.625	7.06
494.977	7.08
495.328	7.17
495.68	7.2
496.031	7.32
496.383	7.26
496.734	7.31
497.086	7.37
497.437	7.28
497.788	7.22
498.139	7.22
498.49	7.3
498.842	7.32
499.193	7.26
499.544	7.25
499.894	7.16
500.245	7.17
500.596	7.21
500.947	7.3
501.298	7.17
501.648	7.33
501.999	7.35
502.35	7.34
502.7	7.29
503.051	7.14
503.401	7.36
503.752	7.33
504.102	7.34
504.452	7.32
504.803	7.34
505.153	7.21
505.503	7.27
505.853	7.33
506.203	7.27
506.553	7.27
506.903	7.18
507.253	7.3
507.603	7.22
507.953	7.51
508.303	7.57
508.652	7.29
509.002	7.47
509.352	7.33
509.701	7.34
510.051	7.31
510.4	7.34
510.75	7.35
511.099	7.27
511.449	7.24
511.798	7.18
512.147	7.36
512.496	7.21
512.846	7.39
513.195	7.33
513.544	7.19
513.893	7.26
514.242	7.34
514.591	7.49
514.939	7.41
515.288	7.27
515.637	7.42
515.986	7.31
516.334	7.24
516.683	7.45
517.032	7.38
517.38	7.37
517.729	7.36
518.077	7.3
518.426	7.4
518.774	7.49
519.122	7.32
519.47	7.41
519.819	7.31
520.167	7.32
520.515	7.29
520.863	7.39
521.211	7.3
521.559	7.29
521.907	7.22
522.255	7.29
522.602	7.19
522.95	7.29
523.298	7.25
523.645	7.42
523.993	7.26
524.341	7.43
524.688	7.25
525.036	7.3
525.383	7.45
525.73	7.59
526.078	7.22
526.425	7.38
526.772	7.54
527.119	7.38
527.466	7.48
527.814	7.33
528.161	7.21
528.508	7.29
528.854	7.21
529.201	7.32
529.548	7.21
529.895	7.26
530.242	7.14
530.588	7.16
530.935	7.12
531.282	7.07
531.628	6.98
531.975	6.98
532.321	7.14
532.667	7.18
533.014	7.22
533.36	7.3
533.706	7.25
534.052	7.4
534.399	7.26
534.745	7.27
535.091	7.27
535.437	7.3
535.783	7.2
536.129	7.2
536.474	7.12
536.82	7.17
537.166	7.23
537.512	7.31
537.857	7.19
538.203	7.33
538.549	7.31
538.894	7.25
539.239	7.32
539.585	7.24
539.93	7.21
540.276	7.35
540.621	7.42
540.966	7.38
541.311	7.27
541.656	7.34
542.001	7.35
542.346	7.6
542.691	7.27
543.036	7.28
543.381	7.16
543.726	7.14
544.071	7.24
544.415	7.15
544.76	7.16
545.105	7.2
545.449	7.22
545.794	7.33
546.138	7.23
546.483	7.24
546.827	7.27
547.171	7.28
547.516	7.46
547.86	7.41
548.204	7.25
548.548	7.32
548.892	7.34
549.236	7.31
549.58	7.13
549.924	7.32
550.268	7.31
550.612	7.37
550.956	7.51
551.3	7.37
551.643	7.67
551.987	7.45
552.33	7.25
552.674	7.44
553.017	7.45
553.361	7.27
553.704	7.71
554.048	7.49
554.391	7.25
554.734	7.35
555.077	7.33
555.42	7.34
555.764	7.21
556.107	7.18
556.45	7.17
556.793	7.39
557.135	7.29
557.478	7.5
557.821	7.34
558.164	7.21
558.507	7.42
558.849	7.15
559.192	7.5
559.534	7.33
559.877	7.35
560.219	7.21
560.562	7.44
560.904	7.41
561.246	7.47
561.589	7.35
561.931	7.33
562.273	7.41
562.615	7.39
562.957	7.41
563.299	7.33
563.641	7.32
563.983	7.52
564.325	7.05
564.667	7.27
565.008	7.33
565.35	7.29
565.692	7.1
566.033	7.41
566.375	7.38
566.716	7.36
567.058	7.12
567.399	7.28
567.741	7.19
568.082	7.28
568.423	7.31
568.764	7.07
569.105	7.23
569.447	7.3
569.788	7.05
570.129	7.43
570.47	7.12
570.811	7.2
571.151	7.36
571.492	7.41
571.833	7.2
572.174	7.19
572.514	7.28
572.855	7.16
573.195	7.32
573.536	7.42
573.876	7.16
574.217	7.23
574.557	7.23
574.898	7.29
575.238	7.33
575.578	6.96
575.918	7.44
576.258	7.43
576.598	7.34
576.938	7.19
577.278	7.32
577.618	7.2
577.958	7.23
578.298	7.07
578.638	7.15
578.977	7.02
579.317	7.12
579.657	7.3
579.996	7.28
580.336	7.18
580.675	7.11
581.014	7.47
581.354	7.19
581.693	7.23
582.032	7.26
582.372	7.07
582.711	7.12
583.05	7.08
583.389	7.11
583.728	7.12
584.067	7.38
584.406	7.4
584.745	7.12
585.083	7.32
585.422	7.31
585.761	7.51
586.1	7.19
586.438	7.07
586.777	7.42
587.115	7.37
587.454	7.22
587.792	7
588.13	7.2
588.469	6.88
588.807	7.14
589.145	6.95
589.483	7.12
589.821	7.18
590.159	6.88
590.497	7.3
590.835	7.31
591.173	7.26
591.511	7.26
591.849	7.07
592.187	7.33
592.524	7.15
592.862	7
593.2	7.21
593.537	7.03
593.875	7.11
594.212	6.94
594.55	6.92
594.887	7.1
595.224	6.94
595.561	6.98
595.899	6.85
596.236	6.73
596.573	7.16
596.91	6.75
597.247	6.9
597.584	7.13
597.921	6.94
598.258	6.96
598.594	7.03
598.931	6.96
599.268	7.17
599.604	6.95
599.941	7
600.277	6.93
600.614	6.63
600.95	6.91
601.287	7.21
601.623	7.03
601.959	6.87
602.296	7.02
602.632	6.88
602.968	6.96
603.304	7.07
603.64	7.09
603.976	7.14
604.312	6.62
604.648	6.98
604.984	7.24
605.319	7.1
605.655	7
605.991	7.07
606.326	6.84
606.662	6.96
606.998	6.86
607.333	6.97
607.668	7.13
608.004	6.82
608.339	6.99
608.674	7.06
609.01	6.78
609.345	6.64
609.68	7.29
610.015	7.02
610.35	6.82
610.685	6.68
611.02	7.05
611.355	7.14
611.689	7.02
612.024	6.99
612.359	6.8
612.694	6.82
613.028	6.65
613.363	6.75
613.697	6.83
614.032	7.13
614.366	6.95
614.7	7.57
615.035	6.9
615.369	6.71
615.703	6.61
616.037	7.12
616.371	6.63
616.705	6.77
617.039	6.93
617.373	6.96
617.707	6.71
618.041	6.94
618.375	6.91
618.709	6.58
619.042	6.54
619.376	6.77
619.71	6.9
620.043	6.89
620.377	7.02
620.71	7.26
621.043	6.87
621.377	6.84
621.71	6.92
622.043	6.54
622.376	6.39
622.709	6.68
623.043	6.62
623.376	6.81
623.709	6.82
624.041	6.86
624.374	6.66
624.707	6.62
625.04	7.07
625.373	6.39
625.705	7.02
626.038	6.53
626.37	6.77
626.703	6.77
627.035	6.46
627.368	7.3
627.7	7.23
628.032	6.47
628.365	6.89
628.697	6.95
629.029	6.87
629.361	6.78
629.693	7.03
630.025	6.57
630.357	7.02
630.689	7.19
631.021	6.73
631.353	6.94
631.684	6.56
632.016	6.56
632.348	7.06
632.679	6.82
633.011	7.05
633.342	6.95
633.674	6.41
634.005	7.31
634.336	6.57
634.668	7.1
634.999	6.7
635.33	7.12
635.661	6.64
635.992	6.61
636.323	6.66
636.654	6.87
636.985	6.88
637.316	6.46
637.647	6.62
637.977	7.03
638.308	7.21
638.639	6.48
638.969	6.55
639.3	6.73
639.63	6.42
639.961	6.84
640.291	7.16
640.622	6.98
640.952	6.76
641.282	7.16
641.612	6.88
641.943	6.7
642.273	6.74
642.603	7.16
642.933	6.45
643.263	6.8
643.592	6.67
643.922	6.52
644.252	6.57
644.582	6.81
644.911	5.86
645.241	6.41
645.571	6.66
645.9	6.74
646.23	6.57
646.559	7.14
646.888	6.36
647.218	6.16
647.547	7.04
647.876	6.89
648.205	6.76
648.534	6.04
648.863	5.98
649.192	7.17
649.521	6.49
649.85	6.39
650.179	6.77
650.508	5.98
650.837	6.07
651.165	6.34
651.494	6.09
651.822	6.56
652.151	6.15
652.479	7.16
652.808	6.6
653.136	6.66
653.465	5.99
653.793	6.3
654.121	6.18
654.449	6.44
654.777	7.15
655.105	6.81
655.433	5.97
655.761	6.91
656.089	6.95
656.417	6.29
656.745	6.23
657.073	6.13
657.4	7.19
657.728	6.97
658.056	6.39
658.383	6.58
658.711	6.4
659.038	6.24
659.365	7.16
659.693	6.64
660.02	6.21
660.347	6.39
660.674	6.72
661.001	6.38
661.329	5.72
661.656	6.7
661.982	6.9
662.309	6.43
662.636	5.94
662.963	6.7
663.29	6.96
663.616	6.88
663.943	6.12
664.27	6.63
664.596	6.89
664.923	6.42
665.249	6.23
665.576	6.36
665.902	7.27
666.228	6.5
666.554	6.83
666.881	6.17
667.207	6.81
667.533	6.29
667.859	7.35
668.185	6.84
668.511	6.12
668.837	5.91
669.162	6.8
669.488	5.29
669.814	6.29
670.139	7.2
670.465	6.97
670.791	6.64
671.116	7.34
671.442	6.61
671.767	6.37
672.092	7.12
672.418	6.47
672.743	7.13
673.068	6.41
673.393	6.88
673.718	6.48
674.043	6.41
674.368	6.27
674.693	6.94
675.018	6.67
675.343	6.67
675.667	6.83
675.992	6.55
676.317	6.6
676.641	6.87
676.966	6.95
677.29	6.53
677.615	6.89
677.939	6.75
678.264	6.66
678.588	7.03
678.912	6.52
679.236	6.99
679.56	5.66
679.885	7.02
680.209	6.91
680.532	6.11
680.856	7.9
681.18	6.24
681.504	7.02
681.828	6.55
682.152	5.93
682.475	6.95
682.799	6.71
683.122	6.88
683.446	5.96
683.769	7.18
684.093	6.53
684.416	6.71
684.739	6.87
685.062	6.99
685.386	6.8
685.709	5.98
686.032	6.26
686.355	6.97
686.678	5.78
687.001	6.04
687.324	6.65
687.646	6.36
687.969	6.46
688.292	6.32
688.614	5.92
688.937	7.31
689.26	6.9
689.582	6.53
689.904	6.56
690.227	7.02
690.549	6.64
690.871	7.13
691.194	6.21
691.516	6.15
691.838	6.78
692.16	5.69
