Data from 0195_crown_Reflection__0__361.txt Node

Date: Fri Dec 15 19:50:15 CST 2023
User: ToomeyLab
Spectrometer: FLMS14357
Trigger mode: 0
Integration Time (sec): 1.000000E-2
Scans to average: 100
Electric dark correction enabled: true
Nonlinearity correction enabled: false
Boxcar width: 0
XAxis mode: Wavelengths
Number of Pixels in Spectrum: 2048
>>>>>Begin Spectral Data<<<<<
189.047	-1098.91
189.435	-1098.91
189.823	-1098.91
190.211	67.9
190.599	59.7
190.987	67.85
191.375	13.45
191.763	43.35
192.151	-280.41
192.538	118.1
192.926	-356.65
193.314	141.42
193.702	95.85
194.089	18.35
194.477	-6.24
194.864	390.07
195.252	117.8
195.639	168.83
196.027	195.12
196.414	140.49
196.801	48.37
197.189	180.28
197.576	92.09
197.963	40.9
198.351	-22.17
198.738	-2015.17
199.125	-24.16
199.512	36.66
199.899	30.87
200.286	-2.87
200.673	6.03
201.06	49.43
201.447	-25.76
201.833	44.41
202.22	14.85
202.607	26.08
202.994	64.97
203.38	-10.98
203.767	39.23
204.154	9.61
204.54	15.96
204.927	33.37
205.313	-35.48
205.699	4.64
206.086	46.82
206.472	1.96
206.858	20.07
207.245	-68.74
207.631	5.85
208.017	-13.7
208.403	28.32
208.789	10.14
209.175	26.48
209.561	-0.18
209.947	-25.6
210.333	-84.1
210.719	6.86
211.105	23.41
211.491	-32.12
211.876	22.89
212.262	-17.95
212.648	28.32
213.034	8.54
213.419	-57.03
213.805	-35.55
214.19	-42.62
214.576	-15.1
214.961	-26.04
215.346	-109.59
215.732	-31.47
216.117	9
216.502	24.88
216.888	40.77
217.273	27.96
217.658	2.82
218.043	-0.62
218.428	-20.77
218.813	11.44
219.198	-46.93
219.583	-21.39
219.968	13.68
220.353	-9.23
220.738	1.02
221.122	9.77
221.507	-6.46
221.892	-35.51
222.276	-44.22
222.661	-11.34
223.046	-9.76
223.43	5.44
223.815	15.96
224.199	-8.11
224.583	0.79
224.968	-5.5
225.352	-8.56
225.736	-6.93
226.121	-17.69
226.505	4.46
226.889	6.93
227.273	-6.99
227.657	1.88
228.041	4.5
228.425	-4.52
228.809	2.78
229.193	1.65
229.577	1.06
229.961	4.78
230.344	2.19
230.728	2.3
231.112	3.56
231.495	3.02
231.879	1.93
232.263	4.43
232.646	2.85
233.03	2.96
233.413	-0.8
233.797	2.23
234.18	1.93
234.563	0.54
234.946	1.75
235.33	3.17
235.713	3.07
236.096	1.57
236.479	3.33
236.862	0.82
237.245	6.45
237.628	1.2
238.011	3.31
238.394	2.79
238.777	1.62
239.16	1.8
239.543	3.44
239.925	3.67
240.308	2.58
240.691	4.09
241.073	6.68
241.456	2.57
241.838	2
242.221	1.9
242.603	2.84
242.986	2.63
243.368	2.56
243.75	3.19
244.133	2.8
244.515	2.98
244.897	3.39
245.279	2.76
245.661	3.23
246.043	2.39
246.425	1.76
246.807	3.35
247.189	4.06
247.571	2.72
247.953	3.32
248.335	3.04
248.717	3.26
249.098	3.03
249.48	2.99
249.862	3.13
250.243	3.31
250.625	2.85
251.006	3.24
251.388	2.92
251.769	2.49
252.151	2.59
252.532	2.93
252.913	2.14
253.295	2.59
253.676	2.38
254.057	3.14
254.438	3.04
254.819	2.27
255.2	2.7
255.581	1.46
255.962	0.89
256.343	2.71
256.724	2.26
257.105	3.57
257.486	4.01
257.867	2.88
258.247	2.02
258.628	2.09
259.009	2.31
259.389	1.98
259.77	2.12
260.15	1.68
260.531	1.72
260.911	3.37
261.292	2.69
261.672	3.1
262.052	2.73
262.432	3.06
262.813	3.09
263.193	2.61
263.573	2.36
263.953	2.49
264.333	2.88
264.713	2.95
265.093	1.53
265.473	2.48
265.853	1.43
266.233	2.95
266.612	0.8
266.992	1.37
267.372	2.91
267.752	2.6
268.131	1.63
268.511	2.88
268.89	3.04
269.27	3.09
269.649	2.19
270.029	2.28
270.408	3.29
270.787	3.48
271.167	3.29
271.546	2.74
271.925	2.72
272.304	2.13
272.683	2.89
273.062	2.29
273.441	2.87
273.82	2.44
274.199	2.67
274.578	2.72
274.957	2.63
275.336	2.24
275.715	2.18
276.093	2.49
276.472	2.76
276.851	2.51
277.229	2.4
277.608	1.88
277.986	2.7
278.365	2.84
278.743	2.3
279.122	2.46
279.5	3.04
279.878	2.46
280.257	2.26
280.635	1.72
281.013	2.36
281.391	3.01
281.769	2.15
282.147	2.91
282.525	2.88
282.903	2
283.281	2.48
283.659	2.7
284.037	2.21
284.415	2.44
284.792	2.53
285.17	1.97
285.548	2.77
285.925	2.31
286.303	2.85
286.68	2.05
287.058	2.75
287.435	2.69
287.813	2.07
288.19	2.33
288.567	2.51
288.945	2.95
289.322	2.15
289.699	1.79
290.076	2.61
290.453	2.84
290.83	2.25
291.207	2.28
291.584	2.52
291.961	2.28
292.338	2.27
292.715	3.17
293.092	2.66
293.469	2.18
293.845	2.65
294.222	2.03
294.599	2.55
294.975	2.08
295.352	3.02
295.728	2.09
296.105	2.34
296.481	2.8
296.858	2.8
297.234	2.06
297.61	1.73
297.986	2.54
298.363	2.85
298.739	2.46
299.115	2.42
299.491	2.28
299.867	2.59
300.243	2.54
300.619	2.1
300.995	2.17
301.371	2.58
301.746	2.47
302.122	2.63
302.498	2.08
302.874	2.47
303.249	2.19
303.625	2.27
304	2.62
304.376	3.12
304.751	1.95
305.127	3.11
305.502	2.01
305.878	1.84
306.253	2.36
306.628	2.92
307.003	2.56
307.378	2.43
307.754	2.29
308.129	1.58
308.504	1.74
308.879	2.24
309.254	3.03
309.629	2.53
310.003	2.62
310.378	3.04
310.753	2.77
311.128	2.99
311.502	2.76
311.877	2.85
312.252	1.87
312.626	2.16
313.001	2.28
313.375	2.5
313.75	2.26
314.124	2.72
314.498	2.26
314.873	2.16
315.247	2.45
315.621	2.29
315.995	1.67
316.369	2.21
316.743	2.71
317.117	2.48
317.491	2.17
317.865	2.33
318.239	2.38
318.613	2.58
318.987	2.72
319.361	1.92
319.734	2.44
320.108	2.16
320.482	2.62
320.855	2.46
321.229	2.31
321.602	1.88
321.976	2.5
322.349	1.94
322.723	2.05
323.096	2.88
323.469	1.39
323.843	2.33
324.216	2.41
324.589	2.1
324.962	2.38
325.335	2.56
325.708	2.05
326.081	1.96
326.454	2.68
326.827	1.95
327.2	1.99
327.573	2.52
327.945	1.98
328.318	1.67
328.691	1.81
329.063	2.18
329.436	2.3
329.809	2.16
330.181	1.76
330.553	2.63
330.926	2.09
331.298	2.16
331.671	1.91
332.043	2.64
332.415	2.09
332.787	2.61
333.159	2.47
333.532	2.21
333.904	2.3
334.276	1.91
334.648	2.76
335.02	1.97
335.391	2.13
335.763	1.98
336.135	2.26
336.507	2.65
336.879	2.33
337.25	2.4
337.622	2.62
337.993	1.86
338.365	2.47
338.736	2.35
339.108	2.27
339.479	1.97
339.851	2.5
340.222	2.45
340.593	2.5
340.964	2.05
341.336	2.81
341.707	1.51
342.078	2.18
342.449	2.36
342.82	2.85
343.191	1.89
343.562	2.66
343.933	2.53
344.303	2.5
344.674	2.35
345.045	2.41
345.416	2.64
345.786	2.25
346.157	2.82
346.527	2.42
346.898	2.09
347.268	2.68
347.639	2.31
348.009	2.68
348.38	2.23
348.75	2.64
349.12	2.34
349.49	2.87
349.861	2.96
350.231	2.13
350.601	2.64
350.971	2.2
351.341	2.44
351.711	2.36
352.081	2.55
352.45	2.4
352.82	2.83
353.19	2.4
353.56	2.54
353.929	3.13
354.299	2.79
354.669	1.58
355.038	2.9
355.408	2.7
355.777	2.71
356.147	2.47
356.516	2.52
356.885	2.48
357.254	2.3
357.624	2.78
357.993	2.79
358.362	2.02
358.731	2.46
359.1	2.68
359.469	2.67
359.838	2.77
360.207	2.03
360.576	2.71
360.945	2.67
361.314	3.32
361.682	2.2
362.051	2.43
362.42	2.59
362.788	2.62
363.157	2.71
363.525	2.82
363.894	2.69
364.262	2.94
364.631	2.57
364.999	2.76
365.367	2.49
365.735	3.51
366.104	2.96
366.472	2.95
366.84	2.3
367.208	2.37
367.576	2.56
367.944	2.63
368.312	2.49
368.68	2.06
369.048	3.02
369.416	2.56
369.783	2.4
370.151	2.85
370.519	3.04
370.886	3.06
371.254	2.33
371.621	2.83
371.989	2.84
372.356	2.34
372.724	3.06
373.091	2.69
373.458	2.46
373.826	2.83
374.193	2.46
374.56	2.8
374.927	2.77
375.294	2.57
375.661	2.44
376.028	2.87
376.395	2.74
376.762	2.82
377.129	2.85
377.496	2.46
377.863	2.65
378.229	2.34
378.596	3.03
378.963	2.29
379.329	2.49
379.696	2.82
380.062	2.81
380.429	2.73
380.795	2.55
381.161	2.77
381.528	2.94
381.894	2.71
382.26	2.51
382.626	2.94
382.993	2.44
383.359	3.16
383.725	2.67
384.091	2.9
384.457	3.05
384.823	2.8
385.188	3.07
385.554	2.84
385.92	2.74
386.286	3.05
386.651	3.02
387.017	3.35
387.383	3.03
387.748	2.73
388.114	2.96
388.479	2.76
388.845	3.04
389.21	3.2
389.575	2.94
389.94	2.71
390.306	3
390.671	2.73
391.036	2.6
391.401	2.47
391.766	2.92
392.131	2.68
392.496	2.74
392.861	2.93
393.226	2.96
393.591	3.02
393.956	2.9
394.32	3.11
394.685	2.99
395.05	2.91
395.414	2.79
395.779	2.81
396.143	2.82
396.508	2.92
396.872	2.96
397.236	3.02
397.601	2.67
397.965	2.85
398.329	2.74
398.694	2.82
399.058	2.9
399.422	2.94
399.786	2.9
400.15	2.88
400.514	2.79
400.878	3.1
401.242	3.17
401.605	3.22
401.969	3.11
402.333	3.04
402.697	3.2
403.06	3.2
403.424	2.9
403.787	2.86
404.151	3.22
404.514	3.05
404.878	3.07
405.241	3.11
405.604	3.14
405.968	3.05
406.331	3.24
406.694	3.05
407.057	3
407.42	3.21
407.783	2.6
408.146	2.82
408.509	3
408.872	2.65
409.235	3.01
409.598	3.33
409.961	3.01
410.323	3.29
410.686	2.74
411.049	2.97
411.411	2.92
411.774	3.18
412.136	2.91
412.499	2.78
412.861	3.08
413.223	2.9
413.586	3.2
413.948	3.03
414.31	3.16
414.672	3.08
415.035	2.97
415.397	3.21
415.759	2.83
416.121	3.24
416.483	2.94
416.845	3.03
417.206	3.08
417.568	3.1
417.93	2.97
418.292	3.02
418.653	3.19
419.015	3.12
419.377	3.05
419.738	3.2
420.1	3.11
420.461	3.09
420.822	3.03
421.184	3.15
421.545	3.23
421.906	2.99
422.267	2.94
422.629	2.98
422.99	3.13
423.351	3.05
423.712	3
424.073	3.12
424.434	3.03
424.795	3.03
425.155	3.19
425.516	2.96
425.877	3.04
426.238	2.95
426.598	3.08
426.959	3.07
427.32	2.99
427.68	3
428.041	3.04
428.401	3.21
428.761	2.98
429.122	3.29
429.482	3.05
429.842	3.17
430.202	3.14
430.563	3.24
430.923	3.11
431.283	3.14
431.643	3.09
432.003	3.07
432.363	3.28
432.722	3.15
433.082	3.2
433.442	3.11
433.802	2.91
434.161	3.16
434.521	3.25
434.881	3.08
435.24	3.06
435.6	3.14
435.959	2.96
436.319	3.06
436.678	3.16
437.037	3.16
437.396	3.3
437.756	3.12
438.115	3.13
438.474	3.23
438.833	3.18
439.192	3.24
439.551	3.12
439.91	3.05
440.269	3.2
440.628	3.03
440.987	3.07
441.345	3.1
441.704	3.2
442.063	3.08
442.421	3.18
442.78	3.11
443.138	3.16
443.497	3.11
443.855	3.24
444.214	3.14
444.572	3.37
444.93	3.06
445.288	3.17
445.647	3.33
446.005	3.2
446.363	3.35
446.721	3.42
447.079	2.92
447.437	3.13
447.795	3.25
448.153	3.08
448.51	3.08
448.868	3.1
449.226	3.17
449.584	3.18
449.941	3.29
450.299	3.21
450.656	3.22
451.014	3.25
451.371	3.09
451.729	3.12
452.086	3.4
452.443	3.32
452.801	3.27
453.158	3.19
453.515	3.09
453.872	3.37
454.229	3.04
454.586	3.15
454.943	3.24
455.3	3.36
455.657	3.09
456.014	3.18
456.371	3.18
456.727	3.23
457.084	3.34
457.441	3.26
457.797	3.3
458.154	3.3
458.51	3.35
458.867	3.39
459.223	3.25
459.58	3.22
459.936	3.2
460.292	3.12
460.648	3.18
461.005	3.24
461.361	3.32
461.717	3.28
462.073	2.98
462.429	3.13
462.785	3.16
463.141	3.27
463.496	3.21
463.852	3.44
464.208	3.32
464.564	3.34
464.919	3.28
465.275	3.19
465.631	3.38
465.986	3.24
466.342	3.16
466.697	3.15
467.052	3.23
467.408	3.29
467.763	3.1
468.118	3.38
468.473	3.26
468.829	3.23
469.184	3.32
469.539	3.36
469.894	3.03
470.249	3.45
470.603	3.46
470.958	3.44
471.313	3.28
471.668	3.38
472.023	3.43
472.377	3.09
472.732	3.21
473.086	3.17
473.441	3.21
473.795	3.46
474.15	3.33
474.504	3.2
474.859	3.31
475.213	3.18
475.567	3.26
475.921	3.17
476.275	3.3
476.63	3.27
476.984	3.21
477.338	3.39
477.692	3.23
478.045	3.1
478.399	3.25
478.753	3.37
479.107	3.3
479.461	3.16
479.814	3.24
480.168	3.27
480.521	3.1
480.875	3.19
481.228	3.13
481.582	3.27
481.935	3.13
482.289	3.41
482.642	3.23
482.995	3.29
483.348	3.06
483.701	3.23
484.055	3.26
484.408	3.25
484.761	3.13
485.114	3.19
485.466	3.02
485.819	3.02
486.172	3.05
486.525	3.13
486.878	3.22
487.23	3.18
487.583	3.19
487.936	3.29
488.288	3.21
488.641	3.21
488.993	3.14
489.345	3.1
489.698	3.12
490.05	3.1
490.402	3.2
490.754	3.16
491.107	3.26
491.459	3.23
491.811	3.29
492.163	3.22
492.515	3.24
492.866	3.27
493.218	3.23
493.57	3.07
493.922	3.16
494.274	3.29
494.625	3.34
494.977	3.31
495.328	3.36
495.68	3.3
496.031	3.36
496.383	3.34
496.734	3.38
497.086	3.38
497.437	3.43
497.788	3.34
498.139	3.32
498.49	3.45
498.842	3.17
499.193	3.3
499.544	3.26
499.894	3.25
500.245	3.36
500.596	3.2
500.947	3.47
501.298	3.36
501.648	3.33
501.999	3.39
502.35	3.41
502.7	3.35
503.051	3.24
503.401	3.26
503.752	3.43
504.102	3.28
504.452	3.27
504.803	3.19
505.153	3.37
505.503	3.25
505.853	3.25
506.203	3.34
506.553	3.3
506.903	3.3
507.253	3.35
507.603	3.32
507.953	3.37
508.303	3.43
508.652	3.3
509.002	3.38
509.352	3.39
509.701	3.28
510.051	3.31
510.4	3.26
510.75	3.35
511.099	3.32
511.449	3.37
511.798	3.37
512.147	3.37
512.496	3.15
512.846	3.22
513.195	3.22
513.544	3.22
513.893	3.37
514.242	3.32
514.591	3.46
514.939	3.4
515.288	3.3
515.637	3.36
515.986	3.35
516.334	3.3
516.683	3.4
517.032	3.27
517.38	3.34
517.729	3.41
518.077	3.31
518.426	3.24
518.774	3.36
519.122	3.3
519.47	3.2
519.819	3.24
520.167	3.32
520.515	3.2
520.863	3.35
521.211	3.27
521.559	3.39
521.907	3.24
522.255	3.33
522.602	3.29
522.95	3.31
523.298	3.42
523.645	3.51
523.993	3.3
524.341	3.27
524.688	3.38
525.036	3.29
525.383	3.26
525.73	3.48
526.078	3.22
526.425	3.3
526.772	3.3
527.119	3.2
527.466	3.22
527.814	3.28
528.161	3.24
528.508	3.33
528.854	3.28
529.201	3.17
529.548	3.21
529.895	3.19
530.242	3.09
530.588	3.07
530.935	3.14
531.282	3.23
531.628	3.21
531.975	3.3
532.321	3.3
532.667	3.29
533.014	3.37
533.36	3.42
533.706	3.2
534.052	3.35
534.399	3.22
534.745	3.18
535.091	3.14
535.437	3.13
535.783	3.27
536.129	3.26
536.474	3.28
536.82	3.31
537.166	3.36
537.512	3.28
537.857	3.3
538.203	3.31
538.549	3.21
538.894	3.27
539.239	3.27
539.585	3.26
539.93	3.22
540.276	3.31
540.621	3.34
540.966	3.37
541.311	3.27
541.656	3.27
542.001	3.32
542.346	3.42
542.691	3.27
543.036	3.19
543.381	3.01
543.726	3.23
544.071	3.3
544.415	3.36
544.76	3.3
545.105	3.25
545.449	3.33
545.794	3.38
546.138	3.3
546.483	3.31
546.827	3.29
547.171	3.3
547.516	3.37
547.86	3.15
548.204	3.31
548.548	3.25
548.892	3.31
549.236	3.21
549.58	3.26
549.924	3.3
550.268	3.45
550.612	3.38
550.956	3.47
551.3	3.28
551.643	3.58
551.987	3.42
552.33	3.42
552.674	3.46
553.017	3.36
553.361	3.12
553.704	3.51
554.048	3.22
554.391	3.12
554.734	3.26
555.077	3.48
555.42	3.23
555.764	3.37
556.107	3.24
556.45	3.19
556.793	3.27
557.135	3.26
557.478	3.52
557.821	3.51
558.164	3.26
558.507	3.34
558.849	3.25
559.192	3.28
559.534	3.45
559.877	3.43
560.219	3.38
560.562	3.51
560.904	3.4
561.246	3.28
561.589	3.35
561.931	3.46
562.273	3.21
562.615	3.48
562.957	3.36
563.299	3.28
563.641	3.45
563.983	3.31
564.325	3.15
564.667	3.24
565.008	3.4
565.35	3.28
565.692	3.14
566.033	3.33
566.375	3.6
566.716	3.54
567.058	3.26
567.399	3.22
567.741	3.14
568.082	3.26
568.423	3.23
568.764	3.28
569.105	3.24
569.447	3.37
569.788	3.34
570.129	3.43
570.47	3.5
570.811	3.34
571.151	3.15
571.492	3.29
571.833	3.27
572.174	3.39
572.514	3.55
572.855	3.27
573.195	3.39
573.536	3.35
573.876	3.03
574.217	3.3
574.557	3.4
574.898	3.46
575.238	3.43
575.578	3.28
575.918	3.44
576.258	3.4
576.598	3.38
576.938	3.29
577.278	3.23
577.618	3.27
577.958	3.14
578.298	3.26
578.638	3.22
578.977	3.38
579.317	3.05
579.657	3.31
579.996	3.31
580.336	3.38
580.675	3.31
581.014	3.42
581.354	3.28
581.693	3.45
582.032	3.26
582.372	3.34
582.711	3.4
583.05	2.99
583.389	3.15
583.728	3.12
584.067	3.37
584.406	3.36
584.745	3.29
585.083	3.29
585.422	3.48
585.761	3.54
586.1	3.43
586.438	3.38
586.777	3.3
587.115	3.48
587.454	3.41
587.792	3.09
588.13	3.36
588.469	3.17
588.807	3.39
589.145	3.39
589.483	3.51
589.821	3.31
590.159	3.08
590.497	3.38
590.835	3.51
591.173	3.41
591.511	3.6
591.849	3.43
592.187	3.44
592.524	3.59
592.862	3.15
593.2	3.49
593.537	3.28
593.875	3.23
594.212	3.1
594.55	3.15
594.887	3.63
595.224	3.07
595.561	3.27
595.899	3.34
596.236	3.09
596.573	3.44
596.91	3.1
597.247	3
597.584	3.43
597.921	3.01
598.258	3.16
598.594	3.22
598.931	3.22
599.268	3.31
599.604	3.26
599.941	3.47
600.277	3.51
600.614	3.15
600.95	3.13
601.287	3.41
601.623	3.24
601.959	3.08
602.296	3.27
602.632	2.94
602.968	3.41
603.304	3.08
603.64	3.38
603.976	3.16
604.312	3.12
604.648	3.16
604.984	3.41
605.319	3.37
605.655	3.3
605.991	3.26
606.326	3.29
606.662	3.08
606.998	3.28
607.333	3.26
607.668	3.44
608.004	3.34
608.339	3.49
608.674	3.56
609.01	3.1
609.345	3.17
609.68	3.3
610.015	3.21
610.35	3.02
610.685	3.3
611.02	3.37
611.355	3.41
611.689	3.24
612.024	3.21
612.359	3.2
612.694	3.25
613.028	3.36
613.363	3.21
613.697	3.58
614.032	3.5
614.366	3.38
614.7	3.36
615.035	3.46
615.369	3.07
615.703	3.41
616.037	3.61
616.371	3.04
616.705	3.17
617.039	2.96
617.373	3.21
617.707	3.16
618.041	3.13
618.375	3.27
618.709	3.11
619.042	3.2
619.376	3.26
619.71	3.43
620.043	3.36
620.377	3.21
620.71	3.29
621.043	2.95
621.377	2.96
621.71	3.25
622.043	2.95
622.376	2.82
622.709	3.44
623.043	3.55
623.376	3.14
623.709	3.42
624.041	3.69
624.374	3.11
624.707	3.25
625.04	3.58
625.373	2.74
625.705	3.37
626.038	3.33
626.37	3.2
626.703	3.24
627.035	3.43
627.368	3.52
627.7	3.23
628.032	3.28
628.365	3.47
628.697	3.17
629.029	3.17
629.361	3.42
629.693	3.44
630.025	3.6
630.357	3.59
630.689	3.7
631.021	3.01
631.353	3.1
631.684	3.12
632.016	3.23
632.348	3.62
632.679	3.36
633.011	3.49
633.342	3.55
633.674	3.37
634.005	4.01
634.336	3.07
634.668	3.96
634.999	3.12
635.33	3.43
635.661	3.7
635.992	3.27
636.323	3.54
636.654	3.67
636.985	3.28
637.316	3.31
637.647	2.88
637.977	3.59
638.308	3.62
638.639	3.07
638.969	3.36
639.3	3
639.63	2.66
639.961	3.52
640.291	3.2
640.622	3.48
640.952	3.17
641.282	3.4
641.612	3.46
641.943	2.99
642.273	3.65
642.603	3.59
642.933	3.69
643.263	3.74
643.592	3.69
643.922	3.45
644.252	2.72
644.582	3.17
644.911	3.2
645.241	3.31
645.571	3.02
645.9	2.81
646.23	3.29
646.559	3.44
646.888	2.87
647.218	2.91
647.547	3.21
647.876	3.3
648.205	3.04
648.534	3.43
648.863	2.7
649.192	3.68
649.521	3.18
649.85	3.22
650.179	3.51
650.508	2.89
650.837	3.11
651.165	3.11
651.494	3.42
651.822	3.53
652.151	2.94
652.479	3.41
652.808	2.91
653.136	3.18
653.465	2.63
653.793	2.42
654.121	3.18
654.449	3.37
654.777	3.57
655.105	3.22
655.433	3.08
655.761	3.2
656.089	3.45
656.417	3.26
656.745	3.29
657.073	3.55
657.4	3.52
657.728	3.4
658.056	3.01
658.383	2.81
658.711	3.02
659.038	3.38
659.365	3.64
659.693	3.15
660.02	2.89
660.347	3.32
660.674	3.87
661.001	3.89
661.329	2.94
661.656	3.56
661.982	3.45
662.309	3.05
662.636	2.71
662.963	3.74
663.29	3.59
663.616	3.5
663.943	2.83
664.27	3.28
664.596	3.76
664.923	3.43
665.249	3.55
665.576	3.58
665.902	4.1
666.228	3.04
666.554	3.22
666.881	3.55
667.207	3.37
667.533	3.18
667.859	3.53
668.185	3.41
668.511	3.17
668.837	2.08
669.162	4.04
669.488	3.15
669.814	3.61
670.139	3.36
670.465	3.72
670.791	3.09
671.116	3.98
671.442	2.97
671.767	3.34
672.092	3.89
672.418	3.71
672.743	4.49
673.068	3.1
673.393	2.99
673.718	3.82
674.043	3.33
674.368	2.71
674.693	3.75
675.018	3.54
675.343	3.53
675.667	3.4
675.992	3.14
676.317	3.69
676.641	3.85
676.966	3.86
677.29	3.17
677.615	4.04
677.939	3.3
678.264	3.93
678.588	3.7
678.912	3.41
679.236	3.72
679.56	2.89
679.885	3.97
680.209	3.41
680.532	2.94
680.856	4.56
681.18	3.42
681.504	3.53
681.828	3.79
682.152	3.55
682.475	3.48
682.799	3.32
683.122	3.66
683.446	3.21
683.769	3.78
684.093	3.49
684.416	3.92
684.739	3.08
685.062	3.54
685.386	3.83
685.709	3.59
686.032	3.26
686.355	4.36
686.678	3.1
687.001	3.42
687.324	3.74
687.646	2.76
687.969	3.85
688.292	3.4
688.614	3.36
688.937	3.96
689.26	3.15
689.582	4.12
689.904	3.22
690.227	3.73
690.549	3.76
690.871	3.72
691.194	3.3
691.516	3.35
691.838	3.82
692.16	2.74
692.482	3.81
