Data from 0195_forehead_Reflection__4__370.txt Node

Date: Fri Dec 15 19:52:11 CST 2023
User: ToomeyLab
Spectrometer: FLMS14357
Trigger mode: 0
Integration Time (sec): 1.000000E-2
Scans to average: 100
Electric dark correction enabled: true
Nonlinearity correction enabled: false
Boxcar width: 0
XAxis mode: Wavelengths
Number of Pixels in Spectrum: 2048
>>>>>Begin Spectral Data<<<<<
189.047	-710.58
189.435	-710.58
189.823	-710.58
190.211	203.96
190.599	40.3
190.987	116.96
191.375	170.33
191.763	-5.46
192.151	-299.22
192.538	145.74
192.926	-308.9
193.314	113.79
193.702	48.99
194.089	300.09
194.477	28.07
194.864	518.01
195.252	78.99
195.639	136.51
196.027	187.65
196.414	96.98
196.801	180.25
197.189	149.48
197.576	-24.86
197.963	-30.74
198.351	-3.74
198.738	-1579.21
199.125	-0.13
199.512	-27.4
199.899	35.8
200.286	32.46
200.673	23.34
201.06	73.02
201.447	-0.52
201.833	5.14
202.22	15.71
202.607	44.52
202.994	32.47
203.38	12.14
203.767	21.83
204.154	10.35
204.54	28.21
204.927	89.57
205.313	-16.47
205.699	42.81
206.086	39.91
206.472	35.64
206.858	30.7
207.245	-114.71
207.631	33.53
208.017	14.79
208.403	27.68
208.789	25.83
209.175	-0.86
209.561	-25.7
209.947	9.91
210.333	-9.43
210.719	21.23
211.105	3.24
211.491	-10.59
211.876	17.64
212.262	42.14
212.648	31.73
213.034	-1.68
213.419	29.33
213.805	-24.55
214.19	-1.43
214.576	21.76
214.961	7.81
215.346	-19.86
215.732	8.29
216.117	21.39
216.502	15.76
216.888	50.66
217.273	29.04
217.658	0.82
218.043	18.81
218.428	-9.43
218.813	-8.24
219.198	-13.92
219.583	-20.74
219.968	-4
220.353	-25.68
220.738	32.14
221.122	11.36
221.507	4.22
221.892	-2.17
222.276	0.61
222.661	24.03
223.046	26.73
223.43	26.09
223.815	20.28
224.199	-13.21
224.583	2.42
224.968	5.23
225.352	6.68
225.736	7.85
226.121	-9.48
226.505	3.58
226.889	-3.35
227.273	3.33
227.657	10.48
228.041	5.42
228.425	4.9
228.809	6.05
229.193	1.54
229.577	0.82
229.961	3.23
230.344	3.83
230.728	4.02
231.112	4.27
231.495	3.5
231.879	2.43
232.263	6.71
232.646	4.54
233.03	3.85
233.413	3.06
233.797	3.08
234.18	3.16
234.563	0.67
234.946	6.04
235.33	5.11
235.713	3.47
236.096	5.12
236.479	4.3
236.862	2.01
237.245	4.61
237.628	2.07
238.011	3.64
238.394	5.27
238.777	3.76
239.16	3.27
239.543	2.85
239.925	5.7
240.308	4.01
240.691	4.42
241.073	4.87
241.456	3.33
241.838	3.46
242.221	2.11
242.603	4.59
242.986	4.97
243.368	4.28
243.75	4.24
244.133	3.85
244.515	4.42
244.897	4.11
245.279	3.93
245.661	3.64
246.043	4.28
246.425	3.56
246.807	4.06
247.189	5.3
247.571	4.59
247.953	4.29
248.335	3.98
248.717	4.23
249.098	4.3
249.48	4.23
249.862	4.36
250.243	4.31
250.625	4.16
251.006	4.65
251.388	2.67
251.769	4.38
252.151	4.8
252.532	3.86
252.913	2.9
253.295	3.56
253.676	3.6
254.057	4.64
254.438	4.35
254.819	4.13
255.2	4.23
255.581	2.64
255.962	3.21
256.343	4.98
256.724	4.49
257.105	5.1
257.486	3.4
257.867	4.52
258.247	4.45
258.628	3.46
259.009	3.63
259.389	4.46
259.77	4.36
260.15	3.06
260.531	3.42
260.911	4.43
261.292	4.37
261.672	4.3
262.052	4.15
262.432	4.38
262.813	4.47
263.193	3.82
263.573	3.36
263.953	3.74
264.333	4.8
264.713	4.73
265.093	3.34
265.473	4.31
265.853	3.41
266.233	4.79
266.612	2.79
266.992	3.25
267.372	5.21
267.752	4.12
268.131	4.01
268.511	4.56
268.89	4.88
269.27	4.36
269.649	3.81
270.029	3.92
270.408	5.25
270.787	4.35
271.167	4.74
271.546	4.82
271.925	3.83
272.304	4.15
272.683	4.45
273.062	4.31
273.441	4.58
273.82	3.79
274.199	4.36
274.578	4.36
274.957	4.28
275.336	4.33
275.715	3.53
276.093	4.44
276.472	3.97
276.851	3.99
277.229	4.46
277.608	3.18
277.986	4.2
278.365	4.48
278.743	3.97
279.122	4.4
279.5	4.5
279.878	4.87
280.257	3.63
280.635	3.73
281.013	4.15
281.391	4.75
281.769	3.41
282.147	4.56
282.525	5.01
282.903	3.39
283.281	4.62
283.659	4.86
284.037	4.57
284.415	4.51
284.792	4.51
285.17	3.54
285.548	3.91
285.925	3.77
286.303	4.59
286.68	4.22
287.058	4.63
287.435	4.33
287.813	4.38
288.19	4.01
288.567	4.31
288.945	4.87
289.322	4.1
289.699	4.55
290.076	4.41
290.453	4.53
290.83	4.33
291.207	4.19
291.584	4.67
291.961	4.91
292.338	4.39
292.715	4.79
293.092	4.23
293.469	4.61
293.845	4.86
294.222	4.22
294.599	4.78
294.975	4.25
295.352	4.7
295.728	4.37
296.105	5.11
296.481	5.11
296.858	4.57
297.234	5.04
297.61	4.83
297.986	4.8
298.363	5.44
298.739	5.24
299.115	4.81
299.491	4.94
299.867	5.18
300.243	5.2
300.619	4.75
300.995	4.96
301.371	5.29
301.746	5.44
302.122	5.62
302.498	5.8
302.874	5.77
303.249	5.38
303.625	5.28
304	5.73
304.376	5.17
304.751	5.25
305.127	6.19
305.502	4.99
305.878	5.47
306.253	5.79
306.628	6.14
307.003	5.6
307.378	6.25
307.754	5.8
308.129	5.61
308.504	5.7
308.879	5.96
309.254	6.81
309.629	6.37
310.003	6.19
310.378	6.55
310.753	6.4
311.128	6.49
311.502	6.64
311.877	7.13
312.252	6.28
312.626	6.38
313.001	6.01
313.375	6.67
313.75	6.36
314.124	6.69
314.498	6.53
314.873	6.17
315.247	6.46
315.621	7.13
315.995	6.34
316.369	7.13
316.743	6.69
317.117	6.94
317.491	6.77
317.865	6.8
318.239	6.99
318.613	7.51
318.987	7.51
319.361	6.37
319.734	7.22
320.108	7.18
320.482	6.99
320.855	6.99
321.229	7
321.602	7.7
321.976	7.59
322.349	7.76
322.723	6.92
323.096	7.67
323.469	6.98
323.843	7.19
324.216	7.6
324.589	7.38
324.962	8.28
325.335	7.54
325.708	7.79
326.081	7.55
326.454	8.37
326.827	7.94
327.2	7.61
327.573	7.91
327.945	8.3
328.318	8.16
328.691	7.55
329.063	7.91
329.436	7.46
329.809	8.24
330.181	8.3
330.553	7.94
330.926	8.45
331.298	8.29
331.671	8.22
332.043	8.95
332.415	8.15
332.787	8.48
333.159	9.05
333.532	8.73
333.904	8.65
334.276	8.22
334.648	8.84
335.02	8.92
335.391	8.63
335.763	8.8
336.135	9.06
336.507	9.33
336.879	9.17
337.25	8.56
337.622	8.89
337.993	8.74
338.365	9.38
338.736	8.53
339.108	9.29
339.479	8.95
339.851	9.29
340.222	8.65
340.593	9.31
340.964	9.22
341.336	10
341.707	8.73
342.078	9.28
342.449	9.33
342.82	8.91
343.191	9.68
343.562	9.42
343.933	9.21
344.303	9.18
344.674	9.12
345.045	9.2
345.416	10.01
345.786	9.43
346.157	9.46
346.527	8.56
346.898	9.56
347.268	9.45
347.639	9.58
348.009	9.62
348.38	9.45
348.75	9.81
349.12	9.43
349.49	9.84
349.861	10.1
350.231	9.75
350.601	9.88
350.971	10.02
351.341	9.97
351.711	10.01
352.081	10.21
352.45	9.44
352.82	10.36
353.19	10.2
353.56	9.93
353.929	10.3
354.299	10.06
354.669	10.28
355.038	10.46
355.408	10.29
355.777	10.51
356.147	10.12
356.516	10.36
356.885	10.4
357.254	10.83
357.624	10.41
357.993	10.67
358.362	10.12
358.731	9.91
359.1	10.39
359.469	10.8
359.838	10.72
360.207	10.42
360.576	10.65
360.945	10.5
361.314	11.44
361.682	10.49
362.051	10.78
362.42	10.83
362.788	10.62
363.157	10.72
363.525	11.09
363.894	10.92
364.262	10.9
364.631	10.96
364.999	10.8
365.367	10.54
365.735	11.88
366.104	11.31
366.472	11.27
366.84	11.02
367.208	11.38
367.576	11.35
367.944	11.51
368.312	11.66
368.68	11.47
369.048	11.58
369.416	11.23
369.783	11.34
370.151	11.68
370.519	11.75
370.886	12.1
371.254	11.6
371.621	11.74
371.989	11.61
372.356	11.48
372.724	12.4
373.091	11.69
373.458	11.96
373.826	11.86
374.193	12.22
374.56	12.18
374.927	12.06
375.294	11.94
375.661	12.19
376.028	11.84
376.395	11.78
376.762	12.39
377.129	12.25
377.496	11.63
377.863	12.61
378.229	11.8
378.596	12.39
378.963	12.3
379.329	11.96
379.696	12.24
380.062	12.28
380.429	12.13
380.795	12.19
381.161	12.85
381.528	12.73
381.894	12.53
382.26	11.95
382.626	12.52
382.993	12.06
383.359	12.71
383.725	12.37
384.091	12.62
384.457	12.97
384.823	12.52
385.188	13.21
385.554	12.87
385.92	13.05
386.286	13.32
386.651	12.96
387.017	13.22
387.383	13.05
387.748	13.03
388.114	13.08
388.479	12.74
388.845	13.36
389.21	13.55
389.575	13.35
389.94	13.4
390.306	13.31
390.671	13.54
391.036	13.08
391.401	13.22
391.766	13.29
392.131	13.35
392.496	13.24
392.861	13.23
393.226	13.73
393.591	13.48
393.956	13.52
394.32	13.84
394.685	13.24
395.05	13.3
395.414	13.76
395.779	13.37
396.143	13.78
396.508	13.68
396.872	13.86
397.236	13.85
397.601	13.76
397.965	13.87
398.329	14.01
398.694	13.88
399.058	14.2
399.422	14.29
399.786	14.29
400.15	14.07
400.514	14.1
400.878	14.14
401.242	14.63
401.605	14.44
401.969	14.48
402.333	14.3
402.697	14.2
403.06	14.35
403.424	14.43
403.787	14.52
404.151	14.65
404.514	14.32
404.878	14.41
405.241	14.75
405.604	14.51
405.968	14.51
406.331	14.39
406.694	14.72
407.057	14.61
407.42	14.82
407.783	14.48
408.146	14.78
408.509	14.78
408.872	14.67
409.235	14.51
409.598	14.98
409.961	15.07
410.323	15.28
410.686	15.18
411.049	15.18
411.411	14.97
411.774	15.2
412.136	14.93
412.499	15.07
412.861	15.16
413.223	15.29
413.586	15.24
413.948	15.3
414.31	15.23
414.672	15.24
415.035	15.25
415.397	15.67
415.759	15.38
416.121	15.52
416.483	15.56
416.845	15.75
417.206	15.57
417.568	15.52
417.93	15.15
418.292	15.63
418.653	15.67
419.015	15.66
419.377	15.63
419.738	15.83
420.1	15.62
420.461	15.71
420.822	15.59
421.184	15.56
421.545	15.68
421.906	15.52
422.267	15.7
422.629	15.55
422.99	15.56
423.351	15.62
423.712	15.68
424.073	15.73
424.434	15.73
424.795	15.68
425.155	15.94
425.516	15.86
425.877	15.95
426.238	15.97
426.598	15.91
426.959	15.93
427.32	16.07
427.68	15.95
428.041	16.1
428.401	16.12
428.761	16.19
429.122	16.39
429.482	16.27
429.842	16.51
430.202	16.39
430.563	16.74
430.923	16.48
431.283	16.6
431.643	16.63
432.003	16.63
432.363	16.67
432.722	16.67
433.082	16.72
433.442	16.74
433.802	16.96
434.161	16.79
434.521	16.96
434.881	16.77
435.24	16.62
435.6	16.85
435.959	16.82
436.319	16.84
436.678	16.86
437.037	16.83
437.396	17.01
437.756	16.98
438.115	16.85
438.474	17.26
438.833	17.13
439.192	17.19
439.551	17.31
439.91	17.23
440.269	17.25
440.628	17.16
440.987	17.33
441.345	17.42
441.704	17.33
442.063	17.43
442.421	17.44
442.78	17.32
443.138	17.25
443.497	17.49
443.855	17.59
444.214	17.45
444.572	17.73
444.93	17.59
445.288	17.73
445.647	17.88
446.005	17.77
446.363	17.73
446.721	17.74
447.079	17.69
447.437	17.83
447.795	17.74
448.153	17.6
448.51	17.72
448.868	17.65
449.226	17.77
449.584	17.83
449.941	18.02
450.299	17.9
450.656	18.04
451.014	18.24
451.371	18.1
451.729	18.06
452.086	18.33
452.443	18.19
452.801	18.39
453.158	18.55
453.515	18.51
453.872	18.83
454.229	18.41
454.586	18.62
454.943	18.29
455.3	18.33
455.657	18.33
456.014	18.57
456.371	18.57
456.727	18.62
457.084	18.99
457.441	18.52
457.797	18.86
458.154	18.75
458.51	19.35
458.867	19.03
459.223	18.97
459.58	19.03
459.936	18.96
460.292	18.92
460.648	19.08
461.005	19.17
461.361	19.19
461.717	18.94
462.073	18.9
462.429	18.83
462.785	18.8
463.141	18.88
463.496	19.19
463.852	19.3
464.208	19.27
464.564	19.35
464.919	19.55
465.275	19.37
465.631	19.41
465.986	19.58
466.342	19.64
466.697	19.52
467.052	19.66
467.408	19.77
467.763	19.71
468.118	19.72
468.473	19.85
468.829	19.83
469.184	19.57
469.539	19.76
469.894	19.73
470.249	19.92
470.603	19.88
470.958	20.05
471.313	20.11
471.668	20.14
472.023	19.95
472.377	20.25
472.732	20.16
473.086	20.08
473.441	20.34
473.795	20.19
474.15	20.31
474.504	20.43
474.859	20.47
475.213	20.46
475.567	20.22
475.921	20.53
476.275	20.35
476.63	20.64
476.984	20.73
477.338	20.73
477.692	20.51
478.045	20.62
478.399	20.65
478.753	20.56
479.107	20.63
479.461	20.8
479.814	20.81
480.168	20.71
480.521	20.67
480.875	20.66
481.228	20.92
481.582	20.76
481.935	20.82
482.289	20.99
482.642	21.12
482.995	20.94
483.348	21.01
483.701	21.02
484.055	21.09
484.408	21.11
484.761	20.83
485.114	20.73
485.466	20.49
485.819	20.43
486.172	20.37
486.525	20.24
486.878	20.18
487.23	20.37
487.583	20.67
487.936	20.93
488.288	21.01
488.641	21.02
488.993	20.99
489.345	20.85
489.698	20.8
490.05	20.64
490.402	20.71
490.754	20.84
491.107	21.12
491.459	21.2
491.811	21.35
492.163	21.52
492.515	21.69
492.866	21.67
493.218	21.62
493.57	21.46
493.922	21.24
494.274	21.37
494.625	21.4
494.977	21.51
495.328	21.83
495.68	21.99
496.031	22.19
496.383	22.26
496.734	22.45
497.086	22.29
497.437	22.35
497.788	22.37
498.139	22.37
498.49	22.45
498.842	22.33
499.193	22.34
499.544	22.4
499.894	22.34
500.245	22.67
500.596	22.38
500.947	22.62
501.298	22.73
501.648	22.8
501.999	22.81
502.35	22.65
502.7	22.75
503.051	22.71
503.401	23.02
503.752	23.05
504.102	23.09
504.452	23.21
504.803	23.08
505.153	22.99
505.503	23.24
505.853	23.08
506.203	23.09
506.553	23.24
506.903	23.32
507.253	23.15
507.603	23.1
507.953	23.45
508.303	23.59
508.652	23.3
509.002	23.42
509.352	23.57
509.701	23.47
510.051	23.58
510.4	23.41
510.75	23.46
511.099	23.53
511.449	23.47
511.798	23.57
512.147	23.64
512.496	23.67
512.846	23.74
513.195	23.7
513.544	23.69
513.893	23.89
514.242	23.82
514.591	24.08
514.939	23.87
515.288	23.89
515.637	24.1
515.986	24.16
516.334	24.32
516.683	24.23
517.032	24.29
517.38	24.28
517.729	24.47
518.077	24.24
518.426	24.44
518.774	24.48
519.122	24.41
519.47	24.37
519.819	24.21
520.167	24.48
520.515	24.27
520.863	24.36
521.211	24.33
521.559	24.47
521.907	24.42
522.255	24.6
522.602	24.61
522.95	24.73
523.298	24.59
523.645	24.95
523.993	24.81
524.341	24.9
524.688	25.01
525.036	24.95
525.383	25.23
525.73	25.29
526.078	25.13
526.425	25.24
526.772	25.3
527.119	25.32
527.466	24.93
527.814	25.04
528.161	25
528.508	25.06
528.854	24.94
529.201	25.05
529.548	25.12
529.895	25.05
530.242	24.8
530.588	24.78
530.935	24.72
531.282	24.6
531.628	24.64
531.975	24.8
532.321	25.03
532.667	25.28
533.014	25.35
533.36	25.52
533.706	25.57
534.052	25.69
534.399	25.55
534.745	25.73
535.091	25.62
535.437	25.55
535.783	25.56
536.129	25.54
536.474	25.48
536.82	25.62
537.166	25.98
537.512	26.06
537.857	26.29
538.203	26.47
538.549	26.07
538.894	26.07
539.239	26.17
539.585	26.09
539.93	26.31
540.276	26.57
540.621	26.57
540.966	26.55
541.311	26.7
541.656	26.76
542.001	26.82
542.346	26.84
542.691	26.82
543.036	26.72
543.381	26.43
543.726	26.38
544.071	26.31
544.415	26.35
544.76	26.39
545.105	26.76
545.449	26.67
545.794	26.88
546.138	26.84
546.483	27.02
546.827	27.2
547.171	27.2
547.516	27.58
547.86	27.33
548.204	27.35
548.548	27.13
548.892	27.35
549.236	27.36
549.58	27.4
549.924	27.43
550.268	27.62
550.612	27.71
550.956	27.89
551.3	27.96
551.643	27.95
551.987	28.07
552.33	28.12
552.674	28.24
553.017	28.21
553.361	28.01
553.704	28.24
554.048	28.47
554.391	28.19
554.734	28.28
555.077	28.51
555.42	28.35
555.764	28.2
556.107	28.37
556.45	28.41
556.793	28.36
557.135	28.49
557.478	28.75
557.821	28.65
558.164	28.63
558.507	28.82
558.849	28.78
559.192	29.03
559.534	28.95
559.877	28.92
560.219	29.12
560.562	29.31
560.904	29.33
561.246	29.36
561.589	29.09
561.931	29.1
562.273	29.31
562.615	29.46
562.957	29.54
563.299	29.47
563.641	29.53
563.983	29.41
564.325	29.19
564.667	29.69
565.008	29.59
565.35	29.36
565.692	29.73
566.033	29.8
566.375	29.76
566.716	30.13
567.058	29.78
567.399	29.86
567.741	29.95
568.082	29.96
568.423	29.74
568.764	29.9
569.105	29.9
569.447	29.63
569.788	29.68
570.129	30.01
570.47	29.96
570.811	30.25
571.151	30.4
571.492	30.41
571.833	30.26
572.174	30.31
572.514	30.17
572.855	30.34
573.195	30.44
573.536	30.61
573.876	30.44
574.217	30.35
574.557	30.44
574.898	30.51
575.238	30.66
575.578	30.92
575.918	30.66
576.258	30.97
576.598	30.75
576.938	30.6
577.278	31.2
577.618	30.72
577.958	30.99
578.298	30.78
578.638	31.07
578.977	30.96
579.317	30.99
579.657	31.2
579.996	31.38
580.336	31.34
580.675	31.39
581.014	31.19
581.354	31.4
581.693	31.47
582.032	31.59
582.372	31.61
582.711	31.86
583.05	31.73
583.389	31.75
583.728	31.41
584.067	31.8
584.406	31.56
584.745	31.83
585.083	31.88
585.422	31.69
585.761	32.14
586.1	31.89
586.438	32.17
586.777	32.23
587.115	32.13
587.454	31.86
587.792	32.2
588.13	32.61
588.469	31.89
588.807	32.22
589.145	32.14
589.483	32.36
589.821	32.33
590.159	32.49
590.497	32.77
590.835	33.08
591.173	32.51
591.511	32.97
591.849	32.6
592.187	32.94
592.524	32.48
592.862	32.39
593.2	33.17
593.537	32.76
593.875	32.74
594.212	32.52
594.55	32.89
594.887	32.97
595.224	32.82
595.561	33.09
595.899	33.21
596.236	32.93
596.573	33.08
596.91	33.09
597.247	33.1
597.584	33.29
597.921	33.09
598.258	33.12
598.594	33.68
598.931	33.28
599.268	33.58
599.604	33.12
599.941	33.27
600.277	33.36
600.614	33.23
600.95	33.41
601.287	33.66
601.623	33.86
601.959	33.63
602.296	34.01
602.632	33.61
602.968	33.83
603.304	33.96
603.64	33.78
603.976	34.13
604.312	33.99
604.648	34.33
604.984	34.16
605.319	34.11
605.655	34.05
605.991	34.19
606.326	34.11
606.662	34.23
606.998	33.99
607.333	34.35
607.668	34.02
608.004	34.36
608.339	34.43
608.674	34.16
609.01	34.29
609.345	34.68
609.68	35.02
610.015	34.74
610.35	34.75
610.685	34.72
611.02	34.67
611.355	34.71
611.689	34.8
612.024	34.79
612.359	34.79
612.694	34.69
613.028	34.59
613.363	34.9
613.697	35.17
614.032	35.02
614.366	35.25
614.7	35.26
615.035	35.19
615.369	35.15
615.703	35.25
616.037	35.3
616.371	35.28
616.705	35.06
617.039	35.7
617.373	35.36
617.707	35.34
618.041	35.69
618.375	35.83
618.709	35.62
619.042	35.71
619.376	35.96
619.71	36.4
620.043	36.19
620.377	36.02
620.71	36.13
621.043	35.86
621.377	36.46
621.71	35.98
622.043	35.96
622.376	35.97
622.709	35.79
623.043	35.97
623.376	36.14
623.709	35.92
624.041	36.81
624.374	36.44
624.707	36.86
625.04	36.21
625.373	36.46
625.705	36.49
626.038	36.55
626.37	36.86
626.703	36.5
627.035	36.76
627.368	37.38
627.7	36.98
628.032	37.14
628.365	37.1
628.697	37.48
629.029	36.94
629.361	36.93
629.693	37.27
630.025	36.85
630.357	37.14
630.689	36.61
631.021	37.18
631.353	37.16
631.684	37.29
632.016	36.72
632.348	37.48
632.679	37.58
633.011	37.36
633.342	37.65
633.674	37.36
634.005	37.56
634.336	37.46
634.668	37.85
634.999	37.24
635.33	38.33
635.661	37.69
635.992	37.79
636.323	37.49
636.654	37.76
636.985	37.81
637.316	37.35
637.647	38.08
637.977	38.08
638.308	38.42
638.639	37.58
638.969	37.83
639.3	37.7
639.63	38.45
639.961	38.06
640.291	38.19
640.622	38.46
640.952	38.38
641.282	38.47
641.612	38.66
641.943	38.09
642.273	38.47
642.603	38.36
642.933	38.63
643.263	38.74
643.592	38.31
643.922	38.46
644.252	38.12
644.582	38.66
644.911	38.33
645.241	38.44
645.571	38.36
645.9	38.97
646.23	38.72
646.559	38.33
646.888	38.02
647.218	38.9
647.547	39.31
647.876	38.62
648.205	38.52
648.534	38.83
648.863	38.33
649.192	39.67
649.521	39.52
649.85	38.87
650.179	38.86
650.508	38.91
650.837	39.23
651.165	39.33
651.494	39.39
651.822	38.79
652.151	39.31
652.479	39.62
652.808	39.45
653.136	39.05
653.465	38.6
653.793	39.34
654.121	39.96
654.449	39.93
654.777	39.98
655.105	39.42
655.433	39.17
655.761	39.55
656.089	39.51
656.417	39.45
656.745	40.08
657.073	39.94
657.4	39.95
657.728	40.16
658.056	39.68
658.383	40.08
658.711	39.78
659.038	39.97
659.365	40.4
659.693	40.18
660.02	40.59
660.347	40.26
660.674	40.99
661.001	40.47
661.329	40.12
661.656	40.57
661.982	40.63
662.309	40.45
662.636	40.4
662.963	40.57
663.29	40.21
663.616	40.43
663.943	39.92
664.27	40.81
664.596	41.43
664.923	40.35
665.249	40.67
665.576	40.59
665.902	40.96
666.228	40.94
666.554	41.24
666.881	41.03
667.207	41.34
667.533	40.77
667.859	41
668.185	41.83
668.511	41.97
668.837	40.28
669.162	40.79
669.488	40.86
669.814	41.45
670.139	41
670.465	41.7
