Data from 0195_forehead_Reflection__3__369.txt Node

Date: Fri Dec 15 19:52:02 CST 2023
User: ToomeyLab
Spectrometer: FLMS14357
Trigger mode: 0
Integration Time (sec): 1.000000E-2
Scans to average: 100
Electric dark correction enabled: true
Nonlinearity correction enabled: false
Boxcar width: 0
XAxis mode: Wavelengths
Number of Pixels in Spectrum: 2048
>>>>>Begin Spectral Data<<<<<
189.047	-285.04
189.435	-285.04
189.823	-285.04
190.211	-444.37
190.599	-27.85
190.987	55.03
191.375	-46.3
191.763	-55.02
192.151	-138.4
192.538	275.78
192.926	-166.24
193.314	69.68
193.702	53.31
194.089	243.22
194.477	178.23
194.864	517.68
195.252	89.59
195.639	195.92
196.027	132.44
196.414	51.21
196.801	439.92
197.189	37.9
197.576	27.13
197.963	15.63
198.351	-29.14
198.738	1233.15
199.125	-16.5
199.512	-28.33
199.899	49.1
200.286	29.35
200.673	33.03
201.06	72.98
201.447	22.06
201.833	-8.3
202.22	20.73
202.607	73.78
202.994	43.1
203.38	28.81
203.767	37.22
204.154	33.8
204.54	40.37
204.927	79.02
205.313	-43.16
205.699	39.44
206.086	59.39
206.472	37.11
206.858	74.35
207.245	-56.39
207.631	36.86
208.017	-6.01
208.403	5.1
208.789	22.98
209.175	-15.43
209.561	-0.72
209.947	-11.51
210.333	-3.11
210.719	0.57
211.105	40.85
211.491	-28.85
211.876	40.87
212.262	39.99
212.648	42.72
213.034	12.72
213.419	-60.49
213.805	13.9
214.19	13.35
214.576	-10.5
214.961	-23.54
215.346	-52.86
215.732	50.24
216.117	28.27
216.502	-63.43
216.888	16.38
217.273	26.88
217.658	8.7
218.043	22.8
218.428	-20.08
218.813	-37.3
219.198	-14.09
219.583	-5.57
219.968	34.16
220.353	9.23
220.738	55.38
221.122	18.98
221.507	-25.06
221.892	-21.34
222.276	-14
222.661	10.44
223.046	9.88
223.43	30.01
223.815	1.64
224.199	-2.83
224.583	11.15
224.968	21.02
225.352	21.44
225.736	2.75
226.121	-12.91
226.505	4.21
226.889	13.21
227.273	11.84
227.657	12.69
228.041	3.72
228.425	6.49
228.809	8.61
229.193	4.57
229.577	3.15
229.961	5.61
230.344	4.77
230.728	5.47
231.112	6.48
231.495	6.41
231.879	5.1
232.263	8.33
232.646	6.65
233.03	5.31
233.413	4.89
233.797	5.95
234.18	4.86
234.563	5.22
234.946	2.99
235.33	5.74
235.713	6.69
236.096	6.74
236.479	6.25
236.862	5.82
237.245	7.44
237.628	6.93
238.011	7.36
238.394	7.15
238.777	8.16
239.16	4.12
239.543	4.42
239.925	6.87
240.308	8.19
240.691	5.26
241.073	7.37
241.456	5.91
241.838	5.58
242.221	6.44
242.603	7.05
242.986	6.47
243.368	5.81
243.75	6.53
244.133	5.73
244.515	6.14
244.897	6.19
245.279	6.08
245.661	5.59
246.043	4.99
246.425	5.72
246.807	7.18
247.189	6.87
247.571	6.13
247.953	6.34
248.335	6.3
248.717	6.45
249.098	5.97
249.48	5.72
249.862	5.78
250.243	6.18
250.625	6.12
251.006	7.31
251.388	4.93
251.769	5.31
252.151	6.26
252.532	7.03
252.913	5.96
253.295	4.95
253.676	5.73
254.057	6.51
254.438	6.35
254.819	6.39
255.2	5.78
255.581	6.43
255.962	5.39
256.343	7.87
256.724	6.25
257.105	5.49
257.486	6.11
257.867	6.76
258.247	5.72
258.628	5.56
259.009	5.7
259.389	6.36
259.77	5.84
260.15	5.47
260.531	5.45
260.911	6.78
261.292	5.97
261.672	6.03
262.052	5.96
262.432	5.92
262.813	6.01
263.193	5.61
263.573	5.51
263.953	5.27
264.333	6.29
264.713	6.44
265.093	5.19
265.473	6.19
265.853	4.72
266.233	6.42
266.612	4.12
266.992	4.84
267.372	6.04
267.752	6.09
268.131	5.88
268.511	6.13
268.89	6.05
269.27	5.42
269.649	5.34
270.029	5.61
270.408	6.52
270.787	6.18
271.167	5.9
271.546	6.39
271.925	5.3
272.304	5.52
272.683	6.55
273.062	6.13
273.441	6.2
273.82	5.38
274.199	6.36
274.578	6.3
274.957	5.69
275.336	5.99
275.715	5.61
276.093	5.34
276.472	6.07
276.851	5.63
277.229	6.1
277.608	5.6
277.986	5.4
278.365	6.27
278.743	5.31
279.122	5.28
279.5	5.97
279.878	5.48
280.257	6.16
280.635	5.83
281.013	6
281.391	6.06
281.769	6.37
282.147	6.38
282.525	6.66
282.903	6.26
283.281	6.27
283.659	6
284.037	6.01
284.415	6.41
284.792	6.52
285.17	5.63
285.548	5.85
285.925	6.03
286.303	5.89
286.68	5.4
287.058	5.89
287.435	5.79
287.813	6.23
288.19	6
288.567	6.21
288.945	6.6
289.322	6.16
289.699	6.37
290.076	5.85
290.453	6.35
290.83	5.6
291.207	6.29
291.584	6.38
291.961	6.23
292.338	6.39
292.715	6.68
293.092	6.39
293.469	6.65
293.845	7.03
294.222	6.26
294.599	6.55
294.975	6.5
295.352	7.08
295.728	6.19
296.105	6.72
296.481	6.74
296.858	6.8
297.234	6.61
297.61	6.86
297.986	7.03
298.363	7.55
298.739	7.26
299.115	6.78
299.491	6.75
299.867	7.19
300.243	7.47
300.619	7.15
300.995	6.63
301.371	7.82
301.746	6.85
302.122	7.99
302.498	6.67
302.874	7.23
303.249	7.71
303.625	7.22
304	7.45
304.376	7.56
304.751	7.14
305.127	8.16
305.502	7.13
305.878	7.28
306.253	7.74
306.628	8.43
307.003	7.92
307.378	8.26
307.754	7.82
308.129	7.07
308.504	7.72
308.879	8.2
309.254	9.09
309.629	8.19
310.003	8.3
310.378	9.09
310.753	8.22
311.128	8.55
311.502	8.25
311.877	8.88
312.252	7.89
312.626	9.17
313.001	8.14
313.375	8.85
313.75	8.16
314.124	8.72
314.498	8.71
314.873	8.94
315.247	8.02
315.621	9.51
315.995	7.9
316.369	9.43
316.743	8.34
317.117	9.47
317.491	8.74
317.865	9.38
318.239	8.84
318.613	9.65
318.987	9.15
319.361	8.17
319.734	9.47
320.108	9.55
320.482	9.31
320.855	9.27
321.229	9.41
321.602	8.89
321.976	9.66
322.349	9.3
322.723	9.52
323.096	9.6
323.469	9.38
323.843	8.98
324.216	10.66
324.589	9.77
324.962	9.88
325.335	9.41
325.708	9.91
326.081	9.49
326.454	9.95
326.827	9.39
327.2	9.38
327.573	10.61
327.945	9.59
328.318	10.34
328.691	9.77
329.063	10.32
329.436	9.93
329.809	10.31
330.181	10.29
330.553	10.19
330.926	10.51
331.298	10.83
331.671	10.47
332.043	10.5
332.415	10.5
332.787	10.53
333.159	11.88
333.532	10.98
333.904	10.6
334.276	10.76
334.648	10.29
335.02	10.47
335.391	10.43
335.763	10.46
336.135	11.54
336.507	10.99
336.879	10.95
337.25	11.13
337.622	10.92
337.993	11.16
338.365	10.83
338.736	10.85
339.108	11.45
339.479	10.97
339.851	11.16
340.222	10.4
340.593	11.44
340.964	10.82
341.336	12.08
341.707	11.23
342.078	11.69
342.449	11.64
342.82	11.17
343.191	11.45
343.562	11.15
343.933	11.55
344.303	11.15
344.674	11.19
345.045	11.24
345.416	11.97
345.786	11.23
346.157	11.87
346.527	11.23
346.898	11.2
347.268	12.18
347.639	11.36
348.009	11.74
348.38	11.85
348.75	11.51
349.12	12.17
349.49	11.94
349.861	11.94
350.231	11.91
350.601	12.21
350.971	12.29
351.341	11.8
351.711	12.13
352.081	12.15
352.45	12.11
352.82	12.72
353.19	12.45
353.56	12.07
353.929	12.51
354.299	12.13
354.669	12.16
355.038	12.65
355.408	12.59
355.777	12.72
356.147	12.57
356.516	12.54
356.885	12.33
357.254	12.47
357.624	12.7
357.993	12.8
358.362	12.34
358.731	12.53
359.1	12.44
359.469	12.64
359.838	12.69
360.207	12.46
360.576	12.56
360.945	12.55
361.314	13.43
361.682	12.72
362.051	12.72
362.42	13.12
362.788	12.63
363.157	13.08
363.525	13.35
363.894	12.97
364.262	12.85
364.631	13.06
364.999	13.09
365.367	12.52
365.735	13.85
366.104	13.47
366.472	13.34
366.84	13.24
367.208	13.17
367.576	13.37
367.944	13.7
368.312	13.46
368.68	13.27
369.048	13.2
369.416	13.56
369.783	13.17
370.151	13.4
370.519	13.88
370.886	14.22
371.254	13.37
371.621	14.02
371.989	13.76
372.356	13.48
372.724	13.69
373.091	13.54
373.458	14.06
373.826	13.87
374.193	13.59
374.56	13.96
374.927	14.04
375.294	14.42
375.661	13.92
376.028	13.72
376.395	13.81
376.762	14.56
377.129	14.5
377.496	14.21
377.863	14.5
378.229	13.82
378.596	14.59
378.963	14.41
379.329	13.92
379.696	14.78
380.062	14.17
380.429	14.19
380.795	14.27
381.161	14.4
381.528	14.7
381.894	14.55
382.26	14.23
382.626	14.91
382.993	14.5
383.359	14.76
383.725	14.64
384.091	14.74
384.457	15.06
384.823	14.66
385.188	15.01
385.554	15.13
385.92	14.95
386.286	14.95
386.651	14.65
387.017	15.46
387.383	14.86
387.748	14.9
388.114	15.18
388.479	14.96
388.845	15.41
389.21	15.12
389.575	15.18
389.94	15.59
390.306	15.53
390.671	15.59
391.036	14.96
391.401	15.36
391.766	15.51
392.131	15.3
392.496	15.71
392.861	15.72
393.226	15.54
393.591	15.67
393.956	15.32
394.32	15.53
394.685	15.17
395.05	15.47
395.414	15.78
395.779	15.63
396.143	16
396.508	15.92
396.872	15.82
397.236	15.85
397.601	15.68
397.965	15.68
398.329	15.65
398.694	16.19
399.058	15.93
399.422	15.85
399.786	15.98
400.15	16.16
400.514	16.06
400.878	16.25
401.242	16.33
401.605	16.24
401.969	16.3
402.333	16.52
402.697	16.32
403.06	16.2
403.424	16.43
403.787	16.38
404.151	16.52
404.514	16.53
404.878	16.65
405.241	16.67
405.604	16.65
405.968	16.71
406.331	16.57
406.694	16.8
407.057	16.48
407.42	16.73
407.783	16.62
408.146	16.52
408.509	17.03
408.872	16.73
409.235	16.91
409.598	17.21
409.961	16.97
410.323	17.16
410.686	17.12
411.049	16.98
411.411	17.12
411.774	17.29
412.136	17.16
412.499	16.8
412.861	17.27
413.223	17.33
413.586	17.5
413.948	17.33
414.31	17.54
414.672	17.07
415.035	17.28
415.397	17.77
415.759	17.22
416.121	17.65
416.483	17.59
416.845	17.52
417.206	17.49
417.568	17.52
417.93	17.43
418.292	17.68
418.653	17.66
419.015	17.8
419.377	17.84
419.738	17.92
420.1	17.68
420.461	17.71
420.822	17.8
421.184	17.57
421.545	17.75
421.906	17.75
422.267	17.67
422.629	17.91
422.99	17.78
423.351	17.9
423.712	17.79
424.073	17.74
424.434	17.67
424.795	17.67
425.155	18.03
425.516	17.92
425.877	17.98
426.238	18.13
426.598	18.05
426.959	18.11
427.32	18.01
427.68	17.98
428.041	18.08
428.401	18.18
428.761	18.21
429.122	18.34
429.482	18.34
429.842	18.51
430.202	18.84
430.563	18.92
430.923	18.64
431.283	18.95
431.643	18.94
432.003	18.75
432.363	18.77
432.722	18.96
433.082	18.77
433.442	18.79
433.802	18.6
434.161	18.83
434.521	19.11
434.881	19.16
435.24	19.03
435.6	18.89
435.959	18.85
436.319	18.8
436.678	19.17
437.037	19.05
437.396	19.18
437.756	19.24
438.115	19.36
438.474	19.44
438.833	19.26
439.192	19.35
439.551	19.46
439.91	19.53
440.269	19.6
440.628	19.22
440.987	19.44
441.345	19.38
441.704	19.59
442.063	19.64
442.421	19.58
442.78	19.63
443.138	19.65
443.497	19.47
443.855	19.7
444.214	19.72
444.572	19.95
444.93	19.91
445.288	19.82
445.647	20.07
446.005	20.03
446.363	20.18
446.721	20.14
447.079	20
447.437	20.1
447.795	20.03
448.153	19.96
448.51	20
448.868	19.99
449.226	19.92
449.584	20.08
449.941	20.09
450.299	20.16
450.656	20.21
451.014	20.35
451.371	20.32
451.729	20.39
452.086	20.57
452.443	20.44
452.801	20.8
453.158	20.56
453.515	20.59
453.872	20.67
454.229	20.59
454.586	20.82
454.943	20.76
455.3	20.72
455.657	20.74
456.014	20.85
456.371	20.83
456.727	21.06
457.084	21.19
457.441	21.09
457.797	21.07
458.154	21.03
458.51	21.42
458.867	21.34
459.223	21.3
459.58	21.16
459.936	21.28
460.292	21.27
460.648	21.35
461.005	21.47
461.361	21.52
461.717	21.33
462.073	21.28
462.429	21.13
462.785	21.11
463.141	21.37
463.496	21.54
463.852	21.49
464.208	21.68
464.564	21.74
464.919	21.84
465.275	21.61
465.631	22.19
465.986	21.98
466.342	21.91
466.697	21.86
467.052	22.21
467.408	22.15
467.763	22.03
468.118	22.04
468.473	22.1
468.829	22.24
469.184	21.94
469.539	22.3
469.894	22.16
470.249	22.35
470.603	22.47
470.958	22.49
471.313	22.58
471.668	22.68
472.023	22.67
472.377	22.53
472.732	22.53
473.086	22.38
473.441	22.61
473.795	22.74
474.15	22.77
474.504	22.74
474.859	22.85
475.213	22.62
475.567	22.8
475.921	22.76
476.275	22.93
476.63	22.95
476.984	23.24
477.338	23.17
477.692	23.09
478.045	23.24
478.399	23.08
478.753	23.31
479.107	23.33
479.461	23.29
479.814	23.18
480.168	23.31
480.521	23.34
480.875	23.13
481.228	23.34
481.582	23.5
481.935	23.33
482.289	23.55
482.642	23.53
482.995	23.64
483.348	23.63
483.701	23.63
484.055	23.54
484.408	23.59
484.761	23.38
485.114	23.52
485.466	23.26
485.819	23.23
486.172	22.94
486.525	22.74
486.878	22.63
487.23	22.78
487.583	23.08
487.936	23.44
488.288	23.6
488.641	23.81
488.993	23.7
489.345	23.71
489.698	23.63
490.05	23.49
490.402	23.44
490.754	23.38
491.107	23.51
491.459	23.76
491.811	23.97
492.163	24.14
492.515	24.16
492.866	24.36
493.218	24.49
493.57	24.2
493.922	24.04
494.274	23.93
494.625	23.95
494.977	24.11
495.328	24.25
495.68	24.51
496.031	24.75
496.383	24.83
496.734	25.1
497.086	24.95
497.437	25.18
497.788	25.1
498.139	25.21
498.49	25.34
498.842	25.07
499.193	25.06
499.544	25.07
499.894	25.32
500.245	25.19
500.596	25.3
500.947	25.43
501.298	25.25
501.648	25.43
501.999	25.6
502.35	25.71
502.7	25.66
503.051	25.67
503.401	25.64
503.752	25.79
504.102	25.85
504.452	25.96
504.803	25.94
505.153	25.9
505.503	25.98
505.853	26.12
506.203	25.98
506.553	26.23
506.903	26.2
507.253	26.13
507.603	26.13
507.953	26.33
508.303	26.42
508.652	26.16
509.002	26.5
509.352	26.5
509.701	26.52
510.051	26.48
510.4	26.59
510.75	26.6
511.099	26.52
511.449	26.55
511.798	26.67
512.147	26.69
512.496	26.54
512.846	26.98
513.195	26.75
513.544	26.84
513.893	27.03
514.242	26.85
514.591	27.09
514.939	26.91
515.288	26.88
515.637	27.18
515.986	27.07
516.334	27.13
516.683	27.13
517.032	27.29
517.38	27.37
517.729	27.51
518.077	27.39
518.426	27.52
518.774	27.56
519.122	27.56
519.47	27.58
519.819	27.39
520.167	27.62
520.515	27.56
520.863	27.41
521.211	27.39
521.559	27.44
521.907	27.38
522.255	27.6
522.602	27.69
522.95	27.8
523.298	27.78
523.645	28.19
523.993	28.08
524.341	28.18
524.688	28.29
525.036	27.99
525.383	28.4
525.73	28.55
526.078	28.41
526.425	28.41
526.772	28.54
527.119	28.5
527.466	28.43
527.814	28.43
528.161	28.36
528.508	28.4
528.854	28.5
529.201	28.34
529.548	28.58
529.895	28.57
530.242	28.57
530.588	28.38
530.935	28.14
531.282	27.96
531.628	27.99
531.975	28.03
532.321	28.31
532.667	28.56
533.014	28.75
533.36	28.92
533.706	29.02
534.052	29.09
534.399	29.14
534.745	29.3
535.091	29.31
535.437	29.12
535.783	28.96
536.129	28.91
536.474	28.91
536.82	28.96
537.166	29.41
537.512	29.6
537.857	29.5
538.203	30.06
538.549	29.74
538.894	29.63
539.239	29.71
539.585	29.64
539.93	29.62
540.276	29.92
540.621	30.13
540.966	30.16
541.311	30.14
541.656	30.45
542.001	30.55
542.346	30.56
542.691	30.29
543.036	30.37
543.381	30.15
543.726	29.94
544.071	29.98
544.415	29.87
544.76	29.86
545.105	30.12
545.449	30.43
545.794	30.45
546.138	30.54
546.483	30.6
546.827	30.89
547.171	30.93
547.516	31.19
547.86	31.17
548.204	31.19
548.548	31.28
548.892	31.2
549.236	31.13
549.58	31.28
549.924	31.34
550.268	31.3
550.612	31.62
550.956	31.68
551.3	31.47
551.643	31.7
551.987	31.96
552.33	31.82
552.674	31.99
553.017	32.12
553.361	32.01
553.704	32.47
554.048	32.35
554.391	32.25
554.734	32.25
555.077	32.54
555.42	32.19
555.764	32.14
556.107	32.32
556.45	32.33
556.793	32.49
557.135	32.54
557.478	32.4
557.821	32.77
558.164	32.71
558.507	32.84
558.849	32.74
559.192	33.21
559.534	33.06
559.877	32.92
560.219	33.31
560.562	33.16
560.904	33.26
561.246	33.34
561.589	33.19
561.931	33.72
562.273	33.37
562.615	33.34
562.957	33.52
563.299	33.53
563.641	33.6
563.983	33.68
564.325	33.56
564.667	33.82
565.008	33.67
565.35	33.62
565.692	33.74
566.033	33.99
566.375	34.09
566.716	34.29
567.058	33.86
567.399	34.16
567.741	33.87
568.082	34.13
568.423	34.01
568.764	34.12
569.105	34.08
569.447	33.92
569.788	34.08
570.129	34.44
570.47	34.31
570.811	34.42
571.151	34.4
571.492	34.92
571.833	34.33
572.174	34.66
572.514	34.68
572.855	34.9
573.195	34.8
573.536	35.15
573.876	34.78
574.217	34.47
574.557	34.81
574.898	34.77
575.238	35.17
575.578	35.25
575.918	35.25
576.258	35.13
576.598	35.54
576.938	35.12
577.278	35.27
577.618	35.06
577.958	35.14
578.298	35.18
578.638	35.38
578.977	35.28
579.317	35.58
579.657	35.89
579.996	35.95
580.336	35.87
580.675	35.77
581.014	35.88
581.354	35.96
581.693	35.98
582.032	35.91
582.372	36.29
582.711	36.46
583.05	36.07
583.389	36.36
583.728	35.86
584.067	36.37
584.406	36.53
584.745	36.6
585.083	36.43
585.422	36.74
585.761	36.78
586.1	36.39
586.438	36.28
586.777	36.82
587.115	37.22
587.454	36.95
587.792	37.03
588.13	37.12
588.469	37.18
588.807	36.77
589.145	36.97
589.483	37.12
589.821	37.13
590.159	37.11
590.497	37.45
590.835	37.88
591.173	37.45
591.511	37.69
591.849	37.68
592.187	37.79
592.524	37.53
592.862	37.3
593.2	37.72
593.537	37.84
593.875	37.61
594.212	38.02
594.55	37.8
594.887	37.75
595.224	37.77
595.561	38.03
595.899	37.71
596.236	38.02
596.573	38.38
596.91	38.14
597.247	37.97
597.584	38.34
597.921	38.18
598.258	38.06
598.594	38.53
598.931	38.52
599.268	38.46
599.604	38.25
599.941	38.52
600.277	38.58
600.614	38.62
600.95	38.68
601.287	38.76
601.623	38.76
601.959	38.84
602.296	39.11
602.632	38.59
602.968	38.76
603.304	39.27
603.64	38.97
603.976	39.08
604.312	39.3
604.648	39.36
604.984	39.36
605.319	39.74
605.655	39.44
605.991	39.59
606.326	39.42
606.662	39.64
606.998	39.25
607.333	39.63
607.668	38.97
608.004	39.36
608.339	39.33
608.674	39.31
609.01	39.51
609.345	39.64
609.68	40.26
610.015	39.9
610.35	40.01
610.685	40.11
611.02	40.17
611.355	40.2
611.689	40.12
612.024	40.38
612.359	40.02
612.694	39.89
613.028	39.78
613.363	40.35
613.697	40.4
614.032	40.44
614.366	40.1
614.7	41
615.035	40.79
615.369	40.49
615.703	40.82
616.037	40.9
616.371	40.47
616.705	40.74
617.039	41.45
617.373	40.69
617.707	41.05
618.041	40.8
618.375	41.17
618.709	40.89
619.042	40.53
619.376	41.89
619.71	41.8
620.043	41.41
620.377	41.5
620.71	41.85
621.043	41.24
621.377	41.47
621.71	41.42
622.043	41.54
622.376	41.32
622.709	41.7
623.043	41.58
623.376	41.89
623.709	41.94
624.041	42.64
624.374	41.61
624.707	42.1
625.04	41.9
625.373	41.86
625.705	42.11
626.038	42.62
626.37	42.04
626.703	42.33
627.035	42.27
627.368	42.56
627.7	42.26
628.032	42.57
628.365	42.67
628.697	42.51
629.029	42.73
629.361	42.79
629.693	42.96
630.025	42.95
630.357	42.62
630.689	42.81
631.021	42.61
631.353	42.66
631.684	43.52
632.016	42.71
632.348	43.06
632.679	43.31
633.011	43.87
633.342	42.91
633.674	43.23
634.005	43.6
634.336	43.16
634.668	43.62
634.999	42.78
635.33	43.75
635.661	43.66
635.992	43.36
636.323	43.64
636.654	43.65
636.985	43.49
637.316	43.46
637.647	43.51
637.977	44.16
638.308	43.6
638.639	43.48
638.969	44.39
639.3	43.63
639.63	43.74
639.961	44.35
640.291	43.72
640.622	43.99
640.952	44.37
641.282	44.63
641.612	44.02
641.943	43.85
642.273	44.71
642.603	44.69
642.933	44.48
643.263	44.7
643.592	44.34
643.922	44.14
644.252	44.59
644.582	45.39
644.911	44.47
645.241	44.42
645.571	44.57
645.9	44.74
646.23	44.53
646.559	44.95
646.888	44.74
647.218	44.62
647.547	45.25
647.876	44.88
648.205	45.01
648.534	45.56
648.863	45.13
649.192	45.79
649.521	45.03
649.85	45.54
650.179	45.83
650.508	45.32
650.837	45.07
651.165	45.87
651.494	45.66
651.822	45.54
652.151	45.76
652.479	45.56
652.808	45.55
653.136	45.74
653.465	45.71
653.793	46.43
654.121	45.75
654.449	45.58
654.777	46.24
655.105	45.83
655.433	46.19
655.761	45.88
656.089	45.9
656.417	46.07
656.745	46.2
657.073	46.43
657.4	46.75
657.728	46.24
658.056	46.33
658.383	46.25
658.711	46.37
659.038	46.28
659.365	46.78
659.693	47.03
660.02	46.68
660.347	46.97
660.674	47.25
661.001	47.05
661.329	46.65
661.656	47.37
661.982	47.22
662.309	47.03
662.636	46.67
662.963	46.81
663.29	46.81
663.616	46.94
663.943	47.25
664.27	48.04
664.596	48.02
664.923	46.91
665.249	47.46
665.576	47.39
665.902	47.18
666.228	47.38
666.554	47.95
666.881	47.84
667.207	47.08
667.533	47.39
667.859	47.26
668.185	48.25
668.511	47.98
668.837	47.3
669.162	47.69
