Data from 0195_chest_Reflection__1__356.txt Node

Date: Fri Dec 15 19:49:01 CST 2023
User: ToomeyLab
Spectrometer: FLMS14357
Trigger mode: 0
Integration Time (sec): 1.000000E-2
Scans to average: 100
Electric dark correction enabled: true
Nonlinearity correction enabled: false
Boxcar width: 0
XAxis mode: Wavelengths
Number of Pixels in Spectrum: 2048
>>>>>Begin Spectral Data<<<<<
189.047	-1197.45
189.435	-1197.45
189.823	-1197.45
190.211	102.43
190.599	55.16
190.987	107.27
191.375	44.46
191.763	-8.44
192.151	-536.52
192.538	176.4
192.926	256.85
193.314	36.71
193.702	112.4
194.089	-100.09
194.477	-86.05
194.864	503.54
195.252	111.15
195.639	148.9
196.027	199.4
196.414	118.16
196.801	-470.71
197.189	62.57
197.576	225.77
197.963	-154.16
198.351	-6.21
198.738	-944.38
199.125	10.3
199.512	-32.44
199.899	70.09
200.286	40.42
200.673	1.61
201.06	5.08
201.447	11.68
201.833	35.32
202.22	22.42
202.607	43.08
202.994	16.19
203.38	0.5
203.767	68.34
204.154	10.88
204.54	61.91
204.927	-21.41
205.313	-40.45
205.699	59.83
206.086	38.69
206.472	13.02
206.858	31.78
207.245	-33.21
207.631	7.89
208.017	11.09
208.403	-11.85
208.789	24.88
209.175	11.4
209.561	-28
209.947	-3.99
210.333	-94.4
210.719	15.64
211.105	7.96
211.491	-59.29
211.876	21.21
212.262	-35
212.648	-26.8
213.034	20.53
213.419	-58.27
213.805	-20.36
214.19	-33.23
214.576	16.19
214.961	-81.19
215.346	-111.68
215.732	-39.67
216.117	23.14
216.502	-22.89
216.888	-30.38
217.273	29.28
217.658	-11.28
218.043	14.86
218.428	-28.07
218.813	-27.39
219.198	-40.74
219.583	26.08
219.968	-6.2
220.353	-25.6
220.738	-3.71
221.122	-15.71
221.507	-19.21
221.892	-81.78
222.276	-25.61
222.661	-17.41
223.046	14.85
223.43	8.56
223.815	12.23
224.199	-13.73
224.583	1.05
224.968	-14.72
225.352	4.35
225.736	-9.11
226.121	-6.85
226.505	8.27
226.889	16.44
227.273	8.21
227.657	10.45
228.041	3.35
228.425	10.93
228.809	6.95
229.193	4.62
229.577	5.34
229.961	7.62
230.344	6.6
230.728	6.52
231.112	7.28
231.495	6.38
231.879	5.83
232.263	7.09
232.646	7.28
233.03	7.63
233.413	5.7
233.797	7.25
234.18	4.95
234.563	6.95
234.946	4.05
235.33	6.2
235.713	6.76
236.096	4.99
236.479	6.58
236.862	3.93
237.245	8.2
237.628	6.71
238.011	8.84
238.394	8.04
238.777	7.26
239.16	4.43
239.543	4.6
239.925	7.74
240.308	6.25
240.691	5.44
241.073	7.85
241.456	6.5
241.838	5.33
242.221	5.76
242.603	6.96
242.986	6.78
243.368	7.02
243.75	7.18
244.133	6.62
244.515	7.21
244.897	6.41
245.279	6.24
245.661	5.9
246.043	5.82
246.425	4.86
246.807	7.33
247.189	6.67
247.571	6.85
247.953	6.87
248.335	6.71
248.717	6.76
249.098	6.27
249.48	6.32
249.862	6.46
250.243	6.22
250.625	6
251.006	6.45
251.388	4.95
251.769	5.98
252.151	5.56
252.532	7.12
252.913	5.08
253.295	6.31
253.676	5.81
254.057	6.56
254.438	6.45
254.819	5.41
255.2	5.57
255.581	5.88
255.962	5.5
256.343	6.38
256.724	3.92
257.105	6.36
257.486	5.41
257.867	6.94
258.247	6.73
258.628	4.95
259.009	5.24
259.389	6.98
259.77	6.04
260.15	4.99
260.531	5.39
260.911	6.34
261.292	6.25
261.672	6.34
262.052	6.02
262.432	6.05
262.813	6.04
263.193	5.26
263.573	5.23
263.953	5.47
264.333	6.39
264.713	6.1
265.093	4.99
265.473	5.59
265.853	5.83
266.233	5.25
266.612	4.67
266.992	4.6
267.372	5.35
267.752	4.65
268.131	5.7
268.511	6.34
268.89	6.11
269.27	5.48
269.649	5.42
270.029	4.92
270.408	6.63
270.787	5.46
271.167	6.23
271.546	5.53
271.925	5.08
272.304	5.45
272.683	5.67
273.062	5.66
273.441	5.23
273.82	5.32
274.199	5.71
274.578	5.29
274.957	5.54
275.336	5.54
275.715	5.54
276.093	5.1
276.472	4.79
276.851	5.06
277.229	4.96
277.608	4.67
277.986	5.15
278.365	5.58
278.743	5.12
279.122	4.97
279.5	5.17
279.878	5.32
280.257	5.15
280.635	4.6
281.013	4.57
281.391	5.78
281.769	5.92
282.147	5.38
282.525	5.93
282.903	4.71
283.281	5.79
283.659	5.24
284.037	5.44
284.415	5.51
284.792	5.42
285.17	4.44
285.548	4.82
285.925	5.19
286.303	5.46
286.68	4.82
287.058	5.28
287.435	5.27
287.813	5.72
288.19	5.03
288.567	5.3
288.945	4.91
289.322	5.56
289.699	4.98
290.076	5.27
290.453	5.21
290.83	4.77
291.207	4.72
291.584	4.98
291.961	5.87
292.338	5.61
292.715	5.69
293.092	5.01
293.469	5.32
293.845	5.46
294.222	5.03
294.599	5.43
294.975	5.11
295.352	6
295.728	5.22
296.105	4.85
296.481	5.59
296.858	5.33
297.234	5.57
297.61	5.06
297.986	5.13
298.363	5.52
298.739	5.42
299.115	4.96
299.491	4.56
299.867	5.16
300.243	5.39
300.619	4.95
300.995	5.3
301.371	5.44
301.746	5.08
302.122	5.67
302.498	5.18
302.874	5.29
303.249	5.28
303.625	5.35
304	5.09
304.376	4.81
304.751	4.74
305.127	5.77
305.502	4.89
305.878	4.46
306.253	4.94
306.628	5.8
307.003	5.25
307.378	5.57
307.754	5.82
308.129	5.13
308.504	4.82
308.879	4.59
309.254	5.87
309.629	6
310.003	4.99
310.378	5.56
310.753	5.56
311.128	5.39
311.502	5.51
311.877	5.39
312.252	5.24
312.626	5.36
313.001	5.15
313.375	5.59
313.75	4.68
314.124	5.16
314.498	5.04
314.873	4.96
315.247	4.5
315.621	5.11
315.995	4.7
316.369	5.39
316.743	5.17
317.117	5.62
317.491	4.88
317.865	5.33
318.239	4.52
318.613	5.63
318.987	5.59
319.361	4.27
319.734	5.38
320.108	5.5
320.482	4.72
320.855	5.44
321.229	5.13
321.602	4.68
321.976	5.05
322.349	4.45
322.723	4.9
323.096	5.45
323.469	4.67
323.843	5.07
324.216	5.98
324.589	5.32
324.962	5.59
325.335	4.97
325.708	4.63
326.081	4.78
326.454	4.79
326.827	4.49
327.2	4.72
327.573	4.91
327.945	5.47
328.318	5.06
328.691	4.81
329.063	5.15
329.436	5.64
329.809	5.96
330.181	4.94
330.553	4.45
330.926	5.22
331.298	5.69
331.671	5.16
332.043	5.39
332.415	5.57
332.787	5.17
333.159	5.55
333.532	4.76
333.904	4.94
334.276	5.44
334.648	5.53
335.02	4.81
335.391	5.27
335.763	5.35
336.135	5.11
336.507	5.74
336.879	4.29
337.25	5.25
337.622	5.38
337.993	5.28
338.365	6.04
338.736	6.05
339.108	5.64
339.479	5.23
339.851	5.34
340.222	5.51
340.593	5.11
340.964	4.97
341.336	6.05
341.707	4.88
342.078	5.06
342.449	5.6
342.82	5.42
343.191	5.41
343.562	5.33
343.933	5.46
344.303	4.91
344.674	5.16
345.045	5.31
345.416	5.72
345.786	4.77
346.157	5.39
346.527	4.57
346.898	5.21
347.268	5.41
347.639	5.78
348.009	5.34
348.38	5.12
348.75	5.17
349.12	5.3
349.49	5.57
349.861	5.64
350.231	5.02
350.601	5.38
350.971	5.71
351.341	5.07
351.711	5.18
352.081	5.7
352.45	5.25
352.82	5.99
353.19	5.52
353.56	5.4
353.929	5.61
354.299	5.09
354.669	5.05
355.038	5.81
355.408	5.35
355.777	5.5
356.147	5.06
356.516	5.84
356.885	5.5
357.254	5.18
357.624	5.46
357.993	5.92
358.362	5
358.731	5.26
359.1	5.16
359.469	5.99
359.838	6.04
360.207	5.42
360.576	5.36
360.945	5.83
361.314	5.69
361.682	5.17
362.051	5.53
362.42	5.79
362.788	5.53
363.157	5.69
363.525	5.89
363.894	5.47
364.262	5.84
364.631	5.6
364.999	5.53
365.367	5.47
365.735	5.79
366.104	5.45
366.472	5.44
366.84	5.38
367.208	5.64
367.576	5.71
367.944	5.53
368.312	5.46
368.68	5.54
369.048	5.71
369.416	5.82
369.783	5.39
370.151	5.88
370.519	6.06
370.886	5.75
371.254	5.35
371.621	5.75
371.989	5.9
372.356	5.43
372.724	5.63
373.091	5.66
373.458	5.61
373.826	5.81
374.193	5.4
374.56	5.79
374.927	5.9
375.294	5.78
375.661	5.52
376.028	5.65
376.395	5.49
376.762	5.71
377.129	5.76
377.496	5.47
377.863	5.99
378.229	5.31
378.596	5.7
378.963	5.64
379.329	5.37
379.696	5.87
380.062	5.95
380.429	5.6
380.795	5.54
381.161	6.13
381.528	5.92
381.894	5.89
382.26	5.68
382.626	5.95
382.993	5.41
383.359	5.98
383.725	5.64
384.091	5.5
384.457	6.23
384.823	5.67
385.188	5.69
385.554	5.75
385.92	5.89
386.286	5.84
386.651	6.03
387.017	5.98
387.383	5.83
387.748	5.93
388.114	5.97
388.479	5.38
388.845	5.93
389.21	6.12
389.575	6
389.94	5.82
390.306	6.05
390.671	6.12
391.036	5.71
391.401	5.47
391.766	5.41
392.131	5.67
392.496	5.81
392.861	5.76
393.226	6.16
393.591	5.79
393.956	5.73
394.32	5.9
394.685	5.76
395.05	5.69
395.414	5.89
395.779	5.8
396.143	6.07
396.508	6
396.872	5.57
397.236	5.84
397.601	5.42
397.965	5.8
398.329	6.02
398.694	6.25
399.058	5.9
399.422	5.87
399.786	6.19
400.15	5.96
400.514	5.91
400.878	6.16
401.242	6.35
401.605	5.81
401.969	6.14
402.333	5.89
402.697	5.89
403.06	5.85
403.424	6.11
403.787	5.87
404.151	6.05
404.514	6.09
404.878	5.95
405.241	6.13
405.604	6.03
405.968	6.14
406.331	6.18
406.694	6.05
407.057	6.16
407.42	6.27
407.783	6.03
408.146	6.01
408.509	6.27
408.872	5.71
409.235	5.88
409.598	6.44
409.961	6.1
410.323	5.9
410.686	5.89
411.049	5.93
411.411	5.78
411.774	5.94
412.136	5.98
412.499	6.06
412.861	6.15
413.223	6.2
413.586	6.08
413.948	6.14
414.31	5.82
414.672	5.95
415.035	5.77
415.397	6.24
415.759	6.05
416.121	6.26
416.483	6.01
416.845	6.12
417.206	6.36
417.568	6.21
417.93	6.06
418.292	6.14
418.653	5.83
419.015	6.13
419.377	6.09
419.738	6.29
420.1	6.02
420.461	6.2
420.822	6.3
421.184	6.08
421.545	6.17
421.906	5.99
422.267	5.97
422.629	5.9
422.99	5.96
423.351	6.02
423.712	6.03
424.073	6.04
424.434	6.02
424.795	6.01
425.155	5.98
425.516	5.92
425.877	6.13
426.238	6.02
426.598	6.01
426.959	6.22
427.32	5.93
427.68	5.98
428.041	6.07
428.401	6.2
428.761	6.06
429.122	6.19
429.482	5.86
429.842	6.24
430.202	6.15
430.563	6.09
430.923	5.87
431.283	6.27
431.643	6.04
432.003	6.1
432.363	6.24
432.722	6.01
433.082	6.1
433.442	6.07
433.802	6.03
434.161	6.26
434.521	6.44
434.881	6.29
435.24	6.14
435.6	6.12
435.959	6.05
436.319	6.13
436.678	6.19
437.037	6.12
437.396	6.14
437.756	6.08
438.115	6.23
438.474	6.3
438.833	6.05
439.192	6.08
439.551	6.35
439.91	6.19
440.269	6.11
440.628	5.98
440.987	6.29
441.345	6.01
441.704	6.15
442.063	6.17
442.421	6.19
442.78	6.06
443.138	6.13
443.497	6.15
443.855	6.13
444.214	6.15
444.572	6.21
444.93	6.22
445.288	6.21
445.647	6.2
446.005	6.13
446.363	6.21
446.721	6.3
447.079	6.01
447.437	6.16
447.795	6.16
448.153	6.01
448.51	6.07
448.868	6.08
449.226	6.13
449.584	6.13
449.941	6.24
450.299	6.11
450.656	6.06
451.014	6.22
451.371	5.98
451.729	6.03
452.086	6.37
452.443	6.08
452.801	6.41
453.158	6.13
453.515	6.05
453.872	6.47
454.229	6.21
454.586	6.19
454.943	6.17
455.3	6.11
455.657	6.08
456.014	6.13
456.371	6.25
456.727	6.26
457.084	6.5
457.441	6.18
457.797	6.31
458.154	6.32
458.51	6.12
458.867	6.32
459.223	6.26
459.58	6.41
459.936	6.42
460.292	6.3
460.648	6.38
461.005	6.25
461.361	6.24
461.717	6.4
462.073	6.1
462.429	6.16
462.785	6.15
463.141	6.18
463.496	6.3
463.852	6.28
464.208	6.49
464.564	6.17
464.919	6.27
465.275	6.05
465.631	6.33
465.986	6.41
466.342	6.18
466.697	6.18
467.052	6.26
467.408	6.53
467.763	6.43
468.118	6.27
468.473	6.29
468.829	6.41
469.184	6.24
469.539	6.32
469.894	6.1
470.249	6.45
470.603	6.37
470.958	6.4
471.313	6.27
471.668	6.47
472.023	6.19
472.377	6.21
472.732	6.48
473.086	6.3
473.441	6.08
473.795	6.55
474.15	6.49
474.504	6.34
474.859	6.43
475.213	6.18
475.567	6.27
475.921	6.19
476.275	6.34
476.63	6.17
476.984	6.47
477.338	6.42
477.692	6.11
478.045	6.3
478.399	6.26
478.753	6.25
479.107	6.2
479.461	6.34
479.814	6.46
480.168	6.38
480.521	6.19
480.875	6.27
481.228	6.39
481.582	6.24
481.935	6.26
482.289	6.41
482.642	6.31
482.995	6.28
483.348	6.15
483.701	6.39
484.055	6.42
484.408	6.36
484.761	6.31
485.114	6.21
485.466	6.13
485.819	6.11
486.172	6.05
486.525	5.95
486.878	5.97
487.23	5.98
487.583	6.11
487.936	6.13
488.288	6.19
488.641	6.31
488.993	6.22
489.345	6.21
489.698	6.18
490.05	6.12
490.402	6.13
490.754	6.1
491.107	6.18
491.459	6.22
491.811	6.3
492.163	6.33
492.515	6.28
492.866	6.45
493.218	6.39
493.57	6.26
493.922	6.23
494.274	6.25
494.625	6.22
494.977	6.26
495.328	6.36
495.68	6.4
496.031	6.55
496.383	6.3
496.734	6.44
497.086	6.52
497.437	6.41
497.788	6.48
498.139	6.45
498.49	6.44
498.842	6.37
499.193	6.39
499.544	6.41
499.894	6.31
500.245	6.44
500.596	6.33
500.947	6.58
501.298	6.4
501.648	6.47
501.999	6.52
502.35	6.49
502.7	6.56
503.051	6.31
503.401	6.39
503.752	6.54
504.102	6.33
504.452	6.58
504.803	6.39
505.153	6.5
505.503	6.36
505.853	6.53
506.203	6.32
506.553	6.57
506.903	6.51
507.253	6.38
507.603	6.49
507.953	6.61
508.303	6.63
508.652	6.49
509.002	6.54
509.352	6.52
509.701	6.45
510.051	6.5
510.4	6.43
510.75	6.48
511.099	6.52
511.449	6.48
511.798	6.54
512.147	6.54
512.496	6.43
512.846	6.53
513.195	6.49
513.544	6.36
513.893	6.62
514.242	6.57
514.591	6.57
514.939	6.57
515.288	6.42
515.637	6.63
515.986	6.64
516.334	6.63
516.683	6.72
517.032	6.57
517.38	6.77
517.729	6.74
518.077	6.5
518.426	6.73
518.774	6.84
519.122	6.62
519.47	6.72
519.819	6.58
520.167	6.62
520.515	6.63
520.863	6.67
521.211	6.66
521.559	6.65
521.907	6.55
522.255	6.66
522.602	6.7
522.95	6.58
523.298	6.67
523.645	6.71
523.993	6.67
524.341	6.88
524.688	6.58
525.036	6.88
525.383	6.69
525.73	6.9
526.078	6.66
526.425	6.69
526.772	6.81
527.119	6.85
527.466	6.73
527.814	6.8
528.161	6.72
528.508	6.72
528.854	6.66
529.201	6.67
529.548	6.7
529.895	6.75
530.242	6.69
530.588	6.66
530.935	6.59
531.282	6.55
531.628	6.52
531.975	6.59
532.321	6.63
532.667	6.71
533.014	6.79
533.36	6.71
533.706	6.9
534.052	6.78
534.399	6.86
534.745	6.86
535.091	6.81
535.437	6.79
535.783	6.8
536.129	6.77
536.474	6.7
536.82	6.73
537.166	6.92
537.512	6.86
537.857	6.99
538.203	7.06
538.549	6.91
538.894	6.86
539.239	6.91
539.585	6.88
539.93	6.82
540.276	7.07
540.621	7.09
540.966	7.05
541.311	7.02
541.656	7.04
542.001	7.1
542.346	7.24
542.691	7.05
543.036	7.07
543.381	6.94
543.726	6.95
544.071	6.97
544.415	6.98
544.76	6.94
545.105	7.08
545.449	7.09
545.794	7.15
546.138	7.15
546.483	7.26
546.827	7.29
547.171	7.14
547.516	7.36
547.86	7.18
548.204	7.23
548.548	7.19
548.892	7.19
549.236	7.32
549.58	7.27
549.924	7.25
550.268	7.2
550.612	7.46
550.956	7.46
551.3	7.27
551.643	7.59
551.987	7.62
552.33	7.48
552.674	7.51
553.017	7.43
553.361	7.49
553.704	7.7
554.048	7.6
554.391	7.51
554.734	7.4
555.077	7.57
555.42	7.4
555.764	7.57
556.107	7.39
556.45	7.54
556.793	7.49
557.135	7.7
557.478	7.7
557.821	7.81
558.164	7.53
558.507	7.56
558.849	7.56
559.192	7.96
559.534	7.7
559.877	7.79
560.219	7.86
560.562	7.91
560.904	7.65
561.246	7.92
561.589	7.79
561.931	7.89
562.273	7.85
562.615	7.79
562.957	7.9
563.299	7.8
563.641	7.96
563.983	8.09
564.325	7.8
564.667	7.92
565.008	7.99
565.35	8.2
565.692	7.81
566.033	7.93
566.375	8.3
566.716	8.27
567.058	8.2
567.399	8.19
567.741	7.92
568.082	8.21
568.423	8.14
568.764	8.08
569.105	8.34
569.447	8.14
569.788	8.16
570.129	8.43
570.47	8.27
570.811	8.44
571.151	8.35
571.492	8.58
571.833	8.31
572.174	8.4
572.514	8.32
572.855	8.42
573.195	8.4
573.536	8.49
573.876	8.49
574.217	8.48
574.557	8.67
574.898	8.67
575.238	8.57
575.578	8.61
575.918	8.61
576.258	8.7
576.598	8.6
576.938	8.6
577.278	8.68
577.618	8.63
577.958	8.8
578.298	8.65
578.638	8.57
578.977	8.73
579.317	8.55
579.657	8.8
579.996	8.84
580.336	8.93
580.675	8.78
581.014	9.06
581.354	9.18
581.693	8.95
582.032	8.97
582.372	8.87
582.711	9.09
583.05	8.97
583.389	8.94
583.728	9
584.067	9.03
584.406	9.28
584.745	9.03
585.083	9.03
585.422	9.21
585.761	9.33
586.1	9.35
586.438	9.3
586.777	9.35
587.115	9.52
587.454	9.39
587.792	9.16
588.13	9.54
588.469	9.48
588.807	9.12
589.145	9.41
589.483	9.5
589.821	9.28
590.159	9.54
590.497	9.73
590.835	10.15
591.173	9.66
591.511	10.01
591.849	9.8
592.187	9.83
592.524	9.52
592.862	9.68
593.2	9.86
593.537	9.69
593.875	9.74
594.212	9.62
594.55	9.82
594.887	9.97
595.224	9.85
595.561	10.06
595.899	10.06
596.236	10.19
596.573	10.22
596.91	9.59
597.247	9.99
597.584	10.46
597.921	10.14
598.258	9.99
598.594	10.19
598.931	10.38
599.268	10.4
599.604	10.1
599.941	10.33
600.277	10.33
600.614	10.25
600.95	10.32
601.287	10.56
601.623	10.57
601.959	10.15
602.296	10.36
602.632	10.6
602.968	10.65
603.304	10.53
603.64	10.53
603.976	10.89
604.312	10.71
604.648	10.6
604.984	10.77
605.319	10.85
605.655	10.68
605.991	10.77
606.326	10.76
606.662	10.91
606.998	10.57
607.333	10.95
607.668	10.92
608.004	10.99
608.339	11.06
608.674	10.95
609.01	10.8
609.345	10.78
609.68	11.21
610.015	11.17
610.35	11.12
610.685	11.21
611.02	11.14
611.355	11.33
611.689	11.27
612.024	11.38
612.359	11.09
612.694	11.03
613.028	11.17
613.363	11.46
613.697	11.42
614.032	11.37
614.366	11.2
614.7	11.36
615.035	11.68
615.369	11.4
615.703	11.74
616.037	11.53
616.371	11.08
616.705	11.45
617.039	11.67
617.373	11.62
617.707	11.54
618.041	11.39
618.375	11.83
618.709	11.89
619.042	11.74
619.376	11.7
619.71	12.16
620.043	11.88
620.377	12.11
620.71	11.96
621.043	11.95
621.377	11.83
621.71	11.83
622.043	12.09
622.376	11.85
622.709	11.89
623.043	11.97
623.376	12.38
623.709	12.14
624.041	12.46
624.374	12.38
624.707	12.37
625.04	12.73
625.373	11.75
625.705	12.76
626.038	12.71
626.37	12.51
626.703	12.54
627.035	12.68
627.368	12.89
627.7	12.65
628.032	12.75
628.365	12.95
628.697	13.04
629.029	12.74
629.361	12.65
629.693	12.96
630.025	12.91
630.357	13.32
630.689	13.11
631.021	13.02
631.353	13.18
631.684	13.06
632.016	12.8
632.348	13.44
632.679	13.35
633.011	13.48
633.342	13.48
633.674	12.78
634.005	13.48
634.336	12.89
634.668	13.37
634.999	13.12
635.33	13.97
635.661	13.79
635.992	13.27
636.323	13.45
636.654	13.54
636.985	13.45
637.316	13.34
637.647	13.73
637.977	13.75
638.308	13.61
638.639	13.59
638.969	13.86
639.3	13.7
639.63	13.62
639.961	13.84
640.291	13.78
640.622	14.15
640.952	13.44
641.282	14.47
641.612	13.75
641.943	13.74
642.273	14
642.603	14.35
642.933	14.02
643.263	14.44
643.592	14.16
643.922	14.09
644.252	14.17
644.582	14.38
644.911	14.03
645.241	14.26
645.571	13.78
645.9	13.95
646.23	14.19
646.559	14.79
646.888	14
647.218	14.29
647.547	14.52
647.876	14.15
648.205	14.39
648.534	14.69
648.863	14.1
649.192	15.19
649.521	14.46
649.85	14.61
650.179	14.36
650.508	14.34
650.837	14.7
651.165	14.23
651.494	15.14
651.822	14.64
652.151	14.85
652.479	15.27
652.808	15.08
653.136	14.96
653.465	14.31
653.793	14.94
654.121	14.65
654.449	15.58
654.777	15.13
655.105	15.23
655.433	14.87
655.761	15.58
656.089	15.03
656.417	15.62
656.745	15.67
657.073	15.06
657.4	15.75
657.728	15.19
658.056	15.33
658.383	15.26
658.711	15.77
659.038	16.03
659.365	15.62
659.693	15.41
660.02	15.58
660.347	15.96
660.674	15.96
661.001	15.72
661.329	15.33
661.656	15.7
661.982	16
662.309	16.03
662.636	15.44
662.963	16.25
663.29	15.73
663.616	16.08
663.943	15.17
664.27	15.97
664.596	16.15
664.923	16.32
665.249	15.68
665.576	15.7
665.902	16.83
666.228	16.32
666.554	16.75
666.881	16.07
667.207	16.49
667.533	16.91
667.859	16.62
668.185	16.89
668.511	16.25
668.837	15.24
669.162	16.58
669.488	15.8
669.814	17.25
670.139	17.26
670.465	16.76
670.791	17.04
671.116	16.94
671.442	16.55
671.767	17.08
672.092	17.18
672.418	17.36
672.743	17.78
673.068	16.78
673.393	16.81
673.718	16.62
674.043	16.18
674.368	16.72
674.693	18.2
675.018	16.94
675.343	17.12
675.667	17.1
675.992	17.77
676.317	17.61
676.641	17.28
676.966	17.92
677.29	16.92
677.615	18.23
677.939	18.06
678.264	18.45
678.588	17.96
678.912	17.54
679.236	18.06
679.56	16.95
679.885	17.72
680.209	18.63
680.532	17.58
680.856	18.81
681.18	17.13
681.504	17.87
681.828	18.07
682.152	17.5
682.475	17.56
682.799	18
683.122	17.91
683.446	17.65
683.769	18.43
684.093	17.47
684.416	18.58
684.739	17.83
685.062	17.97
685.386	18.43
685.709	17.36
