Data from 0195_forehead_Reflection__2__368.txt Node

Date: Fri Dec 15 19:51:51 CST 2023
User: ToomeyLab
Spectrometer: FLMS14357
Trigger mode: 0
Integration Time (sec): 1.000000E-2
Scans to average: 100
Electric dark correction enabled: true
Nonlinearity correction enabled: false
Boxcar width: 0
XAxis mode: Wavelengths
Number of Pixels in Spectrum: 2048
>>>>>Begin Spectral Data<<<<<
189.047	-1652.19
189.435	-1652.19
189.823	-1652.19
190.211	-658.95
190.599	-63.73
190.987	130.26
191.375	-340.14
191.763	-8.84
192.151	-805.17
192.538	77.14
192.926	-158.22
193.314	106.37
193.702	-4.03
194.089	66.7
194.477	63.46
194.864	829.8
195.252	96.61
195.639	156.18
196.027	244.07
196.414	138.7
196.801	254.9
197.189	-31.07
197.576	346.7
197.963	-121.54
198.351	-25.34
198.738	-493.82
199.125	25.3
199.512	17.8
199.899	202.88
200.286	55.43
200.673	1.63
201.06	30.11
201.447	-40.52
201.833	-19.43
202.22	29.98
202.607	55.39
202.994	6.83
203.38	7.52
203.767	55.17
204.154	34.81
204.54	67.51
204.927	-61.81
205.313	-10.14
205.699	77.22
206.086	44.56
206.472	60.54
206.858	69.54
207.245	-99.93
207.631	19.34
208.017	1.41
208.403	-0.27
208.789	38.89
209.175	59.48
209.561	-16.3
209.947	89.95
210.333	-81.21
210.719	58.57
211.105	30.47
211.491	-65.85
211.876	17.27
212.262	17.64
212.648	44.86
213.034	-9.81
213.419	6.12
213.805	-2.82
214.19	-38.63
214.576	49.27
214.961	-8.03
215.346	-30.82
215.732	45.36
216.117	28.41
216.502	-5.64
216.888	25.86
217.273	32.09
217.658	-13.72
218.043	21.48
218.428	7.1
218.813	-22.54
219.198	-5.43
219.583	2.62
219.968	33.21
220.353	11.85
220.738	32.5
221.122	5.24
221.507	-18.75
221.892	-11.3
222.276	-11.77
222.661	22.36
223.046	6.93
223.43	31.48
223.815	3.97
224.199	-3.7
224.583	11.73
224.968	10.44
225.352	6.55
225.736	3.22
226.121	-13.77
226.505	4.84
226.889	10.04
227.273	5.72
227.657	9.13
228.041	-1.53
228.425	3.07
228.809	10.86
229.193	8.79
229.577	1.36
229.961	4.28
230.344	4.64
230.728	3.84
231.112	5.58
231.495	4.31
231.879	3.76
232.263	4.26
232.646	4.47
233.03	4.6
233.413	4.48
233.797	4.4
234.18	2.7
234.563	4.1
234.946	-0.29
235.33	6.99
235.713	7.23
236.096	5.26
236.479	5.92
236.862	3.72
237.245	7.49
237.628	4.33
238.011	4.88
238.394	6.25
238.777	5.06
239.16	3.07
239.543	5.49
239.925	4.52
240.308	6.33
240.691	6.19
241.073	6.67
241.456	4.27
241.838	4.55
242.221	3.06
242.603	4.76
242.986	5.31
243.368	5.18
243.75	4.23
244.133	4.27
244.515	4.65
244.897	5.14
245.279	4.54
245.661	4.45
246.043	3.84
246.425	5.04
246.807	6.16
247.189	5.47
247.571	4.6
247.953	4.54
248.335	4.35
248.717	4.59
249.098	4.37
249.48	4.63
249.862	4.55
250.243	4.69
250.625	4.45
251.006	4.98
251.388	3.88
251.769	4.9
252.151	4.77
252.532	4.8
252.913	5.23
253.295	4.25
253.676	5
254.057	4.67
254.438	4.83
254.819	4.6
255.2	4.67
255.581	4.59
255.962	5.22
256.343	4.4
256.724	4.43
257.105	4.34
257.486	3.67
257.867	5.44
258.247	5.07
258.628	4.63
259.009	5.09
259.389	5.06
259.77	4.37
260.15	4.45
260.531	3.71
260.911	5.09
261.292	4.59
261.672	4.85
262.052	4.71
262.432	4.85
262.813	4.52
263.193	4.33
263.573	4.34
263.953	4.35
264.333	5
264.713	5.01
265.093	4.23
265.473	4.83
265.853	3.35
266.233	4.68
266.612	3.86
266.992	4.06
267.372	5.37
267.752	4.3
268.131	3.76
268.511	5.16
268.89	4.82
269.27	4.31
269.649	4.59
270.029	4.86
270.408	5.41
270.787	4.78
271.167	4.99
271.546	5.29
271.925	4.29
272.304	4.61
272.683	4.98
273.062	4.23
273.441	4.76
273.82	4.06
274.199	4.6
274.578	4.67
274.957	4.99
275.336	4.54
275.715	4.59
276.093	4.66
276.472	4.69
276.851	4.79
277.229	4.86
277.608	3.73
277.986	4.65
278.365	4.34
278.743	3.5
279.122	4.58
279.5	4.82
279.878	4.6
280.257	4.65
280.635	4.41
281.013	4.59
281.391	5.4
281.769	5.37
282.147	5.13
282.525	5.48
282.903	4.37
283.281	5.54
283.659	4.61
284.037	4.83
284.415	5.12
284.792	4.85
285.17	4.23
285.548	4.82
285.925	4.37
286.303	4.98
286.68	4.7
287.058	4.61
287.435	5
287.813	4.73
288.19	4.85
288.567	4.81
288.945	5.2
289.322	5.21
289.699	4.48
290.076	4.89
290.453	5.04
290.83	4.64
291.207	4.48
291.584	4.97
291.961	5.31
292.338	5.45
292.715	5.67
293.092	5.13
293.469	5.02
293.845	5.31
294.222	4.36
294.599	5.44
294.975	5.48
295.352	5.66
295.728	4.91
296.105	5.82
296.481	5.74
296.858	5.28
297.234	5.27
297.61	5.45
297.986	5.4
298.363	6.3
298.739	5.97
299.115	6.06
299.491	5.18
299.867	5.85
300.243	6.12
300.619	5.84
300.995	6.43
301.371	6.58
301.746	6.01
302.122	6.57
302.498	6.06
302.874	6.12
303.249	6.1
303.625	6.71
304	6.21
304.376	6.64
304.751	5.39
305.127	7.35
305.502	5.94
305.878	5.89
306.253	6.35
306.628	6.96
307.003	6.67
307.378	7.44
307.754	6.97
308.129	6.09
308.504	7.12
308.879	6.79
309.254	7.9
309.629	7.02
310.003	6.86
310.378	7.36
310.753	7.26
311.128	7.37
311.502	7.4
311.877	7.84
312.252	6.84
312.626	7.49
313.001	6.75
313.375	7.45
313.75	6.93
314.124	7.67
314.498	7.52
314.873	7.53
315.247	7.05
315.621	7.71
315.995	6.9
316.369	7.56
316.743	7.29
317.117	8.51
317.491	7.3
317.865	7.68
318.239	8.28
318.613	8.47
318.987	8.25
319.361	7.48
319.734	8.63
320.108	8.47
320.482	8.42
320.855	8.57
321.229	8.5
321.602	8.69
321.976	8.33
322.349	8.34
322.723	8.3
323.096	9.24
323.469	7.99
323.843	8.23
324.216	8.77
324.589	8.25
324.962	8.8
325.335	8.57
325.708	8.7
326.081	8.35
326.454	9.04
326.827	8.32
327.2	8.58
327.573	9.23
327.945	8.97
328.318	8.76
328.691	8.49
329.063	9.13
329.436	8.81
329.809	9.32
330.181	8.6
330.553	8.93
330.926	8.83
331.298	9.93
331.671	9.09
332.043	9.77
332.415	10.04
332.787	9.31
333.159	9.8
333.532	9.88
333.904	9.69
334.276	9.19
334.648	9.35
335.02	9.65
335.391	9.44
335.763	9.09
336.135	9.37
336.507	10.04
336.879	9.53
337.25	9.56
337.622	9.18
337.993	9.22
338.365	10.31
338.736	9.68
339.108	9.94
339.479	9.55
339.851	9.98
340.222	9.95
340.593	9.86
340.964	10.25
341.336	10.24
341.707	9.73
342.078	10.02
342.449	10.3
342.82	10.32
343.191	10.39
343.562	10.21
343.933	9.93
344.303	9.69
344.674	10.12
345.045	10.08
345.416	10.93
345.786	10.11
346.157	10.25
346.527	9.87
346.898	10.23
347.268	10.21
347.639	10.33
348.009	10.5
348.38	10.33
348.75	10.07
349.12	10.78
349.49	10.84
349.861	10.73
350.231	10.66
350.601	11.05
350.971	11.37
351.341	10.82
351.711	10.69
352.081	11.05
352.45	10.78
352.82	11.53
353.19	11.05
353.56	10.75
353.929	11.04
354.299	10.96
354.669	10.92
355.038	11.5
355.408	11.03
355.777	11.1
356.147	11.06
356.516	11.24
356.885	11.64
357.254	11.22
357.624	11.46
357.993	11.3
358.362	10.7
358.731	10.84
359.1	11.37
359.469	11.37
359.838	11.33
360.207	11.31
360.576	11.29
360.945	11.48
361.314	11.97
361.682	11.4
362.051	11.3
362.42	11.85
362.788	11.48
363.157	11.8
363.525	12.07
363.894	11.47
364.262	11.8
364.631	11.43
364.999	11.86
365.367	11.41
365.735	12.5
366.104	12.27
366.472	12.14
366.84	11.66
367.208	12.16
367.576	12.17
367.944	12.4
368.312	11.91
368.68	11.77
369.048	12.43
369.416	12.28
369.783	11.93
370.151	12.3
370.519	12.34
370.886	12.61
371.254	12.28
371.621	12.35
371.989	12.45
372.356	12.09
372.724	12.74
373.091	12.69
373.458	12.52
373.826	12.66
374.193	12.24
374.56	12.61
374.927	12.99
375.294	12.84
375.661	12.46
376.028	12.98
376.395	12.68
376.762	12.79
377.129	12.86
377.496	12.53
377.863	13.47
378.229	12.75
378.596	12.97
378.963	12.82
379.329	12.72
379.696	13.29
380.062	13.26
380.429	12.95
380.795	13.15
381.161	13.44
381.528	13.61
381.894	13.2
382.26	12.86
382.626	13.21
382.993	13.53
383.359	13.74
383.725	13.05
384.091	13.92
384.457	13.51
384.823	13.71
385.188	13.41
385.554	13.6
385.92	13.69
386.286	14.07
386.651	13.76
387.017	13.92
387.383	13.5
387.748	13.37
388.114	14.12
388.479	13.92
388.845	14.06
389.21	14.12
389.575	14.33
389.94	14.07
390.306	13.96
390.671	14.25
391.036	13.85
391.401	14.41
391.766	14.08
392.131	14.3
392.496	14.63
392.861	14.3
393.226	14.51
393.591	14.15
393.956	14.15
394.32	14.38
394.685	13.97
395.05	14.25
395.414	14.4
395.779	14.45
396.143	14.43
396.508	14.61
396.872	14.64
397.236	14.49
397.601	14.63
397.965	14.63
398.329	14.82
398.694	14.85
399.058	14.73
399.422	14.72
399.786	15.1
400.15	14.93
400.514	14.95
400.878	14.78
401.242	15.11
401.605	15.25
401.969	15.14
402.333	15.03
402.697	14.67
403.06	15.14
403.424	15.17
403.787	14.98
404.151	15.57
404.514	15.38
404.878	15.41
405.241	15.41
405.604	15.28
405.968	15.35
406.331	15.18
406.694	15.51
407.057	15.24
407.42	15.47
407.783	15.31
408.146	15.55
408.509	15.5
408.872	15.33
409.235	15.51
409.598	15.78
409.961	15.61
410.323	15.9
410.686	15.8
411.049	15.65
411.411	15.8
411.774	15.92
412.136	15.66
412.499	15.84
412.861	15.98
413.223	15.7
413.586	15.86
413.948	15.86
414.31	16
414.672	16.02
415.035	15.86
415.397	16.39
415.759	16.24
416.121	16.21
416.483	16.31
416.845	16.21
417.206	16.39
417.568	16.36
417.93	16.4
418.292	16.45
418.653	16.48
419.015	16.45
419.377	16.44
419.738	16.33
420.1	16.53
420.461	16.48
420.822	16.42
421.184	16.34
421.545	16.37
421.906	16.34
422.267	16.35
422.629	16.48
422.99	16.39
423.351	16.28
423.712	16.36
424.073	16.4
424.434	16.54
424.795	16.68
425.155	16.68
425.516	16.72
425.877	16.6
426.238	16.67
426.598	16.69
426.959	16.69
427.32	16.78
427.68	16.73
428.041	16.78
428.401	17.03
428.761	16.86
429.122	17.1
429.482	17.01
429.842	17.21
430.202	17.05
430.563	17.33
430.923	17.34
431.283	17.47
431.643	17.34
432.003	17.33
432.363	17.54
432.722	17.48
433.082	17.64
433.442	17.65
433.802	17.5
434.161	17.41
434.521	17.76
434.881	17.76
435.24	17.48
435.6	17.72
435.959	17.56
436.319	17.55
436.678	17.9
437.037	17.9
437.396	17.89
437.756	17.79
438.115	18.15
438.474	17.98
438.833	17.96
439.192	18.04
439.551	18.08
439.91	18.11
440.269	18.22
440.628	18.04
440.987	18.27
441.345	18.01
441.704	18.02
442.063	18.17
442.421	18.25
442.78	18.09
443.138	18.17
443.497	18.32
443.855	18.38
444.214	18.24
444.572	18.6
444.93	18.52
445.288	18.43
445.647	18.83
446.005	18.49
446.363	18.69
446.721	18.7
447.079	18.62
447.437	18.56
447.795	18.7
448.153	18.49
448.51	18.64
448.868	18.74
449.226	18.51
449.584	18.68
449.941	18.79
450.299	18.9
450.656	18.87
451.014	19
451.371	19.04
451.729	19.04
452.086	19.31
452.443	19.29
452.801	19.39
453.158	19.23
453.515	19.21
453.872	19.42
454.229	19.25
454.586	19.22
454.943	19.37
455.3	19.28
455.657	19.36
456.014	19.57
456.371	19.54
456.727	19.74
457.084	19.71
457.441	19.65
457.797	19.73
458.154	20.05
458.51	20.11
458.867	19.94
459.223	19.9
459.58	19.93
459.936	19.94
460.292	19.93
460.648	19.94
461.005	19.97
461.361	19.93
461.717	20.11
462.073	19.84
462.429	19.8
462.785	19.99
463.141	20.05
463.496	20.09
463.852	20.38
464.208	20.44
464.564	20.36
464.919	20.35
465.275	20.44
465.631	20.76
465.986	20.57
466.342	20.67
466.697	20.55
467.052	20.8
467.408	20.84
467.763	21.01
468.118	20.76
468.473	20.71
468.829	20.69
469.184	20.93
469.539	20.99
469.894	20.78
470.249	21.11
470.603	21.15
470.958	21.09
471.313	21.29
471.668	21.05
472.023	21.18
472.377	21.16
472.732	21.19
473.086	21.24
473.441	21.26
473.795	21.48
474.15	21.52
474.504	21.5
474.859	21.49
475.213	21.19
475.567	21.35
475.921	21.31
476.275	21.6
476.63	21.71
476.984	21.63
477.338	21.79
477.692	21.64
478.045	21.83
478.399	21.72
478.753	22
479.107	21.89
479.461	21.92
479.814	21.95
480.168	21.84
480.521	22.09
480.875	22.14
481.228	22.01
481.582	22.08
481.935	22.01
482.289	22.32
482.642	22.16
482.995	22.01
483.348	22.31
483.701	22.15
484.055	22.3
484.408	22.29
484.761	22.14
485.114	22.02
485.466	21.68
485.819	21.63
486.172	21.55
486.525	21.39
486.878	21.39
487.23	21.58
487.583	21.87
487.936	22.07
488.288	22.23
488.641	22.33
488.993	22.28
489.345	22.07
489.698	22.05
490.05	22.01
490.402	22.03
490.754	22.11
491.107	22.27
491.459	22.38
491.811	22.54
492.163	22.62
492.515	23.02
492.866	22.99
493.218	22.91
493.57	22.67
493.922	22.55
494.274	22.55
494.625	22.6
494.977	22.83
495.328	23.02
495.68	23.37
496.031	23.38
496.383	23.39
496.734	23.61
497.086	23.84
497.437	23.75
497.788	23.89
498.139	23.78
498.49	23.84
498.842	23.65
499.193	23.61
499.544	23.75
499.894	23.74
500.245	23.88
500.596	24.01
500.947	24.04
501.298	24.03
501.648	24.21
501.999	24.24
502.35	24.3
502.7	24.5
503.051	24.16
503.401	24.34
503.752	24.31
504.102	24.7
504.452	24.53
504.803	24.64
505.153	24.88
505.503	24.72
505.853	24.73
506.203	24.78
506.553	24.68
506.903	24.86
507.253	24.81
507.603	24.96
507.953	25.24
508.303	25
508.652	25.03
509.002	25.05
509.352	25.21
509.701	25.21
510.051	25.22
510.4	25.1
510.75	25.11
511.099	25.22
511.449	25.06
511.798	25.23
512.147	25.35
512.496	25.38
512.846	25.4
513.195	25.45
513.544	25.42
513.893	25.56
514.242	25.43
514.591	25.63
514.939	25.55
515.288	25.54
515.637	25.85
515.986	25.91
516.334	25.94
516.683	25.84
517.032	26
517.38	26.02
517.729	26.18
518.077	26.01
518.426	26.19
518.774	26.28
519.122	26.35
519.47	26.42
519.819	26.2
520.167	26.29
520.515	26.06
520.863	26.1
521.211	26.12
521.559	26.14
521.907	26.27
522.255	26.36
522.602	26.49
522.95	26.46
523.298	26.59
523.645	26.77
523.993	26.69
524.341	26.94
524.688	26.79
525.036	27.01
525.383	27.27
525.73	27.07
526.078	27.12
526.425	26.96
526.772	27.22
527.119	27.19
527.466	27.05
527.814	26.97
528.161	26.95
528.508	26.91
528.854	27.03
529.201	27.03
529.548	27.1
529.895	27.02
530.242	26.97
530.588	26.92
530.935	26.79
531.282	26.69
531.628	26.68
531.975	26.73
532.321	27.01
532.667	27.17
533.014	27.45
533.36	27.45
533.706	27.75
534.052	27.84
534.399	27.75
534.745	27.86
535.091	27.72
535.437	27.73
535.783	27.69
536.129	27.74
536.474	27.73
536.82	27.91
537.166	28.11
537.512	28.12
537.857	28.38
538.203	28.63
538.549	28.38
538.894	28.28
539.239	28.42
539.585	28.36
539.93	28.49
540.276	28.69
540.621	28.82
540.966	28.78
541.311	28.9
541.656	29
542.001	28.98
542.346	29.17
542.691	29.01
543.036	29.05
543.381	28.68
543.726	28.63
544.071	28.64
544.415	28.7
544.76	28.75
545.105	28.9
545.449	29.04
545.794	29.29
546.138	29.2
546.483	29.4
546.827	29.55
547.171	29.74
547.516	29.96
547.86	29.84
548.204	29.63
548.548	29.87
548.892	29.95
549.236	29.77
549.58	29.93
549.924	30.03
550.268	29.91
550.612	30.07
550.956	30.39
551.3	30.35
551.643	30.55
551.987	30.73
552.33	30.69
552.674	30.85
553.017	30.82
553.361	30.97
553.704	31.24
554.048	31.14
554.391	31.16
554.734	31.01
555.077	31.15
555.42	30.97
555.764	30.95
556.107	30.83
556.45	30.87
556.793	31.13
557.135	31.24
557.478	31.52
557.821	31.57
558.164	31.47
558.507	31.76
558.849	31.62
559.192	31.88
559.534	31.75
559.877	31.77
560.219	31.68
560.562	32.19
560.904	32.03
561.246	31.92
561.589	32.05
561.931	32.06
562.273	32.29
562.615	32.14
562.957	32.06
563.299	32.49
563.641	32.17
563.983	32.61
564.325	32.44
564.667	32.6
565.008	32.47
565.35	32.52
565.692	32.82
566.033	32.84
566.375	33.01
566.716	33
567.058	32.66
567.399	33.03
567.741	32.79
568.082	32.84
568.423	32.97
568.764	32.87
569.105	33.14
569.447	32.78
569.788	32.9
570.129	33.14
570.47	33.08
570.811	33.33
571.151	33.41
571.492	33.68
571.833	33.43
572.174	33.62
572.514	33.51
572.855	33.56
573.195	33.66
573.536	33.87
573.876	33.59
574.217	33.54
574.557	33.64
574.898	33.71
575.238	33.77
575.578	33.7
575.918	34.04
576.258	33.94
576.598	34.14
576.938	33.99
577.278	34.17
577.618	34.07
577.958	34.1
578.298	34.07
578.638	34.07
578.977	34.39
579.317	34.3
579.657	34.34
579.996	34.9
580.336	34.46
580.675	34.81
581.014	34.84
581.354	34.9
581.693	34.91
582.032	35.07
582.372	35.32
582.711	35.2
583.05	35.15
583.389	35.15
583.728	35.27
584.067	35.45
584.406	35.23
584.745	35.41
585.083	35.39
585.422	35.23
585.761	35.8
586.1	35.63
586.438	35.36
586.777	35.86
587.115	35.73
587.454	35.75
587.792	35.9
588.13	36.09
588.469	36.11
588.807	35.75
589.145	35.9
589.483	36.08
589.821	36.53
590.159	36.36
590.497	36.55
590.835	36.51
591.173	36.39
591.511	36.76
591.849	36.26
592.187	36.6
592.524	36.59
592.862	36.41
593.2	36.77
593.537	36.65
593.875	36.59
594.212	36.87
594.55	36.66
594.887	36.99
595.224	36.82
595.561	37.07
595.899	37.05
596.236	37.24
596.573	37.42
596.91	37.22
597.247	37.26
597.584	37.38
597.921	37.17
598.258	37.26
598.594	37.04
598.931	37.24
599.268	37.11
599.604	37.37
599.941	37.28
600.277	37.36
600.614	37.35
600.95	37.71
601.287	37.73
601.623	37.67
601.959	37.64
602.296	37.68
602.632	38.1
602.968	37.85
603.304	38.27
603.64	37.69
603.976	37.95
604.312	38.11
604.648	38.58
604.984	38.3
605.319	38.27
605.655	38.23
605.991	38.5
606.326	38.32
606.662	38.28
606.998	38.2
607.333	38.3
607.668	38.06
608.004	38.74
608.339	38.46
608.674	38.29
609.01	38.55
609.345	38.68
609.68	39.08
610.015	38.77
610.35	39.28
610.685	39.4
611.02	39.28
611.355	39.26
611.689	39.25
612.024	39.21
612.359	39.31
612.694	38.74
613.028	39.15
613.363	39.61
613.697	39.81
614.032	39.69
614.366	39.75
614.7	39.8
615.035	39.71
615.369	39.98
615.703	39.84
616.037	39.82
616.371	39.85
616.705	39.36
617.039	40.24
617.373	39.61
617.707	40.15
618.041	40.07
618.375	40.24
618.709	40.46
619.042	39.9
619.376	40.86
619.71	40.64
620.043	40.35
620.377	40.57
620.71	40.65
621.043	40.38
621.377	40.44
621.71	40.84
622.043	40.57
622.376	40.49
622.709	40.9
623.043	40.68
623.376	41.23
623.709	40.72
624.041	41.15
624.374	40.75
624.707	41.29
625.04	41.43
625.373	41.15
625.705	40.98
626.038	41.66
626.37	41.7
626.703	41.31
627.035	40.94
627.368	41.9
627.7	41.26
628.032	41.42
628.365	42.14
628.697	41.92
629.029	41.72
629.361	41.68
629.693	42.21
630.025	41.91
630.357	42.24
630.689	41.79
631.021	41.85
631.353	42.08
631.684	42.32
632.016	42.21
632.348	42.16
632.679	42.29
633.011	42.72
633.342	42.08
633.674	42.14
634.005	42.33
634.336	42.47
634.668	43.1
634.999	42.61
635.33	42.95
635.661	42.63
635.992	42.93
636.323	42.83
636.654	42.8
636.985	42.9
637.316	42.62
637.647	42.77
637.977	42.68
638.308	43.13
638.639	42.38
638.969	42.94
639.3	43.54
639.63	43.01
639.961	43.25
640.291	43.18
640.622	43.67
640.952	43.54
641.282	43.82
641.612	43.13
641.943	43.85
642.273	43.72
642.603	43.54
642.933	44.21
643.263	43.94
643.592	43.41
643.922	43.47
644.252	44
644.582	43.91
644.911	44.11
645.241	43.84
645.571	44.18
645.9	43.74
646.23	43.6
646.559	43.97
646.888	44.16
647.218	44.09
647.547	44.62
647.876	44.03
648.205	44.07
648.534	44.7
648.863	44.32
649.192	45.17
649.521	44.85
649.85	44.75
650.179	44.67
650.508	44.9
650.837	43.7
651.165	45.19
651.494	44.63
651.822	45.14
652.151	44.59
652.479	45.28
652.808	44.75
653.136	45.14
653.465	44.6
653.793	45.9
654.121	44.65
654.449	44.91
654.777	45.46
655.105	45.57
655.433	44.85
655.761	45.57
656.089	45.53
656.417	45.63
656.745	45.38
657.073	44.8
657.4	46.46
657.728	45.86
658.056	45.87
658.383	45.56
658.711	45.21
659.038	45.74
659.365	46.44
659.693	46.2
660.02	46.37
660.347	46.71
660.674	45.91
661.001	46.64
661.329	45.9
661.656	46.71
661.982	46
662.309	46.05
662.636	46.3
662.963	47.14
663.29	46.35
663.616	46.13
663.943	46.32
664.27	46.89
664.596	46.64
664.923	46.77
665.249	45.89
665.576	46.43
665.902	47.13
666.228	46.51
666.554	47.14
666.881	46.96
667.207	47.04
667.533	47.12
667.859	46.55
668.185	47.54
668.511	47.2
668.837	46.77
669.162	47.5
669.488	47.07
669.814	47.42
670.139	47.65
670.465	46.97
