Data from 0195_forehead_Reflection__1__367.txt Node

Date: Fri Dec 15 19:51:42 CST 2023
User: ToomeyLab
Spectrometer: FLMS14357
Trigger mode: 0
Integration Time (sec): 1.000000E-2
Scans to average: 100
Electric dark correction enabled: true
Nonlinearity correction enabled: false
Boxcar width: 0
XAxis mode: Wavelengths
Number of Pixels in Spectrum: 2048
>>>>>Begin Spectral Data<<<<<
189.047	-1635.77
189.435	-1635.77
189.823	-1635.77
190.211	22.76
190.599	4.13
190.987	108.55
191.375	-517.25
191.763	7.88
192.151	73.04
192.538	94.62
192.926	357.14
193.314	119.72
193.702	37.02
194.089	119.83
194.477	-33.12
194.864	-102.69
195.252	58.64
195.639	124.06
196.027	42.26
196.414	68.58
196.801	-43.32
197.189	143.66
197.576	134.81
197.963	-20.23
198.351	-133.32
198.738	-648.31
199.125	9.51
199.512	-21.87
199.899	79.67
200.286	11.35
200.673	13.94
201.06	-38.8
201.447	-48.75
201.833	19.58
202.22	25.84
202.607	24.44
202.994	-5.57
203.38	-21.92
203.767	51.16
204.154	24.36
204.54	31.07
204.927	-104.67
205.313	-46.66
205.699	49.46
206.086	8.77
206.472	17.97
206.858	-19.37
207.245	-54.6
207.631	-0.01
208.017	11.41
208.403	-23.14
208.789	1.27
209.175	3.11
209.561	-27.86
209.947	17.96
210.333	-103.19
210.719	19.82
211.105	-11.82
211.491	-51.02
211.876	31.7
212.262	3.68
212.648	32.04
213.034	7.56
213.419	-6.65
213.805	-8.6
214.19	-40.97
214.576	-29.84
214.961	-47.56
215.346	-168.86
215.732	14.74
216.117	-11.18
216.502	-38.58
216.888	28.95
217.273	-3.46
217.658	-2.35
218.043	-7.05
218.428	-34.85
218.813	-34.79
219.198	-44.72
219.583	-44.51
219.968	-16.52
220.353	-23.34
220.738	23.01
221.122	24.45
221.507	-62.6
221.892	-31.95
222.276	-20.26
222.661	-5.56
223.046	6.51
223.43	11.5
223.815	3.03
224.199	-12.22
224.583	-3.97
224.968	1.52
225.352	-4.36
225.736	-3.9
226.121	-9.74
226.505	2
226.889	9.93
227.273	-4.68
227.657	2.7
228.041	2.32
228.425	2.27
228.809	7.36
229.193	7.07
229.577	2.67
229.961	4.8
230.344	3.04
230.728	2.08
231.112	3.17
231.495	2.63
231.879	1.39
232.263	2.93
232.646	3.81
233.03	3.71
233.413	2.12
233.797	3.19
234.18	1.96
234.563	3.91
234.946	3.9
235.33	5.87
235.713	3.89
236.096	2.1
236.479	3.61
236.862	2.83
237.245	3.15
237.628	2.47
238.011	3.89
238.394	4.93
238.777	3.98
239.16	1.76
239.543	3.39
239.925	3.63
240.308	3.15
240.691	4.76
241.073	3.51
241.456	3.97
241.838	0.96
242.221	2.09
242.603	3.94
242.986	3.52
243.368	3.54
243.75	4.01
244.133	2.32
244.515	3.35
244.897	3.79
245.279	3.4
245.661	2.51
246.043	2.18
246.425	1.54
246.807	3.68
247.189	4.49
247.571	4.33
247.953	3.49
248.335	3.1
248.717	3.32
249.098	3.1
249.48	3.43
249.862	3.24
250.243	3.83
250.625	3.39
251.006	3.28
251.388	2.61
251.769	4.08
252.151	4.25
252.532	3.15
252.913	1.85
253.295	1.68
253.676	3.42
254.057	3.25
254.438	2.95
254.819	3.28
255.2	3.44
255.581	3.23
255.962	2.21
256.343	3.85
256.724	1.87
257.105	3.67
257.486	4.11
257.867	2.8
258.247	3.13
258.628	3.16
259.009	2.61
259.389	2.7
259.77	3.07
260.15	3.24
260.531	2.72
260.911	3.73
261.292	3.37
261.672	3.53
262.052	3.69
262.432	3.66
262.813	3.64
263.193	3.42
263.573	3.61
263.953	3.15
264.333	3.22
264.713	3.72
265.093	3.16
265.473	3.23
265.853	1.49
266.233	3.04
266.612	1.54
266.992	2.42
267.372	3.81
267.752	2.84
268.131	3.27
268.511	3.58
268.89	3.05
269.27	3.23
269.649	2.81
270.029	3.37
270.408	4.05
270.787	3.79
271.167	3.4
271.546	3.36
271.925	2.84
272.304	3.12
272.683	3.89
273.062	3.31
273.441	3.41
273.82	3.09
274.199	2.88
274.578	3.68
274.957	3.21
275.336	3.43
275.715	3.37
276.093	2.72
276.472	3.5
276.851	2.55
277.229	2.9
277.608	2.71
277.986	3.62
278.365	3.72
278.743	2.64
279.122	2.82
279.5	3.41
279.878	3.41
280.257	3.14
280.635	2.5
281.013	3.49
281.391	3.98
281.769	3.5
282.147	4.02
282.525	3.45
282.903	3.41
283.281	3.69
283.659	4.41
284.037	2.94
284.415	3.55
284.792	3.37
285.17	2.78
285.548	3.33
285.925	3.44
286.303	3.47
286.68	2.99
287.058	3.51
287.435	3.51
287.813	3.4
288.19	3.51
288.567	3.29
288.945	3.94
289.322	3.08
289.699	3.23
290.076	3.81
290.453	3.66
290.83	3.12
291.207	3.51
291.584	3.6
291.961	4.22
292.338	3.68
292.715	4.47
293.092	4.28
293.469	3.37
293.845	4
294.222	3.21
294.599	3.55
294.975	3.71
295.352	3.86
295.728	3.44
296.105	3.59
296.481	3.85
296.858	4.07
297.234	3.21
297.61	3.65
297.986	3.84
298.363	4.58
298.739	3.95
299.115	3.95
299.491	4
299.867	4.12
300.243	4.29
300.619	3.81
300.995	3.72
301.371	4.23
301.746	4.14
302.122	4.83
302.498	4.11
302.874	4.51
303.249	4.64
303.625	4.5
304	4.56
304.376	4.17
304.751	3.42
305.127	5.52
305.502	3.89
305.878	3.63
306.253	4.84
306.628	4.52
307.003	4.76
307.378	5.14
307.754	4.72
308.129	3.63
308.504	5.04
308.879	4.14
309.254	5.48
309.629	5.38
310.003	5.21
310.378	4.99
310.753	5.04
311.128	4.83
311.502	4.74
311.877	5.27
312.252	4.72
312.626	4.87
313.001	4.92
313.375	5.56
313.75	5.17
314.124	5.08
314.498	5
314.873	5.51
315.247	5.39
315.621	5.31
315.995	4.67
316.369	5.26
316.743	5.28
317.117	5.87
317.491	5.09
317.865	5.27
318.239	5.49
318.613	5.25
318.987	5.28
319.361	5.49
319.734	6.09
320.108	5.1
320.482	5.8
320.855	5.56
321.229	5.76
321.602	5.79
321.976	6.25
322.349	5.71
322.723	5.17
323.096	6.09
323.469	5.05
323.843	6.38
324.216	6.14
324.589	5.53
324.962	6.28
325.335	5.87
325.708	5.76
326.081	5.95
326.454	6.37
326.827	6.38
327.2	5.65
327.573	6.28
327.945	6.22
328.318	5.76
328.691	5.96
329.063	6.36
329.436	6.33
329.809	6.07
330.181	5.99
330.553	6.39
330.926	6.46
331.298	6.66
331.671	6.23
332.043	6.87
332.415	6.52
332.787	6.08
333.159	7.7
333.532	6.26
333.904	6.75
334.276	6.59
334.648	6.57
335.02	7.22
335.391	6.51
335.763	6.46
336.135	6.79
336.507	7.12
336.879	6.88
337.25	6.06
337.622	6.91
337.993	6.53
338.365	6.83
338.736	7
339.108	7.23
339.479	6.58
339.851	6.91
340.222	6.95
340.593	6.88
340.964	6.75
341.336	7.46
341.707	6.67
342.078	7.24
342.449	7.19
342.82	7.1
343.191	6.54
343.562	7.16
343.933	7.31
344.303	7.32
344.674	6.61
345.045	6.94
345.416	7.55
345.786	7.42
346.157	7.37
346.527	6.9
346.898	7.25
347.268	7.62
347.639	7.42
348.009	7.96
348.38	7.44
348.75	7.39
349.12	7.5
349.49	8.4
349.861	7.38
350.231	7.82
350.601	7.1
350.971	7.74
351.341	7.62
351.711	7.3
352.081	7.8
352.45	7.56
352.82	7.61
353.19	7.85
353.56	7.67
353.929	7.86
354.299	7.58
354.669	7.72
355.038	7.43
355.408	7.93
355.777	7.77
356.147	8.02
356.516	7.81
356.885	8.05
357.254	7.81
357.624	8.49
357.993	8.19
358.362	7.51
358.731	7.73
359.1	8.01
359.469	8.69
359.838	8.35
360.207	7.8
360.576	8
360.945	8.29
361.314	8.77
361.682	8.15
362.051	8.18
362.42	8.59
362.788	8.24
363.157	8.46
363.525	8.63
363.894	8.54
364.262	8.49
364.631	8.47
364.999	8.88
365.367	8.57
365.735	9.08
366.104	8.71
366.472	8.44
366.84	8.61
367.208	8.78
367.576	8.55
367.944	8.98
368.312	8.68
368.68	8.35
369.048	8.77
369.416	8.85
369.783	8.75
370.151	8.55
370.519	9.13
370.886	8.71
371.254	9.09
371.621	9.21
371.989	9.21
372.356	8.86
372.724	8.85
373.091	8.82
373.458	8.9
373.826	9.15
374.193	8.95
374.56	9.24
374.927	9.41
375.294	9.52
375.661	8.93
376.028	9.3
376.395	9.11
376.762	9.6
377.129	9.67
377.496	9.24
377.863	9.06
378.229	8.88
378.596	9.36
378.963	9.33
379.329	9.24
379.696	9.59
380.062	9.37
380.429	9.52
380.795	9.68
381.161	9.24
381.528	10.01
381.894	9.68
382.26	9.8
382.626	9.82
382.993	9.15
383.359	10.18
383.725	9.95
384.091	9.75
384.457	10.19
384.823	10.07
385.188	9.83
385.554	10.26
385.92	9.94
386.286	10.12
386.651	10.07
387.017	10.39
387.383	10.09
387.748	10.14
388.114	10.65
388.479	9.99
388.845	10.77
389.21	10.08
389.575	10.2
389.94	10.2
390.306	10.15
390.671	10.33
391.036	10.02
391.401	10.42
391.766	10.3
392.131	10.24
392.496	10.59
392.861	10.46
393.226	10.66
393.591	10.46
393.956	10.4
394.32	10.77
394.685	10.56
395.05	10.31
395.414	10.65
395.779	10.44
396.143	10.42
396.508	10.43
396.872	10.97
397.236	10.59
397.601	10.54
397.965	10.69
398.329	10.6
398.694	10.99
399.058	10.95
399.422	10.65
399.786	11.16
400.15	10.91
400.514	10.7
400.878	11.17
401.242	11.4
401.605	11.07
401.969	11.21
402.333	11.22
402.697	11.05
403.06	10.96
403.424	11.38
403.787	11.15
404.151	11.57
404.514	11.33
404.878	11.19
405.241	11.58
405.604	11.26
405.968	11.5
406.331	11.34
406.694	11.59
407.057	11.24
407.42	11.57
407.783	11.29
408.146	11.49
408.509	11.63
408.872	11.35
409.235	11.56
409.598	11.65
409.961	11.77
410.323	11.79
410.686	11.56
411.049	11.66
411.411	11.74
411.774	11.6
412.136	12.09
412.499	11.89
412.861	11.95
413.223	12.04
413.586	11.98
413.948	12
414.31	12.06
414.672	11.78
415.035	11.98
415.397	12.06
415.759	11.86
416.121	12.08
416.483	11.98
416.845	12.22
417.206	12.15
417.568	12.19
417.93	12.02
418.292	11.94
418.653	12.19
419.015	12.31
419.377	12.13
419.738	12.28
420.1	12.22
420.461	12.26
420.822	12.23
421.184	12.18
421.545	12.27
421.906	12.25
422.267	12.17
422.629	12.19
422.99	12.32
423.351	12.21
423.712	12.32
424.073	12.26
424.434	12.21
424.795	12.25
425.155	12.48
425.516	12.35
425.877	12.5
426.238	12.42
426.598	12.55
426.959	12.53
427.32	12.48
427.68	12.47
428.041	12.61
428.401	12.67
428.761	12.82
429.122	12.95
429.482	12.58
429.842	13.02
430.202	12.99
430.563	13.29
430.923	13.06
431.283	13.04
431.643	13
432.003	13.14
432.363	13.22
432.722	13.35
433.082	13.18
433.442	13.19
433.802	13.2
434.161	13.29
434.521	13.5
434.881	13.43
435.24	13.01
435.6	13.36
435.959	13.27
436.319	13.32
436.678	13.25
437.037	13.51
437.396	13.41
437.756	13.55
438.115	13.3
438.474	13.74
438.833	13.58
439.192	13.72
439.551	13.79
439.91	13.62
440.269	13.67
440.628	13.65
440.987	13.61
441.345	13.68
441.704	13.7
442.063	13.67
442.421	13.67
442.78	13.64
443.138	13.77
443.497	13.72
443.855	13.76
444.214	13.82
444.572	13.91
444.93	13.96
445.288	14.01
445.647	13.95
446.005	14.01
446.363	14.14
446.721	14.18
447.079	13.87
447.437	14.13
447.795	14.08
448.153	14.03
448.51	13.97
448.868	14.12
449.226	14.01
449.584	14.2
449.941	14.36
450.299	14.2
450.656	14.29
451.014	14.34
451.371	14.32
451.729	14.24
452.086	14.61
452.443	14.44
452.801	14.48
453.158	14.59
453.515	14.53
453.872	14.73
454.229	14.66
454.586	14.64
454.943	14.61
455.3	14.65
455.657	14.7
456.014	14.61
456.371	14.7
456.727	14.72
457.084	14.96
457.441	14.78
457.797	14.86
458.154	14.9
458.51	15.19
458.867	15.13
459.223	15.17
459.58	14.92
459.936	15.16
460.292	14.95
460.648	15.06
461.005	15.14
461.361	15.22
461.717	15.19
462.073	14.91
462.429	14.88
462.785	15
463.141	15.07
463.496	15.24
463.852	15.46
464.208	15.36
464.564	15.42
464.919	15.43
465.275	15.48
465.631	15.65
465.986	15.62
466.342	15.45
466.697	15.27
467.052	15.61
467.408	15.85
467.763	15.63
468.118	15.58
468.473	15.63
468.829	15.8
469.184	15.61
469.539	15.7
469.894	15.76
470.249	15.84
470.603	15.77
470.958	15.92
471.313	15.85
471.668	16.01
472.023	16.16
472.377	16.07
472.732	16.15
473.086	16.13
473.441	16
473.795	16.14
474.15	16.24
474.504	16.12
474.859	16.39
475.213	16.08
475.567	16.25
475.921	16.2
476.275	16.2
476.63	16.36
476.984	16.34
477.338	16.69
477.692	16.35
478.045	16.35
478.399	16.49
478.753	16.71
479.107	16.45
479.461	16.7
479.814	16.75
480.168	16.35
480.521	16.54
480.875	16.54
481.228	16.59
481.582	16.63
481.935	16.74
482.289	16.64
482.642	16.7
482.995	16.72
483.348	16.71
483.701	16.66
484.055	16.91
484.408	16.85
484.761	16.64
485.114	16.68
485.466	16.41
485.819	16.24
486.172	16.14
486.525	16.09
486.878	16.11
487.23	16.23
487.583	16.45
487.936	16.66
488.288	16.81
488.641	16.95
488.993	16.74
489.345	16.69
489.698	16.64
490.05	16.58
490.402	16.66
490.754	16.6
491.107	16.8
491.459	16.91
491.811	17.16
492.163	17.24
492.515	17.21
492.866	17.29
493.218	17.42
493.57	17.04
493.922	17.03
494.274	17.05
494.625	16.99
494.977	17.28
495.328	17.45
495.68	17.6
496.031	17.87
496.383	17.76
496.734	17.97
497.086	18.03
497.437	17.78
497.788	17.98
498.139	18.1
498.49	18.03
498.842	17.98
499.193	17.83
499.544	17.97
499.894	18.06
500.245	18.04
500.596	18.05
500.947	18.17
501.298	18.24
501.648	18.35
501.999	18.47
502.35	18.4
502.7	18.59
503.051	18.31
503.401	18.44
503.752	18.61
504.102	18.72
504.452	18.51
504.803	18.62
505.153	18.54
505.503	18.79
505.853	18.61
506.203	18.85
506.553	18.59
506.903	18.85
507.253	18.71
507.603	18.7
507.953	18.9
508.303	19.02
508.652	18.96
509.002	19.14
509.352	19.19
509.701	19.17
510.051	18.84
510.4	19.04
510.75	19.13
511.099	19.19
511.449	19.14
511.798	19.16
512.147	19.25
512.496	19.26
512.846	19.14
513.195	19.28
513.544	19.15
513.893	19.27
514.242	19.3
514.591	19.58
514.939	19.37
515.288	19.32
515.637	19.62
515.986	19.55
516.334	19.72
516.683	19.75
517.032	19.59
517.38	19.71
517.729	19.81
518.077	19.84
518.426	19.87
518.774	19.96
519.122	19.84
519.47	19.79
519.819	19.73
520.167	19.74
520.515	19.8
520.863	19.88
521.211	19.63
521.559	19.8
521.907	19.89
522.255	19.9
522.602	20
522.95	20.11
523.298	19.96
523.645	20.31
523.993	20.41
524.341	20.62
524.688	20.57
525.036	20.24
525.383	20.51
525.73	20.67
526.078	20.56
526.425	20.53
526.772	20.57
527.119	20.61
527.466	20.45
527.814	20.47
528.161	20.32
528.508	20.26
528.854	20.27
529.201	20.32
529.548	20.38
529.895	20.4
530.242	20.26
530.588	20.25
530.935	20.04
531.282	20.07
531.628	20.07
531.975	20.16
532.321	20.38
532.667	20.53
533.014	20.81
533.36	20.87
533.706	20.96
534.052	20.92
534.399	20.96
534.745	20.98
535.091	20.9
535.437	20.88
535.783	20.78
536.129	20.86
536.474	20.9
536.82	21.06
537.166	21.36
537.512	21.25
537.857	21.49
538.203	21.6
538.549	21.4
538.894	21.35
539.239	21.41
539.585	21.51
539.93	21.58
540.276	21.78
540.621	22.07
540.966	21.71
541.311	21.98
541.656	21.91
542.001	22.02
542.346	22.08
542.691	21.96
543.036	21.83
543.381	21.61
543.726	21.64
544.071	21.46
544.415	21.55
544.76	21.73
545.105	21.81
545.449	21.88
545.794	22.07
546.138	22.02
546.483	22.13
546.827	22.43
547.171	22.44
547.516	22.78
547.86	22.49
548.204	22.4
548.548	22.59
548.892	22.49
549.236	22.55
549.58	22.72
549.924	22.71
550.268	22.8
550.612	22.94
550.956	23.2
551.3	22.82
551.643	23.19
551.987	23.27
552.33	23.25
552.674	23.43
553.017	23.19
553.361	23.49
553.704	23.72
554.048	23.28
554.391	23.31
554.734	23.55
555.077	23.68
555.42	23.41
555.764	23.44
556.107	23.44
556.45	23.44
556.793	23.42
557.135	23.76
557.478	23.84
557.821	24.08
558.164	23.68
558.507	24.02
558.849	23.75
559.192	24.16
559.534	24.08
559.877	23.9
560.219	23.98
560.562	24.42
560.904	24.38
561.246	24.29
561.589	24.21
561.931	24.19
562.273	24.4
562.615	24.38
562.957	24.24
563.299	24.17
563.641	24.37
563.983	24.69
564.325	24.27
564.667	24.69
565.008	24.67
565.35	24.52
565.692	24.43
566.033	24.79
566.375	24.8
566.716	24.96
567.058	25.02
567.399	24.84
567.741	24.74
568.082	24.91
568.423	24.82
568.764	24.85
569.105	24.94
569.447	24.79
569.788	24.73
570.129	25.11
570.47	25.05
570.811	25.02
571.151	25.29
571.492	25.44
571.833	25.26
572.174	25.26
572.514	25.09
572.855	25.08
573.195	25.25
573.536	25.42
573.876	25.37
574.217	25.41
574.557	25.53
574.898	25.65
575.238	25.6
575.578	25.82
575.918	25.66
576.258	25.76
576.598	25.94
576.938	25.6
577.278	25.94
577.618	25.71
577.958	25.86
578.298	25.88
578.638	25.83
578.977	25.94
579.317	26.15
579.657	26.05
579.996	26.07
580.336	26.09
580.675	26.23
581.014	26.13
581.354	26.47
581.693	26.52
582.032	26.48
582.372	26.53
582.711	26.55
583.05	26.59
583.389	26.44
583.728	26.41
584.067	26.85
584.406	27.06
584.745	26.51
585.083	26.62
585.422	27.13
585.761	27.07
586.1	26.88
586.438	26.9
586.777	27.04
587.115	27.31
587.454	27.03
587.792	27.07
588.13	27.45
588.469	27.14
588.807	27.18
589.145	27.07
589.483	27.48
589.821	27.64
590.159	27.49
590.497	27.46
590.835	27.64
591.173	27.67
591.511	27.84
591.849	27.43
592.187	27.71
592.524	27.57
592.862	27.28
593.2	27.71
593.537	27.77
593.875	27.86
594.212	27.74
594.55	27.99
594.887	27.9
595.224	27.86
595.561	27.76
595.899	28.12
596.236	27.94
596.573	28.12
596.91	28.01
597.247	28.09
597.584	28.17
597.921	28.04
598.258	28.17
598.594	28.3
598.931	28.23
599.268	28.33
599.604	28.21
599.941	28.2
600.277	28.36
600.614	28.32
600.95	28.21
601.287	28.53
601.623	28.58
601.959	28.39
602.296	28.7
602.632	28.62
602.968	29.06
603.304	28.89
603.64	28.97
603.976	29.05
604.312	28.85
604.648	28.94
604.984	28.99
605.319	28.95
605.655	28.89
605.991	28.81
606.326	28.99
606.662	29.07
606.998	28.88
607.333	29.07
607.668	28.96
608.004	29.01
608.339	29.17
608.674	29.31
609.01	29.36
609.345	29.16
609.68	29.48
610.015	29.22
610.35	29.61
610.685	29.53
611.02	29.69
611.355	29.72
611.689	29.44
612.024	29.36
612.359	29.77
612.694	29.4
613.028	29.57
613.363	29.32
613.697	29.83
614.032	29.73
614.366	29.74
614.7	29.94
615.035	29.86
615.369	29.77
615.703	29.68
616.037	29.87
616.371	30
616.705	29.99
617.039	30.51
617.373	30.09
617.707	30.68
618.041	30.4
618.375	30.64
618.709	30.05
619.042	30.52
619.376	30.86
619.71	30.82
620.043	31.02
620.377	30.34
620.71	30.89
621.043	30.7
621.377	30.55
621.71	30.98
622.043	29.99
622.376	30.66
622.709	30.93
623.043	31.12
623.376	31.05
623.709	31.21
624.041	31.29
624.374	31.45
624.707	31.31
625.04	31.32
625.373	30.99
625.705	30.83
626.038	31.27
626.37	30.95
626.703	31.56
627.035	31.33
627.368	31.66
627.7	31.42
628.032	31.6
628.365	31.66
628.697	31.72
629.029	31.6
629.361	31.32
629.693	31.65
630.025	31.47
630.357	31.85
630.689	31.83
631.021	31.8
631.353	31.98
631.684	31.75
632.016	31.71
632.348	31.86
632.679	32.15
633.011	32.29
633.342	32.39
633.674	32.02
634.005	31.97
634.336	32
634.668	32.5
634.999	31.87
635.33	32.66
635.661	32.62
635.992	32.48
636.323	32.73
636.654	32.48
636.985	32.45
637.316	32.61
637.647	32.43
637.977	32.89
638.308	32.64
638.639	32.19
638.969	32.45
639.3	32.07
639.63	32.7
639.961	32.7
640.291	33.04
640.622	32.71
640.952	32.88
641.282	33
641.612	33.06
641.943	32.83
642.273	33.08
642.603	32.67
642.933	33.72
643.263	32.8
643.592	33
643.922	33.07
644.252	33.05
644.582	33.9
644.911	32.6
645.241	33.26
645.571	33.45
645.9	32.93
646.23	33.07
646.559	33.69
646.888	33.42
647.218	33.3
647.547	33.83
647.876	33.45
648.205	33.37
648.534	33.47
648.863	33.73
649.192	33.75
649.521	34.05
649.85	33.9
650.179	34.1
650.508	33.74
650.837	33.59
651.165	33.37
651.494	33.66
651.822	33.52
652.151	33.85
652.479	34.13
652.808	33.68
653.136	34.19
653.465	33.42
653.793	34.21
654.121	33.66
654.449	34.42
654.777	34.42
655.105	34.6
655.433	33.61
655.761	34.3
656.089	34.39
656.417	34.99
656.745	34.2
657.073	34.49
657.4	35.01
657.728	34.21
658.056	34.38
658.383	34.7
658.711	34.55
659.038	34.35
659.365	35.14
659.693	34.42
660.02	34.76
660.347	35.14
660.674	35.23
661.001	35.53
661.329	34.42
661.656	34.98
661.982	34.92
662.309	34.93
662.636	34.48
662.963	34.85
663.29	35.08
663.616	35.39
663.943	34.61
664.27	35.41
664.596	35.01
664.923	34.65
665.249	35.07
665.576	35.34
665.902	35.41
666.228	35.13
666.554	35.39
666.881	35.54
667.207	35.04
667.533	35.31
667.859	35.79
668.185	35.61
668.511	35.62
668.837	35.12
669.162	35.33
669.488	35.5
669.814	35.67
670.139	36.15
670.465	35.58
670.791	36
671.116	36.27
671.442	36.08
671.767	36.24
672.092	36.58
672.418	36.55
