Data from 0195_crown_Reflection__1__362.txt Node

Date: Fri Dec 15 19:50:25 CST 2023
User: ToomeyLab
Spectrometer: FLMS14357
Trigger mode: 0
Integration Time (sec): 1.000000E-2
Scans to average: 100
Electric dark correction enabled: true
Nonlinearity correction enabled: false
Boxcar width: 0
XAxis mode: Wavelengths
Number of Pixels in Spectrum: 2048
>>>>>Begin Spectral Data<<<<<
189.047	-2791.24
189.435	-2791.24
189.823	-2791.24
190.211	560.61
190.599	129.05
190.987	282.96
191.375	-19.71
191.763	47.17
192.151	-486.52
192.538	66.53
192.926	-252.05
193.314	58.12
193.702	21.49
194.089	94.61
194.477	-192.83
194.864	393.27
195.252	42.12
195.639	159.71
196.027	284.52
196.414	99.21
196.801	194.01
197.189	238.56
197.576	97.38
197.963	-294.29
198.351	-106.45
198.738	-665.17
199.125	-41.62
199.512	-25.89
199.899	-0.53
200.286	53.61
200.673	7.29
201.06	-45.65
201.447	-27.28
201.833	7.1
202.22	7.78
202.607	11.53
202.994	-48.6
203.38	-14.39
203.767	11.92
204.154	-24.94
204.54	22.33
204.927	-85.17
205.313	-74.85
205.699	28.75
206.086	2.1
206.472	15.75
206.858	-6.13
207.245	-101.1
207.631	35.62
208.017	-11.21
208.403	-59.23
208.789	-4.85
209.175	-10.86
209.561	-42.06
209.947	-24.43
210.333	-112.29
210.719	20.91
211.105	-5.26
211.491	-71.27
211.876	8.69
212.262	-50.92
212.648	-13.87
213.034	-6.58
213.419	-56.98
213.805	-21.29
214.19	-28.12
214.576	-50.56
214.961	-11.71
215.346	-128.95
215.732	-97.44
216.117	-18.55
216.502	49.86
216.888	-6.39
217.273	4.2
217.658	-18.52
218.043	6.52
218.428	-25.59
218.813	-23.05
219.198	-30.88
219.583	-14.13
219.968	-24.01
220.353	-46.88
220.738	-1.11
221.122	2.06
221.507	-61.69
221.892	-62.82
222.276	-47.61
222.661	-15.6
223.046	-2.23
223.43	-8.02
223.815	-2.52
224.199	-13.54
224.583	-8.56
224.968	-12.29
225.352	0.04
225.736	-17.74
226.121	-16.34
226.505	-11
226.889	-1.16
227.273	-5.33
227.657	1.35
228.041	2.34
228.425	-1.47
228.809	4.98
229.193	5.52
229.577	0.42
229.961	2.83
230.344	2.14
230.728	2.09
231.112	2.63
231.495	1.94
231.879	0.9
232.263	3.91
232.646	3.42
233.03	-0.01
233.413	0.85
233.797	1.3
234.18	3.06
234.563	-2.02
234.946	1.77
235.33	3.92
235.713	1.28
236.096	1.03
236.479	2.83
236.862	1.62
237.245	3.28
237.628	2.17
238.011	4.29
238.394	2.3
238.777	0.86
239.16	3.04
239.543	1.02
239.925	1.85
240.308	2.79
240.691	5.17
241.073	2.93
241.456	2.44
241.838	2.16
242.221	0.4
242.603	2.26
242.986	2.9
243.368	1.57
243.75	2.8
244.133	2.01
244.515	3.04
244.897	2.79
245.279	2.98
245.661	2.92
246.043	1.64
246.425	1.91
246.807	2.92
247.189	2.77
247.571	2.91
247.953	3.1
248.335	2.34
248.717	2.87
249.098	2.51
249.48	2.72
249.862	2.38
250.243	2.7
250.625	2.81
251.006	2.5
251.388	2.14
251.769	2.09
252.151	3.05
252.532	1.21
252.913	1.5
253.295	1.48
253.676	2
254.057	2.88
254.438	2.09
254.819	2.14
255.2	0.51
255.581	2.52
255.962	0.55
256.343	1.59
256.724	1.69
257.105	2.28
257.486	1.34
257.867	2.1
258.247	2.07
258.628	1.01
259.009	1.39
259.389	2.09
259.77	1.9
260.15	1.26
260.531	1.83
260.911	2.74
261.292	2.21
261.672	2.39
262.052	2.41
262.432	2.84
262.813	2.77
263.193	2.27
263.573	2.02
263.953	2.27
264.333	2.83
264.713	2.32
265.093	1.84
265.473	2.47
265.853	0.56
266.233	2.12
266.612	0.5
266.992	0.76
267.372	2.1
267.752	2.17
268.131	2.23
268.511	2.35
268.89	2.3
269.27	1.4
269.649	2.16
270.029	1.96
270.408	2.55
270.787	2.46
271.167	2.62
271.546	2.86
271.925	1.14
272.304	1.86
272.683	2.72
273.062	2.52
273.441	2.48
273.82	1.71
274.199	1.74
274.578	2.12
274.957	2.06
275.336	2.2
275.715	1.85
276.093	1.97
276.472	2.1
276.851	1.73
277.229	1.8
277.608	1
277.986	1.7
278.365	2.25
278.743	2.18
279.122	1.4
279.5	2.52
279.878	2.46
280.257	2.05
280.635	1.9
281.013	1.73
281.391	1.6
281.769	2.14
282.147	2.35
282.525	2.29
282.903	2.18
283.281	2.56
283.659	2.44
284.037	2.21
284.415	1.96
284.792	2.13
285.17	1.52
285.548	1.75
285.925	2.17
286.303	2.06
286.68	1.93
287.058	2.22
287.435	1.57
287.813	2.5
288.19	2.34
288.567	1.69
288.945	2.08
289.322	2.24
289.699	2.17
290.076	1.79
290.453	1.82
290.83	2.14
291.207	1.76
291.584	1.98
291.961	1.93
292.338	2.23
292.715	2.41
293.092	1.97
293.469	2.42
293.845	2.38
294.222	0.98
294.599	2.29
294.975	1.55
295.352	1.87
295.728	1.91
296.105	2.03
296.481	2.29
296.858	2.45
297.234	2.14
297.61	2.21
297.986	2.18
298.363	2.48
298.739	2.14
299.115	1.79
299.491	1.78
299.867	2.09
300.243	2.29
300.619	1.84
300.995	2.16
301.371	2.22
301.746	1.94
302.122	2.15
302.498	2.23
302.874	1.71
303.249	2.03
303.625	1.66
304	2.47
304.376	2.02
304.751	1.31
305.127	2.9
305.502	1.79
305.878	1.47
306.253	2.09
306.628	2.58
307.003	1.96
307.378	2.4
307.754	1.77
308.129	1.82
308.504	1.89
308.879	1.98
309.254	2.45
309.629	2.22
310.003	1.64
310.378	2.31
310.753	2.04
311.128	2
311.502	1.75
311.877	2.55
312.252	1.76
312.626	2.13
313.001	1.83
313.375	2.54
313.75	1.46
314.124	1.95
314.498	2.01
314.873	2.2
315.247	1.63
315.621	2.01
315.995	1.34
316.369	2.15
316.743	1.54
317.117	2.19
317.491	2.33
317.865	1.46
318.239	1.86
318.613	1.21
318.987	2.86
319.361	0.67
319.734	2.07
320.108	1.84
320.482	1.99
320.855	2.51
321.229	1.41
321.602	1.83
321.976	2.31
322.349	2.25
322.723	1.74
323.096	2.45
323.469	0.97
323.843	2.14
324.216	2.03
324.589	2.05
324.962	2.04
325.335	2.08
325.708	1.67
326.081	1.6
326.454	1.98
326.827	1.35
327.2	1.86
327.573	2
327.945	2.35
328.318	1.39
328.691	1.62
329.063	2.34
329.436	1.95
329.809	1.99
330.181	1.5
330.553	1.78
330.926	2.34
331.298	2.08
331.671	2.01
332.043	2.2
332.415	2.1
332.787	1.44
333.159	2.85
333.532	2.56
333.904	2.27
334.276	1.42
334.648	1.54
335.02	1.82
335.391	1.59
335.763	1.87
336.135	2.09
336.507	1.85
336.879	1.66
337.25	1.07
337.622	1.52
337.993	1.92
338.365	1.57
338.736	1.89
339.108	1.79
339.479	1.51
339.851	1.81
340.222	1.82
340.593	1.57
340.964	1.74
341.336	2.5
341.707	1.36
342.078	2.3
342.449	2.3
342.82	1.76
343.191	1.73
343.562	2.2
343.933	1.89
344.303	1.79
344.674	2.11
345.045	2.35
345.416	2.32
345.786	1.78
346.157	2.28
346.527	1.5
346.898	1.68
347.268	2.13
347.639	1.89
348.009	1.96
348.38	1.34
348.75	2.02
349.12	1.89
349.49	2.85
349.861	1.72
350.231	2
350.601	1.86
350.971	1.69
351.341	2.17
351.711	2.09
352.081	1.86
352.45	1.53
352.82	1.92
353.19	1.67
353.56	1.88
353.929	2.02
354.299	1.87
354.669	1.38
355.038	2.35
355.408	1.52
355.777	2.06
356.147	1.68
356.516	2.08
356.885	2.16
357.254	1.68
357.624	2.19
357.993	2.31
358.362	1.86
358.731	2.03
359.1	2.02
359.469	2.2
359.838	2.38
360.207	1.89
360.576	1.81
360.945	2
361.314	2.27
361.682	2.19
362.051	1.89
362.42	2.45
362.788	2.23
363.157	2.23
363.525	2.47
363.894	2.26
364.262	2.12
364.631	2.15
364.999	2.49
365.367	1.8
365.735	2.53
366.104	2.42
366.472	2.06
366.84	2.23
367.208	2.37
367.576	2.41
367.944	2.43
368.312	1.98
368.68	1.96
369.048	2.16
369.416	1.88
369.783	1.74
370.151	2.19
370.519	2.42
370.886	2.06
371.254	2.07
371.621	2.43
371.989	2.45
372.356	1.78
372.724	2.25
373.091	1.73
373.458	2.26
373.826	2.02
374.193	2.3
374.56	2.59
374.927	2.54
375.294	2.42
375.661	2.26
376.028	2.23
376.395	2.18
376.762	2.47
377.129	2.34
377.496	2.01
377.863	2.16
378.229	1.63
378.596	2.38
378.963	2.29
379.329	2.22
379.696	2.64
380.062	2.47
380.429	2.25
380.795	2.3
381.161	2.21
381.528	2.6
381.894	1.98
382.26	1.78
382.626	2.33
382.993	1.98
383.359	2.78
383.725	1.97
384.091	2.19
384.457	2.44
384.823	2.48
385.188	2.54
385.554	2.32
385.92	2.28
386.286	2.63
386.651	2.42
387.017	2.64
387.383	2.46
387.748	2.4
388.114	2.42
388.479	2.16
388.845	2.47
389.21	2.51
389.575	2.55
389.94	2.37
390.306	2.52
390.671	2.6
391.036	2.46
391.401	1.78
391.766	2.33
392.131	2.11
392.496	2.29
392.861	2.19
393.226	2.4
393.591	2.45
393.956	2.27
394.32	2.58
394.685	2.34
395.05	2.44
395.414	2.51
395.779	2.25
396.143	2.38
396.508	2.4
396.872	2.54
397.236	2.6
397.601	2.37
397.965	2.43
398.329	2.41
398.694	2.65
399.058	2.41
399.422	2.38
399.786	3.01
400.15	2.71
400.514	2.48
400.878	2.75
401.242	2.77
401.605	2.63
401.969	2.85
402.333	2.62
402.697	2.59
403.06	2.76
403.424	2.4
403.787	2.12
404.151	2.59
404.514	2.63
404.878	2.43
405.241	2.64
405.604	2.47
405.968	2.52
406.331	2.47
406.694	2.76
407.057	2.56
407.42	2.45
407.783	2.32
408.146	2.65
408.509	2.75
408.872	2.28
409.235	2.65
409.598	2.78
409.961	2.63
410.323	2.76
410.686	2.86
411.049	2.39
411.411	2.55
411.774	2.69
412.136	2.58
412.499	2.53
412.861	2.51
413.223	2.42
413.586	2.48
413.948	2.47
414.31	2.52
414.672	2.57
415.035	2.52
415.397	2.94
415.759	2.48
416.121	2.68
416.483	2.28
416.845	2.57
417.206	2.65
417.568	2.63
417.93	2.46
418.292	2.62
418.653	2.5
419.015	2.65
419.377	2.58
419.738	2.76
420.1	2.5
420.461	2.55
420.822	2.82
421.184	2.61
421.545	2.61
421.906	2.51
422.267	2.48
422.629	2.64
422.99	2.59
423.351	2.62
423.712	2.58
424.073	2.61
424.434	2.58
424.795	2.66
425.155	2.73
425.516	2.61
425.877	2.68
426.238	2.57
426.598	2.7
426.959	2.64
427.32	2.62
427.68	2.55
428.041	2.65
428.401	2.75
428.761	2.58
429.122	2.57
429.482	2.58
429.842	2.86
430.202	2.76
430.563	2.84
430.923	2.68
431.283	2.75
431.643	2.54
432.003	2.66
432.363	3.1
432.722	2.51
433.082	2.64
433.442	2.64
433.802	2.66
434.161	2.63
434.521	2.88
434.881	2.68
435.24	2.66
435.6	2.58
435.959	2.69
436.319	2.7
436.678	2.68
437.037	2.79
437.396	2.86
437.756	2.77
438.115	2.72
438.474	2.82
438.833	2.62
439.192	2.77
439.551	2.88
439.91	2.67
440.269	2.74
440.628	2.65
440.987	2.69
441.345	2.53
441.704	2.78
442.063	2.63
442.421	2.82
442.78	2.7
443.138	2.69
443.497	2.88
443.855	2.82
444.214	2.89
444.572	2.82
444.93	2.62
445.288	2.88
445.647	2.63
446.005	2.79
446.363	2.71
446.721	2.93
447.079	2.61
447.437	2.77
447.795	2.7
448.153	2.6
448.51	2.65
448.868	2.76
449.226	2.75
449.584	2.82
449.941	2.92
450.299	2.81
450.656	2.7
451.014	2.81
451.371	2.84
451.729	2.84
452.086	3.01
452.443	2.82
452.801	2.96
453.158	2.78
453.515	2.73
453.872	2.95
454.229	2.75
454.586	2.72
454.943	2.84
455.3	2.85
455.657	2.77
456.014	2.86
456.371	2.84
456.727	2.81
457.084	3.04
457.441	2.71
457.797	2.81
458.154	3.11
458.51	2.97
458.867	3
459.223	2.92
459.58	2.84
459.936	2.75
460.292	2.69
460.648	2.7
461.005	2.69
461.361	2.77
461.717	2.74
462.073	2.71
462.429	2.81
462.785	2.83
463.141	2.86
463.496	2.96
463.852	2.91
464.208	2.83
464.564	3.02
464.919	2.78
465.275	2.65
465.631	3.08
465.986	2.7
466.342	2.95
466.697	2.65
467.052	2.7
467.408	2.93
467.763	2.87
468.118	2.81
468.473	2.8
468.829	2.85
469.184	2.61
469.539	2.92
469.894	2.65
470.249	2.9
470.603	2.94
470.958	3.07
471.313	3.02
471.668	2.99
472.023	2.92
472.377	2.89
472.732	2.83
473.086	2.97
473.441	2.67
473.795	3.01
474.15	2.93
474.504	2.93
474.859	2.96
475.213	2.67
475.567	2.76
475.921	2.84
476.275	2.75
476.63	2.87
476.984	2.9
477.338	3
477.692	2.95
478.045	2.52
478.399	2.77
478.753	2.83
479.107	2.85
479.461	2.92
479.814	2.88
480.168	2.83
480.521	2.87
480.875	2.86
481.228	2.91
481.582	2.84
481.935	2.96
482.289	2.87
482.642	3.03
482.995	2.86
483.348	2.88
483.701	2.88
484.055	2.88
484.408	2.87
484.761	2.73
485.114	2.81
485.466	2.66
485.819	2.65
486.172	2.72
486.525	2.88
486.878	2.9
487.23	2.93
487.583	2.95
487.936	2.9
488.288	2.88
488.641	2.95
488.993	2.79
489.345	2.75
489.698	2.81
490.05	2.76
490.402	2.89
490.754	2.9
491.107	2.91
491.459	2.97
491.811	2.93
492.163	2.81
492.515	2.87
492.866	2.88
493.218	2.83
493.57	2.79
493.922	2.83
494.274	3
494.625	3.04
494.977	3.06
495.328	3.07
495.68	2.97
496.031	3.12
496.383	2.92
496.734	3.18
497.086	3.17
497.437	3.01
497.788	2.91
498.139	2.83
498.49	3.07
498.842	2.84
499.193	2.94
499.544	3.09
499.894	2.98
500.245	3
500.596	2.98
500.947	3.09
501.298	2.91
501.648	2.99
501.999	3.06
502.35	3
502.7	3.01
503.051	2.66
503.401	2.84
503.752	2.93
504.102	2.92
504.452	3
504.803	2.89
505.153	2.86
505.503	2.95
505.853	3.04
506.203	2.83
506.553	3.01
506.903	2.96
507.253	3.01
507.603	2.85
507.953	3.04
508.303	3.06
508.652	3.01
509.002	3.11
509.352	3.02
509.701	2.99
510.051	3
510.4	2.95
510.75	3.01
511.099	2.91
511.449	2.94
511.798	3.01
512.147	3.01
512.496	2.91
512.846	3.03
513.195	2.94
513.544	2.96
513.893	3.13
514.242	3.07
514.591	3.12
514.939	2.98
515.288	2.97
515.637	3.11
515.986	3.15
516.334	3.07
516.683	3.04
517.032	3.06
517.38	3.04
517.729	3.05
518.077	2.95
518.426	3.03
518.774	3.12
519.122	2.95
519.47	3
519.819	2.83
520.167	2.92
520.515	2.96
520.863	3.02
521.211	3.18
521.559	3.1
521.907	2.94
522.255	3.1
522.602	3.04
522.95	3.03
523.298	2.93
523.645	3.24
523.993	3
524.341	3.12
524.688	3.01
525.036	2.9
525.383	3.01
525.73	3.14
526.078	2.96
526.425	2.88
526.772	3.11
527.119	2.97
527.466	2.89
527.814	3.04
528.161	3
528.508	3.1
528.854	3.01
529.201	2.97
529.548	2.86
529.895	2.93
530.242	2.79
530.588	2.77
530.935	2.87
531.282	2.98
531.628	3.02
531.975	3.06
532.321	3.07
532.667	3.08
533.014	3.09
533.36	3.12
533.706	3.15
534.052	3.02
534.399	2.99
534.745	2.89
535.091	2.9
535.437	2.94
535.783	3.02
536.129	3.06
536.474	3.1
536.82	3.11
537.166	3.18
537.512	3.06
537.857	3.02
538.203	3.02
538.549	3
538.894	2.96
539.239	3.11
539.585	3.07
539.93	3
540.276	3.1
540.621	3.11
540.966	3.05
541.311	2.98
541.656	2.93
542.001	3.1
542.346	3.05
542.691	2.91
543.036	2.87
543.381	2.81
543.726	2.95
544.071	3.07
544.415	3.12
544.76	3.07
545.105	3.12
545.449	3.02
545.794	3.08
546.138	3.07
546.483	3.14
546.827	3.16
547.171	3.04
547.516	3.17
547.86	3.02
548.204	3.02
548.548	3.03
548.892	3.05
549.236	2.98
549.58	3.11
549.924	3.18
550.268	3.17
550.612	3.14
550.956	3.17
551.3	3.12
551.643	3.19
551.987	3.18
552.33	3.05
552.674	3.09
553.017	2.88
553.361	2.85
553.704	3.34
554.048	2.96
554.391	3.04
554.734	3.1
555.077	3.15
555.42	2.97
555.764	3.14
556.107	2.97
556.45	2.96
556.793	3.05
557.135	3.14
557.478	3.28
557.821	3.03
558.164	3.11
558.507	2.98
558.849	3.07
559.192	3.08
559.534	3.2
559.877	3.15
560.219	3.17
560.562	3.13
560.904	2.89
561.246	3.08
561.589	3.08
561.931	2.95
562.273	3.11
562.615	3.2
562.957	3.23
563.299	2.87
563.641	3.08
563.983	3.08
564.325	2.79
564.667	3.11
565.008	3.06
565.35	3.16
565.692	2.93
566.033	3.01
566.375	3.28
566.716	3.17
567.058	3
567.399	3.03
567.741	2.9
568.082	3.17
568.423	3.03
568.764	3.12
569.105	3.27
569.447	3.38
569.788	3.13
570.129	3.28
570.47	2.91
570.811	3.19
571.151	3.29
571.492	3.24
571.833	3.06
572.174	3.12
572.514	3.18
572.855	3.16
573.195	3.02
573.536	3.1
573.876	2.95
574.217	3.04
574.557	3.14
574.898	3.17
575.238	3.32
575.578	2.91
575.918	3.35
576.258	3.26
576.598	3.22
576.938	2.97
577.278	3.05
577.618	3.1
577.958	3.23
578.298	3.02
578.638	3.03
578.977	3.03
579.317	2.92
579.657	3.22
579.996	3.26
580.336	3.27
580.675	3.33
581.014	3.15
581.354	3.03
581.693	3.4
582.032	3.18
582.372	2.76
582.711	3.09
583.05	3.11
583.389	3.21
583.728	2.93
584.067	3.42
584.406	3.16
584.745	3.43
585.083	3.43
585.422	3.01
585.761	3.13
586.1	3.16
586.438	2.87
586.777	3.17
587.115	3.04
587.454	3.23
587.792	2.95
588.13	3.44
588.469	3.06
588.807	3.11
589.145	2.91
589.483	3.01
589.821	3
590.159	3.23
590.497	3.28
590.835	3.29
591.173	3.13
591.511	3.16
591.849	3
592.187	3.13
592.524	3.13
592.862	2.8
593.2	3.16
593.537	2.99
593.875	2.8
594.212	2.87
594.55	3.13
594.887	3.37
595.224	3.1
595.561	3.03
595.899	3.2
596.236	3.18
596.573	3.32
596.91	2.64
597.247	3.07
597.584	3.36
597.921	3.04
598.258	3.04
598.594	3.11
598.931	2.99
599.268	3.19
599.604	3
599.941	3.32
600.277	3.03
600.614	3.03
600.95	2.91
601.287	3.39
601.623	3.32
601.959	2.87
602.296	3.23
602.632	3.19
602.968	3.2
603.304	2.9
603.64	2.97
603.976	3.02
604.312	2.75
604.648	3.01
604.984	3.04
605.319	2.97
605.655	3.15
605.991	3.03
606.326	3.14
606.662	3.07
606.998	2.95
607.333	3.05
607.668	3.22
608.004	3.31
608.339	3.2
608.674	3.24
609.01	3
609.345	2.94
609.68	3.26
610.015	2.91
610.35	2.93
610.685	2.99
611.02	3.1
611.355	3.15
611.689	2.88
612.024	3.11
612.359	2.81
612.694	3.1
613.028	3.18
613.363	3.26
613.697	3.06
614.032	3.36
614.366	2.77
614.7	3.21
615.035	3.15
615.369	3.14
615.703	3.27
616.037	3.12
616.371	2.88
616.705	3.08
617.039	3.02
617.373	2.67
617.707	2.91
618.041	2.84
618.375	3.29
618.709	3.19
619.042	3.04
619.376	3.39
619.71	3.04
620.043	3.2
620.377	3.06
620.71	3.33
621.043	2.93
621.377	2.9
621.71	3.06
622.043	2.5
622.376	2.79
622.709	3.26
623.043	2.99
623.376	2.93
623.709	2.99
624.041	3.36
624.374	3.24
624.707	3
625.04	3.36
625.373	2.9
625.705	2.99
626.038	2.67
626.37	2.73
626.703	2.69
627.035	3.24
627.368	3.27
627.7	3.1
628.032	2.88
628.365	3.24
628.697	3.22
629.029	2.87
629.361	3.06
629.693	3.1
630.025	2.99
630.357	3.24
630.689	3.45
631.021	3.04
631.353	2.87
631.684	3.18
632.016	2.9
632.348	3.65
632.679	3.17
633.011	3.32
633.342	3.35
633.674	2.88
634.005	3.47
634.336	3.24
634.668	3.5
634.999	2.91
635.33	3.4
635.661	3.45
635.992	3.02
636.323	3.1
636.654	3.39
636.985	3.06
637.316	3.03
637.647	2.64
637.977	3.5
638.308	3.12
638.639	2.55
638.969	2.98
639.3	2.94
639.63	2.86
639.961	3.44
640.291	3.32
640.622	3.29
640.952	2.86
641.282	3.33
641.612	3.02
641.943	3.35
642.273	3.27
642.603	3.06
642.933	3.27
643.263	3.04
643.592	2.67
643.922	2.87
644.252	3.26
644.582	3.19
644.911	2.76
645.241	2.95
645.571	2.85
645.9	2.75
646.23	3.38
646.559	3.35
646.888	3.17
647.218	3.03
647.547	3.26
647.876	2.48
648.205	2.71
648.534	2.8
648.863	3.19
649.192	3.87
649.521	2.72
649.85	3.06
650.179	2.9
650.508	3.02
650.837	2.75
651.165	2.62
651.494	3.19
651.822	3.26
652.151	2.66
652.479	3.61
652.808	2.76
653.136	3.14
653.465	2.57
653.793	2.51
654.121	2.98
654.449	3.04
654.777	2.94
655.105	3
655.433	3.03
655.761	2.67
656.089	2.63
656.417	3.32
656.745	2.68
657.073	2.41
657.4	3.3
657.728	2.94
658.056	2.9
658.383	2.88
658.711	2.91
659.038	3.71
659.365	3.67
659.693	3.23
660.02	3.06
660.347	2.86
660.674	3.17
661.001	3.37
661.329	2.46
661.656	3.1
661.982	3.06
662.309	3.06
662.636	2.56
662.963	3.4
663.29	3.31
663.616	3.33
663.943	2.65
664.27	2.88
664.596	3.51
664.923	3.07
665.249	2.98
665.576	3.51
665.902	3.36
666.228	2.77
666.554	2.96
666.881	2.98
667.207	3.17
667.533	3.54
667.859	3.8
668.185	3.66
668.511	2.18
668.837	1.87
669.162	3.15
669.488	2.94
669.814	3.67
670.139	3.38
670.465	3.63
670.791	3.73
671.116	3.53
671.442	2.29
671.767	3.33
672.092	2.87
672.418	2.94
672.743	3.21
673.068	2.86
673.393	3.76
673.718	3.03
674.043	2.87
674.368	3.13
674.693	3.9
675.018	3.46
675.343	3.07
675.667	2.91
675.992	3.05
676.317	2.73
676.641	3.06
676.966	3.81
677.29	2.75
677.615	3.34
677.939	2.81
678.264	3.94
678.588	3.8
678.912	3.03
679.236	3.44
679.56	2.34
679.885	4.03
680.209	3.07
680.532	2.76
680.856	3.22
681.18	3.66
681.504	3.22
681.828	3.49
682.152	3.2
682.475	3.53
682.799	3.62
683.122	3.07
683.446	3.32
683.769	3.53
684.093	3.09
684.416	3.88
684.739	2.71
685.062	3.27
685.386	3.46
685.709	2.75
686.032	3.18
686.355	3.65
686.678	2.96
687.001	2.96
687.324	3.23
687.646	2.65
687.969	3.27
688.292	3.25
688.614	3.14
688.937	3.85
689.26	2.89
689.582	3.15
689.904	2.85
690.227	2.78
690.549	3.14
690.871	3.92
691.194	2.64
691.516	2.8
691.838	2.49
692.16	2.58
