Data from 0060_chest_Reflection__3__156.txt Node

Date: Fri Dec 16 15:15:20 CST 2022
User: ToomeyLab
Spectrometer: FLMS14357
Trigger mode: 0
Integration Time (sec): 1.000000E-2
Scans to average: 100
Electric dark correction enabled: true
Nonlinearity correction enabled: false
Boxcar width: 0
XAxis mode: Wavelengths
Number of Pixels in Spectrum: 2048
>>>>>Begin Spectral Data<<<<<
189.047	171.15
189.435	171.15
189.823	171.15
190.211	136.69
190.599	-71.69
190.987	-28.61
191.375	4.49
191.763	552.57
192.151	-27.25
192.538	182.23
192.926	-120.04
193.314	256.22
193.702	72.25
194.089	366.16
194.477	19.68
194.864	-13.92
195.252	240.97
195.639	107.16
196.027	43.07
196.414	45.44
196.801	85.71
197.189	144.3
197.576	2.54
197.963	-43.91
198.351	38.45
198.738	15.31
199.125	51.41
199.512	-29.3
199.899	-4.01
200.286	-57.13
200.673	42.84
201.06	43.27
201.447	17.36
201.833	-67.36
202.22	18.18
202.607	-11.39
202.994	-11.63
203.38	-32.12
203.767	-30.26
204.154	-66.31
204.54	-5.66
204.927	0.6
205.313	-22.79
205.699	0.5
206.086	17.52
206.472	-23.5
206.858	22.02
207.245	11.23
207.631	20.86
208.017	-4.02
208.403	-4.62
208.789	-21.78
209.175	39.85
209.561	0.34
209.947	-75.24
210.333	5.21
210.719	15.87
211.105	-26.73
211.491	-1.53
211.876	-5.23
212.262	-65.92
212.648	-32.08
213.034	10.65
213.419	23.68
213.805	-6.67
214.19	-3.77
214.576	-55.89
214.961	-30.51
215.346	-13.88
215.732	-9.56
216.117	-19.1
216.502	-2.06
216.888	-31.82
217.273	-2.32
217.658	-16.03
218.043	0.5
218.428	-10.4
218.813	-10.6
219.198	-46.25
219.583	-28.53
219.968	-6.78
220.353	7.65
220.738	-11.13
221.122	14.37
221.507	-6.86
221.892	-2.18
222.276	14.48
222.661	-1.49
223.046	-2.2
223.43	-9.46
223.815	0.82
224.199	-7.86
224.583	4
224.968	7.29
225.352	-0.42
225.736	-0.67
226.121	-12.76
226.505	3.92
226.889	6.84
227.273	-2.43
227.657	1.05
228.041	-2.22
228.425	2.29
228.809	3.49
229.193	-0.77
229.577	1.64
229.961	1.03
230.344	1.25
230.728	0.97
231.112	1.39
231.495	0.61
231.879	1.33
232.263	-0.66
232.646	1.36
233.03	0.21
233.413	-0.13
233.797	1.64
234.18	-2.36
234.563	0.41
234.946	1.27
235.33	2.16
235.713	1.43
236.096	0.84
236.479	2.85
236.862	1.61
237.245	2.53
237.628	0.03
238.011	2.2
238.394	1.46
238.777	2.68
239.16	-1.12
239.543	-0.29
239.925	3.05
240.308	3.28
240.691	0.76
241.073	2.74
241.456	0.6
241.838	1.5
242.221	1.72
242.603	1.32
242.986	2.66
243.368	1.34
243.75	1.23
244.133	1.39
244.515	0.98
244.897	0.71
245.279	1.42
245.661	1.27
246.043	0.79
246.425	0.97
246.807	1.95
247.189	0.98
247.571	1.54
247.953	1.26
248.335	1.81
248.717	1.38
249.098	1.58
249.48	1.3
249.862	1.96
250.243	1.54
250.625	1.75
251.006	1.26
251.388	2.2
251.769	1.87
252.151	1.64
252.532	1.54
252.913	1.68
253.295	1.46
253.676	1.83
254.057	0.9
254.438	0.83
254.819	1.36
255.2	1.46
255.581	1.37
255.962	0.97
256.343	2.07
256.724	0.84
257.105	1.39
257.486	1.49
257.867	1.04
258.247	1.05
258.628	1.69
259.009	1.65
259.389	2.17
259.77	1.24
260.15	1.95
260.531	1.57
260.911	1.34
261.292	1.39
261.672	1.51
262.052	1.24
262.432	1.23
262.813	1.32
263.193	1.48
263.573	1.28
263.953	1.33
264.333	0.96
264.713	0.43
265.093	0.97
265.473	1.5
265.853	1.35
266.233	1.65
266.612	1.32
266.992	0.78
267.372	1.7
267.752	1.09
268.131	1.92
268.511	1.54
268.89	1.9
269.27	1.8
269.649	1.52
270.029	1.43
270.408	0.98
270.787	1.37
271.167	1.49
271.546	0.93
271.925	1.36
272.304	1.56
272.683	1.22
273.062	1.66
273.441	1.58
273.82	1.7
274.199	1.56
274.578	0.94
274.957	1.77
275.336	1.58
275.715	1.48
276.093	2.27
276.472	1.83
276.851	1.45
277.229	1.76
277.608	1.17
277.986	1.46
278.365	0.82
278.743	1.38
279.122	0.79
279.5	1.29
279.878	0.62
280.257	1.74
280.635	1.29
281.013	1.95
281.391	1.11
281.769	1.22
282.147	1.46
282.525	1.03
282.903	1.37
283.281	1.3
283.659	1.44
284.037	1.25
284.415	1.56
284.792	1.47
285.17	1.13
285.548	1.5
285.925	1.46
286.303	1.31
286.68	1.87
287.058	1.3
287.435	0.88
287.813	1.43
288.19	1.84
288.567	1.31
288.945	1.6
289.322	1.46
289.699	1.2
290.076	1.59
290.453	1
290.83	1.44
291.207	1.36
291.584	0.83
291.961	1.67
292.338	1.57
292.715	1.48
293.092	1.27
293.469	1.34
293.845	2.02
294.222	1.79
294.599	1.81
294.975	1.37
295.352	1.05
295.728	2.04
296.105	1.65
296.481	2.09
296.858	1.74
297.234	1.65
297.61	1.59
297.986	1.72
298.363	1.25
298.739	1.54
299.115	1.1
299.491	1.5
299.867	1.54
300.243	1.27
300.619	1.35
300.995	1.5
301.371	1.59
301.746	1.58
302.122	1.55
302.498	1.46
302.874	1.84
303.249	1.7
303.625	1.23
304	1.36
304.376	1.49
304.751	1.93
305.127	1.95
305.502	2.11
305.878	1.11
306.253	1.56
306.628	1.88
307.003	1.87
307.378	1.62
307.754	2.22
308.129	1.49
308.504	1.23
308.879	1.9
309.254	2.12
309.629	1.77
310.003	1.94
310.378	1.79
310.753	1.8
311.128	1.49
311.502	1.32
311.877	1.97
312.252	1.56
312.626	1.24
313.001	1.55
313.375	1.85
313.75	1.62
314.124	2.23
314.498	1.65
314.873	1.86
315.247	1.26
315.621	2.05
315.995	1.65
316.369	1.54
316.743	2.24
317.117	1.3
317.491	1.78
317.865	1.63
318.239	2.47
318.613	1.42
318.987	1.43
319.361	1.65
319.734	1.92
320.108	1.77
320.482	1.66
320.855	1.56
321.229	1.99
321.602	1.49
321.976	1.87
322.349	1.58
322.723	1.4
323.096	1.22
323.469	1.54
323.843	1.85
324.216	1.31
324.589	2.12
324.962	1.9
325.335	1.96
325.708	1.72
326.081	2.78
326.454	2.01
326.827	2.02
327.2	2.11
327.573	2.12
327.945	2.01
328.318	1.8
328.691	1.83
329.063	1.28
329.436	1.68
329.809	1.08
330.181	1.96
330.553	1.99
330.926	2.17
331.298	1.49
331.671	1.71
332.043	1.97
332.415	2.65
332.787	2.31
333.159	1.92
333.532	1.71
333.904	2.15
334.276	1.85
334.648	2.05
335.02	1.76
335.391	2.11
335.763	2.1
336.135	1.95
336.507	2.28
336.879	1.82
337.25	2.53
337.622	1.76
337.993	2.29
338.365	2.34
338.736	2.6
339.108	1.54
339.479	2.1
339.851	2.14
340.222	2.02
340.593	1.71
340.964	1.93
341.336	1.13
341.707	1.97
342.078	1.93
342.449	2.26
342.82	1.95
343.191	1.73
343.562	2.04
343.933	2.14
344.303	1.73
344.674	1.92
345.045	2.42
345.416	2.22
345.786	1.68
346.157	1.85
346.527	1.91
346.898	1.94
347.268	1.83
347.639	1.93
348.009	2.11
348.38	1.98
348.75	2.03
349.12	1.98
349.49	2.12
349.861	2.29
350.231	2.21
350.601	1.89
350.971	1.67
351.341	2.36
351.711	1.86
352.081	1.9
352.45	2.14
352.82	1.87
353.19	2.21
353.56	1.78
353.929	2.43
354.299	1.68
354.669	2.02
355.038	1.67
355.408	2.47
355.777	1.8
356.147	2.54
356.516	2.34
356.885	1.85
357.254	2.06
357.624	2.2
357.993	1.79
358.362	2.16
358.731	2
359.1	2.35
359.469	2.37
359.838	1.99
360.207	1.87
360.576	2.21
360.945	2.12
361.314	1.96
361.682	1.93
362.051	1.96
362.42	2.41
362.788	2.21
363.157	2.03
363.525	2.04
363.894	2.01
364.262	1.95
364.631	2.81
364.999	1.83
365.367	2.25
365.735	1.83
366.104	1.92
366.472	2.32
366.84	2.27
367.208	2.02
367.576	2.11
367.944	2.53
368.312	1.75
368.68	2.32
369.048	2.37
369.416	2.07
369.783	2.18
370.151	2.33
370.519	2.13
370.886	2.22
371.254	2.33
371.621	2.06
371.989	2.35
372.356	2.35
372.724	2.41
373.091	2.28
373.458	1.95
373.826	2.16
374.193	2.64
374.56	2.2
374.927	2.07
375.294	2.24
375.661	2.31
376.028	2.21
376.395	2.11
376.762	2.29
377.129	2.54
377.496	2.25
377.863	2.12
378.229	2.3
378.596	2.23
378.963	2.21
379.329	2.15
379.696	2.35
380.062	2.59
380.429	2.02
380.795	1.92
381.161	2.41
381.528	2
381.894	2.46
382.26	2.36
382.626	1.91
382.993	1.99
383.359	2.18
383.725	2.33
384.091	2.04
384.457	2.57
384.823	2.39
385.188	2.61
385.554	2.35
385.92	2.42
386.286	2.42
386.651	2.21
387.017	2.39
387.383	2.42
387.748	2.03
388.114	2.49
388.479	2.3
388.845	2.34
389.21	2.48
389.575	2.53
389.94	2.31
390.306	2.44
390.671	2.39
391.036	2.38
391.401	2.53
391.766	2.36
392.131	2.59
392.496	2.18
392.861	2.25
393.226	2.53
393.591	2.46
393.956	2.69
394.32	2.28
394.685	2.59
395.05	2.35
395.414	2.54
395.779	2.43
396.143	2.5
396.508	2.65
396.872	2.69
397.236	2.2
397.601	2.56
397.965	2.1
398.329	2.89
398.694	2.41
399.058	2.63
399.422	2.49
399.786	2.58
400.15	2.41
400.514	2.55
400.878	2.52
401.242	2.52
401.605	2.41
401.969	2.47
402.333	2.37
402.697	2.7
403.06	2.81
403.424	2.59
403.787	2.72
404.151	2.37
404.514	2.53
404.878	2.45
405.241	2.52
405.604	2.53
405.968	2.63
406.331	2.47
406.694	2.54
407.057	2.67
407.42	2.61
407.783	2.49
408.146	2.37
408.509	2.24
408.872	2.34
409.235	2.62
409.598	2.65
409.961	2.83
410.323	2.56
410.686	2.42
411.049	2.24
411.411	2.55
411.774	2.39
412.136	2.61
412.499	2.55
412.861	2.43
413.223	2.63
413.586	2.33
413.948	2.57
414.31	2.69
414.672	2.5
415.035	2.71
415.397	2.87
415.759	2.68
416.121	2.99
416.483	2.66
416.845	2.48
417.206	2.68
417.568	2.5
417.93	2.57
418.292	2.61
418.653	2.51
419.015	2.61
419.377	2.65
419.738	2.55
420.1	2.63
420.461	2.56
420.822	2.7
421.184	2.57
421.545	2.67
421.906	2.62
422.267	2.46
422.629	2.64
422.99	2.72
423.351	2.71
423.712	2.63
424.073	2.69
424.434	2.62
424.795	2.57
425.155	2.69
425.516	2.56
425.877	2.65
426.238	2.54
426.598	2.61
426.959	2.67
427.32	2.65
427.68	2.76
428.041	2.82
428.401	2.67
428.761	2.63
429.122	2.58
429.482	2.66
429.842	2.77
430.202	2.76
430.563	2.72
430.923	2.73
431.283	2.85
431.643	2.74
432.003	2.83
432.363	2.87
432.722	2.62
433.082	2.68
433.442	2.59
433.802	2.82
434.161	2.56
434.521	2.75
434.881	2.85
435.24	2.78
435.6	2.83
435.959	2.72
436.319	2.68
436.678	2.75
437.037	2.87
437.396	2.84
437.756	2.79
438.115	2.9
438.474	2.83
438.833	2.96
439.192	2.99
439.551	2.79
439.91	2.86
440.269	2.9
440.628	2.86
440.987	2.81
441.345	2.74
441.704	2.83
442.063	2.81
442.421	2.82
442.78	2.84
443.138	2.68
443.497	2.85
443.855	2.84
444.214	2.85
444.572	2.74
444.93	2.94
445.288	2.82
445.647	2.85
446.005	2.62
446.363	2.84
446.721	2.73
447.079	2.76
447.437	2.84
447.795	2.83
448.153	2.84
448.51	2.8
448.868	2.99
449.226	2.8
449.584	2.85
449.941	2.98
450.299	2.91
450.656	2.98
451.014	2.88
451.371	2.93
451.729	2.93
452.086	2.79
452.443	2.89
452.801	3.06
453.158	2.93
453.515	2.94
453.872	3
454.229	2.85
454.586	3.01
454.943	2.94
455.3	3.03
455.657	2.84
456.014	3.11
456.371	3.02
456.727	2.99
457.084	2.96
457.441	2.87
457.797	3.01
458.154	3.07
458.51	2.8
458.867	2.86
459.223	3.03
459.58	2.91
459.936	2.92
460.292	3.15
460.648	2.87
461.005	2.84
461.361	2.94
461.717	2.91
462.073	2.98
462.429	3.04
462.785	3.07
463.141	3.05
463.496	3.05
463.852	3.05
464.208	3.2
464.564	3.07
464.919	2.99
465.275	3.03
465.631	3.22
465.986	2.88
466.342	3.2
466.697	2.96
467.052	3.2
467.408	3.12
467.763	2.99
468.118	3.09
468.473	3.32
468.829	3.11
469.184	3.18
469.539	2.96
469.894	3.1
470.249	3.05
470.603	3.16
470.958	3.17
471.313	3.2
471.668	3.25
472.023	3.3
472.377	3.09
472.732	3.05
473.086	3
473.441	3.15
473.795	3.2
474.15	3.17
474.504	3.25
474.859	3.1
475.213	3.22
475.567	3.16
475.921	3.37
476.275	3.23
476.63	3.21
476.984	3.33
477.338	3.53
477.692	3.14
478.045	3.1
478.399	3.26
478.753	3.17
479.107	3.17
479.461	3.37
479.814	3.26
480.168	3.16
480.521	3.12
480.875	3.36
481.228	3.21
481.582	3.28
481.935	3.36
482.289	3.17
482.642	3.22
482.995	3.13
483.348	3.2
483.701	3.2
484.055	3.18
484.408	3.13
484.761	3.01
485.114	2.98
485.466	2.99
485.819	3.02
486.172	3.1
486.525	3.15
486.878	3.19
487.23	3.24
487.583	3.24
487.936	3.2
488.288	3.18
488.641	3.1
488.993	3.02
489.345	3.12
489.698	3.19
490.05	3.18
490.402	3.26
490.754	3.29
491.107	3.23
491.459	3.36
491.811	3.33
492.163	3.34
492.515	3.26
492.866	3.12
493.218	3.2
493.57	3.22
493.922	3.28
494.274	3.38
494.625	3.32
494.977	3.3
495.328	3.42
495.68	3.57
496.031	3.4
496.383	3.43
496.734	3.53
497.086	3.38
497.437	3.45
497.788	3.41
498.139	3.41
498.49	3.42
498.842	3.39
499.193	3.46
499.544	3.54
499.894	3.52
500.245	3.38
500.596	3.52
500.947	3.48
501.298	3.39
501.648	3.46
501.999	3.57
502.35	3.5
502.7	3.62
503.051	3.48
503.401	3.61
503.752	3.53
504.102	3.55
504.452	3.45
504.803	3.39
505.153	3.65
505.503	3.53
505.853	3.66
506.203	3.53
506.553	3.64
506.903	3.61
507.253	3.64
507.603	3.65
507.953	3.67
508.303	3.58
508.652	3.62
509.002	3.6
509.352	3.7
509.701	3.52
510.051	3.68
510.4	3.66
510.75	3.71
511.099	3.59
511.449	3.6
511.798	3.77
512.147	3.6
512.496	3.78
512.846	3.62
513.195	3.64
513.544	3.73
513.893	3.58
514.242	3.83
514.591	3.77
514.939	3.71
515.288	3.79
515.637	3.8
515.986	3.7
516.334	3.88
516.683	3.79
517.032	3.73
517.38	3.82
517.729	3.82
518.077	3.89
518.426	3.75
518.774	3.78
519.122	3.63
519.47	3.72
519.819	3.73
520.167	3.73
520.515	3.8
520.863	3.76
521.211	3.85
521.559	3.78
521.907	3.88
522.255	3.88
522.602	3.94
522.95	3.91
523.298	3.93
523.645	3.81
523.993	3.88
524.341	3.84
524.688	3.9
525.036	4.12
525.383	3.95
525.73	3.96
526.078	3.98
526.425	3.91
526.772	3.79
527.119	3.83
527.466	3.84
527.814	3.84
528.161	3.88
528.508	3.93
528.854	3.88
529.201	3.83
529.548	3.76
529.895	3.73
530.242	3.7
530.588	3.81
530.935	3.89
531.282	3.95
531.628	3.98
531.975	3.98
532.321	4
532.667	4.02
533.014	4.11
533.36	4
533.706	4.04
534.052	3.91
534.399	3.88
534.745	3.91
535.091	3.91
535.437	4.02
535.783	4.11
536.129	4.14
536.474	4.17
536.82	4.18
537.166	4.22
537.512	4.21
537.857	4.17
538.203	4.07
538.549	4.21
538.894	4.15
539.239	4.37
539.585	4.27
539.93	4.37
540.276	4.28
540.621	4.19
540.966	4.23
541.311	4.3
541.656	4.23
542.001	4.25
542.346	4.13
542.691	4.09
543.036	4.12
543.381	4.17
543.726	4.22
544.071	4.31
544.415	4.32
544.76	4.17
545.105	4.32
545.449	4.34
545.794	4.46
546.138	4.42
546.483	4.36
546.827	4.42
547.171	4.4
547.516	4.55
547.86	4.5
548.204	4.42
548.548	4.61
548.892	4.54
549.236	4.61
549.58	4.56
549.924	4.64
550.268	4.76
550.612	4.71
550.956	4.52
551.3	4.55
551.643	4.74
551.987	4.75
552.33	4.66
552.674	5.05
553.017	4.84
553.361	4.82
553.704	4.61
554.048	4.84
554.391	4.81
554.734	4.8
555.077	4.78
555.42	4.77
555.764	5.01
556.107	4.79
556.45	4.87
556.793	5.02
557.135	5.16
557.478	5.08
557.821	5.01
558.164	5.05
558.507	4.74
558.849	4.83
559.192	4.98
559.534	5.08
559.877	5.11
560.219	5.07
560.562	5.02
560.904	4.97
561.246	5.12
561.589	5.28
561.931	5.21
562.273	5.07
562.615	5.26
562.957	5.08
563.299	5.2
563.641	5.26
563.983	5.13
564.325	5.09
564.667	5.29
565.008	5.11
565.35	5.39
565.692	5.47
566.033	5.33
566.375	5.21
566.716	5.39
567.058	5.27
567.399	5.25
567.741	5.29
568.082	5.27
568.423	5.28
568.764	5.36
569.105	5.45
569.447	5.45
569.788	5.45
570.129	5.49
570.47	5.46
570.811	5.55
571.151	5.51
571.492	5.67
571.833	5.48
572.174	5.48
572.514	5.53
572.855	5.49
573.195	5.52
573.536	5.58
573.876	5.68
574.217	5.66
574.557	5.75
574.898	5.62
575.238	5.73
575.578	5.81
575.918	5.66
576.258	5.67
576.598	5.78
576.938	5.98
577.278	5.69
577.618	5.83
577.958	5.87
578.298	6
578.638	5.99
578.977	5.99
579.317	5.93
579.657	6.07
579.996	5.81
580.336	5.86
580.675	6.02
581.014	5.99
581.354	6.22
581.693	6.22
582.032	6.15
582.372	6.23
582.711	6.04
583.05	6.42
583.389	6.32
583.728	6.26
584.067	6.26
584.406	6.37
584.745	6.11
585.083	6.39
585.422	6.28
585.761	6.33
586.1	6.39
586.438	6.32
586.777	6.41
587.115	6.44
587.454	6.39
587.792	6.31
588.13	6.57
588.469	6.57
588.807	6.65
589.145	6.57
589.483	6.32
589.821	6.58
590.159	6.43
590.497	6.22
590.835	6.55
591.173	6.63
591.511	6.58
591.849	6.73
592.187	6.59
592.524	6.68
592.862	6.86
593.2	6.76
593.537	6.55
593.875	7.02
594.212	6.78
594.55	6.81
594.887	6.9
595.224	6.73
595.561	6.89
595.899	7.02
596.236	6.97
596.573	6.66
596.91	6.86
597.247	6.93
597.584	7.01
597.921	7.1
598.258	6.91
598.594	6.83
598.931	6.88
599.268	6.9
599.604	7.24
599.941	7.09
600.277	7.1
600.614	7.2
600.95	7.37
601.287	7.32
601.623	7.58
601.959	7.26
602.296	7.29
602.632	7.39
602.968	7.39
603.304	7.21
603.64	7.37
603.976	7.29
604.312	7.49
604.648	7.57
604.984	7.42
605.319	7.47
605.655	7.57
605.991	7.39
606.326	7.36
606.662	7.4
606.998	7.58
607.333	7.42
607.668	7.68
608.004	7.59
608.339	7.58
608.674	7.57
609.01	7.94
609.345	7.7
609.68	7.59
610.015	7.66
610.35	7.79
610.685	7.81
611.02	7.89
611.355	7.89
611.689	7.57
612.024	7.93
612.359	7.93
612.694	8.12
613.028	8.3
613.363	7.83
613.697	8.04
614.032	8.23
614.366	8.1
614.7	8.18
615.035	8.08
615.369	8.11
615.703	8.44
616.037	7.99
616.371	7.94
616.705	8.12
617.039	8.53
617.373	8.34
617.707	8.29
618.041	8.58
618.375	8.07
618.709	8.54
619.042	8.43
619.376	8.18
619.71	8.48
620.043	8.35
620.377	8.55
620.71	8.5
621.043	8.21
621.377	8.5
621.71	8.39
622.043	9.01
622.376	8.6
622.709	8.78
623.043	8.43
623.376	8.77
623.709	8.74
624.041	8.87
624.374	8.59
624.707	8.59
625.04	9.05
625.373	8.72
625.705	8.95
626.038	8.64
626.37	9.06
626.703	8.84
627.035	8.89
627.368	8.87
627.7	8.7
628.032	8.89
628.365	8.75
628.697	8.72
629.029	9.08
629.361	8.82
629.693	9.44
630.025	9.08
630.357	9.16
630.689	8.97
631.021	9.41
631.353	9.3
631.684	9.52
632.016	9.15
632.348	9.42
632.679	9.16
633.011	9.55
633.342	9.43
633.674	9.25
634.005	9.07
634.336	9.39
634.668	9.4
634.999	9.47
635.33	9.49
635.661	9.57
635.992	9.49
636.323	9.44
636.654	9.5
636.985	9.46
637.316	9.81
637.647	9.76
637.977	9.69
638.308	9.83
638.639	9.8
638.969	9.55
639.3	9.87
639.63	9.84
639.961	9.68
640.291	10.04
640.622	9.8
640.952	9.71
641.282	9.08
641.612	9.63
641.943	10.3
642.273	10.06
642.603	10.11
642.933	9.93
643.263	10.37
643.592	10.13
643.922	10.61
644.252	10.06
644.582	10.27
644.911	10
645.241	9.98
645.571	10.11
645.9	10.27
646.23	10.03
646.559	10.21
646.888	10.31
647.218	10.25
647.547	10.47
647.876	10.59
648.205	10.27
648.534	9.89
648.863	10.7
649.192	10.63
649.521	10.46
649.85	10.85
650.179	10.54
650.508	10.45
650.837	10.31
651.165	10.7
651.494	10.81
651.822	10.77
652.151	10.9
652.479	10.8
652.808	10.53
653.136	10.7
653.465	10.93
653.793	11.02
654.121	11.2
654.449	10.82
654.777	10.85
655.105	11.37
655.433	10.87
655.761	10.74
656.089	11.2
656.417	10.92
656.745	11.11
657.073	11.25
657.4	11.06
657.728	10.99
658.056	10.97
658.383	11.76
658.711	11.08
659.038	11.6
659.365	11.55
659.693	11.11
660.02	11.23
660.347	11
660.674	10.77
661.001	11.05
661.329	11.14
661.656	11.3
661.982	11.51
662.309	11.75
662.636	11.3
662.963	11.63
663.29	11.67
663.616	11.6
663.943	11.58
664.27	11.82
664.596	11.39
664.923	11.77
665.249	11.69
665.576	11.41
665.902	11.92
666.228	11.67
666.554	11.58
666.881	12.15
667.207	11.72
667.533	12.12
667.859	11.32
668.185	11.82
668.511	11.77
668.837	11.47
669.162	11.92
669.488	11.99
669.814	12.15
670.139	12.69
670.465	11.77
670.791	12.11
671.116	11.74
671.442	11.86
671.767	11.76
672.092	12.37
672.418	11.54
672.743	11.99
673.068	11.95
673.393	12.06
673.718	11.97
674.043	12.2
674.368	12.37
674.693	12.33
675.018	12.15
675.343	12.82
675.667	12.32
675.992	11.74
676.317	12.47
676.641	12.35
676.966	12.76
677.29	12
677.615	12.93
677.939	12.3
678.264	12.53
678.588	12.82
678.912	12.98
679.236	12.57
679.56	11.85
679.885	12.7
680.209	12.65
680.532	12.43
680.856	12.64
681.18	12.75
681.504	12.37
681.828	12.55
682.152	12.88
682.475	12.87
682.799	13.31
683.122	13.23
683.446	12.1
683.769	13.54
684.093	13.02
684.416	12.79
684.739	13.14
685.062	13.55
685.386	12.89
685.709	13.08
686.032	13.33
686.355	13.06
686.678	12.63
687.001	12.53
687.324	12.84
687.646	12.74
687.969	13.17
688.292	13.26
688.614	13.65
