Data from 0060_chest_Reflection__1__154.txt Node

Date: Fri Dec 16 15:14:48 CST 2022
User: ToomeyLab
Spectrometer: FLMS14357
Trigger mode: 0
Integration Time (sec): 1.000000E-2
Scans to average: 100
Electric dark correction enabled: true
Nonlinearity correction enabled: false
Boxcar width: 0
XAxis mode: Wavelengths
Number of Pixels in Spectrum: 2048
>>>>>Begin Spectral Data<<<<<
189.047	-35.27
189.435	-35.27
189.823	-35.27
190.211	213.55
190.599	111.58
190.987	-39.15
191.375	30.93
191.763	288.49
192.151	90.03
192.538	209.04
192.926	-117.44
193.314	286.88
193.702	119.44
194.089	-290.55
194.477	-157.77
194.864	83.74
195.252	-26.7
195.639	75.14
196.027	59.02
196.414	-26.83
196.801	48.11
197.189	73.39
197.576	-236.93
197.963	24.21
198.351	48.92
198.738	5.6
199.125	27.49
199.512	6.83
199.899	-59.24
200.286	-22.03
200.673	21.7
201.06	-0.57
201.447	26.87
201.833	17.08
202.22	24.98
202.607	-57.92
202.994	16.46
203.38	-18.17
203.767	-0.81
204.154	-34.82
204.54	15.59
204.927	5.76
205.313	37.18
205.699	6.8
206.086	2.21
206.472	-1.96
206.858	-7.06
207.245	-8.34
207.631	2.99
208.017	49.08
208.403	20.77
208.789	-0.61
209.175	28.33
209.561	6.01
209.947	-55.71
210.333	-12.44
210.719	-3.31
211.105	-26.15
211.491	17.59
211.876	-25.86
212.262	-27.42
212.648	-20.38
213.034	16.25
213.419	17.42
213.805	1.44
214.19	10.85
214.576	-40.93
214.961	0.67
215.346	-12.84
215.732	19.51
216.117	-4.81
216.502	-9.2
216.888	-37.67
217.273	16.99
217.658	-13.68
218.043	17.5
218.428	-4.63
218.813	-4.96
219.198	-10.68
219.583	11.9
219.968	-8.62
220.353	8.98
220.738	-5.32
221.122	-1.2
221.507	-0.6
221.892	8.28
222.276	10.21
222.661	4.58
223.046	9.02
223.43	-7.5
223.815	9.04
224.199	3.5
224.583	-12.91
224.968	12.49
225.352	-6.64
225.736	14.07
226.121	-5.8
226.505	4.07
226.889	4.59
227.273	7.92
227.657	-0.94
228.041	8.07
228.425	8.24
228.809	8.64
229.193	2.99
229.577	4.12
229.961	5.09
230.344	5.22
230.728	4.59
231.112	4.37
231.495	4.87
231.879	5.25
232.263	4.05
232.646	3.87
233.03	3.36
233.413	4.1
233.797	6.52
234.18	3.47
234.563	5.34
234.946	2.58
235.33	5.89
235.713	4.95
236.096	3.52
236.479	4.76
236.862	4.68
237.245	5.08
237.628	5.94
238.011	5.51
238.394	5.92
238.777	4.49
239.16	1.95
239.543	3.94
239.925	5.69
240.308	3.75
240.691	5.68
241.073	4.72
241.456	4.58
241.838	3.56
242.221	5.44
242.603	5.22
242.986	5.57
243.368	4.62
243.75	4.77
244.133	4.89
244.515	4.93
244.897	4.28
245.279	4.56
245.661	5.47
246.043	4.76
246.425	5.43
246.807	4.75
247.189	4.84
247.571	5.31
247.953	5.17
248.335	5.07
248.717	5.09
249.098	4.99
249.48	4.44
249.862	4.92
250.243	4.64
250.625	4.73
251.006	5.1
251.388	5.25
251.769	4.72
252.151	4.92
252.532	5.53
252.913	4.73
253.295	4.64
253.676	5.31
254.057	4.09
254.438	4.27
254.819	5.06
255.2	5.84
255.581	4.38
255.962	4.74
256.343	5.33
256.724	5.04
257.105	5.74
257.486	4.59
257.867	4.43
258.247	4.92
258.628	5.63
259.009	4.18
259.389	5.17
259.77	4.48
260.15	5.24
260.531	4.39
260.911	4.93
261.292	4.84
261.672	4.73
262.052	4.58
262.432	4.53
262.813	4.8
263.193	4.11
263.573	4.51
263.953	4.91
264.333	4.26
264.713	4.97
265.093	4.15
265.473	5.79
265.853	4.09
266.233	4.74
266.612	5.6
266.992	4.93
267.372	4.8
267.752	4.63
268.131	4.97
268.511	4.67
268.89	5.04
269.27	5.04
269.649	4.83
270.029	4.37
270.408	4.42
270.787	4.46
271.167	4.39
271.546	4.61
271.925	5.25
272.304	4.62
272.683	4.88
273.062	4.74
273.441	4.55
273.82	5.13
274.199	5.2
274.578	4.37
274.957	4.42
275.336	4.48
275.715	5.46
276.093	4.97
276.472	4.52
276.851	4.49
277.229	5.48
277.608	4.29
277.986	4.73
278.365	3.92
278.743	5.08
279.122	4.29
279.5	4.34
279.878	3.89
280.257	4.38
280.635	4.76
281.013	5.15
281.391	4.24
281.769	4.44
282.147	4.71
282.525	3.69
282.903	4.85
283.281	4.84
283.659	4.46
284.037	4.9
284.415	4.67
284.792	5.34
285.17	3.93
285.548	4.16
285.925	4.46
286.303	4.6
286.68	5.15
287.058	4.32
287.435	4.24
287.813	4.74
288.19	5.12
288.567	4.26
288.945	4.4
289.322	4.32
289.699	4.8
290.076	4.73
290.453	4.78
290.83	4.64
291.207	4.72
291.584	4.25
291.961	4.69
292.338	4.52
292.715	4.63
293.092	4.42
293.469	5.23
293.845	5.16
294.222	4.89
294.599	4.96
294.975	5.29
295.352	4.81
295.728	4.64
296.105	4.74
296.481	4.83
296.858	5.11
297.234	4.49
297.61	4.76
297.986	4.61
298.363	4.8
298.739	4.95
299.115	4.67
299.491	4.88
299.867	4.97
300.243	4.8
300.619	4.79
300.995	4.83
301.371	4.76
301.746	4.36
302.122	5.1
302.498	4.66
302.874	5.04
303.249	5.2
303.625	5.01
304	4.89
304.376	4.88
304.751	5.08
305.127	5.13
305.502	5.01
305.878	5.09
306.253	4.83
306.628	5.11
307.003	5
307.378	5.23
307.754	5.11
308.129	4.91
308.504	5.05
308.879	5.27
309.254	5.57
309.629	5.07
310.003	5.29
310.378	5.25
310.753	5.38
311.128	5.06
311.502	4.76
311.877	5.18
312.252	5.3
312.626	4.87
313.001	5.08
313.375	4.99
313.75	4.86
314.124	5.85
314.498	5.25
314.873	5.16
315.247	5.25
315.621	5.57
315.995	5.31
316.369	5.41
316.743	5.98
317.117	5.59
317.491	5.67
317.865	4.52
318.239	5.58
318.613	5.05
318.987	5.38
319.361	5.48
319.734	5.8
320.108	5.59
320.482	5.23
320.855	5.66
321.229	5.67
321.602	5.08
321.976	4.99
322.349	5.22
322.723	5.32
323.096	5.28
323.469	4.57
323.843	4.98
324.216	5.21
324.589	5.32
324.962	5.47
325.335	5.6
325.708	5.19
326.081	5.94
326.454	5.4
326.827	5.45
327.2	5.66
327.573	5.47
327.945	5.49
328.318	5.33
328.691	5.68
329.063	4.92
329.436	5.35
329.809	5.18
330.181	5.18
330.553	5.57
330.926	5.21
331.298	5.28
331.671	5.62
332.043	5.54
332.415	5.47
332.787	5.72
333.159	5.57
333.532	4.87
333.904	5.58
334.276	5.24
334.648	5.53
335.02	5.5
335.391	5.7
335.763	5.36
336.135	5.47
336.507	5.46
336.879	5.3
337.25	5.61
337.622	5.38
337.993	5.75
338.365	5.89
338.736	5.54
339.108	5.53
339.479	5.45
339.851	5.81
340.222	6.02
340.593	5.62
340.964	5.77
341.336	5.65
341.707	5.3
342.078	5.67
342.449	5.66
342.82	5.78
343.191	5.43
343.562	5.29
343.933	5.89
344.303	5.52
344.674	5.43
345.045	6.2
345.416	5.68
345.786	5.24
346.157	5.48
346.527	5.32
346.898	5.2
347.268	5.48
347.639	5.71
348.009	5.88
348.38	5.75
348.75	5.55
349.12	5.58
349.49	5.63
349.861	5.82
350.231	6.2
350.601	5.82
350.971	5.93
351.341	5.85
351.711	5.57
352.081	5.87
352.45	5.79
352.82	5.89
353.19	5.44
353.56	5.71
353.929	6.11
354.299	5.83
354.669	5.79
355.038	5.4
355.408	5.91
355.777	5.74
356.147	6.05
356.516	6.06
356.885	5.85
357.254	5.94
357.624	5.83
357.993	5.84
358.362	5.69
358.731	5.67
359.1	5.81
359.469	5.85
359.838	5.47
360.207	5.58
360.576	5.87
360.945	5.81
361.314	5.84
361.682	5.9
362.051	5.57
362.42	5.94
362.788	5.98
363.157	5.8
363.525	5.8
363.894	5.62
364.262	5.75
364.631	6.45
364.999	5.5
365.367	6.07
365.735	5.72
366.104	5.68
366.472	6.04
366.84	5.93
367.208	5.6
367.576	6.09
367.944	6.28
368.312	5.61
368.68	6.04
369.048	5.67
369.416	5.66
369.783	6.16
370.151	5.82
370.519	5.89
370.886	5.65
371.254	5.96
371.621	5.96
371.989	5.85
372.356	5.87
372.724	6.01
373.091	5.9
373.458	5.95
373.826	5.78
374.193	6.29
374.56	5.83
374.927	5.69
375.294	6.24
375.661	6.18
376.028	6.15
376.395	5.92
376.762	6.14
377.129	5.84
377.496	6.07
377.863	5.96
378.229	5.89
378.596	5.89
378.963	5.95
379.329	5.96
379.696	6.03
380.062	6.45
380.429	6.14
380.795	5.96
381.161	5.81
381.528	5.41
381.894	6.23
382.26	5.9
382.626	6.2
382.993	6.02
383.359	5.87
383.725	6.45
384.091	6
384.457	6.32
384.823	6.07
385.188	6.34
385.554	6.05
385.92	6.34
386.286	6.47
386.651	6.1
387.017	6.39
387.383	6.17
387.748	6.23
388.114	6.31
388.479	6.17
388.845	6.33
389.21	6.32
389.575	6.3
389.94	6.18
390.306	6.19
390.671	6.08
391.036	6.45
391.401	6.44
391.766	6.59
392.131	6.36
392.496	6.56
392.861	6.1
393.226	6.27
393.591	6.3
393.956	6.46
394.32	6.34
394.685	6.42
395.05	6.32
395.414	6.38
395.779	6.3
396.143	6.36
396.508	6.51
396.872	6.45
397.236	6.23
397.601	6.34
397.965	6.02
398.329	6.65
398.694	6.19
399.058	6.36
399.422	6.5
399.786	6.48
400.15	6.4
400.514	6.61
400.878	6.25
401.242	6.64
401.605	6.47
401.969	6.51
402.333	6.25
402.697	6.67
403.06	6.66
403.424	6.47
403.787	6.55
404.151	6.34
404.514	6.74
404.878	6.44
405.241	6.67
405.604	6.46
405.968	6.45
406.331	6.41
406.694	6.64
407.057	6.76
407.42	6.72
407.783	6.57
408.146	6.67
408.509	6.39
408.872	6.31
409.235	6.62
409.598	6.72
409.961	6.71
410.323	6.53
410.686	6.58
411.049	6.58
411.411	6.5
411.774	6.5
412.136	6.54
412.499	6.43
412.861	6.52
413.223	6.86
413.586	6.64
413.948	6.7
414.31	6.56
414.672	6.51
415.035	6.86
415.397	6.74
415.759	6.46
416.121	6.7
416.483	6.85
416.845	6.76
417.206	6.74
417.568	6.68
417.93	6.45
418.292	6.63
418.653	6.74
419.015	6.78
419.377	6.69
419.738	6.7
420.1	6.63
420.461	6.71
420.822	6.66
421.184	6.63
421.545	6.68
421.906	6.64
422.267	6.52
422.629	6.6
422.99	6.58
423.351	6.67
423.712	6.6
424.073	6.77
424.434	6.56
424.795	6.65
425.155	6.68
425.516	6.63
425.877	6.7
426.238	6.61
426.598	6.66
426.959	6.65
427.32	6.69
427.68	6.84
428.041	6.86
428.401	6.88
428.761	6.72
429.122	6.76
429.482	6.64
429.842	6.77
430.202	6.85
430.563	6.85
430.923	6.82
431.283	6.88
431.643	6.83
432.003	6.87
432.363	7.08
432.722	6.79
433.082	6.94
433.442	6.85
433.802	7.11
434.161	6.97
434.521	6.92
434.881	7.03
435.24	6.94
435.6	6.93
435.959	6.9
436.319	6.82
436.678	6.96
437.037	7.07
437.396	6.88
437.756	7.01
438.115	6.98
438.474	7.09
438.833	7.12
439.192	7.22
439.551	7.12
439.91	7.1
440.269	7.16
440.628	7.13
440.987	6.96
441.345	7.03
441.704	7.14
442.063	7.1
442.421	7.03
442.78	7.03
443.138	7.11
443.497	6.97
443.855	7.02
444.214	7.18
444.572	7.1
444.93	7.2
445.288	7.18
445.647	7.2
446.005	7
446.363	7.13
446.721	7.1
447.079	7.17
447.437	7.23
447.795	7.06
448.153	7.04
448.51	7.09
448.868	7.17
449.226	7.13
449.584	7.15
449.941	7.22
450.299	7.03
450.656	7.21
451.014	7.15
451.371	7.21
451.729	7.17
452.086	7.29
452.443	7.18
452.801	7.48
453.158	7.24
453.515	7.19
453.872	7.43
454.229	7.27
454.586	7.32
454.943	7.34
455.3	7.52
455.657	7.3
456.014	7.49
456.371	7.47
456.727	7.31
457.084	7.27
457.441	7.5
457.797	7.46
458.154	7.45
458.51	7.44
458.867	7.47
459.223	7.31
459.58	7.47
459.936	7.28
460.292	7.52
460.648	7.46
461.005	7.37
461.361	7.4
461.717	7.31
462.073	7.45
462.429	7.36
462.785	7.49
463.141	7.51
463.496	7.38
463.852	7.55
464.208	7.6
464.564	7.58
464.919	7.45
465.275	7.62
465.631	7.6
465.986	7.49
466.342	7.61
466.697	7.7
467.052	7.69
467.408	7.56
467.763	7.64
468.118	7.69
468.473	7.79
468.829	7.63
469.184	7.81
469.539	7.55
469.894	7.67
470.249	7.83
470.603	7.53
470.958	7.69
471.313	7.63
471.668	7.84
472.023	7.87
472.377	7.62
472.732	7.73
473.086	7.72
473.441	7.89
473.795	8.06
474.15	7.74
474.504	7.68
474.859	7.93
475.213	7.71
475.567	7.62
475.921	7.93
476.275	7.97
476.63	7.91
476.984	7.83
477.338	8.05
477.692	7.93
478.045	7.84
478.399	7.93
478.753	7.91
479.107	7.85
479.461	7.94
479.814	7.96
480.168	7.85
480.521	7.86
480.875	8.17
481.228	8.21
481.582	7.88
481.935	8.06
482.289	8.01
482.642	8.02
482.995	8.02
483.348	7.96
483.701	8.05
484.055	7.91
484.408	7.93
484.761	7.75
485.114	7.83
485.466	7.7
485.819	7.59
486.172	7.64
486.525	7.68
486.878	7.8
487.23	7.89
487.583	7.93
487.936	7.93
488.288	8.01
488.641	7.97
488.993	7.8
489.345	7.84
489.698	7.87
490.05	7.87
490.402	7.89
490.754	8
491.107	7.97
491.459	8.15
491.811	8.07
492.163	8.22
492.515	8.15
492.866	8.09
493.218	7.99
493.57	8
493.922	7.95
494.274	8.1
494.625	8.2
494.977	8.23
495.328	8.3
495.68	8.48
496.031	8.4
496.383	8.31
496.734	8.49
497.086	8.4
497.437	8.46
497.788	8.39
498.139	8.5
498.49	8.39
498.842	8.43
499.193	8.33
499.544	8.5
499.894	8.55
500.245	8.51
500.596	8.46
500.947	8.55
501.298	8.5
501.648	8.58
501.999	8.74
502.35	8.53
502.7	8.61
503.051	8.74
503.401	8.71
503.752	8.73
504.102	8.79
504.452	8.66
504.803	8.59
505.153	8.74
505.503	8.76
505.853	8.69
506.203	8.76
506.553	8.83
506.903	8.73
507.253	8.8
507.603	8.92
507.953	8.9
508.303	8.9
508.652	8.83
509.002	8.93
509.352	8.81
509.701	8.88
510.051	8.99
510.4	8.8
510.75	8.85
511.099	8.81
511.449	8.9
511.798	8.92
512.147	8.9
512.496	9.06
512.846	8.9
513.195	8.97
513.544	8.95
513.893	8.86
514.242	9.13
514.591	8.99
514.939	8.99
515.288	9.08
515.637	9.11
515.986	9.03
516.334	9.13
516.683	9.14
517.032	9.18
517.38	9.16
517.729	9.2
518.077	9.32
518.426	9.28
518.774	9.26
519.122	9.18
519.47	9.36
519.819	9.21
520.167	9.29
520.515	9.26
520.863	9.21
521.211	9.29
521.559	9.23
521.907	9.41
522.255	9.37
522.602	9.41
522.95	9.46
523.298	9.47
523.645	9.47
523.993	9.58
524.341	9.62
524.688	9.61
525.036	9.76
525.383	9.64
525.73	9.68
526.078	9.71
526.425	9.49
526.772	9.47
527.119	9.51
527.466	9.51
527.814	9.49
528.161	9.6
528.508	9.58
528.854	9.55
529.201	9.57
529.548	9.52
529.895	9.47
530.242	9.41
530.588	9.39
530.935	9.37
531.282	9.43
531.628	9.43
531.975	9.56
532.321	9.59
532.667	9.71
533.014	9.81
533.36	9.79
533.706	9.86
534.052	9.75
534.399	9.76
534.745	9.82
535.091	9.74
535.437	9.73
535.783	9.87
536.129	9.87
536.474	9.99
536.82	10
537.166	10.03
537.512	10.18
537.857	10.12
538.203	10.13
538.549	10.1
538.894	10.06
539.239	10.25
539.585	10.22
539.93	10.39
540.276	10.3
540.621	10.38
540.966	10.36
541.311	10.4
541.656	10.36
542.001	10.45
542.346	10.43
542.691	10.25
543.036	10.16
543.381	10.18
543.726	10.24
544.071	10.27
544.415	10.33
544.76	10.32
545.105	10.48
545.449	10.47
545.794	10.55
546.138	10.7
546.483	10.59
546.827	10.63
547.171	10.67
547.516	10.81
547.86	10.71
548.204	10.79
548.548	10.86
548.892	10.8
549.236	10.9
549.58	10.81
549.924	10.88
550.268	11.05
550.612	10.97
550.956	10.95
551.3	11.09
551.643	11.06
551.987	11.19
552.33	11.11
552.674	11.37
553.017	11.21
553.361	11.17
553.704	11.3
554.048	11.31
554.391	11.29
554.734	11.2
555.077	11.35
555.42	11.29
555.764	11.37
556.107	11.33
556.45	11.34
556.793	11.47
557.135	11.58
557.478	11.7
557.821	11.5
558.164	11.77
558.507	11.66
558.849	11.52
559.192	11.73
559.534	11.62
559.877	11.81
560.219	11.8
560.562	11.91
560.904	11.7
561.246	12.15
561.589	11.99
561.931	11.96
562.273	11.94
562.615	12.07
562.957	12
563.299	11.95
563.641	12.12
563.983	11.98
564.325	11.99
564.667	12.1
565.008	12.02
565.35	12.48
565.692	12.4
566.033	12.15
566.375	12.21
566.716	12.36
567.058	12.24
567.399	12.31
567.741	12.47
568.082	12.37
568.423	12.28
568.764	12.4
569.105	12.43
569.447	12.39
569.788	12.43
570.129	12.53
570.47	12.67
570.811	12.62
571.151	12.55
571.492	12.62
571.833	12.65
572.174	12.58
572.514	12.56
572.855	12.82
573.195	12.77
573.536	12.77
573.876	12.83
574.217	12.73
574.557	12.93
574.898	12.7
575.238	12.83
575.578	12.97
575.918	13.17
576.258	13.15
576.598	13.09
576.938	13.36
577.278	13.06
577.618	13.15
577.958	13.17
578.298	13.2
578.638	13.18
578.977	13.33
579.317	13.41
579.657	13.2
579.996	13.24
580.336	13.2
580.675	13.53
581.014	13.22
581.354	13.56
581.693	13.39
582.032	13.56
582.372	13.6
582.711	13.47
583.05	13.73
583.389	13.88
583.728	13.68
584.067	13.98
584.406	13.92
584.745	13.99
585.083	13.86
585.422	13.82
585.761	14.27
586.1	14.06
586.438	14.03
586.777	14.12
587.115	14.11
587.454	14.4
587.792	14.13
588.13	14.29
588.469	14.31
588.807	14.49
589.145	14.3
589.483	14.21
589.821	14.53
590.159	14.42
590.497	14.4
590.835	14.39
591.173	14.62
591.511	14.56
591.849	14.69
592.187	14.5
592.524	14.69
592.862	14.59
593.2	14.72
593.537	14.72
593.875	14.73
594.212	14.84
594.55	14.84
594.887	15.17
595.224	15.01
595.561	14.99
595.899	15.11
596.236	15.17
596.573	15.09
596.91	14.96
597.247	14.84
597.584	15.24
597.921	15.34
598.258	15.2
598.594	15.02
598.931	15.03
599.268	15.09
599.604	15.05
599.941	15.3
600.277	15.26
600.614	15.25
600.95	15.39
601.287	15.5
601.623	15.63
601.959	15.35
602.296	15.54
602.632	15.83
602.968	15.57
603.304	15.65
603.64	15.64
603.976	15.62
604.312	15.65
604.648	15.86
604.984	15.65
605.319	15.8
605.655	15.87
605.991	15.91
606.326	15.83
606.662	15.75
606.998	15.86
607.333	15.86
607.668	15.88
608.004	15.99
608.339	16.14
608.674	16.15
609.01	16.12
609.345	16.21
609.68	16
610.015	16.34
610.35	16.31
610.685	16.48
611.02	16.53
611.355	16.42
611.689	16.48
612.024	16.44
612.359	16.5
612.694	16.6
613.028	16.87
613.363	16.61
613.697	16.73
614.032	16.65
614.366	16.61
614.7	16.9
615.035	16.74
615.369	16.86
615.703	16.76
616.037	16.51
616.371	17.04
616.705	17.01
617.039	17.27
617.373	17.14
617.707	17.1
618.041	17.26
618.375	17
618.709	17.33
619.042	17.34
619.376	16.96
619.71	17.34
620.043	17.34
620.377	17.28
620.71	17.22
621.043	17.39
621.377	17.31
621.71	17.28
622.043	17.61
622.376	17.72
622.709	17.5
623.043	17.3
623.376	17.74
623.709	17.8
624.041	18.01
624.374	17.57
624.707	17.64
625.04	18.01
625.373	17.71
625.705	18.27
626.038	18.01
626.37	18.04
626.703	18.01
627.035	18.24
627.368	18.34
627.7	17.81
628.032	18.23
628.365	18.24
628.697	18.01
629.029	18.13
629.361	18.2
629.693	18.5
630.025	18.26
630.357	18.45
630.689	18.57
631.021	18.18
631.353	18.51
631.684	18.6
632.016	18.22
632.348	18.45
632.679	18.41
633.011	18.27
633.342	18.87
633.674	18.55
634.005	18.66
634.336	18.78
634.668	18.55
634.999	18.58
635.33	18.59
635.661	19.06
635.992	18.4
636.323	19.16
636.654	18.82
636.985	18.98
637.316	18.93
637.647	19.22
637.977	18.98
638.308	18.89
638.639	19.18
638.969	19.15
639.3	19.65
639.63	19.32
639.961	19.05
640.291	19.91
640.622	19.23
640.952	19.41
641.282	19.35
641.612	19.47
641.943	19.39
642.273	19.63
642.603	19.48
642.933	19.69
643.263	19.93
643.592	19.58
643.922	20.25
644.252	19.68
644.582	19.78
644.911	19.7
645.241	19.4
645.571	19.9
645.9	19.85
646.23	19.88
646.559	20.05
646.888	19.77
647.218	20.39
647.547	20.36
647.876	20.44
648.205	19.93
648.534	20.05
648.863	20.33
649.192	19.86
649.521	19.89
649.85	20.8
650.179	20.03
650.508	20.06
650.837	20.59
651.165	20.6
651.494	20.73
651.822	20.95
652.151	20.82
652.479	20.93
652.808	20.12
653.136	20.45
653.465	20.39
653.793	21.24
654.121	20.56
654.449	21.33
654.777	20.73
655.105	21.13
655.433	21.13
655.761	20.37
656.089	21.04
656.417	20.83
656.745	21.52
657.073	21.27
657.4	21.5
657.728	20.88
658.056	21.6
658.383	21.6
658.711	20.99
659.038	21.82
659.365	21.66
659.693	20.94
660.02	21.03
660.347	21.96
660.674	21.62
661.001	21.38
661.329	21.57
661.656	21.57
661.982	21.43
662.309	21.71
662.636	21.34
662.963	21.76
663.29	21.57
663.616	21.79
663.943	22.58
664.27	21.83
664.596	21.63
664.923	22.07
665.249	21.45
665.576	22.15
665.902	22.04
666.228	21.91
666.554	21.97
666.881	22.16
667.207	21.72
667.533	22.36
667.859	22.54
668.185	22
668.511	22.31
668.837	21.44
669.162	22.71
669.488	22.26
669.814	22.66
670.139	22.78
670.465	22.67
670.791	22.51
671.116	22.4
671.442	23.08
671.767	22.61
672.092	22.86
672.418	22.32
672.743	22.43
673.068	22.58
673.393	22.72
673.718	21.95
674.043	23.25
674.368	23.09
674.693	22.93
675.018	23.03
675.343	23.08
675.667	23.3
675.992	22.67
676.317	23.7
676.641	23.14
676.966	23.56
677.29	23.18
677.615	23.15
677.939	23.64
678.264	23.18
678.588	23.42
678.912	23.63
679.236	23.63
679.56	22.77
679.885	23.38
680.209	22.81
680.532	23.24
680.856	23.89
681.18	23.24
681.504	23.26
681.828	22.92
682.152	23.94
682.475	23.56
682.799	23.8
