Data from 0060_chest_Reflection__2__155.txt Node

Date: Fri Dec 16 15:15:07 CST 2022
User: ToomeyLab
Spectrometer: FLMS14357
Trigger mode: 0
Integration Time (sec): 1.000000E-2
Scans to average: 100
Electric dark correction enabled: true
Nonlinearity correction enabled: false
Boxcar width: 0
XAxis mode: Wavelengths
Number of Pixels in Spectrum: 2048
>>>>>Begin Spectral Data<<<<<
189.047	-19.66
189.435	-19.66
189.823	-19.66
190.211	184.85
190.599	-162.74
190.987	1.96
191.375	-33.6
191.763	98.62
192.151	548.46
192.538	191.2
192.926	-119.58
193.314	215.1
193.702	-5.65
194.089	-127.79
194.477	93.88
194.864	-12.68
195.252	-130.75
195.639	93.67
196.027	57.42
196.414	62.05
196.801	140.48
197.189	71.46
197.576	-57.05
197.963	5.8
198.351	-33.11
198.738	-9.06
199.125	60.1
199.512	-45.22
199.899	-53.74
200.286	-74.33
200.673	17.12
201.06	47.36
201.447	28.2
201.833	-0.69
202.22	7.16
202.607	29
202.994	1.34
203.38	-34.97
203.767	31.74
204.154	-6.1
204.54	34.76
204.927	22.35
205.313	3.71
205.699	10.66
206.086	14.74
206.472	5.44
206.858	19.5
207.245	-5.05
207.631	-4.19
208.017	25.3
208.403	26.73
208.789	11.23
209.175	24.93
209.561	7.77
209.947	-2.07
210.333	-34.64
210.719	-2.89
211.105	-18.14
211.491	-1.03
211.876	-8.83
212.262	-19.05
212.648	-36.17
213.034	23.13
213.419	35.66
213.805	-1.16
214.19	-4.15
214.576	-22.27
214.961	-8.98
215.346	-55.88
215.732	4.22
216.117	7.75
216.502	-19.96
216.888	-10.01
217.273	1.02
217.658	4.27
218.043	2.45
218.428	-3.31
218.813	1.68
219.198	-19.28
219.583	-16.29
219.968	9.27
220.353	1.73
220.738	-1.76
221.122	0.91
221.507	-1.31
221.892	3.77
222.276	-5.2
222.661	-19.19
223.046	-4.07
223.43	-3.91
223.815	4.97
224.199	11.91
224.583	9.24
224.968	4.16
225.352	13.57
225.736	3.3
226.121	-4.32
226.505	-2.17
226.889	11.75
227.273	3.66
227.657	7.63
228.041	7.34
228.425	6.49
228.809	5.54
229.193	4.47
229.577	6.61
229.961	4.92
230.344	6.25
230.728	5.36
231.112	4.91
231.495	5.8
231.879	7.01
232.263	4.85
232.646	4.83
233.03	2.64
233.413	2.19
233.797	7.37
234.18	3.72
234.563	2.94
234.946	4.43
235.33	5.78
235.713	6.54
236.096	5.79
236.479	5.19
236.862	6.87
237.245	5.11
237.628	6.13
238.011	4.58
238.394	7.79
238.777	4.92
239.16	2.64
239.543	4.78
239.925	5.27
240.308	4.98
240.691	4.95
241.073	4.62
241.456	4.15
241.838	4.81
242.221	5.67
242.603	5.14
242.986	5.8
243.368	5.58
243.75	4.9
244.133	5.5
244.515	4.99
244.897	4.69
245.279	5.2
245.661	5.38
246.043	4.64
246.425	4.21
246.807	4.95
247.189	5.08
247.571	5.29
247.953	5.03
248.335	5.21
248.717	5.02
249.098	5.21
249.48	4.79
249.862	5.13
250.243	5
250.625	5.17
251.006	4.25
251.388	5.71
251.769	4.75
252.151	4.37
252.532	4.83
252.913	5.35
253.295	4.76
253.676	4.93
254.057	4.68
254.438	4.45
254.819	5.41
255.2	4.93
255.581	3.84
255.962	4.51
256.343	6.27
256.724	4.78
257.105	4.62
257.486	5.66
257.867	3.94
258.247	5.67
258.628	5.78
259.009	4.17
259.389	5.61
259.77	5.18
260.15	5
260.531	5.02
260.911	5.11
261.292	4.79
261.672	4.57
262.052	4.48
262.432	4.74
262.813	4.6
263.193	4.11
263.573	4.49
263.953	4.68
264.333	4.81
264.713	5.19
265.093	4.62
265.473	6.01
265.853	4.88
266.233	4.5
266.612	4.8
266.992	4.45
267.372	4.47
267.752	4.07
268.131	4.81
268.511	4.91
268.89	4.67
269.27	4.97
269.649	4.1
270.029	5.01
270.408	4.61
270.787	4.03
271.167	4.63
271.546	4.12
271.925	4.51
272.304	4.53
272.683	4.53
273.062	4.4
273.441	4.43
273.82	4.9
274.199	4.9
274.578	4.2
274.957	4.57
275.336	4.67
275.715	4.68
276.093	5.64
276.472	5.03
276.851	4.28
277.229	4.48
277.608	4.09
277.986	4.58
278.365	4.26
278.743	5.05
279.122	4.27
279.5	4.84
279.878	4.55
280.257	5.03
280.635	4.82
281.013	4.9
281.391	4.33
281.769	4.83
282.147	4.1
282.525	4.81
282.903	4.41
283.281	4.95
283.659	4.59
284.037	4.27
284.415	5.33
284.792	5.12
285.17	4.15
285.548	4.36
285.925	4.69
286.303	4.42
286.68	4.97
287.058	4.54
287.435	4.35
287.813	4.58
288.19	4.79
288.567	4.58
288.945	4.57
289.322	4.06
289.699	4.42
290.076	4.72
290.453	4.59
290.83	4.79
291.207	5.07
291.584	4.59
291.961	4.87
292.338	4.15
292.715	4.65
293.092	4.6
293.469	4.76
293.845	4.67
294.222	4.47
294.599	5.17
294.975	4.87
295.352	4.22
295.728	4.41
296.105	4.16
296.481	4.69
296.858	4.23
297.234	4.06
297.61	4.52
297.986	4.05
298.363	4.17
298.739	4.42
299.115	4.23
299.491	3.95
299.867	4.63
300.243	3.71
300.619	4.26
300.995	4.23
301.371	4.58
301.746	4.12
302.122	4.51
302.498	4.02
302.874	4.51
303.249	4.57
303.625	4.17
304	4.1
304.376	4.13
304.751	3.96
305.127	4.48
305.502	4.52
305.878	3.9
306.253	4.09
306.628	4.34
307.003	4.39
307.378	4.27
307.754	4.94
308.129	3.66
308.504	3.9
308.879	4.6
309.254	4.69
309.629	4.18
310.003	4.63
310.378	4.69
310.753	4.68
311.128	4.1
311.502	3.91
311.877	4.37
312.252	3.86
312.626	4.06
313.001	4.17
313.375	4.25
313.75	3.86
314.124	4.63
314.498	3.79
314.873	4.33
315.247	3.68
315.621	4.73
315.995	4.49
316.369	4.11
316.743	4.31
317.117	4.44
317.491	4.23
317.865	3.96
318.239	4.49
318.613	3.91
318.987	4.41
319.361	4.06
319.734	3.82
320.108	4.29
320.482	3.78
320.855	4.31
321.229	5.02
321.602	4.03
321.976	3.86
322.349	3.16
322.723	3.47
323.096	3.84
323.469	3.65
323.843	4.31
324.216	3.53
324.589	4.05
324.962	4.21
325.335	4.15
325.708	3.85
326.081	4.29
326.454	4.3
326.827	3.91
327.2	4.69
327.573	4.53
327.945	3.87
328.318	4.06
328.691	4.32
329.063	4.39
329.436	4.31
329.809	3.81
330.181	3.72
330.553	4.01
330.926	4.33
331.298	3.94
331.671	3.87
332.043	3.94
332.415	4.46
332.787	4.11
333.159	4.11
333.532	4.08
333.904	4.35
334.276	3.82
334.648	3.97
335.02	4.05
335.391	4.43
335.763	4.29
336.135	3.78
336.507	3.94
336.879	4.04
337.25	3.51
337.622	4.02
337.993	3.81
338.365	4.12
338.736	4.28
339.108	3.83
339.479	3.61
339.851	4.99
340.222	4.48
340.593	3.82
340.964	4.31
341.336	3.92
341.707	4.11
342.078	4.17
342.449	4.56
342.82	4.11
343.191	3.85
343.562	3.9
343.933	4.19
344.303	4.26
344.674	4.01
345.045	4.38
345.416	4.07
345.786	3.87
346.157	3.73
346.527	3.67
346.898	3.87
347.268	3.89
347.639	4.25
348.009	3.97
348.38	4.12
348.75	4.02
349.12	4.57
349.49	3.71
349.861	4.32
350.231	4.02
350.601	4.11
350.971	4.05
351.341	4.35
351.711	4.2
352.081	4.19
352.45	4.39
352.82	4.25
353.19	3.74
353.56	3.89
353.929	4.51
354.299	4.15
354.669	3.91
355.038	4.12
355.408	4.48
355.777	4.46
356.147	4.45
356.516	4.45
356.885	3.95
357.254	4.25
357.624	4.16
357.993	3.81
358.362	3.9
358.731	4.24
359.1	4.33
359.469	4.02
359.838	4.09
360.207	3.94
360.576	3.98
360.945	4.09
361.314	4.49
361.682	3.94
362.051	4.06
362.42	4.45
362.788	4.16
363.157	4.01
363.525	4.09
363.894	3.89
364.262	4.07
364.631	4.61
364.999	3.84
365.367	4.57
365.735	3.88
366.104	3.84
366.472	4.1
366.84	4.44
367.208	3.61
367.576	3.98
367.944	4.27
368.312	3.8
368.68	4.24
369.048	3.94
369.416	3.92
369.783	3.9
370.151	4.05
370.519	4.13
370.886	4.16
371.254	3.96
371.621	4
371.989	4.29
372.356	4.02
372.724	4.06
373.091	4.09
373.458	4.09
373.826	3.65
374.193	4.22
374.56	4
374.927	4.12
375.294	4.46
375.661	4.2
376.028	4.05
376.395	3.98
376.762	4.21
377.129	4.28
377.496	4.02
377.863	4.32
378.229	3.9
378.596	4.21
378.963	3.92
379.329	3.98
379.696	4.08
380.062	4.24
380.429	4
380.795	4.15
381.161	3.87
381.528	3.8
381.894	4.01
382.26	3.87
382.626	4.21
382.993	4.08
383.359	3.92
383.725	4.39
384.091	3.86
384.457	4.24
384.823	4.04
385.188	4.13
385.554	4.03
385.92	4.13
386.286	4.29
386.651	4.06
387.017	4.16
387.383	4.22
387.748	3.92
388.114	4.22
388.479	4.42
388.845	4.28
389.21	4.31
389.575	4.21
389.94	4.18
390.306	4.18
390.671	3.79
391.036	4.25
391.401	4.35
391.766	4.43
392.131	4.05
392.496	4.18
392.861	3.89
393.226	4.37
393.591	4.43
393.956	4.24
394.32	4.21
394.685	4.51
395.05	3.83
395.414	4.18
395.779	4.02
396.143	4.27
396.508	4.3
396.872	4.45
397.236	3.97
397.601	4.26
397.965	3.96
398.329	4.26
398.694	4.29
399.058	4.02
399.422	4.32
399.786	4
400.15	4.37
400.514	4.23
400.878	4.23
401.242	4.22
401.605	4.13
401.969	4.34
402.333	4.26
402.697	4.41
403.06	4.45
403.424	4.21
403.787	4.31
404.151	3.99
404.514	4.21
404.878	4.12
405.241	4.29
405.604	4.19
405.968	4.08
406.331	4.26
406.694	4.15
407.057	4.35
407.42	4.16
407.783	4.28
408.146	4.18
408.509	4.07
408.872	4.14
409.235	4.34
409.598	4.47
409.961	4.14
410.323	4.26
410.686	4.23
411.049	4.04
411.411	4.24
411.774	4.19
412.136	4.3
412.499	4.18
412.861	4.02
413.223	4.3
413.586	4.14
413.948	4.31
414.31	4.42
414.672	4.54
415.035	4.31
415.397	4.36
415.759	4
416.121	4.42
416.483	4.51
416.845	4.15
417.206	4.52
417.568	4.43
417.93	4.12
418.292	4.42
418.653	4.29
419.015	4.46
419.377	4.35
419.738	4.22
420.1	4.25
420.461	4.23
420.822	4.29
421.184	4.25
421.545	4.13
421.906	4.24
422.267	4.08
422.629	4.24
422.99	4.17
423.351	4.24
423.712	4.27
424.073	4.32
424.434	4.21
424.795	4.18
425.155	4.26
425.516	4.2
425.877	4.3
426.238	4.09
426.598	4.25
426.959	4.17
427.32	4.25
427.68	4.33
428.041	4.34
428.401	4.17
428.761	4.21
429.122	4.24
429.482	4.25
429.842	4.21
430.202	4.37
430.563	4.24
430.923	4.17
431.283	4.42
431.643	4.42
432.003	4.38
432.363	4.44
432.722	4.3
433.082	4.3
433.442	4.31
433.802	4.36
434.161	4.28
434.521	4.36
434.881	4.37
435.24	4.2
435.6	4.27
435.959	4.3
436.319	4.19
436.678	4.35
437.037	4.27
437.396	4.42
437.756	4.35
438.115	4.27
438.474	4.33
438.833	4.44
439.192	4.49
439.551	4.43
439.91	4.5
440.269	4.44
440.628	4.31
440.987	4.24
441.345	4.38
441.704	4.35
442.063	4.29
442.421	4.32
442.78	4.4
443.138	4.21
443.497	4.23
443.855	4.37
444.214	4.32
444.572	4.33
444.93	4.42
445.288	4.49
445.647	4.51
446.005	4.2
446.363	4.32
446.721	4.24
447.079	4.35
447.437	4.36
447.795	4.34
448.153	4.27
448.51	4.25
448.868	4.39
449.226	4.37
449.584	4.33
449.941	4.43
450.299	4.4
450.656	4.53
451.014	4.46
451.371	4.41
451.729	4.34
452.086	4.21
452.443	4.31
452.801	4.43
453.158	4.43
453.515	4.41
453.872	4.51
454.229	4.33
454.586	4.28
454.943	4.34
455.3	4.55
455.657	4.31
456.014	4.49
456.371	4.53
456.727	4.38
457.084	4.41
457.441	4.31
457.797	4.56
458.154	4.43
458.51	4.37
458.867	4.44
459.223	4.53
459.58	4.42
459.936	4.4
460.292	4.49
460.648	4.34
461.005	4.39
461.361	4.24
461.717	4.4
462.073	4.27
462.429	4.3
462.785	4.37
463.141	4.41
463.496	4.34
463.852	4.68
464.208	4.41
464.564	4.33
464.919	4.39
465.275	4.38
465.631	4.59
465.986	4.32
466.342	4.51
466.697	4.46
467.052	4.43
467.408	4.51
467.763	4.39
468.118	4.53
468.473	4.53
468.829	4.52
469.184	4.57
469.539	4.41
469.894	4.52
470.249	4.37
470.603	4.56
470.958	4.55
471.313	4.55
471.668	4.66
472.023	4.6
472.377	4.44
472.732	4.49
473.086	4.5
473.441	4.54
473.795	4.47
474.15	4.46
474.504	4.6
474.859	4.7
475.213	4.49
475.567	4.43
475.921	4.69
476.275	4.48
476.63	4.54
476.984	4.5
477.338	4.79
477.692	4.57
478.045	4.51
478.399	4.6
478.753	4.32
479.107	4.52
479.461	4.56
479.814	4.5
480.168	4.62
480.521	4.68
480.875	4.67
481.228	4.64
481.582	4.47
481.935	4.51
482.289	4.59
482.642	4.67
482.995	4.48
483.348	4.51
483.701	4.51
484.055	4.41
484.408	4.47
484.761	4.41
485.114	4.37
485.466	4.35
485.819	4.28
486.172	4.3
486.525	4.29
486.878	4.37
487.23	4.39
487.583	4.5
487.936	4.44
488.288	4.45
488.641	4.41
488.993	4.33
489.345	4.4
489.698	4.42
490.05	4.39
490.402	4.44
490.754	4.48
491.107	4.47
491.459	4.54
491.811	4.6
492.163	4.63
492.515	4.55
492.866	4.43
493.218	4.42
493.57	4.41
493.922	4.35
494.274	4.52
494.625	4.5
494.977	4.55
495.328	4.56
495.68	4.73
496.031	4.72
496.383	4.55
496.734	4.71
497.086	4.52
497.437	4.68
497.788	4.68
498.139	4.66
498.49	4.67
498.842	4.7
499.193	4.69
499.544	4.73
499.894	4.73
500.245	4.66
500.596	4.69
500.947	4.65
501.298	4.73
501.648	4.75
501.999	4.75
502.35	4.74
502.7	4.88
503.051	4.78
503.401	4.74
503.752	4.64
504.102	4.79
504.452	4.8
504.803	4.7
505.153	4.74
505.503	4.63
505.853	4.66
506.203	4.76
506.553	4.76
506.903	4.71
507.253	4.72
507.603	4.76
507.953	4.9
508.303	4.83
508.652	4.81
509.002	4.78
509.352	4.73
509.701	4.75
510.051	4.81
510.4	4.86
510.75	4.78
511.099	4.83
511.449	4.79
511.798	4.94
512.147	4.77
512.496	4.91
512.846	4.8
513.195	4.87
513.544	4.83
513.893	4.65
514.242	4.89
514.591	4.9
514.939	4.85
515.288	4.83
515.637	4.87
515.986	4.8
516.334	5
516.683	4.85
517.032	4.77
517.38	4.77
517.729	4.87
518.077	4.82
518.426	4.94
518.774	4.93
519.122	4.88
519.47	4.9
519.819	4.86
520.167	4.88
520.515	4.77
520.863	4.78
521.211	4.86
521.559	4.97
521.907	4.83
522.255	4.92
522.602	4.9
522.95	4.85
523.298	4.93
523.645	4.87
523.993	5.02
524.341	4.95
524.688	4.95
525.036	5.11
525.383	5
525.73	4.96
526.078	5
526.425	4.99
526.772	4.76
527.119	4.9
527.466	4.9
527.814	4.89
528.161	4.9
528.508	4.87
528.854	4.82
529.201	4.9
529.548	4.85
529.895	4.86
530.242	4.82
530.588	4.86
530.935	4.79
531.282	4.81
531.628	4.82
531.975	4.89
532.321	4.99
532.667	4.95
533.014	5.06
533.36	5.01
533.706	5.07
534.052	4.96
534.399	4.97
534.745	4.98
535.091	4.96
535.437	4.99
535.783	5.06
536.129	4.99
536.474	5.02
536.82	5.04
537.166	5.09
537.512	5.14
537.857	5.13
538.203	5.09
538.549	5.1
538.894	5.09
539.239	5.16
539.585	5.15
539.93	5.26
540.276	5.06
540.621	5.19
540.966	5.13
541.311	5.25
541.656	5.22
542.001	5.27
542.346	5.2
542.691	5.13
543.036	5.13
543.381	5.12
543.726	5.16
544.071	5.17
544.415	5.17
544.76	5.17
545.105	5.25
545.449	5.18
545.794	5.31
546.138	5.29
546.483	5.35
546.827	5.3
547.171	5.29
547.516	5.41
547.86	5.27
548.204	5.29
548.548	5.37
548.892	5.38
549.236	5.45
549.58	5.31
549.924	5.39
550.268	5.48
550.612	5.45
550.956	5.37
551.3	5.48
551.643	5.66
551.987	5.53
552.33	5.57
552.674	5.55
553.017	5.57
553.361	5.52
553.704	5.39
554.048	5.59
554.391	5.51
554.734	5.57
555.077	5.57
555.42	5.61
555.764	5.67
556.107	5.52
556.45	5.58
556.793	5.67
557.135	5.92
557.478	5.61
557.821	5.66
558.164	5.77
558.507	5.62
558.849	5.64
559.192	5.84
559.534	5.64
559.877	5.77
560.219	5.97
560.562	5.8
560.904	5.78
561.246	5.66
561.589	5.89
561.931	5.89
562.273	5.77
562.615	5.82
562.957	5.85
563.299	5.93
563.641	6.05
563.983	5.93
564.325	5.76
564.667	6.02
565.008	5.82
565.35	6.14
565.692	6.16
566.033	5.93
566.375	5.84
566.716	5.98
567.058	6.03
567.399	6.07
567.741	6.12
568.082	5.9
568.423	5.96
568.764	6.15
569.105	6.09
569.447	6.11
569.788	6.08
570.129	6.08
570.47	6.1
570.811	6.18
571.151	6.21
571.492	6.15
571.833	6.31
572.174	5.95
572.514	6.21
572.855	6.29
573.195	6.22
573.536	6.19
573.876	6.18
574.217	6.37
574.557	6.26
574.898	6.22
575.238	6.21
575.578	6.26
575.918	6.28
576.258	6.26
576.598	6.25
576.938	6.64
577.278	6.26
577.618	6.35
577.958	6.28
578.298	6.58
578.638	6.58
578.977	6.59
579.317	6.54
579.657	6.4
579.996	6.48
580.336	6.49
580.675	6.56
581.014	6.45
581.354	6.59
581.693	6.49
582.032	6.45
582.372	6.47
582.711	6.56
583.05	6.68
583.389	6.91
583.728	6.63
584.067	6.56
584.406	7.13
584.745	6.75
585.083	6.95
585.422	7.03
585.761	6.81
586.1	7.07
586.438	7
586.777	6.91
587.115	6.85
587.454	6.89
587.792	6.81
588.13	7.07
588.469	7.08
588.807	7.08
589.145	6.95
589.483	6.92
589.821	6.92
590.159	6.93
590.497	6.79
590.835	6.96
591.173	7.13
591.511	7.12
591.849	7.14
592.187	7.14
592.524	6.94
592.862	7.12
593.2	7.36
593.537	7.03
593.875	7.35
594.212	7.16
594.55	7.24
594.887	7.44
595.224	7.22
595.561	7.25
595.899	7.28
596.236	7.4
596.573	7.37
596.91	7.55
597.247	7.34
597.584	7.29
597.921	7.4
598.258	7.49
598.594	7.38
598.931	7.4
599.268	7.36
599.604	7.48
599.941	7.64
600.277	7.34
600.614	7.68
600.95	7.6
601.287	7.48
601.623	7.71
601.959	7.38
602.296	7.54
602.632	7.81
602.968	7.38
603.304	7.6
603.64	7.67
603.976	7.56
604.312	7.82
604.648	7.81
604.984	7.63
605.319	7.81
605.655	7.61
605.991	7.84
606.326	7.59
606.662	7.57
606.998	7.83
607.333	7.7
607.668	7.87
608.004	7.93
608.339	7.94
608.674	7.98
609.01	8.16
609.345	7.89
609.68	8.04
610.015	8.11
610.35	8.21
610.685	8.16
611.02	8.23
611.355	8.08
611.689	7.91
612.024	8.33
612.359	8.22
612.694	8.23
613.028	8.34
613.363	8.09
613.697	8.37
614.032	8.38
614.366	8.33
614.7	8.79
615.035	8.33
615.369	8.54
615.703	8.58
616.037	8.4
616.371	8.37
616.705	8.5
617.039	8.46
617.373	8.37
617.707	8.58
618.041	8.78
618.375	8.58
618.709	8.4
619.042	8.57
619.376	8.12
619.71	8.58
620.043	8.75
620.377	8.83
620.71	8.67
621.043	8.4
621.377	8.88
621.71	8.92
622.043	9.06
622.376	8.74
622.709	9.02
623.043	8.82
623.376	9.11
623.709	9.08
624.041	8.92
624.374	9.03
624.707	8.89
625.04	9.13
625.373	9.09
625.705	9.16
626.038	8.86
626.37	9.23
626.703	9.33
627.035	8.91
627.368	9.35
627.7	9.03
628.032	9.17
628.365	9.08
628.697	9.33
629.029	9.44
629.361	9.33
629.693	9.66
630.025	9.23
630.357	9.33
630.689	9.7
631.021	9.51
631.353	9.65
631.684	9.61
632.016	9.35
632.348	9.38
632.679	9.48
633.011	9.57
633.342	9.59
633.674	9.6
634.005	9.4
634.336	9.92
634.668	9.89
634.999	9.78
635.33	9.68
635.661	10.03
635.992	9.69
636.323	9.74
636.654	9.76
636.985	9.83
637.316	9.9
637.647	9.99
637.977	10.17
638.308	9.83
638.639	10.08
638.969	9.67
639.3	10.21
639.63	9.7
639.961	10.02
640.291	10.44
640.622	10.27
640.952	9.93
641.282	10.05
641.612	10.28
641.943	10.39
642.273	10.22
642.603	10.39
642.933	10.51
643.263	10.53
643.592	10.66
643.922	10.66
644.252	10.06
644.582	10.57
644.911	10.27
645.241	10.63
645.571	10.4
645.9	10.82
646.23	9.94
646.559	10.74
646.888	10.4
647.218	10.53
647.547	10.82
647.876	10.66
648.205	10.67
648.534	11.06
648.863	10.88
649.192	10.6
649.521	10.46
649.85	11.27
650.179	10.64
650.508	11.41
650.837	11.28
651.165	11.33
651.494	10.86
651.822	11.45
652.151	11.4
652.479	11.73
652.808	10.64
653.136	11.14
653.465	11.55
653.793	11.32
654.121	11.47
654.449	11.23
654.777	11.29
655.105	11.34
655.433	11.71
655.761	11.11
656.089	11.65
656.417	11.14
656.745	11.96
657.073	11.83
657.4	11.6
657.728	11.4
658.056	11.64
658.383	11.79
658.711	11.05
659.038	11.84
659.365	11.8
659.693	11.37
660.02	11.83
660.347	11.7
660.674	11.44
661.001	11.7
661.329	11.89
661.656	11.96
661.982	12.29
662.309	11.88
662.636	11.86
662.963	12.22
663.29	12.55
663.616	11.91
663.943	12.15
664.27	11.89
664.596	11.55
664.923	12.64
665.249	12.52
665.576	12.26
665.902	11.97
666.228	12.16
666.554	12.21
666.881	12.46
667.207	12.26
667.533	12.66
667.859	12.41
668.185	12.53
668.511	11.96
668.837	11.87
669.162	12.78
669.488	12.33
669.814	12.95
670.139	13.02
670.465	13.14
670.791	12.3
671.116	12.58
671.442	13.1
671.767	13.01
672.092	13.21
672.418	12.87
672.743	12.82
673.068	12.75
673.393	12.91
673.718	12.67
674.043	13.12
674.368	13.23
674.693	12.93
675.018	13.53
675.343	13.09
675.667	13.14
675.992	12.64
676.317	13.25
676.641	13.32
676.966	12.96
677.29	13.63
677.615	13.66
677.939	13.08
678.264	13.06
678.588	13.4
678.912	13.58
679.236	13.33
679.56	12.88
679.885	13.94
680.209	13.06
680.532	13.29
680.856	14
681.18	13.3
681.504	13.5
681.828	13.59
682.152	13.95
682.475	13.53
682.799	13.8
683.122	13.96
683.446	13.64
683.769	14.53
684.093	13.78
684.416	13.93
684.739	14
685.062	14.23
685.386	13.57
685.709	14.02
686.032	14.19
686.355	13.98
686.678	13.39
687.001	13.3
687.324	14.11
687.646	14.05
687.969	14.1
688.292	14.64
688.614	14.83
688.937	14.33
689.26	14.53
