Data from 0060_chest_Reflection__0__153.txt Node

Date: Fri Dec 16 15:14:34 CST 2022
User: ToomeyLab
Spectrometer: FLMS14357
Trigger mode: 0
Integration Time (sec): 1.000000E-2
Scans to average: 100
Electric dark correction enabled: true
Nonlinearity correction enabled: false
Boxcar width: 0
XAxis mode: Wavelengths
Number of Pixels in Spectrum: 2048
>>>>>Begin Spectral Data<<<<<
189.047	113.37
189.435	113.37
189.823	113.37
190.211	207.85
190.599	3.34
190.987	20.71
191.375	-0.72
191.763	336.3
192.151	52.49
192.538	209.64
192.926	-120.04
193.314	690.69
193.702	-46.51
194.089	275.43
194.477	30.96
194.864	-157.23
195.252	-325.73
195.639	99.33
196.027	-29.57
196.414	45.44
196.801	92.85
197.189	90.09
197.576	224.6
197.963	-8.25
198.351	2
198.738	35.6
199.125	15.57
199.512	50.08
199.899	-20.18
200.286	-152.03
200.673	36.85
201.06	42.8
201.447	24.4
201.833	46.6
202.22	49.36
202.607	-16.29
202.994	43.99
203.38	-4.07
203.767	-18.74
204.154	-43.78
204.54	21.87
204.927	19.79
205.313	37.28
205.699	25.83
206.086	-33.47
206.472	-1.61
206.858	38.1
207.245	4.07
207.631	-9.7
208.017	23.8
208.403	14.99
208.789	-2.37
209.175	9.59
209.561	-16.87
209.947	19.15
210.333	13.92
210.719	-25.64
211.105	-7.43
211.491	-19.94
211.876	37.64
212.262	-20.77
212.648	-3.79
213.034	-7.6
213.419	7.08
213.805	9.94
214.19	-32.09
214.576	0.97
214.961	-79.69
215.346	-24.97
215.732	-27.37
216.117	-14.55
216.502	-10.68
216.888	-64.81
217.273	3.39
217.658	-8.87
218.043	15.73
218.428	2.35
218.813	-17.89
219.198	-43.63
219.583	-8.85
219.968	-19.11
220.353	7.98
220.738	-17.3
221.122	-6.11
221.507	-2.13
221.892	8.38
222.276	5.37
222.661	-1.01
223.046	5.61
223.43	-4.04
223.815	4.63
224.199	-2.33
224.583	-8.2
224.968	3.01
225.352	-3.93
225.736	2.78
226.121	-6.02
226.505	-0.65
226.889	4.07
227.273	2.06
227.657	-1.32
228.041	3.38
228.425	3.77
228.809	3.8
229.193	2.5
229.577	1.39
229.961	2.15
230.344	2.01
230.728	2.16
231.112	1.67
231.495	2.74
231.879	1.38
232.263	0.3
232.646	1.46
233.03	0.69
233.413	0.83
233.797	3.89
234.18	-0.65
234.563	0.88
234.946	2.49
235.33	2.99
235.713	0.78
236.096	1.58
236.479	3.02
236.862	3
237.245	3.11
237.628	4.06
238.011	2.79
238.394	4.22
238.777	0.88
239.16	0.54
239.543	1.65
239.925	4.21
240.308	1.31
240.691	1.5
241.073	2.06
241.456	1.66
241.838	2.19
242.221	1.78
242.603	2.56
242.986	2.64
243.368	1.82
243.75	1.73
244.133	2.24
244.515	1.8
244.897	1.16
245.279	1.42
245.661	1.8
246.043	2.47
246.425	1.2
246.807	2.28
247.189	1.9
247.571	2.06
247.953	1.98
248.335	2.15
248.717	2.04
249.098	1.83
249.48	1.86
249.862	2.2
250.243	1.73
250.625	1.6
251.006	2.52
251.388	2.66
251.769	2.15
252.151	2.31
252.532	1.7
252.913	2.55
253.295	2.06
253.676	1.97
254.057	1.37
254.438	2.18
254.819	2.73
255.2	2.16
255.581	1.43
255.962	1.73
256.343	1.91
256.724	1.3
257.105	1.92
257.486	1.59
257.867	0.58
258.247	1.21
258.628	1.73
259.009	1.89
259.389	2.44
259.77	1.54
260.15	2.64
260.531	1.93
260.911	1.96
261.292	2.02
261.672	1.92
262.052	1.71
262.432	1.7
262.813	1.25
263.193	1.41
263.573	1.82
263.953	1.58
264.333	2.56
264.713	1.62
265.093	1.29
265.473	2.23
265.853	2.08
266.233	1.32
266.612	1.9
266.992	1.48
267.372	1.87
267.752	1.33
268.131	2.12
268.511	1.85
268.89	2.33
269.27	2.02
269.649	2.29
270.029	1.52
270.408	1.53
270.787	1.82
271.167	2.21
271.546	1.61
271.925	2.02
272.304	2
272.683	1.55
273.062	1.81
273.441	2.09
273.82	2.31
274.199	1.99
274.578	1.26
274.957	2.31
275.336	2.15
275.715	1.75
276.093	2.72
276.472	1.96
276.851	1.97
277.229	2.52
277.608	1.91
277.986	1.83
278.365	1.03
278.743	1.77
279.122	0.86
279.5	1.48
279.878	1.1
280.257	1.86
280.635	1.57
281.013	1.98
281.391	1.58
281.769	1.59
282.147	2.14
282.525	1.67
282.903	1.78
283.281	1.56
283.659	1.76
284.037	1.59
284.415	1.69
284.792	1.83
285.17	1.52
285.548	1.72
285.925	1.7
286.303	1.57
286.68	1.98
287.058	2.04
287.435	1.8
287.813	1.93
288.19	2.19
288.567	1.56
288.945	1.82
289.322	1.43
289.699	1.65
290.076	2.13
290.453	1.55
290.83	1.76
291.207	1.62
291.584	1.45
291.961	1.73
292.338	1.78
292.715	1.64
293.092	1.78
293.469	1.89
293.845	2.2
294.222	1.76
294.599	1.83
294.975	1.83
295.352	1.14
295.728	1.7
296.105	1.79
296.481	2.38
296.858	1.96
297.234	1.61
297.61	1.72
297.986	1.62
298.363	1.23
298.739	1.93
299.115	1.37
299.491	1.68
299.867	1.94
300.243	1.35
300.619	1.59
300.995	1.88
301.371	2.12
301.746	1.87
302.122	2.09
302.498	1.67
302.874	2.02
303.249	1.92
303.625	1.92
304	1.3
304.376	1.91
304.751	1.6
305.127	1.97
305.502	1.89
305.878	1.77
306.253	1.92
306.628	2.07
307.003	1.63
307.378	1.52
307.754	1.98
308.129	1.33
308.504	1.39
308.879	2
309.254	1.71
309.629	1.78
310.003	1.97
310.378	1.71
310.753	1.94
311.128	1.84
311.502	1.65
311.877	1.63
312.252	1.41
312.626	1.56
313.001	1.87
313.375	1.64
313.75	1.45
314.124	1.89
314.498	1.58
314.873	2.03
315.247	1.43
315.621	1.63
315.995	1.71
316.369	1.65
316.743	2.04
317.117	1.69
317.491	2.15
317.865	1.45
318.239	2.14
318.613	1.63
318.987	1.12
319.361	1.52
319.734	2.04
320.108	1.87
320.482	1.68
320.855	1.46
321.229	2.48
321.602	2.14
321.976	1.72
322.349	1.04
322.723	1.61
323.096	1.45
323.469	1.17
323.843	1.82
324.216	1.15
324.589	2.44
324.962	1.45
325.335	1.65
325.708	1.89
326.081	1.88
326.454	1.45
326.827	2.25
327.2	2.54
327.573	1.78
327.945	1.75
328.318	2.16
328.691	1.85
329.063	1.85
329.436	1.39
329.809	1.4
330.181	1.77
330.553	1.82
330.926	1.54
331.298	1.6
331.671	1.77
332.043	2.03
332.415	2.09
332.787	2.11
333.159	1.53
333.532	1.77
333.904	2.37
334.276	2.03
334.648	1.98
335.02	1.43
335.391	1.78
335.763	1.44
336.135	1.91
336.507	1.9
336.879	1.6
337.25	2.01
337.622	1.7
337.993	2.05
338.365	2.73
338.736	1.65
339.108	1.15
339.479	1.71
339.851	2.23
340.222	1.75
340.593	1.36
340.964	1.99
341.336	1.34
341.707	1.44
342.078	1.66
342.449	2.15
342.82	1.88
343.191	1.78
343.562	1.72
343.933	2.17
344.303	1.74
344.674	1.64
345.045	2.12
345.416	1.71
345.786	1.67
346.157	1.6
346.527	1.45
346.898	1.87
347.268	1.26
347.639	1.27
348.009	1.87
348.38	1.63
348.75	1.92
349.12	1.7
349.49	1.46
349.861	1.84
350.231	2.36
350.601	1.62
350.971	1.75
351.341	1.89
351.711	1.89
352.081	1.47
352.45	1.94
352.82	2.05
353.19	1.85
353.56	1.93
353.929	1.84
354.299	1.84
354.669	1.86
355.038	1.62
355.408	2.24
355.777	1.4
356.147	1.89
356.516	2.25
356.885	1.83
357.254	1.94
357.624	1.81
357.993	1.91
358.362	1.89
358.731	1.9
359.1	2.01
359.469	1.79
359.838	1.7
360.207	1.66
360.576	1.67
360.945	1.96
361.314	1.77
361.682	1.59
362.051	1.48
362.42	1.9
362.788	1.97
363.157	1.44
363.525	1.66
363.894	1.52
364.262	1.67
364.631	2.25
364.999	1.72
365.367	2.17
365.735	1.78
366.104	1.72
366.472	1.87
366.84	2.11
367.208	1.34
367.576	1.79
367.944	2
368.312	1.29
368.68	2.08
369.048	2.15
369.416	2.03
369.783	1.39
370.151	1.51
370.519	1.71
370.886	1.84
371.254	1.95
371.621	1.58
371.989	1.69
372.356	1.98
372.724	2.1
373.091	1.84
373.458	1.65
373.826	1.62
374.193	2.13
374.56	1.64
374.927	1.67
375.294	2.04
375.661	1.72
376.028	1.75
376.395	1.7
376.762	2.02
377.129	2.19
377.496	1.66
377.863	2.04
378.229	1.59
378.596	1.83
378.963	1.92
379.329	1.78
379.696	1.73
380.062	2.2
380.429	1.81
380.795	1.83
381.161	1.68
381.528	1.6
381.894	2.13
382.26	1.65
382.626	1.73
382.993	1.77
383.359	1.75
383.725	1.82
384.091	1.87
384.457	1.9
384.823	1.49
385.188	1.98
385.554	1.64
385.92	2.19
386.286	2.05
386.651	1.82
387.017	2.03
387.383	1.84
387.748	2.03
388.114	2.27
388.479	2.05
388.845	2.2
389.21	1.91
389.575	2.1
389.94	2
390.306	1.83
390.671	1.93
391.036	1.98
391.401	2.12
391.766	1.94
392.131	1.98
392.496	1.93
392.861	1.75
393.226	2.16
393.591	1.98
393.956	1.94
394.32	2.04
394.685	1.93
395.05	1.77
395.414	2.04
395.779	1.97
396.143	1.93
396.508	2.08
396.872	2.03
397.236	1.61
397.601	1.94
397.965	1.61
398.329	2.01
398.694	1.67
399.058	1.97
399.422	2.13
399.786	2.18
400.15	2.02
400.514	2.01
400.878	1.83
401.242	2.11
401.605	2.02
401.969	1.97
402.333	1.71
402.697	2.14
403.06	2.03
403.424	1.95
403.787	2.19
404.151	1.96
404.514	1.88
404.878	1.97
405.241	1.96
405.604	1.98
405.968	1.83
406.331	1.95
406.694	2.1
407.057	2.17
407.42	1.98
407.783	1.94
408.146	1.93
408.509	1.8
408.872	1.99
409.235	1.91
409.598	2.16
409.961	1.89
410.323	1.99
410.686	1.91
411.049	1.89
411.411	2.03
411.774	1.87
412.136	2.1
412.499	1.94
412.861	1.81
413.223	2.12
413.586	1.88
413.948	2.04
414.31	2.2
414.672	1.94
415.035	2.09
415.397	2.18
415.759	2.07
416.121	2.35
416.483	2.15
416.845	2.13
417.206	2.09
417.568	2.08
417.93	1.98
418.292	1.88
418.653	2.12
419.015	2.02
419.377	2.11
419.738	1.83
420.1	2.04
420.461	1.91
420.822	2.08
421.184	1.96
421.545	2.03
421.906	1.92
422.267	1.91
422.629	2.02
422.99	2
423.351	2.02
423.712	1.99
424.073	2.05
424.434	1.98
424.795	1.93
425.155	2.06
425.516	1.99
425.877	2.04
426.238	1.96
426.598	2.07
426.959	1.9
427.32	2.07
427.68	2.19
428.041	2.1
428.401	2.04
428.761	1.94
429.122	2.04
429.482	1.94
429.842	2.17
430.202	2.12
430.563	2.03
430.923	2.05
431.283	2.16
431.643	1.99
432.003	2.18
432.363	2.1
432.722	2.1
433.082	2.03
433.442	2.1
433.802	2.09
434.161	1.99
434.521	1.94
434.881	2.22
435.24	2.01
435.6	2.07
435.959	1.97
436.319	2.04
436.678	2.08
437.037	2.24
437.396	2.13
437.756	2.14
438.115	2.15
438.474	2.12
438.833	2.18
439.192	2.22
439.551	2.24
439.91	2.25
440.269	2.14
440.628	2.17
440.987	1.97
441.345	2.07
441.704	2.08
442.063	2.06
442.421	2.06
442.78	1.98
443.138	1.98
443.497	2.02
443.855	2.01
444.214	1.98
444.572	2.19
444.93	2.05
445.288	2.09
445.647	2.2
446.005	2.09
446.363	2.05
446.721	1.98
447.079	2.02
447.437	2.15
447.795	2.01
448.153	2.03
448.51	2.08
448.868	2.18
449.226	2.15
449.584	2.03
449.941	2.23
450.299	2.04
450.656	2.18
451.014	2.17
451.371	2.13
451.729	2.1
452.086	2.06
452.443	2.03
452.801	2.23
453.158	2.06
453.515	2.11
453.872	2.21
454.229	2.06
454.586	2.09
454.943	2.14
455.3	2.35
455.657	1.98
456.014	2.33
456.371	2.3
456.727	2.09
457.084	2.17
457.441	2.08
457.797	2.3
458.154	2.31
458.51	2.32
458.867	2.06
459.223	2.12
459.58	2.05
459.936	2.09
460.292	2.22
460.648	2.04
461.005	2.03
461.361	2.11
461.717	2.15
462.073	2.18
462.429	2.1
462.785	2.15
463.141	2.35
463.496	2.16
463.852	2.26
464.208	2.18
464.564	1.99
464.919	2.19
465.275	2.24
465.631	2.16
465.986	2.01
466.342	2.17
466.697	2.25
467.052	2.21
467.408	2.26
467.763	2.05
468.118	2.17
468.473	2.38
468.829	2.13
469.184	2.36
469.539	2
469.894	2.2
470.249	2.2
470.603	2.22
470.958	2.26
471.313	2.16
471.668	2.36
472.023	2.45
472.377	2.13
472.732	2.14
473.086	2.16
473.441	2.23
473.795	2.32
474.15	2.17
474.504	2.26
474.859	2.34
475.213	2.14
475.567	2.11
475.921	2.39
476.275	2.26
476.63	2.23
476.984	2.24
477.338	2.46
477.692	2.16
478.045	2.13
478.399	2.25
478.753	2.19
479.107	2.24
479.461	2.27
479.814	2.18
480.168	2.25
480.521	2.2
480.875	2.34
481.228	2.31
481.582	2.07
481.935	2.3
482.289	2.13
482.642	2.32
482.995	2.19
483.348	2.25
483.701	2.21
484.055	2.17
484.408	2.18
484.761	2.06
485.114	2.07
485.466	2.08
485.819	2.1
486.172	2.16
486.525	2.17
486.878	2.17
487.23	2.23
487.583	2.22
487.936	2.27
488.288	2.17
488.641	2.21
488.993	2.14
489.345	2.15
489.698	2.23
490.05	2.21
490.402	2.25
490.754	2.23
491.107	2.22
491.459	2.35
491.811	2.36
492.163	2.29
492.515	2.22
492.866	2.14
493.218	2.16
493.57	2.22
493.922	2.21
494.274	2.24
494.625	2.26
494.977	2.34
495.328	2.39
495.68	2.52
496.031	2.36
496.383	2.42
496.734	2.39
497.086	2.22
497.437	2.43
497.788	2.4
498.139	2.38
498.49	2.42
498.842	2.31
499.193	2.35
499.544	2.39
499.894	2.37
500.245	2.38
500.596	2.33
500.947	2.24
501.298	2.34
501.648	2.3
501.999	2.47
502.35	2.41
502.7	2.43
503.051	2.48
503.401	2.43
503.752	2.34
504.102	2.46
504.452	2.35
504.803	2.26
505.153	2.44
505.503	2.35
505.853	2.37
506.203	2.42
506.553	2.51
506.903	2.44
507.253	2.47
507.603	2.41
507.953	2.46
508.303	2.47
508.652	2.54
509.002	2.4
509.352	2.39
509.701	2.4
510.051	2.51
510.4	2.4
510.75	2.39
511.099	2.34
511.449	2.4
511.798	2.58
512.147	2.38
512.496	2.53
512.846	2.46
513.195	2.51
513.544	2.46
513.893	2.38
514.242	2.56
514.591	2.47
514.939	2.45
515.288	2.51
515.637	2.55
515.986	2.43
516.334	2.57
516.683	2.51
517.032	2.31
517.38	2.58
517.729	2.4
518.077	2.41
518.426	2.46
518.774	2.42
519.122	2.48
519.47	2.47
519.819	2.52
520.167	2.46
520.515	2.41
520.863	2.47
521.211	2.56
521.559	2.53
521.907	2.52
522.255	2.57
522.602	2.53
522.95	2.56
523.298	2.55
523.645	2.5
523.993	2.67
524.341	2.56
524.688	2.54
525.036	2.7
525.383	2.64
525.73	2.63
526.078	2.64
526.425	2.56
526.772	2.5
527.119	2.46
527.466	2.53
527.814	2.48
528.161	2.49
528.508	2.49
528.854	2.45
529.201	2.49
529.548	2.48
529.895	2.43
530.242	2.41
530.588	2.51
530.935	2.46
531.282	2.49
531.628	2.53
531.975	2.57
532.321	2.56
532.667	2.6
533.014	2.63
533.36	2.54
533.706	2.66
534.052	2.52
534.399	2.55
534.745	2.52
535.091	2.6
535.437	2.64
535.783	2.65
536.129	2.6
536.474	2.7
536.82	2.61
537.166	2.67
537.512	2.73
537.857	2.65
538.203	2.64
538.549	2.71
538.894	2.6
539.239	2.81
539.585	2.77
539.93	2.77
540.276	2.76
540.621	2.75
540.966	2.78
541.311	2.74
541.656	2.66
542.001	2.77
542.346	2.64
542.691	2.6
543.036	2.64
543.381	2.63
543.726	2.7
544.071	2.74
544.415	2.71
544.76	2.71
545.105	2.77
545.449	2.77
545.794	2.75
546.138	2.79
546.483	2.79
546.827	2.76
547.171	2.78
547.516	2.87
547.86	2.73
548.204	2.87
548.548	2.94
548.892	2.83
549.236	2.86
549.58	2.86
549.924	2.81
550.268	2.98
550.612	3
550.956	2.76
551.3	2.97
551.643	2.94
551.987	2.93
552.33	2.87
552.674	3.04
553.017	3.03
553.361	2.94
553.704	2.88
554.048	3.02
554.391	3.01
554.734	2.94
555.077	3.06
555.42	3.06
555.764	2.95
556.107	3.06
556.45	3.16
556.793	3.14
557.135	3.18
557.478	3.12
557.821	3.09
558.164	3.12
558.507	2.87
558.849	2.89
559.192	3.08
559.534	2.99
559.877	3.15
560.219	3.32
560.562	3.24
560.904	3.22
561.246	3.32
561.589	3.07
561.931	3.36
562.273	3.23
562.615	3.21
562.957	3.18
563.299	3.14
563.641	3.4
563.983	3.03
564.325	3.05
564.667	3.22
565.008	3.35
565.35	3.19
565.692	3.27
566.033	3.15
566.375	3.22
566.716	3.37
567.058	3.39
567.399	3.31
567.741	3.31
568.082	3.18
568.423	3.31
568.764	3.33
569.105	3.34
569.447	3.33
569.788	3.25
570.129	3.26
570.47	3.43
570.811	3.48
571.151	3.45
571.492	3.46
571.833	3.26
572.174	3.39
572.514	3.22
572.855	3.41
573.195	3.28
573.536	3.39
573.876	3.38
574.217	3.53
574.557	3.39
574.898	3.42
575.238	3.38
575.578	3.54
575.918	3.34
576.258	3.51
576.598	3.48
576.938	3.67
577.278	3.66
577.618	3.72
577.958	3.6
578.298	3.62
578.638	3.59
578.977	3.66
579.317	3.76
579.657	3.65
579.996	3.64
580.336	3.55
580.675	3.72
581.014	3.68
581.354	3.61
581.693	3.66
582.032	3.74
582.372	3.63
582.711	3.72
583.05	3.83
583.389	3.82
583.728	3.82
584.067	3.68
584.406	3.76
584.745	3.72
585.083	3.99
585.422	3.8
585.761	4.02
586.1	3.85
586.438	3.92
586.777	3.98
587.115	3.97
587.454	3.88
587.792	3.94
588.13	4.05
588.469	4.09
588.807	4.07
589.145	3.93
589.483	3.75
589.821	4.12
590.159	3.84
590.497	4
590.835	3.76
591.173	4.05
591.511	4.03
591.849	4.03
592.187	3.91
592.524	4.05
592.862	3.95
593.2	3.91
593.537	3.91
593.875	4.08
594.212	4.12
594.55	4.05
594.887	4.23
595.224	3.88
595.561	4.14
595.899	4.28
596.236	4.16
596.573	4.12
596.91	4.38
597.247	4.02
597.584	4.24
597.921	4.14
598.258	4.25
598.594	4.08
598.931	4.06
599.268	4.12
599.604	4.36
599.941	4.13
600.277	4.29
600.614	4.19
600.95	4.31
601.287	4.42
601.623	4.44
601.959	4.36
602.296	4.42
602.632	4.6
602.968	4.31
603.304	4.22
603.64	4.32
603.976	4.42
604.312	4.53
604.648	4.6
604.984	4.62
605.319	4.53
605.655	4.47
605.991	4.43
606.326	4.36
606.662	4.31
606.998	4.58
607.333	4.58
607.668	4.52
608.004	4.58
608.339	4.82
608.674	4.74
609.01	4.7
609.345	4.51
609.68	4.38
610.015	4.73
610.35	4.84
610.685	4.64
611.02	4.78
611.355	4.7
611.689	4.66
612.024	4.81
612.359	4.65
612.694	4.88
613.028	5.27
613.363	4.82
613.697	4.84
614.032	5.11
614.366	4.55
614.7	5.11
615.035	4.85
615.369	5.24
615.703	5.49
616.037	4.94
616.371	4.89
616.705	4.94
617.039	5.5
617.373	5.02
617.707	4.96
618.041	4.98
618.375	4.91
618.709	5.34
619.042	5.1
619.376	4.93
619.71	4.96
620.043	5.15
620.377	5.09
620.71	5.41
621.043	5
621.377	5.1
621.71	5.25
622.043	5.32
622.376	5.19
622.709	5.7
623.043	5.17
623.376	5.57
623.709	5.57
624.041	5.3
624.374	5.36
624.707	5.2
625.04	5.81
625.373	5.27
625.705	5.41
626.038	5.58
626.37	5.38
626.703	5.31
627.035	5.58
627.368	5.75
627.7	5.51
628.032	5.67
628.365	5.52
628.697	5.47
629.029	5.83
629.361	5.57
629.693	5.6
630.025	5.73
630.357	5.49
630.689	5.87
631.021	5.48
631.353	6.02
631.684	5.77
632.016	5.75
632.348	5.87
632.679	5.76
633.011	5.46
633.342	5.34
633.674	5.86
634.005	5.86
634.336	5.74
634.668	6.13
634.999	6.03
635.33	5.81
635.661	5.79
635.992	5.5
636.323	5.94
636.654	6
636.985	5.97
637.316	5.88
637.647	6.01
637.977	6.14
638.308	6.11
638.639	5.75
638.969	6.06
639.3	6.18
639.63	5.81
639.961	6.05
640.291	6.54
640.622	5.9
640.952	6.07
641.282	5.74
641.612	6.12
641.943	6.4
642.273	6.09
642.603	6.43
642.933	6.66
643.263	6.81
643.592	6.46
643.922	7.12
644.252	6.55
644.582	6.05
644.911	6.55
645.241	6.33
645.571	6.49
645.9	6.54
646.23	6.32
646.559	6.56
646.888	6.5
647.218	6.9
647.547	6.71
647.876	6.69
648.205	6.6
648.534	6.6
648.863	6.7
649.192	6.22
649.521	6.47
649.85	6.78
650.179	6.49
650.508	7
650.837	6.86
651.165	6.81
651.494	6.64
651.822	6.75
652.151	6.93
652.479	7.37
652.808	6.64
653.136	6.99
653.465	7.04
653.793	7.31
654.121	7.15
654.449	6.98
654.777	6.63
655.105	7.26
655.433	7.3
655.761	7.05
656.089	7.53
656.417	6.61
656.745	7.78
657.073	6.95
657.4	7.53
657.728	7.28
658.056	7.32
658.383	7.44
658.711	7.03
659.038	7.81
659.365	7.69
659.693	7.1
660.02	7.13
660.347	7.4
660.674	7.43
661.001	7.21
661.329	7.48
661.656	7.16
661.982	7.46
662.309	7.45
662.636	7.62
662.963	7.83
663.29	7.55
663.616	7.77
663.943	8.03
664.27	7.7
664.596	7.64
664.923	7.89
665.249	7.34
665.576	7.81
665.902	7.66
666.228	7.8
666.554	7.18
666.881	7.85
667.207	7.42
667.533	7.52
667.859	7.43
668.185	7.86
668.511	6.99
668.837	7.19
669.162	7.94
669.488	7.81
669.814	8.22
670.139	8.83
670.465	8.09
670.791	8
671.116	7.79
671.442	8.1
671.767	8.06
672.092	8.42
672.418	8.17
672.743	7.94
673.068	7.54
673.393	8.04
673.718	7.66
674.043	7.66
674.368	8.57
674.693	8.39
675.018	8.22
675.343	9.11
675.667	8.14
675.992	7.97
676.317	8.69
676.641	8.34
676.966	8.55
677.29	7.96
677.615	8.5
677.939	7.87
678.264	8.61
678.588	8.31
678.912	8.25
679.236	8.87
679.56	7.97
679.885	8.72
680.209	8.11
680.532	8.74
680.856	9.22
681.18	8.55
681.504	8.61
681.828	8.39
682.152	8.84
682.475	8.48
682.799	8.74
683.122	8.83
683.446	8.74
683.769	8.81
684.093	8.99
684.416	8.8
684.739	9.16
685.062	9.2
685.386	8.67
685.709	8.7
686.032	9.31
686.355	8.83
686.678	9.09
687.001	8.29
687.324	8.9
687.646	8.99
687.969	9.23
688.292	9.52
688.614	9.26
688.937	8.75
689.26	8.39
689.582	8.42
689.904	9.71
690.227	9.2
690.549	9.71
690.871	9.55
691.194	9.97
691.516	8.58
691.838	9.25
692.16	9.3
692.482	9.58
