Data from 0060_crown_Reflection__0__158.txt Node

Date: Fri Dec 16 15:16:16 CST 2022
User: ToomeyLab
Spectrometer: FLMS14357
Trigger mode: 0
Integration Time (sec): 1.000000E-2
Scans to average: 100
Electric dark correction enabled: true
Nonlinearity correction enabled: false
Boxcar width: 0
XAxis mode: Wavelengths
Number of Pixels in Spectrum: 2048
>>>>>Begin Spectral Data<<<<<
189.047	70.54
189.435	70.54
189.823	70.54
190.211	214.45
190.599	-75.12
190.987	78.31
191.375	77.4
191.763	408.26
192.151	-251.33
192.538	81.76
192.926	-80.42
193.314	261.02
193.702	250.99
194.089	293.76
194.477	-43.06
194.864	288.93
195.252	-169.34
195.639	70.04
196.027	-68.96
196.414	61.54
196.801	127.24
197.189	43.9
197.576	-297.15
197.963	-28.22
198.351	77.64
198.738	-18.45
199.125	31.57
199.512	22.94
199.899	30.65
200.286	-39.82
200.673	19.22
201.06	37.23
201.447	38.48
201.833	34.11
202.22	26.57
202.607	6.18
202.994	43.98
203.38	-19.37
203.767	16.64
204.154	-42.49
204.54	10.93
204.927	-0.32
205.313	16.9
205.699	-21.8
206.086	3.66
206.472	-73.94
206.858	2.23
207.245	24.84
207.631	29.8
208.017	4.89
208.403	24.21
208.789	11.18
209.175	33.75
209.561	13.96
209.947	-19.53
210.333	17.92
210.719	12.65
211.105	-29.53
211.491	-22.17
211.876	-38.45
212.262	18.47
212.648	-26.48
213.034	-8.66
213.419	11.73
213.805	8.51
214.19	3.59
214.576	8.44
214.961	56.38
215.346	-82.22
215.732	19.88
216.117	5.53
216.502	-19.01
216.888	-21.79
217.273	-7.73
217.658	-19.58
218.043	11.54
218.428	-5.29
218.813	20.3
219.198	-31.97
219.583	-11.8
219.968	16.63
220.353	6.66
220.738	0.07
221.122	-0.39
221.507	-24.18
221.892	6.42
222.276	9.1
222.661	-10.38
223.046	-0.5
223.43	0.85
223.815	14.55
224.199	9.93
224.583	-2.34
224.968	8.81
225.352	4.34
225.736	8.6
226.121	5.44
226.505	3.47
226.889	13.8
227.273	8.4
227.657	3.97
228.041	8.21
228.425	5.25
228.809	8.24
229.193	2.8
229.577	4.22
229.961	6.53
230.344	5.65
230.728	5.56
231.112	5.68
231.495	6.08
231.879	5.87
232.263	4.08
232.646	5.87
233.03	3.54
233.413	3.67
233.797	6.75
234.18	3.13
234.563	3.25
234.946	2.43
235.33	5.35
235.713	5.13
236.096	3.9
236.479	6.1
236.862	6.4
237.245	6.96
237.628	4.9
238.011	5.75
238.394	7.81
238.777	5.95
239.16	2.24
239.543	5.29
239.925	5.94
240.308	5.47
240.691	5.28
241.073	5.2
241.456	4.15
241.838	5.11
242.221	5.35
242.603	5.8
242.986	6.17
243.368	5.36
243.75	4.8
244.133	5.21
244.515	5.34
244.897	5.15
245.279	4.48
245.661	5.04
246.043	5.61
246.425	4.43
246.807	4.19
247.189	4.83
247.571	4.68
247.953	5.07
248.335	5.18
248.717	4.98
249.098	5.13
249.48	4.79
249.862	5.06
250.243	4.62
250.625	4.6
251.006	5.22
251.388	4.7
251.769	5.06
252.151	4.32
252.532	4.93
252.913	4.77
253.295	4.64
253.676	5.28
254.057	5.02
254.438	4.77
254.819	4.4
255.2	5.51
255.581	4.8
255.962	4.41
256.343	4.83
256.724	3.94
257.105	4.55
257.486	4.81
257.867	2.84
258.247	4.95
258.628	5.63
259.009	5.13
259.389	4.76
259.77	4.89
260.15	5.05
260.531	4.57
260.911	4.35
261.292	4.55
261.672	4.43
262.052	4.47
262.432	4.67
262.813	4.25
263.193	3.9
263.573	4.06
263.953	4.6
264.333	4.77
264.713	4.14
265.093	4.19
265.473	5.38
265.853	4.48
266.233	4.87
266.612	4.61
266.992	4.03
267.372	5.1
267.752	4.51
268.131	4.44
268.511	4.71
268.89	5.04
269.27	4.69
269.649	4.56
270.029	4.33
270.408	4.68
270.787	4.15
271.167	4.58
271.546	4.14
271.925	5.07
272.304	4.77
272.683	4.24
273.062	4.73
273.441	4.63
273.82	4.85
274.199	4.92
274.578	4.37
274.957	4.38
275.336	4.3
275.715	4.59
276.093	5.4
276.472	4.79
276.851	4.85
277.229	5.2
277.608	4.68
277.986	4.44
278.365	4.23
278.743	4.87
279.122	4.36
279.5	4.7
279.878	3.87
280.257	4.44
280.635	3.58
281.013	4.5
281.391	4.32
281.769	4.52
282.147	4.78
282.525	3.87
282.903	4.3
283.281	4.26
283.659	4.28
284.037	4.46
284.415	4.52
284.792	4.35
285.17	3.78
285.548	3.88
285.925	4.17
286.303	3.87
286.68	4.57
287.058	3.98
287.435	3.99
287.813	4.25
288.19	4.52
288.567	4.18
288.945	4.3
289.322	3.83
289.699	4.46
290.076	4.63
290.453	4
290.83	4.31
291.207	4.34
291.584	3.95
291.961	4.02
292.338	3.96
292.715	4.69
293.092	4.22
293.469	4.59
293.845	4.19
294.222	4.09
294.599	4.62
294.975	4.13
295.352	4.06
295.728	3.98
296.105	4.51
296.481	4.43
296.858	4.02
297.234	3.86
297.61	4.01
297.986	4.23
298.363	3.55
298.739	4.15
299.115	3.72
299.491	4.08
299.867	4.34
300.243	3.7
300.619	4.11
300.995	3.75
301.371	4.18
301.746	3.72
302.122	4.31
302.498	4.03
302.874	3.87
303.249	4.05
303.625	4.16
304	3.71
304.376	3.98
304.751	3.87
305.127	4.06
305.502	3.91
305.878	3.61
306.253	3.89
306.628	4.25
307.003	4.28
307.378	4.01
307.754	3.85
308.129	3.95
308.504	3.76
308.879	3.55
309.254	3.83
309.629	3.59
310.003	4.21
310.378	3.86
310.753	3.7
311.128	4.08
311.502	3.68
311.877	4.38
312.252	3.65
312.626	3.45
313.001	3.67
313.375	3.82
313.75	3.79
314.124	4.02
314.498	3.61
314.873	3.97
315.247	3.59
315.621	4.25
315.995	3.6
316.369	3.83
316.743	4.03
317.117	3.89
317.491	3.8
317.865	3.15
318.239	4.12
318.613	3.88
318.987	3.49
319.361	3.79
319.734	4.02
320.108	3.89
320.482	4.1
320.855	4.2
321.229	4.11
321.602	3.49
321.976	3.58
322.349	3.02
322.723	3.45
323.096	3.58
323.469	3.14
323.843	3.41
324.216	3.54
324.589	4.37
324.962	4.13
325.335	3.57
325.708	3.91
326.081	4.37
326.454	3.7
326.827	3.77
327.2	4.32
327.573	3.78
327.945	3.87
328.318	4.35
328.691	3.83
329.063	3.73
329.436	3.59
329.809	3.38
330.181	3.85
330.553	4.09
330.926	3.98
331.298	3.24
331.671	3.31
332.043	3.52
332.415	4.02
332.787	4.48
333.159	3.58
333.532	3.54
333.904	4.54
334.276	4.13
334.648	3.19
335.02	3.7
335.391	3.89
335.763	3.52
336.135	3.54
336.507	3.61
336.879	3.74
337.25	3.86
337.622	3.41
337.993	3.79
338.365	3.84
338.736	3.63
339.108	3.35
339.479	3.58
339.851	3.7
340.222	3.99
340.593	3.71
340.964	3.91
341.336	3.02
341.707	3.73
342.078	3.3
342.449	4.01
342.82	3.76
343.191	3.5
343.562	3.67
343.933	3.85
344.303	3.82
344.674	3.61
345.045	3.71
345.416	3.34
345.786	3.52
346.157	4.03
346.527	3.61
346.898	3.35
347.268	3.96
347.639	3.75
348.009	3.94
348.38	3.76
348.75	3.76
349.12	3.72
349.49	3.72
349.861	4.24
350.231	4.09
350.601	3.93
350.971	3.81
351.341	3.45
351.711	3.58
352.081	3.64
352.45	3.93
352.82	4.19
353.19	3.55
353.56	3.55
353.929	4.01
354.299	3.65
354.669	3.67
355.038	3.8
355.408	4.22
355.777	3.76
356.147	3.8
356.516	4.16
356.885	3.54
357.254	4.03
357.624	3.93
357.993	3.78
358.362	3.78
358.731	3.73
359.1	3.94
359.469	3.88
359.838	3.39
360.207	3.54
360.576	3.66
360.945	3.62
361.314	3.87
361.682	3.88
362.051	3.55
362.42	3.99
362.788	3.76
363.157	3.64
363.525	3.75
363.894	3.6
364.262	3.72
364.631	4.23
364.999	3.52
365.367	4.12
365.735	3.62
366.104	3.64
366.472	4.2
366.84	4.04
367.208	3.55
367.576	3.84
367.944	4.17
368.312	3.57
368.68	4.13
369.048	3.88
369.416	3.98
369.783	3.9
370.151	4.22
370.519	3.53
370.886	3.97
371.254	4.08
371.621	3.79
371.989	4.03
372.356	3.84
372.724	4
373.091	3.88
373.458	3.68
373.826	3.78
374.193	4.44
374.56	3.63
374.927	3.54
375.294	4.31
375.661	3.85
376.028	3.7
376.395	3.66
376.762	4.14
377.129	3.87
377.496	3.96
377.863	3.82
378.229	3.8
378.596	3.75
378.963	3.73
379.329	3.89
379.696	3.69
380.062	3.94
380.429	3.9
380.795	3.64
381.161	3.59
381.528	3.48
381.894	4.12
382.26	3.8
382.626	4.06
382.993	3.51
383.359	3.71
383.725	4.02
384.091	3.65
384.457	3.98
384.823	3.84
385.188	4.04
385.554	3.8
385.92	4.04
386.286	4.12
386.651	3.64
387.017	4.04
387.383	3.87
387.748	3.79
388.114	4.11
388.479	4.03
388.845	4.09
389.21	4.12
389.575	3.88
389.94	3.89
390.306	3.79
390.671	4.05
391.036	4.03
391.401	4
391.766	4.08
392.131	3.99
392.496	3.97
392.861	3.68
393.226	3.77
393.591	3.88
393.956	3.97
394.32	3.69
394.685	3.99
395.05	3.86
395.414	3.86
395.779	3.95
396.143	3.8
396.508	4.05
396.872	4.09
397.236	3.63
397.601	4.07
397.965	3.69
398.329	4.08
398.694	3.85
399.058	3.98
399.422	3.91
399.786	3.91
400.15	3.83
400.514	3.85
400.878	3.83
401.242	4.02
401.605	3.85
401.969	4.11
402.333	4.03
402.697	4.25
403.06	4.1
403.424	3.82
403.787	4.33
404.151	3.91
404.514	4.02
404.878	4.1
405.241	4.1
405.604	4.21
405.968	3.97
406.331	4.04
406.694	4.03
407.057	4.35
407.42	4.14
407.783	4.11
408.146	4.08
408.509	3.93
408.872	3.71
409.235	3.91
409.598	4.21
409.961	3.99
410.323	4.02
410.686	3.83
411.049	3.89
411.411	3.95
411.774	3.85
412.136	3.93
412.499	4
412.861	3.73
413.223	4
413.586	3.8
413.948	4.06
414.31	4.17
414.672	4
415.035	4.05
415.397	4.15
415.759	3.9
416.121	4.06
416.483	4.27
416.845	4
417.206	4.07
417.568	3.77
417.93	4.01
418.292	3.96
418.653	4.1
419.015	4.15
419.377	3.93
419.738	3.88
420.1	3.87
420.461	3.98
420.822	4.09
421.184	3.94
421.545	3.98
421.906	4.02
422.267	3.83
422.629	3.95
422.99	3.92
423.351	4.02
423.712	3.99
424.073	4.09
424.434	3.91
424.795	3.95
425.155	3.91
425.516	3.9
425.877	4.03
426.238	3.88
426.598	4.07
426.959	3.87
427.32	3.99
427.68	3.98
428.041	4.09
428.401	4.07
428.761	4
429.122	3.9
429.482	3.95
429.842	4.04
430.202	3.85
430.563	4.11
430.923	3.95
431.283	4.21
431.643	4.04
432.003	4.1
432.363	4.2
432.722	3.97
433.082	3.88
433.442	4.05
433.802	4.04
434.161	3.88
434.521	3.92
434.881	4.05
435.24	3.89
435.6	4
435.959	3.99
436.319	4.03
436.678	4.1
437.037	4.15
437.396	4.18
437.756	4.07
438.115	3.92
438.474	4.01
438.833	4.16
439.192	4.04
439.551	4
439.91	4.04
440.269	4.22
440.628	4.05
440.987	4.09
441.345	3.96
441.704	3.99
442.063	3.95
442.421	4.05
442.78	3.96
443.138	4.03
443.497	4
443.855	4
444.214	4.13
444.572	3.95
444.93	4.13
445.288	4.17
445.647	4.08
446.005	3.91
446.363	4.08
446.721	3.88
447.079	4.08
447.437	3.92
447.795	3.92
448.153	3.87
448.51	4.01
448.868	4.08
449.226	4.06
449.584	3.98
449.941	4.14
450.299	4.14
450.656	4.22
451.014	3.99
451.371	4.3
451.729	4.08
452.086	3.99
452.443	4.07
452.801	4.29
453.158	4.1
453.515	4.09
453.872	4.2
454.229	4.08
454.586	4.08
454.943	3.96
455.3	4.22
455.657	3.9
456.014	4.1
456.371	4.12
456.727	4.01
457.084	4.14
457.441	3.95
457.797	4.13
458.154	4.05
458.51	4.13
458.867	3.76
459.223	4.3
459.58	4.2
459.936	4.12
460.292	4.07
460.648	4
461.005	3.93
461.361	3.95
461.717	4.05
462.073	4.04
462.429	4.06
462.785	4.18
463.141	4.22
463.496	4.11
463.852	4.27
464.208	4.13
464.564	3.95
464.919	4.06
465.275	3.98
465.631	4.26
465.986	4.05
466.342	4.04
466.697	4.15
467.052	4.29
467.408	4.16
467.763	3.91
468.118	4.23
468.473	4.14
468.829	4.08
469.184	4.24
469.539	3.96
469.894	4.09
470.249	4.14
470.603	4.16
470.958	4.28
471.313	4.08
471.668	4.24
472.023	4.24
472.377	4.17
472.732	4.1
473.086	4.03
473.441	4.24
473.795	4.32
474.15	4.11
474.504	4.04
474.859	4.27
475.213	4.22
475.567	3.99
475.921	4.18
476.275	4.19
476.63	4.09
476.984	4.03
477.338	4.38
477.692	4.18
478.045	4.08
478.399	4.08
478.753	4.11
479.107	4.17
479.461	4.16
479.814	4.07
480.168	4.18
480.521	4.08
480.875	4.27
481.228	4.26
481.582	4.04
481.935	4.08
482.289	4.06
482.642	4.21
482.995	4.15
483.348	4.15
483.701	4.11
484.055	4.02
484.408	3.98
484.761	3.82
485.114	3.81
485.466	3.81
485.819	3.87
486.172	3.98
486.525	4.01
486.878	4.07
487.23	4.09
487.583	4.03
487.936	4.14
488.288	3.95
488.641	3.9
488.993	3.89
489.345	3.91
489.698	4
490.05	4
490.402	4.05
490.754	4.17
491.107	4.07
491.459	4.19
491.811	4.17
492.163	4.1
492.515	4.04
492.866	3.91
493.218	3.92
493.57	4
493.922	4.1
494.274	4.17
494.625	4.11
494.977	4.17
495.328	4.22
495.68	4.36
496.031	4.23
496.383	4.17
496.734	4.26
497.086	4.1
497.437	4.19
497.788	4.19
498.139	4.23
498.49	4.13
498.842	4.09
499.193	4.15
499.544	4.22
499.894	4.18
500.245	4.09
500.596	4.22
500.947	4.35
501.298	4.16
501.648	4.21
501.999	4.33
502.35	4.29
502.7	4.16
503.051	4.33
503.401	4.23
503.752	4.21
504.102	4.27
504.452	4.2
504.803	4.11
505.153	4.25
505.503	4.17
505.853	4.16
506.203	4.23
506.553	4.17
506.903	4.15
507.253	4.3
507.603	4.2
507.953	4.42
508.303	4.2
508.652	4.19
509.002	4.17
509.352	4.22
509.701	4.25
510.051	4.17
510.4	4.28
510.75	4.19
511.099	4.25
511.449	4.22
511.798	4.38
512.147	4.28
512.496	4.26
512.846	4.22
513.195	4.27
513.544	4.25
513.893	4.1
514.242	4.21
514.591	4.27
514.939	4.25
515.288	4.31
515.637	4.27
515.986	4.21
516.334	4.35
516.683	4.27
517.032	4.23
517.38	4.39
517.729	4.26
518.077	4.28
518.426	4.12
518.774	4.17
519.122	4.16
519.47	4.22
519.819	4.18
520.167	4.19
520.515	4.18
520.863	4.26
521.211	4.29
521.559	4.29
521.907	4.18
522.255	4.29
522.602	4.37
522.95	4.27
523.298	4.21
523.645	4.2
523.993	4.42
524.341	4.36
524.688	4.32
525.036	4.36
525.383	4.35
525.73	4.32
526.078	4.22
526.425	4.26
526.772	4.15
527.119	4.18
527.466	4.14
527.814	4.16
528.161	4.26
528.508	4.26
528.854	4.12
529.201	4.12
529.548	4.03
529.895	3.99
530.242	4
530.588	4.09
530.935	4.14
531.282	4.2
531.628	4.22
531.975	4.26
532.321	4.19
532.667	4.21
533.014	4.25
533.36	4.19
533.706	4.28
534.052	4.12
534.399	4.05
534.745	4.04
535.091	4.13
535.437	4.21
535.783	4.31
536.129	4.2
536.474	4.27
536.82	4.33
537.166	4.31
537.512	4.25
537.857	4.28
538.203	4.13
538.549	4.37
538.894	4.25
539.239	4.4
539.585	4.35
539.93	4.36
540.276	4.32
540.621	4.36
540.966	4.36
541.311	4.32
541.656	4.28
542.001	4.27
542.346	4.15
542.691	4.04
543.036	4.06
543.381	4.16
543.726	4.21
544.071	4.31
544.415	4.27
544.76	4.22
545.105	4.26
545.449	4.3
545.794	4.39
546.138	4.44
546.483	4.19
546.827	4.26
547.171	4.37
547.516	4.38
547.86	4.34
548.204	4.26
548.548	4.36
548.892	4.43
549.236	4.39
549.58	4.45
549.924	4.33
550.268	4.55
550.612	4.47
550.956	4.38
551.3	4.36
551.643	4.34
551.987	4.47
552.33	4.41
552.674	4.5
553.017	4.41
553.361	4.31
553.704	4.35
554.048	4.4
554.391	4.35
554.734	4.42
555.077	4.36
555.42	4.36
555.764	4.38
556.107	4.57
556.45	4.39
556.793	4.64
557.135	4.54
557.478	4.63
557.821	4.44
558.164	4.47
558.507	4.38
558.849	4.35
559.192	4.61
559.534	4.41
559.877	4.63
560.219	4.62
560.562	4.44
560.904	4.5
561.246	4.64
561.589	4.5
561.931	4.58
562.273	4.54
562.615	4.54
562.957	4.55
563.299	4.59
563.641	4.69
563.983	4.5
564.325	4.39
564.667	4.45
565.008	4.57
565.35	4.58
565.692	4.53
566.033	4.44
566.375	4.35
566.716	4.47
567.058	4.46
567.399	4.47
567.741	4.53
568.082	4.46
568.423	4.49
568.764	4.56
569.105	4.52
569.447	4.41
569.788	4.52
570.129	4.66
570.47	4.55
570.811	4.55
571.151	4.59
571.492	4.73
571.833	4.42
572.174	4.29
572.514	4.35
572.855	4.5
573.195	4.52
573.536	4.49
573.876	4.45
574.217	4.56
574.557	4.56
574.898	4.41
575.238	4.43
575.578	4.66
575.918	4.47
576.258	4.52
576.598	4.5
576.938	4.72
577.278	4.53
577.618	4.55
577.958	4.5
578.298	4.53
578.638	4.57
578.977	4.6
579.317	4.7
579.657	4.64
579.996	4.5
580.336	4.52
580.675	4.71
581.014	4.49
581.354	4.65
581.693	4.5
582.032	4.39
582.372	4.6
582.711	4.67
583.05	4.79
583.389	4.55
583.728	4.56
584.067	4.55
584.406	4.69
584.745	4.62
585.083	4.82
585.422	4.4
585.761	4.66
586.1	4.72
586.438	4.88
586.777	4.9
587.115	4.76
587.454	4.57
587.792	4.56
588.13	4.78
588.469	4.71
588.807	4.8
589.145	4.65
589.483	4.64
589.821	4.57
590.159	4.47
590.497	4.43
590.835	4.69
591.173	4.66
591.511	4.8
591.849	4.76
592.187	4.72
592.524	4.68
592.862	4.73
593.2	4.73
593.537	4.6
593.875	4.76
594.212	4.7
594.55	4.52
594.887	4.75
595.224	4.6
595.561	4.35
595.899	4.59
596.236	4.69
596.573	4.57
596.91	4.69
597.247	4.67
597.584	4.65
597.921	4.53
598.258	4.57
598.594	4.42
598.931	4.62
599.268	4.58
599.604	4.75
599.941	4.6
600.277	4.48
600.614	4.92
600.95	4.5
601.287	4.77
601.623	4.83
601.959	4.61
602.296	4.79
602.632	4.98
602.968	4.68
603.304	4.62
603.64	4.69
603.976	4.67
604.312	4.73
604.648	4.97
604.984	4.67
605.319	4.59
605.655	4.69
605.991	4.52
606.326	4.63
606.662	4.63
606.998	4.65
607.333	4.65
607.668	4.63
608.004	4.6
608.339	4.6
608.674	4.6
609.01	4.73
609.345	4.78
609.68	4.53
610.015	4.95
610.35	4.64
610.685	4.66
611.02	4.8
611.355	4.69
611.689	4.49
612.024	4.74
612.359	4.76
612.694	4.93
613.028	5
613.363	4.6
613.697	4.83
614.032	4.83
614.366	4.84
614.7	5.12
615.035	4.56
615.369	4.8
615.703	4.93
616.037	4.78
616.371	4.93
616.705	4.96
617.039	4.71
617.373	4.93
617.707	4.43
618.041	4.96
618.375	4.68
618.709	4.77
619.042	4.75
619.376	4.53
619.71	4.87
620.043	4.84
620.377	4.84
620.71	4.53
621.043	4.92
621.377	4.71
621.71	5.06
622.043	4.88
622.376	4.73
622.709	4.8
623.043	4.63
623.376	4.92
623.709	4.78
624.041	4.71
624.374	4.77
624.707	4.73
625.04	5.23
625.373	4.78
625.705	5.02
626.038	4.8
626.37	4.66
626.703	4.96
627.035	4.97
627.368	4.97
627.7	4.63
628.032	4.96
628.365	4.57
628.697	4.64
629.029	5.15
629.361	4.57
629.693	5.02
630.025	4.62
630.357	4.83
630.689	5.23
631.021	4.96
631.353	5.08
631.684	4.93
632.016	4.64
632.348	5.13
632.679	4.81
633.011	4.94
633.342	5
633.674	4.97
634.005	4.77
634.336	5.01
634.668	5.19
634.999	4.63
635.33	5.02
635.661	4.95
635.992	4.79
636.323	4.79
636.654	4.75
636.985	4.73
637.316	4.97
637.647	5.17
637.977	4.9
638.308	4.89
638.639	4.74
638.969	4.93
639.3	5.03
639.63	4.91
639.961	4.82
640.291	4.88
640.622	4.99
640.952	4.65
641.282	4.59
641.612	4.86
641.943	4.91
642.273	4.98
642.603	5.07
642.933	4.79
643.263	5.31
643.592	4.87
643.922	5.4
644.252	4.87
644.582	4.88
644.911	4.46
645.241	4.7
645.571	5.06
645.9	5.06
646.23	4.67
646.559	5.37
646.888	4.87
647.218	5.19
647.547	5.08
647.876	5.02
648.205	5.02
648.534	5.03
648.863	5.24
649.192	4.73
649.521	4.96
649.85	4.98
650.179	4.62
650.508	5.16
650.837	4.97
651.165	4.87
651.494	4.9
651.822	4.9
652.151	5.54
652.479	4.99
652.808	4.7
653.136	4.89
653.465	4.99
653.793	5.38
654.121	5.01
654.449	4.9
654.777	5.24
655.105	4.97
655.433	5.09
655.761	4.59
656.089	4.8
656.417	4.61
656.745	5.3
657.073	5.27
657.4	5.19
657.728	4.92
658.056	5.05
658.383	5.17
658.711	5.08
659.038	5.06
659.365	5.34
659.693	4.71
660.02	4.83
660.347	4.91
660.674	4.9
661.001	4.53
661.329	4.99
661.656	4.85
661.982	5.19
662.309	5
662.636	4.77
662.963	5.29
663.29	5.09
663.616	5.18
663.943	4.8
664.27	5.45
664.596	5.04
664.923	5.39
665.249	4.86
665.576	4.59
665.902	4.84
666.228	4.62
666.554	4.74
666.881	5.3
667.207	4.89
667.533	5.46
667.859	4.89
668.185	5.2
668.511	4.75
668.837	4.8
669.162	5.02
669.488	5.02
669.814	5.31
670.139	5.34
670.465	5.5
670.791	4.94
671.116	5
671.442	4.87
671.767	5.34
672.092	5.6
672.418	5.21
672.743	5.03
673.068	4.95
673.393	5.06
673.718	5.24
674.043	4.82
674.368	5.92
674.693	5.62
675.018	5.14
675.343	5.28
675.667	5.07
675.992	4.56
676.317	5.25
676.641	5.4
676.966	5.28
677.29	4.92
677.615	5.06
677.939	5.59
678.264	5.17
678.588	5.93
678.912	5.83
679.236	5.43
679.56	5.56
679.885	5.37
680.209	4.79
680.532	5.19
680.856	5.65
681.18	5.4
681.504	4.81
681.828	5.22
682.152	4.95
682.475	5.05
682.799	5.32
683.122	5.17
683.446	5.1
683.769	5.27
684.093	5.4
684.416	5.2
684.739	5.43
685.062	5.71
685.386	4.89
685.709	4.76
686.032	5.12
686.355	5.38
686.678	5.38
687.001	4.5
687.324	4.51
687.646	4.73
687.969	5.12
688.292	5.42
688.614	5.8
688.937	5.56
689.26	5
689.582	4.88
689.904	5.29
690.227	4.81
690.549	5.36
690.871	5.16
691.194	5.89
691.516	5.14
691.838	5.37
692.16	4.9
692.482	5.81
692.804	5.14
693.126	4.73
693.448	5.29
693.769	5.1
