Data from 0060_crown_Reflection__2__160.txt Node

Date: Fri Dec 16 15:16:37 CST 2022
User: ToomeyLab
Spectrometer: FLMS14357
Trigger mode: 0
Integration Time (sec): 1.000000E-2
Scans to average: 100
Electric dark correction enabled: true
Nonlinearity correction enabled: false
Boxcar width: 0
XAxis mode: Wavelengths
Number of Pixels in Spectrum: 2048
>>>>>Begin Spectral Data<<<<<
189.047	-46.14
189.435	-46.14
189.823	-46.14
190.211	277.69
190.599	-111.7
190.987	-108.44
191.375	15.54
191.763	287.86
192.151	-412.73
192.538	48.51
192.926	-58.87
193.314	428.07
193.702	267.04
194.089	61.25
194.477	-165.04
194.864	61.19
195.252	290.04
195.639	86.62
196.027	437.3
196.414	21.53
196.801	-69.67
197.189	115.02
197.576	424.67
197.963	48.07
198.351	48.86
198.738	-42.29
199.125	57.19
199.512	13.44
199.899	-75.06
200.286	-126.51
200.673	11.73
201.06	42.09
201.447	46.5
201.833	-12.16
202.22	6.19
202.607	-9.55
202.994	-0.42
203.38	-68.34
203.767	-67.55
204.154	-39.34
204.54	-3.3
204.927	13.71
205.313	37.03
205.699	-1.44
206.086	6.34
206.472	-3.23
206.858	5.75
207.245	23.24
207.631	10.28
208.017	-0.42
208.403	14.97
208.789	-9.11
209.175	22.06
209.561	5.98
209.947	-33.97
210.333	-3.25
210.719	-2.14
211.105	-41.24
211.491	-14.45
211.876	-32.29
212.262	-6.4
212.648	-15.84
213.034	-5.62
213.419	21.03
213.805	-2.3
214.19	9.21
214.576	-14.74
214.961	-31.19
215.346	-47.34
215.732	-33.54
216.117	-8.48
216.502	-43.71
216.888	0.62
217.273	10.02
217.658	-4.06
218.043	-11.32
218.428	2.09
218.813	-2.12
219.198	-10.39
219.583	-8.34
219.968	-18.77
220.353	-4.9
220.738	-23.03
221.122	-18.78
221.507	-11.2
221.892	-10.47
222.276	1.8
222.661	-0.07
223.046	3.22
223.43	-3.97
223.815	10.97
224.199	8.58
224.583	8.83
224.968	0.48
225.352	-3.1
225.736	0.6
226.121	-6.03
226.505	1.14
226.889	1.13
227.273	2.14
227.657	0.73
228.041	3.83
228.425	4.65
228.809	4.57
229.193	3.04
229.577	2.96
229.961	2.79
230.344	4.57
230.728	4.42
231.112	3.57
231.495	2.71
231.879	4.15
232.263	2.15
232.646	1.66
233.03	2.49
233.413	3
233.797	5.29
234.18	2.77
234.563	2.8
234.946	3.49
235.33	4.43
235.713	2.65
236.096	2.78
236.479	2.68
236.862	4.03
237.245	4.16
237.628	3.85
238.011	4.03
238.394	5.08
238.777	4.6
239.16	1.46
239.543	1.76
239.925	4.41
240.308	3.42
240.691	2.91
241.073	2.06
241.456	3.61
241.838	3.47
242.221	3.25
242.603	3.41
242.986	3.94
243.368	3.48
243.75	3.35
244.133	3.52
244.515	3.91
244.897	3.65
245.279	3.16
245.661	3.38
246.043	3.43
246.425	2.81
246.807	3.56
247.189	3.66
247.571	3.62
247.953	3.56
248.335	3.76
248.717	3.63
249.098	3.89
249.48	3.51
249.862	3.85
250.243	3.76
250.625	3.33
251.006	3.26
251.388	3.81
251.769	2.89
252.151	4.27
252.532	2.47
252.913	3.48
253.295	3.68
253.676	3.28
254.057	3.06
254.438	3.16
254.819	3.07
255.2	2.99
255.581	2.67
255.962	3.16
256.343	3.41
256.724	3.8
257.105	2.94
257.486	3.78
257.867	2.33
258.247	3.32
258.628	4.28
259.009	3.35
259.389	3.96
259.77	3.06
260.15	4.14
260.531	3.66
260.911	3.28
261.292	3.17
261.672	3.18
262.052	3.18
262.432	3.13
262.813	3.38
263.193	3.2
263.573	3.4
263.953	2.97
264.333	3.52
264.713	3.08
265.093	2.58
265.473	3.75
265.853	2.55
266.233	2.57
266.612	3.04
266.992	3.69
267.372	3.41
267.752	2.89
268.131	3.14
268.511	3.25
268.89	3.69
269.27	3.59
269.649	3.86
270.029	3.43
270.408	3.41
270.787	3.41
271.167	3.01
271.546	2.57
271.925	3.32
272.304	3.39
272.683	3.14
273.062	3.68
273.441	3.51
273.82	3.51
274.199	3.22
274.578	2.84
274.957	3.21
275.336	3.26
275.715	3.54
276.093	3.62
276.472	2.94
276.851	3.55
277.229	4.07
277.608	2.71
277.986	3.42
278.365	2.78
278.743	3.88
279.122	3.06
279.5	2.47
279.878	2.26
280.257	3.21
280.635	2.38
281.013	3.36
281.391	2.99
281.769	3.21
282.147	2.9
282.525	2.55
282.903	3.16
283.281	2.96
283.659	3.02
284.037	3.01
284.415	3.42
284.792	3.24
285.17	2.86
285.548	3.08
285.925	3.08
286.303	2.8
286.68	3.16
287.058	2.78
287.435	2.8
287.813	2.85
288.19	3.27
288.567	2.55
288.945	3.13
289.322	2.95
289.699	3.07
290.076	3.2
290.453	3.24
290.83	3.19
291.207	2.94
291.584	2.61
291.961	2.95
292.338	2.95
292.715	2.83
293.092	3.05
293.469	3.53
293.845	3.44
294.222	2.73
294.599	3.34
294.975	3.37
295.352	2.45
295.728	3
296.105	2.81
296.481	3.47
296.858	3.09
297.234	2.9
297.61	2.82
297.986	3
298.363	2.43
298.739	3
299.115	2.47
299.491	2.93
299.867	3.23
300.243	2.6
300.619	2.76
300.995	2.95
301.371	2.89
301.746	2.8
302.122	3.28
302.498	2.93
302.874	2.85
303.249	2.79
303.625	2.77
304	2.34
304.376	2.71
304.751	2.93
305.127	2.63
305.502	3.4
305.878	2.83
306.253	2.3
306.628	2.96
307.003	3.15
307.378	2.22
307.754	3.1
308.129	2.21
308.504	2.62
308.879	2.88
309.254	3.57
309.629	2.61
310.003	3.01
310.378	2.83
310.753	2.82
311.128	2.75
311.502	2.74
311.877	2.64
312.252	2.77
312.626	2.34
313.001	2.61
313.375	2.73
313.75	2.66
314.124	2.97
314.498	2.58
314.873	2.79
315.247	2.75
315.621	3.12
315.995	2.56
316.369	2.81
316.743	2.66
317.117	2.77
317.491	2.82
317.865	2.35
318.239	3.01
318.613	2.61
318.987	2.55
319.361	2.3
319.734	2.65
320.108	2.63
320.482	2.94
320.855	2.52
321.229	3.14
321.602	2.6
321.976	2.99
322.349	2.03
322.723	1.91
323.096	2.26
323.469	2.35
323.843	2.38
324.216	2.46
324.589	2.64
324.962	3.06
325.335	2.3
325.708	2.95
326.081	2.93
326.454	2.73
326.827	3
327.2	2.94
327.573	3.14
327.945	2.83
328.318	2.95
328.691	2.51
329.063	2.34
329.436	2.8
329.809	2.43
330.181	2.52
330.553	2.6
330.926	3.05
331.298	2.29
331.671	2.1
332.043	2.7
332.415	2.88
332.787	3.18
333.159	2.48
333.532	2.52
333.904	2.89
334.276	2.59
334.648	2.83
335.02	2.79
335.391	2.7
335.763	2.56
336.135	2.94
336.507	2.89
336.879	2.76
337.25	2.9
337.622	2.55
337.993	2.26
338.365	3.09
338.736	2.96
339.108	2.54
339.479	2.3
339.851	3.23
340.222	2.71
340.593	2.43
340.964	2.65
341.336	2.04
341.707	2.56
342.078	2.28
342.449	2.81
342.82	2.63
343.191	2.46
343.562	2.71
343.933	2.6
344.303	2.77
344.674	2.7
345.045	2.89
345.416	2.86
345.786	1.96
346.157	2.9
346.527	2.63
346.898	2.61
347.268	2.47
347.639	2.4
348.009	2.66
348.38	2.48
348.75	3.12
349.12	2.74
349.49	2.64
349.861	2.6
350.231	3
350.601	2.7
350.971	2.71
351.341	2.58
351.711	2.48
352.081	2.83
352.45	2.76
352.82	2.93
353.19	2.52
353.56	2.6
353.929	2.68
354.299	2.76
354.669	2.66
355.038	2.69
355.408	3.25
355.777	2.69
356.147	3.09
356.516	3.15
356.885	2.58
357.254	3.02
357.624	2.92
357.993	2.95
358.362	2.96
358.731	2.62
359.1	3.05
359.469	2.82
359.838	2.45
360.207	2.74
360.576	2.97
360.945	2.65
361.314	3.01
361.682	2.64
362.051	2.54
362.42	3.01
362.788	2.9
363.157	2.73
363.525	2.7
363.894	2.65
364.262	2.84
364.631	3.62
364.999	2.57
365.367	2.87
365.735	2.56
366.104	2.64
366.472	2.83
366.84	2.84
367.208	2.49
367.576	2.83
367.944	3.19
368.312	2.59
368.68	2.88
369.048	3.05
369.416	3.01
369.783	2.59
370.151	3.14
370.519	2.74
370.886	2.84
371.254	2.95
371.621	2.92
371.989	2.92
372.356	2.64
372.724	2.77
373.091	3.15
373.458	2.77
373.826	2.76
374.193	2.95
374.56	2.64
374.927	2.71
375.294	3.2
375.661	3.07
376.028	2.82
376.395	2.69
376.762	3.3
377.129	2.9
377.496	2.84
377.863	2.87
378.229	2.88
378.596	2.94
378.963	2.68
379.329	2.95
379.696	3.09
380.062	3.34
380.429	3.15
380.795	2.72
381.161	2.65
381.528	2.51
381.894	2.9
382.26	3.02
382.626	2.78
382.993	2.49
383.359	2.68
383.725	3.08
384.091	3.24
384.457	2.97
384.823	2.86
385.188	2.92
385.554	2.84
385.92	3.23
386.286	3.1
386.651	2.91
387.017	3.16
387.383	2.99
387.748	2.95
388.114	2.94
388.479	2.96
388.845	3.05
389.21	2.97
389.575	2.96
389.94	3.11
390.306	3.01
390.671	2.94
391.036	3.01
391.401	3.04
391.766	3.06
392.131	3.04
392.496	2.89
392.861	2.94
393.226	3.04
393.591	2.99
393.956	3.01
394.32	2.8
394.685	3.26
395.05	2.96
395.414	2.98
395.779	2.83
396.143	2.92
396.508	3.04
396.872	3.07
397.236	2.5
397.601	3.1
397.965	2.67
398.329	3.17
398.694	2.78
399.058	2.99
399.422	3.03
399.786	3.08
400.15	3.18
400.514	2.95
400.878	2.97
401.242	3.1
401.605	3
401.969	2.87
402.333	2.93
402.697	3.22
403.06	3.18
403.424	3.04
403.787	3.25
404.151	3
404.514	3.18
404.878	3.26
405.241	3
405.604	3.2
405.968	2.93
406.331	3
406.694	3.15
407.057	3.44
407.42	2.79
407.783	2.94
408.146	2.91
408.509	2.77
408.872	2.83
409.235	3.04
409.598	3.17
409.961	3.13
410.323	3.27
410.686	3.04
411.049	2.94
411.411	2.98
411.774	2.89
412.136	3.18
412.499	3.02
412.861	2.99
413.223	3.05
413.586	3.04
413.948	3.16
414.31	3.04
414.672	3.17
415.035	3.17
415.397	3
415.759	2.96
416.121	3.34
416.483	3.22
416.845	3.16
417.206	3.2
417.568	3
417.93	2.94
418.292	3.1
418.653	2.95
419.015	2.98
419.377	3.17
419.738	3.08
420.1	3.14
420.461	3.01
420.822	3.11
421.184	3.04
421.545	3.04
421.906	3.14
422.267	2.96
422.629	3.04
422.99	3.07
423.351	3.05
423.712	3.1
424.073	3.12
424.434	2.98
424.795	3.02
425.155	3.02
425.516	2.95
425.877	3.07
426.238	2.9
426.598	3.07
426.959	2.95
427.32	3.17
427.68	3.08
428.041	3.07
428.401	2.89
428.761	3.12
429.122	3.07
429.482	2.9
429.842	3.09
430.202	3.06
430.563	3.19
430.923	3.12
431.283	3.25
431.643	3.14
432.003	3.16
432.363	3.19
432.722	3.13
433.082	3.19
433.442	3.12
433.802	3.14
434.161	3.15
434.521	3.13
434.881	3.23
435.24	3.08
435.6	3.01
435.959	3
436.319	3.18
436.678	3.21
437.037	3.21
437.396	3.14
437.756	3.1
438.115	3.17
438.474	3.25
438.833	3.18
439.192	3.23
439.551	3.13
439.91	3.11
440.269	3.13
440.628	3.14
440.987	3.14
441.345	3.13
441.704	3.21
442.063	3.08
442.421	3.03
442.78	3.07
443.138	2.98
443.497	3.02
443.855	3.05
444.214	3.28
444.572	3.09
444.93	3.14
445.288	3.21
445.647	3.29
446.005	2.95
446.363	3
446.721	2.92
447.079	3.07
447.437	3.06
447.795	3.08
448.153	3.05
448.51	3.12
448.868	3.25
449.226	3.07
449.584	3.06
449.941	3.2
450.299	3.12
450.656	3.21
451.014	3.18
451.371	3.13
451.729	3.14
452.086	3.09
452.443	3.03
452.801	3.22
453.158	3.22
453.515	3.11
453.872	3.15
454.229	3.17
454.586	3.01
454.943	3.2
455.3	3.33
455.657	3.06
456.014	3.29
456.371	3.36
456.727	3.07
457.084	3.18
457.441	3.08
457.797	3.2
458.154	3.15
458.51	3.06
458.867	3.06
459.223	3.31
459.58	3.24
459.936	3.06
460.292	3.17
460.648	3.09
461.005	3.06
461.361	3.12
461.717	3.16
462.073	3.2
462.429	3.17
462.785	3.21
463.141	3.25
463.496	3.21
463.852	3.22
464.208	3.27
464.564	3.18
464.919	3.14
465.275	3.27
465.631	3.45
465.986	3.21
466.342	3.3
466.697	3.26
467.052	3.28
467.408	3.12
467.763	3.05
468.118	3.09
468.473	3.38
468.829	3.19
469.184	3.31
469.539	3.2
469.894	3.35
470.249	3.31
470.603	3.3
470.958	3.25
471.313	3.06
471.668	3.27
472.023	3.39
472.377	3.15
472.732	3.22
473.086	3.14
473.441	3.28
473.795	3.42
474.15	3.24
474.504	3.22
474.859	3.27
475.213	3.26
475.567	3.21
475.921	3.31
476.275	3.36
476.63	3.27
476.984	3.25
477.338	3.47
477.692	3.2
478.045	3.28
478.399	3.28
478.753	3.17
479.107	3.23
479.461	3.33
479.814	3.22
480.168	3.26
480.521	3.26
480.875	3.46
481.228	3.39
481.582	3.22
481.935	3.29
482.289	3.11
482.642	3.22
482.995	3.17
483.348	3.24
483.701	3.16
484.055	3.2
484.408	3.12
484.761	2.97
485.114	2.98
485.466	3.01
485.819	3.06
486.172	3.16
486.525	3.23
486.878	3.24
487.23	3.22
487.583	3.17
487.936	3.24
488.288	3.14
488.641	3.14
488.993	3.03
489.345	3.12
489.698	3.2
490.05	3.18
490.402	3.23
490.754	3.26
491.107	3.25
491.459	3.35
491.811	3.31
492.163	3.29
492.515	3.2
492.866	3.06
493.218	3.11
493.57	3.17
493.922	3.2
494.274	3.29
494.625	3.25
494.977	3.32
495.328	3.37
495.68	3.45
496.031	3.38
496.383	3.33
496.734	3.42
497.086	3.3
497.437	3.43
497.788	3.41
498.139	3.3
498.49	3.33
498.842	3.29
499.193	3.26
499.544	3.52
499.894	3.26
500.245	3.28
500.596	3.33
500.947	3.32
501.298	3.33
501.648	3.35
501.999	3.46
502.35	3.34
502.7	3.41
503.051	3.49
503.401	3.39
503.752	3.32
504.102	3.36
504.452	3.34
504.803	3.37
505.153	3.42
505.503	3.31
505.853	3.32
506.203	3.45
506.553	3.29
506.903	3.32
507.253	3.38
507.603	3.32
507.953	3.41
508.303	3.49
508.652	3.42
509.002	3.32
509.352	3.37
509.701	3.34
510.051	3.45
510.4	3.37
510.75	3.36
511.099	3.23
511.449	3.35
511.798	3.46
512.147	3.37
512.496	3.38
512.846	3.42
513.195	3.37
513.544	3.36
513.893	3.25
514.242	3.56
514.591	3.46
514.939	3.39
515.288	3.46
515.637	3.45
515.986	3.42
516.334	3.56
516.683	3.37
517.032	3.31
517.38	3.46
517.729	3.41
518.077	3.49
518.426	3.42
518.774	3.32
519.122	3.35
519.47	3.33
519.819	3.41
520.167	3.34
520.515	3.3
520.863	3.39
521.211	3.45
521.559	3.5
521.907	3.51
522.255	3.5
522.602	3.48
522.95	3.5
523.298	3.44
523.645	3.32
523.993	3.53
524.341	3.37
524.688	3.46
525.036	3.55
525.383	3.53
525.73	3.42
526.078	3.42
526.425	3.41
526.772	3.23
527.119	3.31
527.466	3.35
527.814	3.33
528.161	3.39
528.508	3.44
528.854	3.37
529.201	3.33
529.548	3.21
529.895	3.19
530.242	3.16
530.588	3.32
530.935	3.37
531.282	3.38
531.628	3.35
531.975	3.42
532.321	3.46
532.667	3.42
533.014	3.47
533.36	3.42
533.706	3.42
534.052	3.37
534.399	3.3
534.745	3.29
535.091	3.34
535.437	3.44
535.783	3.51
536.129	3.48
536.474	3.45
536.82	3.46
537.166	3.55
537.512	3.37
537.857	3.41
538.203	3.39
538.549	3.49
538.894	3.43
539.239	3.65
539.585	3.5
539.93	3.61
540.276	3.53
540.621	3.42
540.966	3.5
541.311	3.54
541.656	3.46
542.001	3.41
542.346	3.33
542.691	3.3
543.036	3.3
543.381	3.41
543.726	3.46
544.071	3.49
544.415	3.41
544.76	3.35
545.105	3.51
545.449	3.42
545.794	3.5
546.138	3.54
546.483	3.56
546.827	3.43
547.171	3.52
547.516	3.73
547.86	3.37
548.204	3.53
548.548	3.56
548.892	3.48
549.236	3.56
549.58	3.57
549.924	3.54
550.268	3.66
550.612	3.69
550.956	3.53
551.3	3.55
551.643	3.67
551.987	3.44
552.33	3.54
552.674	3.67
553.017	3.61
553.361	3.57
553.704	3.55
554.048	3.57
554.391	3.63
554.734	3.55
555.077	3.59
555.42	3.47
555.764	3.6
556.107	3.54
556.45	3.55
556.793	3.77
557.135	3.68
557.478	3.8
557.821	3.45
558.164	3.66
558.507	3.42
558.849	3.6
559.192	3.59
559.534	3.55
559.877	3.64
560.219	3.9
560.562	3.79
560.904	3.57
561.246	3.82
561.589	3.61
561.931	3.75
562.273	3.6
562.615	3.62
562.957	3.83
563.299	3.6
563.641	3.71
563.983	3.6
564.325	3.51
564.667	3.71
565.008	3.72
565.35	3.84
565.692	3.86
566.033	3.8
566.375	3.59
566.716	3.61
567.058	3.71
567.399	3.71
567.741	3.68
568.082	3.57
568.423	3.73
568.764	3.72
569.105	3.79
569.447	3.81
569.788	3.69
570.129	3.67
570.47	3.75
570.811	3.61
571.151	3.7
571.492	3.82
571.833	3.57
572.174	3.72
572.514	3.8
572.855	3.82
573.195	3.47
573.536	3.64
573.876	3.73
574.217	3.8
574.557	3.74
574.898	3.66
575.238	3.61
575.578	3.83
575.918	3.71
576.258	3.68
576.598	3.75
576.938	3.92
577.278	3.64
577.618	3.63
577.958	3.59
578.298	3.82
578.638	3.62
578.977	3.79
579.317	3.81
579.657	3.8
579.996	3.66
580.336	3.49
580.675	3.87
581.014	3.74
581.354	4
581.693	3.77
582.032	3.65
582.372	3.82
582.711	3.83
583.05	3.82
583.389	3.88
583.728	3.75
584.067	3.76
584.406	3.71
584.745	3.64
585.083	3.94
585.422	3.96
585.761	3.86
586.1	3.85
586.438	3.79
586.777	3.97
587.115	3.87
587.454	3.75
587.792	3.37
588.13	4.06
588.469	3.81
588.807	3.98
589.145	3.78
589.483	3.65
589.821	4.06
590.159	3.79
590.497	3.67
590.835	3.68
591.173	3.82
591.511	3.81
591.849	3.95
592.187	3.87
592.524	3.79
592.862	3.64
593.2	3.73
593.537	3.72
593.875	3.93
594.212	3.97
594.55	3.63
594.887	3.95
595.224	3.31
595.561	3.58
595.899	3.71
596.236	3.88
596.573	3.99
596.91	3.89
597.247	3.89
597.584	4.08
597.921	3.86
598.258	3.88
598.594	3.5
598.931	3.8
599.268	3.66
599.604	3.86
599.941	3.74
600.277	3.95
600.614	3.76
600.95	3.91
601.287	4.03
601.623	3.81
601.959	3.74
602.296	3.96
602.632	3.98
602.968	3.86
603.304	3.72
603.64	3.89
603.976	3.92
604.312	4
604.648	3.73
604.984	3.8
605.319	3.84
605.655	3.82
605.991	3.8
606.326	3.72
606.662	3.75
606.998	3.87
607.333	3.89
607.668	3.85
608.004	3.89
608.339	3.78
608.674	3.8
609.01	4.09
609.345	4.18
609.68	3.57
610.015	3.87
610.35	3.9
610.685	3.97
611.02	3.94
611.355	3.92
611.689	3.78
612.024	4.08
612.359	4.04
612.694	3.95
613.028	4.04
613.363	3.78
613.697	4
614.032	3.86
614.366	4
614.7	4.2
615.035	4.03
615.369	4.03
615.703	4.23
616.037	3.84
616.371	3.68
616.705	3.78
617.039	4.01
617.373	3.88
617.707	4
618.041	3.97
618.375	3.74
618.709	4
619.042	3.93
619.376	3.74
619.71	3.84
620.043	3.8
620.377	3.91
620.71	3.87
621.043	3.87
621.377	3.85
621.71	3.84
622.043	4.04
622.376	4.01
622.709	4.25
623.043	4.05
623.376	4.21
623.709	4.1
624.041	3.85
624.374	3.68
624.707	3.86
625.04	4.13
625.373	3.97
625.705	3.96
626.038	3.85
626.37	3.72
626.703	3.84
627.035	3.58
627.368	4.2
627.7	4.18
628.032	3.89
628.365	3.83
628.697	3.93
629.029	4.04
629.361	3.82
629.693	4.31
630.025	4.01
630.357	4
630.689	4.34
631.021	4.18
631.353	4.15
631.684	3.93
632.016	3.73
632.348	4.01
632.679	3.87
633.011	3.83
633.342	4.27
633.674	3.94
634.005	4.35
634.336	3.73
634.668	4.12
634.999	3.99
635.33	3.84
635.661	4.12
635.992	3.78
636.323	3.94
636.654	4.15
636.985	3.83
637.316	3.99
637.647	4.22
637.977	3.9
638.308	3.82
638.639	3.83
638.969	3.94
639.3	3.96
639.63	3.76
639.961	4.21
640.291	4.58
640.622	4.48
640.952	4.06
641.282	3.52
641.612	3.88
641.943	3.97
642.273	3.87
642.603	4.16
642.933	4.44
643.263	4.09
643.592	3.96
643.922	4.76
644.252	4.24
644.582	3.92
644.911	4.16
645.241	4.06
645.571	3.85
645.9	4.17
646.23	4.22
646.559	4
646.888	3.92
647.218	4.02
647.547	4.29
647.876	4.07
648.205	3.76
648.534	4.06
648.863	4.3
649.192	3.9
649.521	3.69
649.85	4.55
650.179	3.7
650.508	4
650.837	4.25
651.165	3.94
651.494	4.27
651.822	4.38
652.151	4.27
652.479	4.46
652.808	3.96
653.136	4.13
653.465	4.14
653.793	4.61
654.121	4.45
654.449	4.35
654.777	3.88
655.105	4.59
655.433	4.25
655.761	4.2
656.089	4.17
656.417	4.1
656.745	4.98
657.073	4.53
657.4	4.23
657.728	4.29
658.056	4.41
658.383	4.51
658.711	3.84
659.038	4.2
659.365	4.55
659.693	3.75
660.02	4.08
660.347	4.31
660.674	4.09
661.001	3.91
661.329	4.32
661.656	3.93
661.982	4.41
662.309	4.21
662.636	4.16
662.963	4.45
663.29	4.19
663.616	4.31
663.943	4.49
664.27	4.4
664.596	4.02
664.923	4.19
665.249	3.9
665.576	4.66
665.902	4.21
666.228	4.08
666.554	3.77
666.881	4.57
667.207	4.14
667.533	4.41
667.859	3.89
668.185	4.34
668.511	4.03
668.837	3.31
669.162	4.07
669.488	4.08
669.814	5
670.139	4.51
670.465	4.47
670.791	4.43
671.116	4.55
671.442	4.22
671.767	4
672.092	4.54
672.418	4.22
672.743	4.25
673.068	4.07
673.393	3.81
673.718	4.03
674.043	4.6
674.368	4.77
674.693	4.34
675.018	4.44
675.343	4.38
675.667	4.06
675.992	4.27
676.317	4.38
676.641	4.6
676.966	4.14
677.29	4.57
677.615	4.52
677.939	4.04
678.264	4.33
678.588	3.98
678.912	5.15
679.236	4.7
679.56	4.13
679.885	4.63
680.209	3.78
680.532	4.25
680.856	5.34
681.18	4.42
681.504	3.99
681.828	3.99
682.152	4.16
682.475	4.09
682.799	4.32
683.122	3.65
683.446	4.09
683.769	4.28
684.093	4.46
684.416	4.15
684.739	4.48
685.062	4.69
685.386	4.42
685.709	4.42
686.032	4.81
686.355	4.75
686.678	4.23
687.001	3.88
687.324	4.31
687.646	4.31
687.969	4.58
688.292	4.93
688.614	4.84
688.937	4.17
689.26	4.28
689.582	3.7
689.904	4.61
690.227	4.05
690.549	4.17
690.871	4.56
691.194	4.72
691.516	3.78
691.838	4.33
692.16	4.46
692.482	5.13
692.804	3.68
693.126	3.98
