Data from 0060_crown_Reflection__3__161.txt Node

Date: Fri Dec 16 15:16:47 CST 2022
User: ToomeyLab
Spectrometer: FLMS14357
Trigger mode: 0
Integration Time (sec): 1.000000E-2
Scans to average: 100
Electric dark correction enabled: true
Nonlinearity correction enabled: false
Boxcar width: 0
XAxis mode: Wavelengths
Number of Pixels in Spectrum: 2048
>>>>>Begin Spectral Data<<<<<
189.047	161.62
189.435	161.62
189.823	161.62
190.211	433.77
190.599	95.4
190.987	124.98
191.375	7.34
191.763	342.68
192.151	-171.16
192.538	0.47
192.926	132.75
193.314	461.48
193.702	71.08
194.089	477.5
194.477	-180.27
194.864	-90.49
195.252	-295.86
195.639	88.33
196.027	463.56
196.414	44.43
196.801	96.22
197.189	62.83
197.576	-91.44
197.963	24.22
198.351	20.17
198.738	-16.13
199.125	42.37
199.512	11.17
199.899	-32.96
200.286	-48.78
200.673	-3.41
201.06	-1.84
201.447	23.03
201.833	17.82
202.22	1.97
202.607	25.96
202.994	-5.21
203.38	-57.04
203.767	-15.2
204.154	-72.42
204.54	28.91
204.927	34.26
205.313	37.42
205.699	-16.81
206.086	-5.74
206.472	9.49
206.858	-26.99
207.245	6.57
207.631	-5.45
208.017	24.21
208.403	-6.29
208.789	12.83
209.175	37.41
209.561	-0.1
209.947	-1.21
210.333	12.2
210.719	-8.33
211.105	-14.64
211.491	0.37
211.876	-42.84
212.262	-56.96
212.648	1.73
213.034	1.28
213.419	17.32
213.805	2.37
214.19	7.68
214.576	-29.4
214.961	-22.93
215.346	-52.83
215.732	2.24
216.117	-23.17
216.502	-31.23
216.888	-24.37
217.273	11.05
217.658	2.7
218.043	6.87
218.428	-20.14
218.813	11.94
219.198	-19.18
219.583	-17.46
219.968	15.86
220.353	13.8
220.738	-12.11
221.122	19.6
221.507	2.14
221.892	8.99
222.276	7.96
222.661	-8.03
223.046	-2.91
223.43	-5.62
223.815	0.79
224.199	6.45
224.583	-0.35
224.968	7.16
225.352	-4.31
225.736	-0.12
226.121	-2.69
226.505	1.98
226.889	10.39
227.273	3.93
227.657	4.33
228.041	1.72
228.425	5.43
228.809	3.95
229.193	3.41
229.577	3
229.961	4.05
230.344	4.76
230.728	4.66
231.112	3.82
231.495	4.15
231.879	4.9
232.263	3.68
232.646	3.16
233.03	2.13
233.413	2.64
233.797	5.8
234.18	2.48
234.563	3.45
234.946	3.46
235.33	3.94
235.713	3.78
236.096	3.12
236.479	4.25
236.862	5.53
237.245	6.61
237.628	4.72
238.011	3.52
238.394	5.87
238.777	3.1
239.16	2.75
239.543	4.22
239.925	4.97
240.308	3.64
240.691	4.89
241.073	4.59
241.456	4.61
241.838	4.5
242.221	4.66
242.603	4.4
242.986	4.68
243.368	3.92
243.75	4.36
244.133	3.9
244.515	4.26
244.897	4.25
245.279	3.86
245.661	4.15
246.043	3.92
246.425	3.37
246.807	4.1
247.189	3.87
247.571	4.42
247.953	3.77
248.335	4.13
248.717	3.88
249.098	3.93
249.48	3.97
249.862	3.91
250.243	3.92
250.625	4.05
251.006	4.41
251.388	4.42
251.769	3.92
252.151	3.19
252.532	3.3
252.913	3.82
253.295	3.86
253.676	4.19
254.057	3.31
254.438	3.67
254.819	3.77
255.2	4.13
255.581	3.82
255.962	3.34
256.343	4.5
256.724	3.21
257.105	4.89
257.486	4.16
257.867	2.27
258.247	3.8
258.628	4.28
259.009	3.48
259.389	3.65
259.77	3.57
260.15	4.08
260.531	3.71
260.911	3.65
261.292	3.57
261.672	3.64
262.052	3.63
262.432	3.42
262.813	3.93
263.193	3.32
263.573	3.82
263.953	3.55
264.333	4.26
264.713	3.51
265.093	3.41
265.473	4.47
265.853	3.73
266.233	3.6
266.612	4.6
266.992	3.37
267.372	3.19
267.752	3.2
268.131	3.64
268.511	3.75
268.89	3.9
269.27	3.83
269.649	4.16
270.029	3.2
270.408	3.88
270.787	3.7
271.167	3.99
271.546	2.98
271.925	3.58
272.304	3.6
272.683	3.7
273.062	3.8
273.441	3.93
273.82	3.81
274.199	4.15
274.578	3.15
274.957	3.52
275.336	3.38
275.715	3.71
276.093	3.97
276.472	3.55
276.851	4.02
277.229	4.05
277.608	3.23
277.986	3.28
278.365	3.06
278.743	3.44
279.122	3.34
279.5	3.39
279.878	3.18
280.257	3.26
280.635	3.01
281.013	3.71
281.391	3.42
281.769	3.12
282.147	3.37
282.525	2.99
282.903	3.33
283.281	3.28
283.659	3.38
284.037	3.37
284.415	3.49
284.792	3.26
285.17	3.39
285.548	3.49
285.925	3.21
286.303	3.14
286.68	3.19
287.058	3.5
287.435	3.52
287.813	3.69
288.19	3.53
288.567	3.36
288.945	3.31
289.322	3.31
289.699	3.85
290.076	3.45
290.453	3.18
290.83	3.16
291.207	3.48
291.584	2.96
291.961	3.47
292.338	3.13
292.715	3.47
293.092	3.31
293.469	3.45
293.845	3.42
294.222	3.35
294.599	3.14
294.975	3.3
295.352	3.44
295.728	3.49
296.105	3.15
296.481	3.48
296.858	3.54
297.234	3.44
297.61	3.39
297.986	3.13
298.363	2.87
298.739	3.39
299.115	3.11
299.491	3.14
299.867	3.49
300.243	3.56
300.619	3.12
300.995	3.31
301.371	3.19
301.746	2.91
302.122	3.16
302.498	2.91
302.874	3.29
303.249	3.43
303.625	3.09
304	3.37
304.376	3.16
304.751	3.33
305.127	2.93
305.502	3.12
305.878	3.03
306.253	3.15
306.628	3.31
307.003	3.06
307.378	2.69
307.754	3.3
308.129	2.49
308.504	3.18
308.879	3.79
309.254	3.24
309.629	3.23
310.003	3.4
310.378	3
310.753	3.22
311.128	3.18
311.502	2.61
311.877	2.96
312.252	2.66
312.626	2.96
313.001	3.22
313.375	3.27
313.75	3.5
314.124	3.43
314.498	2.69
314.873	2.96
315.247	2.84
315.621	2.89
315.995	2.72
316.369	2.86
316.743	3.76
317.117	2.72
317.491	3.03
317.865	2.36
318.239	3.6
318.613	3.01
318.987	3.21
319.361	2.85
319.734	3.07
320.108	2.99
320.482	3.02
320.855	3.04
321.229	3.42
321.602	3.17
321.976	2.76
322.349	2.26
322.723	2.66
323.096	3.01
323.469	2.62
323.843	2.76
324.216	2.44
324.589	3.7
324.962	2.88
325.335	3.23
325.708	2.77
326.081	3.34
326.454	3.02
326.827	3.02
327.2	2.96
327.573	3.12
327.945	3.26
328.318	3.47
328.691	3.41
329.063	2.71
329.436	2.88
329.809	2.97
330.181	3.18
330.553	2.84
330.926	3.45
331.298	2.82
331.671	2.75
332.043	2.68
332.415	3.43
332.787	3.27
333.159	2.63
333.532	3.41
333.904	2.89
334.276	3.2
334.648	3.14
335.02	3.19
335.391	3.03
335.763	3.14
336.135	2.97
336.507	2.92
336.879	3.22
337.25	2.87
337.622	3.25
337.993	3.24
338.365	3.45
338.736	2.73
339.108	2.67
339.479	3.08
339.851	3.39
340.222	3.4
340.593	2.83
340.964	2.71
341.336	2.52
341.707	2.81
342.078	2.25
342.449	3.23
342.82	2.92
343.191	2.92
343.562	2.97
343.933	3.11
344.303	3.18
344.674	2.98
345.045	3.04
345.416	2.91
345.786	2.91
346.157	2.92
346.527	2.89
346.898	2.92
347.268	2.62
347.639	2.95
348.009	3.42
348.38	2.71
348.75	3.14
349.12	3.31
349.49	2.77
349.861	3.53
350.231	2.9
350.601	2.74
350.971	3.02
351.341	3.35
351.711	3.18
352.081	3.01
352.45	3.31
352.82	3.18
353.19	3.12
353.56	3.11
353.929	3.11
354.299	3.05
354.669	3.08
355.038	3.07
355.408	3.41
355.777	3.21
356.147	3.56
356.516	3.13
356.885	2.77
357.254	2.94
357.624	3.29
357.993	2.8
358.362	3.13
358.731	2.88
359.1	3
359.469	3.04
359.838	3.06
360.207	3.23
360.576	2.98
360.945	2.86
361.314	3.06
361.682	2.83
362.051	3.05
362.42	3.18
362.788	2.93
363.157	2.93
363.525	2.94
363.894	2.76
364.262	2.99
364.631	3.83
364.999	2.7
365.367	3.03
365.735	2.94
366.104	3.02
366.472	3.02
366.84	2.94
367.208	2.82
367.576	2.92
367.944	3.29
368.312	2.78
368.68	2.89
369.048	3.24
369.416	2.99
369.783	3.01
370.151	3.21
370.519	3.14
370.886	3.11
371.254	3.18
371.621	3.25
371.989	3.19
372.356	3.41
372.724	3.19
373.091	2.86
373.458	3
373.826	2.95
374.193	3.59
374.56	3.03
374.927	2.87
375.294	3.49
375.661	3.18
376.028	3.13
376.395	2.84
376.762	3.14
377.129	3.3
377.496	3.46
377.863	3.09
378.229	2.99
378.596	3.18
378.963	3.09
379.329	3.16
379.696	2.99
380.062	3.56
380.429	3.05
380.795	3.06
381.161	2.94
381.528	2.67
381.894	3.08
382.26	3.07
382.626	3.15
382.993	3.12
383.359	3.16
383.725	3.32
384.091	3.3
384.457	3.47
384.823	3.28
385.188	3.33
385.554	3.14
385.92	3.21
386.286	3.32
386.651	3.14
387.017	3.3
387.383	3.3
387.748	2.87
388.114	3.25
388.479	3.34
388.845	3.33
389.21	3.29
389.575	3.47
389.94	3.13
390.306	3.12
390.671	3.06
391.036	3.29
391.401	3.55
391.766	3.36
392.131	3.2
392.496	3.22
392.861	3.12
393.226	3.19
393.591	3.32
393.956	3.41
394.32	3.38
394.685	3.31
395.05	3.06
395.414	3.27
395.779	3.1
396.143	3.41
396.508	3.5
396.872	3.23
397.236	2.96
397.601	3.47
397.965	3.06
398.329	3.35
398.694	3.15
399.058	3.14
399.422	3.24
399.786	3.18
400.15	3.06
400.514	3.23
400.878	3.11
401.242	3.34
401.605	3.27
401.969	3.36
402.333	3.12
402.697	3.33
403.06	3.36
403.424	3.17
403.787	3.24
404.151	3.07
404.514	3.16
404.878	3.42
405.241	3.41
405.604	3.13
405.968	3.37
406.331	3.39
406.694	3.25
407.057	3.45
407.42	3.36
407.783	3.08
408.146	3.42
408.509	3.27
408.872	3.33
409.235	3.54
409.598	3.32
409.961	3.35
410.323	3.25
410.686	3.27
411.049	3.2
411.411	3.16
411.774	3.33
412.136	3.33
412.499	3.21
412.861	3.11
413.223	3.5
413.586	3.17
413.948	3.22
414.31	3.45
414.672	3.4
415.035	3.38
415.397	3.26
415.759	3.2
416.121	3.29
416.483	3.59
416.845	3.31
417.206	3.32
417.568	3.27
417.93	3.04
418.292	3.4
418.653	3.32
419.015	3.35
419.377	3.48
419.738	3.22
420.1	3.3
420.461	3.2
420.822	3.21
421.184	3.32
421.545	3.36
421.906	3.26
422.267	3.15
422.629	3.22
422.99	3.25
423.351	3.24
423.712	3.28
424.073	3.37
424.434	3.26
424.795	3.31
425.155	3.25
425.516	3.23
425.877	3.28
426.238	3.16
426.598	3.24
426.959	3.2
427.32	3.23
427.68	3.52
428.041	3.35
428.401	3.34
428.761	3.23
429.122	3.33
429.482	3.22
429.842	3.34
430.202	3.14
430.563	3.42
430.923	3.34
431.283	3.36
431.643	3.36
432.003	3.37
432.363	3.42
432.722	3.23
433.082	3.15
433.442	3.32
433.802	3.33
434.161	3.21
434.521	3.31
434.881	3.47
435.24	3.33
435.6	3.48
435.959	3.41
436.319	3.28
436.678	3.41
437.037	3.3
437.396	3.33
437.756	3.4
438.115	3.36
438.474	3.3
438.833	3.52
439.192	3.42
439.551	3.39
439.91	3.31
440.269	3.42
440.628	3.42
440.987	3.24
441.345	3.37
441.704	3.34
442.063	3.29
442.421	3.35
442.78	3.26
443.138	3.25
443.497	3.29
443.855	3.46
444.214	3.37
444.572	3.46
444.93	3.42
445.288	3.38
445.647	3.5
446.005	3.24
446.363	3.41
446.721	3.14
447.079	3.34
447.437	3.23
447.795	3.29
448.153	3.34
448.51	3.32
448.868	3.35
449.226	3.3
449.584	3.34
449.941	3.42
450.299	3.36
450.656	3.47
451.014	3.39
451.371	3.32
451.729	3.4
452.086	3.24
452.443	3.34
452.801	3.58
453.158	3.36
453.515	3.31
453.872	3.51
454.229	3.36
454.586	3.24
454.943	3.27
455.3	3.56
455.657	3.26
456.014	3.5
456.371	3.49
456.727	3.28
457.084	3.35
457.441	3.35
457.797	3.45
458.154	3.44
458.51	3.45
458.867	3.32
459.223	3.43
459.58	3.27
459.936	3.32
460.292	3.44
460.648	3.3
461.005	3.25
461.361	3.35
461.717	3.33
462.073	3.31
462.429	3.39
462.785	3.37
463.141	3.43
463.496	3.29
463.852	3.52
464.208	3.45
464.564	3.51
464.919	3.35
465.275	3.35
465.631	3.36
465.986	3.25
466.342	3.4
466.697	3.41
467.052	3.54
467.408	3.33
467.763	3.33
468.118	3.5
468.473	3.45
468.829	3.38
469.184	3.4
469.539	3.3
469.894	3.39
470.249	3.39
470.603	3.42
470.958	3.46
471.313	3.43
471.668	3.59
472.023	3.66
472.377	3.43
472.732	3.29
473.086	3.18
473.441	3.44
473.795	3.75
474.15	3.3
474.504	3.49
474.859	3.51
475.213	3.38
475.567	3.49
475.921	3.56
476.275	3.35
476.63	3.34
476.984	3.37
477.338	3.63
477.692	3.4
478.045	3.41
478.399	3.37
478.753	3.35
479.107	3.39
479.461	3.45
479.814	3.46
480.168	3.34
480.521	3.37
480.875	3.61
481.228	3.43
481.582	3.34
481.935	3.4
482.289	3.44
482.642	3.46
482.995	3.34
483.348	3.33
483.701	3.42
484.055	3.39
484.408	3.34
484.761	3.23
485.114	3.19
485.466	3.22
485.819	3.2
486.172	3.26
486.525	3.3
486.878	3.29
487.23	3.41
487.583	3.35
487.936	3.44
488.288	3.32
488.641	3.29
488.993	3.21
489.345	3.25
489.698	3.35
490.05	3.32
490.402	3.39
490.754	3.44
491.107	3.42
491.459	3.44
491.811	3.46
492.163	3.4
492.515	3.43
492.866	3.24
493.218	3.27
493.57	3.32
493.922	3.38
494.274	3.43
494.625	3.33
494.977	3.48
495.328	3.53
495.68	3.61
496.031	3.55
496.383	3.48
496.734	3.53
497.086	3.32
497.437	3.47
497.788	3.44
498.139	3.46
498.49	3.48
498.842	3.41
499.193	3.48
499.544	3.47
499.894	3.51
500.245	3.56
500.596	3.5
500.947	3.48
501.298	3.48
501.648	3.56
501.999	3.68
502.35	3.59
502.7	3.54
503.051	3.73
503.401	3.57
503.752	3.46
504.102	3.63
504.452	3.34
504.803	3.3
505.153	3.53
505.503	3.42
505.853	3.43
506.203	3.45
506.553	3.47
506.903	3.48
507.253	3.55
507.603	3.44
507.953	3.59
508.303	3.48
508.652	3.54
509.002	3.52
509.352	3.49
509.701	3.5
510.051	3.53
510.4	3.5
510.75	3.57
511.099	3.41
511.449	3.46
511.798	3.7
512.147	3.56
512.496	3.54
512.846	3.43
513.195	3.54
513.544	3.41
513.893	3.4
514.242	3.54
514.591	3.59
514.939	3.46
515.288	3.67
515.637	3.53
515.986	3.47
516.334	3.64
516.683	3.58
517.032	3.49
517.38	3.6
517.729	3.5
518.077	3.65
518.426	3.56
518.774	3.57
519.122	3.44
519.47	3.52
519.819	3.38
520.167	3.45
520.515	3.42
520.863	3.49
521.211	3.42
521.559	3.44
521.907	3.53
522.255	3.6
522.602	3.6
522.95	3.61
523.298	3.61
523.645	3.51
523.993	3.73
524.341	3.58
524.688	3.51
525.036	3.65
525.383	3.7
525.73	3.48
526.078	3.6
526.425	3.49
526.772	3.43
527.119	3.47
527.466	3.49
527.814	3.48
528.161	3.53
528.508	3.54
528.854	3.42
529.201	3.41
529.548	3.41
529.895	3.38
530.242	3.35
530.588	3.4
530.935	3.38
531.282	3.45
531.628	3.48
531.975	3.54
532.321	3.6
532.667	3.5
533.014	3.55
533.36	3.55
533.706	3.57
534.052	3.46
534.399	3.43
534.745	3.37
535.091	3.48
535.437	3.49
535.783	3.57
536.129	3.54
536.474	3.53
536.82	3.51
537.166	3.64
537.512	3.59
537.857	3.51
538.203	3.5
538.549	3.59
538.894	3.46
539.239	3.69
539.585	3.62
539.93	3.59
540.276	3.52
540.621	3.41
540.966	3.51
541.311	3.61
541.656	3.48
542.001	3.58
542.346	3.49
542.691	3.46
543.036	3.39
543.381	3.52
543.726	3.56
544.071	3.57
544.415	3.48
544.76	3.49
545.105	3.55
545.449	3.53
545.794	3.61
546.138	3.62
546.483	3.56
546.827	3.52
547.171	3.66
547.516	3.73
547.86	3.5
548.204	3.51
548.548	3.66
548.892	3.6
549.236	3.63
549.58	3.55
549.924	3.51
550.268	3.67
550.612	3.62
550.956	3.52
551.3	3.61
551.643	3.78
551.987	3.6
552.33	3.6
552.674	3.78
553.017	3.68
553.361	3.66
553.704	3.64
554.048	3.72
554.391	3.6
554.734	3.56
555.077	3.77
555.42	3.6
555.764	3.79
556.107	3.77
556.45	3.62
556.793	3.77
557.135	3.77
557.478	3.88
557.821	3.59
558.164	3.74
558.507	3.52
558.849	3.58
559.192	3.72
559.534	3.59
559.877	3.72
560.219	3.88
560.562	3.89
560.904	3.59
561.246	3.8
561.589	3.69
561.931	3.82
562.273	3.8
562.615	3.81
562.957	3.62
563.299	3.72
563.641	3.83
563.983	3.57
564.325	3.79
564.667	3.75
565.008	3.52
565.35	3.82
565.692	3.62
566.033	3.7
566.375	3.49
566.716	3.76
567.058	3.79
567.399	3.67
567.741	3.69
568.082	3.69
568.423	3.59
568.764	3.65
569.105	3.73
569.447	3.7
569.788	3.69
570.129	3.72
570.47	3.81
570.811	3.81
571.151	3.8
571.492	3.82
571.833	3.73
572.174	3.81
572.514	3.69
572.855	3.84
573.195	3.77
573.536	3.7
573.876	3.66
574.217	3.81
574.557	3.71
574.898	3.6
575.238	3.5
575.578	3.67
575.918	3.75
576.258	3.77
576.598	3.82
576.938	3.89
577.278	3.66
577.618	3.76
577.958	3.73
578.298	3.81
578.638	3.65
578.977	3.75
579.317	4.02
579.657	3.7
579.996	3.8
580.336	3.61
580.675	3.9
581.014	3.84
581.354	3.92
581.693	3.82
582.032	3.69
582.372	3.89
582.711	3.74
583.05	3.85
583.389	3.9
583.728	3.66
584.067	3.87
584.406	3.88
584.745	3.75
585.083	3.92
585.422	3.72
585.761	3.89
586.1	4.06
586.438	3.91
586.777	3.5
587.115	3.86
587.454	3.8
587.792	3.71
588.13	4.14
588.469	3.84
588.807	4.25
589.145	4.11
589.483	3.63
589.821	4
590.159	3.68
590.497	3.48
590.835	3.77
591.173	3.74
591.511	3.89
591.849	3.88
592.187	3.64
592.524	3.7
592.862	3.83
593.2	3.81
593.537	3.73
593.875	3.77
594.212	3.81
594.55	3.75
594.887	3.9
595.224	3.63
595.561	3.9
595.899	3.74
596.236	3.9
596.573	3.74
596.91	3.91
597.247	3.75
597.584	3.93
597.921	3.76
598.258	3.89
598.594	3.6
598.931	3.7
599.268	3.71
599.604	3.99
599.941	3.71
600.277	3.9
600.614	3.93
600.95	3.95
601.287	3.82
601.623	3.88
601.959	3.88
602.296	4.04
602.632	4.09
602.968	3.98
603.304	3.89
603.64	3.56
603.976	3.8
604.312	3.97
604.648	4.01
604.984	3.79
605.319	3.91
605.655	3.94
605.991	3.95
606.326	3.84
606.662	3.78
606.998	3.93
607.333	3.81
607.668	3.93
608.004	3.86
608.339	3.89
608.674	3.74
609.01	3.9
609.345	4.04
609.68	3.83
610.015	4.08
610.35	3.73
610.685	4.09
611.02	4.03
611.355	3.92
611.689	3.73
612.024	4.18
612.359	3.72
612.694	3.99
613.028	4.17
613.363	3.99
613.697	3.98
614.032	4.26
614.366	3.57
614.7	4.06
615.035	3.68
615.369	3.91
615.703	4.24
616.037	3.85
616.371	3.9
616.705	3.84
617.039	4.01
617.373	3.53
617.707	3.65
618.041	4.04
618.375	3.69
618.709	4.04
619.042	3.82
619.376	3.96
619.71	4.18
620.043	4.24
620.377	4.13
620.71	4.09
621.043	3.37
621.377	3.61
621.71	3.85
622.043	4.28
622.376	3.75
622.709	4.18
623.043	4
623.376	3.86
623.709	4.1
624.041	3.95
624.374	3.91
624.707	4.1
625.04	4.2
625.373	3.74
625.705	3.96
626.038	3.8
626.37	3.46
626.703	3.56
627.035	3.9
627.368	3.95
627.7	4.07
628.032	4.02
628.365	3.68
628.697	3.88
629.029	4.23
629.361	3.78
629.693	3.93
630.025	3.93
630.357	4
630.689	4.25
631.021	4.1
631.353	4.15
631.684	4.34
632.016	3.79
632.348	3.87
632.679	3.83
633.011	4.01
633.342	3.96
633.674	4.23
634.005	4.02
634.336	3.88
634.668	4.06
634.999	4.22
635.33	4.05
635.661	4.13
635.992	3.91
636.323	4.2
636.654	3.98
636.985	3.96
637.316	4.13
637.647	4.37
637.977	3.76
638.308	3.93
638.639	3.78
638.969	4.12
639.3	4.13
639.63	3.67
639.961	3.59
640.291	4.66
640.622	4.06
640.952	4.01
641.282	3.72
641.612	3.98
641.943	4.38
642.273	4.01
642.603	4.08
642.933	4.11
643.263	4.34
643.592	3.85
643.922	4.64
644.252	4.16
644.582	4.21
644.911	4.07
645.241	3.96
645.571	3.97
645.9	4.45
646.23	4.03
646.559	4.09
646.888	4.33
647.218	4.4
647.547	4.36
647.876	4.18
648.205	3.65
648.534	3.76
648.863	4.7
649.192	3.54
649.521	3.84
649.85	4.44
650.179	4.08
650.508	3.9
650.837	4.25
651.165	4.17
651.494	4.12
651.822	4.08
652.151	4.72
652.479	4.54
652.808	3.67
653.136	4
653.465	4.5
653.793	4.41
654.121	4.43
654.449	4.11
654.777	4.12
655.105	4.43
655.433	4.54
655.761	3.74
656.089	4.26
656.417	3.77
656.745	4.67
657.073	4.77
657.4	4.28
657.728	3.63
658.056	4.34
658.383	4.45
658.711	3.9
659.038	4.55
659.365	4.37
659.693	4.07
660.02	3.96
660.347	4.02
660.674	3.96
661.001	3.41
661.329	4.29
661.656	3.9
661.982	4.07
662.309	4.36
662.636	4.15
662.963	4.38
663.29	4.03
663.616	4.18
663.943	4.3
664.27	3.87
664.596	3.8
664.923	4.38
665.249	4.26
665.576	4.1
665.902	4
666.228	4.14
666.554	3.51
666.881	4.02
667.207	4
667.533	4.36
667.859	3.69
668.185	4.34
668.511	3.81
668.837	3.31
669.162	4.04
669.488	4.26
669.814	4.34
670.139	4.71
670.465	4.51
670.791	4.77
671.116	4.41
671.442	4.37
671.767	4.29
672.092	4.49
672.418	4.45
672.743	4.14
673.068	4.12
673.393	4.27
673.718	4.2
674.043	3.76
674.368	4.86
674.693	4.44
675.018	4.23
675.343	4.87
675.667	4.99
675.992	3.5
676.317	4.23
676.641	4.48
676.966	4.67
677.29	4.34
677.615	4.15
677.939	4.1
678.264	4.13
678.588	4.42
678.912	4.32
679.236	4.63
679.56	4.21
679.885	4.49
680.209	3.58
680.532	3.99
680.856	4.83
681.18	3.89
681.504	4.08
681.828	4.12
682.152	4.05
682.475	4.57
682.799	4.38
683.122	4.09
683.446	3.56
683.769	4.36
684.093	4.65
684.416	3.66
684.739	4.18
685.062	4.9
685.386	4.51
685.709	4.72
686.032	4.5
686.355	4.59
686.678	3.6
687.001	3.65
687.324	4.55
687.646	4.07
687.969	4.34
688.292	4.81
688.614	4.62
688.937	3.83
689.26	4.03
689.582	3.93
689.904	4.25
690.227	4.58
690.549	4.78
690.871	4.53
691.194	4.91
691.516	4.29
691.838	4.88
692.16	4.62
692.482	4.62
692.804	4.14
