Data from 0060_crown_Reflection__4__162.txt Node

Date: Fri Dec 16 15:16:57 CST 2022
User: ToomeyLab
Spectrometer: FLMS14357
Trigger mode: 0
Integration Time (sec): 1.000000E-2
Scans to average: 100
Electric dark correction enabled: true
Nonlinearity correction enabled: false
Boxcar width: 0
XAxis mode: Wavelengths
Number of Pixels in Spectrum: 2048
>>>>>Begin Spectral Data<<<<<
189.047	114.28
189.435	114.28
189.823	114.28
190.211	168.59
190.599	-72.58
190.987	92.48
191.375	36.34
191.763	181.48
192.151	593.21
192.538	79.74
192.926	4.95
193.314	580.47
193.702	190.16
194.089	485.07
194.477	-98.9
194.864	109.05
195.252	-352.95
195.639	107.68
196.027	-159.75
196.414	133.22
196.801	210.88
197.189	47.12
197.576	-150.04
197.963	76.23
198.351	11.29
198.738	-35.9
199.125	43.72
199.512	-1.06
199.899	-61.85
200.286	-11.57
200.673	13.42
201.06	57.73
201.447	23.48
201.833	9.29
202.22	16.99
202.607	-0.63
202.994	17.32
203.38	-27.93
203.767	-22.1
204.154	-44.02
204.54	24.76
204.927	9.15
205.313	26.77
205.699	11.41
206.086	18.71
206.472	-4.97
206.858	35.63
207.245	2.95
207.631	-46.51
208.017	38.26
208.403	5.47
208.789	-23.31
209.175	28.9
209.561	17.86
209.947	25.77
210.333	-17.72
210.719	-0.94
211.105	-25.3
211.491	-16.34
211.876	13.64
212.262	-59.15
212.648	-59.38
213.034	0.49
213.419	9.78
213.805	10.59
214.19	-19.42
214.576	-26.15
214.961	-21.05
215.346	-28.67
215.732	-27.01
216.117	-5.94
216.502	-31.38
216.888	-38.77
217.273	17.27
217.658	-26.2
218.043	4.15
218.428	2.49
218.813	-9.31
219.198	1.38
219.583	4.38
219.968	-14.65
220.353	4.93
220.738	5.15
221.122	-0.79
221.507	6.57
221.892	9.24
222.276	2.89
222.661	2.64
223.046	2.27
223.43	-4.05
223.815	11.37
224.199	7.56
224.583	2.28
224.968	2.86
225.352	-0.5
225.736	6.7
226.121	-9.14
226.505	1.49
226.889	8.74
227.273	5.13
227.657	5.02
228.041	3.14
228.425	3.59
228.809	4.42
229.193	2.02
229.577	2.78
229.961	4.08
230.344	4.21
230.728	4.17
231.112	4
231.495	4.74
231.879	4.06
232.263	3.35
232.646	2.1
233.03	2.89
233.413	2.88
233.797	5.37
234.18	0.13
234.563	3.93
234.946	2.25
235.33	4.71
235.713	2.92
236.096	4.24
236.479	3.96
236.862	4.82
237.245	5.07
237.628	4.41
238.011	3.77
238.394	5.3
238.777	4.71
239.16	3.28
239.543	3.36
239.925	4.65
240.308	3.95
240.691	4.2
241.073	3.81
241.456	3.73
241.838	4.17
242.221	2.93
242.603	4.15
242.986	4.64
243.368	4.13
243.75	3.53
244.133	3.96
244.515	4.13
244.897	4.08
245.279	3.98
245.661	3.54
246.043	3.78
246.425	2.75
246.807	3.57
247.189	3.33
247.571	3.99
247.953	3.63
248.335	3.96
248.717	3.81
249.098	3.83
249.48	3.51
249.862	3.57
250.243	3.89
250.625	3.85
251.006	3.97
251.388	3.47
251.769	4.11
252.151	3.85
252.532	3.42
252.913	3.9
253.295	3.82
253.676	4.08
254.057	3.43
254.438	3.74
254.819	3.35
255.2	3.3
255.581	2.6
255.962	4.12
256.343	4.26
256.724	3.38
257.105	3.39
257.486	3.17
257.867	1.8
258.247	3.35
258.628	4.62
259.009	3.09
259.389	4.14
259.77	3.53
260.15	4.22
260.531	3.62
260.911	3.46
261.292	3.43
261.672	3.51
262.052	3.43
262.432	3.37
262.813	4.03
263.193	3.31
263.573	3.34
263.953	3.75
264.333	3.49
264.713	3.56
265.093	3.56
265.473	4.72
265.853	2.81
266.233	2.94
266.612	3.72
266.992	3.7
267.372	3.87
267.752	2.92
268.131	3.42
268.511	3.93
268.89	3.58
269.27	4.05
269.649	4.12
270.029	3.65
270.408	3.23
270.787	3.53
271.167	3.51
271.546	3.17
271.925	3.53
272.304	3.95
272.683	3.25
273.062	3.73
273.441	3.8
273.82	3.58
274.199	3.33
274.578	3.14
274.957	3.33
275.336	3.69
275.715	3.74
276.093	3.67
276.472	3.65
276.851	4.16
277.229	4.16
277.608	3.28
277.986	3.38
278.365	3.49
278.743	3.68
279.122	3.32
279.5	3.04
279.878	2.83
280.257	3.45
280.635	2.79
281.013	3.49
281.391	3.19
281.769	3.29
282.147	3.5
282.525	3.44
282.903	3.69
283.281	3.47
283.659	3.68
284.037	3.31
284.415	3.6
284.792	3.05
285.17	3.15
285.548	3.34
285.925	3.36
286.303	3.36
286.68	3.52
287.058	3.37
287.435	3.2
287.813	3.28
288.19	3.29
288.567	3.12
288.945	2.76
289.322	3.25
289.699	3.46
290.076	3.51
290.453	3.49
290.83	3.7
291.207	3.3
291.584	3.05
291.961	3.51
292.338	3.1
292.715	3.07
293.092	2.97
293.469	3.77
293.845	3.78
294.222	2.77
294.599	2.92
294.975	3.64
295.352	2.6
295.728	3.09
296.105	3.25
296.481	3.67
296.858	3.13
297.234	3.34
297.61	3.34
297.986	3.29
298.363	2.61
298.739	3.33
299.115	2.7
299.491	3.22
299.867	3.33
300.243	3.03
300.619	3.07
300.995	3.27
301.371	3.16
301.746	3.11
302.122	3.3
302.498	3.07
302.874	3.43
303.249	3.32
303.625	3.16
304	3.15
304.376	3.34
304.751	3.14
305.127	3.02
305.502	3.03
305.878	3.21
306.253	2.82
306.628	3.47
307.003	2.77
307.378	2.9
307.754	3.25
308.129	2.69
308.504	2.74
308.879	3.04
309.254	3.13
309.629	2.95
310.003	3.31
310.378	3.6
310.753	3.12
311.128	2.96
311.502	2.81
311.877	3.04
312.252	2.95
312.626	2.85
313.001	3.1
313.375	3.04
313.75	2.58
314.124	3.22
314.498	2.39
314.873	3.04
315.247	2.7
315.621	3.52
315.995	2.87
316.369	3.22
316.743	3.44
317.117	3.14
317.491	3.6
317.865	2.61
318.239	3.69
318.613	2.91
318.987	3.04
319.361	3.11
319.734	3.08
320.108	3.13
320.482	2.55
320.855	2.87
321.229	3.37
321.602	3.06
321.976	2.67
322.349	2.01
322.723	2.24
323.096	3.11
323.469	2.03
323.843	2.93
324.216	2.32
324.589	3.07
324.962	3.02
325.335	2.97
325.708	2.89
326.081	2.95
326.454	2.62
326.827	2.95
327.2	3.23
327.573	3.06
327.945	2.87
328.318	2.88
328.691	2.62
329.063	2.93
329.436	2.74
329.809	2.88
330.181	2.46
330.553	3.21
330.926	3.21
331.298	2.92
331.671	2.59
332.043	3.05
332.415	3.16
332.787	3.18
333.159	2.9
333.532	3.2
333.904	3.49
334.276	2.52
334.648	2.75
335.02	2.35
335.391	3.13
335.763	2.59
336.135	2.81
336.507	3.15
336.879	3.05
337.25	3.01
337.622	2.89
337.993	3.14
338.365	3.25
338.736	3.34
339.108	2.11
339.479	2.91
339.851	3.31
340.222	2.97
340.593	3.06
340.964	2.86
341.336	2.36
341.707	3
342.078	2.5
342.449	3.3
342.82	2.68
343.191	2.6
343.562	2.83
343.933	2.91
344.303	2.99
344.674	2.9
345.045	2.89
345.416	2.89
345.786	2.6
346.157	2.92
346.527	2.48
346.898	2.87
347.268	2.75
347.639	2.76
348.009	3.27
348.38	2.86
348.75	2.74
349.12	2.91
349.49	2.65
349.861	3.56
350.231	3.33
350.601	2.98
350.971	2.88
351.341	3
351.711	2.89
352.081	2.82
352.45	3.22
352.82	2.94
353.19	2.86
353.56	2.83
353.929	2.7
354.299	2.74
354.669	2.86
355.038	3.02
355.408	3.37
355.777	2.76
356.147	3.24
356.516	3.22
356.885	3.08
357.254	2.82
357.624	2.93
357.993	2.81
358.362	3.04
358.731	2.76
359.1	3.18
359.469	3.26
359.838	2.77
360.207	2.75
360.576	2.88
360.945	2.73
361.314	2.95
361.682	2.86
362.051	2.8
362.42	3.17
362.788	3.19
363.157	2.72
363.525	2.92
363.894	2.69
364.262	2.83
364.631	3.68
364.999	2.83
365.367	3.23
365.735	2.82
366.104	2.51
366.472	3.27
366.84	2.85
367.208	2.91
367.576	2.99
367.944	3.09
368.312	2.64
368.68	3.07
369.048	2.95
369.416	3.12
369.783	2.8
370.151	3.05
370.519	2.93
370.886	3
371.254	2.54
371.621	2.84
371.989	3.06
372.356	3.09
372.724	3.02
373.091	2.92
373.458	3.1
373.826	2.65
374.193	2.91
374.56	2.77
374.927	2.78
375.294	3.23
375.661	2.94
376.028	2.98
376.395	2.84
376.762	3.02
377.129	3.5
377.496	3.18
377.863	2.76
378.229	2.85
378.596	2.82
378.963	2.9
379.329	2.94
379.696	3.16
380.062	3.43
380.429	2.99
380.795	2.98
381.161	2.84
381.528	2.52
381.894	3.03
382.26	2.8
382.626	2.67
382.993	2.74
383.359	2.79
383.725	3.04
384.091	3.1
384.457	3.18
384.823	3.07
385.188	3.24
385.554	2.89
385.92	3.11
386.286	3.24
386.651	3.02
387.017	3.11
387.383	2.66
387.748	2.97
388.114	3.18
388.479	3.06
388.845	3.08
389.21	2.85
389.575	3.01
389.94	2.96
390.306	3.1
390.671	2.88
391.036	3.19
391.401	3.43
391.766	3.08
392.131	2.94
392.496	3.12
392.861	2.73
393.226	3.06
393.591	3.03
393.956	3.15
394.32	2.83
394.685	3.17
395.05	3
395.414	2.91
395.779	2.93
396.143	2.99
396.508	2.9
396.872	3.29
397.236	2.74
397.601	3.25
397.965	2.88
398.329	3.17
398.694	2.73
399.058	3.06
399.422	2.95
399.786	3.09
400.15	2.9
400.514	3.09
400.878	3.12
401.242	3.21
401.605	3.12
401.969	3.11
402.333	3.04
402.697	3.37
403.06	3.31
403.424	2.99
403.787	3.13
404.151	2.81
404.514	3.2
404.878	2.95
405.241	3.03
405.604	3.37
405.968	3.12
406.331	2.98
406.694	3.09
407.057	3.41
407.42	3.23
407.783	3.07
408.146	3
408.509	3.02
408.872	2.78
409.235	3.2
409.598	3.15
409.961	3.24
410.323	3.26
410.686	2.91
411.049	2.86
411.411	2.99
411.774	3.02
412.136	2.99
412.499	3.06
412.861	2.95
413.223	3.06
413.586	2.87
413.948	3.1
414.31	3.16
414.672	2.98
415.035	3.3
415.397	3.26
415.759	3.01
416.121	3.44
416.483	3.38
416.845	3.08
417.206	3.21
417.568	3.13
417.93	2.98
418.292	3.21
418.653	2.96
419.015	3.05
419.377	3.04
419.738	2.95
420.1	3.13
420.461	3.09
420.822	2.98
421.184	2.98
421.545	3.11
421.906	3.07
422.267	2.89
422.629	3.03
422.99	3.05
423.351	3.1
423.712	3.1
424.073	3.16
424.434	2.96
424.795	3.03
425.155	2.99
425.516	3.01
425.877	3.09
426.238	2.99
426.598	3.07
426.959	3.01
427.32	3.16
427.68	3.18
428.041	3.14
428.401	3.1
428.761	3.09
429.122	2.97
429.482	3.22
429.842	3.18
430.202	2.98
430.563	3.14
430.923	3.08
431.283	3.16
431.643	3.19
432.003	3.09
432.363	3.19
432.722	3.13
433.082	3.06
433.442	3.19
433.802	3.17
434.161	3.07
434.521	3.23
434.881	3.18
435.24	2.99
435.6	2.99
435.959	3.15
436.319	3.05
436.678	3.17
437.037	3.13
437.396	3.24
437.756	3.17
438.115	3.14
438.474	3.18
438.833	3.31
439.192	3.3
439.551	3.24
439.91	3.2
440.269	3.25
440.628	3.13
440.987	3.04
441.345	3.17
441.704	3.14
442.063	3.09
442.421	3.12
442.78	3.18
443.138	3.08
443.497	3.11
443.855	3.14
444.214	3.09
444.572	3.19
444.93	3.3
445.288	3.35
445.647	3.3
446.005	2.99
446.363	3.18
446.721	3.06
447.079	3.13
447.437	3.08
447.795	3.06
448.153	3.12
448.51	3.04
448.868	3.23
449.226	3.22
449.584	3.14
449.941	3.17
450.299	3.16
450.656	3.15
451.014	3.12
451.371	3.24
451.729	3.25
452.086	3.06
452.443	3
452.801	3.3
453.158	3.23
453.515	3.08
453.872	3.26
454.229	3.16
454.586	3.13
454.943	3.18
455.3	3.41
455.657	3.13
456.014	3.24
456.371	3.25
456.727	3.25
457.084	3.11
457.441	3.16
457.797	3.2
458.154	3.09
458.51	3.3
458.867	2.98
459.223	3.19
459.58	3.03
459.936	3.09
460.292	3.24
460.648	3.12
461.005	3.08
461.361	3.09
461.717	3.06
462.073	3.2
462.429	3.19
462.785	3.19
463.141	3.18
463.496	3.21
463.852	3.41
464.208	3.23
464.564	3.19
464.919	3.13
465.275	3.28
465.631	3.22
465.986	3.05
466.342	3.18
466.697	3.23
467.052	3.38
467.408	3.14
467.763	3.28
468.118	3.3
468.473	3.31
468.829	3.24
469.184	3.23
469.539	2.93
469.894	3.2
470.249	3.39
470.603	3.26
470.958	3.28
471.313	3.1
471.668	3.42
472.023	3.33
472.377	3.2
472.732	3.29
473.086	3.04
473.441	3.29
473.795	3.31
474.15	3.21
474.504	3.09
474.859	3.25
475.213	3.1
475.567	3.16
475.921	3.3
476.275	3.46
476.63	3.27
476.984	3.16
477.338	3.36
477.692	3.22
478.045	3.28
478.399	3.5
478.753	3.12
479.107	3.22
479.461	3.15
479.814	3.22
480.168	3.27
480.521	3.27
480.875	3.39
481.228	3.26
481.582	3.27
481.935	3.14
482.289	3.19
482.642	3.23
482.995	3.23
483.348	3.24
483.701	3.16
484.055	3.11
484.408	3.15
484.761	2.98
485.114	2.94
485.466	2.97
485.819	3
486.172	3.1
486.525	3.17
486.878	3.18
487.23	3.19
487.583	3.16
487.936	3.17
488.288	3.05
488.641	3.06
488.993	2.98
489.345	3.01
489.698	3.13
490.05	3.1
490.402	3.21
490.754	3.24
491.107	3.24
491.459	3.27
491.811	3.27
492.163	3.16
492.515	3.11
492.866	3
493.218	3.06
493.57	3.16
493.922	3.14
494.274	3.29
494.625	3.22
494.977	3.2
495.328	3.35
495.68	3.34
496.031	3.27
496.383	3.29
496.734	3.28
497.086	3.13
497.437	3.37
497.788	3.29
498.139	3.27
498.49	3.27
498.842	3.22
499.193	3.25
499.544	3.38
499.894	3.2
500.245	3.26
500.596	3.36
500.947	3.19
501.298	3.22
501.648	3.31
501.999	3.43
502.35	3.45
502.7	3.29
503.051	3.35
503.401	3.36
503.752	3.19
504.102	3.3
504.452	3.24
504.803	3.15
505.153	3.34
505.503	3.19
505.853	3.2
506.203	3.23
506.553	3.38
506.903	3.37
507.253	3.35
507.603	3.23
507.953	3.43
508.303	3.42
508.652	3.29
509.002	3.32
509.352	3.27
509.701	3.36
510.051	3.38
510.4	3.26
510.75	3.33
511.099	3.26
511.449	3.27
511.798	3.44
512.147	3.26
512.496	3.44
512.846	3.33
513.195	3.35
513.544	3.27
513.893	3.25
514.242	3.42
514.591	3.31
514.939	3.25
515.288	3.38
515.637	3.51
515.986	3.28
516.334	3.39
516.683	3.29
517.032	3.49
517.38	3.38
517.729	3.3
518.077	3.39
518.426	3.37
518.774	3.3
519.122	3.23
519.47	3.4
519.819	3.36
520.167	3.29
520.515	3.31
520.863	3.35
521.211	3.32
521.559	3.37
521.907	3.34
522.255	3.39
522.602	3.38
522.95	3.5
523.298	3.39
523.645	3.23
523.993	3.47
524.341	3.44
524.688	3.34
525.036	3.42
525.383	3.49
525.73	3.37
526.078	3.38
526.425	3.32
526.772	3.22
527.119	3.26
527.466	3.26
527.814	3.25
528.161	3.36
528.508	3.33
528.854	3.29
529.201	3.24
529.548	3.15
529.895	3.13
530.242	3.17
530.588	3.22
530.935	3.25
531.282	3.31
531.628	3.3
531.975	3.25
532.321	3.35
532.667	3.31
533.014	3.38
533.36	3.33
533.706	3.33
534.052	3.26
534.399	3.2
534.745	3.22
535.091	3.27
535.437	3.35
535.783	3.38
536.129	3.4
536.474	3.38
536.82	3.43
537.166	3.41
537.512	3.39
537.857	3.3
538.203	3.34
538.549	3.36
538.894	3.38
539.239	3.52
539.585	3.4
539.93	3.53
540.276	3.4
540.621	3.37
540.966	3.42
541.311	3.46
541.656	3.28
542.001	3.42
542.346	3.33
542.691	3.23
543.036	3.29
543.381	3.3
543.726	3.38
544.071	3.41
544.415	3.4
544.76	3.36
545.105	3.33
545.449	3.31
545.794	3.43
546.138	3.4
546.483	3.37
546.827	3.51
547.171	3.41
547.516	3.49
547.86	3.34
548.204	3.38
548.548	3.51
548.892	3.45
549.236	3.48
549.58	3.44
549.924	3.4
550.268	3.55
550.612	3.51
550.956	3.46
551.3	3.43
551.643	3.47
551.987	3.59
552.33	3.51
552.674	3.49
553.017	3.59
553.361	3.55
553.704	3.39
554.048	3.49
554.391	3.41
554.734	3.56
555.077	3.52
555.42	3.56
555.764	3.63
556.107	3.6
556.45	3.51
556.793	3.64
557.135	3.68
557.478	3.71
557.821	3.53
558.164	3.67
558.507	3.55
558.849	3.57
559.192	3.53
559.534	3.51
559.877	3.59
560.219	3.62
560.562	3.66
560.904	3.41
561.246	3.44
561.589	3.6
561.931	3.66
562.273	3.67
562.615	3.6
562.957	3.61
563.299	3.58
563.641	3.71
563.983	3.58
564.325	3.51
564.667	3.69
565.008	3.66
565.35	3.78
565.692	3.71
566.033	3.67
566.375	3.37
566.716	3.45
567.058	3.62
567.399	3.64
567.741	3.57
568.082	3.58
568.423	3.63
568.764	3.74
569.105	3.57
569.447	3.48
569.788	3.74
570.129	3.59
570.47	3.54
570.811	3.59
571.151	3.62
571.492	3.81
571.833	3.67
572.174	3.59
572.514	3.52
572.855	3.59
573.195	3.42
573.536	3.55
573.876	3.65
574.217	3.63
574.557	3.6
574.898	3.53
575.238	3.56
575.578	3.71
575.918	3.47
576.258	3.68
576.598	3.59
576.938	3.7
577.278	3.53
577.618	3.5
577.958	3.61
578.298	3.66
578.638	3.66
578.977	3.67
579.317	3.9
579.657	3.55
579.996	3.46
580.336	3.56
580.675	3.7
581.014	3.63
581.354	3.74
581.693	3.7
582.032	3.53
582.372	3.64
582.711	3.61
583.05	3.77
583.389	3.66
583.728	3.63
584.067	3.69
584.406	3.88
584.745	3.74
585.083	3.87
585.422	3.67
585.761	3.85
586.1	3.73
586.438	3.72
586.777	3.81
587.115	3.74
587.454	3.71
587.792	3.47
588.13	3.97
588.469	3.69
588.807	3.82
589.145	3.73
589.483	3.52
589.821	3.98
590.159	3.72
590.497	3.44
590.835	3.66
591.173	3.79
591.511	3.92
591.849	3.86
592.187	3.82
592.524	3.77
592.862	3.86
593.2	3.77
593.537	3.62
593.875	3.65
594.212	3.93
594.55	3.88
594.887	4.08
595.224	3.77
595.561	3.67
595.899	3.58
596.236	3.98
596.573	3.59
596.91	3.8
597.247	3.78
597.584	3.9
597.921	3.72
598.258	3.65
598.594	3.55
598.931	3.62
599.268	3.75
599.604	3.98
599.941	3.83
600.277	3.86
600.614	3.85
600.95	3.77
601.287	3.99
601.623	4.07
601.959	3.54
602.296	4.04
602.632	3.91
602.968	3.85
603.304	3.75
603.64	3.59
603.976	3.71
604.312	3.85
604.648	4.03
604.984	3.82
605.319	3.75
605.655	3.97
605.991	3.81
606.326	3.73
606.662	3.64
606.998	3.84
607.333	3.75
607.668	3.85
608.004	3.73
608.339	3.62
608.674	3.81
609.01	3.98
609.345	3.99
609.68	3.61
610.015	3.91
610.35	3.76
610.685	3.86
611.02	3.8
611.355	3.82
611.689	3.73
612.024	3.91
612.359	3.88
612.694	4.1
613.028	3.98
613.363	3.55
613.697	3.8
614.032	3.96
614.366	3.81
614.7	4.13
615.035	3.7
615.369	3.82
615.703	4.19
616.037	4
616.371	3.72
616.705	4.07
617.039	4.26
617.373	3.9
617.707	4.12
618.041	3.94
618.375	3.76
618.709	3.89
619.042	3.9
619.376	3.87
619.71	3.98
620.043	4.07
620.377	3.94
620.71	4
621.043	3.76
621.377	4.04
621.71	4.18
622.043	4.14
622.376	3.69
622.709	4.19
623.043	4.05
623.376	3.47
623.709	4.07
624.041	3.93
624.374	4.07
624.707	3.86
625.04	4.1
625.373	3.81
625.705	4.16
626.038	3.76
626.37	3.99
626.703	3.87
627.035	3.97
627.368	3.93
627.7	4.03
628.032	4.06
628.365	3.86
628.697	3.77
629.029	4.42
629.361	3.84
629.693	4.11
630.025	3.92
630.357	3.93
630.689	4.29
631.021	4.12
631.353	4.1
631.684	4.16
632.016	3.88
632.348	4.09
632.679	3.96
633.011	3.95
633.342	4.09
633.674	4.3
634.005	4.16
634.336	4.24
634.668	4.23
634.999	3.98
635.33	4.11
635.661	4.18
635.992	3.93
636.323	3.9
636.654	4.12
636.985	4.1
637.316	4.24
637.647	3.94
637.977	4.09
638.308	3.77
638.639	3.57
638.969	3.99
639.3	4.33
639.63	3.88
639.961	3.89
640.291	4.53
640.622	4.08
640.952	4.09
641.282	3.47
641.612	3.74
641.943	4.31
642.273	4.39
642.603	4
642.933	3.74
643.263	3.96
643.592	3.68
643.922	4.23
644.252	4.38
644.582	3.81
644.911	3.7
645.241	4.13
645.571	3.78
645.9	4.47
646.23	4.03
646.559	4.09
646.888	3.98
647.218	4.44
647.547	4.21
647.876	4.41
648.205	3.95
648.534	4.25
648.863	4.5
649.192	4.18
649.521	3.81
649.85	3.85
650.179	3.71
650.508	4.13
650.837	4.1
651.165	4.55
651.494	4.04
651.822	4.26
652.151	4.6
652.479	4.58
652.808	3.53
653.136	3.98
653.465	4.26
653.793	4.43
654.121	3.94
654.449	3.99
654.777	4.15
655.105	4.43
655.433	4.39
655.761	3.86
656.089	4.2
656.417	4.22
656.745	4.82
657.073	4.38
657.4	4.67
657.728	4.19
658.056	4.05
658.383	4.51
658.711	3.71
659.038	4.21
659.365	4.18
659.693	3.94
660.02	4.27
660.347	4.26
660.674	4.02
661.001	3.74
661.329	4.44
661.656	3.85
661.982	4.38
662.309	4.46
662.636	4.38
662.963	4.59
663.29	4.13
663.616	4.31
663.943	4.55
664.27	4.32
664.596	3.9
664.923	4.65
665.249	4.67
665.576	3.79
665.902	3.71
666.228	3.75
666.554	3.8
666.881	4.95
667.207	4.22
667.533	4.24
667.859	3.97
668.185	4.8
668.511	3.94
668.837	3.57
669.162	3.95
669.488	4.07
669.814	5.19
670.139	4.81
670.465	4.61
670.791	4.35
671.116	4.32
671.442	4.22
671.767	4.48
672.092	4.63
672.418	4.32
672.743	4.18
673.068	4.16
673.393	4.58
673.718	4.13
674.043	4.8
674.368	4.96
674.693	4.56
675.018	4.4
675.343	5.33
675.667	4.08
675.992	4.38
676.317	4.75
676.641	4.52
676.966	4.85
677.29	4.22
677.615	4.5
677.939	4.65
678.264	4.52
678.588	4.7
678.912	4.47
679.236	4.71
679.56	3.95
679.885	4.47
680.209	3.9
680.532	4.17
680.856	4.78
681.18	4.19
681.504	4.25
681.828	3.57
682.152	4.25
682.475	4.38
682.799	5.01
683.122	4.48
683.446	4.6
683.769	4.44
684.093	4.57
684.416	4.38
684.739	4.99
685.062	4.41
685.386	4.36
685.709	4.18
686.032	4
686.355	4.13
686.678	4.34
687.001	3.83
687.324	4.12
687.646	3.66
687.969	4.23
688.292	4.09
688.614	4.73
688.937	4.09
689.26	4.2
689.582	3.84
689.904	4.47
690.227	4.44
690.549	4.2
690.871	4.86
691.194	4.84
691.516	4.64
691.838	4.37
692.16	4.49
692.482	4.7
692.804	4.62
