Data from 0060_chest_Reflection__4__157.txt Node

Date: Fri Dec 16 15:15:30 CST 2022
User: ToomeyLab
Spectrometer: FLMS14357
Trigger mode: 0
Integration Time (sec): 1.000000E-2
Scans to average: 100
Electric dark correction enabled: true
Nonlinearity correction enabled: false
Boxcar width: 0
XAxis mode: Wavelengths
Number of Pixels in Spectrum: 2048
>>>>>Begin Spectral Data<<<<<
189.047	136.34
189.435	136.34
189.823	136.34
190.211	53.23
190.599	12.76
190.987	-74.73
191.375	-14.28
191.763	564.46
192.151	223.75
192.538	32.31
192.926	-44.86
193.314	337.91
193.702	-51.71
194.089	-99.43
194.477	-17
194.864	-48.42
195.252	363.52
195.639	72.72
196.027	-608.83
196.414	-6.27
196.801	-85.18
197.189	83.98
197.576	-39.32
197.963	-12.25
198.351	17.2
198.738	-49.31
199.125	46.45
199.512	34.92
199.899	-53.81
200.286	-89.05
200.673	9.71
201.06	23.89
201.447	16.04
201.833	17.96
202.22	4.24
202.607	-22.35
202.994	4.42
203.38	-77.6
203.767	-58.88
204.154	-80.48
204.54	-0.1
204.927	-29.41
205.313	19.43
205.699	20.56
206.086	-18.03
206.472	-10.23
206.858	-5.97
207.245	-24.17
207.631	0.48
208.017	-3.24
208.403	-4.36
208.789	-26.51
209.175	16.35
209.561	0.33
209.947	-14.96
210.333	0.25
210.719	8.83
211.105	-69.79
211.491	-14.44
211.876	-39.6
212.262	-75.18
212.648	-15.71
213.034	-18.69
213.419	8.09
213.805	-20.75
214.19	15.16
214.576	-3.08
214.961	9
215.346	-35.5
215.732	-34.97
216.117	-9.1
216.502	-10.1
216.888	-41.09
217.273	2.46
217.658	-27.81
218.043	14.8
218.428	-11.79
218.813	-18.01
219.198	-23.13
219.583	6.72
219.968	-22.2
220.353	-8.72
220.738	-24.03
221.122	-20.43
221.507	4.05
221.892	-1.37
222.276	15.13
222.661	-14.95
223.046	-0.99
223.43	-3.35
223.815	4.06
224.199	0.4
224.583	0.55
224.968	1.41
225.352	4.34
225.736	-0.36
226.121	-7.32
226.505	-3.27
226.889	4.15
227.273	4.78
227.657	-0.27
228.041	2.01
228.425	5.15
228.809	3.58
229.193	-1.61
229.577	2.13
229.961	2.39
230.344	2.08
230.728	1.78
231.112	1.81
231.495	1.59
231.879	2.17
232.263	-0.03
232.646	-0.19
233.03	-0.17
233.413	1.99
233.797	4.23
234.18	-0.07
234.563	-1.84
234.946	2.56
235.33	1.43
235.713	2.39
236.096	2.61
236.479	3
236.862	3.45
237.245	1.73
237.628	1.7
238.011	1.65
238.394	3.17
238.777	1.05
239.16	0.72
239.543	0.83
239.925	1.08
240.308	3.54
240.691	1.76
241.073	2.62
241.456	0.8
241.838	2.25
242.221	2.84
242.603	2
242.986	2.84
243.368	1.98
243.75	2.23
244.133	2.24
244.515	2.17
244.897	2.47
245.279	1.64
245.661	2.46
246.043	1.6
246.425	0.69
246.807	2.25
247.189	2.15
247.571	2.13
247.953	2.04
248.335	2.18
248.717	2.27
249.098	2.18
249.48	1.82
249.862	2.35
250.243	2.32
250.625	2.49
251.006	2.26
251.388	2.44
251.769	1.36
252.151	2.1
252.532	1.91
252.913	1.92
253.295	1.82
253.676	2.11
254.057	1.89
254.438	1.86
254.819	2.11
255.2	1.81
255.581	1.33
255.962	1.98
256.343	2.51
256.724	2.21
257.105	1.48
257.486	1.83
257.867	0.02
258.247	1.95
258.628	2.66
259.009	1.88
259.389	2.28
259.77	1.98
260.15	2.78
260.531	2.32
260.911	1.95
261.292	1.96
261.672	1.94
262.052	2.1
262.432	1.84
262.813	2.03
263.193	1.8
263.573	2.6
263.953	1.89
264.333	2.08
264.713	1.68
265.093	1.72
265.473	2.62
265.853	2.06
266.233	2.14
266.612	1.53
266.992	1.28
267.372	2.6
267.752	1.8
268.131	2.37
268.511	2.03
268.89	2.56
269.27	1.96
269.649	2.19
270.029	2.24
270.408	1.75
270.787	1.8
271.167	2.09
271.546	1.41
271.925	2.22
272.304	2.84
272.683	1.81
273.062	2.18
273.441	2.28
273.82	2.15
274.199	2.47
274.578	1.56
274.957	2.01
275.336	2.18
275.715	2.39
276.093	2.15
276.472	2.27
276.851	2.26
277.229	2.59
277.608	1.7
277.986	1.56
278.365	1.43
278.743	1.87
279.122	1.58
279.5	1.81
279.878	1.02
280.257	2.63
280.635	1.4
281.013	2.07
281.391	1.75
281.769	1.36
282.147	2.4
282.525	1.92
282.903	2.14
283.281	2.2
283.659	2.26
284.037	1.86
284.415	2.14
284.792	2.23
285.17	1.77
285.548	1.96
285.925	1.77
286.303	1.98
286.68	1.82
287.058	2.06
287.435	1.91
287.813	2.15
288.19	2.43
288.567	1.74
288.945	2.03
289.322	1.78
289.699	1.92
290.076	2.2
290.453	1.23
290.83	1.96
291.207	1.68
291.584	1.89
291.961	2.12
292.338	2.07
292.715	2.23
293.092	1.95
293.469	2.37
293.845	2.44
294.222	1.93
294.599	2.4
294.975	1.65
295.352	2.08
295.728	2.14
296.105	1.84
296.481	2.48
296.858	2.35
297.234	2.02
297.61	2.24
297.986	1.82
298.363	1.45
298.739	2.2
299.115	1.71
299.491	1.77
299.867	1.83
300.243	1.67
300.619	2.13
300.995	1.98
301.371	1.99
301.746	1.52
302.122	2.08
302.498	2.09
302.874	2.39
303.249	2.3
303.625	2.01
304	1.7
304.376	1.95
304.751	1.96
305.127	1.97
305.502	2.32
305.878	1.7
306.253	1.43
306.628	2.43
307.003	1.76
307.378	1.64
307.754	1.77
308.129	1.51
308.504	1.43
308.879	1.88
309.254	1.9
309.629	2.05
310.003	2.1
310.378	2.38
310.753	2.06
311.128	2.04
311.502	2.06
311.877	1.72
312.252	1.82
312.626	1.81
313.001	1.94
313.375	1.81
313.75	1.64
314.124	2.29
314.498	2.01
314.873	1.95
315.247	1.84
315.621	2.08
315.995	1.8
316.369	1.91
316.743	1.9
317.117	1.96
317.491	2.02
317.865	1.66
318.239	2.3
318.613	2.04
318.987	1.91
319.361	1.9
319.734	1.63
320.108	1.68
320.482	2.29
320.855	2.18
321.229	2.13
321.602	1.64
321.976	2.05
322.349	1.82
322.723	1.3
323.096	1.55
323.469	1.79
323.843	2.11
324.216	1.6
324.589	2.1
324.962	2.43
325.335	1.55
325.708	2.11
326.081	2.54
326.454	2.08
326.827	2
327.2	2.39
327.573	2.14
327.945	1.94
328.318	2.06
328.691	1.79
329.063	1.53
329.436	1.5
329.809	1.47
330.181	1.72
330.553	1.44
330.926	1.94
331.298	1.76
331.671	1.98
332.043	2.14
332.415	2.29
332.787	2.27
333.159	1.65
333.532	2.23
333.904	1.64
334.276	2.09
334.648	2.34
335.02	1.54
335.391	1.89
335.763	2.08
336.135	1.96
336.507	2.18
336.879	1.94
337.25	1.99
337.622	1.98
337.993	1.81
338.365	2.17
338.736	2.1
339.108	1.77
339.479	1.69
339.851	2.19
340.222	1.95
340.593	1.46
340.964	1.78
341.336	1.61
341.707	2.08
342.078	1.97
342.449	2.29
342.82	1.95
343.191	1.75
343.562	1.89
343.933	1.95
344.303	2.27
344.674	2.16
345.045	2.45
345.416	1.95
345.786	1.64
346.157	2
346.527	1.72
346.898	1.82
347.268	1.91
347.639	1.79
348.009	2.02
348.38	1.82
348.75	2.38
349.12	1.93
349.49	2.15
349.861	2.3
350.231	2.63
350.601	1.99
350.971	1.91
351.341	1.8
351.711	1.77
352.081	1.81
352.45	2.01
352.82	2.01
353.19	2.17
353.56	1.92
353.929	1.8
354.299	1.88
354.669	1.97
355.038	1.79
355.408	2.69
355.777	1.99
356.147	2.26
356.516	2.07
356.885	1.93
357.254	2.08
357.624	1.93
357.993	1.87
358.362	2
358.731	1.85
359.1	2.04
359.469	1.96
359.838	2.04
360.207	1.79
360.576	2.18
360.945	2.26
361.314	2.25
361.682	1.93
362.051	1.84
362.42	2.32
362.788	2.12
363.157	2.11
363.525	1.95
363.894	1.79
364.262	1.91
364.631	2.54
364.999	1.86
365.367	2.35
365.735	1.76
366.104	2.05
366.472	1.96
366.84	2.29
367.208	2.04
367.576	1.97
367.944	2.66
368.312	1.59
368.68	2.15
369.048	2.33
369.416	1.81
369.783	2.07
370.151	2.19
370.519	1.76
370.886	1.97
371.254	2.16
371.621	2.33
371.989	2.36
372.356	1.95
372.724	1.96
373.091	1.95
373.458	2.18
373.826	2.19
374.193	2.58
374.56	1.8
374.927	2.08
375.294	2.64
375.661	2.26
376.028	2.26
376.395	2.1
376.762	1.94
377.129	2.15
377.496	1.95
377.863	2.03
378.229	2.19
378.596	2.05
378.963	2.17
379.329	2.06
379.696	2.14
380.062	2.24
380.429	2.29
380.795	1.91
381.161	1.87
381.528	1.91
381.894	2.24
382.26	1.99
382.626	2.06
382.993	1.96
383.359	2.27
383.725	2.35
384.091	2.13
384.457	2.35
384.823	2.39
385.188	2.18
385.554	2.05
385.92	2.42
386.286	2.29
386.651	2.04
387.017	2.23
387.383	2.09
387.748	2.07
388.114	2.33
388.479	2.25
388.845	2.23
389.21	2.27
389.575	2.18
389.94	2.2
390.306	1.99
390.671	2.14
391.036	2.23
391.401	2.36
391.766	2.08
392.131	2.24
392.496	1.98
392.861	2.1
393.226	2.16
393.591	2.04
393.956	2.36
394.32	2.12
394.685	2.44
395.05	2.01
395.414	2.31
395.779	2.19
396.143	2.29
396.508	2.54
396.872	2.34
397.236	1.84
397.601	2.32
397.965	1.97
398.329	2.29
398.694	2.11
399.058	2.21
399.422	2.37
399.786	2.24
400.15	1.96
400.514	2.22
400.878	2.13
401.242	2.33
401.605	2.34
401.969	2.19
402.333	1.83
402.697	2.5
403.06	2.34
403.424	2.22
403.787	2.54
404.151	2.37
404.514	2.46
404.878	2.38
405.241	2.39
405.604	2.29
405.968	2.36
406.331	2.35
406.694	2.47
407.057	2.5
407.42	2.22
407.783	2.18
408.146	2.36
408.509	2.15
408.872	2.11
409.235	2.34
409.598	2.37
409.961	2.5
410.323	2.37
410.686	2.33
411.049	2.18
411.411	2.32
411.774	2.34
412.136	2.41
412.499	2.32
412.861	2.03
413.223	2.43
413.586	2.2
413.948	2.31
414.31	2.28
414.672	2.09
415.035	2.49
415.397	2.55
415.759	2.16
416.121	2.5
416.483	2.48
416.845	2.51
417.206	2.47
417.568	2.28
417.93	2.4
418.292	2.37
418.653	2.33
419.015	2.38
419.377	2.48
419.738	2.28
420.1	2.28
420.461	2.24
420.822	2.34
421.184	2.44
421.545	2.32
421.906	2.31
422.267	2.16
422.629	2.31
422.99	2.27
423.351	2.31
423.712	2.31
424.073	2.42
424.434	2.36
424.795	2.24
425.155	2.28
425.516	2.25
425.877	2.43
426.238	2.31
426.598	2.29
426.959	2.19
427.32	2.35
427.68	2.32
428.041	2.44
428.401	2.22
428.761	2.19
429.122	2.37
429.482	2.25
429.842	2.4
430.202	2.32
430.563	2.41
430.923	2.29
431.283	2.27
431.643	2.43
432.003	2.36
432.363	2.35
432.722	2.38
433.082	2.34
433.442	2.33
433.802	2.45
434.161	2.3
434.521	2.49
434.881	2.42
435.24	2.49
435.6	2.33
435.959	2.42
436.319	2.46
436.678	2.31
437.037	2.6
437.396	2.46
437.756	2.47
438.115	2.53
438.474	2.47
438.833	2.53
439.192	2.55
439.551	2.49
439.91	2.46
440.269	2.57
440.628	2.5
440.987	2.39
441.345	2.33
441.704	2.46
442.063	2.4
442.421	2.43
442.78	2.31
443.138	2.34
443.497	2.32
443.855	2.5
444.214	2.4
444.572	2.37
444.93	2.5
445.288	2.49
445.647	2.49
446.005	2.28
446.363	2.42
446.721	2.35
447.079	2.45
447.437	2.39
447.795	2.42
448.153	2.53
448.51	2.42
448.868	2.53
449.226	2.44
449.584	2.47
449.941	2.51
450.299	2.47
450.656	2.53
451.014	2.47
451.371	2.54
451.729	2.46
452.086	2.44
452.443	2.36
452.801	2.65
453.158	2.42
453.515	2.42
453.872	2.63
454.229	2.47
454.586	2.4
454.943	2.41
455.3	2.59
455.657	2.37
456.014	2.64
456.371	2.62
456.727	2.46
457.084	2.31
457.441	2.45
457.797	2.44
458.154	2.44
458.51	2.5
458.867	2.37
459.223	2.55
459.58	2.46
459.936	2.43
460.292	2.54
460.648	2.4
461.005	2.42
461.361	2.45
461.717	2.49
462.073	2.54
462.429	2.53
462.785	2.56
463.141	2.61
463.496	2.48
463.852	2.68
464.208	2.61
464.564	2.5
464.919	2.51
465.275	2.48
465.631	2.69
465.986	2.49
466.342	2.57
466.697	2.48
467.052	2.7
467.408	2.48
467.763	2.42
468.118	2.64
468.473	2.69
468.829	2.54
469.184	2.68
469.539	2.56
469.894	2.6
470.249	2.58
470.603	2.66
470.958	2.76
471.313	2.42
471.668	2.67
472.023	2.83
472.377	2.51
472.732	2.61
473.086	2.52
473.441	2.77
473.795	2.74
474.15	2.53
474.504	2.56
474.859	2.72
475.213	2.62
475.567	2.51
475.921	2.64
476.275	2.65
476.63	2.54
476.984	2.54
477.338	2.79
477.692	2.56
478.045	2.66
478.399	2.58
478.753	2.49
479.107	2.57
479.461	2.62
479.814	2.58
480.168	2.57
480.521	2.67
480.875	2.78
481.228	2.66
481.582	2.52
481.935	2.66
482.289	2.51
482.642	2.65
482.995	2.59
483.348	2.57
483.701	2.57
484.055	2.54
484.408	2.54
484.761	2.46
485.114	2.42
485.466	2.48
485.819	2.45
486.172	2.51
486.525	2.57
486.878	2.53
487.23	2.58
487.583	2.53
487.936	2.59
488.288	2.52
488.641	2.5
488.993	2.45
489.345	2.51
489.698	2.55
490.05	2.56
490.402	2.6
490.754	2.68
491.107	2.64
491.459	2.76
491.811	2.64
492.163	2.63
492.515	2.58
492.866	2.51
493.218	2.53
493.57	2.6
493.922	2.62
494.274	2.7
494.625	2.64
494.977	2.66
495.328	2.71
495.68	2.79
496.031	2.79
496.383	2.69
496.734	2.77
497.086	2.68
497.437	2.68
497.788	2.64
498.139	2.78
498.49	2.71
498.842	2.67
499.193	2.78
499.544	2.84
499.894	2.79
500.245	2.78
500.596	2.73
500.947	2.83
501.298	2.71
501.648	2.84
501.999	2.91
502.35	2.77
502.7	2.84
503.051	2.89
503.401	2.9
503.752	2.68
504.102	2.76
504.452	2.61
504.803	2.66
505.153	2.76
505.503	2.77
505.853	2.76
506.203	2.78
506.553	2.76
506.903	2.86
507.253	2.77
507.603	2.87
507.953	2.87
508.303	2.85
508.652	2.8
509.002	2.87
509.352	2.82
509.701	2.75
510.051	2.86
510.4	2.8
510.75	2.79
511.099	2.77
511.449	2.76
511.798	3.02
512.147	2.86
512.496	2.85
512.846	2.81
513.195	2.89
513.544	2.88
513.893	2.66
514.242	2.88
514.591	2.9
514.939	2.8
515.288	2.93
515.637	2.88
515.986	2.84
516.334	2.96
516.683	2.92
517.032	2.95
517.38	2.99
517.729	2.94
518.077	2.94
518.426	2.81
518.774	2.94
519.122	2.79
519.47	2.95
519.819	2.85
520.167	2.9
520.515	2.84
520.863	2.82
521.211	2.92
521.559	2.82
521.907	2.96
522.255	2.9
522.602	2.96
522.95	2.92
523.298	2.94
523.645	2.87
523.993	3.02
524.341	2.96
524.688	2.93
525.036	3.2
525.383	3.08
525.73	3.02
526.078	3.03
526.425	2.93
526.772	2.87
527.119	2.97
527.466	2.87
527.814	2.9
528.161	2.94
528.508	2.96
528.854	2.89
529.201	2.92
529.548	2.86
529.895	2.8
530.242	2.83
530.588	2.9
530.935	2.89
531.282	2.96
531.628	2.95
531.975	3.02
532.321	2.97
532.667	3.02
533.014	2.98
533.36	3.05
533.706	3.12
534.052	2.99
534.399	2.91
534.745	2.94
535.091	2.98
535.437	3.02
535.783	3.08
536.129	3.04
536.474	3.12
536.82	3.01
537.166	3.13
537.512	3.17
537.857	3.06
538.203	3.08
538.549	3.14
538.894	3.13
539.239	3.24
539.585	3.13
539.93	3.14
540.276	3.09
540.621	3.2
540.966	3.16
541.311	3.17
541.656	3.09
542.001	3.15
542.346	3.16
542.691	3.05
543.036	3.05
543.381	3.14
543.726	3.13
544.071	3.14
544.415	3.15
544.76	3.18
545.105	3.17
545.449	3.14
545.794	3.24
546.138	3.26
546.483	3.26
546.827	3.29
547.171	3.35
547.516	3.31
547.86	3.25
548.204	3.28
548.548	3.43
548.892	3.29
549.236	3.34
549.58	3.34
549.924	3.31
550.268	3.41
550.612	3.49
550.956	3.46
551.3	3.47
551.643	3.39
551.987	3.37
552.33	3.3
552.674	3.44
553.017	3.5
553.361	3.49
553.704	3.46
554.048	3.5
554.391	3.42
554.734	3.47
555.077	3.37
555.42	3.39
555.764	3.47
556.107	3.45
556.45	3.59
556.793	3.65
557.135	3.68
557.478	3.49
557.821	3.41
558.164	3.56
558.507	3.35
558.849	3.48
559.192	3.7
559.534	3.5
559.877	3.55
560.219	3.77
560.562	3.68
560.904	3.64
561.246	3.56
561.589	3.61
561.931	3.71
562.273	3.66
562.615	3.62
562.957	3.69
563.299	3.65
563.641	3.72
563.983	3.83
564.325	3.55
564.667	3.6
565.008	3.63
565.35	4.01
565.692	3.71
566.033	3.85
566.375	3.68
566.716	3.76
567.058	4.08
567.399	3.83
567.741	3.79
568.082	3.74
568.423	3.82
568.764	3.84
569.105	4.02
569.447	4.03
569.788	3.98
570.129	3.69
570.47	3.99
570.811	3.94
571.151	3.92
571.492	4
571.833	3.98
572.174	3.93
572.514	3.91
572.855	3.97
573.195	3.91
573.536	3.88
573.876	4.02
574.217	4
574.557	4
574.898	4.08
575.238	3.92
575.578	3.97
575.918	3.88
576.258	4
576.598	4.01
576.938	4.15
577.278	4.07
577.618	4.08
577.958	4.17
578.298	4.3
578.638	4.2
578.977	4.2
579.317	3.98
579.657	4.09
579.996	4.16
580.336	4.18
580.675	4.4
581.014	4.29
581.354	4.3
581.693	4.15
582.032	4.34
582.372	4.38
582.711	4.4
583.05	4.59
583.389	4.34
583.728	4.39
584.067	4.39
584.406	4.34
584.745	4.42
585.083	4.66
585.422	4.37
585.761	4.66
586.1	4.53
586.438	4.52
586.777	4.59
587.115	4.55
587.454	4.74
587.792	4.27
588.13	4.74
588.469	4.75
588.807	4.72
589.145	4.53
589.483	4.48
589.821	4.84
590.159	4.55
590.497	4.36
590.835	4.46
591.173	4.84
591.511	4.62
591.849	4.82
592.187	4.48
592.524	4.72
592.862	4.71
593.2	4.56
593.537	4.56
593.875	4.71
594.212	4.58
594.55	4.68
594.887	4.83
595.224	4.71
595.561	4.98
595.899	4.88
596.236	4.97
596.573	4.64
596.91	4.86
597.247	4.94
597.584	4.83
597.921	4.65
598.258	4.83
598.594	4.76
598.931	4.74
599.268	5.1
599.604	5.13
599.941	5.08
600.277	5.07
600.614	5.09
600.95	5.18
601.287	4.95
601.623	5.09
601.959	4.89
602.296	5.15
602.632	5.26
602.968	5.06
603.304	5.17
603.64	4.92
603.976	5.17
604.312	5.45
604.648	5.16
604.984	5.19
605.319	5.22
605.655	5.32
605.991	5.25
606.326	5.29
606.662	5.12
606.998	5.32
607.333	5.24
607.668	5.19
608.004	5.3
608.339	5.19
608.674	5.3
609.01	5.24
609.345	5.7
609.68	5.22
610.015	5.52
610.35	5.4
610.685	5.4
611.02	5.73
611.355	5.63
611.689	5.26
612.024	5.77
612.359	5.53
612.694	5.69
613.028	5.85
613.363	5.49
613.697	5.77
614.032	5.53
614.366	5.58
614.7	6
615.035	5.31
615.369	5.67
615.703	6.22
616.037	5.85
616.371	5.9
616.705	5.94
617.039	5.87
617.373	5.68
617.707	5.83
618.041	5.84
618.375	5.75
618.709	6.06
619.042	5.61
619.376	6.09
619.71	6.04
620.043	5.77
620.377	5.94
620.71	5.84
621.043	5.86
621.377	5.73
621.71	6.37
622.043	5.92
622.376	5.87
622.709	6.14
623.043	6.06
623.376	6.49
623.709	6.33
624.041	6.06
624.374	5.91
624.707	6.45
625.04	6.5
625.373	5.93
625.705	6.57
626.038	6.35
626.37	6.15
626.703	6.19
627.035	6.32
627.368	6.28
627.7	6.4
628.032	6.51
628.365	6.34
628.697	6.14
629.029	6.7
629.361	6.27
629.693	6.57
630.025	6.42
630.357	6.61
630.689	6.85
631.021	6.81
631.353	6.86
631.684	6.83
632.016	6.51
632.348	6.83
632.679	6.55
633.011	6.45
633.342	6.73
633.674	6.78
634.005	6.64
634.336	6.88
634.668	6.69
634.999	6.78
635.33	6.54
635.661	7.09
635.992	6.9
636.323	6.89
636.654	6.93
636.985	6.87
637.316	7.14
637.647	7.1
637.977	6.83
638.308	6.78
638.639	6.76
638.969	6.98
639.3	7.13
639.63	6.81
639.961	6.99
640.291	7.29
640.622	7.47
640.952	7.33
641.282	7.03
641.612	7.24
641.943	7.48
642.273	7.02
642.603	7.33
642.933	7.25
643.263	7.64
643.592	7.45
643.922	7.72
644.252	7.55
644.582	7.21
644.911	7.08
645.241	7.58
645.571	7.6
645.9	7.78
646.23	7.4
646.559	7.57
646.888	7.55
647.218	7.8
647.547	7.97
647.876	8.02
648.205	7.42
648.534	7.68
648.863	7.94
649.192	7.81
649.521	8
649.85	8.41
650.179	7.48
650.508	7.81
650.837	7.83
651.165	7.9
651.494	7.94
651.822	7.8
652.151	8.54
652.479	7.81
652.808	7.65
653.136	8.13
653.465	7.87
653.793	7.95
654.121	8.49
654.449	7.96
654.777	7.95
655.105	8.55
655.433	8.43
655.761	7.93
656.089	8.31
656.417	7.91
656.745	8.58
657.073	8.75
657.4	8.3
657.728	8.43
658.056	8.36
658.383	8.55
658.711	8.4
659.038	8.37
659.365	8.38
659.693	8.53
660.02	7.85
660.347	8.79
660.674	8.25
661.001	8.1
661.329	8.43
661.656	8.44
661.982	8.82
662.309	8.75
662.636	8.78
662.963	9.07
663.29	8.73
663.616	8.98
663.943	8.86
664.27	9.33
664.596	8.86
664.923	8.69
665.249	8.84
665.576	8.94
665.902	8.56
666.228	8.94
666.554	8.75
666.881	9.25
667.207	8.97
667.533	8.99
667.859	9.15
668.185	9.45
668.511	8.8
668.837	9.15
669.162	9.27
669.488	8.84
669.814	9.73
670.139	9.8
670.465	9.67
670.791	9.35
671.116	9.42
671.442	9.85
671.767	9.46
672.092	9.99
672.418	9.3
672.743	9.33
673.068	9.72
673.393	9.94
673.718	9.33
674.043	9.91
674.368	10.12
674.693	9.51
675.018	8.95
675.343	9.86
675.667	9.29
675.992	9.52
676.317	10.15
676.641	9.91
676.966	10.76
677.29	9.82
677.615	9.65
677.939	9.8
678.264	9.85
678.588	10.17
678.912	9.39
679.236	10.06
679.56	9.55
679.885	10.4
680.209	9.67
680.532	9.71
680.856	10.43
681.18	10.4
681.504	9.66
681.828	9.62
682.152	9.65
682.475	10.11
682.799	10.64
683.122	10.01
683.446	10.42
683.769	10.56
684.093	10.85
684.416	9.76
684.739	10.71
685.062	10.57
685.386	11
685.709	10.45
686.032	10.72
686.355	10.72
686.678	10.43
687.001	9.41
687.324	9.85
687.646	10.15
687.969	10.98
688.292	10.19
688.614	10.5
688.937	10.6
689.26	10.67
689.582	10.21
689.904	11.04
690.227	10.68
690.549	10.88
690.871	11.22
691.194	11.02
691.516	10.96
