Data from 0060_crown_Reflection__1__159.txt Node

Date: Fri Dec 16 15:16:27 CST 2022
User: ToomeyLab
Spectrometer: FLMS14357
Trigger mode: 0
Integration Time (sec): 1.000000E-2
Scans to average: 100
Electric dark correction enabled: true
Nonlinearity correction enabled: false
Boxcar width: 0
XAxis mode: Wavelengths
Number of Pixels in Spectrum: 2048
>>>>>Begin Spectral Data<<<<<
189.047	95.02
189.435	95.02
189.823	95.02
190.211	135.23
190.599	-71.23
190.987	23.34
191.375	-13.67
191.763	435.79
192.151	338.71
192.538	68.46
192.926	-110.44
193.314	371.78
193.702	55.26
194.089	835.92
194.477	86.39
194.864	60.54
195.252	77
195.639	89.78
196.027	62.09
196.414	14.94
196.801	-167.19
197.189	35.31
197.576	228.68
197.963	6.14
198.351	-1.35
198.738	-5.88
199.125	48.53
199.512	-19.03
199.899	-63.32
200.286	-75.36
200.673	29.13
201.06	26.18
201.447	28.39
201.833	-16.03
202.22	16.87
202.607	-20.66
202.994	3.87
203.38	-8.97
203.767	3.83
204.154	-38.44
204.54	-10.06
204.927	-17.82
205.313	35.63
205.699	10.2
206.086	-23.33
206.472	-39.16
206.858	-17.75
207.245	-1.53
207.631	-12.97
208.017	15.93
208.403	-7.22
208.789	0.7
209.175	42.73
209.561	-5.7
209.947	-10.96
210.333	-38.88
210.719	-20.24
211.105	-16.77
211.491	-8.13
211.876	-23.82
212.262	-19.15
212.648	-23.18
213.034	-30.63
213.419	-6.41
213.805	-4.42
214.19	12.52
214.576	-31.18
214.961	-62.69
215.346	-65.32
215.732	-25.84
216.117	-16.04
216.502	-47.35
216.888	-34.73
217.273	16.65
217.658	-29.82
218.043	18.38
218.428	6.79
218.813	-6.11
219.198	-14.87
219.583	-32.25
219.968	-12.62
220.353	1.03
220.738	-23.97
221.122	-25.15
221.507	-26.46
221.892	-2.8
222.276	7.44
222.661	0.03
223.046	2.36
223.43	-11.92
223.815	3.57
224.199	-0.41
224.583	-0.97
224.968	5.59
225.352	-2.76
225.736	1.01
226.121	-10.99
226.505	2.84
226.889	4.76
227.273	2.54
227.657	2.27
228.041	-2.34
228.425	5.62
228.809	1.01
229.193	4.23
229.577	4.25
229.961	3.72
230.344	4.61
230.728	4.18
231.112	3.95
231.495	2.16
231.879	3.6
232.263	2.2
232.646	4.19
233.03	1.9
233.413	1.68
233.797	4.21
234.18	2
234.563	2.99
234.946	2.38
235.33	3.5
235.713	5.09
236.096	4.7
236.479	4.21
236.862	2.59
237.245	4.58
237.628	4.87
238.011	2.86
238.394	4.24
238.777	5.59
239.16	2.62
239.543	2.95
239.925	4.97
240.308	5.75
240.691	3.76
241.073	4.31
241.456	3.59
241.838	3.46
242.221	4.01
242.603	3.04
242.986	4.52
243.368	3.79
243.75	4.18
244.133	4.07
244.515	4.09
244.897	3.38
245.279	3.2
245.661	3.22
246.043	4.12
246.425	3.89
246.807	3.33
247.189	3.14
247.571	3.76
247.953	3.73
248.335	3.99
248.717	3.88
249.098	3.83
249.48	3.44
249.862	3.67
250.243	3.72
250.625	3.78
251.006	3.67
251.388	3.6
251.769	3.65
252.151	4.08
252.532	3.65
252.913	4.3
253.295	3.86
253.676	4.26
254.057	3.77
254.438	3.98
254.819	4.08
255.2	3.17
255.581	3.04
255.962	4.6
256.343	4.41
256.724	2.75
257.105	3.41
257.486	3.12
257.867	3.33
258.247	4.13
258.628	4.55
259.009	3.8
259.389	3.44
259.77	3.3
260.15	4.15
260.531	3.84
260.911	3.6
261.292	3.41
261.672	3.56
262.052	3.71
262.432	3.49
262.813	3.32
263.193	3.57
263.573	3.19
263.953	3.52
264.333	3.39
264.713	3.19
265.093	2.61
265.473	4.11
265.853	3.34
266.233	3.57
266.612	3.43
266.992	3.13
267.372	3.6
267.752	2.7
268.131	3.82
268.511	3.33
268.89	4.11
269.27	3.68
269.649	3.7
270.029	4.03
270.408	3.6
270.787	3.35
271.167	3.3
271.546	3.1
271.925	3.62
272.304	3.79
272.683	3.47
273.062	4.06
273.441	3.5
273.82	3.66
274.199	3.6
274.578	2.99
274.957	3.7
275.336	3.07
275.715	3.87
276.093	3.92
276.472	3.42
276.851	3.8
277.229	3.49
277.608	2.98
277.986	3.01
278.365	3.43
278.743	3.73
279.122	3.05
279.5	3.24
279.878	2.31
280.257	3.62
280.635	3.51
281.013	3.75
281.391	3.11
281.769	3
282.147	3.3
282.525	3.16
282.903	3.35
283.281	3.62
283.659	3.4
284.037	3.41
284.415	3.35
284.792	3.11
285.17	2.9
285.548	3.34
285.925	3.23
286.303	3.09
286.68	3.77
287.058	3.2
287.435	3.05
287.813	3.54
288.19	3.73
288.567	3
288.945	3.58
289.322	3.57
289.699	3.45
290.076	3.68
290.453	3.17
290.83	3.6
291.207	3.2
291.584	2.89
291.961	3.18
292.338	3.32
292.715	3.65
293.092	3.13
293.469	3.63
293.845	3.3
294.222	3.14
294.599	3.33
294.975	3.04
295.352	2.44
295.728	3.04
296.105	2.81
296.481	3.57
296.858	2.98
297.234	3.3
297.61	3.51
297.986	3.04
298.363	3.11
298.739	3.4
299.115	2.85
299.491	3.26
299.867	3.07
300.243	2.69
300.619	3.08
300.995	3.16
301.371	3.49
301.746	2.75
302.122	2.9
302.498	3.16
302.874	2.94
303.249	3.37
303.625	2.88
304	2.52
304.376	3.09
304.751	3.3
305.127	2.87
305.502	3.61
305.878	3.07
306.253	2.86
306.628	3.31
307.003	2.77
307.378	2.4
307.754	3.16
308.129	2.82
308.504	2.6
308.879	3.27
309.254	2.75
309.629	2.79
310.003	3.26
310.378	3.38
310.753	2.95
311.128	3.18
311.502	2.74
311.877	3.14
312.252	2.85
312.626	2.82
313.001	2.99
313.375	3.06
313.75	2.86
314.124	3.18
314.498	2.79
314.873	2.84
315.247	2.91
315.621	3.14
315.995	2.97
316.369	3.18
316.743	3.36
317.117	3.04
317.491	3.11
317.865	2.93
318.239	3.08
318.613	2.52
318.987	2.88
319.361	2.43
319.734	3.15
320.108	3.14
320.482	2.98
320.855	2.86
321.229	3.21
321.602	2.69
321.976	2.61
322.349	1.72
322.723	2.13
323.096	2.88
323.469	1.81
323.843	2.96
324.216	2.99
324.589	3.01
324.962	2.94
325.335	2.89
325.708	2.76
326.081	3.22
326.454	2.68
326.827	3.24
327.2	3.43
327.573	3.38
327.945	2.77
328.318	2.85
328.691	2.71
329.063	3.04
329.436	2.88
329.809	2.9
330.181	3.01
330.553	3.09
330.926	2.62
331.298	2.31
331.671	2.48
332.043	3.26
332.415	3.1
332.787	3.6
333.159	2.63
333.532	3.15
333.904	3.14
334.276	2.79
334.648	2.55
335.02	2.73
335.391	2.98
335.763	2.71
336.135	2.61
336.507	2.9
336.879	2.8
337.25	2.9
337.622	2.63
337.993	2.87
338.365	3.34
338.736	3.17
339.108	2.63
339.479	2.54
339.851	2.86
340.222	2.67
340.593	2.58
340.964	2.68
341.336	2.58
341.707	2.76
342.078	2.58
342.449	3.05
342.82	2.46
343.191	2.3
343.562	3.2
343.933	3.13
344.303	2.92
344.674	3.17
345.045	2.85
345.416	3.17
345.786	2.63
346.157	3
346.527	2.6
346.898	2.43
347.268	2.57
347.639	2.7
348.009	3.07
348.38	2.56
348.75	2.62
349.12	2.76
349.49	2.61
349.861	3.3
350.231	3.13
350.601	2.96
350.971	2.76
351.341	3.08
351.711	2.91
352.081	2.76
352.45	3.04
352.82	2.78
353.19	2.88
353.56	2.85
353.929	3.19
354.299	2.87
354.669	3.14
355.038	2.73
355.408	3.39
355.777	2.97
356.147	2.92
356.516	3.25
356.885	2.81
357.254	3.01
357.624	3.12
357.993	3.05
358.362	3.29
358.731	2.94
359.1	3.22
359.469	3.13
359.838	2.73
360.207	2.92
360.576	3.02
360.945	2.9
361.314	3.18
361.682	2.61
362.051	3
362.42	3.34
362.788	3.1
363.157	2.98
363.525	3
363.894	2.84
364.262	2.82
364.631	3.63
364.999	2.81
365.367	3.05
365.735	2.7
366.104	2.92
366.472	2.86
366.84	3.21
367.208	2.73
367.576	3.2
367.944	3.4
368.312	2.96
368.68	2.99
369.048	3.24
369.416	3.29
369.783	3
370.151	2.93
370.519	2.76
370.886	3.16
371.254	3
371.621	2.86
371.989	3.12
372.356	3.16
372.724	3.05
373.091	3.29
373.458	3.03
373.826	3.19
374.193	3.42
374.56	2.9
374.927	2.82
375.294	3.3
375.661	3.2
376.028	3.19
376.395	2.93
376.762	3.18
377.129	3.2
377.496	3.13
377.863	3.01
378.229	3.2
378.596	2.93
378.963	3.22
379.329	3.18
379.696	3.32
380.062	3.14
380.429	3.27
380.795	2.99
381.161	3.03
381.528	3.08
381.894	2.96
382.26	3.01
382.626	2.99
382.993	3.07
383.359	3.08
383.725	3.29
384.091	3.22
384.457	3.33
384.823	3.33
385.188	3.31
385.554	3.32
385.92	3.4
386.286	3.48
386.651	3.21
387.017	3.33
387.383	3.03
387.748	2.93
388.114	3.02
388.479	3.3
388.845	3.25
389.21	3.34
389.575	3.26
389.94	3.39
390.306	3.2
390.671	3.08
391.036	3.24
391.401	3.37
391.766	3.14
392.131	3.13
392.496	3.15
392.861	3.04
393.226	3.18
393.591	3.32
393.956	3.14
394.32	3.2
394.685	3.61
395.05	3.25
395.414	3.17
395.779	3.21
396.143	3.11
396.508	3.38
396.872	3.39
397.236	2.84
397.601	3.24
397.965	2.87
398.329	3.42
398.694	2.97
399.058	3.2
399.422	3.29
399.786	3.32
400.15	3.02
400.514	3.21
400.878	3.2
401.242	3.22
401.605	3.14
401.969	3.27
402.333	3.32
402.697	3.56
403.06	3.41
403.424	3.11
403.787	3.45
404.151	3
404.514	3.35
404.878	3.38
405.241	3.36
405.604	3.46
405.968	3.3
406.331	3.3
406.694	3.2
407.057	3.48
407.42	3.3
407.783	3.13
408.146	3.08
408.509	3.07
408.872	3.28
409.235	3.57
409.598	3.35
409.961	3.34
410.323	3.23
410.686	3.21
411.049	3.24
411.411	3.2
411.774	3.13
412.136	3.55
412.499	3.19
412.861	3.13
413.223	3.33
413.586	3.2
413.948	3.45
414.31	3.47
414.672	3.28
415.035	3.66
415.397	3.33
415.759	3.07
416.121	3.3
416.483	3.34
416.845	3.31
417.206	3.41
417.568	3.38
417.93	3.19
418.292	3.15
418.653	3.37
419.015	3.33
419.377	3.48
419.738	3.26
420.1	3.35
420.461	3.16
420.822	3.2
421.184	3.38
421.545	3.24
421.906	3.27
422.267	3.14
422.629	3.29
422.99	3.27
423.351	3.24
423.712	3.24
424.073	3.32
424.434	3.23
424.795	3.24
425.155	3.18
425.516	3.24
425.877	3.38
426.238	3.14
426.598	3.32
426.959	3.15
427.32	3.33
427.68	3.26
428.041	3.29
428.401	3.33
428.761	3.26
429.122	3.24
429.482	3.17
429.842	3.39
430.202	3.44
430.563	3.27
430.923	3.33
431.283	3.4
431.643	3.24
432.003	3.36
432.363	3.41
432.722	3.18
433.082	3.42
433.442	3.38
433.802	3.49
434.161	3.32
434.521	3.27
434.881	3.51
435.24	3.25
435.6	3.28
435.959	3.43
436.319	3.27
436.678	3.36
437.037	3.45
437.396	3.4
437.756	3.36
438.115	3.34
438.474	3.36
438.833	3.38
439.192	3.48
439.551	3.48
439.91	3.52
440.269	3.37
440.628	3.29
440.987	3.19
441.345	3.25
441.704	3.4
442.063	3.32
442.421	3.32
442.78	3.23
443.138	3.26
443.497	3.31
443.855	3.36
444.214	3.44
444.572	3.28
444.93	3.44
445.288	3.48
445.647	3.45
446.005	3.27
446.363	3.4
446.721	3.14
447.079	3.35
447.437	3.32
447.795	3.32
448.153	3.3
448.51	3.27
448.868	3.41
449.226	3.42
449.584	3.32
449.941	3.47
450.299	3.42
450.656	3.47
451.014	3.44
451.371	3.41
451.729	3.45
452.086	3.36
452.443	3.37
452.801	3.46
453.158	3.36
453.515	3.36
453.872	3.55
454.229	3.3
454.586	3.47
454.943	3.47
455.3	3.51
455.657	3.31
456.014	3.39
456.371	3.47
456.727	3.54
457.084	3.41
457.441	3.52
457.797	3.54
458.154	3.41
458.51	3.45
458.867	3.35
459.223	3.31
459.58	3.24
459.936	3.29
460.292	3.34
460.648	3.27
461.005	3.2
461.361	3.36
461.717	3.32
462.073	3.34
462.429	3.4
462.785	3.45
463.141	3.53
463.496	3.37
463.852	3.5
464.208	3.54
464.564	3.4
464.919	3.44
465.275	3.37
465.631	3.22
465.986	3.3
466.342	3.51
466.697	3.5
467.052	3.55
467.408	3.37
467.763	3.31
468.118	3.37
468.473	3.58
468.829	3.61
469.184	3.59
469.539	3.35
469.894	3.61
470.249	3.35
470.603	3.35
470.958	3.67
471.313	3.53
471.668	3.59
472.023	3.63
472.377	3.56
472.732	3.42
473.086	3.31
473.441	3.47
473.795	3.63
474.15	3.53
474.504	3.41
474.859	3.41
475.213	3.5
475.567	3.36
475.921	3.57
476.275	3.49
476.63	3.36
476.984	3.48
477.338	3.63
477.692	3.37
478.045	3.44
478.399	3.57
478.753	3.36
479.107	3.35
479.461	3.51
479.814	3.39
480.168	3.43
480.521	3.35
480.875	3.61
481.228	3.44
481.582	3.41
481.935	3.38
482.289	3.38
482.642	3.41
482.995	3.4
483.348	3.36
483.701	3.43
484.055	3.39
484.408	3.28
484.761	3.23
485.114	3.19
485.466	3.17
485.819	3.2
486.172	3.28
486.525	3.32
486.878	3.34
487.23	3.36
487.583	3.37
487.936	3.4
488.288	3.3
488.641	3.31
488.993	3.21
489.345	3.24
489.698	3.3
490.05	3.34
490.402	3.43
490.754	3.46
491.107	3.39
491.459	3.49
491.811	3.46
492.163	3.43
492.515	3.37
492.866	3.26
493.218	3.26
493.57	3.34
493.922	3.36
494.274	3.4
494.625	3.42
494.977	3.58
495.328	3.52
495.68	3.69
496.031	3.54
496.383	3.44
496.734	3.56
497.086	3.33
497.437	3.62
497.788	3.38
498.139	3.46
498.49	3.53
498.842	3.43
499.193	3.48
499.544	3.57
499.894	3.61
500.245	3.48
500.596	3.5
500.947	3.45
501.298	3.47
501.648	3.52
501.999	3.67
502.35	3.59
502.7	3.63
503.051	3.78
503.401	3.63
503.752	3.53
504.102	3.47
504.452	3.5
504.803	3.43
505.153	3.56
505.503	3.42
505.853	3.55
506.203	3.61
506.553	3.58
506.903	3.44
507.253	3.75
507.603	3.49
507.953	3.65
508.303	3.52
508.652	3.52
509.002	3.56
509.352	3.46
509.701	3.53
510.051	3.56
510.4	3.47
510.75	3.59
511.099	3.46
511.449	3.53
511.798	3.59
512.147	3.51
512.496	3.65
512.846	3.49
513.195	3.62
513.544	3.45
513.893	3.39
514.242	3.65
514.591	3.6
514.939	3.6
515.288	3.56
515.637	3.62
515.986	3.49
516.334	3.62
516.683	3.6
517.032	3.5
517.38	3.48
517.729	3.51
518.077	3.59
518.426	3.54
518.774	3.64
519.122	3.56
519.47	3.48
519.819	3.48
520.167	3.55
520.515	3.54
520.863	3.45
521.211	3.58
521.559	3.54
521.907	3.54
522.255	3.61
522.602	3.56
522.95	3.56
523.298	3.6
523.645	3.51
523.993	3.74
524.341	3.59
524.688	3.52
525.036	3.64
525.383	3.65
525.73	3.69
526.078	3.57
526.425	3.48
526.772	3.49
527.119	3.46
527.466	3.53
527.814	3.47
528.161	3.52
528.508	3.49
528.854	3.43
529.201	3.44
529.548	3.37
529.895	3.31
530.242	3.34
530.588	3.41
530.935	3.45
531.282	3.48
531.628	3.49
531.975	3.54
532.321	3.47
532.667	3.58
533.014	3.54
533.36	3.61
533.706	3.59
534.052	3.47
534.399	3.48
534.745	3.42
535.091	3.41
535.437	3.49
535.783	3.6
536.129	3.5
536.474	3.67
536.82	3.57
537.166	3.65
537.512	3.64
537.857	3.56
538.203	3.47
538.549	3.55
538.894	3.63
539.239	3.71
539.585	3.61
539.93	3.75
540.276	3.59
540.621	3.67
540.966	3.7
541.311	3.59
541.656	3.55
542.001	3.53
542.346	3.46
542.691	3.45
543.036	3.43
543.381	3.51
543.726	3.57
544.071	3.6
544.415	3.51
544.76	3.55
545.105	3.57
545.449	3.56
545.794	3.59
546.138	3.62
546.483	3.63
546.827	3.62
547.171	3.6
547.516	3.65
547.86	3.64
548.204	3.62
548.548	3.61
548.892	3.64
549.236	3.77
549.58	3.68
549.924	3.8
550.268	3.62
550.612	3.83
550.956	3.56
551.3	3.73
551.643	3.72
551.987	3.74
552.33	3.81
552.674	3.79
553.017	3.78
553.361	3.61
553.704	3.5
554.048	3.77
554.391	3.63
554.734	3.66
555.077	3.7
555.42	3.63
555.764	3.88
556.107	3.83
556.45	3.62
556.793	3.87
557.135	3.83
557.478	3.86
557.821	3.69
558.164	3.81
558.507	3.75
558.849	3.72
559.192	3.82
559.534	3.67
559.877	3.78
560.219	3.92
560.562	3.81
560.904	3.74
561.246	4
561.589	3.61
561.931	3.91
562.273	3.63
562.615	3.91
562.957	3.74
563.299	3.79
563.641	3.76
563.983	3.66
564.325	3.69
564.667	3.76
565.008	3.77
565.35	3.96
565.692	3.86
566.033	3.72
566.375	3.67
566.716	3.81
567.058	3.71
567.399	3.69
567.741	3.81
568.082	3.61
568.423	3.74
568.764	3.88
569.105	3.8
569.447	3.77
569.788	3.77
570.129	3.7
570.47	3.78
570.811	3.75
571.151	3.74
571.492	4.06
571.833	3.79
572.174	3.7
572.514	3.77
572.855	3.74
573.195	3.62
573.536	3.74
573.876	3.77
574.217	3.85
574.557	3.75
574.898	3.59
575.238	3.62
575.578	3.97
575.918	3.68
576.258	3.67
576.598	3.71
576.938	3.83
577.278	3.69
577.618	3.71
577.958	3.72
578.298	3.77
578.638	3.9
578.977	3.85
579.317	3.78
579.657	3.81
579.996	3.71
580.336	3.78
580.675	3.87
581.014	3.75
581.354	3.88
581.693	3.72
582.032	3.81
582.372	3.77
582.711	3.69
583.05	3.9
583.389	3.83
583.728	3.75
584.067	3.9
584.406	3.96
584.745	3.53
585.083	4.14
585.422	3.79
585.761	3.79
586.1	4.06
586.438	3.83
586.777	4
587.115	4
587.454	3.68
587.792	3.84
588.13	4.09
588.469	3.83
588.807	4.22
589.145	3.81
589.483	3.74
589.821	3.91
590.159	3.84
590.497	3.54
590.835	3.66
591.173	3.87
591.511	3.92
591.849	4.15
592.187	4
592.524	3.81
592.862	3.66
593.2	3.83
593.537	3.8
593.875	4.06
594.212	3.75
594.55	3.82
594.887	3.84
595.224	3.69
595.561	4.03
595.899	3.83
596.236	3.97
596.573	3.7
596.91	3.88
597.247	3.83
597.584	3.8
597.921	3.82
598.258	3.83
598.594	3.58
598.931	3.84
599.268	3.84
599.604	3.79
599.941	3.89
600.277	3.93
600.614	3.77
600.95	4.08
601.287	3.86
601.623	4.05
601.959	3.78
602.296	4.02
602.632	4.12
602.968	3.91
603.304	3.89
603.64	3.86
603.976	3.87
604.312	3.93
604.648	4.04
604.984	3.82
605.319	3.81
605.655	4.01
605.991	4
606.326	3.75
606.662	3.73
606.998	3.88
607.333	3.83
607.668	4.03
608.004	3.72
608.339	3.88
608.674	3.77
609.01	3.88
609.345	4.08
609.68	3.6
610.015	3.94
610.35	3.89
610.685	3.77
611.02	4
611.355	4.08
611.689	3.63
612.024	4
612.359	3.91
612.694	4.09
613.028	4.28
613.363	3.71
613.697	3.96
614.032	3.89
614.366	3.8
614.7	4.2
615.035	3.94
615.369	3.82
615.703	4.43
616.037	3.84
616.371	3.95
616.705	4.08
617.039	4.1
617.373	3.57
617.707	4.14
618.041	3.96
618.375	3.86
618.709	3.79
619.042	3.81
619.376	3.79
619.71	4
620.043	3.99
620.377	3.96
620.71	3.96
621.043	3.82
621.377	3.95
621.71	4.22
622.043	4.03
622.376	3.68
622.709	4.32
623.043	3.98
623.376	3.8
623.709	4.11
624.041	3.76
624.374	3.83
624.707	3.8
625.04	4.14
625.373	3.97
625.705	3.83
626.038	4.02
626.37	4.02
626.703	3.96
627.035	3.89
627.368	3.97
627.7	4.08
628.032	4.25
628.365	3.82
628.697	3.98
629.029	4.15
629.361	3.95
629.693	3.98
630.025	4.03
630.357	3.95
630.689	4.04
631.021	4.26
631.353	4.18
631.684	4.31
632.016	4.07
632.348	3.99
632.679	4.02
633.011	4.42
633.342	3.99
633.674	4.1
634.005	3.83
634.336	3.98
634.668	3.92
634.999	4.16
635.33	4.01
635.661	3.94
635.992	4.12
636.323	4.02
636.654	4.13
636.985	3.97
637.316	4.15
637.647	4.14
637.977	4.12
638.308	3.92
638.639	3.96
638.969	3.94
639.3	4.07
639.63	3.82
639.961	4.31
640.291	4.42
640.622	4.04
640.952	3.96
641.282	3.93
641.612	3.82
641.943	4.21
642.273	3.85
642.603	3.77
642.933	4.02
643.263	4.16
643.592	4.19
643.922	4.21
644.252	4.01
644.582	3.96
644.911	4.06
645.241	3.64
645.571	4.02
645.9	4.37
646.23	3.81
646.559	4.14
646.888	3.7
647.218	4.29
647.547	4.2
647.876	4.13
648.205	3.58
648.534	3.96
648.863	4.26
649.192	4.07
649.521	3.83
649.85	4.16
650.179	3.36
650.508	4.21
650.837	4.15
651.165	3.95
651.494	4.05
651.822	4.06
652.151	4.79
652.479	4.43
652.808	4.13
653.136	4.13
653.465	4.6
653.793	4.19
654.121	4.19
654.449	3.99
654.777	3.93
655.105	4.71
655.433	4.1
655.761	4.05
656.089	4.25
656.417	3.75
656.745	4.66
657.073	4.38
657.4	4.09
657.728	4.15
658.056	4.19
658.383	4.28
658.711	4.3
659.038	4.23
659.365	4.25
659.693	3.72
660.02	3.78
660.347	4.28
660.674	4.13
661.001	3.69
661.329	3.96
661.656	4.13
661.982	4.06
662.309	4.15
662.636	3.97
662.963	4.12
663.29	4.61
663.616	4.09
663.943	4.19
664.27	4.21
664.596	4.04
664.923	4.77
665.249	4.01
665.576	4.13
665.902	3.61
666.228	3.85
666.554	4.27
666.881	4.48
667.207	4.07
667.533	4.45
667.859	4.55
668.185	4.18
668.511	3.83
668.837	3.48
669.162	3.7
669.488	3.81
669.814	4.47
670.139	4.76
670.465	3.99
670.791	4.14
671.116	4.04
671.442	4.23
671.767	4.33
672.092	4.49
672.418	4.35
672.743	4.1
673.068	3.93
673.393	4.19
673.718	3.89
674.043	4.31
674.368	4.32
674.693	4.03
675.018	4.48
675.343	4.25
675.667	4.04
675.992	3.59
676.317	4.5
676.641	4.66
676.966	4.28
677.29	3.75
677.615	4.1
677.939	4
678.264	4.38
678.588	4.39
678.912	4.62
679.236	4.92
679.56	3.6
679.885	4.18
680.209	3.84
680.532	4.02
680.856	4.38
681.18	4.5
681.504	3.91
681.828	3.81
682.152	3.78
682.475	4.3
682.799	4.33
683.122	4.02
683.446	4.33
683.769	4.71
684.093	4.58
684.416	4.66
684.739	4.8
685.062	4.41
685.386	4.43
685.709	3.61
686.032	3.98
686.355	4.4
686.678	4.36
687.001	2.9
687.324	3.65
687.646	3.62
687.969	4.37
688.292	4.6
688.614	4.79
688.937	4.3
689.26	4.19
689.582	3.76
689.904	4.31
690.227	4.24
690.549	3.69
690.871	4.56
691.194	4.34
691.516	3.94
691.838	4.36
692.16	4.62
692.482	4.67
692.804	3.72
693.126	3.97
