Data from 16HH-1_chest_Reflection__4__84.txt Node

Date: Fri Nov 11 16:48:48 CST 2022
User: ToomeyLab
Spectrometer: FLMS14357
Trigger mode: 0
Integration Time (sec): 1.000000E-2
Scans to average: 100
Electric dark correction enabled: true
Nonlinearity correction enabled: false
Boxcar width: 0
XAxis mode: Wavelengths
Number of Pixels in Spectrum: 2048
>>>>>Begin Spectral Data<<<<<
189.047	414.74
189.435	414.74
189.823	414.74
190.211	79.06
190.599	135.66
190.987	204.48
191.375	63.32
191.763	147.23
192.151	88.79
192.538	185.56
192.926	-67.69
193.314	-609.09
193.702	-594.31
194.089	-51.73
194.477	149.77
194.864	-23.23
195.252	-959.06
195.639	18.51
196.027	46.32
196.414	151.13
196.801	-3.04
197.189	51.65
197.576	317
197.963	-30.83
198.351	27.73
198.738	-209.36
199.125	-9.68
199.512	59.61
199.899	26.79
200.286	10.57
200.673	42.93
201.06	4.43
201.447	30.18
201.833	22.05
202.22	16.43
202.607	27.39
202.994	4.55
203.38	62.38
203.767	19.95
204.154	13.08
204.54	36.87
204.927	28.5
205.313	-9.14
205.699	-9.9
206.086	-17.53
206.472	27.81
206.858	6.57
207.245	-3.92
207.631	16.11
208.017	-26.02
208.403	-15.56
208.789	-123.11
209.175	7.04
209.561	29.28
209.947	5.44
210.333	14.59
210.719	13.75
211.105	-2.04
211.491	-129.48
211.876	5.33
212.262	-22.68
212.648	20.49
213.034	10.18
213.419	1.04
213.805	21.53
214.19	-31.52
214.576	-14
214.961	-30.67
215.346	-52.76
215.732	-63.18
216.117	28.84
216.502	17.4
216.888	-12.38
217.273	-15.61
217.658	-20.76
218.043	-4.25
218.428	-21.37
218.813	30.69
219.198	-79.98
219.583	5.8
219.968	29.17
220.353	4.17
220.738	-13.05
221.122	-9.29
221.507	8.63
221.892	-0.78
222.276	8.15
222.661	2.59
223.046	12.05
223.43	2.43
223.815	1.08
224.199	-1.01
224.583	-1.12
224.968	13.26
225.352	5.08
225.736	7.53
226.121	0.7
226.505	0.45
226.889	10.84
227.273	-0.83
227.657	-4.39
228.041	2.51
228.425	1.47
228.809	4.11
229.193	-0.44
229.577	1.63
229.961	1.08
230.344	2.1
230.728	2.71
231.112	2.45
231.495	2.47
231.879	1.49
232.263	1.69
232.646	1.59
233.03	2.02
233.413	2.01
233.797	1.62
234.18	3.11
234.563	3.63
234.946	2.24
235.33	0.94
235.713	2.48
236.096	0.34
236.479	3.26
236.862	4.89
237.245	2.5
237.628	1.41
238.011	3.11
238.394	2.79
238.777	1.88
239.16	2.94
239.543	1.96
239.925	3.42
240.308	1.05
240.691	0.81
241.073	1.99
241.456	2.46
241.838	2.5
242.221	2.63
242.603	0.72
242.986	2.92
243.368	2.13
243.75	1.78
244.133	1.93
244.515	2.2
244.897	2.16
245.279	1.95
245.661	1.79
246.043	2.4
246.425	2.94
246.807	2.06
247.189	1.24
247.571	1.41
247.953	2.05
248.335	2.23
248.717	2.14
249.098	2.29
249.48	2.42
249.862	2.12
250.243	2.01
250.625	2.12
251.006	2.37
251.388	2.53
251.769	2.77
252.151	2.24
252.532	2.19
252.913	1.79
253.295	1.52
253.676	2.56
254.057	2
254.438	2.28
254.819	1.83
255.2	1.41
255.581	1.85
255.962	0.94
256.343	2.34
256.724	1.19
257.105	1.42
257.486	2.58
257.867	1.31
258.247	2.76
258.628	1.64
259.009	2.59
259.389	2.74
259.77	2.6
260.15	2.57
260.531	1.72
260.911	2.14
261.292	2.19
261.672	1.88
262.052	2.12
262.432	2.34
262.813	1.76
263.193	1.91
263.573	2.68
263.953	2.48
264.333	2.63
264.713	2.1
265.093	2.55
265.473	3.23
265.853	1.56
266.233	1.62
266.612	1.6
266.992	1.93
267.372	1.83
267.752	2.04
268.131	2.17
268.511	2.49
268.89	2.3
269.27	1.76
269.649	1.49
270.029	1.67
270.408	1.18
270.787	1.95
271.167	1.97
271.546	2.63
271.925	2.69
272.304	1.96
272.683	2.21
273.062	2.2
273.441	2.03
273.82	1.64
274.199	2.1
274.578	2.33
274.957	1.76
275.336	2.23
275.715	1.9
276.093	2.87
276.472	2.21
276.851	2.32
277.229	2.21
277.608	2.01
277.986	2.29
278.365	1.77
278.743	2
279.122	2.04
279.5	1.98
279.878	1.52
280.257	3.05
280.635	2.31
281.013	2.25
281.391	2.07
281.769	2.62
282.147	2.15
282.525	1.95
282.903	2.42
283.281	1.94
283.659	1.93
284.037	1.68
284.415	1.95
284.792	1.93
285.17	2.23
285.548	2.45
285.925	2.12
286.303	2.17
286.68	1.81
287.058	2.21
287.435	2.47
287.813	2.08
288.19	2.32
288.567	1.91
288.945	2.06
289.322	1.8
289.699	2.19
290.076	1.93
290.453	1.9
290.83	2.24
291.207	2.28
291.584	2.02
291.961	2.03
292.338	2.44
292.715	1.94
293.092	1.57
293.469	2.6
293.845	2.48
294.222	2.23
294.599	2.49
294.975	1.85
295.352	1.81
295.728	1.99
296.105	1.96
296.481	1.83
296.858	2.07
297.234	1.92
297.61	2.28
297.986	1.92
298.363	2.2
298.739	2.33
299.115	2.09
299.491	2.28
299.867	1.96
300.243	1.95
300.619	2.32
300.995	2.01
301.371	1.71
301.746	2.16
302.122	2.07
302.498	2.14
302.874	2.36
303.249	1.93
303.625	2.28
304	2.1
304.376	2.36
304.751	2.76
305.127	2.78
305.502	2.22
305.878	2.49
306.253	2.19
306.628	2.63
307.003	1.9
307.378	2.36
307.754	2.21
308.129	2.25
308.504	2.15
308.879	2.63
309.254	2
309.629	2.32
310.003	2.13
310.378	1.59
310.753	1.66
311.128	2.38
311.502	1.99
311.877	2.44
312.252	2.06
312.626	2.26
313.001	2.23
313.375	2.22
313.75	2.4
314.124	2.22
314.498	2.58
314.873	2.63
315.247	1.93
315.621	2.19
315.995	1.85
316.369	2.42
316.743	2.02
317.117	2.26
317.491	2.27
317.865	1.96
318.239	2.24
318.613	2.42
318.987	2.35
319.361	1.94
319.734	1.45
320.108	2.28
320.482	1.8
320.855	2.26
321.229	2.65
321.602	1.79
321.976	1.95
322.349	2.06
322.723	2.48
323.096	2.58
323.469	2.48
323.843	2.82
324.216	2.01
324.589	2.51
324.962	2.1
325.335	2.67
325.708	2.18
326.081	2.31
326.454	2.33
326.827	2.69
327.2	2.42
327.573	2.54
327.945	2.04
328.318	2.5
328.691	2.76
329.063	2.41
329.436	2.67
329.809	1.94
330.181	2.32
330.553	2.42
330.926	1.89
331.298	2.07
331.671	2.21
332.043	2.78
332.415	2.64
332.787	2.61
333.159	2.58
333.532	1.95
333.904	2.2
334.276	2.28
334.648	2.18
335.02	2.65
335.391	2.4
335.763	2.34
336.135	2.16
336.507	2.17
336.879	2.31
337.25	1.69
337.622	2.83
337.993	2.3
338.365	2.44
338.736	2.52
339.108	2.25
339.479	2.57
339.851	2.01
340.222	2.1
340.593	2.03
340.964	2.28
341.336	2.2
341.707	2.26
342.078	2.03
342.449	2.35
342.82	2.77
343.191	2.5
343.562	2.53
343.933	1.95
344.303	2.72
344.674	2.85
345.045	2.28
345.416	2.37
345.786	2.12
346.157	2.18
346.527	2.66
346.898	2.24
347.268	2.36
347.639	2.78
348.009	2.52
348.38	2.04
348.75	2.69
349.12	2.29
349.49	2.65
349.861	2.26
350.231	2.32
350.601	2.8
350.971	2.54
351.341	2.59
351.711	2.33
352.081	1.94
352.45	2.4
352.82	2.35
353.19	2.47
353.56	2.66
353.929	2.69
354.299	2.31
354.669	2.42
355.038	2.49
355.408	2.13
355.777	2.75
356.147	2.59
356.516	2.54
356.885	2.09
357.254	2.31
357.624	2.52
357.993	2.39
358.362	2.25
358.731	2.26
359.1	2.3
359.469	2.35
359.838	2.54
360.207	2.56
360.576	2.54
360.945	2.6
361.314	2.65
361.682	2.59
362.051	2.27
362.42	2.39
362.788	2.47
363.157	2.47
363.525	2.73
363.894	2.49
364.262	2.39
364.631	2.44
364.999	2.52
365.367	2.46
365.735	2.66
366.104	2.42
366.472	2.58
366.84	2.69
367.208	2.43
367.576	2.39
367.944	2.69
368.312	2.5
368.68	2.67
369.048	2.24
369.416	2.42
369.783	2.5
370.151	2.38
370.519	2.85
370.886	2.77
371.254	2.38
371.621	2.69
371.989	2.36
372.356	2.36
372.724	2.85
373.091	2.52
373.458	2.49
373.826	2.85
374.193	2.72
374.56	2.54
374.927	2.58
375.294	2.55
375.661	2.95
376.028	2.42
376.395	2.51
376.762	2.58
377.129	2.82
377.496	2.72
377.863	2.61
378.229	2.55
378.596	2.26
378.963	2.4
379.329	2.12
379.696	2.58
380.062	2.59
380.429	2.46
380.795	2.24
381.161	2.81
381.528	2.51
381.894	2.65
382.26	2.57
382.626	2.59
382.993	2.84
383.359	2.77
383.725	2.7
384.091	2.61
384.457	2.62
384.823	2.68
385.188	2.75
385.554	2.61
385.92	2.33
386.286	2.31
386.651	2.55
387.017	2.5
387.383	2.69
387.748	2.5
388.114	2.76
388.479	2.51
388.845	2.7
389.21	2.69
389.575	2.46
389.94	2.89
390.306	2.57
390.671	2.62
391.036	2.72
391.401	2.54
391.766	2.55
392.131	2.13
392.496	2.61
392.861	2.68
393.226	2.64
393.591	2.57
393.956	2.76
394.32	2.87
394.685	2.8
395.05	2.78
395.414	2.78
395.779	2.72
396.143	2.65
396.508	2.69
396.872	2.89
397.236	2.52
397.601	2.71
397.965	2.57
398.329	2.62
398.694	2.6
399.058	2.55
399.422	2.69
399.786	2.94
400.15	2.47
400.514	2.59
400.878	2.86
401.242	2.94
401.605	2.73
401.969	2.94
402.333	2.68
402.697	2.63
403.06	2.88
403.424	2.54
403.787	2.62
404.151	2.75
404.514	2.67
404.878	2.73
405.241	2.75
405.604	2.59
405.968	2.78
406.331	2.72
406.694	2.83
407.057	2.79
407.42	2.74
407.783	2.64
408.146	2.79
408.509	2.82
408.872	2.85
409.235	2.86
409.598	2.7
409.961	2.68
410.323	2.65
410.686	2.94
411.049	2.84
411.411	2.63
411.774	2.79
412.136	2.74
412.499	2.73
412.861	2.64
413.223	2.89
413.586	2.61
413.948	2.66
414.31	2.77
414.672	2.93
415.035	2.91
415.397	2.91
415.759	2.63
416.121	3
416.483	2.78
416.845	2.67
417.206	2.83
417.568	2.78
417.93	2.83
418.292	2.65
418.653	2.79
419.015	2.66
419.377	3.01
419.738	2.88
420.1	2.7
420.461	2.76
420.822	2.79
421.184	2.72
421.545	2.78
421.906	2.73
422.267	2.81
422.629	2.76
422.99	2.76
423.351	2.79
423.712	2.73
424.073	2.73
424.434	2.78
424.795	2.9
425.155	2.79
425.516	2.86
425.877	2.81
426.238	2.75
426.598	2.8
426.959	2.72
427.32	2.86
427.68	2.83
428.041	2.93
428.401	2.72
428.761	2.82
429.122	2.94
429.482	2.83
429.842	2.84
430.202	2.83
430.563	2.65
430.923	2.91
431.283	2.87
431.643	2.97
432.003	3.09
432.363	2.89
432.722	2.85
433.082	2.88
433.442	3.04
433.802	2.78
434.161	2.78
434.521	2.87
434.881	2.68
435.24	2.98
435.6	2.82
435.959	2.89
436.319	2.71
436.678	2.78
437.037	2.97
437.396	2.86
437.756	2.84
438.115	2.86
438.474	2.99
438.833	2.87
439.192	3
439.551	2.71
439.91	2.96
440.269	2.83
440.628	2.81
440.987	2.95
441.345	2.88
441.704	2.88
442.063	2.91
442.421	2.87
442.78	2.85
443.138	2.81
443.497	2.87
443.855	2.97
444.214	2.94
444.572	2.91
444.93	2.84
445.288	3.16
445.647	2.83
446.005	2.91
446.363	3
446.721	2.81
447.079	2.82
447.437	2.85
447.795	2.81
448.153	2.86
448.51	2.84
448.868	2.87
449.226	2.94
449.584	2.91
449.941	2.86
450.299	2.88
450.656	3
451.014	3.08
451.371	2.85
451.729	2.95
452.086	2.91
452.443	3.11
452.801	2.95
453.158	2.96
453.515	2.89
453.872	2.96
454.229	2.9
454.586	2.99
454.943	3.03
455.3	2.91
455.657	3
456.014	2.83
456.371	2.85
456.727	2.92
457.084	2.97
457.441	3.15
457.797	3
458.154	2.97
458.51	2.96
458.867	3.15
459.223	3.09
459.58	2.9
459.936	3.04
460.292	2.98
460.648	2.99
461.005	3.01
461.361	2.99
461.717	2.99
462.073	2.97
462.429	3.01
462.785	2.93
463.141	2.95
463.496	2.92
463.852	2.99
464.208	3.08
464.564	2.97
464.919	3.02
465.275	3.1
465.631	3.1
465.986	3.05
466.342	3.15
466.697	3.04
467.052	3.16
467.408	3
467.763	3.01
468.118	3.08
468.473	3.1
468.829	3.1
469.184	3.17
469.539	3.18
469.894	3.05
470.249	2.91
470.603	2.96
470.958	3.12
471.313	3.24
471.668	3.06
472.023	3.18
472.377	3.14
472.732	3.13
473.086	3.01
473.441	3.1
473.795	3.1
474.15	3.11
474.504	3.11
474.859	3.17
475.213	3.01
475.567	3.23
475.921	3.3
476.275	3.14
476.63	3.16
476.984	3.12
477.338	3.14
477.692	3.17
478.045	3.16
478.399	2.99
478.753	3.13
479.107	3.05
479.461	3.12
479.814	3.16
480.168	3.24
480.521	3.16
480.875	3.21
481.228	3.16
481.582	3.07
481.935	3.18
482.289	3.26
482.642	3.07
482.995	3.21
483.348	3.06
483.701	3.21
484.055	3.04
484.408	3.1
484.761	3.02
485.114	2.96
485.466	2.91
485.819	2.94
486.172	2.93
486.525	2.98
486.878	3
487.23	3.04
487.583	3.05
487.936	3.03
488.288	3.1
488.641	3.09
488.993	3.04
489.345	3.02
489.698	3.02
490.05	2.99
490.402	3.04
490.754	3.18
491.107	3.16
491.459	3.21
491.811	3.15
492.163	3.2
492.515	3.15
492.866	3.07
493.218	2.99
493.57	3.02
493.922	3.04
494.274	3.12
494.625	3.11
494.977	3.18
495.328	3.23
495.68	3.22
496.031	3.25
496.383	3.34
496.734	3.19
497.086	3.15
497.437	3.29
497.788	3.39
498.139	3.25
498.49	3.17
498.842	3.3
499.193	3.17
499.544	3.29
499.894	3.34
500.245	3.23
500.596	3.35
500.947	3.26
501.298	3.38
501.648	3.43
501.999	3.35
502.35	3.3
502.7	3.34
503.051	3.24
503.401	3.24
503.752	3.21
504.102	3.31
504.452	3.34
504.803	3.44
505.153	3.35
505.503	3.35
505.853	3.26
506.203	3.53
506.553	3.5
506.903	3.41
507.253	3.4
507.603	3.49
507.953	3.37
508.303	3.45
508.652	3.35
509.002	3.36
509.352	3.52
509.701	3.36
510.051	3.29
510.4	3.31
510.75	3.38
511.099	3.37
511.449	3.49
511.798	3.38
512.147	3.37
512.496	3.43
512.846	3.32
513.195	3.26
513.544	3.37
513.893	3.46
514.242	3.53
514.591	3.39
514.939	3.44
515.288	3.47
515.637	3.47
515.986	3.49
516.334	3.5
516.683	3.46
517.032	3.58
517.38	3.5
517.729	3.51
518.077	3.41
518.426	3.54
518.774	3.41
519.122	3.47
519.47	3.38
519.819	3.39
520.167	3.36
520.515	3.55
520.863	3.5
521.211	3.59
521.559	3.44
521.907	3.55
522.255	3.55
522.602	3.62
522.95	3.52
523.298	3.52
523.645	3.59
523.993	3.65
524.341	3.7
524.688	3.61
525.036	3.71
525.383	3.55
525.73	3.65
526.078	3.57
526.425	3.52
526.772	3.63
527.119	3.55
527.466	3.53
527.814	3.53
528.161	3.55
528.508	3.58
528.854	3.55
529.201	3.66
529.548	3.59
529.895	3.5
530.242	3.5
530.588	3.46
530.935	3.47
531.282	3.58
531.628	3.51
531.975	3.58
532.321	3.55
532.667	3.63
533.014	3.68
533.36	3.62
533.706	3.72
534.052	3.63
534.399	3.67
534.745	3.66
535.091	3.56
535.437	3.61
535.783	3.65
536.129	3.7
536.474	3.74
536.82	3.72
537.166	3.75
537.512	3.87
537.857	3.86
538.203	3.79
538.549	3.77
538.894	3.8
539.239	3.79
539.585	3.78
539.93	3.87
540.276	3.86
540.621	3.84
540.966	3.92
541.311	3.8
541.656	3.76
542.001	3.9
542.346	3.89
542.691	3.72
543.036	3.76
543.381	3.76
543.726	3.78
544.071	3.75
544.415	3.8
544.76	3.84
545.105	3.96
545.449	3.92
545.794	3.93
546.138	3.91
546.483	3.96
546.827	3.98
547.171	4
547.516	3.97
547.86	4.01
548.204	3.96
548.548	4.05
548.892	4.14
549.236	4.1
549.58	4.04
549.924	4.06
550.268	4.25
550.612	4.14
550.956	4.18
551.3	4.31
551.643	4.31
551.987	4.12
552.33	4.02
552.674	4.15
553.017	4.19
553.361	4.19
553.704	4.35
554.048	4.32
554.391	4.32
554.734	4.2
555.077	4.31
555.42	4.23
555.764	4.31
556.107	4.37
556.45	4.24
556.793	4.16
557.135	4.37
557.478	4.26
557.821	4.37
558.164	4.39
558.507	4.39
558.849	4.37
559.192	4.46
559.534	4.35
559.877	4.51
560.219	4.54
560.562	4.48
560.904	4.23
561.246	4.34
561.589	4.36
561.931	4.37
562.273	4.46
562.615	4.51
562.957	4.57
563.299	4.71
563.641	4.42
563.983	4.51
564.325	4.45
564.667	4.59
565.008	4.45
565.35	4.46
565.692	4.42
566.033	4.75
566.375	4.56
566.716	4.53
567.058	4.54
567.399	4.64
567.741	4.76
568.082	4.62
568.423	4.74
568.764	4.7
569.105	4.63
569.447	4.66
569.788	4.74
570.129	4.81
570.47	4.52
570.811	4.83
571.151	4.92
571.492	4.83
571.833	4.82
572.174	4.9
572.514	4.91
572.855	4.91
573.195	4.89
573.536	4.98
573.876	4.85
574.217	4.78
574.557	4.67
574.898	4.94
575.238	4.96
575.578	4.96
575.918	4.89
576.258	5.04
576.598	4.96
576.938	4.98
577.278	4.92
577.618	4.95
577.958	5.02
578.298	5.03
578.638	5.04
578.977	4.98
579.317	5.24
579.657	5.36
579.996	5.16
580.336	5.04
580.675	4.98
581.014	5.17
581.354	5.3
581.693	5.34
582.032	5.49
582.372	5.42
582.711	5.37
583.05	5.35
583.389	5.4
583.728	5.23
584.067	5.48
584.406	5.33
584.745	5.33
585.083	5.57
585.422	5.23
585.761	5.66
586.1	5.53
586.438	5.54
586.777	5.4
587.115	5.55
587.454	5.57
587.792	5.63
588.13	5.85
588.469	5.36
588.807	5.78
589.145	5.84
589.483	5.44
589.821	5.54
590.159	5.48
590.497	5.85
590.835	5.52
591.173	5.6
591.511	5.79
591.849	5.56
592.187	5.71
592.524	5.79
592.862	5.87
593.2	5.87
593.537	5.67
593.875	6.1
594.212	5.71
594.55	6.02
594.887	6.06
595.224	5.82
595.561	5.81
595.899	5.92
596.236	5.99
596.573	5.88
596.91	6.05
597.247	5.8
597.584	6.04
597.921	5.96
598.258	6
598.594	6.02
598.931	6.11
599.268	6.01
599.604	6.12
599.941	5.96
600.277	5.96
600.614	6.32
600.95	6.03
601.287	6.19
601.623	6.1
601.959	6.23
602.296	6.24
602.632	6.3
602.968	6.2
603.304	6.23
603.64	6.17
603.976	6.38
604.312	6.01
604.648	5.99
604.984	6.4
605.319	6.35
605.655	6.27
605.991	6.29
606.326	6.32
606.662	6.34
606.998	6.38
607.333	6.3
607.668	6.48
608.004	6.62
608.339	6.66
608.674	6.34
609.01	6.43
609.345	6.39
609.68	6.85
610.015	6.71
610.35	6.79
610.685	6.49
611.02	6.57
611.355	6.4
611.689	6.68
612.024	6.59
612.359	6.47
612.694	6.65
613.028	6.76
613.363	6.95
613.697	6.86
614.032	6.76
614.366	6.69
614.7	6.81
615.035	6.95
615.369	7.14
615.703	7
616.037	7.08
616.371	6.84
616.705	6.97
617.039	6.94
617.373	7.24
617.707	7.12
618.041	6.9
618.375	7.5
618.709	7.23
619.042	7.09
619.376	7.22
619.71	7.27
620.043	7.21
620.377	7.01
620.71	7.15
621.043	7.39
621.377	7.39
621.71	7.47
622.043	7.01
622.376	7.15
622.709	7.55
623.043	7.31
623.376	7.36
623.709	7.25
624.041	7.59
624.374	7.39
624.707	7.57
625.04	7.37
625.373	7.68
625.705	7.52
626.038	7.49
626.37	7.65
626.703	7.58
627.035	7.64
627.368	7.69
627.7	7.67
628.032	7.28
628.365	7.95
628.697	7.95
629.029	7.82
629.361	7.66
629.693	7.65
630.025	7.53
630.357	7.66
630.689	7.94
631.021	7.75
631.353	7.76
631.684	8.02
632.016	7.86
632.348	7.74
632.679	8.02
633.011	7.73
633.342	7.55
633.674	7.85
634.005	8
634.336	7.97
634.668	7.84
634.999	7.86
635.33	7.98
635.661	8.37
635.992	8.12
636.323	8.31
636.654	8.3
636.985	8.25
637.316	8.3
637.647	8.14
637.977	8.2
638.308	8.26
638.639	8.1
638.969	8.53
639.3	8.4
639.63	8.58
639.961	8.27
640.291	8.18
640.622	8.24
640.952	8.45
641.282	8.3
641.612	8.83
641.943	8.25
642.273	8.51
642.603	8.11
642.933	8.3
643.263	8.32
643.592	8.74
643.922	8.46
644.252	9.04
644.582	8.32
644.911	8.98
645.241	9.34
645.571	8.69
645.9	8.55
646.23	9.03
646.559	8.6
646.888	8.9
647.218	8.57
647.547	9.06
647.876	8.73
648.205	8.93
648.534	9.05
648.863	8.97
649.192	9.4
649.521	9.19
649.85	8.88
650.179	8.87
650.508	8.93
650.837	9.26
651.165	9.72
651.494	9.32
651.822	8.97
652.151	9.2
652.479	9.62
652.808	9.49
653.136	9.49
653.465	9.79
653.793	9.56
654.121	9.49
654.449	8.88
654.777	9.52
655.105	9.47
655.433	9.17
655.761	9.13
656.089	9.6
656.417	9.5
656.745	9.38
657.073	9.41
657.4	9.72
657.728	9.33
658.056	8.91
658.383	9.41
658.711	10.03
659.038	9.4
659.365	9.18
659.693	9.45
660.02	9.91
660.347	9.66
660.674	9.64
661.001	9.7
661.329	9.48
661.656	9.95
661.982	9.72
662.309	9.94
662.636	9.93
662.963	9.87
663.29	9.88
663.616	10.17
663.943	10.19
664.27	10.08
664.596	10.43
664.923	10.63
665.249	10.22
665.576	10.24
665.902	9.87
666.228	10.4
666.554	10.3
666.881	9.77
667.207	9.66
667.533	10.2
667.859	10.32
668.185	10.13
668.511	9.99
668.837	10.32
669.162	10.55
669.488	10.18
669.814	10.28
670.139	10.6
670.465	10.4
670.791	10.12
671.116	10.3
671.442	10.53
671.767	10.62
672.092	10.24
672.418	10.65
672.743	10.68
673.068	9.97
673.393	10.19
673.718	10.58
674.043	10.75
674.368	10.43
674.693	10.77
675.018	10.8
675.343	11.11
675.667	11.07
675.992	10.81
676.317	10.58
676.641	10.93
676.966	10.29
677.29	10.71
677.615	11.15
677.939	11.47
678.264	10.8
678.588	11.65
678.912	11.24
679.236	11.3
679.56	11.15
679.885	11.24
680.209	11.1
680.532	10.98
680.856	11.31
681.18	11.08
681.504	11.15
681.828	11.07
682.152	11.59
682.475	10.83
682.799	11.07
683.122	11.2
683.446	11.07
683.769	11.61
684.093	10.74
684.416	11.71
684.739	11.66
685.062	11.55
685.386	11.49
685.709	11.93
686.032	11.33
686.355	10.77
686.678	11.64
687.001	11.99
687.324	11.18
687.646	11.47
687.969	11.53
688.292	11.9
688.614	11.44
688.937	11.4
689.26	12.28
689.582	12.17
689.904	11.71
690.227	12.06
690.549	11.8
690.871	11.82
