Data from 16HH-1_forehead_Reflection__3__93.txt Node

Date: Fri Nov 11 16:51:16 CST 2022
User: ToomeyLab
Spectrometer: FLMS14357
Trigger mode: 0
Integration Time (sec): 1.000000E-2
Scans to average: 100
Electric dark correction enabled: true
Nonlinearity correction enabled: false
Boxcar width: 0
XAxis mode: Wavelengths
Number of Pixels in Spectrum: 2048
>>>>>Begin Spectral Data<<<<<
189.047	572.41
189.435	572.41
189.823	572.41
190.211	158.57
190.599	159.09
190.987	2341.42
191.375	-57.88
191.763	170.48
192.151	15.88
192.538	-405.25
192.926	30.49
193.314	-463.43
193.702	-266.06
194.089	-1.34
194.477	-252
194.864	109.13
195.252	-628.69
195.639	120.44
196.027	16.85
196.414	152.72
196.801	-5.81
197.189	118.08
197.576	1.96
197.963	47.8
198.351	14.51
198.738	-59.55
199.125	52
199.512	34.72
199.899	26.15
200.286	52.84
200.673	66.73
201.06	-54.25
201.447	63.21
201.833	56.97
202.22	26.39
202.607	40.37
202.994	46.92
203.38	-21.2
203.767	89.69
204.154	4.65
204.54	49.85
204.927	37.95
205.313	64.61
205.699	38.42
206.086	43.33
206.472	45.85
206.858	-6.27
207.245	15.68
207.631	13.2
208.017	17.14
208.403	30.77
208.789	-32.28
209.175	10.69
209.561	27.92
209.947	25.6
210.333	9.17
210.719	13
211.105	10.64
211.491	-71.46
211.876	31.59
212.262	10.86
212.648	15.99
213.034	56.5
213.419	17.26
213.805	16.17
214.19	-13.58
214.576	40.36
214.961	-4.06
215.346	-31.69
215.732	-4.3
216.117	35.87
216.502	27.32
216.888	20.52
217.273	-1.34
217.658	-5.56
218.043	-27.05
218.428	-15.87
218.813	25.85
219.198	-44.85
219.583	4.49
219.968	36.37
220.353	-15.38
220.738	-37.57
221.122	7.48
221.507	17.38
221.892	11.84
222.276	11.48
222.661	4.49
223.046	15.08
223.43	17.74
223.815	7.2
224.199	10.93
224.583	1.53
224.968	19.19
225.352	-2.01
225.736	11.34
226.121	-1.93
226.505	11.65
226.889	4.24
227.273	10.82
227.657	-2.27
228.041	1.41
228.425	5.68
228.809	8.23
229.193	2.49
229.577	5.09
229.961	4.19
230.344	4.47
230.728	3.18
231.112	3.41
231.495	4.09
231.879	3.64
232.263	3.69
232.646	2.01
233.03	4.01
233.413	4.11
233.797	2.8
234.18	4.93
234.563	3.85
234.946	2.02
235.33	3.76
235.713	4.51
236.096	2.2
236.479	3.96
236.862	4.73
237.245	3.62
237.628	2.84
238.011	2.73
238.394	4.85
238.777	4.12
239.16	4.71
239.543	3.62
239.925	6.52
240.308	3.21
240.691	4.02
241.073	3.91
241.456	3.74
241.838	4.72
242.221	3.52
242.603	3.55
242.986	3.41
243.368	3.48
243.75	4.05
244.133	3.55
244.515	3.75
244.897	3.38
245.279	3.53
245.661	4.18
246.043	3.59
246.425	4.74
246.807	3.24
247.189	3.34
247.571	2.79
247.953	3.81
248.335	4.08
248.717	3.91
249.098	3.68
249.48	3.59
249.862	3.54
250.243	3.86
250.625	4.1
251.006	3.96
251.388	4.22
251.769	4.83
252.151	4.89
252.532	4.87
252.913	4.41
253.295	3.55
253.676	3.76
254.057	3.88
254.438	4.07
254.819	3.54
255.2	4.28
255.581	4.45
255.962	4.29
256.343	4.81
256.724	3.42
257.105	4.13
257.486	3.5
257.867	4.3
258.247	4.06
258.628	3.71
259.009	4.67
259.389	4.44
259.77	4.22
260.15	4.19
260.531	3.74
260.911	3.59
261.292	3.65
261.672	3.53
262.052	3.67
262.432	4.07
262.813	3.49
263.193	3.3
263.573	4.01
263.953	3.6
264.333	4.17
264.713	3.18
265.093	3.89
265.473	4.02
265.853	4.02
266.233	4.11
266.612	4.07
266.992	3.93
267.372	3.67
267.752	4.08
268.131	3.98
268.511	4.24
268.89	3.76
269.27	3.39
269.649	3.3
270.029	3.26
270.408	3.87
270.787	4.26
271.167	3.89
271.546	4.13
271.925	4.39
272.304	4.37
272.683	3.76
273.062	3.65
273.441	3.2
273.82	3.51
274.199	3.53
274.578	3.94
274.957	3.29
275.336	3.55
275.715	3.2
276.093	4.19
276.472	4.04
276.851	3.87
277.229	3.27
277.608	3.38
277.986	3.62
278.365	3.89
278.743	3.34
279.122	3.61
279.5	3.07
279.878	3.67
280.257	3.68
280.635	3.37
281.013	3.82
281.391	3.4
281.769	4.05
282.147	3.34
282.525	3.22
282.903	3.73
283.281	3.68
283.659	3.42
284.037	3.61
284.415	3.32
284.792	3.76
285.17	3.86
285.548	4.04
285.925	3.61
286.303	3.45
286.68	3.84
287.058	3.33
287.435	3.68
287.813	3.75
288.19	3.69
288.567	3.76
288.945	3.06
289.322	3.4
289.699	3.9
290.076	3.75
290.453	3.71
290.83	4.01
291.207	4.05
291.584	3.51
291.961	3.55
292.338	4.37
292.715	3.84
293.092	3.88
293.469	4.63
293.845	4.49
294.222	4.71
294.599	4.2
294.975	4.29
295.352	4.21
295.728	4.38
296.105	4.63
296.481	3.71
296.858	4.4
297.234	4.06
297.61	4.1
297.986	4.13
298.363	4.53
298.739	4.46
299.115	4.09
299.491	4.54
299.867	4.26
300.243	4.47
300.619	4.75
300.995	4.45
301.371	4.31
301.746	5
302.122	4.69
302.498	4.35
302.874	5.01
303.249	4.95
303.625	4.84
304	4.78
304.376	5.26
304.751	5.6
305.127	5.54
305.502	5.1
305.878	5.65
306.253	5.1
306.628	5.24
307.003	5.5
307.378	5.7
307.754	5.58
308.129	5.76
308.504	5.48
308.879	5.25
309.254	5.26
309.629	5.69
310.003	5.72
310.378	5.32
310.753	5.92
311.128	5.64
311.502	5.76
311.877	6.32
312.252	5.97
312.626	5.94
313.001	6.37
313.375	6.75
313.75	6.11
314.124	6.14
314.498	6.86
314.873	6.33
315.247	7.09
315.621	6.65
315.995	6.85
316.369	7.38
316.743	7.2
317.117	6.94
317.491	7.1
317.865	7.34
318.239	7.76
318.613	7.21
318.987	7.78
319.361	7.73
319.734	7.02
320.108	7.95
320.482	7.4
320.855	7.94
321.229	8.46
321.602	7.82
321.976	7.89
322.349	8.46
322.723	8.1
323.096	7.96
323.469	8.65
323.843	9.05
324.216	8.23
324.589	8.87
324.962	8.65
325.335	8.79
325.708	8.87
326.081	8.79
326.454	9.17
326.827	9.21
327.2	8.79
327.573	9.03
327.945	9.18
328.318	9.04
328.691	9.3
329.063	9.64
329.436	9.21
329.809	9.46
330.181	9.62
330.553	9.91
330.926	9.19
331.298	9.8
331.671	9.9
332.043	10.43
332.415	9.92
332.787	10.22
333.159	9.69
333.532	9.76
333.904	9.86
334.276	9.92
334.648	10
335.02	10.64
335.391	10.41
335.763	10.19
336.135	10.25
336.507	10.33
336.879	10.4
337.25	9.83
337.622	10.88
337.993	10.47
338.365	10.51
338.736	10.66
339.108	10.82
339.479	10.85
339.851	10.01
340.222	10.68
340.593	10.42
340.964	11.05
341.336	11.37
341.707	10.96
342.078	11.01
342.449	11.51
342.82	11.25
343.191	11.06
343.562	11.07
343.933	11.01
344.303	11.61
344.674	11.14
345.045	11.33
345.416	11.57
345.786	11.34
346.157	11.18
346.527	11.44
346.898	11.62
347.268	11.8
347.639	12.12
348.009	11.68
348.38	11.72
348.75	12.35
349.12	11.6
349.49	11.96
349.861	11.56
350.231	11.79
350.601	12.92
350.971	12.33
351.341	12.24
351.711	12.26
352.081	11.61
352.45	12.17
352.82	12.47
353.19	12.48
353.56	12.57
353.929	12.53
354.299	12.27
354.669	12.91
355.038	12.79
355.408	12.47
355.777	12.77
356.147	13.05
356.516	12.75
356.885	12.52
357.254	12.97
357.624	12.88
357.993	12.94
358.362	13
358.731	12.87
359.1	12.78
359.469	13.26
359.838	13.26
360.207	13
360.576	13.33
360.945	13.39
361.314	13.43
361.682	13.47
362.051	13.46
362.42	13.24
362.788	13.19
363.157	13.62
363.525	13.6
363.894	13.49
364.262	13.31
364.631	13.4
364.999	13.7
365.367	13.92
365.735	13.92
366.104	13.68
366.472	13.96
366.84	13.91
367.208	13.95
367.576	14.17
367.944	14.52
368.312	14.29
368.68	14.4
369.048	14.46
369.416	14.14
369.783	14.36
370.151	14.34
370.519	14.61
370.886	14.47
371.254	14.32
371.621	14.61
371.989	14.65
372.356	14.26
372.724	14.74
373.091	14.78
373.458	14.59
373.826	14.95
374.193	14.51
374.56	14.71
374.927	14.8
375.294	14.99
375.661	15.21
376.028	14.93
376.395	15.21
376.762	14.79
377.129	15.32
377.496	15.02
377.863	15.17
378.229	15.48
378.596	15.08
378.963	15.32
379.329	15.15
379.696	15.31
380.062	15.08
380.429	15.4
380.795	15.37
381.161	15.72
381.528	15.73
381.894	15.55
382.26	15.69
382.626	15.65
382.993	15.69
383.359	15.88
383.725	15.9
384.091	15.85
384.457	16.07
384.823	15.67
385.188	15.91
385.554	15.84
385.92	15.74
386.286	15.9
386.651	15.8
387.017	15.89
387.383	16.09
387.748	16.16
388.114	16.07
388.479	16.33
388.845	16.08
389.21	16.31
389.575	16.18
389.94	16.54
390.306	16.34
390.671	16.28
391.036	16.53
391.401	16.54
391.766	16.56
392.131	16.25
392.496	16.38
392.861	16.35
393.226	16.4
393.591	16.48
393.956	16.69
394.32	16.86
394.685	16.68
395.05	16.69
395.414	17.02
395.779	16.81
396.143	16.7
396.508	16.73
396.872	17.09
397.236	16.88
397.601	16.84
397.965	16.85
398.329	16.91
398.694	16.9
399.058	16.92
399.422	16.99
399.786	17.18
400.15	16.98
400.514	17.05
400.878	17.44
401.242	17.33
401.605	17.3
401.969	17.3
402.333	17.31
402.697	17.38
403.06	17.44
403.424	17.41
403.787	17.62
404.151	17.43
404.514	17.31
404.878	17.43
405.241	17.55
405.604	17.37
405.968	17.57
406.331	17.51
406.694	17.48
407.057	17.33
407.42	17.72
407.783	17.33
408.146	17.54
408.509	17.66
408.872	17.92
409.235	17.82
409.598	17.67
409.961	17.6
410.323	18.01
410.686	17.97
411.049	17.83
411.411	17.82
411.774	17.5
412.136	17.92
412.499	17.8
412.861	17.79
413.223	17.84
413.586	17.95
413.948	17.84
414.31	18.16
414.672	18.24
415.035	18.22
415.397	18.19
415.759	18.32
416.121	18.28
416.483	18.35
416.845	18.04
417.206	18.36
417.568	18.31
417.93	18.2
418.292	18.22
418.653	18.18
419.015	18.26
419.377	18.37
419.738	18.26
420.1	18.12
420.461	18.18
420.822	18.24
421.184	18.23
421.545	18.09
421.906	18.35
422.267	18.27
422.629	18.23
422.99	18.28
423.351	18.14
423.712	18.3
424.073	18.35
424.434	18.43
424.795	18.73
425.155	18.64
425.516	18.49
425.877	18.51
426.238	18.63
426.598	18.58
426.959	18.65
427.32	18.81
427.68	18.89
428.041	18.98
428.401	19.06
428.761	19.15
429.122	19.26
429.482	19.35
429.842	19.41
430.202	19.4
430.563	19.44
430.923	19.58
431.283	19.63
431.643	19.73
432.003	19.79
432.363	19.72
432.722	19.92
433.082	19.66
433.442	19.88
433.802	19.96
434.161	19.82
434.521	19.74
434.881	19.76
435.24	19.91
435.6	19.75
435.959	19.78
436.319	19.82
436.678	19.87
437.037	19.83
437.396	19.93
437.756	20.07
438.115	20.17
438.474	20.2
438.833	20.15
439.192	20.4
439.551	20.17
439.91	20.49
440.269	20.41
440.628	20.4
440.987	20.49
441.345	20.26
441.704	20.29
442.063	20.43
442.421	20.23
442.78	20.35
443.138	20.36
443.497	20.5
443.855	20.59
444.214	20.63
444.572	20.66
444.93	20.89
445.288	20.8
445.647	20.67
446.005	20.75
446.363	20.87
446.721	20.7
447.079	20.69
447.437	20.59
447.795	20.69
448.153	20.62
448.51	20.66
448.868	20.65
449.226	20.75
449.584	20.84
449.941	20.85
450.299	21.12
450.656	21.13
451.014	21.08
451.371	21.31
451.729	21.3
452.086	21.43
452.443	21.56
452.801	21.6
453.158	21.69
453.515	21.45
453.872	21.42
454.229	21.45
454.586	21.55
454.943	21.55
455.3	21.69
455.657	21.79
456.014	21.52
456.371	21.77
456.727	21.85
457.084	21.92
457.441	22.03
457.797	21.94
458.154	22.01
458.51	21.94
458.867	22.05
459.223	22.04
459.58	22.02
459.936	22.2
460.292	22
460.648	22
461.005	22.08
461.361	21.76
461.717	21.67
462.073	21.86
462.429	21.92
462.785	22.09
463.141	22.15
463.496	22.22
463.852	22.27
464.208	22.47
464.564	22.5
464.919	22.68
465.275	22.77
465.631	22.8
465.986	22.68
466.342	22.72
466.697	22.62
467.052	22.9
467.408	22.84
467.763	22.69
468.118	23.06
468.473	22.76
468.829	22.94
469.184	23.04
469.539	23.04
469.894	23.01
470.249	23.06
470.603	23.08
470.958	23.2
471.313	23.14
471.668	23.24
472.023	23.29
472.377	23.35
472.732	23.26
473.086	23.19
473.441	23.2
473.795	23.39
474.15	23.29
474.504	23.43
474.859	23.41
475.213	23.61
475.567	23.6
475.921	23.6
476.275	23.64
476.63	23.59
476.984	23.62
477.338	23.69
477.692	23.58
478.045	23.67
478.399	23.44
478.753	23.52
479.107	23.59
479.461	23.57
479.814	23.72
480.168	23.59
480.521	23.8
480.875	23.84
481.228	23.69
481.582	23.79
481.935	23.81
482.289	23.85
482.642	23.8
482.995	23.62
483.348	23.59
483.701	23.67
484.055	23.57
484.408	23.41
484.761	23.32
485.114	22.98
485.466	22.76
485.819	22.79
486.172	22.76
486.525	23.01
486.878	23.12
487.23	23.24
487.583	23.41
487.936	23.53
488.288	23.42
488.641	23.38
488.993	23.2
489.345	23.26
489.698	23.32
490.05	23.4
490.402	23.34
490.754	23.53
491.107	23.79
491.459	23.95
491.811	24.08
492.163	24.16
492.515	23.95
492.866	23.82
493.218	23.56
493.57	23.53
493.922	23.6
494.274	23.72
494.625	23.98
494.977	24.24
495.328	24.28
495.68	24.4
496.031	24.62
496.383	24.78
496.734	24.74
497.086	24.8
497.437	24.82
497.788	24.79
498.139	24.62
498.49	24.59
498.842	24.7
499.193	24.61
499.544	24.68
499.894	24.97
500.245	24.78
500.596	25
500.947	24.84
501.298	25.01
501.648	25.23
501.999	25.11
502.35	25.23
502.7	25.17
503.051	25.23
503.401	25.38
503.752	25.26
504.102	25.37
504.452	25.43
504.803	25.5
505.153	25.47
505.503	25.36
505.853	25.38
506.203	25.36
506.553	25.6
506.903	25.41
507.253	25.5
507.603	25.51
507.953	25.6
508.303	25.62
508.652	25.51
509.002	25.55
509.352	25.58
509.701	25.55
510.051	25.52
510.4	25.42
510.75	25.44
511.099	25.44
511.449	25.48
511.798	25.36
512.147	25.54
512.496	25.52
512.846	25.53
513.195	25.62
513.544	25.66
513.893	25.76
514.242	25.62
514.591	25.76
514.939	25.67
515.288	25.78
515.637	25.79
515.986	26.04
516.334	26.06
516.683	26.05
517.032	26.1
517.38	26.08
517.729	26.19
518.077	26.2
518.426	26.15
518.774	25.96
519.122	25.9
519.47	25.92
519.819	25.7
520.167	25.68
520.515	25.66
520.863	25.76
521.211	25.92
521.559	25.79
521.907	25.95
522.255	26.07
522.602	26.28
522.95	26.28
523.298	26.37
523.645	26.3
523.993	26.45
524.341	26.62
524.688	26.44
525.036	26.62
525.383	26.42
525.73	26.61
526.078	26.46
526.425	26.39
526.772	26.28
527.119	26.2
527.466	25.81
527.814	25.96
528.161	26.02
528.508	26.08
528.854	26.14
529.201	26.08
529.548	26.09
529.895	25.69
530.242	25.62
530.588	25.56
530.935	25.64
531.282	25.83
531.628	25.88
531.975	25.98
532.321	26.02
532.667	26.28
533.014	26.38
533.36	26.4
533.706	26.49
534.052	26.5
534.399	26.5
534.745	26.24
535.091	25.96
535.437	26.1
535.783	26.2
536.129	26.34
536.474	26.6
536.82	26.62
537.166	26.86
537.512	26.82
537.857	26.89
538.203	26.7
538.549	26.65
538.894	26.68
539.239	26.75
539.585	27.03
539.93	27.06
540.276	27.16
540.621	27.28
540.966	27.37
541.311	27.27
541.656	27.13
542.001	27.3
542.346	26.9
542.691	26.56
543.036	26.44
543.381	26.42
543.726	26.61
544.071	26.65
544.415	26.78
544.76	26.82
545.105	26.92
545.449	27.04
545.794	27.14
546.138	27.3
546.483	27.29
546.827	27.31
547.171	27.44
547.516	27.41
547.86	27.49
548.204	27.32
548.548	27.28
548.892	27.37
549.236	27.53
549.58	27.49
549.924	27.66
550.268	27.82
550.612	27.91
550.956	28.05
551.3	28.23
551.643	28.11
551.987	28.1
552.33	28.33
552.674	28.38
553.017	28.27
553.361	28.19
553.704	28.17
554.048	28.09
554.391	28.03
554.734	27.92
555.077	28.08
555.42	28.2
555.764	28.27
556.107	28.29
556.45	28.2
556.793	28.33
557.135	28.54
557.478	28.44
557.821	28.56
558.164	28.73
558.507	28.47
558.849	28.55
559.192	28.83
559.534	28.56
559.877	28.54
560.219	28.55
560.562	28.83
560.904	28.63
561.246	28.79
561.589	28.76
561.931	28.82
562.273	28.88
562.615	28.72
562.957	28.75
563.299	28.8
563.641	28.61
563.983	28.8
564.325	28.7
564.667	28.85
565.008	28.77
565.35	28.92
565.692	28.68
566.033	29.03
566.375	29
566.716	29.01
567.058	28.62
567.399	28.69
567.741	28.86
568.082	28.8
568.423	28.8
568.764	28.95
569.105	29.01
569.447	28.86
569.788	28.95
570.129	29.01
570.47	29.06
570.811	28.98
571.151	29.15
571.492	29.14
571.833	29.1
572.174	29.08
572.514	29.3
572.855	29.25
573.195	29.07
573.536	29.01
573.876	28.99
574.217	28.85
574.557	29.09
574.898	29.24
575.238	29.21
575.578	29.15
575.918	29.13
576.258	29.17
576.598	29.35
576.938	29.19
577.278	29.2
577.618	29.4
577.958	29.28
578.298	29.36
578.638	29.43
578.977	29.54
579.317	29.51
579.657	29.46
579.996	29.57
580.336	29.8
580.675	29.78
581.014	30.03
581.354	29.72
581.693	29.72
582.032	29.96
582.372	30.01
582.711	29.84
583.05	29.96
583.389	30.03
583.728	29.94
584.067	30.19
584.406	30.2
584.745	30.04
585.083	30.31
585.422	30.04
585.761	30.13
586.1	30.18
586.438	30.18
586.777	30.1
587.115	30.26
587.454	30.2
587.792	30.28
588.13	30.4
588.469	30.15
588.807	30.28
589.145	30.3
589.483	30.51
589.821	30.31
590.159	30.21
590.497	30.34
590.835	30.22
591.173	30.51
591.511	30.22
591.849	30.22
592.187	30.28
592.524	30.17
592.862	30.4
593.2	30.39
593.537	30.37
593.875	30.44
594.212	30.62
594.55	30.58
594.887	30.33
595.224	30.38
595.561	30.64
595.899	30.16
596.236	30.51
596.573	30.07
596.91	30.65
597.247	30.44
597.584	30.4
597.921	30.31
598.258	30.51
598.594	30.2
598.931	30.22
599.268	30.25
599.604	30.41
599.941	30.48
600.277	30.46
600.614	30.91
600.95	31.03
601.287	30.91
601.623	30.75
601.959	30.78
602.296	30.87
602.632	31.05
602.968	31.01
603.304	30.72
603.64	30.91
603.976	31.03
604.312	30.77
604.648	30.84
604.984	30.66
605.319	30.71
605.655	30.76
605.991	30.47
606.326	30.68
606.662	30.73
606.998	30.62
607.333	30.65
607.668	30.77
608.004	30.84
608.339	31.05
608.674	31.08
609.01	30.97
609.345	31.3
609.68	31.4
610.015	31.35
610.35	31.19
610.685	31.07
611.02	30.96
611.355	30.73
611.689	30.98
612.024	31.08
612.359	30.96
612.694	31.06
613.028	31.43
613.363	31.32
613.697	31.55
614.032	31.68
614.366	31.23
614.7	31.2
615.035	31.59
615.369	31.63
615.703	31.87
616.037	31.62
616.371	31.48
616.705	31.4
617.039	31.55
617.373	31.49
617.707	31.52
618.041	31.22
618.375	31.59
618.709	31.75
619.042	31.62
619.376	31.69
619.71	31.65
620.043	31.76
620.377	31.61
620.71	31.67
621.043	31.93
621.377	31.62
621.71	32.18
622.043	31.63
622.376	32.05
622.709	31.98
623.043	31.68
623.376	31.68
623.709	31.94
624.041	31.69
624.374	31.95
624.707	32.12
625.04	32.01
625.373	32.23
625.705	32.14
626.038	32.01
626.37	32.15
626.703	31.96
627.035	32.16
627.368	31.97
627.7	31.67
628.032	31.91
628.365	32.24
628.697	31.92
629.029	31.99
629.361	32.09
629.693	31.91
630.025	32.13
630.357	32.03
630.689	32.2
631.021	31.91
631.353	31.97
631.684	32.4
632.016	32.16
632.348	32.31
632.679	32.54
633.011	32.1
633.342	32.07
633.674	32.28
634.005	32.52
634.336	32.07
634.668	32.06
634.999	32.11
635.33	31.97
635.661	32.55
635.992	32.53
636.323	32.42
636.654	32.76
636.985	32.48
637.316	32.41
637.647	32.5
637.977	33.06
638.308	32.36
638.639	32.38
638.969	32.81
639.3	32.83
639.63	32.68
639.961	32.7
640.291	32.99
640.622	32.83
640.952	32.95
641.282	33.59
641.612	32.68
641.943	33.11
642.273	32.63
642.603	32.67
642.933	32.74
643.263	32.71
643.592	33.22
643.922	32.97
644.252	33.17
644.582	33.18
644.911	33.13
645.241	33.18
645.571	33.17
645.9	33.05
646.23	32.94
646.559	32.92
646.888	33.22
647.218	33.38
647.547	33.23
647.876	32.92
648.205	33.06
648.534	32.72
648.863	32.76
649.192	33.51
649.521	33.28
649.85	33.44
650.179	32.98
650.508	33.26
650.837	33.38
651.165	33.49
651.494	33.45
651.822	33.5
652.151	33.53
652.479	33.6
652.808	33.46
653.136	33.34
653.465	33.94
653.793	33.3
654.121	33.47
654.449	33.37
654.777	33.39
655.105	33.56
655.433	33.77
655.761	33.47
656.089	33.48
656.417	33.64
656.745	33.21
657.073	33.12
657.4	33.29
657.728	33.56
658.056	33.47
658.383	33.91
658.711	34.53
659.038	33.87
659.365	33.3
659.693	33.62
660.02	33.97
660.347	33.93
660.674	33.52
661.001	33.8
661.329	33.67
661.656	33.55
661.982	33.68
662.309	33.3
662.636	33.51
662.963	33.72
663.29	34.22
663.616	33.9
663.943	34.46
664.27	34.12
664.596	34.45
664.923	34.4
665.249	34.41
665.576	34.3
665.902	34.49
666.228	33.89
666.554	34.02
666.881	33.65
667.207	34.01
667.533	33.73
667.859	33.62
668.185	33.63
668.511	33.66
668.837	34.47
669.162	34.32
669.488	33.89
669.814	33.96
670.139	34.43
