Data from 16HH-1_crown_Reflection__0__85.txt Node

Date: Fri Nov 11 16:49:31 CST 2022
User: ToomeyLab
Spectrometer: FLMS14357
Trigger mode: 0
Integration Time (sec): 1.000000E-2
Scans to average: 100
Electric dark correction enabled: true
Nonlinearity correction enabled: false
Boxcar width: 0
XAxis mode: Wavelengths
Number of Pixels in Spectrum: 2048
>>>>>Begin Spectral Data<<<<<
189.047	595.52
189.435	595.52
189.823	595.52
190.211	-373.56
190.599	17.87
190.987	1442.91
191.375	66.74
191.763	124.42
192.151	38.17
192.538	8.38
192.926	-83.56
193.314	827.48
193.702	-1057.93
194.089	13.14
194.477	-198.47
194.864	21.77
195.252	-831.38
195.639	-29.77
196.027	86.43
196.414	206.19
196.801	81.92
197.189	102.1
197.576	175.11
197.963	62.96
198.351	10.45
198.738	-160.88
199.125	-3.02
199.512	26.39
199.899	21.06
200.286	23.66
200.673	31.99
201.06	-39.8
201.447	22.06
201.833	13.69
202.22	-3.28
202.607	45.96
202.994	39.14
203.38	-48.68
203.767	3.79
204.154	-35.01
204.54	24.79
204.927	42.9
205.313	14.7
205.699	34.14
206.086	33.2
206.472	36.25
206.858	-6.07
207.245	-11.27
207.631	27.75
208.017	6.08
208.403	13.44
208.789	-90.05
209.175	32.77
209.561	5.13
209.947	-19.3
210.333	-2.95
210.719	3.24
211.105	1.04
211.491	-98.43
211.876	19.15
212.262	-26.15
212.648	8.31
213.034	38.88
213.419	-15.44
213.805	15.11
214.19	-22.41
214.576	17.32
214.961	-2.21
215.346	-38.74
215.732	-28.1
216.117	46.34
216.502	-6.36
216.888	-10.19
217.273	-10.37
217.658	-23.99
218.043	-5.8
218.428	-3.83
218.813	3.63
219.198	-71.31
219.583	6.08
219.968	19.53
220.353	-30.09
220.738	1.55
221.122	-32.97
221.507	12.13
221.892	6.49
222.276	17.95
222.661	3.4
223.046	9.27
223.43	7.39
223.815	7.8
224.199	22.62
224.583	2.73
224.968	18.09
225.352	-6.13
225.736	8.86
226.121	-2.33
226.505	5.09
226.889	5.33
227.273	6.24
227.657	-1.28
228.041	1.69
228.425	5.72
228.809	6.12
229.193	0.75
229.577	6.19
229.961	5.92
230.344	4.76
230.728	4.7
231.112	5.32
231.495	5.2
231.879	4.93
232.263	3.99
232.646	3.76
233.03	5.14
233.413	3.75
233.797	4.46
234.18	4.84
234.563	3.27
234.946	3.89
235.33	4.07
235.713	4.79
236.096	3.01
236.479	4.42
236.862	5.46
237.245	5.53
237.628	5.32
238.011	5.26
238.394	4.33
238.777	3.97
239.16	4.31
239.543	4.95
239.925	5.63
240.308	4.24
240.691	5.86
241.073	4.92
241.456	3.2
241.838	4.55
242.221	4.71
242.603	4.65
242.986	4.7
243.368	4.61
243.75	4.91
244.133	4.76
244.515	4.69
244.897	4.42
245.279	4.89
245.661	4.05
246.043	5.41
246.425	4.55
246.807	4.28
247.189	4.17
247.571	3.82
247.953	4.51
248.335	4.84
248.717	4.65
249.098	4.32
249.48	4.68
249.862	4.49
250.243	4.68
250.625	4.59
251.006	4.6
251.388	4.49
251.769	5.74
252.151	4.29
252.532	5.04
252.913	4.06
253.295	4.44
253.676	4.68
254.057	4.44
254.438	4.65
254.819	4.11
255.2	5
255.581	4.47
255.962	4.6
256.343	4.41
256.724	4.52
257.105	4.79
257.486	4.29
257.867	3.93
258.247	5.25
258.628	4.78
259.009	4.26
259.389	4.02
259.77	4.48
260.15	4.93
260.531	4.15
260.911	4.24
261.292	4.44
261.672	4.26
262.052	4.34
262.432	4.71
262.813	4.24
263.193	4.2
263.573	4.7
263.953	4.6
264.333	3.98
264.713	4.21
265.093	4.75
265.473	5.28
265.853	3.72
266.233	3.5
266.612	3.73
266.992	4.52
267.372	4.5
267.752	4.58
268.131	4.08
268.511	4.68
268.89	4.56
269.27	4.04
269.649	4.23
270.029	3.69
270.408	4.72
270.787	4.95
271.167	4.22
271.546	4.39
271.925	4.29
272.304	4.24
272.683	4.38
273.062	4.16
273.441	4.01
273.82	3.92
274.199	4.32
274.578	5.07
274.957	4.09
275.336	4.48
275.715	4.27
276.093	4.81
276.472	4.29
276.851	4.09
277.229	4.3
277.608	4.48
277.986	4.2
278.365	4.84
278.743	4.23
279.122	4.13
279.5	4.24
279.878	4.07
280.257	5.09
280.635	4.57
281.013	3.64
281.391	3.92
281.769	4.63
282.147	3.81
282.525	3.91
282.903	4.13
283.281	3.96
283.659	3.98
284.037	4.04
284.415	4.08
284.792	4.17
285.17	3.81
285.548	4.71
285.925	4.36
286.303	4.09
286.68	4.02
287.058	4.38
287.435	4.27
287.813	4.24
288.19	4.34
288.567	4.33
288.945	3.9
289.322	4.09
289.699	3.92
290.076	4.18
290.453	3.98
290.83	4.14
291.207	4.18
291.584	3.78
291.961	4.16
292.338	4.22
292.715	4.41
293.092	3.91
293.469	4.33
293.845	4.35
294.222	4.1
294.599	4.05
294.975	3.97
295.352	3.52
295.728	4.21
296.105	4.17
296.481	3.55
296.858	4.17
297.234	4.06
297.61	4.09
297.986	3.49
298.363	3.83
298.739	4.09
299.115	3.9
299.491	4.09
299.867	3.61
300.243	3.9
300.619	4.19
300.995	4.09
301.371	3.78
301.746	3.84
302.122	4.07
302.498	3.5
302.874	4.32
303.249	3.7
303.625	3.63
304	3.82
304.376	4.22
304.751	4.34
305.127	4.21
305.502	4.22
305.878	4.17
306.253	3.8
306.628	4.45
307.003	4.25
307.378	4.22
307.754	4.43
308.129	4.03
308.504	4.06
308.879	3.56
309.254	3.47
309.629	3.91
310.003	3.76
310.378	3.43
310.753	3.85
311.128	4.2
311.502	3.46
311.877	3.9
312.252	3.66
312.626	3.41
313.001	3.64
313.375	4
313.75	3.73
314.124	3.96
314.498	4.19
314.873	3.94
315.247	3.85
315.621	3.51
315.995	3.64
316.369	3.93
316.743	4.06
317.117	3.89
317.491	3.97
317.865	3.86
318.239	4.2
318.613	3.94
318.987	4.29
319.361	4.2
319.734	3.27
320.108	3.79
320.482	3.47
320.855	3.3
321.229	4.46
321.602	3.88
321.976	3.2
322.349	3.87
322.723	4.2
323.096	4.14
323.469	3.65
323.843	3.84
324.216	3.44
324.589	3.83
324.962	3.58
325.335	4.49
325.708	3.91
326.081	3.68
326.454	3.75
326.827	3.66
327.2	4.11
327.573	4.2
327.945	3.62
328.318	4.06
328.691	4.12
329.063	3.89
329.436	4.11
329.809	3.64
330.181	4.3
330.553	3.74
330.926	3.45
331.298	3.83
331.671	3.81
332.043	3.92
332.415	3.91
332.787	3.82
333.159	4.07
333.532	3.35
333.904	3.45
334.276	3.66
334.648	3.46
335.02	4.02
335.391	4.02
335.763	3.91
336.135	3.73
336.507	4.13
336.879	3.68
337.25	3.68
337.622	4.44
337.993	4.02
338.365	3.61
338.736	3.59
339.108	3.75
339.479	3.77
339.851	3.4
340.222	3.39
340.593	3.65
340.964	3.59
341.336	3.44
341.707	3.63
342.078	3.31
342.449	4.14
342.82	3.48
343.191	4.21
343.562	3.98
343.933	3.3
344.303	4.3
344.674	3.97
345.045	3.99
345.416	3.57
345.786	3.74
346.157	3.77
346.527	3.62
346.898	3.45
347.268	3.8
347.639	4.01
348.009	3.56
348.38	3.93
348.75	4.25
349.12	3.94
349.49	3.93
349.861	3.54
350.231	3.78
350.601	4.67
350.971	3.95
351.341	3.81
351.711	3.78
352.081	3.26
352.45	3.77
352.82	3.63
353.19	3.69
353.56	4.05
353.929	4
354.299	3.87
354.669	3.71
355.038	3.38
355.408	3.65
355.777	3.54
356.147	4.03
356.516	3.97
356.885	3.69
357.254	3.95
357.624	3.79
357.993	3.87
358.362	3.71
358.731	3.51
359.1	3.63
359.469	3.66
359.838	3.82
360.207	3.9
360.576	3.85
360.945	4.07
361.314	3.72
361.682	3.75
362.051	3.75
362.42	3.61
362.788	3.63
363.157	3.59
363.525	3.98
363.894	3.77
364.262	3.57
364.631	3.78
364.999	3.91
365.367	4.05
365.735	3.93
366.104	3.83
366.472	3.88
366.84	3.96
367.208	3.59
367.576	3.73
367.944	4.17
368.312	3.71
368.68	4.04
369.048	3.74
369.416	3.71
369.783	3.55
370.151	3.64
370.519	4.15
370.886	4.06
371.254	3.9
371.621	4.05
371.989	3.61
372.356	3.54
372.724	4.08
373.091	3.81
373.458	3.65
373.826	3.94
374.193	3.79
374.56	3.91
374.927	3.87
375.294	4.06
375.661	4.41
376.028	4.05
376.395	4.21
376.762	3.99
377.129	4.17
377.496	3.94
377.863	4.06
378.229	4.25
378.596	4.02
378.963	3.89
379.329	3.96
379.696	3.88
380.062	3.84
380.429	3.61
380.795	4.17
381.161	4.21
381.528	4.15
381.894	3.94
382.26	3.77
382.626	3.9
382.993	4.14
383.359	4.09
383.725	3.94
384.091	3.95
384.457	4.02
384.823	3.8
385.188	3.7
385.554	3.77
385.92	3.7
386.286	3.9
386.651	3.89
387.017	3.8
387.383	3.83
387.748	3.62
388.114	3.93
388.479	4.11
388.845	3.76
389.21	4.31
389.575	3.92
389.94	4.14
390.306	3.91
390.671	4.07
391.036	3.96
391.401	3.98
391.766	4.18
392.131	3.79
392.496	3.96
392.861	3.78
393.226	3.87
393.591	3.83
393.956	4.06
394.32	4.08
394.685	4.13
395.05	4.27
395.414	4.13
395.779	3.98
396.143	4.05
396.508	4.05
396.872	4.19
397.236	4.19
397.601	3.95
397.965	3.98
398.329	4.15
398.694	3.92
399.058	4.07
399.422	4.09
399.786	4.11
400.15	4.06
400.514	4.05
400.878	4.13
401.242	4.06
401.605	4.07
401.969	4.16
402.333	4.03
402.697	3.98
403.06	4.21
403.424	3.84
403.787	3.83
404.151	3.93
404.514	4
404.878	4.38
405.241	4.05
405.604	3.94
405.968	4.24
406.331	3.98
406.694	4.19
407.057	4.09
407.42	4.27
407.783	3.94
408.146	4.27
408.509	4.08
408.872	4.33
409.235	4.38
409.598	3.9
409.961	4.11
410.323	4.39
410.686	4.34
411.049	4.44
411.411	4.19
411.774	4.14
412.136	3.91
412.499	4.13
412.861	4.04
413.223	4.01
413.586	3.96
413.948	4.25
414.31	4.22
414.672	4.26
415.035	4.28
415.397	4.23
415.759	4.28
416.121	4.19
416.483	4.27
416.845	4.11
417.206	4.29
417.568	4.16
417.93	4.18
418.292	4.06
418.653	4.2
419.015	4.35
419.377	4.15
419.738	4.24
420.1	4.1
420.461	4.13
420.822	4.05
421.184	4.09
421.545	4.1
421.906	4.12
422.267	4.12
422.629	4.16
422.99	4.05
423.351	4.04
423.712	4.14
424.073	4.08
424.434	4.09
424.795	4.26
425.155	4.15
425.516	4.01
425.877	4.14
426.238	4.06
426.598	4.1
426.959	4.25
427.32	4.16
427.68	4.18
428.041	4.31
428.401	4.22
428.761	4.22
429.122	4.28
429.482	4.26
429.842	4.28
430.202	4.15
430.563	4.17
430.923	4.31
431.283	4.34
431.643	4.34
432.003	4.38
432.363	4.2
432.722	4.3
433.082	4.32
433.442	4.3
433.802	4.25
434.161	4.31
434.521	4.45
434.881	4.22
435.24	4.36
435.6	4.19
435.959	4.28
436.319	4.17
436.678	4.1
437.037	4.16
437.396	4.31
437.756	4.13
438.115	4.22
438.474	4.26
438.833	4.19
439.192	4.22
439.551	4.27
439.91	4.4
440.269	4.25
440.628	4.37
440.987	4.45
441.345	4.33
441.704	4.28
442.063	4.3
442.421	4.2
442.78	4.25
443.138	4.21
443.497	4.3
443.855	4.29
444.214	4.25
444.572	4.38
444.93	4.31
445.288	4.41
445.647	4.29
446.005	4.43
446.363	4.28
446.721	4.25
447.079	4.22
447.437	4.26
447.795	4.21
448.153	4.2
448.51	4.25
448.868	4.24
449.226	4.32
449.584	4.27
449.941	4.23
450.299	4.27
450.656	4.37
451.014	4.5
451.371	4.29
451.729	4.42
452.086	4.3
452.443	4.4
452.801	4.32
453.158	4.44
453.515	4.28
453.872	4.45
454.229	4.24
454.586	4.35
454.943	4.34
455.3	4.25
455.657	4.4
456.014	4.36
456.371	4.3
456.727	4.35
457.084	4.33
457.441	4.39
457.797	4.4
458.154	4.2
458.51	4.42
458.867	4.43
459.223	4.24
459.58	4.47
459.936	4.24
460.292	4.37
460.648	4.24
461.005	4.45
461.361	4.42
461.717	4.26
462.073	4.37
462.429	4.37
462.785	4.24
463.141	4.48
463.496	4.33
463.852	4.43
464.208	4.4
464.564	4.45
464.919	4.44
465.275	4.27
465.631	4.52
465.986	4.43
466.342	4.41
466.697	4.63
467.052	4.6
467.408	4.5
467.763	4.56
468.118	4.37
468.473	4.48
468.829	4.69
469.184	4.5
469.539	4.58
469.894	4.43
470.249	4.43
470.603	4.46
470.958	4.53
471.313	4.51
471.668	4.5
472.023	4.47
472.377	4.58
472.732	4.57
473.086	4.42
473.441	4.45
473.795	4.54
474.15	4.51
474.504	4.52
474.859	4.67
475.213	4.47
475.567	4.56
475.921	4.71
476.275	4.54
476.63	4.48
476.984	4.52
477.338	4.54
477.692	4.6
478.045	4.54
478.399	4.49
478.753	4.65
479.107	4.49
479.461	4.71
479.814	4.46
480.168	4.67
480.521	4.58
480.875	4.6
481.228	4.54
481.582	4.59
481.935	4.51
482.289	4.59
482.642	4.51
482.995	4.46
483.348	4.47
483.701	4.55
484.055	4.48
484.408	4.45
484.761	4.34
485.114	4.3
485.466	4.22
485.819	4.25
486.172	4.28
486.525	4.34
486.878	4.33
487.23	4.4
487.583	4.41
487.936	4.48
488.288	4.38
488.641	4.44
488.993	4.34
489.345	4.27
489.698	4.35
490.05	4.33
490.402	4.36
490.754	4.49
491.107	4.45
491.459	4.48
491.811	4.5
492.163	4.55
492.515	4.53
492.866	4.37
493.218	4.33
493.57	4.34
493.922	4.4
494.274	4.46
494.625	4.44
494.977	4.48
495.328	4.65
495.68	4.49
496.031	4.66
496.383	4.67
496.734	4.66
497.086	4.57
497.437	4.62
497.788	4.73
498.139	4.59
498.49	4.59
498.842	4.59
499.193	4.52
499.544	4.58
499.894	4.71
500.245	4.62
500.596	4.63
500.947	4.59
501.298	4.67
501.648	4.84
501.999	4.65
502.35	4.8
502.7	4.84
503.051	4.66
503.401	4.72
503.752	4.63
504.102	4.62
504.452	4.7
504.803	4.73
505.153	4.67
505.503	4.68
505.853	4.76
506.203	4.82
506.553	4.75
506.903	4.71
507.253	4.62
507.603	4.79
507.953	4.79
508.303	4.67
508.652	4.66
509.002	4.7
509.352	4.82
509.701	4.73
510.051	4.71
510.4	4.68
510.75	4.66
511.099	4.7
511.449	4.7
511.798	4.61
512.147	4.73
512.496	4.72
512.846	4.67
513.195	4.58
513.544	4.7
513.893	4.76
514.242	4.76
514.591	4.75
514.939	4.68
515.288	4.71
515.637	4.8
515.986	4.89
516.334	4.88
516.683	4.83
517.032	4.64
517.38	4.79
517.729	4.8
518.077	4.77
518.426	4.81
518.774	4.64
519.122	4.7
519.47	4.6
519.819	4.59
520.167	4.67
520.515	4.71
520.863	4.66
521.211	4.73
521.559	4.74
521.907	4.8
522.255	4.77
522.602	4.86
522.95	4.78
523.298	4.85
523.645	4.78
523.993	4.81
524.341	4.93
524.688	4.78
525.036	4.85
525.383	4.86
525.73	4.84
526.078	4.7
526.425	4.85
526.772	4.79
527.119	4.82
527.466	4.67
527.814	4.71
528.161	4.73
528.508	4.72
528.854	4.72
529.201	4.73
529.548	4.67
529.895	4.6
530.242	4.58
530.588	4.58
530.935	4.55
531.282	4.7
531.628	4.65
531.975	4.65
532.321	4.69
532.667	4.78
533.014	4.8
533.36	4.78
533.706	4.71
534.052	4.78
534.399	4.79
534.745	4.67
535.091	4.63
535.437	4.69
535.783	4.68
536.129	4.72
536.474	4.86
536.82	4.78
537.166	4.81
537.512	4.85
537.857	4.85
538.203	4.71
538.549	4.76
538.894	4.76
539.239	4.79
539.585	4.8
539.93	4.89
540.276	4.88
540.621	4.92
540.966	4.9
541.311	4.93
541.656	4.86
542.001	4.96
542.346	4.77
542.691	4.67
543.036	4.67
543.381	4.65
543.726	4.71
544.071	4.73
544.415	4.78
544.76	4.71
545.105	4.9
545.449	4.79
545.794	4.85
546.138	4.95
546.483	4.86
546.827	4.95
547.171	4.9
547.516	4.8
547.86	4.89
548.204	4.82
548.548	4.86
548.892	4.93
549.236	4.85
549.58	5
549.924	4.94
550.268	5.05
550.612	5.07
550.956	5.04
551.3	5.13
551.643	4.98
551.987	4.98
552.33	5.01
552.674	4.9
553.017	4.94
553.361	4.93
553.704	4.98
554.048	4.85
554.391	4.97
554.734	4.84
555.077	5.09
555.42	4.98
555.764	5.06
556.107	4.95
556.45	4.9
556.793	5.04
557.135	4.93
557.478	5.02
557.821	5.13
558.164	5.21
558.507	5.01
558.849	4.88
559.192	5.12
559.534	5.07
559.877	5.25
560.219	4.97
560.562	5.09
560.904	5.04
561.246	4.97
561.589	5.25
561.931	5.24
562.273	5.13
562.615	5.02
562.957	5.12
563.299	5.16
563.641	5.07
563.983	4.96
564.325	5.08
564.667	5.11
565.008	5.02
565.35	5.18
565.692	4.93
566.033	5.14
566.375	5.02
566.716	5.08
567.058	4.94
567.399	5.08
567.741	5.23
568.082	5.12
568.423	5.09
568.764	5.18
569.105	5.03
569.447	5.07
569.788	5.05
570.129	4.99
570.47	4.95
570.811	5.08
571.151	5.16
571.492	5.15
571.833	5
572.174	5.2
572.514	5.24
572.855	5.18
573.195	5.16
573.536	5.07
573.876	5.07
574.217	4.94
574.557	5.06
574.898	5.16
575.238	5.15
575.578	5.09
575.918	4.88
576.258	5.11
576.598	5.15
576.938	5.11
577.278	5.21
577.618	5.11
577.958	5.03
578.298	5.25
578.638	5.12
578.977	5.15
579.317	5.16
579.657	5.19
579.996	5.13
580.336	5.18
580.675	4.97
581.014	5.24
581.354	5.14
581.693	5.05
582.032	5.08
582.372	5.11
582.711	5.13
583.05	5.18
583.389	5.39
583.728	5.29
584.067	5.13
584.406	5.06
584.745	5.21
585.083	5.3
585.422	5.06
585.761	5.33
586.1	5.1
586.438	4.91
586.777	5.2
587.115	5.06
587.454	5.39
587.792	5.36
588.13	5.27
588.469	5.15
588.807	5.18
589.145	5.24
589.483	5.1
589.821	5.26
590.159	5.37
590.497	5.1
590.835	5.24
591.173	5.16
591.511	5.41
591.849	5.15
592.187	5.1
592.524	5.08
592.862	5.34
593.2	5.39
593.537	4.89
593.875	5.23
594.212	5.33
594.55	5.18
594.887	5.16
595.224	5.18
595.561	5.32
595.899	5.06
596.236	5.31
596.573	5.07
596.91	5.19
597.247	5.08
597.584	5.19
597.921	5.11
598.258	5.29
598.594	5.24
598.931	5.21
599.268	5.1
599.604	5.28
599.941	5.15
600.277	5.22
600.614	5.45
600.95	5.23
601.287	5.27
601.623	5.05
601.959	5.04
602.296	5.18
602.632	5.11
602.968	5.3
603.304	5.25
603.64	5.16
603.976	5.26
604.312	5.12
604.648	4.9
604.984	5
605.319	5.06
605.655	5.23
605.991	5.14
606.326	5.21
606.662	5.1
606.998	5.1
607.333	5.4
607.668	5.11
608.004	5.06
608.339	5.36
608.674	5.25
609.01	4.98
609.345	5.22
609.68	5.35
610.015	5.51
610.35	5.41
610.685	5.08
611.02	5.35
611.355	5.04
611.689	5.23
612.024	5.15
612.359	4.97
612.694	5.25
613.028	5.32
613.363	5.29
613.697	5.28
614.032	5.12
614.366	4.96
614.7	5.06
615.035	5.61
615.369	5.43
615.703	5.55
616.037	5.19
616.371	5.44
616.705	5.36
617.039	5.21
617.373	5.46
617.707	5.68
618.041	4.83
618.375	5.18
618.709	5.13
619.042	5.5
619.376	5.37
619.71	5.34
620.043	5.38
620.377	5.5
620.71	5.42
621.043	5.34
621.377	5.4
621.71	5.21
622.043	5.27
622.376	5.01
622.709	5.39
623.043	5.13
623.376	5.54
623.709	5.08
624.041	5.23
624.374	5.16
624.707	5.34
625.04	5.18
625.373	5.38
625.705	5.17
626.038	5.19
626.37	5.49
626.703	5.61
627.035	5.28
627.368	5.53
627.7	5.37
628.032	5.23
628.365	5.59
628.697	5.31
629.029	5.36
629.361	5.25
629.693	5.07
630.025	4.96
630.357	5.2
630.689	5.37
631.021	5.42
631.353	5.38
631.684	5.39
632.016	5.25
632.348	5.14
632.679	5.32
633.011	5.08
633.342	5.27
633.674	5.26
634.005	5.39
634.336	5.02
634.668	5.15
634.999	4.99
635.33	5.3
635.661	5.58
635.992	5.42
636.323	5.64
636.654	5.84
636.985	5.52
637.316	5.61
637.647	5.37
637.977	5.1
638.308	5.08
638.639	5.2
638.969	5.46
639.3	5.23
639.63	5.33
639.961	5.12
640.291	5.62
640.622	5.41
640.952	5.18
641.282	5.32
641.612	5.6
641.943	5.23
642.273	5.27
642.603	5.3
642.933	5.31
643.263	5.51
643.592	5.49
643.922	5.08
644.252	5.36
644.582	4.99
644.911	5.7
645.241	5.68
645.571	5.25
645.9	5.4
646.23	5.39
646.559	5.14
646.888	5.78
647.218	5.19
647.547	5.64
647.876	5.08
648.205	5.4
648.534	5.26
648.863	5.41
649.192	5.86
649.521	5.57
649.85	5.64
650.179	5.44
650.508	5.26
650.837	5.57
651.165	5.46
651.494	5.54
651.822	5.31
652.151	5.32
652.479	5.4
652.808	5.61
653.136	5.38
653.465	5.71
653.793	5.73
654.121	5.81
654.449	5.28
654.777	5.32
655.105	5.55
655.433	5.24
655.761	5.05
656.089	5.78
656.417	5.5
656.745	5.72
657.073	5.25
657.4	5.57
657.728	5.59
658.056	5.27
658.383	5.39
658.711	5.72
659.038	5.37
659.365	5.21
659.693	5.52
660.02	5.91
660.347	5.82
660.674	5.45
661.001	5.49
661.329	5.37
661.656	5.54
661.982	5.38
662.309	5.34
662.636	5.38
662.963	5.45
663.29	5.54
663.616	5.68
663.943	5.57
664.27	5.24
664.596	6
664.923	5.73
665.249	5.75
665.576	5.57
665.902	5.53
666.228	5.66
666.554	5.8
666.881	5.26
667.207	5.26
667.533	5.52
667.859	5.3
668.185	5.18
668.511	6.04
668.837	5.26
669.162	5.52
669.488	5.14
669.814	5.14
670.139	6.23
670.465	5.76
670.791	5.21
671.116	5.6
671.442	5.6
671.767	5.31
672.092	5.4
672.418	5.87
672.743	5.69
673.068	5.53
673.393	5.47
673.718	5.44
674.043	5.8
674.368	5.39
674.693	6.01
675.018	5.89
675.343	5.56
675.667	5.35
675.992	5.9
676.317	5.62
676.641	5.93
676.966	5.14
677.29	5.45
677.615	5.49
677.939	5.87
678.264	5.8
678.588	5.67
678.912	5.7
679.236	5.75
679.56	5.56
679.885	5.69
680.209	5.57
680.532	5.38
680.856	6.37
681.18	5.95
681.504	5.68
681.828	5.36
682.152	5.89
682.475	5.61
682.799	5.64
683.122	5.87
683.446	5.72
683.769	5.96
684.093	5.12
684.416	5.84
684.739	5.77
685.062	5.47
685.386	5.82
685.709	5.83
686.032	5.76
686.355	5.12
686.678	5.51
687.001	6.17
687.324	5.45
687.646	5.76
687.969	5.55
688.292	5.39
688.614	5.54
688.937	5.38
689.26	5.48
689.582	5.69
689.904	5.27
690.227	6.24
690.549	5.78
690.871	5.63
691.194	5.85
691.516	5.97
691.838	5.87
692.16	5.85
692.482	5.42
