Data from 0361_crown_Reflection__3__09.txt Node

Date: Mon Dec 11 17:38:53 CST 2023
User: ToomeyLab
Spectrometer: FLMS14357
Trigger mode: 0
Integration Time (sec): 1.000000E-2
Scans to average: 100
Electric dark correction enabled: true
Nonlinearity correction enabled: false
Boxcar width: 0
XAxis mode: Wavelengths
Number of Pixels in Spectrum: 2048
>>>>>Begin Spectral Data<<<<<
189.047	-118.93
189.435	-118.93
189.823	-118.93
190.211	139.9
190.599	-70.78
190.987	-115.16
191.375	224.32
191.763	230.01
192.151	73.52
192.538	193.68
192.926	39
193.314	277.39
193.702	100.45
194.089	386.99
194.477	104.31
194.864	39.11
195.252	98.58
195.639	3358.87
196.027	308.16
196.414	23641.67
196.801	69.12
197.189	-20.2
197.576	152.97
197.963	36.74
198.351	7.17
198.738	11.82
199.125	-65.39
199.512	-4.46
199.899	1.83
200.286	27.68
200.673	-75.77
201.06	19.35
201.447	-2.74
201.833	33.7
202.22	25.43
202.607	-13.24
202.994	-16.47
203.38	-9.26
203.767	76.66
204.154	30.42
204.54	21.26
204.927	-15.15
205.313	-2.44
205.699	-11.71
206.086	-18.29
206.472	25.43
206.858	22.65
207.245	15.46
207.631	35.2
208.017	23.92
208.403	48
208.789	4.19
209.175	14.69
209.561	-2.64
209.947	7.55
210.333	40.25
210.719	22.35
211.105	28.15
211.491	6.6
211.876	48.02
212.262	-33.15
212.648	-16.63
213.034	31.27
213.419	11.75
213.805	-31.35
214.19	21.6
214.576	3.88
214.961	-12.1
215.346	-3.91
215.732	11.03
216.117	21.46
216.502	-3.41
216.888	9.9
217.273	21
217.658	2.54
218.043	-13.88
218.428	2.46
218.813	22.21
219.198	1.33
219.583	10.79
219.968	17.71
220.353	-34.58
220.738	42.08
221.122	19.71
221.507	22.49
221.892	15.65
222.276	5.57
222.661	6.34
223.046	-23.27
223.43	15.73
223.815	-7.27
224.199	12.18
224.583	7.82
224.968	15.12
225.352	12.95
225.736	5.63
226.121	9.07
226.505	0.85
226.889	14.31
227.273	10.54
227.657	11.29
228.041	2.39
228.425	4.7
228.809	2.41
229.193	5.35
229.577	7.22
229.961	5.24
230.344	6.31
230.728	6.27
231.112	5.73
231.495	7
231.879	6.03
232.263	5.91
232.646	5.97
233.03	4.81
233.413	5.51
233.797	7.56
234.18	3.82
234.563	6.61
234.946	6.14
235.33	8.01
235.713	3.18
236.096	5.61
236.479	6.34
236.862	6.12
237.245	5.32
237.628	7.06
238.011	4.78
238.394	5.27
238.777	4.8
239.16	6.04
239.543	5.97
239.925	4.04
240.308	3.82
240.691	6.1
241.073	5.51
241.456	7.76
241.838	7.36
242.221	5.31
242.603	4.73
242.986	5.15
243.368	4.14
243.75	5.21
244.133	5.57
244.515	5.46
244.897	5.64
245.279	5.39
245.661	5.11
246.043	5.75
246.425	4.8
246.807	5.83
247.189	5.68
247.571	5.63
247.953	4.62
248.335	5.34
248.717	5.01
249.098	4.94
249.48	5.1
249.862	5.33
250.243	5.53
250.625	4.94
251.006	4.72
251.388	5.77
251.769	5.1
252.151	5.99
252.532	4.65
252.913	5.2
253.295	5.25
253.676	4.67
254.057	5.12
254.438	5.11
254.819	4.02
255.2	4.16
255.581	3.53
255.962	5.34
256.343	5.5
256.724	4.8
257.105	4.76
257.486	4.33
257.867	5.94
258.247	5.09
258.628	5.55
259.009	5.25
259.389	5.71
259.77	4.9
260.15	4.13
260.531	5.07
260.911	4.1
261.292	4.57
261.672	4.36
262.052	4.18
262.432	4.46
262.813	4.81
263.193	3.98
263.573	4.86
263.953	4.69
264.333	4.62
264.713	5.34
265.093	4.13
265.473	4.28
265.853	5.13
266.233	4.04
266.612	4.61
266.992	5.2
267.372	5.44
267.752	5.04
268.131	4.42
268.511	4.22
268.89	4.92
269.27	5.17
269.649	4.82
270.029	4.85
270.408	4.45
270.787	3.93
271.167	3.75
271.546	3.81
271.925	4.68
272.304	4.66
272.683	4.19
273.062	4.09
273.441	4.67
273.82	4.21
274.199	4.14
274.578	4.33
274.957	4.71
275.336	4.38
275.715	4.24
276.093	4.28
276.472	4.45
276.851	4.48
277.229	4.67
277.608	3.69
277.986	4.5
278.365	4.17
278.743	4.35
279.122	4.18
279.5	4.72
279.878	4.37
280.257	3.75
280.635	4.09
281.013	3.04
281.391	4.14
281.769	4.08
282.147	4.11
282.525	3.58
282.903	4.56
283.281	3.84
283.659	4.24
284.037	3.99
284.415	4.43
284.792	4.33
285.17	4.04
285.548	3.63
285.925	3.87
286.303	3.99
286.68	4.03
287.058	3.86
287.435	3.76
287.813	4.18
288.19	3.82
288.567	3.41
288.945	4.39
289.322	4.05
289.699	3.91
290.076	3.57
290.453	4.37
290.83	4.5
291.207	4.14
291.584	4.07
291.961	4.07
292.338	3.93
292.715	4.48
293.092	4.11
293.469	3.77
293.845	4.01
294.222	4.54
294.599	4.03
294.975	3.79
295.352	3.75
295.728	4.19
296.105	3.83
296.481	3.94
296.858	4.17
297.234	4.2
297.61	4.3
297.986	3.92
298.363	3.95
298.739	3.99
299.115	3.67
299.491	4.06
299.867	3.53
300.243	3.57
300.619	3.6
300.995	3.56
301.371	3.67
301.746	3.3
302.122	3.23
302.498	3.88
302.874	4.24
303.249	3.73
303.625	4.2
304	3.88
304.376	3.81
304.751	3.86
305.127	3.68
305.502	3.97
305.878	4.08
306.253	4.02
306.628	3.69
307.003	4.05
307.378	3.82
307.754	4.05
308.129	4.1
308.504	4.11
308.879	3.51
309.254	4.23
309.629	4.64
310.003	3.95
310.378	3.66
310.753	3.81
311.128	3.56
311.502	3.07
311.877	3.88
312.252	4.32
312.626	3.98
313.001	4.06
313.375	3.55
313.75	3.68
314.124	3.68
314.498	3.43
314.873	3.72
315.247	3.63
315.621	4.47
315.995	3.85
316.369	3.54
316.743	4.24
317.117	3.8
317.491	4.08
317.865	3.51
318.239	3.34
318.613	3.87
318.987	4
319.361	3.96
319.734	4.03
320.108	3.59
320.482	3.65
320.855	3.85
321.229	3.14
321.602	3.6
321.976	3.21
322.349	3.41
322.723	3.24
323.096	4.67
323.469	3.93
323.843	3.98
324.216	4.59
324.589	3.16
324.962	3.77
325.335	4.08
325.708	4.11
326.081	4.03
326.454	4.1
326.827	3.68
327.2	3.38
327.573	3.65
327.945	4.3
328.318	3.74
328.691	3.67
329.063	3.49
329.436	3.78
329.809	3.79
330.181	3.81
330.553	3.3
330.926	3.03
331.298	4.13
331.671	3.74
332.043	4.05
332.415	3.98
332.787	3.59
333.159	3.53
333.532	3.84
333.904	3.92
334.276	4.59
334.648	4.51
335.02	3.63
335.391	3.33
335.763	3.88
336.135	4.43
336.507	3.63
336.879	4.06
337.25	4.07
337.622	3.49
337.993	3.95
338.365	3.07
338.736	3.89
339.108	4.45
339.479	3.73
339.851	3.5
340.222	3.92
340.593	3.35
340.964	4.19
341.336	3.64
341.707	3.49
342.078	4.01
342.449	3.7
342.82	3.71
343.191	3.53
343.562	3.73
343.933	3.62
344.303	3.45
344.674	3.5
345.045	4.15
345.416	3.36
345.786	4
346.157	3.78
346.527	4.03
346.898	4.01
347.268	3.77
347.639	3.83
348.009	3.66
348.38	3.76
348.75	4.07
349.12	3.88
349.49	3.72
349.861	3.65
350.231	3.72
350.601	4.14
350.971	3.95
351.341	3.49
351.711	3.71
352.081	2.87
352.45	3.27
352.82	3.49
353.19	3.56
353.56	3.94
353.929	3.46
354.299	3.9
354.669	4.05
355.038	3.91
355.408	3.28
355.777	3.5
356.147	3.98
356.516	3.42
356.885	3.49
357.254	3.89
357.624	3.78
357.993	3.42
358.362	3.95
358.731	3.56
359.1	3.79
359.469	3.44
359.838	3.66
360.207	3.52
360.576	3.55
360.945	3.86
361.314	4.27
361.682	3.52
362.051	3.8
362.42	3.61
362.788	3.53
363.157	3.78
363.525	3.47
363.894	3.73
364.262	3.69
364.631	4.04
364.999	3.6
365.367	3.83
365.735	3.74
366.104	3.72
366.472	3.62
366.84	3.65
367.208	3.66
367.576	4.06
367.944	3.89
368.312	3.71
368.68	4.02
369.048	3.63
369.416	3.58
369.783	3.65
370.151	4.21
370.519	4.35
370.886	3.78
371.254	3.92
371.621	4.17
371.989	4.1
372.356	4.24
372.724	4.08
373.091	4
373.458	3.87
373.826	4.01
374.193	3.73
374.56	4
374.927	3.86
375.294	4.13
375.661	3.87
376.028	4.24
376.395	4.43
376.762	4.02
377.129	4.13
377.496	3.87
377.863	4
378.229	3.92
378.596	3.84
378.963	4.04
379.329	3.7
379.696	4.06
380.062	3.68
380.429	3.94
380.795	3.94
381.161	3.74
381.528	4.17
381.894	4.07
382.26	3.8
382.626	4.02
382.993	3.87
383.359	3.82
383.725	3.83
384.091	4.03
384.457	3.76
384.823	4.17
385.188	3.83
385.554	3.47
385.92	3.75
386.286	3.82
386.651	4.01
387.017	3.8
387.383	3.87
387.748	3.79
388.114	3.89
388.479	3.99
388.845	3.96
389.21	3.99
389.575	3.91
389.94	4.14
390.306	4
390.671	4.03
391.036	4.02
391.401	4.18
391.766	4.12
392.131	4.1
392.496	4.25
392.861	4.33
393.226	4.2
393.591	4.12
393.956	4.13
394.32	4.05
394.685	3.95
395.05	4.11
395.414	4.1
395.779	3.87
396.143	3.89
396.508	3.86
396.872	3.97
397.236	4
397.601	3.9
397.965	4.04
398.329	4.06
398.694	4.09
399.058	3.87
399.422	4.26
399.786	4.3
400.15	3.9
400.514	4.11
400.878	4.2
401.242	3.91
401.605	4.31
401.969	4
402.333	4.02
402.697	3.92
403.06	4.01
403.424	3.99
403.787	4.35
404.151	4.11
404.514	4.05
404.878	3.91
405.241	4.04
405.604	3.84
405.968	3.99
406.331	3.9
406.694	3.9
407.057	4.16
407.42	4.08
407.783	3.96
408.146	4.27
408.509	3.93
408.872	3.94
409.235	4.11
409.598	3.98
409.961	4.17
410.323	4.25
410.686	4.01
411.049	4.21
411.411	4.31
411.774	4.21
412.136	3.9
412.499	4.25
412.861	4.03
413.223	4.14
413.586	4.26
413.948	4.21
414.31	4.08
414.672	3.93
415.035	4.19
415.397	4.1
415.759	4.21
416.121	4.16
416.483	4.19
416.845	4.29
417.206	4.04
417.568	4.07
417.93	4.3
418.292	4.09
418.653	3.97
419.015	4.13
419.377	4.31
419.738	4.12
420.1	4.15
420.461	4.07
420.822	4.08
421.184	4.09
421.545	4.08
421.906	4.02
422.267	4.15
422.629	3.99
422.99	4
423.351	3.97
423.712	4.05
424.073	3.95
424.434	4.04
424.795	4.08
425.155	4.05
425.516	4.07
425.877	3.95
426.238	3.99
426.598	3.98
426.959	3.95
427.32	4.08
427.68	4.19
428.041	3.99
428.401	4.1
428.761	4.23
429.122	4.1
429.482	4.16
429.842	4.27
430.202	4.13
430.563	4.15
430.923	4.22
431.283	4.15
431.643	4.37
432.003	4.19
432.363	4.26
432.722	4.37
433.082	4.3
433.442	4.36
433.802	4.14
434.161	4.33
434.521	3.98
434.881	4.24
435.24	4.13
435.6	4.14
435.959	4.12
436.319	4.03
436.678	4.22
437.037	4.28
437.396	4.27
437.756	4.31
438.115	4.41
438.474	4.26
438.833	4.16
439.192	4.19
439.551	4.33
439.91	4.24
440.269	4.34
440.628	4.15
440.987	4.33
441.345	4.08
441.704	4.16
442.063	4.07
442.421	4.13
442.78	4.18
443.138	4.1
443.497	4.1
443.855	4.19
444.214	4.32
444.572	4.2
444.93	4.21
445.288	4.27
445.647	4.37
446.005	4.04
446.363	4.15
446.721	4.19
447.079	4.22
447.437	4.11
447.795	4.04
448.153	4.22
448.51	4.15
448.868	4.09
449.226	4.02
449.584	4.32
449.941	4.22
450.299	4.16
450.656	4.2
451.014	4.33
451.371	4.06
451.729	4.32
452.086	4.28
452.443	4.44
452.801	4.17
453.158	4.28
453.515	4.25
453.872	4.14
454.229	4.25
454.586	4.23
454.943	4.33
455.3	4.29
455.657	4.26
456.014	4.32
456.371	4.38
456.727	4.32
457.084	4.17
457.441	4.38
457.797	4.29
458.154	4.35
458.51	4.36
458.867	4.11
459.223	4.29
459.58	4.28
459.936	4.27
460.292	4.29
460.648	4.32
461.005	4.27
461.361	4.19
461.717	4.13
462.073	4.19
462.429	4.24
462.785	4.12
463.141	4.06
463.496	4.27
463.852	4.27
464.208	4.12
464.564	4.14
464.919	4.31
465.275	4.28
465.631	4.04
465.986	4.25
466.342	4.29
466.697	4.21
467.052	4.26
467.408	4.47
467.763	4.45
468.118	4.19
468.473	4.19
468.829	4.38
469.184	4.63
469.539	4.38
469.894	4.25
470.249	4.36
470.603	4.15
470.958	4.3
471.313	4.34
471.668	4.48
472.023	4.5
472.377	4.22
472.732	4.34
473.086	4.4
473.441	4.28
473.795	4.44
474.15	4.35
474.504	4.2
474.859	4.38
475.213	4.27
475.567	4.31
475.921	4.38
476.275	4.26
476.63	4.23
476.984	4.32
477.338	4.19
477.692	4.2
478.045	4.31
478.399	4.32
478.753	4.14
479.107	4.38
479.461	4.37
479.814	4.24
480.168	4.3
480.521	4.29
480.875	4.29
481.228	4.17
481.582	4.39
481.935	4.33
482.289	4.27
482.642	4.25
482.995	4.28
483.348	4.27
483.701	4.2
484.055	4.27
484.408	4.16
484.761	4.24
485.114	4.13
485.466	4.03
485.819	3.97
486.172	4.01
486.525	4
486.878	4.09
487.23	4.15
487.583	4.15
487.936	4.12
488.288	4.22
488.641	4.11
488.993	4.05
489.345	4.14
489.698	4.02
490.05	4.11
490.402	4.07
490.754	4.13
491.107	4.18
491.459	4.21
491.811	4.28
492.163	4.38
492.515	4.23
492.866	4.21
493.218	4.11
493.57	4.12
493.922	4.09
494.274	4.19
494.625	4.21
494.977	4.28
495.328	4.4
495.68	4.43
496.031	4.41
496.383	4.32
496.734	4.35
497.086	4.41
497.437	4.44
497.788	4.38
498.139	4.32
498.49	4.25
498.842	4.32
499.193	4.39
499.544	4.31
499.894	4.33
500.245	4.36
500.596	4.49
500.947	4.34
501.298	4.42
501.648	4.33
501.999	4.36
502.35	4.39
502.7	4.45
503.051	4.32
503.401	4.41
503.752	4.32
504.102	4.22
504.452	4.44
504.803	4.51
505.153	4.5
505.503	4.51
505.853	4.52
506.203	4.42
506.553	4.4
506.903	4.23
507.253	4.46
507.603	4.36
507.953	4.44
508.303	4.35
508.652	4.34
509.002	4.28
509.352	4.52
509.701	4.42
510.051	4.34
510.4	4.2
510.75	4.39
511.099	4.41
511.449	4.38
511.798	4.36
512.147	4.46
512.496	4.29
512.846	4.39
513.195	4.45
513.544	4.36
513.893	4.32
514.242	4.43
514.591	4.29
514.939	4.26
515.288	4.48
515.637	4.42
515.986	4.28
516.334	4.41
516.683	4.42
517.032	4.48
517.38	4.51
517.729	4.47
518.077	4.49
518.426	4.52
518.774	4.52
519.122	4.27
519.47	4.36
519.819	4.38
520.167	4.25
520.515	4.26
520.863	4.28
521.211	4.33
521.559	4.36
521.907	4.31
522.255	4.26
522.602	4.19
522.95	4.51
523.298	4.38
523.645	4.43
523.993	4.41
524.341	4.48
524.688	4.4
525.036	4.38
525.383	4.42
525.73	4.37
526.078	4.5
526.425	4.38
526.772	4.43
527.119	4.35
527.466	4.34
527.814	4.35
528.161	4.3
528.508	4.3
528.854	4.25
529.201	4.27
529.548	4.35
529.895	4.24
530.242	4.21
530.588	4.11
530.935	4.18
531.282	4.2
531.628	4.2
531.975	4.26
532.321	4.27
532.667	4.35
533.014	4.31
533.36	4.32
533.706	4.43
534.052	4.34
534.399	4.33
534.745	4.39
535.091	4.25
535.437	4.23
535.783	4.24
536.129	4.35
536.474	4.33
536.82	4.32
537.166	4.35
537.512	4.3
537.857	4.4
538.203	4.27
538.549	4.38
538.894	4.41
539.239	4.37
539.585	4.35
539.93	4.3
540.276	4.48
540.621	4.46
540.966	4.53
541.311	4.56
541.656	4.45
542.001	4.55
542.346	4.43
542.691	4.35
543.036	4.26
543.381	4.19
543.726	4.25
544.071	4.25
544.415	4.28
544.76	4.29
545.105	4.29
545.449	4.3
545.794	4.31
546.138	4.35
546.483	4.38
546.827	4.42
547.171	4.38
547.516	4.33
547.86	4.34
548.204	4.43
548.548	4.36
548.892	4.37
549.236	4.41
549.58	4.48
549.924	4.51
550.268	4.45
550.612	4.5
550.956	4.47
551.3	4.41
551.643	4.55
551.987	4.66
552.33	4.5
552.674	4.6
553.017	4.44
553.361	4.34
553.704	4.34
554.048	4.43
554.391	4.35
554.734	4.44
555.077	4.51
555.42	4.65
555.764	4.41
556.107	4.68
556.45	4.44
556.793	4.44
557.135	4.6
557.478	4.55
557.821	4.48
558.164	4.46
558.507	4.48
558.849	4.49
559.192	4.55
559.534	4.48
559.877	4.42
560.219	4.52
560.562	4.66
560.904	4.6
561.246	4.49
561.589	4.51
561.931	4.69
562.273	4.43
562.615	4.43
562.957	4.51
563.299	4.62
563.641	4.53
563.983	4.71
564.325	4.66
564.667	4.51
565.008	4.65
565.35	4.64
565.692	4.53
566.033	4.47
566.375	4.69
566.716	4.51
567.058	4.5
567.399	4.59
567.741	4.36
568.082	4.45
568.423	4.42
568.764	4.54
569.105	4.5
569.447	4.66
569.788	4.55
570.129	4.52
570.47	4.55
570.811	4.47
571.151	4.61
571.492	4.61
571.833	4.49
572.174	4.61
572.514	4.41
572.855	4.44
573.195	4.56
573.536	4.48
573.876	4.46
574.217	4.52
574.557	4.42
574.898	4.51
575.238	4.6
575.578	4.6
575.918	4.62
576.258	4.63
576.598	4.46
576.938	4.73
577.278	4.57
577.618	4.56
577.958	4.51
578.298	4.6
578.638	4.62
578.977	4.64
579.317	4.64
579.657	4.4
579.996	4.39
580.336	4.58
580.675	4.5
581.014	4.78
581.354	4.36
581.693	4.57
582.032	4.49
582.372	4.54
582.711	4.4
583.05	4.8
583.389	4.52
583.728	4.83
584.067	4.74
584.406	4.61
584.745	4.73
585.083	4.46
585.422	4.83
585.761	4.69
586.1	4.67
586.438	4.71
586.777	4.48
587.115	4.36
587.454	4.49
587.792	4.37
588.13	4.87
588.469	4.7
588.807	4.61
589.145	4.89
589.483	4.7
589.821	4.27
590.159	4.64
590.497	4.65
590.835	4.62
591.173	4.6
591.511	4.47
591.849	4.74
592.187	4.55
592.524	4.64
592.862	4.43
593.2	4.37
593.537	4.72
593.875	4.66
594.212	4.65
594.55	4.52
594.887	4.62
595.224	4.65
595.561	4.86
595.899	4.32
596.236	4.54
596.573	4.54
596.91	4.34
597.247	4.47
597.584	4.56
597.921	4.35
598.258	4.54
598.594	4.58
598.931	4.47
599.268	4.52
599.604	4.65
599.941	4.72
600.277	4.37
600.614	4.53
600.95	4.45
601.287	4.5
601.623	4.65
601.959	4.77
602.296	4.67
602.632	4.52
602.968	4.43
603.304	4.53
603.64	4.63
603.976	4.65
604.312	4.9
604.648	4.62
604.984	4.59
605.319	4.23
605.655	4.4
605.991	4.61
606.326	4.47
606.662	4.43
606.998	4.42
607.333	4.42
607.668	4.64
608.004	4.28
608.339	4.72
608.674	4.7
609.01	4.38
609.345	4.42
609.68	4.5
610.015	4.75
610.35	4.88
610.685	4.52
611.02	4.43
611.355	4.53
611.689	4.49
612.024	4.55
612.359	4.55
612.694	4.43
613.028	4.42
613.363	4.5
613.697	4.61
614.032	4.31
614.366	4.72
614.7	4.46
615.035	4.83
615.369	4.55
615.703	4.91
616.037	4.83
616.371	4.78
616.705	4.77
617.039	4.84
617.373	4.5
617.707	4.91
618.041	4.85
618.375	5.08
618.709	4.91
619.042	4.41
619.376	5.2
619.71	4.42
620.043	4.48
620.377	4.6
620.71	4.72
621.043	4.55
621.377	4.59
621.71	4.54
622.043	4.51
622.376	4.54
622.709	4.65
623.043	4.45
623.376	4.62
623.709	4.56
624.041	4.6
624.374	4.89
624.707	4.63
625.04	5.19
625.373	4.75
625.705	4.64
626.038	4.43
626.37	5.08
626.703	4.7
627.035	4.7
627.368	5.12
627.7	4.42
628.032	4.41
628.365	4.85
628.697	4.35
629.029	4.74
629.361	4.36
629.693	4.81
630.025	4.58
630.357	4.55
630.689	4.37
631.021	4.69
631.353	4.63
631.684	4.76
632.016	4.84
632.348	4.85
632.679	4.96
633.011	4.65
633.342	4.91
633.674	4.89
634.005	4.82
634.336	4.81
634.668	4.83
634.999	4.71
635.33	4.47
635.661	4.88
635.992	4.81
636.323	4.59
636.654	4.91
636.985	4.74
637.316	4.49
637.647	4.67
637.977	4.8
638.308	4.45
638.639	4.67
638.969	4.62
639.3	4.61
639.63	4.78
639.961	4.85
640.291	5.24
640.622	4.72
640.952	5
641.282	4.64
641.612	4.81
641.943	4.67
642.273	4.87
642.603	5.14
642.933	4.76
643.263	4.98
643.592	5.12
643.922	4.78
644.252	4.21
644.582	4.96
644.911	4.8
645.241	4.47
645.571	5.21
645.9	4.45
646.23	4.99
646.559	4.89
646.888	5.03
647.218	5.04
647.547	4.51
647.876	4.79
648.205	4.29
648.534	4.7
648.863	4.77
649.192	4.68
649.521	4.91
649.85	4.45
650.179	5.12
650.508	4.86
650.837	4.63
651.165	5.07
651.494	4.7
651.822	4.83
652.151	4.88
652.479	4.93
652.808	5.01
653.136	5.01
653.465	4.81
653.793	4.72
654.121	5.15
654.449	4.71
654.777	4.9
655.105	4.75
655.433	5.01
655.761	4.59
656.089	4.68
656.417	4.33
656.745	5.03
657.073	5.09
657.4	5.26
657.728	4.86
658.056	5.21
658.383	4.62
658.711	5.38
659.038	4.78
659.365	5.04
659.693	5.27
660.02	4.55
660.347	4.8
660.674	5.01
661.001	4.59
661.329	4.9
661.656	4.78
661.982	4.73
662.309	5.07
662.636	4.91
662.963	5.39
663.29	4.75
663.616	4.27
663.943	4.66
664.27	4.98
664.596	5.38
664.923	4.86
665.249	4.79
665.576	4.71
665.902	4.82
666.228	5.35
666.554	4.84
666.881	5.08
667.207	4.69
667.533	5.16
667.859	4.65
668.185	5.34
668.511	5.12
668.837	4.96
669.162	5.55
669.488	5.19
669.814	4.62
670.139	4.82
670.465	4.99
670.791	4.92
671.116	5.11
671.442	5.45
671.767	5.67
672.092	4.94
672.418	5.33
672.743	4.53
673.068	4.84
673.393	4.61
673.718	5.7
674.043	5.27
674.368	4.63
674.693	4.87
675.018	5.35
675.343	5.28
675.667	5.17
675.992	5.46
676.317	5.13
676.641	5.13
676.966	5.66
677.29	5.08
677.615	5.8
677.939	5.07
678.264	5.3
678.588	5.27
678.912	4.99
679.236	4.93
679.56	5.35
679.885	5.1
680.209	4.96
680.532	5.5
680.856	5.64
681.18	4.79
681.504	4.94
681.828	4.58
682.152	4.8
682.475	5.17
682.799	5.55
683.122	5.24
683.446	4.28
683.769	5
684.093	5.21
684.416	4.9
684.739	5.31
685.062	5.26
685.386	4.93
685.709	5.15
686.032	5.27
686.355	4.91
686.678	5.07
687.001	5.54
687.324	4.67
687.646	4.8
687.969	5.29
688.292	5.89
688.614	5.83
688.937	5.85
689.26	4.99
689.582	4.85
689.904	5.09
690.227	5.42
690.549	5.51
690.871	5.14
691.194	4.72
691.516	4.88
691.838	5.08
692.16	6.04
692.482	6.22
692.804	5.42
