Data from 0361_forehead_Reflection__4__15.txt Node

Date: Mon Dec 11 17:40:20 CST 2023
User: ToomeyLab
Spectrometer: FLMS14357
Trigger mode: 0
Integration Time (sec): 1.000000E-2
Scans to average: 100
Electric dark correction enabled: true
Nonlinearity correction enabled: false
Boxcar width: 0
XAxis mode: Wavelengths
Number of Pixels in Spectrum: 2048
>>>>>Begin Spectral Data<<<<<
189.047	-237.2
189.435	-237.2
189.823	-237.2
190.211	-48.48
190.599	1606.02
190.987	291.11
191.375	158.4
191.763	100.8
192.151	-18.31
192.538	217.55
192.926	0.98
193.314	-97.61
193.702	-59.48
194.089	-546.44
194.477	113.19
194.864	195.26
195.252	25.23
195.639	-358.06
196.027	16.06
196.414	-18366.67
196.801	169.57
197.189	-461.6
197.576	242.05
197.963	5.79
198.351	11.75
198.738	-8.09
199.125	20.56
199.512	54.92
199.899	39.21
200.286	77.69
200.673	32.09
201.06	54.5
201.447	27.37
201.833	49.2
202.22	28.35
202.607	20.18
202.994	52.13
203.38	5.92
203.767	51.64
204.154	29.39
204.54	43.82
204.927	16.23
205.313	35.53
205.699	16.4
206.086	41.91
206.472	46.62
206.858	49.42
207.245	46.67
207.631	60.25
208.017	39.56
208.403	29.38
208.789	27.89
209.175	31
209.561	42.98
209.947	12.25
210.333	58.17
210.719	63.18
211.105	21.55
211.491	39.53
211.876	28.35
212.262	31.63
212.648	50.55
213.034	25.58
213.419	15.73
213.805	28.18
214.19	16.08
214.576	4.13
214.961	47.12
215.346	48.69
215.732	22.19
216.117	39.53
216.502	39.59
216.888	32.84
217.273	25.55
217.658	23.46
218.043	25.15
218.428	24.17
218.813	39
219.198	20.68
219.583	22.15
219.968	2.14
220.353	4.79
220.738	41.62
221.122	16.98
221.507	35.51
221.892	21.83
222.276	21.19
222.661	16.93
223.046	1.9
223.43	13.95
223.815	16.13
224.199	22.28
224.583	14.06
224.968	10.44
225.352	18.11
225.736	13.38
226.121	14.63
226.505	5.05
226.889	14.72
227.273	13.66
227.657	20.59
228.041	11.53
228.425	8.95
228.809	3.99
229.193	7.38
229.577	7.3
229.961	5.15
230.344	6.01
230.728	6.35
231.112	6.08
231.495	6.93
231.879	7.12
232.263	5.84
232.646	6.13
233.03	6.33
233.413	7.1
233.797	9.32
234.18	8.33
234.563	8.36
234.946	7.03
235.33	8.13
235.713	7.22
236.096	7.74
236.479	8.22
236.862	9.33
237.245	6.72
237.628	6.6
238.011	7.9
238.394	6.48
238.777	6.19
239.16	7.79
239.543	9.19
239.925	6.25
240.308	6.6
240.691	7.89
241.073	7.54
241.456	7.35
241.838	7.81
242.221	6.67
242.603	6.04
242.986	5.3
243.368	6.13
243.75	5.97
244.133	5.62
244.515	5.64
244.897	5.51
245.279	6.29
245.661	6.32
246.043	6.18
246.425	6.86
246.807	5.89
247.189	7.04
247.571	6.45
247.953	5.76
248.335	6.06
248.717	5.84
249.098	5.64
249.48	5.59
249.862	6.17
250.243	6.12
250.625	5.67
251.006	6.01
251.388	6.41
251.769	6.55
252.151	7.54
252.532	6.17
252.913	6.84
253.295	6.63
253.676	6.33
254.057	5.53
254.438	6.26
254.819	4.92
255.2	5.91
255.581	5.4
255.962	6.51
256.343	5.84
256.724	6.85
257.105	6.93
257.486	5.81
257.867	7.55
258.247	6.03
258.628	6.99
259.009	6.44
259.389	6.84
259.77	6.16
260.15	5.92
260.531	5.88
260.911	5.24
261.292	5.37
261.672	5.57
262.052	5.71
262.432	5.7
262.813	5.84
263.193	5.55
263.573	5.79
263.953	6.36
264.333	5.93
264.713	6.42
265.093	5.35
265.473	6.88
265.853	5.62
266.233	6.48
266.612	6.88
266.992	5.65
267.372	6.97
267.752	6.84
268.131	5.98
268.511	5.77
268.89	5.77
269.27	6.53
269.649	5.64
270.029	6.51
270.408	6.32
270.787	5.91
271.167	4.64
271.546	5.22
271.925	6.31
272.304	5.96
272.683	6.02
273.062	5.17
273.441	5.97
273.82	5.65
274.199	5.63
274.578	5.63
274.957	5.55
275.336	5.57
275.715	5.85
276.093	5.99
276.472	5.88
276.851	5.69
277.229	5.93
277.608	5.63
277.986	6.34
278.365	5.42
278.743	5.25
279.122	5.25
279.5	5.74
279.878	6.03
280.257	5.62
280.635	5.52
281.013	5.97
281.391	6.23
281.769	5.67
282.147	5.55
282.525	5.68
282.903	5.86
283.281	5.57
283.659	5.51
284.037	5.15
284.415	5.13
284.792	5.71
285.17	5.71
285.548	5.48
285.925	5.18
286.303	5.77
286.68	5.54
287.058	5.56
287.435	5.73
287.813	6.05
288.19	5.46
288.567	5.34
288.945	5.71
289.322	5.53
289.699	5.57
290.076	5.42
290.453	5.66
290.83	6.32
291.207	5.97
291.584	6.13
291.961	6.1
292.338	5.94
292.715	6.39
293.092	6.05
293.469	5.83
293.845	6.07
294.222	7.02
294.599	5.94
294.975	6.26
295.352	6.22
295.728	6.75
296.105	6.26
296.481	6.19
296.858	6.33
297.234	7.05
297.61	7.08
297.986	6.93
298.363	6.56
298.739	6.6
299.115	6.19
299.491	6.76
299.867	7.24
300.243	6.63
300.619	6.57
300.995	6.39
301.371	6.71
301.746	7.18
302.122	7.04
302.498	7.26
302.874	7.31
303.249	7.67
303.625	7.46
304	7.45
304.376	7.62
304.751	7.34
305.127	7.66
305.502	8.09
305.878	7.66
306.253	7.83
306.628	8.07
307.003	7.94
307.378	7.96
307.754	8.49
308.129	8.19
308.504	8.09
308.879	7.99
309.254	8.47
309.629	9.02
310.003	8.99
310.378	8.42
310.753	9.35
311.128	9.07
311.502	8.89
311.877	8.66
312.252	9.21
312.626	9.12
313.001	9.48
313.375	9
313.75	9.05
314.124	9.42
314.498	9.49
314.873	9.32
315.247	9.52
315.621	10.03
315.995	9.96
316.369	10.1
316.743	10.45
317.117	10.39
317.491	10.27
317.865	10.31
318.239	10.92
318.613	10.43
318.987	10.48
319.361	11.2
319.734	10.12
320.108	10.25
320.482	11.53
320.855	11.09
321.229	10.75
321.602	10.69
321.976	12.35
322.349	11.23
322.723	11
323.096	11.39
323.469	11.63
323.843	12.02
324.216	12.13
324.589	12.62
324.962	11.13
325.335	11.42
325.708	11.93
326.081	12.44
326.454	12.36
326.827	11.95
327.2	11.74
327.573	11.75
327.945	12.66
328.318	12.32
328.691	12.17
329.063	12.48
329.436	12.71
329.809	12.58
330.181	12.75
330.553	13
330.926	12.89
331.298	13.47
331.671	12.73
332.043	13.69
332.415	13.4
332.787	13.43
333.159	13.21
333.532	13.69
333.904	13.89
334.276	13.8
334.648	13.93
335.02	13.57
335.391	13.32
335.763	14.5
336.135	14.25
336.507	14.06
336.879	14.95
337.25	14.3
337.622	14.24
337.993	14.1
338.365	13.97
338.736	14.59
339.108	14.8
339.479	14.12
339.851	14.38
340.222	14.77
340.593	14.62
340.964	15.18
341.336	15.06
341.707	14.66
342.078	15.44
342.449	14.95
342.82	15.08
343.191	14.91
343.562	15.17
343.933	15.17
344.303	14.98
344.674	15.21
345.045	16.12
345.416	15.18
345.786	15.71
346.157	15.64
346.527	15.54
346.898	15.78
347.268	15.44
347.639	16.35
348.009	16.32
348.38	15.84
348.75	16.18
349.12	16.67
349.49	16.52
349.861	16.22
350.231	16.83
350.601	16.27
350.971	16.91
351.341	16.57
351.711	16.75
352.081	16.68
352.45	16.78
352.82	16.61
353.19	17.09
353.56	17.03
353.929	17.22
354.299	17.33
354.669	17.9
355.038	17.1
355.408	17.1
355.777	17.52
356.147	17.8
356.516	17.87
356.885	18.04
357.254	17.81
357.624	18.03
357.993	17.77
358.362	18.03
358.731	18.25
359.1	18.16
359.469	18
359.838	18.15
360.207	18
360.576	18.29
360.945	18.65
361.314	18.63
361.682	18.47
362.051	18.6
362.42	18.57
362.788	18.6
363.157	18.81
363.525	18.82
363.894	18.79
364.262	18.95
364.631	19.15
364.999	18.82
365.367	19.53
365.735	19.29
366.104	18.97
366.472	19.54
366.84	19.79
367.208	19.55
367.576	19.62
367.944	20.03
368.312	20.04
368.68	19.96
369.048	19.96
369.416	19.58
369.783	19.86
370.151	20.48
370.519	20.81
370.886	20.35
371.254	20.75
371.621	20.38
371.989	20.55
372.356	21.08
372.724	20.96
373.091	21.02
373.458	20.83
373.826	21.21
374.193	20.85
374.56	21.34
374.927	21.29
375.294	21.43
375.661	21.28
376.028	21.74
376.395	21.73
376.762	21.43
377.129	21.97
377.496	21.58
377.863	21.59
378.229	21.89
378.596	21.89
378.963	22.23
379.329	22.11
379.696	22.31
380.062	22.34
380.429	22.13
380.795	22.42
381.161	22.24
381.528	22.44
381.894	22.56
382.26	22.62
382.626	22.7
382.993	22.94
383.359	23.24
383.725	23.06
384.091	23.36
384.457	23.21
384.823	23.44
385.188	23.38
385.554	23.13
385.92	23.35
386.286	23.79
386.651	23.78
387.017	24.12
387.383	23.57
387.748	23.8
388.114	23.65
388.479	23.87
388.845	24.14
389.21	24.3
389.575	24.16
389.94	24.38
390.306	24.37
390.671	24.58
391.036	24.46
391.401	24.75
391.766	24.63
392.131	24.8
392.496	24.78
392.861	24.78
393.226	24.96
393.591	25.02
393.956	24.9
394.32	25.17
394.685	25.01
395.05	25.41
395.414	25.65
395.779	25.38
396.143	25.26
396.508	25.43
396.872	25.47
397.236	25.98
397.601	25.7
397.965	26.1
398.329	25.77
398.694	25.92
399.058	25.98
399.422	26.36
399.786	26.38
400.15	26.25
400.514	26.42
400.878	26.51
401.242	26.51
401.605	26.81
401.969	26.71
402.333	26.79
402.697	26.98
403.06	26.83
403.424	27.01
403.787	27.36
404.151	26.84
404.514	27.44
404.878	27.32
405.241	27.64
405.604	27.4
405.968	27.5
406.331	27.55
406.694	27.77
407.057	27.48
407.42	27.79
407.783	27.78
408.146	27.98
408.509	27.86
408.872	28.13
409.235	28.09
409.598	28.21
409.961	28.4
410.323	28.56
410.686	28.59
411.049	28.65
411.411	28.48
411.774	28.59
412.136	28.75
412.499	29.16
412.861	28.71
413.223	28.91
413.586	29.16
413.948	29.02
414.31	29.03
414.672	29.18
415.035	29.36
415.397	29.27
415.759	29.65
416.121	29.74
416.483	29.54
416.845	29.82
417.206	29.89
417.568	29.61
417.93	29.86
418.292	29.73
418.653	29.66
419.015	29.72
419.377	29.78
419.738	29.65
420.1	29.84
420.461	30
420.822	29.89
421.184	30.07
421.545	30.14
421.906	30.08
422.267	30.13
422.629	30.01
422.99	30.07
423.351	30.05
423.712	30.13
424.073	30.45
424.434	30.63
424.795	30.66
425.155	30.64
425.516	30.56
425.877	30.45
426.238	30.67
426.598	30.77
426.959	30.79
427.32	31.26
427.68	31.14
428.041	31.31
428.401	31.4
428.761	31.51
429.122	31.54
429.482	31.8
429.842	31.89
430.202	31.74
430.563	31.81
430.923	32.15
431.283	32.05
431.643	32.46
432.003	32.41
432.363	32.57
432.722	32.56
433.082	32.62
433.442	32.66
433.802	32.55
434.161	32.69
434.521	32.76
434.881	32.86
435.24	32.88
435.6	32.82
435.959	33.07
436.319	33.1
436.678	33.32
437.037	33.32
437.396	33.4
437.756	33.49
438.115	33.59
438.474	33.85
438.833	33.78
439.192	33.7
439.551	33.78
439.91	33.91
440.269	33.83
440.628	33.77
440.987	33.84
441.345	33.9
441.704	33.93
442.063	33.88
442.421	34.13
442.78	33.96
443.138	34.21
443.497	34.09
443.855	34.41
444.214	34.58
444.572	34.71
444.93	34.61
445.288	34.66
445.647	35
446.005	34.7
446.363	34.84
446.721	34.83
447.079	34.92
447.437	34.85
447.795	35.01
448.153	34.92
448.51	34.85
448.868	35.02
449.226	35.11
449.584	35.23
449.941	35.57
450.299	35.61
450.656	35.54
451.014	35.61
451.371	35.76
451.729	36.03
452.086	36.18
452.443	36.16
452.801	36.18
453.158	36.27
453.515	36.53
453.872	36.54
454.229	36.46
454.586	36.73
454.943	36.72
455.3	36.71
455.657	36.86
456.014	36.94
456.371	37.06
456.727	37.11
457.084	36.98
457.441	37.15
457.797	37.34
458.154	37.35
458.51	37.42
458.867	37.41
459.223	37.56
459.58	37.48
459.936	37.54
460.292	37.78
460.648	37.86
461.005	37.45
461.361	37.43
461.717	37.4
462.073	37.44
462.429	37.48
462.785	37.77
463.141	37.99
463.496	38.16
463.852	38.15
464.208	38.29
464.564	38.36
464.919	38.5
465.275	38.7
465.631	38.61
465.986	38.97
466.342	39.03
466.697	39.01
467.052	39.08
467.408	39.27
467.763	39.2
468.118	39.43
468.473	39.19
468.829	39.35
469.184	39.52
469.539	39.67
469.894	39.51
470.249	39.15
470.603	39.77
470.958	40.11
471.313	39.83
471.668	39.93
472.023	39.97
472.377	40.14
472.732	40.09
473.086	40.31
473.441	40.26
473.795	40.35
474.15	40.57
474.504	40.38
474.859	40.63
475.213	40.68
475.567	40.79
475.921	40.68
476.275	40.94
476.63	40.72
476.984	40.75
477.338	40.81
477.692	41.13
478.045	40.98
478.399	41.03
478.753	41.08
479.107	41.11
479.461	41.26
479.814	41.39
480.168	41.28
480.521	41.36
480.875	41.28
481.228	41.22
481.582	41.51
481.935	41.61
482.289	41.65
482.642	41.43
482.995	41.42
483.348	41.62
483.701	41.56
484.055	41.41
484.408	41.23
484.761	41.33
485.114	40.92
485.466	40.86
485.819	41.06
486.172	41.12
486.525	41.11
486.878	41.09
487.23	41.16
487.583	41.59
487.936	41.72
488.288	41.99
488.641	41.8
488.993	41.54
489.345	41.59
489.698	41.62
490.05	41.67
490.402	41.75
490.754	41.87
491.107	42.16
491.459	42.5
491.811	42.74
492.163	42.95
492.515	42.84
492.866	42.68
493.218	42.46
493.57	42.53
493.922	42.52
494.274	42.63
494.625	42.75
494.977	43.17
495.328	43.45
495.68	43.77
496.031	43.82
496.383	44.02
496.734	44.15
497.086	44.4
497.437	44.34
497.788	44.3
498.139	44.18
498.49	44.19
498.842	44.24
499.193	44.27
499.544	44.15
499.894	44.36
500.245	44.56
500.596	44.62
500.947	44.8
501.298	44.75
501.648	44.75
501.999	44.95
502.35	45.3
502.7	45.29
503.051	45.41
503.401	45.44
503.752	45.63
504.102	45.36
504.452	45.63
504.803	45.86
505.153	45.78
505.503	45.78
505.853	45.79
506.203	45.88
506.553	46.05
506.903	45.89
507.253	46.03
507.603	46.12
507.953	46.49
508.303	46.21
508.652	46.45
509.002	46.33
509.352	46.56
509.701	46.27
510.051	46.51
510.4	46.44
510.75	46.37
511.099	46.47
511.449	46.48
511.798	46.54
512.147	46.82
512.496	46.68
512.846	46.66
513.195	46.93
513.544	46.99
513.893	47.05
514.242	47.09
514.591	47.14
514.939	47.08
515.288	47.16
515.637	47.02
515.986	47.37
516.334	47.71
516.683	47.74
517.032	47.68
517.38	47.77
517.729	47.89
518.077	47.9
518.426	47.99
518.774	47.95
519.122	47.87
519.47	48.02
519.819	47.73
520.167	47.74
520.515	47.82
520.863	47.77
521.211	47.83
521.559	47.92
521.907	48.16
522.255	48.12
522.602	48.23
522.95	48.35
523.298	48.63
523.645	49.09
523.993	48.77
524.341	48.83
524.688	49.27
525.036	48.99
525.383	49.07
525.73	49.18
526.078	49.26
526.425	49.24
526.772	48.95
527.119	48.84
527.466	48.73
527.814	48.64
528.161	48.8
528.508	48.82
528.854	48.88
529.201	48.87
529.548	48.94
529.895	48.76
530.242	48.64
530.588	48.84
530.935	49.02
531.282	49
531.628	48.77
531.975	48.86
532.321	49.13
532.667	49.39
533.014	49.64
533.36	49.49
533.706	49.84
534.052	49.85
534.399	49.72
534.745	49.79
535.091	49.56
535.437	49.56
535.783	49.69
536.129	49.75
536.474	49.82
536.82	50.29
537.166	50.28
537.512	50.67
537.857	50.63
538.203	50.7
538.549	50.53
538.894	50.56
539.239	50.69
539.585	50.81
539.93	50.9
540.276	51.2
540.621	51.36
540.966	51.28
541.311	51.56
541.656	51.51
542.001	51.5
542.346	51.43
542.691	51.01
543.036	50.72
543.381	50.82
543.726	50.93
544.071	50.8
544.415	50.86
544.76	51.09
545.105	51.51
545.449	51.49
545.794	51.72
546.138	52.04
546.483	51.8
546.827	52.4
547.171	52.26
547.516	52.23
547.86	52.42
548.204	52.35
548.548	52.24
548.892	52.36
549.236	52.29
549.58	52.81
549.924	52.7
550.268	52.81
550.612	52.72
550.956	53.24
551.3	53.14
551.643	53.44
551.987	53.35
552.33	53.65
552.674	53.48
553.017	53.66
553.361	53.55
553.704	53.65
554.048	53.75
554.391	53.6
554.734	53.47
555.077	53.82
555.42	53.79
555.764	53.92
556.107	54.12
556.45	54.37
556.793	54.2
557.135	54.51
557.478	54.35
557.821	54.51
558.164	54.67
558.507	54.54
558.849	54.83
559.192	54.69
559.534	54.76
559.877	54.71
560.219	54.65
560.562	54.96
560.904	55.03
561.246	55.06
561.589	55.06
561.931	55.44
562.273	55.34
562.615	55.24
562.957	55.38
563.299	55.58
563.641	55.25
563.983	55.32
564.325	55.69
564.667	55.61
565.008	56
565.35	55.65
565.692	55.6
566.033	55.54
566.375	55.71
566.716	55.96
567.058	55.56
567.399	55.86
567.741	55.92
568.082	56.13
568.423	55.76
568.764	55.82
569.105	55.76
569.447	56.02
569.788	55.78
570.129	56.06
570.47	56.17
570.811	56.25
571.151	56.25
571.492	56.33
571.833	56.4
572.174	56.63
572.514	56.5
572.855	56.65
573.195	56.69
573.536	56.55
573.876	56.58
574.217	56.68
574.557	56.58
574.898	56.65
575.238	57.03
575.578	56.62
575.918	56.48
576.258	56.81
576.598	56.95
576.938	57.01
577.278	57.07
577.618	57.29
577.958	56.99
578.298	57.31
578.638	57.24
578.977	57.47
579.317	57.53
579.657	57.75
579.996	57.92
580.336	57.85
580.675	57.61
581.014	57.95
581.354	58.05
581.693	58.27
582.032	58.41
582.372	58.28
582.711	58.27
583.05	58.17
583.389	58.38
583.728	58.6
584.067	58.33
584.406	58.48
584.745	58.76
585.083	58.43
585.422	58.62
585.761	58.58
586.1	58.35
586.438	58.63
586.777	58.8
587.115	58.75
587.454	58.51
587.792	59.31
588.13	59.3
588.469	59.03
588.807	59.1
589.145	59.72
589.483	59.47
589.821	59.28
590.159	59.03
590.497	59.14
590.835	59.66
591.173	59.38
591.511	59.4
591.849	59.43
592.187	59.59
592.524	59.37
592.862	59.82
593.2	59.49
593.537	59.65
593.875	59.86
594.212	59.43
594.55	59.77
594.887	59.7
595.224	59.75
595.561	59.71
595.899	59.75
596.236	60.06
596.573	60.15
596.91	60.19
597.247	60.23
597.584	60.16
597.921	59.69
598.258	59.96
598.594	59.79
598.931	59.76
599.268	59.94
599.604	60.06
599.941	60.19
600.277	59.81
600.614	60.06
600.95	60.39
601.287	60.66
601.623	60.44
601.959	60.69
602.296	61.27
602.632	60.96
602.968	61.09
603.304	61.4
603.64	60.74
603.976	60.81
604.312	60.98
604.648	61.08
604.984	61.15
605.319	60.84
605.655	60.87
605.991	60.84
606.326	60.9
606.662	60.91
606.998	60.86
607.333	60.91
607.668	61.04
608.004	61.1
608.339	61.79
608.674	61.53
609.01	61.59
609.345	61.32
609.68	62.16
610.015	61.91
610.35	61.79
610.685	61.6
611.02	61.51
611.355	61.47
611.689	61.71
612.024	61.67
612.359	61.63
612.694	61.75
613.028	61.91
613.363	62.16
613.697	62.4
614.032	62.44
614.366	62.17
614.7	62.18
615.035	62.55
615.369	62.21
615.703	62.64
616.037	62.79
616.371	62.67
616.705	63.2
617.039	63.02
617.373	62.49
617.707	62.77
618.041	62.82
618.375	63.25
618.709	62.47
619.042	63.09
619.376	63.25
619.71	62.61
620.043	63.4
620.377	63.25
620.71	63.57
621.043	63.52
621.377	62.63
621.71	63.63
622.043	63.44
622.376	63.7
622.709	63.34
623.043	63.32
623.376	63.58
623.709	63.49
624.041	63.33
624.374	64.05
624.707	63.84
625.04	63.92
625.373	64.19
625.705	63.86
626.038	63.62
626.37	64.14
626.703	64.33
627.035	63.68
627.368	64.1
627.7	63.92
628.032	64.02
628.365	64.13
628.697	64.26
629.029	64.03
629.361	64.09
629.693	64.1
630.025	64.27
630.357	64.25
630.689	64.16
631.021	64.66
631.353	63.96
631.684	64.16
632.016	64.64
632.348	64.54
632.679	64.2
633.011	64.28
633.342	64.15
633.674	65.36
634.005	64.53
634.336	64.73
634.668	64.77
634.999	65.14
635.33	65.14
635.661	64.86
635.992	64.94
636.323	65.28
636.654	65.18
636.985	64.96
637.316	65.2
637.647	65.42
637.977	65.11
638.308	65.72
638.639	64.87
638.969	65.24
639.3	65.37
639.63	65.71
639.961	64.86
640.291	65.87
640.622	65.52
640.952	65.09
641.282	65.78
641.612	66
641.943	65.74
642.273	65.9
642.603	66.45
642.933	66.11
643.263	65.77
643.592	66.21
643.922	65.85
644.252	66.69
644.582	66.21
644.911	66.84
645.241	65.94
645.571	66.14
645.9	66.17
646.23	66.3
646.559	66.11
646.888	67.31
647.218	66.82
647.547	66.72
647.876	66.61
648.205	66.93
648.534	66.99
648.863	66.49
649.192	66.26
649.521	67.05
649.85	66.54
650.179	67.29
650.508	66.89
650.837	66.69
651.165	67.19
651.494	66.63
651.822	67.66
652.151	67.37
652.479	66.73
652.808	67.32
653.136	66.76
653.465	67.22
653.793	66.83
654.121	67.46
654.449	67.35
654.777	67.45
655.105	67.51
655.433	66.95
655.761	67.64
656.089	67.46
656.417	66.76
656.745	67.36
657.073	67.37
657.4	67.09
657.728	67.55
658.056	67.56
658.383	68.18
658.711	67.78
659.038	67.88
659.365	67.47
659.693	68.2
660.02	67.55
660.347	67.77
660.674	67.31
661.001	67.32
661.329	68.34
661.656	67.44
661.982	67.6
662.309	67.93
662.636	67.16
662.963	67.6
663.29	67.19
663.616	68.14
663.943	67.6
664.27	67.96
664.596	68.69
664.923	69.04
665.249	68.65
665.576	68.6
665.902	68.22
666.228	68.8
666.554	68
666.881	68.79
667.207	68.37
667.533	68.27
667.859	68.89
668.185	68.47
668.511	68.32
