Data from 0361_crown_Reflection__4__10.txt Node

Date: Mon Dec 11 17:39:02 CST 2023
User: ToomeyLab
Spectrometer: FLMS14357
Trigger mode: 0
Integration Time (sec): 1.000000E-2
Scans to average: 100
Electric dark correction enabled: true
Nonlinearity correction enabled: false
Boxcar width: 0
XAxis mode: Wavelengths
Number of Pixels in Spectrum: 2048
>>>>>Begin Spectral Data<<<<<
189.047	83.38
189.435	83.38
189.823	83.38
190.211	-114.45
190.599	477.11
190.987	346.67
191.375	160.36
191.763	371.16
192.151	117.67
192.538	84.38
192.926	75.73
193.314	306.87
193.702	-223.38
194.089	211.24
194.477	99.44
194.864	338.6
195.252	113.29
195.639	1367.74
196.027	319.17
196.414	-29466.67
196.801	0.76
197.189	-521.6
197.576	68.79
197.963	23.53
198.351	5.8
198.738	30.05
199.125	-71.32
199.512	32.38
199.899	42.04
200.286	47.41
200.673	-44.53
201.06	14.11
201.447	14
201.833	44.36
202.22	44.79
202.607	-9.24
202.994	23.35
203.38	13.41
203.767	55.23
204.154	12.54
204.54	-39.16
204.927	11.47
205.313	3.29
205.699	-17.21
206.086	-12.73
206.472	23.74
206.858	26.67
207.245	23.14
207.631	-11.27
208.017	-0.09
208.403	27.78
208.789	-5.7
209.175	25.87
209.561	-0.25
209.947	-6.62
210.333	42.46
210.719	43.15
211.105	40.15
211.491	8.04
211.876	21.78
212.262	-18.72
212.648	7.96
213.034	21.14
213.419	-0.16
213.805	6.83
214.19	9.5
214.576	32.82
214.961	37.88
215.346	12.45
215.732	9.59
216.117	9.62
216.502	47.57
216.888	15.39
217.273	32.4
217.658	20.79
218.043	-20.61
218.428	8.86
218.813	40.78
219.198	20.25
219.583	26.35
219.968	10.44
220.353	5.66
220.738	36.19
221.122	14.02
221.507	31.74
221.892	34.38
222.276	6.55
222.661	-2.99
223.046	5.99
223.43	23.44
223.815	13.78
224.199	11.9
224.583	3.6
224.968	14.88
225.352	27.11
225.736	15.04
226.121	21.22
226.505	13.92
226.889	19.78
227.273	15.16
227.657	20.58
228.041	13.39
228.425	7.6
228.809	10
229.193	12.74
229.577	14.78
229.961	12.24
230.344	12.47
230.728	11.22
231.112	12.38
231.495	13.33
231.879	12.7
232.263	12.03
232.646	11.94
233.03	10.79
233.413	12.02
233.797	12.73
234.18	11.81
234.563	12.88
234.946	13.78
235.33	14.15
235.713	11.64
236.096	13.22
236.479	12.59
236.862	11.68
237.245	11.15
237.628	12.96
238.011	12.61
238.394	11.58
238.777	11.78
239.16	11.9
239.543	12.4
239.925	9.97
240.308	11.73
240.691	11.91
241.073	12.71
241.456	14.39
241.838	12.58
242.221	11.49
242.603	11.78
242.986	11.26
243.368	11.01
243.75	11.22
244.133	11.55
244.515	10.81
244.897	10.58
245.279	11.18
245.661	11.5
246.043	11.13
246.425	11.44
246.807	10.84
247.189	10.46
247.571	10.58
247.953	10.04
248.335	10.53
248.717	10.6
249.098	10.58
249.48	10.29
249.862	10.5
250.243	10.48
250.625	10.42
251.006	10.32
251.388	10.79
251.769	10.76
252.151	11.44
252.532	9.81
252.913	10.13
253.295	10.43
253.676	10.43
254.057	10.36
254.438	10.41
254.819	9.41
255.2	9.19
255.581	8.86
255.962	10.79
256.343	9.22
256.724	9.93
257.105	9.02
257.486	8.99
257.867	10.99
258.247	9.14
258.628	9.36
259.009	10.62
259.389	10.5
259.77	9.23
260.15	9.06
260.531	9.73
260.911	8.8
261.292	9.04
261.672	9.27
262.052	9.25
262.432	9.15
262.813	9.24
263.193	9.09
263.573	9.01
263.953	9.82
264.333	8.58
264.713	9.08
265.093	8.91
265.473	9.35
265.853	9.21
266.233	8.68
266.612	9.27
266.992	9.14
267.372	10.39
267.752	9.2
268.131	9.59
268.511	8.63
268.89	9.24
269.27	9.29
269.649	8.74
270.029	9.31
270.408	9.33
270.787	8.28
271.167	7.31
271.546	8.12
271.925	8.5
272.304	8.72
272.683	9.37
273.062	8.75
273.441	8.23
273.82	8.15
274.199	8.53
274.578	8.23
274.957	8.69
275.336	8.01
275.715	8.19
276.093	8.55
276.472	8.42
276.851	8.97
277.229	8.77
277.608	8.36
277.986	8.57
278.365	8.32
278.743	8.02
279.122	7.98
279.5	8.83
279.878	8.4
280.257	8.06
280.635	7.92
281.013	8
281.391	8.05
281.769	8.11
282.147	7.39
282.525	7.86
282.903	8.42
283.281	7.81
283.659	8.02
284.037	7.66
284.415	7.58
284.792	8.03
285.17	8.01
285.548	7.69
285.925	8.01
286.303	8.04
286.68	7.82
287.058	7.52
287.435	8.22
287.813	8.12
288.19	7.44
288.567	7.38
288.945	7.59
289.322	7.18
289.699	7.53
290.076	7.81
290.453	7.42
290.83	7.89
291.207	7.77
291.584	7.69
291.961	7.29
292.338	7.82
292.715	7.95
293.092	7.43
293.469	7.78
293.845	7.32
294.222	7.85
294.599	7.21
294.975	7.05
295.352	7.13
295.728	7.46
296.105	7.25
296.481	7.3
296.858	6.99
297.234	7.29
297.61	7.43
297.986	7.09
298.363	7.21
298.739	7.26
299.115	7
299.491	6.99
299.867	6.92
300.243	6.99
300.619	7.03
300.995	6.93
301.371	7.02
301.746	6.57
302.122	7.03
302.498	7.44
302.874	7.35
303.249	6.96
303.625	6.54
304	6.87
304.376	6.91
304.751	6.55
305.127	7.08
305.502	7.34
305.878	6.88
306.253	6.51
306.628	6.91
307.003	7.03
307.378	6.61
307.754	6.85
308.129	6.6
308.504	6.54
308.879	6.74
309.254	7.14
309.629	6.87
310.003	6.5
310.378	6.51
310.753	6.79
311.128	6.78
311.502	6.53
311.877	6.82
312.252	6.58
312.626	6.54
313.001	6.85
313.375	6.2
313.75	6.36
314.124	6.24
314.498	6.29
314.873	6.25
315.247	6.58
315.621	6.73
315.995	6.66
316.369	6.29
316.743	7.03
317.117	7.01
317.491	6.91
317.865	6.05
318.239	6.26
318.613	6.75
318.987	6.59
319.361	6.95
319.734	6.58
320.108	6.05
320.482	6.25
320.855	6.27
321.229	6.16
321.602	6.82
321.976	7.34
322.349	6.18
322.723	6.25
323.096	7.33
323.469	6.7
323.843	6.18
324.216	7.2
324.589	7.12
324.962	6.09
325.335	6.37
325.708	6.42
326.081	7.03
326.454	7.12
326.827	5.97
327.2	5.98
327.573	6.04
327.945	6.19
328.318	6.54
328.691	6.2
329.063	6.34
329.436	6.23
329.809	6.04
330.181	6.79
330.553	6.55
330.926	6.31
331.298	6.89
331.671	6.04
332.043	6.72
332.415	6.45
332.787	6.84
333.159	6.07
333.532	6.26
333.904	6.58
334.276	6.68
334.648	7.27
335.02	6.58
335.391	6.23
335.763	6.19
336.135	6.9
336.507	6.43
336.879	6.88
337.25	6.15
337.622	6.17
337.993	5.97
338.365	6.2
338.736	6.57
339.108	6.73
339.479	6.09
339.851	6.5
340.222	6.48
340.593	6.16
340.964	6.6
341.336	6.43
341.707	6.28
342.078	6.57
342.449	6.39
342.82	6.2
343.191	6.12
343.562	6.4
343.933	5.95
344.303	6.08
344.674	6.06
345.045	6.93
345.416	6.02
345.786	6.89
346.157	6.39
346.527	6.03
346.898	6.62
347.268	6.41
347.639	6.5
348.009	6.72
348.38	6.12
348.75	6.32
349.12	6.56
349.49	6.67
349.861	6.34
350.231	6.15
350.601	7.03
350.971	6.44
351.341	6.12
351.711	6.48
352.081	6.12
352.45	6.62
352.82	5.93
353.19	6.11
353.56	6.63
353.929	6.13
354.299	7.11
354.669	6.63
355.038	6.61
355.408	6.34
355.777	6.56
356.147	6.51
356.516	6.58
356.885	6.74
357.254	6.49
357.624	6.46
357.993	5.9
358.362	6.81
358.731	6.28
359.1	6.51
359.469	6.26
359.838	6.47
360.207	6.55
360.576	6.32
360.945	7.03
361.314	6.78
361.682	6.55
362.051	6.5
362.42	6.56
362.788	6.34
363.157	6.45
363.525	6.16
363.894	6.78
364.262	6.57
364.631	6.56
364.999	6.67
365.367	6.66
365.735	6.64
366.104	6.37
366.472	6.48
366.84	6.46
367.208	6.5
367.576	6.78
367.944	6.82
368.312	6.59
368.68	6.65
369.048	6.55
369.416	6.52
369.783	6.62
370.151	6.95
370.519	7.02
370.886	6.62
371.254	6.9
371.621	7.01
371.989	6.96
372.356	6.91
372.724	6.92
373.091	7.4
373.458	6.9
373.826	7.04
374.193	6.62
374.56	6.62
374.927	6.82
375.294	7.03
375.661	6.75
376.028	7.04
376.395	7.11
376.762	6.92
377.129	7.12
377.496	6.81
377.863	6.73
378.229	6.74
378.596	7.13
378.963	7.14
379.329	6.79
379.696	6.92
380.062	6.76
380.429	6.7
380.795	6.9
381.161	6.82
381.528	6.92
381.894	7.2
382.26	6.94
382.626	6.73
382.993	7.12
383.359	6.83
383.725	6.93
384.091	6.75
384.457	6.71
384.823	7.42
385.188	7.25
385.554	6.97
385.92	7.09
386.286	7.23
386.651	6.96
387.017	7.18
387.383	7.01
387.748	7.16
388.114	7.06
388.479	7.02
388.845	6.98
389.21	7.11
389.575	7.09
389.94	6.93
390.306	7.15
390.671	7.16
391.036	7.08
391.401	7.31
391.766	6.89
392.131	7.33
392.496	7.26
392.861	7.39
393.226	7.23
393.591	7.09
393.956	6.99
394.32	7.2
394.685	7.16
395.05	7.16
395.414	7.39
395.779	7
396.143	7.06
396.508	7.15
396.872	7.12
397.236	7.26
397.601	7.26
397.965	7.33
398.329	7.32
398.694	7.38
399.058	7.24
399.422	7.33
399.786	7.31
400.15	7.29
400.514	7.65
400.878	7.5
401.242	7.38
401.605	7.27
401.969	7.26
402.333	7.23
402.697	7.35
403.06	7.32
403.424	7.12
403.787	7.59
404.151	7.16
404.514	7.1
404.878	7.29
405.241	7.28
405.604	7.18
405.968	7.28
406.331	7.2
406.694	7.13
407.057	7.28
407.42	7.41
407.783	7.25
408.146	7.39
408.509	7.41
408.872	7.35
409.235	7.4
409.598	7.47
409.961	7.58
410.323	7.31
410.686	7.58
411.049	7.73
411.411	7.25
411.774	7.56
412.136	7.46
412.499	7.58
412.861	7.58
413.223	7.56
413.586	7.47
413.948	7.44
414.31	7.49
414.672	7.25
415.035	7.32
415.397	7.62
415.759	7.34
416.121	7.58
416.483	7.36
416.845	7.47
417.206	7.44
417.568	7.49
417.93	7.68
418.292	7.39
418.653	7.34
419.015	7.43
419.377	7.5
419.738	7.42
420.1	7.45
420.461	7.38
420.822	7.42
421.184	7.41
421.545	7.43
421.906	7.35
422.267	7.52
422.629	7.31
422.99	7.3
423.351	7.34
423.712	7.28
424.073	7.44
424.434	7.36
424.795	7.41
425.155	7.42
425.516	7.35
425.877	7.23
426.238	7.27
426.598	7.4
426.959	7.37
427.32	7.5
427.68	7.53
428.041	7.38
428.401	7.42
428.761	7.58
429.122	7.46
429.482	7.61
429.842	7.71
430.202	7.65
430.563	7.51
430.923	7.68
431.283	7.62
431.643	7.55
432.003	7.76
432.363	7.62
432.722	7.7
433.082	7.61
433.442	7.62
433.802	7.34
434.161	7.79
434.521	7.4
434.881	7.53
435.24	7.55
435.6	7.52
435.959	7.67
436.319	7.63
436.678	7.67
437.037	7.66
437.396	7.75
437.756	7.77
438.115	7.74
438.474	7.57
438.833	7.69
439.192	7.67
439.551	7.73
439.91	7.63
440.269	7.69
440.628	7.28
440.987	7.7
441.345	7.58
441.704	7.66
442.063	7.52
442.421	7.6
442.78	7.61
443.138	7.64
443.497	7.59
443.855	7.58
444.214	7.78
444.572	7.59
444.93	7.74
445.288	7.66
445.647	7.81
446.005	7.56
446.363	7.71
446.721	7.77
447.079	7.77
447.437	7.67
447.795	7.47
448.153	7.61
448.51	7.57
448.868	7.58
449.226	7.39
449.584	7.65
449.941	7.74
450.299	7.69
450.656	7.72
451.014	7.76
451.371	7.71
451.729	7.78
452.086	7.76
452.443	7.78
452.801	7.83
453.158	7.84
453.515	7.54
453.872	7.85
454.229	7.82
454.586	7.77
454.943	7.68
455.3	7.76
455.657	7.82
456.014	7.83
456.371	7.89
456.727	7.83
457.084	7.66
457.441	7.86
457.797	7.67
458.154	7.84
458.51	7.85
458.867	7.69
459.223	7.65
459.58	7.78
459.936	7.68
460.292	7.73
460.648	7.65
461.005	7.68
461.361	7.65
461.717	7.59
462.073	7.61
462.429	7.6
462.785	7.54
463.141	7.58
463.496	7.86
463.852	7.74
464.208	7.68
464.564	7.62
464.919	7.8
465.275	7.84
465.631	7.66
465.986	7.72
466.342	7.81
466.697	7.74
467.052	7.74
467.408	7.86
467.763	7.71
468.118	7.59
468.473	7.71
468.829	7.71
469.184	7.92
469.539	7.83
469.894	7.54
470.249	7.82
470.603	7.81
470.958	7.83
471.313	7.85
471.668	7.88
472.023	7.94
472.377	7.61
472.732	7.75
473.086	7.85
473.441	7.82
473.795	7.7
474.15	7.77
474.504	7.77
474.859	7.88
475.213	7.77
475.567	7.69
475.921	7.72
476.275	7.77
476.63	7.66
476.984	7.77
477.338	7.61
477.692	7.88
478.045	7.75
478.399	7.67
478.753	7.65
479.107	7.63
479.461	7.75
479.814	7.72
480.168	7.72
480.521	7.84
480.875	7.58
481.228	7.67
481.582	8
481.935	7.79
482.289	7.75
482.642	7.74
482.995	7.75
483.348	7.73
483.701	7.6
484.055	7.7
484.408	7.54
484.761	7.6
485.114	7.58
485.466	7.41
485.819	7.36
486.172	7.33
486.525	7.29
486.878	7.28
487.23	7.39
487.583	7.47
487.936	7.53
488.288	7.65
488.641	7.5
488.993	7.43
489.345	7.55
489.698	7.36
490.05	7.41
490.402	7.37
490.754	7.44
491.107	7.45
491.459	7.5
491.811	7.58
492.163	7.69
492.515	7.63
492.866	7.63
493.218	7.46
493.57	7.45
493.922	7.41
494.274	7.45
494.625	7.51
494.977	7.59
495.328	7.62
495.68	7.75
496.031	7.72
496.383	7.71
496.734	7.87
497.086	7.81
497.437	7.72
497.788	7.73
498.139	7.82
498.49	7.64
498.842	7.82
499.193	7.6
499.544	7.56
499.894	7.61
500.245	7.66
500.596	7.69
500.947	7.6
501.298	7.81
501.648	7.55
501.999	7.67
502.35	7.74
502.7	7.65
503.051	7.74
503.401	7.72
503.752	7.65
504.102	7.63
504.452	7.69
504.803	7.94
505.153	7.58
505.503	7.87
505.853	7.75
506.203	7.62
506.553	7.75
506.903	7.66
507.253	7.73
507.603	7.57
507.953	7.8
508.303	7.69
508.652	7.66
509.002	7.54
509.352	7.85
509.701	7.63
510.051	7.59
510.4	7.54
510.75	7.67
511.099	7.62
511.449	7.66
511.798	7.65
512.147	7.66
512.496	7.6
512.846	7.63
513.195	7.77
513.544	7.65
513.893	7.6
514.242	7.66
514.591	7.6
514.939	7.57
515.288	7.73
515.637	7.66
515.986	7.58
516.334	7.67
516.683	7.75
517.032	7.74
517.38	7.78
517.729	7.69
518.077	7.67
518.426	7.75
518.774	7.57
519.122	7.72
519.47	7.62
519.819	7.54
520.167	7.52
520.515	7.44
520.863	7.48
521.211	7.6
521.559	7.59
521.907	7.57
522.255	7.47
522.602	7.53
522.95	7.59
523.298	7.48
523.645	7.8
523.993	7.73
524.341	7.55
524.688	7.54
525.036	7.57
525.383	7.59
525.73	7.8
526.078	7.79
526.425	7.54
526.772	7.49
527.119	7.67
527.466	7.47
527.814	7.42
528.161	7.44
528.508	7.49
528.854	7.4
529.201	7.41
529.548	7.56
529.895	7.38
530.242	7.37
530.588	7.26
530.935	7.21
531.282	7.25
531.628	7.22
531.975	7.27
532.321	7.34
532.667	7.48
533.014	7.43
533.36	7.46
533.706	7.55
534.052	7.41
534.399	7.52
534.745	7.42
535.091	7.35
535.437	7.29
535.783	7.3
536.129	7.4
536.474	7.29
536.82	7.33
537.166	7.34
537.512	7.4
537.857	7.49
538.203	7.5
538.549	7.46
538.894	7.38
539.239	7.44
539.585	7.35
539.93	7.26
540.276	7.51
540.621	7.5
540.966	7.51
541.311	7.42
541.656	7.5
542.001	7.58
542.346	7.56
542.691	7.38
543.036	7.27
543.381	7.21
543.726	7.2
544.071	7.18
544.415	7.17
544.76	7.24
545.105	7.28
545.449	7.26
545.794	7.35
546.138	7.44
546.483	7.39
546.827	7.44
547.171	7.25
547.516	7.37
547.86	7.45
548.204	7.43
548.548	7.26
548.892	7.36
549.236	7.32
549.58	7.54
549.924	7.46
550.268	7.38
550.612	7.27
550.956	7.41
551.3	7.48
551.643	7.58
551.987	7.71
552.33	7.53
552.674	7.3
553.017	7.55
553.361	7.46
553.704	7.29
554.048	7.38
554.391	7.22
554.734	7.31
555.077	7.54
555.42	7.55
555.764	7.37
556.107	7.49
556.45	7.32
556.793	7.29
557.135	7.56
557.478	7.33
557.821	7.39
558.164	7.43
558.507	7.19
558.849	7.43
559.192	7.37
559.534	7.42
559.877	7.36
560.219	7.26
560.562	7.44
560.904	7.25
561.246	7.48
561.589	7.42
561.931	7.46
562.273	7.31
562.615	7.15
562.957	7.38
563.299	7.32
563.641	7.25
563.983	7.56
564.325	7.4
564.667	7.3
565.008	7.32
565.35	7.52
565.692	7.43
566.033	7.39
566.375	7.5
566.716	7.46
567.058	7.27
567.399	7.42
567.741	7.07
568.082	7.28
568.423	7.17
568.764	7.23
569.105	7.33
569.447	7.16
569.788	7.2
570.129	7.28
570.47	7.24
570.811	6.97
571.151	7.42
571.492	7.46
571.833	7.28
572.174	7.35
572.514	7.15
572.855	7.08
573.195	7.24
573.536	7.18
573.876	7.2
574.217	7.17
574.557	7.07
574.898	7.4
575.238	7.29
575.578	7.33
575.918	7.25
576.258	7.13
576.598	7.2
576.938	7.24
577.278	7.2
577.618	7.25
577.958	7.12
578.298	7.15
578.638	7.19
578.977	7.21
579.317	7.24
579.657	6.95
579.996	7.16
580.336	7.41
580.675	7.22
581.014	7.14
581.354	7.25
581.693	7.38
582.032	6.89
582.372	7.21
582.711	7.1
583.05	7.16
583.389	7.27
583.728	7.47
584.067	6.98
584.406	7.01
584.745	7.19
585.083	7.06
585.422	7.11
585.761	7.25
586.1	7.08
586.438	7.26
586.777	7.16
587.115	6.81
587.454	6.99
587.792	6.9
588.13	7.33
588.469	6.9
588.807	6.99
589.145	7.43
589.483	7.19
589.821	6.91
590.159	6.95
590.497	7.11
590.835	7.24
591.173	6.99
591.511	7.26
591.849	7.07
592.187	6.97
592.524	7.15
592.862	7.24
593.2	7.11
593.537	7.06
593.875	6.93
594.212	7.13
594.55	6.84
594.887	7.06
595.224	7.22
595.561	7.14
595.899	6.99
596.236	7.08
596.573	7
596.91	7.13
597.247	7.16
597.584	6.95
597.921	7.05
598.258	6.98
598.594	6.95
598.931	6.72
599.268	6.92
599.604	6.96
599.941	7.1
600.277	6.8
600.614	7.07
600.95	6.88
601.287	7.07
601.623	7.02
601.959	7.12
602.296	7.04
602.632	6.83
602.968	6.82
603.304	7.03
603.64	6.96
603.976	7.13
604.312	7.01
604.648	7.16
604.984	7.21
605.319	6.82
605.655	6.98
605.991	6.94
606.326	6.89
606.662	6.77
606.998	6.62
607.333	6.89
607.668	6.89
608.004	6.71
608.339	7.09
608.674	6.96
609.01	6.94
609.345	6.59
609.68	6.79
610.015	6.97
610.35	6.91
610.685	6.85
611.02	6.99
611.355	6.98
611.689	6.95
612.024	6.86
612.359	6.74
612.694	6.7
613.028	6.79
613.363	6.64
613.697	6.9
614.032	6.89
614.366	7.03
614.7	6.94
615.035	6.76
615.369	6.92
615.703	6.94
616.037	6.72
616.371	6.77
616.705	7.17
617.039	6.85
617.373	6.66
617.707	6.78
618.041	6.95
618.375	7.17
618.709	6.82
619.042	6.74
619.376	7.05
619.71	6.7
620.043	6.63
620.377	6.68
620.71	7.23
621.043	6.84
621.377	6.29
621.71	6.82
622.043	6.41
622.376	6.64
622.709	6.79
623.043	7.2
623.376	6.79
623.709	6.82
624.041	6.68
624.374	7.01
624.707	6.45
625.04	7.23
625.373	7.02
625.705	6.85
626.038	6.58
626.37	6.85
626.703	7.07
627.035	6.81
627.368	7.1
627.7	7.03
628.032	6.61
628.365	6.88
628.697	6.74
629.029	6.76
629.361	6.68
629.693	6.96
630.025	6.77
630.357	6.59
630.689	6.4
631.021	6.81
631.353	6.73
631.684	6.72
632.016	7.02
632.348	7
632.679	6.95
633.011	6.65
633.342	6.91
633.674	6.41
634.005	6.59
634.336	6.88
634.668	6.57
634.999	6.99
635.33	6.82
635.661	6.83
635.992	6.92
636.323	6.67
636.654	7.08
636.985	6.87
637.316	6.84
637.647	6.68
637.977	6.52
638.308	6.53
638.639	6.7
638.969	6.77
639.3	7.19
639.63	6.57
639.961	6.89
640.291	7.21
640.622	6.65
640.952	6.66
641.282	6.69
641.612	7.03
641.943	6.84
642.273	6.56
642.603	6.88
642.933	6.57
643.263	6.99
643.592	6.6
643.922	6.78
644.252	6.41
644.582	6.84
644.911	6.69
645.241	6.45
645.571	6.76
645.9	6.65
646.23	7.22
646.559	6.53
646.888	6.68
647.218	6.93
647.547	6.74
647.876	6.78
648.205	6.53
648.534	6.46
648.863	6.34
649.192	6.56
649.521	7.18
649.85	6.54
650.179	6.45
650.508	6.51
650.837	6.3
651.165	7.24
651.494	6.89
651.822	6.88
652.151	7.16
652.479	6.66
652.808	6.58
653.136	6.55
653.465	7.11
653.793	7.01
654.121	6.95
654.449	6.86
654.777	6.81
655.105	6.33
655.433	6.51
655.761	6.9
656.089	6.7
656.417	6.38
656.745	6.88
657.073	6.69
657.4	6.89
657.728	6.75
658.056	7.29
658.383	6.98
658.711	6.66
659.038	6.85
659.365	6.77
659.693	6.7
660.02	6.4
660.347	6.76
660.674	6.67
661.001	6.58
661.329	6.84
661.656	6.68
661.982	6.81
662.309	6.9
662.636	6.85
662.963	7.07
663.29	6.37
663.616	6.26
663.943	5.95
664.27	6.78
664.596	7.22
664.923	7.08
665.249	7.57
665.576	6.73
665.902	6.16
666.228	6.84
666.554	6.96
666.881	6.63
667.207	7.11
667.533	6.46
667.859	7.24
668.185	6.97
668.511	6.43
668.837	6.77
669.162	6.78
669.488	7.58
669.814	6.97
670.139	6.54
670.465	7.17
670.791	6.78
671.116	7.39
671.442	7.22
671.767	7.12
672.092	6.84
672.418	6.87
672.743	5.93
673.068	6.45
673.393	7.07
673.718	6.32
674.043	6.81
674.368	6.79
674.693	6.66
675.018	6.35
675.343	6.24
675.667	6.8
675.992	6.83
676.317	6.84
676.641	7.49
676.966	6.85
677.29	6.41
677.615	6.96
677.939	6.24
678.264	7.28
678.588	7.62
678.912	6.65
679.236	6.73
679.56	6.75
679.885	6.79
680.209	7.13
680.532	6.84
680.856	7.45
681.18	6.66
681.504	6.64
681.828	6.4
682.152	6.37
682.475	7.01
682.799	7.09
683.122	6.93
683.446	6.21
683.769	6.6
684.093	6.75
684.416	6.31
684.739	7.04
685.062	6.56
685.386	6.94
685.709	6.46
686.032	7.04
686.355	6.6
686.678	6.66
687.001	7.19
687.324	5.88
687.646	6.99
687.969	7.59
688.292	7.66
688.614	6.81
688.937	7.73
689.26	6.63
689.582	6.3
689.904	6.34
690.227	6.66
690.549	7.37
