Data from 0361_chest_Reflection__4__04.txt Node

Date: Mon Dec 11 17:35:23 CST 2023
User: ToomeyLab
Spectrometer: FLMS14357
Trigger mode: 0
Integration Time (sec): 1.000000E-2
Scans to average: 100
Electric dark correction enabled: true
Nonlinearity correction enabled: false
Boxcar width: 0
XAxis mode: Wavelengths
Number of Pixels in Spectrum: 2048
>>>>>Begin Spectral Data<<<<<
189.047	186.15
189.435	186.15
189.823	186.15
190.211	126.89
190.599	941.57
190.987	43.65
191.375	54.24
191.763	171.23
192.151	-132.22
192.538	174.96
192.926	88.4
193.314	292.99
193.702	161.69
194.089	175.84
194.477	26.49
194.864	109.59
195.252	-2.73
195.639	443.55
196.027	-160.36
196.414	-30350
196.801	111.61
197.189	555.6
197.576	80.39
197.963	4.7
198.351	-34.39
198.738	25.5
199.125	-68.03
199.512	25.46
199.899	16.94
200.286	42.07
200.673	-55.64
201.06	35.08
201.447	7.27
201.833	25.29
202.22	32.37
202.607	15.33
202.994	26.11
203.38	-17.46
203.767	65.01
204.154	57.75
204.54	8.44
204.927	-26.03
205.313	21.13
205.699	-50.04
206.086	17.02
206.472	56.35
206.858	51.8
207.245	6.85
207.631	9.73
208.017	17.01
208.403	21.8
208.789	-13.43
209.175	21.86
209.561	-15.24
209.947	6.79
210.333	16.59
210.719	8.49
211.105	21.29
211.491	16.28
211.876	25.28
212.262	-2.14
212.648	11.92
213.034	22.28
213.419	7.05
213.805	20.17
214.19	2.26
214.576	8.17
214.961	7.24
215.346	21.31
215.732	17.28
216.117	17.6
216.502	25.83
216.888	22.19
217.273	23.69
217.658	5.7
218.043	11.74
218.428	15.84
218.813	26.15
219.198	11.46
219.583	11.44
219.968	7.46
220.353	0.35
220.738	24.32
221.122	19.02
221.507	18.95
221.892	11.13
222.276	15.04
222.661	-7.68
223.046	-0.79
223.43	17.11
223.815	7.1
224.199	7.35
224.583	4.25
224.968	15.35
225.352	12.24
225.736	4.37
226.121	10.07
226.505	3.07
226.889	7.56
227.273	8.72
227.657	13.83
228.041	3.21
228.425	4.28
228.809	0.13
229.193	5.36
229.577	8.82
229.961	6.39
230.344	5.11
230.728	5.55
231.112	5.14
231.495	6.15
231.879	6.43
232.263	6.48
232.646	6.76
233.03	5.29
233.413	6.36
233.797	7.56
234.18	5.54
234.563	7.38
234.946	8.06
235.33	8.7
235.713	7.09
236.096	4.84
236.479	6.61
236.862	4.91
237.245	5.31
237.628	5.93
238.011	3.8
238.394	6.95
238.777	5.84
239.16	5.29
239.543	4.87
239.925	5.63
240.308	6.62
240.691	5.97
241.073	7.05
241.456	5.54
241.838	8.02
242.221	5.61
242.603	5.27
242.986	5.45
243.368	6.34
243.75	5.57
244.133	5.48
244.515	5.07
244.897	5.64
245.279	5.61
245.661	5.5
246.043	5.13
246.425	5.7
246.807	6.72
247.189	5.9
247.571	4.98
247.953	5.1
248.335	5.71
248.717	5.48
249.098	5.25
249.48	5.27
249.862	5.26
250.243	5.3
250.625	5.6
251.006	4.87
251.388	4.95
251.769	4.86
252.151	6.43
252.532	4.73
252.913	5.07
253.295	5.97
253.676	5.58
254.057	5.06
254.438	5.42
254.819	5.35
255.2	4.59
255.581	4.31
255.962	4.81
256.343	5.48
256.724	5.61
257.105	5.12
257.486	3.81
257.867	6.27
258.247	3.89
258.628	4.8
259.009	5.12
259.389	5.81
259.77	5.1
260.15	4.51
260.531	5.53
260.911	4.74
261.292	4.84
261.672	4.93
262.052	4.83
262.432	4.81
262.813	4.56
263.193	4.77
263.573	4.89
263.953	5.02
264.333	5.15
264.713	5.72
265.093	4.43
265.473	5.2
265.853	5.07
266.233	4.16
266.612	6.21
266.992	5.93
267.372	5.8
267.752	5.27
268.131	5.04
268.511	4.09
268.89	5.07
269.27	5.08
269.649	4.69
270.029	5.24
270.408	4.94
270.787	4.75
271.167	4.35
271.546	5.12
271.925	5.56
272.304	4.54
272.683	4.83
273.062	4.13
273.441	4.15
273.82	4.49
274.199	4.46
274.578	4.65
274.957	4.91
275.336	4.46
275.715	4.72
276.093	4.81
276.472	5.09
276.851	5.09
277.229	4.95
277.608	4.85
277.986	5.39
278.365	4.45
278.743	4.02
279.122	4.16
279.5	4.96
279.878	4.32
280.257	4
280.635	4.75
281.013	4.56
281.391	4.8
281.769	4.55
282.147	4.4
282.525	4.8
282.903	4.61
283.281	4.16
283.659	4.48
284.037	4.02
284.415	4.25
284.792	4.76
285.17	4.92
285.548	4.42
285.925	4.28
286.303	4.69
286.68	4.42
287.058	4.79
287.435	4.83
287.813	4.64
288.19	4.44
288.567	4.23
288.945	4.78
289.322	4.24
289.699	3.89
290.076	4.28
290.453	4.4
290.83	4.8
291.207	4.55
291.584	4.36
291.961	4.73
292.338	4.31
292.715	4.91
293.092	4.48
293.469	4.74
293.845	4.61
294.222	4.87
294.599	3.78
294.975	4.12
295.352	4.14
295.728	4.32
296.105	4.51
296.481	4.37
296.858	4.4
297.234	4.86
297.61	4.41
297.986	4.61
298.363	4.15
298.739	4.37
299.115	4.41
299.491	4.52
299.867	4.43
300.243	4.61
300.619	4.47
300.995	4.2
301.371	4.73
301.746	4.22
302.122	4.42
302.498	4.84
302.874	4.76
303.249	4.84
303.625	4.3
304	4.75
304.376	4.72
304.751	4.76
305.127	4.25
305.502	4.93
305.878	4.51
306.253	4.72
306.628	4.4
307.003	4.92
307.378	4.28
307.754	4.64
308.129	4.93
308.504	4.72
308.879	4.18
309.254	4.62
309.629	4.87
310.003	4.58
310.378	4.29
310.753	4.64
311.128	4.87
311.502	4.26
311.877	4.67
312.252	4.29
312.626	4.85
313.001	4.59
313.375	4.18
313.75	4.1
314.124	4.42
314.498	4.1
314.873	4.8
315.247	4.42
315.621	5.16
315.995	4.73
316.369	4.57
316.743	5.08
317.117	4.81
317.491	4.9
317.865	4.54
318.239	5.08
318.613	4.02
318.987	5.04
319.361	5.53
319.734	4.55
320.108	4.8
320.482	4.83
320.855	4.54
321.229	5.19
321.602	4.49
321.976	4.86
322.349	4.5
322.723	4.48
323.096	4.71
323.469	4.56
323.843	4.63
324.216	5.38
324.589	4.7
324.962	4.55
325.335	4.65
325.708	4.62
326.081	4.79
326.454	4.89
326.827	4.63
327.2	4.15
327.573	4.23
327.945	5.05
328.318	4.3
328.691	4.54
329.063	4.57
329.436	4.31
329.809	4.03
330.181	4.52
330.553	4.91
330.926	4.88
331.298	4.94
331.671	4.68
332.043	4.87
332.415	4.58
332.787	4.78
333.159	4.72
333.532	4.54
333.904	4.96
334.276	4.85
334.648	5.05
335.02	4.42
335.391	4.43
335.763	4.9
336.135	4.79
336.507	5.25
336.879	4.88
337.25	4.41
337.622	4.36
337.993	4.84
338.365	4.02
338.736	4.72
339.108	4.94
339.479	4.82
339.851	4.49
340.222	4.99
340.593	4.01
340.964	4.7
341.336	4.85
341.707	4.56
342.078	4.45
342.449	4.52
342.82	4.57
343.191	4.44
343.562	4.51
343.933	4.49
344.303	4.6
344.674	4.43
345.045	4.9
345.416	4.1
345.786	4.59
346.157	4.59
346.527	4.31
346.898	4.46
347.268	3.86
347.639	4.66
348.009	4.83
348.38	4.28
348.75	4.62
349.12	4.68
349.49	4.04
349.861	4.51
350.231	4.2
350.601	5.02
350.971	4.82
351.341	4.4
351.711	4.64
352.081	4.2
352.45	4.85
352.82	4.31
353.19	4.61
353.56	4.47
353.929	4.73
354.299	4.47
354.669	4.91
355.038	4.47
355.408	4.16
355.777	4.39
356.147	4.78
356.516	4.28
356.885	4.56
357.254	4.48
357.624	4.43
357.993	4.24
358.362	4.82
358.731	4.51
359.1	4.58
359.469	4.32
359.838	4.68
360.207	4.58
360.576	4.42
360.945	4.88
361.314	5.09
361.682	4.56
362.051	4.49
362.42	4.59
362.788	4.25
363.157	4.31
363.525	4.39
363.894	4.38
364.262	4.6
364.631	4.42
364.999	4.64
365.367	4.6
365.735	4.8
366.104	4.6
366.472	4.62
366.84	4.31
367.208	4.35
367.576	4.79
367.944	4.73
368.312	4.44
368.68	4.55
369.048	4.48
369.416	4.43
369.783	4.74
370.151	4.95
370.519	4.98
370.886	4.62
371.254	4.98
371.621	4.66
371.989	4.62
372.356	4.47
372.724	4.93
373.091	5.06
373.458	4.48
373.826	4.75
374.193	4.73
374.56	4.82
374.927	4.82
375.294	4.76
375.661	4.82
376.028	4.8
376.395	4.62
376.762	4.75
377.129	5.08
377.496	4.62
377.863	4.93
378.229	4.68
378.596	4.82
378.963	4.55
379.329	4.62
379.696	4.56
380.062	4.19
380.429	4.5
380.795	4.72
381.161	4.66
381.528	4.96
381.894	4.62
382.26	4.76
382.626	4.64
382.993	4.57
383.359	4.78
383.725	4.45
384.091	4.71
384.457	4.48
384.823	4.8
385.188	4.66
385.554	4.48
385.92	4.49
386.286	5
386.651	4.84
387.017	4.65
387.383	4.62
387.748	4.56
388.114	4.56
388.479	4.53
388.845	4.44
389.21	4.62
389.575	4.97
389.94	4.58
390.306	4.82
390.671	5.13
391.036	4.68
391.401	5
391.766	4.64
392.131	4.78
392.496	4.88
392.861	4.82
393.226	4.82
393.591	4.91
393.956	4.83
394.32	4.67
394.685	4.59
395.05	4.82
395.414	4.88
395.779	4.56
396.143	4.57
396.508	4.5
396.872	4.71
397.236	4.83
397.601	4.78
397.965	4.63
398.329	4.79
398.694	4.76
399.058	4.64
399.422	4.64
399.786	4.67
400.15	4.64
400.514	4.96
400.878	4.94
401.242	4.66
401.605	4.71
401.969	4.78
402.333	4.64
402.697	4.46
403.06	4.84
403.424	4.78
403.787	4.84
404.151	4.9
404.514	4.79
404.878	4.74
405.241	4.65
405.604	4.66
405.968	4.61
406.331	4.47
406.694	4.69
407.057	4.8
407.42	4.91
407.783	4.62
408.146	4.65
408.509	4.62
408.872	4.77
409.235	4.8
409.598	4.63
409.961	4.77
410.323	4.81
410.686	4.88
411.049	4.92
411.411	4.86
411.774	4.83
412.136	4.85
412.499	4.85
412.861	4.67
413.223	4.75
413.586	4.96
413.948	4.82
414.31	4.74
414.672	4.7
415.035	4.58
415.397	4.98
415.759	4.94
416.121	4.98
416.483	4.75
416.845	4.92
417.206	4.89
417.568	4.7
417.93	4.9
418.292	4.9
418.653	4.57
419.015	4.69
419.377	4.79
419.738	4.75
420.1	4.8
420.461	4.89
420.822	4.67
421.184	4.63
421.545	4.67
421.906	4.63
422.267	4.82
422.629	4.69
422.99	4.59
423.351	4.61
423.712	4.62
424.073	4.71
424.434	4.74
424.795	4.79
425.155	4.76
425.516	4.73
425.877	4.57
426.238	4.71
426.598	4.79
426.959	4.69
427.32	4.72
427.68	4.87
428.041	4.66
428.401	4.75
428.761	4.83
429.122	4.84
429.482	4.89
429.842	4.9
430.202	4.81
430.563	4.83
430.923	4.9
431.283	4.86
431.643	4.94
432.003	4.77
432.363	4.89
432.722	5.08
433.082	4.91
433.442	4.79
433.802	4.84
434.161	4.97
434.521	4.88
434.881	4.93
435.24	4.74
435.6	4.75
435.959	4.77
436.319	4.82
436.678	4.91
437.037	5.01
437.396	5.01
437.756	5
438.115	5.15
438.474	5.06
438.833	4.96
439.192	4.74
439.551	4.92
439.91	4.86
440.269	5.05
440.628	4.8
440.987	5.05
441.345	4.79
441.704	4.88
442.063	4.87
442.421	4.87
442.78	4.8
443.138	4.81
443.497	4.73
443.855	4.82
444.214	5.04
444.572	4.85
444.93	5.11
445.288	4.78
445.647	5.09
446.005	4.66
446.363	4.74
446.721	4.79
447.079	4.88
447.437	4.86
447.795	4.8
448.153	4.83
448.51	4.84
448.868	4.71
449.226	4.75
449.584	4.83
449.941	4.89
450.299	4.89
450.656	4.9
451.014	4.97
451.371	4.7
451.729	5.01
452.086	4.96
452.443	5.17
452.801	5.11
453.158	4.99
453.515	4.9
453.872	4.92
454.229	4.86
454.586	4.85
454.943	5
455.3	4.95
455.657	5.13
456.014	5.01
456.371	5.05
456.727	5.02
457.084	5.08
457.441	5.12
457.797	5.11
458.154	5
458.51	5.21
458.867	4.93
459.223	5
459.58	4.96
459.936	5.07
460.292	4.84
460.648	4.97
461.005	4.94
461.361	4.89
461.717	4.89
462.073	4.92
462.429	4.95
462.785	4.9
463.141	5.02
463.496	5.08
463.852	4.92
464.208	4.96
464.564	5.07
464.919	5.03
465.275	4.88
465.631	5
465.986	5.11
466.342	5.08
466.697	5.13
467.052	5.17
467.408	5.33
467.763	4.97
468.118	4.9
468.473	5.03
468.829	5.13
469.184	5.25
469.539	5.08
469.894	4.97
470.249	5.01
470.603	5.06
470.958	5.13
471.313	5.05
471.668	5.25
472.023	5.18
472.377	5.05
472.732	5.13
473.086	5.14
473.441	5.22
473.795	5.13
474.15	5.12
474.504	5.18
474.859	5.08
475.213	5
475.567	5.21
475.921	5.19
476.275	5.14
476.63	5
476.984	5.05
477.338	4.91
477.692	5.23
478.045	5.08
478.399	5.02
478.753	4.9
479.107	4.97
479.461	5.11
479.814	5.11
480.168	5.19
480.521	5.27
480.875	5.03
481.228	4.94
481.582	5.28
481.935	5.07
482.289	5.17
482.642	5.12
482.995	5.13
483.348	5.02
483.701	5.04
484.055	5.04
484.408	4.99
484.761	5.07
485.114	4.96
485.466	4.85
485.819	4.81
486.172	4.82
486.525	4.86
486.878	4.89
487.23	4.96
487.583	5.05
487.936	5.02
488.288	5.06
488.641	4.98
488.993	4.91
489.345	5.04
489.698	4.92
490.05	4.96
490.402	4.92
490.754	4.99
491.107	5.06
491.459	5.09
491.811	5.08
492.163	5.17
492.515	5.18
492.866	5.09
493.218	5
493.57	5.02
493.922	4.97
494.274	5.01
494.625	5.09
494.977	5.13
495.328	5.23
495.68	5.36
496.031	5.2
496.383	5.18
496.734	5.25
497.086	5.28
497.437	5.26
497.788	5.27
498.139	5.28
498.49	5.2
498.842	5.24
499.193	5.22
499.544	5.17
499.894	5.27
500.245	5.25
500.596	5.44
500.947	5.3
501.298	5.31
501.648	5.25
501.999	5.34
502.35	5.29
502.7	5.38
503.051	5.23
503.401	5.35
503.752	5.31
504.102	5.31
504.452	5.41
504.803	5.52
505.153	5.41
505.503	5.54
505.853	5.34
506.203	5.32
506.553	5.37
506.903	5.28
507.253	5.39
507.603	5.33
507.953	5.39
508.303	5.37
508.652	5.39
509.002	5.38
509.352	5.63
509.701	5.46
510.051	5.49
510.4	5.33
510.75	5.31
511.099	5.49
511.449	5.43
511.798	5.39
512.147	5.55
512.496	5.32
512.846	5.48
513.195	5.56
513.544	5.47
513.893	5.42
514.242	5.5
514.591	5.39
514.939	5.4
515.288	5.53
515.637	5.48
515.986	5.48
516.334	5.61
516.683	5.51
517.032	5.63
517.38	5.54
517.729	5.59
518.077	5.56
518.426	5.66
518.774	5.67
519.122	5.54
519.47	5.53
519.819	5.4
520.167	5.54
520.515	5.51
520.863	5.51
521.211	5.59
521.559	5.59
521.907	5.52
522.255	5.53
522.602	5.72
522.95	5.71
523.298	5.68
523.645	5.83
523.993	5.71
524.341	5.75
524.688	5.6
525.036	5.77
525.383	5.69
525.73	5.8
526.078	5.76
526.425	5.65
526.772	5.71
527.119	5.69
527.466	5.67
527.814	5.67
528.161	5.67
528.508	5.68
528.854	5.6
529.201	5.62
529.548	5.68
529.895	5.57
530.242	5.54
530.588	5.5
530.935	5.54
531.282	5.59
531.628	5.55
531.975	5.66
532.321	5.68
532.667	5.75
533.014	5.76
533.36	5.78
533.706	5.8
534.052	5.71
534.399	5.91
534.745	5.77
535.091	5.66
535.437	5.69
535.783	5.76
536.129	5.83
536.474	5.84
536.82	5.86
537.166	5.85
537.512	5.93
537.857	5.9
538.203	5.88
538.549	6
538.894	5.95
539.239	6.04
539.585	5.92
539.93	6.04
540.276	6.08
540.621	6.06
540.966	6.12
541.311	6.17
541.656	6.13
542.001	6.2
542.346	6.07
542.691	5.97
543.036	5.87
543.381	5.93
543.726	6.01
544.071	6
544.415	5.98
544.76	6.04
545.105	6.12
545.449	6.09
545.794	6.14
546.138	6.17
546.483	6.17
546.827	6.37
547.171	6.24
547.516	6.23
547.86	6.41
548.204	6.39
548.548	6.22
548.892	6.3
549.236	6.28
549.58	6.43
549.924	6.55
550.268	6.44
550.612	6.35
550.956	6.38
551.3	6.5
551.643	6.76
551.987	6.58
552.33	6.66
552.674	6.68
553.017	6.52
553.361	6.42
553.704	6.54
554.048	6.73
554.391	6.56
554.734	6.58
555.077	6.68
555.42	6.65
555.764	6.64
556.107	6.8
556.45	6.88
556.793	6.59
557.135	6.91
557.478	6.73
557.821	6.95
558.164	6.88
558.507	6.68
558.849	6.85
559.192	6.81
559.534	6.93
559.877	6.96
560.219	6.76
560.562	7.09
560.904	6.96
561.246	6.91
561.589	6.98
561.931	6.94
562.273	6.88
562.615	7.1
562.957	7.12
563.299	7.05
563.641	7.08
563.983	7.2
564.325	7.27
564.667	7.16
565.008	7.25
565.35	7.23
565.692	7.16
566.033	7.14
566.375	7.26
566.716	7.38
567.058	7.14
567.399	7.25
567.741	7.22
568.082	7.28
568.423	7.29
568.764	7.31
569.105	7.28
569.447	7.54
569.788	7.19
570.129	7.44
570.47	7.24
570.811	7.17
571.151	7.56
571.492	7.56
571.833	7.5
572.174	7.53
572.514	7.55
572.855	7.5
573.195	7.54
573.536	7.58
573.876	7.65
574.217	7.52
574.557	7.66
574.898	7.57
575.238	7.81
575.578	7.55
575.918	7.68
576.258	7.74
576.598	7.7
576.938	7.75
577.278	7.9
577.618	7.72
577.958	7.74
578.298	8.02
578.638	7.97
578.977	7.85
579.317	7.98
579.657	7.97
579.996	7.99
580.336	8.07
580.675	8.23
581.014	7.95
581.354	8.04
581.693	8.08
582.032	7.89
582.372	8.18
582.711	7.98
583.05	8.16
583.389	8.24
583.728	8.45
584.067	8.17
584.406	7.99
584.745	8.29
585.083	8.29
585.422	8.25
585.761	8.45
586.1	8.37
586.438	8.29
586.777	8.49
587.115	8.38
587.454	8.51
587.792	8.5
588.13	8.77
588.469	8.54
588.807	8.5
589.145	8.93
589.483	8.89
589.821	8.4
590.159	8.67
590.497	8.71
590.835	9
591.173	8.75
591.511	8.99
591.849	8.81
592.187	8.58
592.524	9
592.862	8.72
593.2	8.76
593.537	8.99
593.875	8.99
594.212	8.93
594.55	9.01
594.887	9.08
595.224	9.04
595.561	9.08
595.899	8.98
596.236	9.22
596.573	9.02
596.91	8.88
597.247	9.17
597.584	9.28
597.921	9.03
598.258	9.33
598.594	9.14
598.931	9.09
599.268	9.16
599.604	9.31
599.941	9.45
600.277	9.31
600.614	9.43
600.95	9.43
601.287	9.44
601.623	9.43
601.959	9.67
602.296	9.38
602.632	9.61
602.968	9.44
603.304	9.6
603.64	9.6
603.976	9.7
604.312	9.79
604.648	9.62
604.984	9.77
605.319	9.73
605.655	9.74
605.991	9.72
606.326	9.75
606.662	9.78
606.998	9.74
607.333	9.91
607.668	10
608.004	9.96
608.339	10.17
608.674	10.18
609.01	10.02
609.345	10.15
609.68	10.31
610.015	10.3
610.35	10.21
610.685	10.22
611.02	10.1
611.355	10.16
611.689	10.36
612.024	10.2
612.359	10.4
612.694	10.24
613.028	10.45
613.363	10.48
613.697	10.44
614.032	10.46
614.366	10.73
614.7	10.35
615.035	10.68
615.369	10.44
615.703	10.84
616.037	10.89
616.371	10.57
616.705	11.2
617.039	10.85
617.373	10.68
617.707	10.68
618.041	10.92
618.375	11.25
618.709	10.76
619.042	10.85
619.376	11.38
619.71	10.74
620.043	10.95
620.377	11.05
620.71	11.21
621.043	11.01
621.377	10.73
621.71	11.31
622.043	11.26
622.376	11.63
622.709	11.47
623.043	11.25
623.376	11.17
623.709	11.58
624.041	11.25
624.374	11.48
624.707	11.73
625.04	11.87
625.373	11.65
625.705	11.61
626.038	11.65
626.37	11.8
626.703	12.26
627.035	11.83
627.368	12.04
627.7	11.53
628.032	11.85
628.365	11.76
628.697	11.91
629.029	11.69
629.361	11.71
629.693	12.08
630.025	11.99
630.357	12
630.689	11.79
631.021	11.79
631.353	11.64
631.684	12.18
632.016	12.34
632.348	12.4
632.679	12.54
633.011	12.23
633.342	12.48
633.674	12.61
634.005	12.63
634.336	11.94
634.668	12.21
634.999	12.8
635.33	12.49
635.661	12.69
635.992	12.85
636.323	12.56
636.654	12.54
636.985	12.84
637.316	12.78
637.647	12.9
637.977	13.06
638.308	13.01
638.639	12.56
638.969	12.76
639.3	13.09
639.63	12.8
639.961	12.96
640.291	13.36
640.622	12.86
640.952	13.45
641.282	13.27
641.612	13.51
641.943	13.27
642.273	13.48
642.603	13.79
642.933	13.16
643.263	13.58
643.592	13.08
643.922	13.61
644.252	13.31
644.582	13.8
644.911	13.71
645.241	13.08
645.571	13.72
645.9	13.54
646.23	13.54
646.559	13.3
646.888	14.18
647.218	13.49
647.547	13.47
647.876	13.54
648.205	13.66
648.534	13.82
648.863	14.32
649.192	13.76
649.521	14.49
649.85	13.6
650.179	14.05
650.508	13.93
650.837	13.78
651.165	14.49
651.494	14.3
651.822	14.14
652.151	14.61
652.479	14.35
652.808	14.31
653.136	14.33
653.465	14.49
653.793	14.69
654.121	14.66
654.449	14.52
654.777	14.94
655.105	14.34
655.433	14.74
655.761	14.54
656.089	14.86
656.417	14.9
656.745	14.92
657.073	15.15
657.4	14.86
657.728	14.74
658.056	15.43
658.383	14.94
658.711	15.35
659.038	15.24
659.365	15.09
659.693	15.53
660.02	14.72
660.347	15.14
660.674	14.82
661.001	15.28
661.329	15.66
661.656	15
661.982	15.29
662.309	15.31
662.636	15.3
662.963	15.67
663.29	14.93
663.616	15.16
663.943	15.39
664.27	15.92
664.596	15.69
664.923	15.32
665.249	15.93
665.576	15.57
665.902	15.34
666.228	15.89
666.554	16
666.881	15.66
667.207	16.62
667.533	15.87
667.859	16.36
668.185	16.31
668.511	16.17
668.837	16.15
669.162	16.09
669.488	16.24
669.814	16.42
670.139	16.22
670.465	16.27
670.791	16.27
671.116	16.11
671.442	16.12
671.767	16.77
672.092	16.16
672.418	16.97
672.743	15.58
673.068	16.03
673.393	16.33
673.718	16.42
674.043	16.69
674.368	17
674.693	16.25
675.018	16.8
675.343	16.76
675.667	16.38
675.992	17.22
676.317	16.56
676.641	16.43
676.966	16.64
677.29	16.65
677.615	17.89
677.939	16.76
678.264	16.98
678.588	16.75
678.912	17.51
679.236	17.09
679.56	17.42
679.885	17.11
680.209	17.53
680.532	17.99
680.856	17.49
681.18	17.02
681.504	17.12
681.828	16.57
682.152	17.01
682.475	18.08
682.799	17.73
683.122	17.08
683.446	16.83
683.769	17.96
684.093	17.43
684.416	17.41
684.739	17.93
685.062	17.95
685.386	17.9
685.709	17.42
686.032	17.92
686.355	17.76
686.678	17.84
687.001	17.77
687.324	17.49
687.646	18.07
