Data from 0361_forehead_Reflection__1__12.txt Node

Date: Mon Dec 11 17:39:52 CST 2023
User: ToomeyLab
Spectrometer: FLMS14357
Trigger mode: 0
Integration Time (sec): 1.000000E-2
Scans to average: 100
Electric dark correction enabled: true
Nonlinearity correction enabled: false
Boxcar width: 0
XAxis mode: Wavelengths
Number of Pixels in Spectrum: 2048
>>>>>Begin Spectral Data<<<<<
189.047	266.03
189.435	266.03
189.823	266.03
190.211	103.81
190.599	646.08
190.987	299.76
191.375	247.47
191.763	225.87
192.151	74.05
192.538	30.23
192.926	9.58
193.314	176.79
193.702	118.38
194.089	24.06
194.477	126.79
194.864	223.98
195.252	-90.6
195.639	1097.58
196.027	-159.72
196.414	-5858.33
196.801	94.43
197.189	473.4
197.576	102.21
197.963	50.59
198.351	11.97
198.738	33.98
199.125	67.08
199.512	24.84
199.899	5.5
200.286	84.38
200.673	-42.09
201.06	51.88
201.447	29.02
201.833	31.51
202.22	20.39
202.607	19.44
202.994	52.46
203.38	1.51
203.767	46.7
204.154	77.8
204.54	20.53
204.927	5.88
205.313	7.52
205.699	-28.62
206.086	0.28
206.472	42.73
206.858	36.91
207.245	36.87
207.631	16.01
208.017	39.54
208.403	54.09
208.789	9.73
209.175	38.23
209.561	-1.52
209.947	4.59
210.333	56.79
210.719	24.73
211.105	52.28
211.491	60.95
211.876	19.86
212.262	26.04
212.648	107.62
213.034	10.19
213.419	6.47
213.805	35.35
214.19	27.45
214.576	26.78
214.961	69.13
215.346	45.77
215.732	25.68
216.117	32.81
216.502	47.58
216.888	34.87
217.273	26.47
217.658	22.54
218.043	24.5
218.428	28.96
218.813	24.13
219.198	7.51
219.583	32.74
219.968	22.57
220.353	9.3
220.738	41.22
221.122	20.02
221.507	37.56
221.892	25.12
222.276	15.77
222.661	15.79
223.046	26.39
223.43	22.73
223.815	16.37
224.199	12.27
224.583	14.36
224.968	16.77
225.352	9.4
225.736	13.07
226.121	15.14
226.505	5.24
226.889	21.76
227.273	14.09
227.657	18.22
228.041	6.65
228.425	7.98
228.809	3.44
229.193	6.44
229.577	8.19
229.961	6.34
230.344	5.58
230.728	5.47
231.112	5.87
231.495	5.73
231.879	5.55
232.263	5.76
232.646	6.21
233.03	5.68
233.413	4.38
233.797	7.36
234.18	7.79
234.563	7.86
234.946	8.52
235.33	8.72
235.713	7.19
236.096	5.84
236.479	6.79
236.862	3.53
237.245	6.13
237.628	4.15
238.011	6.88
238.394	5.83
238.777	6.5
239.16	7.54
239.543	6.46
239.925	4.49
240.308	8.07
240.691	5.85
241.073	7.41
241.456	8.25
241.838	6.53
242.221	6.55
242.603	4.9
242.986	4.39
243.368	4.28
243.75	5.48
244.133	5.35
244.515	4.96
244.897	5.22
245.279	4.98
245.661	4.49
246.043	5.58
246.425	5.89
246.807	6.47
247.189	6.18
247.571	5.42
247.953	5.37
248.335	5.2
248.717	5.04
249.098	4.91
249.48	4.76
249.862	5.19
250.243	4.98
250.625	5.45
251.006	5.04
251.388	4.88
251.769	6.02
252.151	6.86
252.532	5.32
252.913	5.77
253.295	6.6
253.676	5.29
254.057	5.15
254.438	5.41
254.819	4.82
255.2	4.88
255.581	5.79
255.962	4.56
256.343	5.87
256.724	5.72
257.105	6
257.486	5.13
257.867	6.79
258.247	4.49
258.628	5.62
259.009	6.87
259.389	6.05
259.77	4.38
260.15	4.73
260.531	5.59
260.911	4.68
261.292	4.93
261.672	4.69
262.052	4.74
262.432	4.68
262.813	5.01
263.193	4.82
263.573	5.47
263.953	5.61
264.333	4.63
264.713	5.3
265.093	5.44
265.473	5.26
265.853	5.77
266.233	5
266.612	6.1
266.992	5.83
267.372	6.57
267.752	5.32
268.131	4.89
268.511	4.58
268.89	5.32
269.27	5.89
269.649	4.86
270.029	5.69
270.408	5.45
270.787	4.9
271.167	3.86
271.546	5.05
271.925	4.9
272.304	4.94
272.683	4.75
273.062	4.65
273.441	4.96
273.82	4.6
274.199	4.8
274.578	4.45
274.957	4.63
275.336	4.97
275.715	4.31
276.093	5.45
276.472	4.91
276.851	5.07
277.229	5.36
277.608	4.57
277.986	5.71
278.365	4.59
278.743	5.01
279.122	4.9
279.5	5.38
279.878	5.03
280.257	3.85
280.635	4.91
281.013	4.86
281.391	5.63
281.769	4.47
282.147	4.98
282.525	4.56
282.903	4.92
283.281	4.88
283.659	4.58
284.037	4.3
284.415	4.72
284.792	4.91
285.17	4.53
285.548	4.9
285.925	5.25
286.303	4.48
286.68	4.79
287.058	4.87
287.435	4.79
287.813	4.94
288.19	4.67
288.567	4.53
288.945	5.05
289.322	4.34
289.699	4.98
290.076	5.06
290.453	5.33
290.83	5.51
291.207	5.26
291.584	5.13
291.961	5.29
292.338	5.08
292.715	5.42
293.092	5.14
293.469	5.14
293.845	5.22
294.222	5.65
294.599	5.35
294.975	5.47
295.352	5.28
295.728	5.26
296.105	5.49
296.481	5.43
296.858	5.72
297.234	5.62
297.61	6.35
297.986	6.04
298.363	6.19
298.739	5.86
299.115	5.68
299.491	6.06
299.867	5.72
300.243	6.04
300.619	5.96
300.995	6.2
301.371	6.18
301.746	5.78
302.122	5.91
302.498	6.33
302.874	6.48
303.249	6.57
303.625	6.61
304	6.69
304.376	6.52
304.751	6.86
305.127	7.17
305.502	6.83
305.878	6.6
306.253	7.29
306.628	6.97
307.003	7.05
307.378	7.33
307.754	7.47
308.129	7.44
308.504	6.71
308.879	7.82
309.254	8
309.629	8.11
310.003	8.03
310.378	7.31
310.753	8.14
311.128	7.65
311.502	7.74
311.877	8.02
312.252	7.88
312.626	7.94
313.001	8.23
313.375	7.64
313.75	8.13
314.124	8.32
314.498	8.06
314.873	8.26
315.247	7.98
315.621	8.76
315.995	9.21
316.369	8.62
316.743	9.25
317.117	8.59
317.491	9.25
317.865	9.04
318.239	9.23
318.613	9.14
318.987	9.42
319.361	9.65
319.734	8.96
320.108	9.53
320.482	9.62
320.855	9.68
321.229	9.47
321.602	9.66
321.976	10.05
322.349	9.49
322.723	10.03
323.096	10.37
323.469	10.64
323.843	10.65
324.216	10.56
324.589	10.3
324.962	10.67
325.335	10.75
325.708	10.51
326.081	10.92
326.454	10.37
326.827	10.44
327.2	10.24
327.573	10.41
327.945	10.98
328.318	10.65
328.691	10.71
329.063	11.42
329.436	11.18
329.809	11.29
330.181	11.44
330.553	11.38
330.926	10.79
331.298	11.5
331.671	11.44
332.043	11.87
332.415	11.88
332.787	11.62
333.159	11.46
333.532	11.67
333.904	11.99
334.276	12
334.648	11.49
335.02	11.9
335.391	11.96
335.763	12.39
336.135	12.06
336.507	12.37
336.879	12.43
337.25	11.92
337.622	12.14
337.993	12.32
338.365	12.19
338.736	12.84
339.108	12.7
339.479	12.44
339.851	12.6
340.222	13.51
340.593	12.49
340.964	12.89
341.336	13.22
341.707	12.99
342.078	13.32
342.449	13.19
342.82	13.09
343.191	13.02
343.562	13.49
343.933	13.23
344.303	13.28
344.674	13.08
345.045	13.67
345.416	13.26
345.786	13.88
346.157	13.9
346.527	13.73
346.898	13.93
347.268	13.87
347.639	13.83
348.009	13.75
348.38	13.84
348.75	13.53
349.12	14.1
349.49	14.06
349.861	14.38
350.231	14.29
350.601	14.9
350.971	14.75
351.341	14.43
351.711	14.44
352.081	14.29
352.45	14.5
352.82	14.24
353.19	14.65
353.56	14.71
353.929	15.19
354.299	15.3
354.669	14.63
355.038	14.77
355.408	14.66
355.777	15.22
356.147	15.13
356.516	15.26
356.885	15.14
357.254	15.58
357.624	15.58
357.993	15.42
358.362	15.81
358.731	15.28
359.1	15.65
359.469	15.16
359.838	15.75
360.207	15.66
360.576	15.62
360.945	16.03
361.314	15.82
361.682	15.7
362.051	16.33
362.42	15.64
362.788	15.63
363.157	16.23
363.525	16.16
363.894	16.09
364.262	16.19
364.631	16.59
364.999	16.62
365.367	16.9
365.735	16.53
366.104	16.79
366.472	16.86
366.84	16.62
367.208	16.66
367.576	16.95
367.944	16.94
368.312	16.96
368.68	17.08
369.048	17.19
369.416	17
369.783	17.36
370.151	17.81
370.519	17.73
370.886	17.26
371.254	17.73
371.621	17.72
371.989	17.6
372.356	17.59
372.724	18.23
373.091	18.5
373.458	17.91
373.826	17.89
374.193	18.14
374.56	18.15
374.927	18.58
375.294	18.46
375.661	18.14
376.028	18.69
376.395	18.46
376.762	18.78
377.129	19.05
377.496	18.51
377.863	18.85
378.229	18.68
378.596	19.03
378.963	18.74
379.329	18.84
379.696	18.93
380.062	18.84
380.429	19.09
380.795	19.59
381.161	19.33
381.528	19.04
381.894	19.49
382.26	19.48
382.626	19.6
382.993	20.08
383.359	19.69
383.725	19.76
384.091	20.14
384.457	19.92
384.823	19.93
385.188	19.89
385.554	19.86
385.92	20.1
386.286	20.04
386.651	20.5
387.017	20.73
387.383	20.42
387.748	20.17
388.114	20.11
388.479	20.34
388.845	20.88
389.21	20.76
389.575	20.91
389.94	20.88
390.306	20.91
390.671	20.97
391.036	20.86
391.401	21.02
391.766	21.14
392.131	21.23
392.496	21.37
392.861	21.52
393.226	21.52
393.591	21.62
393.956	21.24
394.32	21.5
394.685	21.42
395.05	22.09
395.414	22.19
395.779	21.65
396.143	21.72
396.508	21.76
396.872	22
397.236	22.25
397.601	22.06
397.965	22.16
398.329	22.23
398.694	22.3
399.058	22.09
399.422	22.26
399.786	22.34
400.15	22.28
400.514	22.71
400.878	22.76
401.242	22.66
401.605	22.56
401.969	22.88
402.333	22.55
402.697	23.15
403.06	23.05
403.424	23.18
403.787	23.36
404.151	23.28
404.514	23.16
404.878	23.68
405.241	23.56
405.604	23.61
405.968	23.59
406.331	23.43
406.694	23.6
407.057	23.6
407.42	23.9
407.783	23.86
408.146	24.19
408.509	23.73
408.872	24.03
409.235	23.96
409.598	24.27
409.961	24.32
410.323	24.39
410.686	24.22
411.049	24.38
411.411	24.28
411.774	24.38
412.136	24.25
412.499	24.87
412.861	24.74
413.223	24.92
413.586	25.04
413.948	25.15
414.31	25
414.672	24.7
415.035	25.06
415.397	25.28
415.759	25.26
416.121	25.23
416.483	25.22
416.845	25.36
417.206	25.39
417.568	25.44
417.93	25.59
418.292	25.57
418.653	25.46
419.015	25.44
419.377	25.53
419.738	25.63
420.1	25.63
420.461	25.57
420.822	25.6
421.184	25.63
421.545	25.51
421.906	25.6
422.267	25.65
422.629	25.61
422.99	25.72
423.351	25.76
423.712	25.8
424.073	26.06
424.434	26
424.795	26.22
425.155	26.21
425.516	26.25
425.877	26.07
426.238	26.23
426.598	26.35
426.959	26.44
427.32	26.57
427.68	26.65
428.041	26.55
428.401	26.85
428.761	27.11
429.122	26.99
429.482	27.29
429.842	27.11
430.202	27.39
430.563	27.37
430.923	27.71
431.283	27.68
431.643	27.73
432.003	27.72
432.363	27.8
432.722	27.95
433.082	27.83
433.442	28.11
433.802	28
434.161	28.13
434.521	28.23
434.881	28.16
435.24	27.98
435.6	28.22
435.959	28.13
436.319	28.33
436.678	28.47
437.037	28.51
437.396	28.76
437.756	28.63
438.115	28.77
438.474	28.8
438.833	28.84
439.192	28.93
439.551	29.07
439.91	29.13
440.269	29.14
440.628	29.03
440.987	29.21
441.345	29.16
441.704	29.16
442.063	29.09
442.421	29.24
442.78	29.25
443.138	29.21
443.497	29.37
443.855	29.45
444.214	29.72
444.572	29.67
444.93	29.85
445.288	29.75
445.647	29.92
446.005	29.77
446.363	29.75
446.721	30.05
447.079	30.15
447.437	29.97
447.795	30.05
448.153	30.03
448.51	29.89
448.868	29.86
449.226	29.89
449.584	30.32
449.941	30.49
450.299	30.44
450.656	30.48
451.014	30.53
451.371	30.52
451.729	30.92
452.086	30.88
452.443	31.26
452.801	31.09
453.158	31.13
453.515	31.21
453.872	31.42
454.229	31.31
454.586	31.25
454.943	31.38
455.3	31.46
455.657	31.54
456.014	31.69
456.371	31.74
456.727	32
457.084	32
457.441	32.16
457.797	32.18
458.154	32.13
458.51	32.24
458.867	32.19
459.223	32.12
459.58	32.43
459.936	32.15
460.292	32.23
460.648	32.27
461.005	32
461.361	32.18
461.717	31.95
462.073	32.09
462.429	32.27
462.785	32.41
463.141	32.56
463.496	32.76
463.852	32.94
464.208	32.93
464.564	33
464.919	33.1
465.275	33.09
465.631	32.97
465.986	33.56
466.342	33.21
466.697	33.49
467.052	33.58
467.408	33.8
467.763	33.54
468.118	33.6
468.473	33.73
468.829	33.79
469.184	34.12
469.539	34.23
469.894	33.8
470.249	34.1
470.603	34.21
470.958	34.33
471.313	34.55
471.668	34.46
472.023	34.61
472.377	34.38
472.732	34.65
473.086	34.81
473.441	34.65
473.795	34.57
474.15	34.81
474.504	34.82
474.859	34.97
475.213	34.87
475.567	34.99
475.921	35
476.275	35.37
476.63	35.25
476.984	35.02
477.338	35.26
477.692	35.36
478.045	35.46
478.399	35.37
478.753	35.16
479.107	35.44
479.461	35.52
479.814	35.28
480.168	35.57
480.521	35.78
480.875	35.76
481.228	35.67
481.582	35.98
481.935	35.98
482.289	35.88
482.642	35.68
482.995	35.96
483.348	35.71
483.701	35.78
484.055	35.69
484.408	35.46
484.761	35.36
485.114	35.19
485.466	35.01
485.819	35.1
486.172	35.28
486.525	35.35
486.878	35.45
487.23	35.54
487.583	35.93
487.936	35.9
488.288	36.07
488.641	35.94
488.993	35.74
489.345	35.7
489.698	35.8
490.05	35.86
490.402	35.94
490.754	36.15
491.107	36.51
491.459	36.67
491.811	36.73
492.163	36.9
492.515	36.87
492.866	36.73
493.218	36.44
493.57	36.55
493.922	36.6
494.274	36.8
494.625	37.14
494.977	37.3
495.328	37.54
495.68	37.81
496.031	38.04
496.383	37.95
496.734	38.29
497.086	38.26
497.437	38.64
497.788	38.29
498.139	38.2
498.49	38.29
498.842	38.19
499.193	38.25
499.544	38.48
499.894	38.42
500.245	38.64
500.596	38.64
500.947	38.84
501.298	39.07
501.648	39.11
501.999	39.28
502.35	39.16
502.7	39.08
503.051	39.36
503.401	39.51
503.752	39.54
504.102	39.29
504.452	39.71
504.803	39.77
505.153	39.82
505.503	39.85
505.853	39.54
506.203	39.75
506.553	40.02
506.903	39.76
507.253	39.94
507.603	39.99
507.953	40.12
508.303	40.23
508.652	40.19
509.002	40.21
509.352	40.39
509.701	40.4
510.051	40.44
510.4	40.26
510.75	40.33
511.099	40.28
511.449	40.48
511.798	40.44
512.147	40.36
512.496	40.48
512.846	40.54
513.195	40.64
513.544	40.75
513.893	40.84
514.242	40.73
514.591	40.98
514.939	40.7
515.288	41.09
515.637	41.04
515.986	40.9
516.334	41.26
516.683	41.34
517.032	41.28
517.38	41.36
517.729	41.46
518.077	41.56
518.426	41.59
518.774	41.68
519.122	41.65
519.47	41.65
519.819	41.24
520.167	41.34
520.515	41.41
520.863	41.54
521.211	41.62
521.559	41.8
521.907	41.83
522.255	41.74
522.602	41.89
522.95	42.24
523.298	42.28
523.645	42.57
523.993	42.48
524.341	42.55
524.688	42.63
525.036	42.63
525.383	42.82
525.73	42.87
526.078	42.67
526.425	42.71
526.772	42.47
527.119	42.57
527.466	42.27
527.814	42.37
528.161	42.43
528.508	42.68
528.854	42.48
529.201	42.44
529.548	42.44
529.895	42.17
530.242	41.9
530.588	42.21
530.935	42.45
531.282	42.62
531.628	42.5
531.975	42.46
532.321	42.68
532.667	42.85
533.014	43.2
533.36	43.19
533.706	43.32
534.052	43.42
534.399	43.31
534.745	43.24
535.091	43.01
535.437	43.01
535.783	43.24
536.129	43.42
536.474	43.67
536.82	43.81
537.166	43.86
537.512	44.22
537.857	43.92
538.203	44.09
538.549	44.07
538.894	44.08
539.239	44.24
539.585	44.35
539.93	44.37
540.276	44.58
540.621	44.89
540.966	44.83
541.311	44.95
541.656	44.68
542.001	44.96
542.346	44.67
542.691	44.47
543.036	44.07
543.381	44.17
543.726	44.39
544.071	44.4
544.415	44.48
544.76	44.87
545.105	44.96
545.449	44.92
545.794	45.32
546.138	45.35
546.483	45.43
546.827	45.64
547.171	45.64
547.516	45.66
547.86	45.81
548.204	45.66
548.548	45.41
548.892	45.81
549.236	45.59
549.58	46.12
549.924	46.13
550.268	46.18
550.612	46.5
550.956	46.53
551.3	46.49
551.643	46.91
551.987	46.93
552.33	47.2
552.674	46.76
553.017	47.18
553.361	46.97
553.704	47.1
554.048	47.26
554.391	47.13
554.734	47.1
555.077	47.12
555.42	47.29
555.764	47.39
556.107	47.39
556.45	47.67
556.793	47.49
557.135	47.88
557.478	47.91
557.821	47.73
558.164	48.03
558.507	48.12
558.849	48.17
559.192	48.17
559.534	48
559.877	48.03
560.219	48.29
560.562	48.32
560.904	48.42
561.246	48.33
561.589	48.12
561.931	48.83
562.273	48.44
562.615	48.51
562.957	48.58
563.299	48.53
563.641	48.7
563.983	48.98
564.325	49.13
564.667	48.9
565.008	49
565.35	49.22
565.692	48.95
566.033	48.98
566.375	49.14
566.716	49.24
567.058	49.06
567.399	49.29
567.741	49.31
568.082	49.42
568.423	48.99
568.764	49.31
569.105	49.26
569.447	49.26
569.788	49.45
570.129	49.52
570.47	49.19
570.811	49.54
571.151	49.76
571.492	49.76
571.833	49.6
572.174	49.84
572.514	49.66
572.855	50.19
573.195	49.78
573.536	49.8
573.876	50
574.217	49.76
574.557	49.98
574.898	50.05
575.238	50.24
575.578	50.16
575.918	50.29
576.258	50.37
576.598	50.26
576.938	50.56
577.278	50.42
577.618	50.44
577.958	50.22
578.298	50.51
578.638	50.69
578.977	50.64
579.317	50.55
579.657	50.88
579.996	51.01
580.336	51.33
580.675	50.96
581.014	51.39
581.354	51.68
581.693	51.6
582.032	51.61
582.372	51.65
582.711	51.47
583.05	51.67
583.389	51.67
583.728	51.71
584.067	51.65
584.406	52.09
584.745	51.99
585.083	51.97
585.422	52.11
585.761	52.11
586.1	51.93
586.438	51.87
586.777	52.51
587.115	52.27
587.454	52.23
587.792	52.61
588.13	52.37
588.469	52.48
588.807	52.34
589.145	52.83
589.483	52.84
589.821	52.61
590.159	52.72
590.497	52.34
590.835	52.83
591.173	52.62
591.511	52.85
591.849	52.61
592.187	52.64
592.524	52.75
592.862	53.15
593.2	52.48
593.537	52.98
593.875	53.1
594.212	53.01
594.55	53.02
594.887	53.06
595.224	53.51
595.561	53.14
595.899	53.01
596.236	53.91
596.573	53.19
596.91	53.4
597.247	53.4
597.584	53.13
597.921	53.23
598.258	53.45
598.594	53.32
598.931	53.4
599.268	53.4
599.604	53.62
599.941	53.67
600.277	53.31
600.614	53.36
600.95	53.74
601.287	54.05
601.623	54.03
601.959	54.02
602.296	54.14
602.632	54.46
602.968	54.28
603.304	54.75
603.64	54.09
603.976	54.3
604.312	54.05
604.648	54.28
604.984	54.51
605.319	54.18
605.655	54.21
605.991	53.9
606.326	54.42
606.662	54.32
606.998	54.25
607.333	54.53
607.668	54.51
608.004	54.41
608.339	54.83
608.674	54.71
609.01	54.88
609.345	54.77
609.68	55.06
610.015	55.46
610.35	55.09
610.685	54.88
611.02	54.91
611.355	54.95
611.689	55
612.024	55.04
612.359	55.28
612.694	55.04
613.028	55.06
613.363	55.51
613.697	55.74
614.032	55.15
614.366	55.42
614.7	55.53
615.035	55.8
615.369	55.68
615.703	56.03
616.037	55.96
616.371	56.38
616.705	56.18
617.039	55.86
617.373	56.42
617.707	56.3
618.041	56.61
618.375	56.62
618.709	56.47
619.042	56.31
619.376	56.64
619.71	55.94
620.043	56.83
620.377	56.55
620.71	56.71
621.043	56.83
621.377	56.36
621.71	56.77
622.043	56.42
622.376	57.06
622.709	56.92
623.043	57.01
623.376	56.61
623.709	57.27
624.041	56.73
624.374	56.95
624.707	56.98
625.04	57.15
625.373	57.44
625.705	57
626.038	57.58
626.37	57.56
626.703	57.79
627.035	57.05
627.368	57.57
627.7	56.87
628.032	57.03
628.365	57.66
628.697	57.59
629.029	57.06
629.361	57.71
629.693	57.53
630.025	57.56
630.357	57.71
630.689	57.62
631.021	57.46
631.353	57.46
631.684	57.88
632.016	58.31
632.348	58.02
632.679	57.98
633.011	58.11
633.342	58.08
633.674	58.52
634.005	58.27
634.336	58.87
634.668	58.57
634.999	58.16
635.33	58.3
635.661	58.43
635.992	58.77
636.323	58.38
636.654	58.9
636.985	59
637.316	58.85
637.647	58.8
637.977	58.49
638.308	58.8
638.639	58.69
638.969	58.64
639.3	58.63
639.63	59.09
639.961	58.54
640.291	59.17
640.622	58.65
640.952	59.23
641.282	59.25
641.612	59.41
641.943	59.3
642.273	59.67
642.603	59.46
642.933	59.99
643.263	59.3
643.592	59.79
643.922	59.43
644.252	59.6
644.582	59.91
644.911	59.97
645.241	59.41
645.571	59.78
645.9	59.94
646.23	59.74
646.559	60.22
646.888	59.53
647.218	60.38
647.547	59.38
647.876	59.85
648.205	60.35
648.534	60.2
648.863	60.17
649.192	59.97
649.521	60.63
649.85	60.19
650.179	60.38
650.508	60.33
650.837	60.57
651.165	59.84
651.494	59.91
651.822	60.71
652.151	60.82
652.479	60.31
652.808	60.54
653.136	60.28
653.465	60.38
653.793	60.54
654.121	60.59
654.449	60.52
654.777	60.95
655.105	60.43
655.433	60.46
655.761	60.59
656.089	60.71
656.417	60.57
656.745	60.74
657.073	61.78
657.4	61.2
657.728	60.88
658.056	61.3
658.383	61.27
658.711	60.34
659.038	61.37
659.365	60.95
659.693	61.9
660.02	61.11
660.347	60.9
660.674	60.96
661.001	60.52
661.329	61.48
661.656	61.45
661.982	61.21
662.309	61.47
662.636	61.18
662.963	61.33
663.29	60.92
663.616	60.47
663.943	60.78
664.27	61.65
664.596	61.75
664.923	61.67
665.249	61.9
665.576	61.67
665.902	61.24
666.228	61.9
666.554	61.6
666.881	61.2
667.207	62.14
667.533	62.23
667.859	62.85
668.185	61.82
668.511	62.5
668.837	62.22
669.162	61.6
669.488	61.57
669.814	61.96
