Data from 0361_crown_Reflection__0__06.txt Node

Date: Mon Dec 11 17:38:24 CST 2023
User: ToomeyLab
Spectrometer: FLMS14357
Trigger mode: 0
Integration Time (sec): 1.000000E-2
Scans to average: 100
Electric dark correction enabled: true
Nonlinearity correction enabled: false
Boxcar width: 0
XAxis mode: Wavelengths
Number of Pixels in Spectrum: 2048
>>>>>Begin Spectral Data<<<<<
189.047	-92.48
189.435	-92.48
189.823	-92.48
190.211	10.08
190.599	1201.81
190.987	151.59
191.375	-23.22
191.763	293.52
192.151	102.28
192.538	71.9
192.926	-20.76
193.314	1.64
193.702	-152.08
194.089	0.56
194.477	72.88
194.864	17.49
195.252	95.73
195.639	2830.65
196.027	432.38
196.414	-11816.67
196.801	51.33
197.189	510.8
197.576	66.73
197.963	49.17
198.351	-33.54
198.738	45.8
199.125	-50.2
199.512	20.53
199.899	-39.46
200.286	40.95
200.673	-32.91
201.06	25.8
201.447	28.27
201.833	33.83
202.22	25.1
202.607	-24.13
202.994	-6.04
203.38	-9.94
203.767	31.37
204.154	46.94
204.54	-26.27
204.927	-4.68
205.313	9.51
205.699	-17.15
206.086	7.85
206.472	56.57
206.858	18.27
207.245	25.69
207.631	-3.54
208.017	-10.11
208.403	14.3
208.789	-21.46
209.175	7.61
209.561	-4.03
209.947	27.41
210.333	14.65
210.719	28.5
211.105	13.78
211.491	14.12
211.876	10.15
212.262	-18.96
212.648	7.88
213.034	13.02
213.419	-4.84
213.805	-23.2
214.19	24.12
214.576	13.51
214.961	6.34
215.346	14.46
215.732	15.62
216.117	19.71
216.502	9.93
216.888	11.46
217.273	25
217.658	9.62
218.043	-6.61
218.428	2.47
218.813	17.22
219.198	7.05
219.583	16.24
219.968	6.21
220.353	-18.97
220.738	25.73
221.122	10.45
221.507	20.16
221.892	4.48
222.276	5.87
222.661	-10.28
223.046	-4.8
223.43	14.99
223.815	-0.14
224.199	-0.49
224.583	10.53
224.968	9.63
225.352	11.37
225.736	6.44
226.121	8.99
226.505	-2.84
226.889	12.53
227.273	6.19
227.657	11.53
228.041	6.41
228.425	1.45
228.809	2.63
229.193	10.92
229.577	10.03
229.961	7.5
230.344	6.6
230.728	5.86
231.112	7.06
231.495	7.84
231.879	7.84
232.263	6.17
232.646	6.83
233.03	6.21
233.413	6.02
233.797	8.64
234.18	5.99
234.563	6.61
234.946	8.39
235.33	8.72
235.713	6.19
236.096	7.58
236.479	7.18
236.862	5.57
237.245	7.67
237.628	7.19
238.011	5.1
238.394	6.51
238.777	6
239.16	8.1
239.543	8.74
239.925	5.69
240.308	5.9
240.691	5.87
241.073	7.22
241.456	7.87
241.838	8.27
242.221	7.46
242.603	5.21
242.986	5.76
243.368	6.26
243.75	6.51
244.133	6.08
244.515	5.53
244.897	6.17
245.279	5.73
245.661	5.96
246.043	5.34
246.425	5.88
246.807	5.41
247.189	6.65
247.571	5.38
247.953	6.37
248.335	6.31
248.717	6.08
249.098	5.8
249.48	5.91
249.862	5.94
250.243	6.07
250.625	5.76
251.006	5.45
251.388	5.9
251.769	5.81
252.151	6.22
252.532	6.12
252.913	7.25
253.295	6.34
253.676	5.81
254.057	5.28
254.438	5.54
254.819	5.65
255.2	4.78
255.581	5.97
255.962	5.06
256.343	5.84
256.724	6.2
257.105	4.49
257.486	4.94
257.867	7.02
258.247	4.14
258.628	6.25
259.009	5.19
259.389	6.58
259.77	6.02
260.15	5.48
260.531	5.71
260.911	4.6
261.292	4.78
261.672	5.28
262.052	5.12
262.432	4.92
262.813	5.07
263.193	4.99
263.573	4.78
263.953	5.23
264.333	5.03
264.713	5.63
265.093	4.92
265.473	4.69
265.853	5.15
266.233	4.53
266.612	6.1
266.992	6.07
267.372	6.32
267.752	5.31
268.131	5
268.511	4.76
268.89	5.31
269.27	5.22
269.649	5.13
270.029	5.39
270.408	4.81
270.787	4.47
271.167	4.23
271.546	4.76
271.925	4.41
272.304	4.51
272.683	5.08
273.062	4.78
273.441	4.75
273.82	4.82
274.199	4.54
274.578	4.79
274.957	5
275.336	4.81
275.715	4.32
276.093	5.53
276.472	4.32
276.851	4.77
277.229	5.01
277.608	5.29
277.986	4.83
278.365	4.63
278.743	4.67
279.122	4.46
279.5	4.64
279.878	5.2
280.257	4.1
280.635	4.14
281.013	4.48
281.391	4.82
281.769	4.12
282.147	4.22
282.525	4.34
282.903	5.04
283.281	4.05
283.659	4.3
284.037	4.39
284.415	3.94
284.792	4.53
285.17	4.75
285.548	4.24
285.925	4.01
286.303	4.17
286.68	4.2
287.058	4.11
287.435	4.37
287.813	4.59
288.19	4.12
288.567	3.88
288.945	3.96
289.322	4.09
289.699	3.75
290.076	3.7
290.453	4.44
290.83	4.23
291.207	3.98
291.584	4.47
291.961	4.19
292.338	3.94
292.715	4.55
293.092	4.55
293.469	4.28
293.845	3.59
294.222	4.62
294.599	4.33
294.975	3.64
295.352	4.26
295.728	4.41
296.105	3.87
296.481	3.8
296.858	3.94
297.234	4.65
297.61	4.3
297.986	4.33
298.363	3.98
298.739	4.14
299.115	4.1
299.491	4.1
299.867	4.12
300.243	4.03
300.619	4.16
300.995	4.14
301.371	3.79
301.746	3.83
302.122	3.9
302.498	3.77
302.874	4.09
303.249	4.17
303.625	4.07
304	4.23
304.376	3.94
304.751	4.05
305.127	4.36
305.502	3.83
305.878	3.6
306.253	4.33
306.628	4.27
307.003	3.97
307.378	4.06
307.754	3.99
308.129	4.01
308.504	3.66
308.879	3.55
309.254	4.58
309.629	4.45
310.003	4.2
310.378	3.52
310.753	4.44
311.128	4.32
311.502	3.89
311.877	3.74
312.252	4.38
312.626	3.86
313.001	4.21
313.375	3.43
313.75	3.57
314.124	3.91
314.498	3.87
314.873	3.85
315.247	4.16
315.621	4.16
315.995	4.33
316.369	3.86
316.743	4.22
317.117	3.98
317.491	3.75
317.865	3.79
318.239	4.57
318.613	4.09
318.987	4.22
319.361	4.59
319.734	3.76
320.108	4.19
320.482	4.03
320.855	3.66
321.229	3.99
321.602	4.27
321.976	4.57
322.349	4.48
322.723	3.73
323.096	4.45
323.469	4.05
323.843	4
324.216	4.44
324.589	4.14
324.962	3.97
325.335	3.89
325.708	3.44
326.081	4.48
326.454	3.83
326.827	3.92
327.2	3.72
327.573	3.52
327.945	4.31
328.318	4.41
328.691	3.43
329.063	4.07
329.436	3.83
329.809	3.97
330.181	4.17
330.553	4.14
330.926	3.76
331.298	3.83
331.671	4.03
332.043	4.35
332.415	3.77
332.787	3.92
333.159	4.28
333.532	4.64
333.904	3.96
334.276	4.63
334.648	4.4
335.02	4.09
335.391	4.04
335.763	3.7
336.135	4.04
336.507	3.98
336.879	4.25
337.25	4.22
337.622	3.79
337.993	3.89
338.365	3.81
338.736	4.19
339.108	4.38
339.479	4.08
339.851	4.69
340.222	4.1
340.593	3.56
340.964	4.34
341.336	4.16
341.707	3.58
342.078	4.34
342.449	3.53
342.82	3.64
343.191	4.09
343.562	4.24
343.933	4.25
344.303	3.98
344.674	4.44
345.045	4.5
345.416	3.95
345.786	4.51
346.157	4.22
346.527	4.43
346.898	4
347.268	4.05
347.639	4.39
348.009	4.25
348.38	3.64
348.75	3.88
349.12	4.37
349.49	4.33
349.861	4.15
350.231	4.29
350.601	4.5
350.971	4.39
351.341	3.45
351.711	4.3
352.081	4.23
352.45	4.29
352.82	4.04
353.19	4.47
353.56	4.4
353.929	4.23
354.299	4.48
354.669	4.1
355.038	4.45
355.408	3.98
355.777	4.07
356.147	4.4
356.516	4.49
356.885	4.39
357.254	4.55
357.624	4.16
357.993	4.11
358.362	4.21
358.731	4.02
359.1	4.4
359.469	3.99
359.838	4
360.207	4.14
360.576	4.23
360.945	4.51
361.314	4.71
361.682	4.23
362.051	4.17
362.42	4.3
362.788	4.03
363.157	4.11
363.525	3.97
363.894	4.47
364.262	4.47
364.631	4.44
364.999	4.33
365.367	4.6
365.735	4.25
366.104	4.27
366.472	4.63
366.84	4.09
367.208	4.16
367.576	4.48
367.944	4.74
368.312	4.4
368.68	4.41
369.048	4.46
369.416	4.1
369.783	4.42
370.151	4.46
370.519	4.62
370.886	4.37
371.254	4.74
371.621	4.9
371.989	4.43
372.356	4.7
372.724	4.81
373.091	4.92
373.458	4.51
373.826	4.72
374.193	4.65
374.56	4.32
374.927	4.73
375.294	4.83
375.661	4.55
376.028	4.7
376.395	4.57
376.762	4.3
377.129	4.67
377.496	4.51
377.863	4.62
378.229	4.62
378.596	4.64
378.963	4.68
379.329	4.5
379.696	4.75
380.062	4.85
380.429	4.33
380.795	4.84
381.161	4.75
381.528	4.83
381.894	4.62
382.26	4.77
382.626	4.61
382.993	4.63
383.359	4.24
383.725	4.43
384.091	4.65
384.457	4.5
384.823	5.08
385.188	4.69
385.554	4.63
385.92	4.51
386.286	4.95
386.651	4.66
387.017	4.82
387.383	4.62
387.748	4.64
388.114	4.55
388.479	4.58
388.845	4.67
389.21	4.88
389.575	4.81
389.94	4.73
390.306	4.95
390.671	4.84
391.036	4.79
391.401	4.78
391.766	4.43
392.131	4.6
392.496	4.8
392.861	4.77
393.226	4.85
393.591	4.91
393.956	4.77
394.32	4.93
394.685	4.8
395.05	4.96
395.414	4.93
395.779	4.73
396.143	4.57
396.508	4.6
396.872	4.8
397.236	4.81
397.601	4.54
397.965	4.91
398.329	4.86
398.694	5.08
399.058	4.5
399.422	4.98
399.786	4.94
400.15	4.73
400.514	5.06
400.878	4.89
401.242	4.85
401.605	4.85
401.969	4.64
402.333	4.57
402.697	4.9
403.06	4.76
403.424	5.01
403.787	5.09
404.151	4.72
404.514	4.66
404.878	4.87
405.241	4.96
405.604	4.88
405.968	4.77
406.331	4.58
406.694	4.72
407.057	4.81
407.42	5.1
407.783	4.83
408.146	4.76
408.509	4.87
408.872	4.87
409.235	4.61
409.598	4.92
409.961	5.03
410.323	4.78
410.686	4.95
411.049	5.03
411.411	5.06
411.774	4.89
412.136	4.91
412.499	5.02
412.861	4.76
413.223	4.93
413.586	5.12
413.948	4.99
414.31	4.96
414.672	4.69
415.035	4.84
415.397	4.96
415.759	5
416.121	5.12
416.483	4.9
416.845	4.95
417.206	4.94
417.568	5.01
417.93	5.01
418.292	4.79
418.653	4.69
419.015	4.77
419.377	4.97
419.738	5.04
420.1	4.88
420.461	4.89
420.822	4.83
421.184	4.92
421.545	4.9
421.906	4.85
422.267	4.89
422.629	4.71
422.99	4.76
423.351	4.67
423.712	4.83
424.073	4.85
424.434	4.91
424.795	4.94
425.155	4.88
425.516	4.84
425.877	4.71
426.238	4.81
426.598	4.87
426.959	4.81
427.32	4.93
427.68	4.93
428.041	4.81
428.401	4.87
428.761	4.89
429.122	4.94
429.482	4.83
429.842	5.01
430.202	5.04
430.563	4.9
430.923	4.97
431.283	4.93
431.643	5.11
432.003	4.95
432.363	4.89
432.722	5
433.082	5.14
433.442	5.06
433.802	5.02
434.161	5.07
434.521	4.85
434.881	4.95
435.24	4.94
435.6	4.86
435.959	4.98
436.319	4.88
436.678	4.94
437.037	4.9
437.396	5.05
437.756	5.02
438.115	5.12
438.474	5.09
438.833	5.02
439.192	4.91
439.551	5.05
439.91	5.03
440.269	5
440.628	4.76
440.987	4.96
441.345	4.99
441.704	5.05
442.063	5
442.421	4.86
442.78	4.85
443.138	4.96
443.497	4.87
443.855	4.88
444.214	5.1
444.572	4.9
444.93	5
445.288	5.05
445.647	5.11
446.005	4.83
446.363	4.95
446.721	4.98
447.079	4.84
447.437	4.89
447.795	4.84
448.153	4.97
448.51	4.99
448.868	4.84
449.226	4.79
449.584	5.03
449.941	5.03
450.299	4.96
450.656	5.01
451.014	5.04
451.371	4.92
451.729	5.23
452.086	5.15
452.443	5.2
452.801	5.14
453.158	5.06
453.515	4.83
453.872	4.94
454.229	5.03
454.586	5.1
454.943	4.91
455.3	5.12
455.657	5.12
456.014	5.02
456.371	5.24
456.727	5.08
457.084	4.96
457.441	5.03
457.797	5.12
458.154	5.21
458.51	5.15
458.867	4.74
459.223	5.05
459.58	4.86
459.936	5
460.292	4.97
460.648	4.9
461.005	4.92
461.361	4.91
461.717	4.79
462.073	4.9
462.429	4.93
462.785	4.95
463.141	4.95
463.496	5.15
463.852	4.95
464.208	4.91
464.564	4.96
464.919	4.99
465.275	4.92
465.631	4.82
465.986	5.2
466.342	4.98
466.697	5.1
467.052	4.98
467.408	5.25
467.763	4.94
468.118	4.96
468.473	4.95
468.829	5.01
469.184	5.17
469.539	5.01
469.894	5.02
470.249	5.01
470.603	5.03
470.958	5.24
471.313	5.1
471.668	5.2
472.023	5.12
472.377	5.04
472.732	4.87
473.086	5.04
473.441	5.05
473.795	5.09
474.15	4.94
474.504	4.95
474.859	4.86
475.213	5.03
475.567	4.95
475.921	4.89
476.275	4.99
476.63	4.89
476.984	4.85
477.338	4.79
477.692	5.11
478.045	4.9
478.399	4.92
478.753	4.78
479.107	4.95
479.461	5.05
479.814	4.88
480.168	4.97
480.521	5
480.875	5
481.228	5
481.582	5.09
481.935	4.85
482.289	4.87
482.642	4.93
482.995	4.97
483.348	4.89
483.701	4.74
484.055	4.83
484.408	4.73
484.761	4.83
485.114	4.73
485.466	4.63
485.819	4.54
486.172	4.6
486.525	4.64
486.878	4.72
487.23	4.73
487.583	4.74
487.936	4.78
488.288	4.83
488.641	4.68
488.993	4.62
489.345	4.72
489.698	4.61
490.05	4.65
490.402	4.64
490.754	4.69
491.107	4.75
491.459	4.77
491.811	4.83
492.163	4.8
492.515	4.8
492.866	4.76
493.218	4.7
493.57	4.61
493.922	4.64
494.274	4.7
494.625	4.82
494.977	4.84
495.328	4.93
495.68	5.01
496.031	4.9
496.383	4.88
496.734	4.86
497.086	4.91
497.437	4.88
497.788	4.87
498.139	4.81
498.49	4.84
498.842	4.8
499.193	4.86
499.544	4.77
499.894	4.82
500.245	4.86
500.596	5
500.947	4.88
501.298	4.93
501.648	4.81
501.999	4.86
502.35	4.84
502.7	4.93
503.051	4.79
503.401	4.89
503.752	4.87
504.102	4.84
504.452	4.79
504.803	4.92
505.153	4.99
505.503	5.03
505.853	4.91
506.203	4.82
506.553	4.85
506.903	4.82
507.253	4.77
507.603	4.76
507.953	5
508.303	4.79
508.652	4.95
509.002	4.85
509.352	5.03
509.701	4.87
510.051	4.85
510.4	4.82
510.75	4.82
511.099	4.72
511.449	4.88
511.798	4.72
512.147	4.88
512.496	4.77
512.846	4.88
513.195	4.78
513.544	4.81
513.893	4.73
514.242	4.83
514.591	4.74
514.939	4.69
515.288	4.84
515.637	4.73
515.986	4.75
516.334	4.94
516.683	4.93
517.032	4.79
517.38	4.86
517.729	4.77
518.077	4.78
518.426	4.92
518.774	4.79
519.122	4.6
519.47	4.81
519.819	4.72
520.167	4.58
520.515	4.62
520.863	4.59
521.211	4.67
521.559	4.72
521.907	4.65
522.255	4.67
522.602	4.61
522.95	4.81
523.298	4.72
523.645	4.94
523.993	4.77
524.341	4.78
524.688	4.68
525.036	4.83
525.383	4.68
525.73	4.79
526.078	4.87
526.425	4.63
526.772	4.63
527.119	4.67
527.466	4.62
527.814	4.61
528.161	4.56
528.508	4.71
528.854	4.57
529.201	4.67
529.548	4.53
529.895	4.47
530.242	4.45
530.588	4.36
530.935	4.43
531.282	4.49
531.628	4.47
531.975	4.46
532.321	4.54
532.667	4.55
533.014	4.58
533.36	4.6
533.706	4.66
534.052	4.56
534.399	4.53
534.745	4.61
535.091	4.43
535.437	4.42
535.783	4.5
536.129	4.59
536.474	4.59
536.82	4.64
537.166	4.58
537.512	4.53
537.857	4.53
538.203	4.52
538.549	4.58
538.894	4.59
539.239	4.62
539.585	4.63
539.93	4.67
540.276	4.63
540.621	4.69
540.966	4.77
541.311	4.56
541.656	4.55
542.001	4.58
542.346	4.59
542.691	4.41
543.036	4.42
543.381	4.31
543.726	4.38
544.071	4.48
544.415	4.43
544.76	4.49
545.105	4.43
545.449	4.44
545.794	4.53
546.138	4.52
546.483	4.52
546.827	4.53
547.171	4.41
547.516	4.5
547.86	4.64
548.204	4.49
548.548	4.35
548.892	4.47
549.236	4.47
549.58	4.65
549.924	4.68
550.268	4.61
550.612	4.52
550.956	4.45
551.3	4.65
551.643	4.66
551.987	4.74
552.33	4.61
552.674	4.58
553.017	4.54
553.361	4.4
553.704	4.41
554.048	4.6
554.391	4.55
554.734	4.43
555.077	4.55
555.42	4.6
555.764	4.48
556.107	4.58
556.45	4.56
556.793	4.53
557.135	4.44
557.478	4.58
557.821	4.45
558.164	4.54
558.507	4.43
558.849	4.45
559.192	4.48
559.534	4.34
559.877	4.55
560.219	4.53
560.562	4.57
560.904	4.52
561.246	4.43
561.589	4.42
561.931	4.51
562.273	4.39
562.615	4.46
562.957	4.44
563.299	4.53
563.641	4.33
563.983	4.73
564.325	4.48
564.667	4.5
565.008	4.53
565.35	4.6
565.692	4.41
566.033	4.45
566.375	4.55
566.716	4.46
567.058	4.53
567.399	4.42
567.741	4.33
568.082	4.37
568.423	4.37
568.764	4.4
569.105	4.5
569.447	4.46
569.788	4.32
570.129	4.38
570.47	4.39
570.811	4.19
571.151	4.44
571.492	4.57
571.833	4.31
572.174	4.57
572.514	4.33
572.855	4.24
573.195	4.39
573.536	4.37
573.876	4.31
574.217	4.34
574.557	4.29
574.898	4.5
575.238	4.59
575.578	4.4
575.918	4.42
576.258	4.41
576.598	4.35
576.938	4.58
577.278	4.33
577.618	4.42
577.958	4.25
578.298	4.49
578.638	4.55
578.977	4.3
579.317	4.38
579.657	4.25
579.996	4.33
580.336	4.3
580.675	4.49
581.014	4.43
581.354	4.23
581.693	4.6
582.032	4.24
582.372	4.48
582.711	4.32
583.05	4.4
583.389	4.39
583.728	4.43
584.067	4.17
584.406	4.15
584.745	4.35
585.083	4.5
585.422	4.39
585.761	4.35
586.1	4.21
586.438	4.26
586.777	4.42
587.115	4.1
587.454	4.39
587.792	4.34
588.13	4.47
588.469	4.45
588.807	4.41
589.145	4.52
589.483	4.57
589.821	4.22
590.159	4.37
590.497	4.35
590.835	4.26
591.173	4.23
591.511	4.38
591.849	4.37
592.187	4.23
592.524	4.32
592.862	4.36
593.2	4.03
593.537	4.19
593.875	4.33
594.212	4.27
594.55	4.21
594.887	4.37
595.224	4.21
595.561	4.14
595.899	4.19
596.236	4.03
596.573	4.12
596.91	3.99
597.247	4.08
597.584	4.14
597.921	4.18
598.258	4.09
598.594	4.21
598.931	4.22
599.268	4.32
599.604	4.37
599.941	4.29
600.277	4.08
600.614	4.44
600.95	4.14
601.287	4.23
601.623	4.3
601.959	4.15
602.296	4.19
602.632	4.17
602.968	4.21
603.304	4.12
603.64	4.44
603.976	4.39
604.312	4.16
604.648	4.17
604.984	4.33
605.319	4.09
605.655	4.05
605.991	4.2
606.326	4.08
606.662	4.02
606.998	4.21
607.333	4.15
607.668	4.25
608.004	4.1
608.339	4.12
608.674	4.32
609.01	4.19
609.345	4
609.68	4.33
610.015	3.93
610.35	4.47
610.685	4.21
611.02	3.96
611.355	4.17
611.689	4.12
612.024	4.02
612.359	4.05
612.694	4.04
613.028	4.11
613.363	3.97
613.697	4.26
614.032	4.11
614.366	4.09
614.7	4.05
615.035	4.33
615.369	4.17
615.703	4.12
616.037	4.28
616.371	4.44
616.705	4.36
617.039	4.35
617.373	4.28
617.707	4.13
618.041	4.36
618.375	4.2
618.709	3.87
619.042	4.23
619.376	4.73
619.71	4.18
620.043	3.87
620.377	3.95
620.71	4.17
621.043	4.07
621.377	3.64
621.71	3.96
622.043	3.63
622.376	4.33
622.709	4.17
623.043	4.22
623.376	4.27
623.709	4.27
624.041	4.22
624.374	4.18
624.707	4.16
625.04	4.38
625.373	4.18
625.705	3.84
626.038	3.87
626.37	4.3
626.703	4.4
627.035	4.04
627.368	4.11
627.7	3.79
628.032	4.05
628.365	4.32
628.697	4.1
629.029	4.1
629.361	3.96
629.693	4.06
630.025	3.87
630.357	3.9
630.689	3.65
631.021	3.94
631.353	3.86
631.684	4.09
632.016	4.36
632.348	4.25
632.679	4.38
633.011	4.14
633.342	4.03
633.674	4.45
634.005	4.17
634.336	4.02
634.668	4.18
634.999	4.26
635.33	4.05
635.661	4.1
635.992	4.14
636.323	4.09
636.654	4.28
636.985	4.09
637.316	4.05
637.647	4.24
637.977	4.23
638.308	4.34
638.639	4.15
638.969	4.18
639.3	3.76
639.63	3.72
639.961	4.04
640.291	4.37
640.622	3.95
640.952	4.54
641.282	4.3
641.612	4.32
641.943	4.09
642.273	3.99
642.603	4.23
642.933	4.13
643.263	4.17
643.592	4.1
643.922	3.97
644.252	3.46
644.582	4.09
644.911	4.51
645.241	3.81
645.571	4.19
645.9	3.81
646.23	4.17
646.559	4.17
646.888	3.48
647.218	4.17
647.547	3.78
647.876	4.1
648.205	4.12
648.534	4.46
648.863	4.22
649.192	4.15
649.521	4.23
649.85	4.05
650.179	4.13
650.508	3.97
650.837	3.41
651.165	4.36
651.494	4.1
651.822	4.27
652.151	4.47
652.479	3.94
652.808	4.39
653.136	3.89
653.465	4.48
653.793	3.62
654.121	4.17
654.449	4.26
654.777	4.15
655.105	3.7
655.433	4.04
655.761	4.09
656.089	4.09
656.417	4.12
656.745	4.07
657.073	3.87
657.4	4.42
657.728	4.23
658.056	4.28
658.383	4.54
658.711	4.26
659.038	4.08
659.365	4.11
659.693	4.37
660.02	3.94
660.347	4.03
660.674	4.3
661.001	3.55
661.329	4.35
661.656	4.35
661.982	3.93
662.309	4.23
662.636	3.96
662.963	4.49
663.29	3.83
663.616	3.26
663.943	4.04
664.27	4.19
664.596	4.46
664.923	4.27
665.249	3.9
665.576	3.83
665.902	3.97
666.228	4.62
666.554	4.41
666.881	3.72
667.207	4.57
667.533	4.23
667.859	4.23
668.185	4.4
668.511	4.09
668.837	4.48
669.162	4.53
669.488	4.15
669.814	4.09
670.139	4.62
670.465	4.62
670.791	4
671.116	4.46
671.442	4.22
671.767	4.5
672.092	4.08
672.418	4.43
672.743	3.4
673.068	4.03
673.393	4.15
673.718	3.81
674.043	4.64
674.368	4.05
674.693	4.35
675.018	4.82
675.343	3.83
675.667	4.09
675.992	4.01
676.317	3.61
676.641	4.85
676.966	4.17
677.29	3.37
677.615	4.62
677.939	4
678.264	4.57
678.588	4.61
678.912	4.07
679.236	3.74
679.56	4.48
679.885	4.01
680.209	4.48
680.532	4.68
680.856	4.6
681.18	4.09
681.504	3.8
681.828	3.95
682.152	3.76
682.475	4.49
682.799	4.37
683.122	4.14
683.446	3.6
683.769	4.29
684.093	4.68
684.416	4.12
684.739	4.61
685.062	4.46
685.386	3.9
685.709	4.42
686.032	3.67
686.355	4.46
686.678	3.93
687.001	4.4
687.324	2.9
687.646	4.22
687.969	4.25
688.292	4.69
688.614	4.69
688.937	4.77
689.26	4.28
689.582	3.93
689.904	4.32
690.227	4.36
690.549	4.77
690.871	4.4
691.194	4.17
691.516	4.15
691.838	3.88
692.16	4.31
692.482	4.82
692.804	3.98
693.126	4.17
693.448	4.26
