Data from 0361_chest_Reflection__3__03.txt Node

Date: Mon Dec 11 17:35:06 CST 2023
User: ToomeyLab
Spectrometer: FLMS14357
Trigger mode: 0
Integration Time (sec): 1.000000E-2
Scans to average: 100
Electric dark correction enabled: true
Nonlinearity correction enabled: false
Boxcar width: 0
XAxis mode: Wavelengths
Number of Pixels in Spectrum: 2048
>>>>>Begin Spectral Data<<<<<
189.047	97.03
189.435	97.03
189.823	97.03
190.211	50.37
190.599	847.89
190.987	162.46
191.375	6.69
191.763	136.75
192.151	115.16
192.538	232.57
192.926	15.31
193.314	56.04
193.702	39.55
194.089	40.36
194.477	46.68
194.864	341.25
195.252	112.85
195.639	-1549.19
196.027	10.49
196.414	-24675
196.801	110.31
197.189	-1084.6
197.576	137.13
197.963	48.16
198.351	7.48
198.738	43.17
199.125	-42.07
199.512	33.24
199.899	-6.56
200.286	-11.77
200.673	-26.65
201.06	45.67
201.447	22.44
201.833	36.78
202.22	43.11
202.607	24.53
202.994	-27.85
203.38	-17.94
203.767	53.42
204.154	32.83
204.54	-37.29
204.927	22.35
205.313	13.17
205.699	-36.31
206.086	-4.25
206.472	6.4
206.858	9.44
207.245	22.33
207.631	11.89
208.017	-3.99
208.403	43.34
208.789	-21.78
209.175	42.92
209.561	-9.44
209.947	-1.54
210.333	38.17
210.719	26.97
211.105	23.33
211.491	21.95
211.876	23.12
212.262	-13.17
212.648	21.21
213.034	-7.99
213.419	8.05
213.805	-18.58
214.19	15.36
214.576	11.9
214.961	15.62
215.346	-7.27
215.732	3.08
216.117	13.55
216.502	12.55
216.888	12.98
217.273	24.59
217.658	22.95
218.043	-13.34
218.428	13.66
218.813	15.72
219.198	7.23
219.583	2.28
219.968	5.31
220.353	-15.93
220.738	39.86
221.122	10.86
221.507	30.48
221.892	17.36
222.276	4.26
222.661	-5.94
223.046	2.34
223.43	13.24
223.815	-7.53
224.199	1.01
224.583	1.06
224.968	11.43
225.352	7.57
225.736	6.89
226.121	13.75
226.505	-0.93
226.889	1.3
227.273	3.53
227.657	10.51
228.041	3.68
228.425	2.22
228.809	2.7
229.193	3.15
229.577	6.07
229.961	1.56
230.344	2.91
230.728	2.8
231.112	3.3
231.495	3.35
231.879	3.21
232.263	1.35
232.646	1.7
233.03	0.96
233.413	2.47
233.797	4.15
234.18	3.38
234.563	1.81
234.946	3.38
235.33	3.83
235.713	1.79
236.096	2.27
236.479	5.01
236.862	0.63
237.245	2.08
237.628	2.53
238.011	2.98
238.394	2.3
238.777	2.96
239.16	3.64
239.543	4.68
239.925	0.15
240.308	3.42
240.691	1.96
241.073	2.66
241.456	3.94
241.838	4.31
242.221	4.13
242.603	2.63
242.986	2.65
243.368	2.75
243.75	2.41
244.133	2.09
244.515	2.36
244.897	2.33
245.279	2.19
245.661	2.01
246.043	3.14
246.425	3.28
246.807	2.95
247.189	3.67
247.571	2.63
247.953	2.96
248.335	2.96
248.717	2.07
249.098	2.38
249.48	2.35
249.862	2.75
250.243	2.89
250.625	2.47
251.006	2.34
251.388	2.47
251.769	3.09
252.151	3.72
252.532	3.05
252.913	1.59
253.295	2.73
253.676	2.67
254.057	2.07
254.438	2.22
254.819	2.06
255.2	2.2
255.581	2.38
255.962	2.93
256.343	2.52
256.724	2.27
257.105	3.17
257.486	2.44
257.867	4.61
258.247	2.05
258.628	3.12
259.009	3.44
259.389	3.02
259.77	1.47
260.15	1.98
260.531	2.95
260.911	1.71
261.292	1.93
261.672	2.33
262.052	2.27
262.432	2.4
262.813	2.22
263.193	1.71
263.573	2.54
263.953	2.15
264.333	2.01
264.713	3.08
265.093	1.96
265.473	3.29
265.853	2.49
266.233	2.8
266.612	2.82
266.992	2.77
267.372	2.77
267.752	2.34
268.131	2.03
268.511	1.96
268.89	2.43
269.27	3.01
269.649	2.44
270.029	2.69
270.408	2.46
270.787	2.15
271.167	1.4
271.546	2.51
271.925	1.69
272.304	2.18
272.683	2.1
273.062	1.91
273.441	2.33
273.82	1.74
274.199	2.29
274.578	2.4
274.957	2.29
275.336	2.2
275.715	2.3
276.093	2.92
276.472	2.98
276.851	2.57
277.229	2.01
277.608	2.33
277.986	2.37
278.365	2.13
278.743	2.41
279.122	1.87
279.5	2.38
279.878	2.61
280.257	1.51
280.635	2.48
281.013	1.7
281.391	2.61
281.769	1.93
282.147	1.48
282.525	2.14
282.903	2.78
283.281	2.22
283.659	1.98
284.037	1.92
284.415	2.33
284.792	2.63
285.17	2.88
285.548	2.25
285.925	2.21
286.303	2.79
286.68	2.07
287.058	2.37
287.435	2.34
287.813	2.56
288.19	2.16
288.567	2.08
288.945	2.06
289.322	1.83
289.699	1.99
290.076	2.31
290.453	2.57
290.83	2.37
291.207	2.24
291.584	2.35
291.961	2.04
292.338	1.95
292.715	2.75
293.092	2.03
293.469	2.22
293.845	2.22
294.222	2.13
294.599	1.56
294.975	2.25
295.352	1.43
295.728	1.99
296.105	2.64
296.481	2.03
296.858	2.21
297.234	2.63
297.61	2.23
297.986	2.21
298.363	2.5
298.739	2.71
299.115	2.03
299.491	2.16
299.867	2.48
300.243	2.12
300.619	2.39
300.995	1.92
301.371	2.05
301.746	2.08
302.122	1.78
302.498	2.24
302.874	2.71
303.249	2.23
303.625	2.72
304	2.12
304.376	2.06
304.751	2.27
305.127	2.79
305.502	2.67
305.878	2.43
306.253	2.99
306.628	2.45
307.003	2.69
307.378	2.57
307.754	2.38
308.129	2.5
308.504	2.22
308.879	2.01
309.254	2.44
309.629	2.83
310.003	2.72
310.378	2.33
310.753	2.61
311.128	2.24
311.502	1.93
311.877	2.48
312.252	2.52
312.626	2.55
313.001	2.44
313.375	2.17
313.75	2.31
314.124	2.34
314.498	2.23
314.873	2.26
315.247	2.38
315.621	3.16
315.995	2.58
316.369	2.6
316.743	2.63
317.117	2.31
317.491	2.88
317.865	2.51
318.239	2.94
318.613	2.47
318.987	2.62
319.361	2.45
319.734	2.13
320.108	2.83
320.482	2.6
320.855	2.08
321.229	2.44
321.602	2.32
321.976	3.06
322.349	2.48
322.723	2.34
323.096	2.89
323.469	2.58
323.843	2.78
324.216	3.05
324.589	3.03
324.962	2.59
325.335	2.53
325.708	2.67
326.081	3.16
326.454	2.98
326.827	2.6
327.2	2.3
327.573	2.49
327.945	2.93
328.318	2.32
328.691	2.6
329.063	2.62
329.436	2.5
329.809	2.98
330.181	3.33
330.553	2.66
330.926	2.81
331.298	2.91
331.671	2.45
332.043	2.54
332.415	2.59
332.787	2.77
333.159	2.87
333.532	2.7
333.904	2.19
334.276	3.04
334.648	3.58
335.02	2.76
335.391	2.53
335.763	2.49
336.135	2.69
336.507	2.84
336.879	3.51
337.25	2.6
337.622	2.75
337.993	2.71
338.365	2.31
338.736	2.47
339.108	3.07
339.479	2.63
339.851	2.38
340.222	2.77
340.593	2.85
340.964	3.11
341.336	3.1
341.707	2.12
342.078	2.51
342.449	2.94
342.82	2.26
343.191	2.38
343.562	2.56
343.933	2.29
344.303	2.15
344.674	2.61
345.045	3.03
345.416	2.24
345.786	3.25
346.157	2.87
346.527	2.58
346.898	2.92
347.268	2.84
347.639	2.83
348.009	2.69
348.38	2.23
348.75	2.63
349.12	2.81
349.49	2.14
349.861	2.51
350.231	2.64
350.601	2.67
350.971	3.12
351.341	2.48
351.711	2.64
352.081	2.61
352.45	2.87
352.82	2.46
353.19	2.34
353.56	2.75
353.929	2.42
354.299	2.66
354.669	2.67
355.038	2.5
355.408	2.38
355.777	2.67
356.147	2.92
356.516	2.69
356.885	2.5
357.254	2.64
357.624	2.48
357.993	2.72
358.362	2.82
358.731	2.45
359.1	2.86
359.469	2.58
359.838	2.86
360.207	2.42
360.576	2.73
360.945	3.34
361.314	2.84
361.682	2.73
362.051	2.4
362.42	2.49
362.788	2.46
363.157	2.52
363.525	2.43
363.894	2.61
364.262	2.5
364.631	2.71
364.999	2.53
365.367	2.73
365.735	2.72
366.104	2.46
366.472	2.7
366.84	2.42
367.208	2.62
367.576	2.81
367.944	2.61
368.312	2.39
368.68	2.55
369.048	2.39
369.416	2.22
369.783	2.62
370.151	2.96
370.519	3.17
370.886	2.55
371.254	3.36
371.621	3.07
371.989	2.63
372.356	2.74
372.724	2.86
373.091	2.86
373.458	2.63
373.826	2.75
374.193	2.8
374.56	2.88
374.927	3.16
375.294	2.72
375.661	2.6
376.028	3.08
376.395	3.06
376.762	2.79
377.129	3.36
377.496	2.82
377.863	2.77
378.229	2.69
378.596	3.08
378.963	2.96
379.329	2.67
379.696	2.94
380.062	2.69
380.429	2.71
380.795	3.15
381.161	2.8
381.528	2.9
381.894	2.71
382.26	2.68
382.626	2.68
382.993	2.74
383.359	2.85
383.725	2.68
384.091	2.73
384.457	2.68
384.823	2.93
385.188	3
385.554	2.78
385.92	2.65
386.286	2.88
386.651	2.86
387.017	2.8
387.383	2.7
387.748	2.76
388.114	2.9
388.479	2.79
388.845	2.78
389.21	2.82
389.575	2.82
389.94	2.8
390.306	2.97
390.671	2.58
391.036	2.68
391.401	2.89
391.766	2.75
392.131	2.78
392.496	3.04
392.861	3.03
393.226	2.97
393.591	2.87
393.956	2.83
394.32	2.87
394.685	2.9
395.05	2.93
395.414	2.92
395.779	2.78
396.143	2.55
396.508	2.58
396.872	2.94
397.236	2.88
397.601	2.77
397.965	3.04
398.329	3.01
398.694	2.97
399.058	2.81
399.422	2.63
399.786	2.71
400.15	2.64
400.514	2.95
400.878	2.9
401.242	2.72
401.605	3
401.969	2.96
402.333	2.71
402.697	2.77
403.06	2.7
403.424	2.99
403.787	3.36
404.151	2.83
404.514	2.9
404.878	2.85
405.241	2.75
405.604	2.95
405.968	3.04
406.331	2.72
406.694	2.77
407.057	2.75
407.42	3.01
407.783	3.01
408.146	2.83
408.509	2.78
408.872	2.79
409.235	2.87
409.598	2.87
409.961	3.06
410.323	3.07
410.686	2.9
411.049	2.84
411.411	2.72
411.774	2.88
412.136	2.85
412.499	3.05
412.861	2.76
413.223	3.04
413.586	3.15
413.948	2.98
414.31	2.81
414.672	2.49
415.035	2.77
415.397	2.77
415.759	3.05
416.121	2.77
416.483	3
416.845	3.04
417.206	3.04
417.568	3.08
417.93	3.1
418.292	2.95
418.653	2.85
419.015	2.89
419.377	2.87
419.738	2.77
420.1	2.93
420.461	2.89
420.822	2.81
421.184	2.79
421.545	2.84
421.906	2.8
422.267	2.86
422.629	2.77
422.99	2.81
423.351	2.78
423.712	2.8
424.073	2.77
424.434	2.81
424.795	2.94
425.155	2.93
425.516	2.8
425.877	2.67
426.238	2.81
426.598	2.77
426.959	2.87
427.32	2.82
427.68	2.93
428.041	2.81
428.401	2.79
428.761	3.02
429.122	2.87
429.482	3.03
429.842	2.9
430.202	2.96
430.563	2.98
430.923	3.05
431.283	2.97
431.643	3.11
432.003	3
432.363	3.15
432.722	2.91
433.082	3.03
433.442	3.03
433.802	2.91
434.161	3.04
434.521	2.79
434.881	2.99
435.24	2.96
435.6	2.92
435.959	2.89
436.319	2.9
436.678	2.92
437.037	2.9
437.396	3.05
437.756	2.98
438.115	3.06
438.474	3.12
438.833	3.01
439.192	2.96
439.551	3.1
439.91	3.01
440.269	2.98
440.628	2.82
440.987	3.1
441.345	2.96
441.704	3.02
442.063	3.04
442.421	2.95
442.78	2.92
443.138	2.89
443.497	2.89
443.855	3.03
444.214	3.15
444.572	2.96
444.93	3.05
445.288	3
445.647	3.2
446.005	2.94
446.363	3.08
446.721	3.05
447.079	2.96
447.437	3.02
447.795	2.95
448.153	3.04
448.51	2.96
448.868	2.88
449.226	2.9
449.584	3.04
449.941	3.09
450.299	3.04
450.656	3.03
451.014	3.06
451.371	3.01
451.729	3.12
452.086	3.03
452.443	3.23
452.801	3.12
453.158	3.09
453.515	2.93
453.872	3.12
454.229	3.17
454.586	3.01
454.943	3.18
455.3	3.09
455.657	3.24
456.014	3.09
456.371	3.07
456.727	3.14
457.084	3.17
457.441	3.14
457.797	3.07
458.154	3.2
458.51	3.11
458.867	2.84
459.223	3.07
459.58	2.97
459.936	3.22
460.292	3.16
460.648	3.03
461.005	3.08
461.361	2.98
461.717	2.99
462.073	3.12
462.429	3.14
462.785	3.11
463.141	3.09
463.496	3.26
463.852	3.1
464.208	3.1
464.564	3.29
464.919	3.21
465.275	3.16
465.631	3.11
465.986	3.17
466.342	3.07
466.697	3.15
467.052	3.15
467.408	3.47
467.763	3.36
468.118	3.19
468.473	3.19
468.829	3.25
469.184	3.42
469.539	3.16
469.894	3.15
470.249	3.15
470.603	3.2
470.958	3.28
471.313	3.29
471.668	3.33
472.023	3.46
472.377	3.19
472.732	3.22
473.086	3.35
473.441	3.33
473.795	3.28
474.15	3.27
474.504	3.25
474.859	3.31
475.213	3.23
475.567	3.33
475.921	3.22
476.275	3.23
476.63	3.24
476.984	3.28
477.338	3.04
477.692	3.26
478.045	3.37
478.399	3.15
478.753	3.16
479.107	3.07
479.461	3.27
479.814	3.18
480.168	3.42
480.521	3.42
480.875	3.22
481.228	3.16
481.582	3.37
481.935	3.25
482.289	3.32
482.642	3.31
482.995	3.28
483.348	3.21
483.701	3.08
484.055	3.29
484.408	3.23
484.761	3.24
485.114	3.13
485.466	3.03
485.819	3.02
486.172	3.05
486.525	3.09
486.878	3.15
487.23	3.18
487.583	3.2
487.936	3.21
488.288	3.32
488.641	3.16
488.993	3.09
489.345	3.17
489.698	3.11
490.05	3.16
490.402	3.13
490.754	3.25
491.107	3.24
491.459	3.29
491.811	3.29
492.163	3.34
492.515	3.31
492.866	3.33
493.218	3.15
493.57	3.17
493.922	3.21
494.274	3.24
494.625	3.29
494.977	3.4
495.328	3.34
495.68	3.45
496.031	3.38
496.383	3.39
496.734	3.42
497.086	3.56
497.437	3.49
497.788	3.48
498.139	3.39
498.49	3.4
498.842	3.49
499.193	3.35
499.544	3.37
499.894	3.31
500.245	3.5
500.596	3.56
500.947	3.42
501.298	3.51
501.648	3.5
501.999	3.46
502.35	3.45
502.7	3.47
503.051	3.45
503.401	3.42
503.752	3.42
504.102	3.4
504.452	3.45
504.803	3.62
505.153	3.67
505.503	3.7
505.853	3.63
506.203	3.46
506.553	3.52
506.903	3.47
507.253	3.65
507.603	3.55
507.953	3.76
508.303	3.56
508.652	3.68
509.002	3.57
509.352	3.68
509.701	3.62
510.051	3.66
510.4	3.48
510.75	3.6
511.099	3.52
511.449	3.59
511.798	3.61
512.147	3.77
512.496	3.56
512.846	3.64
513.195	3.8
513.544	3.64
513.893	3.54
514.242	3.7
514.591	3.52
514.939	3.58
515.288	3.71
515.637	3.68
515.986	3.65
516.334	3.69
516.683	3.8
517.032	3.83
517.38	3.72
517.729	3.76
518.077	3.74
518.426	3.77
518.774	3.76
519.122	3.75
519.47	3.76
519.819	3.59
520.167	3.72
520.515	3.67
520.863	3.6
521.211	3.83
521.559	3.73
521.907	3.69
522.255	3.66
522.602	3.83
522.95	3.9
523.298	3.86
523.645	3.99
523.993	3.85
524.341	3.79
524.688	3.88
525.036	3.85
525.383	3.86
525.73	4
526.078	3.89
526.425	3.81
526.772	3.92
527.119	3.81
527.466	3.8
527.814	3.8
528.161	3.86
528.508	3.89
528.854	3.91
529.201	3.78
529.548	3.87
529.895	3.82
530.242	3.77
530.588	3.67
530.935	3.78
531.282	3.8
531.628	3.79
531.975	3.83
532.321	3.89
532.667	3.99
533.014	3.91
533.36	3.89
533.706	4.05
534.052	3.97
534.399	4.04
534.745	4.01
535.091	3.91
535.437	3.85
535.783	3.99
536.129	4
536.474	4.07
536.82	4.07
537.166	4.03
537.512	4.07
537.857	4.15
538.203	4.02
538.549	4.06
538.894	4.13
539.239	4.24
539.585	4.13
539.93	4.11
540.276	4.2
540.621	4.17
540.966	4.26
541.311	4.21
541.656	4.34
542.001	4.37
542.346	4.34
542.691	4.26
543.036	4.14
543.381	4.03
543.726	4.11
544.071	4.18
544.415	4.19
544.76	4.21
545.105	4.22
545.449	4.23
545.794	4.35
546.138	4.38
546.483	4.33
546.827	4.39
547.171	4.33
547.516	4.39
547.86	4.56
548.204	4.5
548.548	4.38
548.892	4.41
549.236	4.36
549.58	4.55
549.924	4.59
550.268	4.5
550.612	4.6
550.956	4.58
551.3	4.47
551.643	4.62
551.987	4.71
552.33	4.7
552.674	4.83
553.017	4.65
553.361	4.65
553.704	4.77
554.048	4.8
554.391	4.68
554.734	4.71
555.077	4.75
555.42	4.83
555.764	4.89
556.107	4.89
556.45	4.71
556.793	4.71
557.135	4.95
557.478	4.78
557.821	4.96
558.164	5
558.507	4.85
558.849	5.04
559.192	4.65
559.534	5.03
559.877	5.05
560.219	4.96
560.562	5.17
560.904	5.02
561.246	5.01
561.589	4.93
561.931	5.03
562.273	4.9
562.615	5.11
562.957	5.08
563.299	5.3
563.641	5.05
563.983	5.33
564.325	5.34
564.667	5.31
565.008	5.19
565.35	5.42
565.692	5.22
566.033	5.32
566.375	5.4
566.716	5.47
567.058	5.31
567.399	5.32
567.741	5.35
568.082	5.39
568.423	5.22
568.764	5.3
569.105	5.39
569.447	5.48
569.788	5.38
570.129	5.41
570.47	5.43
570.811	5.27
571.151	5.49
571.492	5.58
571.833	5.54
572.174	5.66
572.514	5.65
572.855	5.55
573.195	5.55
573.536	5.68
573.876	5.72
574.217	5.68
574.557	5.62
574.898	5.69
575.238	5.81
575.578	5.79
575.918	5.84
576.258	5.86
576.598	5.85
576.938	5.82
577.278	5.87
577.618	5.75
577.958	5.9
578.298	5.97
578.638	6.01
578.977	5.86
579.317	5.8
579.657	5.9
579.996	5.95
580.336	6.19
580.675	6.1
581.014	6.18
581.354	6.08
581.693	6.41
582.032	5.86
582.372	6.3
582.711	6.1
583.05	6.39
583.389	6.24
583.728	6.4
584.067	6.08
584.406	6.25
584.745	6.26
585.083	6.43
585.422	6.34
585.761	6.19
586.1	6.06
586.438	6.29
586.777	6.42
587.115	6.27
587.454	6.59
587.792	6.5
588.13	6.61
588.469	6.43
588.807	6.62
589.145	6.92
589.483	6.68
589.821	6.55
590.159	6.59
590.497	6.74
590.835	6.59
591.173	6.74
591.511	6.91
591.849	6.71
592.187	6.49
592.524	6.81
592.862	6.93
593.2	6.68
593.537	6.79
593.875	6.93
594.212	6.94
594.55	6.92
594.887	6.96
595.224	7.21
595.561	7.12
595.899	6.98
596.236	7
596.573	7.15
596.91	7.1
597.247	7.27
597.584	7.1
597.921	6.96
598.258	7.09
598.594	7.25
598.931	7.16
599.268	7.01
599.604	7.36
599.941	7.29
600.277	7.3
600.614	7.45
600.95	7.34
601.287	7.74
601.623	7.81
601.959	7.48
602.296	7.47
602.632	7.37
602.968	7.52
603.304	7.87
603.64	7.52
603.976	7.75
604.312	7.42
604.648	7.82
604.984	7.7
605.319	7.72
605.655	7.6
605.991	7.47
606.326	7.78
606.662	7.61
606.998	7.65
607.333	7.82
607.668	7.83
608.004	7.66
608.339	8.14
608.674	8.16
609.01	7.94
609.345	7.94
609.68	8.11
610.015	8.37
610.35	8.31
610.685	8.09
611.02	7.88
611.355	8.34
611.689	8.12
612.024	8
612.359	8.03
612.694	8.22
613.028	8.29
613.363	8.25
613.697	8.62
614.032	8.41
614.366	8.63
614.7	8.4
615.035	8.44
615.369	8.6
615.703	8.66
616.037	8.58
616.371	8.55
616.705	9.23
617.039	9.04
617.373	8.84
617.707	8.69
618.041	9.15
618.375	9.02
618.709	8.59
619.042	8.81
619.376	9.25
619.71	8.68
620.043	8.77
620.377	9
620.71	9.04
621.043	9.16
621.377	8.97
621.71	9.16
622.043	8.69
622.376	9.1
622.709	9.49
623.043	9.39
623.376	9.21
623.709	9.3
624.041	9.22
624.374	9.32
624.707	9.41
625.04	9.83
625.373	9.92
625.705	9.69
626.038	9.72
626.37	9.54
626.703	9.56
627.035	9.59
627.368	9.85
627.7	9.42
628.032	9.83
628.365	9.57
628.697	9.5
629.029	9.73
629.361	9.52
629.693	9.71
630.025	9.7
630.357	9.5
630.689	9.73
631.021	9.85
631.353	9.92
631.684	10.13
632.016	10.01
632.348	10.11
632.679	10.07
633.011	10.05
633.342	10.16
633.674	10.44
634.005	10.16
634.336	10.31
634.668	10.52
634.999	10.79
635.33	10.17
635.661	10.54
635.992	10.72
636.323	10.33
636.654	10.87
636.985	10.67
637.316	10.45
637.647	10.76
637.977	10.58
638.308	11.02
638.639	10.38
638.969	10.7
639.3	10.65
639.63	10.63
639.961	10.79
640.291	11.34
640.622	10.65
640.952	11.04
641.282	10.5
641.612	11.58
641.943	10.98
642.273	11.04
642.603	11.07
642.933	10.91
643.263	11.62
643.592	11.05
643.922	11.11
644.252	11.09
644.582	11.48
644.911	11.63
645.241	11.24
645.571	11.76
645.9	11.28
646.23	11.48
646.559	11.3
646.888	11.64
647.218	11.79
647.547	11.42
647.876	11.75
648.205	11.74
648.534	11.58
648.863	11.79
649.192	11.64
649.521	11.69
649.85	11.4
650.179	12.28
650.508	12.22
650.837	11.78
651.165	12.42
651.494	12.1
651.822	12.29
652.151	12.29
652.479	11.88
652.808	12.22
653.136	11.89
653.465	12.42
653.793	12.25
654.121	12.35
654.449	12.2
654.777	12.4
655.105	12
655.433	12.93
655.761	12.39
656.089	12.1
656.417	12.76
656.745	12.88
657.073	13.32
657.4	12.76
657.728	13.01
658.056	12.96
658.383	12.24
658.711	12.57
659.038	13.04
659.365	13.16
659.693	13.59
660.02	12.84
660.347	12.72
660.674	12.64
661.001	12.5
661.329	12.88
661.656	13.16
661.982	13.33
662.309	12.86
662.636	12.97
662.963	13.13
663.29	13.08
663.616	13.02
663.943	13.24
664.27	13.28
664.596	13.58
664.923	12.89
665.249	13.46
665.576	13.27
665.902	13.42
666.228	13.58
666.554	13.62
666.881	13.63
667.207	13.92
667.533	13.63
667.859	13.89
668.185	13.87
668.511	13.97
668.837	14.38
669.162	13.97
669.488	13.81
669.814	13.79
670.139	14.1
670.465	14.11
670.791	14.27
671.116	14.2
671.442	13.87
671.767	14.14
672.092	14.41
672.418	13.93
672.743	14.3
673.068	13.63
673.393	13.95
673.718	13.99
674.043	15.05
674.368	14.68
674.693	14.72
675.018	14.89
675.343	14.01
675.667	14.48
675.992	14.66
676.317	14.63
676.641	15.21
676.966	14.89
677.29	14.39
677.615	15.01
677.939	14.8
678.264	15.15
678.588	15.19
678.912	14.55
679.236	14.36
679.56	15.36
679.885	15.14
680.209	15.48
680.532	15.78
680.856	15.25
681.18	14.53
681.504	15.37
681.828	14.85
682.152	14.75
682.475	15.15
682.799	14.89
683.122	14.87
683.446	14.79
683.769	15.74
684.093	15.63
684.416	15.43
684.739	15.54
685.062	16.2
685.386	16.3
685.709	15.39
686.032	15.75
686.355	15.31
686.678	16.07
687.001	15.7
687.324	15.34
687.646	16.28
687.969	15.37
688.292	16.85
688.614	16.7
