Data from 0361_crown_Reflection__1__07.txt Node

Date: Mon Dec 11 17:38:34 CST 2023
User: ToomeyLab
Spectrometer: FLMS14357
Trigger mode: 0
Integration Time (sec): 1.000000E-2
Scans to average: 100
Electric dark correction enabled: true
Nonlinearity correction enabled: false
Boxcar width: 0
XAxis mode: Wavelengths
Number of Pixels in Spectrum: 2048
>>>>>Begin Spectral Data<<<<<
189.047	314.18
189.435	314.18
189.823	314.18
190.211	113.4
190.599	1482.83
190.987	-21.98
191.375	87.93
191.763	263.45
192.151	-37.54
192.538	74.28
192.926	100.73
193.314	210.97
193.702	-134.74
194.089	-189.23
194.477	137.47
194.864	173.98
195.252	43.95
195.639	2292.74
196.027	272.15
196.414	-12708.33
196.801	38.93
197.189	-715.8
197.576	29.36
197.963	44.41
198.351	-4.02
198.738	23.38
199.125	-99.62
199.512	0.83
199.899	15.18
200.286	49.22
200.673	-48.68
201.06	-2.64
201.447	-10.82
201.833	25.09
202.22	22.53
202.607	22.96
202.994	2.28
203.38	4.61
203.767	62.03
204.154	38.31
204.54	13.8
204.927	-8.21
205.313	7.38
205.699	0.63
206.086	-13.18
206.472	39.05
206.858	15.72
207.245	-0.93
207.631	3.65
208.017	7.93
208.403	11.08
208.789	17.45
209.175	7.22
209.561	4.04
209.947	-12.26
210.333	56.95
210.719	36.09
211.105	16.61
211.491	35.16
211.876	42.66
212.262	39.3
212.648	-4.33
213.034	-0.2
213.419	5.4
213.805	33.63
214.19	30.57
214.576	-2.65
214.961	19.63
215.346	0.07
215.732	-15.78
216.117	6.68
216.502	21.19
216.888	3.3
217.273	32.51
217.658	22.17
218.043	6.4
218.428	16.23
218.813	17.84
219.198	8.45
219.583	14.09
219.968	28.67
220.353	9.68
220.738	19.38
221.122	14.75
221.507	27.74
221.892	19.89
222.276	-2.49
222.661	10.23
223.046	3.81
223.43	19.53
223.815	-7.34
224.199	3.03
224.583	10.97
224.968	22.96
225.352	11.59
225.736	4.99
226.121	12.63
226.505	8.93
226.889	5.52
227.273	12.39
227.657	13.4
228.041	9.07
228.425	5.45
228.809	5.57
229.193	6.16
229.577	8.3
229.961	8.45
230.344	6.8
230.728	7.08
231.112	6.28
231.495	7.72
231.879	6.35
232.263	6.58
232.646	7.67
233.03	7.54
233.413	6.83
233.797	7.21
234.18	8.88
234.563	8.19
234.946	7.85
235.33	10.07
235.713	7.68
236.096	7.48
236.479	7.56
236.862	6.37
237.245	6.59
237.628	5.93
238.011	8.08
238.394	6.14
238.777	7.46
239.16	6.44
239.543	7.46
239.925	6.05
240.308	6.42
240.691	7.11
241.073	7.94
241.456	9.69
241.838	9.52
242.221	8.66
242.603	5.26
242.986	5.82
243.368	6.82
243.75	6.78
244.133	6.75
244.515	6.98
244.897	6.52
245.279	6.54
245.661	7.05
246.043	6.72
246.425	6.2
246.807	6.02
247.189	6.53
247.571	6.47
247.953	7.02
248.335	6.95
248.717	6.73
249.098	6.35
249.48	6.24
249.862	6.53
250.243	6.41
250.625	6.62
251.006	6.52
251.388	7.06
251.769	7.3
252.151	8.23
252.532	6.93
252.913	6.95
253.295	7.36
253.676	6.62
254.057	6.27
254.438	6.86
254.819	5.93
255.2	5.92
255.581	5.17
255.962	6.59
256.343	6.24
256.724	7.14
257.105	6.13
257.486	4.96
257.867	7.59
258.247	6.17
258.628	6.9
259.009	7.1
259.389	7.1
259.77	6.16
260.15	5.43
260.531	6.2
260.911	5.43
261.292	5.87
261.672	5.79
262.052	5.66
262.432	5.47
262.813	5.69
263.193	5.24
263.573	6.08
263.953	5.94
264.333	5.11
264.713	6.31
265.093	5.36
265.473	5.37
265.853	5.62
266.233	6.36
266.612	6.07
266.992	6.46
267.372	6.72
267.752	5.81
268.131	6.05
268.511	5.58
268.89	6.17
269.27	5.94
269.649	5.64
270.029	6.09
270.408	5.51
270.787	5.79
271.167	5.18
271.546	5.5
271.925	5.74
272.304	6.21
272.683	5.55
273.062	5.03
273.441	5.57
273.82	5.32
274.199	5.28
274.578	5.26
274.957	5.53
275.336	5.26
275.715	5.05
276.093	6.22
276.472	6.01
276.851	5.57
277.229	5.63
277.608	5.32
277.986	5.83
278.365	5.02
278.743	5.92
279.122	5.56
279.5	5.77
279.878	5.25
280.257	4.48
280.635	4.9
281.013	5.56
281.391	5.94
281.769	5.39
282.147	4.79
282.525	5.31
282.903	5.6
283.281	5.44
283.659	5.49
284.037	5.45
284.415	5.25
284.792	5.78
285.17	5.26
285.548	5.13
285.925	4.75
286.303	5.01
286.68	5.48
287.058	5.5
287.435	5.56
287.813	5.63
288.19	5.03
288.567	4.81
288.945	5.01
289.322	4.89
289.699	4.91
290.076	5.07
290.453	4.88
290.83	5.86
291.207	5.4
291.584	5.31
291.961	5.37
292.338	5.64
292.715	5.9
293.092	5.39
293.469	5.14
293.845	5.51
294.222	5.22
294.599	5.37
294.975	5
295.352	4.67
295.728	5.27
296.105	5.2
296.481	4.92
296.858	4.99
297.234	5.52
297.61	5.78
297.986	5.49
298.363	4.79
298.739	5.55
299.115	4.99
299.491	5.05
299.867	5.04
300.243	5.48
300.619	5.23
300.995	5.21
301.371	4.79
301.746	5.4
302.122	5.25
302.498	5.5
302.874	5.03
303.249	5.25
303.625	5.22
304	4.99
304.376	5.55
304.751	5
305.127	5.48
305.502	5.35
305.878	4.97
306.253	5.29
306.628	4.75
307.003	5.61
307.378	5.43
307.754	5.1
308.129	5.6
308.504	5
308.879	4.68
309.254	5.36
309.629	4.98
310.003	5.02
310.378	4.79
310.753	4.99
311.128	4.95
311.502	4.52
311.877	5.21
312.252	5.41
312.626	5.07
313.001	5.11
313.375	4.82
313.75	4.78
314.124	4.87
314.498	4.75
314.873	4.83
315.247	4.93
315.621	5.18
315.995	5.53
316.369	5.11
316.743	5.38
317.117	5.14
317.491	5.22
317.865	4.79
318.239	5.24
318.613	5.04
318.987	5.02
319.361	5.07
319.734	4.35
320.108	4.68
320.482	5.09
320.855	4.97
321.229	4.79
321.602	4.66
321.976	5.49
322.349	4.85
322.723	5.43
323.096	5.04
323.469	5.57
323.843	5.15
324.216	5.2
324.589	5.39
324.962	4.82
325.335	4.44
325.708	4.95
326.081	5.03
326.454	5.34
326.827	4.7
327.2	4.76
327.573	4.69
327.945	5.21
328.318	4.39
328.691	4.69
329.063	5.02
329.436	4.84
329.809	4.86
330.181	5.16
330.553	5.11
330.926	5.4
331.298	5.4
331.671	4.81
332.043	5.82
332.415	5.41
332.787	5.18
333.159	4.47
333.532	4.75
333.904	5.08
334.276	5.12
334.648	5.33
335.02	5.09
335.391	4.64
335.763	5.05
336.135	5.02
336.507	5.14
336.879	5.29
337.25	5.24
337.622	4.94
337.993	4.85
338.365	4.46
338.736	4.85
339.108	5.24
339.479	4.55
339.851	4.97
340.222	4.92
340.593	4.35
340.964	4.49
341.336	4.72
341.707	4.43
342.078	4.77
342.449	4.88
342.82	4.16
343.191	4.46
343.562	5.14
343.933	4.93
344.303	4.91
344.674	5
345.045	5.22
345.416	4.18
345.786	4.9
346.157	4.88
346.527	4.83
346.898	4.79
347.268	4.57
347.639	4.73
348.009	5.2
348.38	4.5
348.75	4.53
349.12	4.78
349.49	4.91
349.861	4.39
350.231	4.46
350.601	5.15
350.971	5.1
351.341	4.16
351.711	4.77
352.081	4.42
352.45	4.82
352.82	4.28
353.19	5
353.56	4.66
353.929	4.94
354.299	5.02
354.669	5.02
355.038	4.57
355.408	4.2
355.777	4.85
356.147	5.01
356.516	4.81
356.885	4.5
357.254	4.91
357.624	4.72
357.993	4.33
358.362	4.89
358.731	4.65
359.1	4.84
359.469	4.65
359.838	4.87
360.207	4.89
360.576	4.93
360.945	4.96
361.314	5.07
361.682	4.85
362.051	4.73
362.42	4.47
362.788	4.49
363.157	4.87
363.525	4.4
363.894	4.75
364.262	4.61
364.631	5.03
364.999	4.47
365.367	4.71
365.735	5.03
366.104	4.66
366.472	4.59
366.84	4.62
367.208	4.6
367.576	5.29
367.944	4.96
368.312	5.23
368.68	5.11
369.048	4.83
369.416	4.29
369.783	4.81
370.151	5.02
370.519	5.4
370.886	4.78
371.254	5.37
371.621	5.13
371.989	4.8
372.356	4.48
372.724	5.36
373.091	5.27
373.458	4.55
373.826	4.94
374.193	4.77
374.56	4.94
374.927	5.3
375.294	4.82
375.661	5.06
376.028	4.89
376.395	4.67
376.762	4.58
377.129	5.2
377.496	5.21
377.863	4.98
378.229	4.86
378.596	5.15
378.963	5.09
379.329	5.02
379.696	4.92
380.062	4.93
380.429	4.98
380.795	5.05
381.161	4.77
381.528	4.85
381.894	5.16
382.26	4.97
382.626	4.96
382.993	4.97
383.359	4.86
383.725	4.99
384.091	5.12
384.457	4.82
384.823	5.1
385.188	5.02
385.554	4.84
385.92	4.88
386.286	5.14
386.651	4.97
387.017	4.94
387.383	4.87
387.748	4.66
388.114	4.81
388.479	4.92
388.845	5.06
389.21	5.13
389.575	5
389.94	4.94
390.306	5
390.671	5.08
391.036	5.1
391.401	5.05
391.766	4.77
392.131	4.71
392.496	5.01
392.861	5.31
393.226	4.93
393.591	5.11
393.956	4.94
394.32	4.97
394.685	4.92
395.05	4.93
395.414	4.98
395.779	4.71
396.143	5.06
396.508	4.83
396.872	5.05
397.236	5.06
397.601	4.82
397.965	4.87
398.329	5.14
398.694	4.94
399.058	4.9
399.422	5.02
399.786	4.76
400.15	5.2
400.514	5.39
400.878	5.16
401.242	5
401.605	4.94
401.969	4.67
402.333	4.85
402.697	5.07
403.06	5.14
403.424	4.98
403.787	5.28
404.151	4.77
404.514	5.07
404.878	5.05
405.241	5.06
405.604	5.1
405.968	4.93
406.331	4.96
406.694	5.02
407.057	4.97
407.42	5.26
407.783	4.92
408.146	5.17
408.509	5.21
408.872	5.05
409.235	4.83
409.598	5.21
409.961	5.07
410.323	5.09
410.686	5.07
411.049	5.03
411.411	5.29
411.774	5.14
412.136	5.05
412.499	5.38
412.861	4.91
413.223	5.18
413.586	5.27
413.948	5.07
414.31	5.01
414.672	4.74
415.035	5.24
415.397	5.08
415.759	5.18
416.121	5.02
416.483	5.13
416.845	5.22
417.206	4.95
417.568	5.03
417.93	5.24
418.292	5.14
418.653	4.9
419.015	5.01
419.377	5.25
419.738	5.09
420.1	4.99
420.461	5.04
420.822	4.99
421.184	5.05
421.545	5.12
421.906	4.91
422.267	5.11
422.629	5.04
422.99	5.08
423.351	4.98
423.712	4.98
424.073	5.07
424.434	4.95
424.795	5.1
425.155	5.04
425.516	5.03
425.877	4.89
426.238	5.05
426.598	5.09
426.959	4.95
427.32	5.01
427.68	5.14
428.041	4.98
428.401	5.1
428.761	5.05
429.122	5.04
429.482	5.32
429.842	5.23
430.202	5.17
430.563	5.09
430.923	5.07
431.283	5.26
431.643	5.29
432.003	5.34
432.363	5.26
432.722	5.21
433.082	5.35
433.442	5.12
433.802	5.15
434.161	5.28
434.521	4.95
434.881	5.19
435.24	5.12
435.6	5.15
435.959	4.97
436.319	5.16
436.678	5.22
437.037	5.23
437.396	5.2
437.756	5.25
438.115	5.32
438.474	5.24
438.833	5.19
439.192	5.08
439.551	5.25
439.91	5.33
440.269	5.32
440.628	5.03
440.987	5.43
441.345	5.19
441.704	5.26
442.063	5.22
442.421	5.19
442.78	5.16
443.138	5.22
443.497	5.24
443.855	5.14
444.214	5.35
444.572	5.24
444.93	5.35
445.288	5.27
445.647	5.35
446.005	5.09
446.363	5.22
446.721	5.25
447.079	5.21
447.437	5.26
447.795	5.15
448.153	5.3
448.51	5.16
448.868	5.08
449.226	5.07
449.584	5.34
449.941	5.29
450.299	5.31
450.656	5.28
451.014	5.4
451.371	5.3
451.729	5.36
452.086	5.29
452.443	5.64
452.801	5.39
453.158	5.31
453.515	5.34
453.872	5.42
454.229	5.22
454.586	5.24
454.943	5.35
455.3	5.37
455.657	5.48
456.014	5.4
456.371	5.48
456.727	5.38
457.084	5.42
457.441	5.39
457.797	5.48
458.154	5.61
458.51	5.42
458.867	5.37
459.223	5.42
459.58	5.34
459.936	5.45
460.292	5.36
460.648	5.45
461.005	5.24
461.361	5.3
461.717	5.29
462.073	5.34
462.429	5.3
462.785	5.32
463.141	5.43
463.496	5.52
463.852	5.4
464.208	5.39
464.564	5.41
464.919	5.53
465.275	5.29
465.631	5.32
465.986	5.53
466.342	5.54
466.697	5.5
467.052	5.59
467.408	5.68
467.763	5.46
468.118	5.43
468.473	5.43
468.829	5.7
469.184	5.66
469.539	5.51
469.894	5.39
470.249	5.48
470.603	5.42
470.958	5.56
471.313	5.54
471.668	5.62
472.023	5.59
472.377	5.53
472.732	5.53
473.086	5.38
473.441	5.6
473.795	5.52
474.15	5.58
474.504	5.56
474.859	5.66
475.213	5.57
475.567	5.53
475.921	5.55
476.275	5.67
476.63	5.54
476.984	5.46
477.338	5.33
477.692	5.6
478.045	5.59
478.399	5.47
478.753	5.29
479.107	5.48
479.461	5.54
479.814	5.54
480.168	5.56
480.521	5.63
480.875	5.53
481.228	5.49
481.582	5.64
481.935	5.54
482.289	5.59
482.642	5.49
482.995	5.69
483.348	5.48
483.701	5.5
484.055	5.48
484.408	5.44
484.761	5.46
485.114	5.34
485.466	5.27
485.819	5.19
486.172	5.21
486.525	5.27
486.878	5.31
487.23	5.4
487.583	5.4
487.936	5.49
488.288	5.55
488.641	5.39
488.993	5.37
489.345	5.37
489.698	5.37
490.05	5.37
490.402	5.38
490.754	5.43
491.107	5.45
491.459	5.53
491.811	5.61
492.163	5.59
492.515	5.68
492.866	5.51
493.218	5.44
493.57	5.45
493.922	5.46
494.274	5.49
494.625	5.51
494.977	5.66
495.328	5.63
495.68	5.79
496.031	5.67
496.383	5.54
496.734	5.7
497.086	5.74
497.437	5.77
497.788	5.62
498.139	5.61
498.49	5.73
498.842	5.61
499.193	5.69
499.544	5.7
499.894	5.71
500.245	5.78
500.596	5.81
500.947	5.7
501.298	5.69
501.648	5.66
501.999	5.7
502.35	5.8
502.7	5.76
503.051	5.88
503.401	5.81
503.752	5.85
504.102	5.71
504.452	5.8
504.803	5.87
505.153	5.89
505.503	5.91
505.853	5.9
506.203	5.7
506.553	5.79
506.903	5.74
507.253	5.88
507.603	5.8
507.953	5.85
508.303	5.76
508.652	5.84
509.002	5.89
509.352	5.95
509.701	5.94
510.051	5.72
510.4	5.73
510.75	5.73
511.099	5.77
511.449	5.85
511.798	5.84
512.147	5.95
512.496	5.69
512.846	5.91
513.195	5.93
513.544	5.85
513.893	5.82
514.242	5.87
514.591	5.72
514.939	5.77
515.288	5.94
515.637	5.86
515.986	5.7
516.334	6.01
516.683	6.14
517.032	5.98
517.38	5.94
517.729	5.88
518.077	5.9
518.426	5.91
518.774	5.86
519.122	5.92
519.47	5.84
519.819	5.84
520.167	5.79
520.515	5.78
520.863	5.76
521.211	5.96
521.559	5.88
521.907	5.83
522.255	5.84
522.602	5.81
522.95	5.98
523.298	5.95
523.645	6.14
523.993	5.95
524.341	6.04
524.688	5.9
525.036	5.93
525.383	5.93
525.73	6.1
526.078	6.12
526.425	5.93
526.772	6.05
527.119	5.94
527.466	5.89
527.814	5.86
528.161	5.81
528.508	5.93
528.854	5.87
529.201	5.85
529.548	5.79
529.895	5.85
530.242	5.72
530.588	5.62
530.935	5.69
531.282	5.72
531.628	5.78
531.975	5.84
532.321	5.89
532.667	5.9
533.014	5.81
533.36	5.88
533.706	5.96
534.052	5.95
534.399	5.93
534.745	5.9
535.091	5.82
535.437	5.82
535.783	5.79
536.129	5.91
536.474	5.91
536.82	5.96
537.166	6.03
537.512	6
537.857	5.95
538.203	5.98
538.549	6.09
538.894	5.99
539.239	6.08
539.585	6.03
539.93	6.09
540.276	6.16
540.621	6.12
540.966	6.24
541.311	6.19
541.656	6.06
542.001	6.2
542.346	6.13
542.691	5.93
543.036	5.95
543.381	5.81
543.726	5.92
544.071	5.89
544.415	5.88
544.76	5.97
545.105	5.98
545.449	5.97
545.794	6.04
546.138	6.12
546.483	6.05
546.827	6.18
547.171	6.13
547.516	6.01
547.86	6.21
548.204	6.21
548.548	6.11
548.892	6.06
549.236	6.01
549.58	6.31
549.924	6.19
550.268	6.14
550.612	6.21
550.956	6.31
551.3	6.38
551.643	6.48
551.987	6.42
552.33	6.44
552.674	6.4
553.017	6.31
553.361	6.04
553.704	6.25
554.048	6.31
554.391	6.25
554.734	6.26
555.077	6.2
555.42	6.41
555.764	6.37
556.107	6.48
556.45	6.22
556.793	6.22
557.135	6.56
557.478	6.35
557.821	6.52
558.164	6.5
558.507	6.31
558.849	6.11
559.192	6.27
559.534	6.35
559.877	6.45
560.219	6.31
560.562	6.64
560.904	6.38
561.246	6.52
561.589	6.37
561.931	6.41
562.273	6.32
562.615	6.43
562.957	6.49
563.299	6.49
563.641	6.33
563.983	6.67
564.325	6.68
564.667	6.49
565.008	6.51
565.35	6.68
565.692	6.6
566.033	6.39
566.375	6.62
566.716	6.53
567.058	6.58
567.399	6.52
567.741	6.31
568.082	6.49
568.423	6.28
568.764	6.35
569.105	6.53
569.447	6.56
569.788	6.37
570.129	6.53
570.47	6.54
570.811	6.39
571.151	6.6
571.492	6.67
571.833	6.52
572.174	6.59
572.514	6.51
572.855	6.54
573.195	6.58
573.536	6.6
573.876	6.52
574.217	6.54
574.557	6.5
574.898	6.65
575.238	6.68
575.578	6.59
575.918	6.54
576.258	6.62
576.598	6.6
576.938	6.7
577.278	6.66
577.618	6.6
577.958	6.5
578.298	6.67
578.638	6.71
578.977	6.63
579.317	6.68
579.657	6.5
579.996	6.68
580.336	6.61
580.675	6.72
581.014	6.53
581.354	6.58
581.693	6.93
582.032	6.59
582.372	6.88
582.711	6.47
583.05	6.79
583.389	6.68
583.728	6.81
584.067	6.57
584.406	6.52
584.745	6.86
585.083	6.86
585.422	6.89
585.761	6.74
586.1	6.89
586.438	6.66
586.777	6.69
587.115	6.57
587.454	6.76
587.792	6.84
588.13	6.84
588.469	6.7
588.807	6.84
589.145	7.16
589.483	6.94
589.821	6.72
590.159	6.62
590.497	6.69
590.835	7.04
591.173	6.64
591.511	6.94
591.849	6.86
592.187	6.74
592.524	6.89
592.862	6.7
593.2	6.67
593.537	6.95
593.875	6.83
594.212	6.9
594.55	6.73
594.887	7.02
595.224	6.92
595.561	6.83
595.899	6.73
596.236	6.85
596.573	6.75
596.91	6.58
597.247	6.91
597.584	6.78
597.921	6.84
598.258	6.77
598.594	6.88
598.931	6.57
599.268	6.77
599.604	7.02
599.941	6.97
600.277	6.76
600.614	6.99
600.95	6.67
601.287	7.11
601.623	6.9
601.959	6.93
602.296	6.9
602.632	6.85
602.968	7.09
603.304	7.16
603.64	6.98
603.976	7.15
604.312	6.98
604.648	6.77
604.984	7.12
605.319	7
605.655	6.85
605.991	6.88
606.326	6.95
606.662	6.81
606.998	6.82
607.333	6.81
607.668	7.04
608.004	6.78
608.339	7.12
608.674	7.21
609.01	7.12
609.345	7.12
609.68	7.07
610.015	7.2
610.35	7.19
610.685	7.03
611.02	6.83
611.355	7.09
611.689	7.08
612.024	6.88
612.359	7.03
612.694	7.15
613.028	7.06
613.363	6.88
613.697	7.14
614.032	7.27
614.366	7.1
614.7	7.24
615.035	7.42
615.369	7.3
615.703	6.98
616.037	7.23
616.371	7.38
616.705	7.36
617.039	7.15
617.373	7.37
617.707	7.18
618.041	7.36
618.375	7.35
618.709	7.3
619.042	7.05
619.376	7.24
619.71	7.02
620.043	6.94
620.377	6.96
620.71	7.65
621.043	7.27
621.377	6.83
621.71	7.46
622.043	7.05
622.376	7.02
622.709	7.37
623.043	7.36
623.376	7.51
623.709	7.7
624.041	7.32
624.374	7.16
624.707	7.42
625.04	7.77
625.373	7.52
625.705	7.37
626.038	7.16
626.37	7.5
626.703	7.29
627.035	7.3
627.368	7.43
627.7	7.17
628.032	7.28
628.365	7.1
628.697	7.21
629.029	7.35
629.361	7.27
629.693	7.35
630.025	7.27
630.357	7.14
630.689	6.99
631.021	7.23
631.353	7.16
631.684	7.55
632.016	7.53
632.348	7.67
632.679	7.6
633.011	7.26
633.342	7.49
633.674	7.68
634.005	7.48
634.336	7.51
634.668	7.6
634.999	7.98
635.33	7.18
635.661	7.53
635.992	7.62
636.323	7.44
636.654	7.78
636.985	7.03
637.316	7.53
637.647	7.64
637.977	7.68
638.308	7.46
638.639	7.56
638.969	7.42
639.3	7.53
639.63	7.3
639.961	7.57
640.291	7.82
640.622	7.66
640.952	8.13
641.282	7.84
641.612	7.52
641.943	7.78
642.273	7.5
642.603	7.61
642.933	7.47
643.263	7.57
643.592	7.55
643.922	7.21
644.252	7.33
644.582	7.68
644.911	7.3
645.241	7.47
645.571	7.64
645.9	7.33
646.23	8.03
646.559	7.71
646.888	7.38
647.218	8.01
647.547	7.09
647.876	8.04
648.205	6.84
648.534	7.61
648.863	7.59
649.192	7.42
649.521	7.82
649.85	7.85
650.179	7.27
650.508	7.92
650.837	7.1
651.165	8.21
651.494	7.9
651.822	7.81
652.151	8
652.479	7.4
652.808	8
653.136	7.47
653.465	7.88
653.793	7.55
654.121	7.83
654.449	7.95
654.777	8.21
655.105	7.66
655.433	7.82
655.761	8.23
656.089	7.59
656.417	7.9
656.745	8.18
657.073	7.79
657.4	7.72
657.728	8.02
658.056	8.67
658.383	8.25
658.711	8.23
659.038	8.24
659.365	7.46
659.693	7.75
660.02	8.23
660.347	8
660.674	7.72
661.001	7.38
661.329	7.95
661.656	7.8
661.982	7.51
662.309	8.23
662.636	8.04
662.963	8.34
663.29	7.85
663.616	7.47
663.943	7.68
664.27	8.19
664.596	8.17
664.923	8.28
665.249	8.01
665.576	8.22
665.902	7.73
666.228	7.77
666.554	7.95
666.881	8
667.207	8.47
667.533	8.72
667.859	7.83
668.185	8.42
668.511	8.6
668.837	8.44
669.162	8.3
669.488	8.01
669.814	8.34
670.139	7.55
670.465	8.19
670.791	8.06
671.116	8.46
671.442	8.63
671.767	8.46
672.092	8.04
672.418	8.15
672.743	7.76
673.068	7.67
673.393	8.67
673.718	8.48
674.043	8.84
674.368	8.72
674.693	8.49
675.018	8.32
675.343	7.93
675.667	8.5
675.992	8.6
676.317	8.23
676.641	8.6
676.966	8.42
677.29	7.89
677.615	8.61
677.939	7.99
678.264	8.37
678.588	8.28
678.912	8.21
679.236	7.88
679.56	8.47
679.885	8.53
680.209	8.37
680.532	8.67
680.856	8.54
681.18	8.2
681.504	8.02
681.828	8.1
682.152	7.97
682.475	8.38
682.799	8.8
683.122	8.69
683.446	8.13
683.769	8.38
684.093	8.1
684.416	8.2
684.739	8.47
685.062	8.77
685.386	8.57
685.709	8.47
686.032	8.23
686.355	8.49
686.678	8.49
687.001	8.36
687.324	7.84
687.646	8.64
687.969	8.59
688.292	8.82
688.614	9.05
688.937	8.88
689.26	8.38
689.582	8.41
689.904	9.02
690.227	8.61
690.549	8.68
690.871	8.46
691.194	8.57
691.516	8.18
691.838	7.62
692.16	9.34
692.482	8.96
692.804	8.31
693.126	8.38
