Data from 0361_forehead_Reflection__2__13.txt Node

Date: Mon Dec 11 17:40:01 CST 2023
User: ToomeyLab
Spectrometer: FLMS14357
Trigger mode: 0
Integration Time (sec): 1.000000E-2
Scans to average: 100
Electric dark correction enabled: true
Nonlinearity correction enabled: false
Boxcar width: 0
XAxis mode: Wavelengths
Number of Pixels in Spectrum: 2048
>>>>>Begin Spectral Data<<<<<
189.047	146.24
189.435	146.24
189.823	146.24
190.211	87.49
190.599	1120.78
190.987	163.25
191.375	66.83
191.763	220.26
192.151	-36.64
192.538	280.48
192.926	-18.33
193.314	-68.58
193.702	-139.81
194.089	167.13
194.477	62.45
194.864	210.89
195.252	110.22
195.639	-276.61
196.027	498.32
196.414	-47525
196.801	160.59
197.189	-757
197.576	96.32
197.963	3.25
198.351	30.87
198.738	11.85
199.125	20.64
199.512	15.04
199.899	20.55
200.286	73.83
200.673	2.71
201.06	70.51
201.447	17.4
201.833	26.04
202.22	48.68
202.607	34.2
202.994	9.44
203.38	25.12
203.767	68.95
204.154	76.12
204.54	-23.16
204.927	20.72
205.313	57.17
205.699	18.33
206.086	36.48
206.472	67.19
206.858	27.18
207.245	34.86
207.631	33.75
208.017	53.53
208.403	33.49
208.789	23.14
209.175	46.43
209.561	59.07
209.947	11.65
210.333	43.88
210.719	61.7
211.105	24.47
211.491	22.87
211.876	50.26
212.262	36.65
212.648	20.78
213.034	68.4
213.419	36.26
213.805	-5.8
214.19	29.58
214.576	10.38
214.961	35.47
215.346	27.45
215.732	50.22
216.117	14.62
216.502	53.3
216.888	22.27
217.273	33.37
217.658	30.07
218.043	10.77
218.428	34.24
218.813	30.09
219.198	28.42
219.583	25.04
219.968	21.66
220.353	12.98
220.738	26.42
221.122	13.09
221.507	44.26
221.892	29.09
222.276	31.12
222.661	16.89
223.046	12.72
223.43	21.53
223.815	10.57
224.199	10.43
224.583	10.3
224.968	17.27
225.352	18.9
225.736	9.16
226.121	14.05
226.505	13.56
226.889	7.78
227.273	22.7
227.657	20.97
228.041	13.39
228.425	9.18
228.809	2.75
229.193	6.74
229.577	8.31
229.961	6.66
230.344	5.91
230.728	4.89
231.112	5.87
231.495	6.28
231.879	6.01
232.263	4.34
232.646	5.36
233.03	6.32
233.413	4.33
233.797	8.49
234.18	9.06
234.563	7.65
234.946	6.83
235.33	8.17
235.713	6.81
236.096	7.9
236.479	6.16
236.862	5.19
237.245	5.71
237.628	5.18
238.011	8.09
238.394	5.64
238.777	5.84
239.16	5.77
239.543	8.06
239.925	3.58
240.308	3.82
240.691	7.91
241.073	6.89
241.456	7.11
241.838	7.02
242.221	6.94
242.603	5.04
242.986	5.27
243.368	5.02
243.75	5.65
244.133	5.63
244.515	5.28
244.897	4.77
245.279	5.2
245.661	5.89
246.043	6.06
246.425	6.06
246.807	5.66
247.189	6.78
247.571	6.4
247.953	5.39
248.335	5.41
248.717	5.12
249.098	5.09
249.48	5
249.862	5.33
250.243	5.14
250.625	5.25
251.006	5.19
251.388	5.76
251.769	6.14
252.151	6.46
252.532	6.6
252.913	6.51
253.295	6.38
253.676	5.05
254.057	5.23
254.438	5.56
254.819	4.8
255.2	4.1
255.581	4.95
255.962	5.71
256.343	5.89
256.724	6.43
257.105	5.03
257.486	5.74
257.867	6.23
258.247	5.3
258.628	4.67
259.009	6.76
259.389	6.09
259.77	4.96
260.15	4.96
260.531	5.56
260.911	4.09
261.292	4.52
261.672	4.87
262.052	4.9
262.432	4.92
262.813	4.94
263.193	4.81
263.573	5.33
263.953	4.97
264.333	4.67
264.713	5.71
265.093	5.75
265.473	6.47
265.853	5.4
266.233	6.16
266.612	5.75
266.992	5.66
267.372	6.64
267.752	6.37
268.131	5.25
268.511	4.51
268.89	5.43
269.27	5.38
269.649	5.21
270.029	5.43
270.408	4.57
270.787	4.43
271.167	4.52
271.546	5.54
271.925	5.3
272.304	5.55
272.683	5.23
273.062	4.77
273.441	4.72
273.82	4.85
274.199	4.76
274.578	4.96
274.957	5.11
275.336	4.35
275.715	4.78
276.093	5.78
276.472	5.43
276.851	5.06
277.229	4.82
277.608	4.73
277.986	5.44
278.365	4.65
278.743	5.05
279.122	5.67
279.5	5.01
279.878	5.28
280.257	4.87
280.635	4.82
281.013	5.02
281.391	5.48
281.769	5.21
282.147	4.63
282.525	4.55
282.903	5.51
283.281	5.17
283.659	4.79
284.037	4.6
284.415	4.79
284.792	5.24
285.17	4.65
285.548	4.61
285.925	5.25
286.303	4.85
286.68	4.9
287.058	4.94
287.435	4.92
287.813	4.91
288.19	4.71
288.567	4.75
288.945	4.88
289.322	5.13
289.699	4.62
290.076	4.9
290.453	5.29
290.83	5.79
291.207	5.06
291.584	5.32
291.961	5.28
292.338	5.26
292.715	5.54
293.092	5.29
293.469	5.31
293.845	5.37
294.222	5.88
294.599	5.22
294.975	5.23
295.352	5.21
295.728	5.22
296.105	5.34
296.481	5.43
296.858	5.43
297.234	5.83
297.61	5.91
297.986	5.98
298.363	5.87
298.739	5.8
299.115	5.26
299.491	5.99
299.867	5.51
300.243	6.01
300.619	5.89
300.995	5.94
301.371	5.67
301.746	5.96
302.122	6.06
302.498	6.66
302.874	6.77
303.249	6.24
303.625	6.4
304	6.65
304.376	6.5
304.751	6.22
305.127	6.26
305.502	6.86
305.878	6.46
306.253	6.96
306.628	6.79
307.003	6.87
307.378	7.04
307.754	6.89
308.129	7
308.504	6.97
308.879	7.43
309.254	7.71
309.629	7.34
310.003	7.7
310.378	6.83
310.753	7.3
311.128	7.36
311.502	7.48
311.877	7.15
312.252	7.28
312.626	7.58
313.001	7.41
313.375	6.92
313.75	7.82
314.124	7.67
314.498	7.62
314.873	8.11
315.247	7.77
315.621	8.47
315.995	8.48
316.369	8.14
316.743	8.88
317.117	8.34
317.491	8.78
317.865	8.3
318.239	8.75
318.613	8.54
318.987	8.83
319.361	9.55
319.734	8.56
320.108	9.09
320.482	8.88
320.855	8.4
321.229	8.73
321.602	9.12
321.976	9.59
322.349	9.34
322.723	9.55
323.096	10.01
323.469	9.79
323.843	9.86
324.216	10.06
324.589	9.96
324.962	9.08
325.335	9.66
325.708	9.24
326.081	9.76
326.454	9.69
326.827	9.8
327.2	9.59
327.573	9.77
327.945	10.27
328.318	9.54
328.691	10.13
329.063	10.21
329.436	9.78
329.809	10.42
330.181	10.5
330.553	10.29
330.926	10.14
331.298	10.73
331.671	10.97
332.043	10.79
332.415	11
332.787	11.1
333.159	10.56
333.532	10.64
333.904	10.9
334.276	11.15
334.648	11.15
335.02	10.93
335.391	10.36
335.763	11.04
336.135	11.14
336.507	11.66
336.879	11.19
337.25	11.25
337.622	11.44
337.993	10.89
338.365	11.6
338.736	10.97
339.108	11.67
339.479	11.41
339.851	11.54
340.222	11.44
340.593	11.6
340.964	11.86
341.336	12.16
341.707	11.95
342.078	12.12
342.449	12.32
342.82	12.28
343.191	11.6
343.562	11.95
343.933	12.03
344.303	12.13
344.674	11.99
345.045	12.64
345.416	12.44
345.786	12.24
346.157	12.23
346.527	13.06
346.898	12.59
347.268	12.36
347.639	12.61
348.009	13.04
348.38	12.62
348.75	12.84
349.12	13.03
349.49	12.38
349.861	12.78
350.231	12.65
350.601	13.18
350.971	13.16
351.341	12.72
351.711	13.34
352.081	13.17
352.45	13.44
352.82	12.88
353.19	13.27
353.56	13.18
353.929	13.54
354.299	13.73
354.669	13.92
355.038	13.36
355.408	13.29
355.777	13.5
356.147	13.67
356.516	13.5
356.885	13.97
357.254	14.2
357.624	14.14
357.993	14.19
358.362	14.18
358.731	14.23
359.1	14.14
359.469	13.99
359.838	14.19
360.207	14.4
360.576	14.05
360.945	14.71
361.314	14.66
361.682	14.18
362.051	14.43
362.42	14.57
362.788	14.23
363.157	14.46
363.525	14.47
363.894	14.39
364.262	14.93
364.631	15.09
364.999	14.91
365.367	15.44
365.735	15.03
366.104	14.94
366.472	15.25
366.84	15.15
367.208	15.29
367.576	15.59
367.944	15.46
368.312	15.59
368.68	15.5
369.048	15.57
369.416	15.52
369.783	15.73
370.151	16.07
370.519	16.14
370.886	15.73
371.254	16.07
371.621	16.05
371.989	16.32
372.356	16.16
372.724	16.62
373.091	16.66
373.458	16.55
373.826	16.22
374.193	16.44
374.56	16.55
374.927	16.88
375.294	16.98
375.661	16.97
376.028	16.79
376.395	16.67
376.762	16.82
377.129	17.31
377.496	16.79
377.863	17.13
378.229	17
378.596	16.96
378.963	16.78
379.329	17.3
379.696	17.52
380.062	17.25
380.429	17.4
380.795	17.76
381.161	17.53
381.528	17.48
381.894	17.56
382.26	17.77
382.626	17.91
382.993	18.07
383.359	17.95
383.725	18.22
384.091	18.39
384.457	18.07
384.823	18.67
385.188	18.4
385.554	17.98
385.92	17.97
386.286	18.61
386.651	18.47
387.017	18.68
387.383	18.37
387.748	18.55
388.114	18.97
388.479	19.01
388.845	18.71
389.21	18.81
389.575	18.93
389.94	18.84
390.306	19.2
390.671	19.06
391.036	19.04
391.401	19.21
391.766	19.32
392.131	19.31
392.496	19.8
392.861	19.86
393.226	19.59
393.591	19.95
393.956	19.65
394.32	19.74
394.685	20.01
395.05	19.95
395.414	20.21
395.779	19.91
396.143	19.96
396.508	19.98
396.872	19.78
397.236	20.39
397.601	20.28
397.965	20.58
398.329	20.54
398.694	20.02
399.058	20.33
399.422	20.39
399.786	20.69
400.15	20.7
400.514	20.74
400.878	20.95
401.242	20.76
401.605	20.83
401.969	20.89
402.333	20.94
402.697	21.06
403.06	21.06
403.424	21.16
403.787	21.15
404.151	21.15
404.514	21.49
404.878	21.55
405.241	21.68
405.604	21.36
405.968	21.43
406.331	21.25
406.694	21.49
407.057	21.69
407.42	21.91
407.783	21.85
408.146	21.87
408.509	21.77
408.872	21.69
409.235	22.18
409.598	22.52
409.961	22.24
410.323	22.22
410.686	22.33
411.049	22.5
411.411	22.43
411.774	22.68
412.136	22.52
412.499	23.04
412.861	22.7
413.223	22.7
413.586	23.07
413.948	22.85
414.31	22.84
414.672	22.89
415.035	23.17
415.397	23.21
415.759	23.02
416.121	23.27
416.483	23.31
416.845	23.33
417.206	23.48
417.568	23.59
417.93	23.77
418.292	23.43
418.653	23.53
419.015	23.66
419.377	23.68
419.738	23.73
420.1	23.76
420.461	23.66
420.822	23.59
421.184	23.78
421.545	23.76
421.906	23.74
422.267	23.79
422.629	23.73
422.99	23.85
423.351	23.85
423.712	24.04
424.073	24.08
424.434	24.25
424.795	24.38
425.155	24.47
425.516	24.33
425.877	24.25
426.238	24.39
426.598	24.31
426.959	24.47
427.32	24.76
427.68	25
428.041	24.74
428.401	25.05
428.761	25.13
429.122	25.16
429.482	25.56
429.842	25.38
430.202	25.53
430.563	25.44
430.923	25.75
431.283	25.98
431.643	25.81
432.003	25.82
432.363	26.15
432.722	26.17
433.082	26.28
433.442	26.16
433.802	26.08
434.161	26.3
434.521	26.25
434.881	26.08
435.24	26.29
435.6	26.41
435.959	26.27
436.319	26.53
436.678	26.45
437.037	26.62
437.396	26.73
437.756	26.93
438.115	27.06
438.474	27.16
438.833	27.1
439.192	26.89
439.551	27.21
439.91	27.2
440.269	27.26
440.628	27.16
440.987	27.33
441.345	27.27
441.704	27.37
442.063	27.32
442.421	27.3
442.78	27.43
443.138	27.57
443.497	27.4
443.855	27.85
444.214	27.84
444.572	27.9
444.93	28.09
445.288	27.91
445.647	28.17
446.005	27.99
446.363	28.16
446.721	28.19
447.079	28.14
447.437	28.17
447.795	28.18
448.153	28.32
448.51	28.24
448.868	28.15
449.226	28.28
449.584	28.57
449.941	28.57
450.299	28.75
450.656	28.89
451.014	29.14
451.371	28.93
451.729	29.1
452.086	29.25
452.443	29.5
452.801	29.61
453.158	29.27
453.515	29.48
453.872	29.67
454.229	29.71
454.586	29.44
454.943	29.84
455.3	29.78
455.657	30.06
456.014	30
456.371	30.15
456.727	30.13
457.084	30.17
457.441	30.49
457.797	30.39
458.154	30.42
458.51	30.41
458.867	30.52
459.223	30.61
459.58	30.45
459.936	30.62
460.292	30.66
460.648	30.76
461.005	30.68
461.361	30.82
461.717	30.42
462.073	30.6
462.429	30.63
462.785	30.93
463.141	30.97
463.496	31.1
463.852	31.22
464.208	31.26
464.564	31.35
464.919	31.61
465.275	31.85
465.631	31.6
465.986	32.04
466.342	31.74
466.697	32.05
467.052	31.87
467.408	32.17
467.763	32.02
468.118	31.95
468.473	31.95
468.829	32.21
469.184	32.59
469.539	32.49
469.894	32.35
470.249	32.55
470.603	32.55
470.958	32.9
471.313	32.75
471.668	32.98
472.023	33.05
472.377	33.24
472.732	32.84
473.086	33.21
473.441	33.11
473.795	33.23
474.15	33.3
474.504	33.39
474.859	33.18
475.213	33.5
475.567	33.39
475.921	33.64
476.275	33.46
476.63	33.72
476.984	33.66
477.338	33.75
477.692	33.83
478.045	33.9
478.399	33.86
478.753	33.81
479.107	33.94
479.461	34.22
479.814	34.15
480.168	34.15
480.521	34.22
480.875	34.01
481.228	34.15
481.582	34.3
481.935	34.4
482.289	34.6
482.642	34.51
482.995	34.47
483.348	34.41
483.701	34.35
484.055	34.4
484.408	34.25
484.761	34.21
485.114	33.85
485.466	33.62
485.819	33.72
486.172	34.05
486.525	34.15
486.878	34.19
487.23	34.34
487.583	34.6
487.936	34.72
488.288	34.86
488.641	34.73
488.993	34.53
489.345	34.56
489.698	34.66
490.05	34.64
490.402	34.71
490.754	34.88
491.107	35.22
491.459	35.45
491.811	35.55
492.163	35.77
492.515	35.72
492.866	35.36
493.218	35.31
493.57	35.21
493.922	35.4
494.274	35.63
494.625	35.83
494.977	36.25
495.328	36.31
495.68	36.57
496.031	36.89
496.383	36.79
496.734	36.99
497.086	37.16
497.437	37.34
497.788	37.18
498.139	36.92
498.49	37.09
498.842	37.08
499.193	37.16
499.544	37.17
499.894	37.28
500.245	37.65
500.596	37.6
500.947	37.65
501.298	37.83
501.648	37.75
501.999	37.83
502.35	38.16
502.7	38.13
503.051	38.17
503.401	38.31
503.752	38.39
504.102	38.27
504.452	38.64
504.803	38.67
505.153	38.58
505.503	38.84
505.853	38.56
506.203	38.81
506.553	38.9
506.903	38.73
507.253	38.87
507.603	39.15
507.953	39.07
508.303	39.27
508.652	39.13
509.002	39.1
509.352	39.53
509.701	39.27
510.051	39.28
510.4	39.23
510.75	39.36
511.099	39.53
511.449	39.54
511.798	39.4
512.147	39.54
512.496	39.7
512.846	39.61
513.195	39.83
513.544	39.83
513.893	39.88
514.242	39.79
514.591	39.89
514.939	40
515.288	40.13
515.637	40.16
515.986	40.14
516.334	40.34
516.683	40.37
517.032	40.65
517.38	40.66
517.729	40.61
518.077	40.93
518.426	40.8
518.774	41.03
519.122	40.86
519.47	40.98
519.819	40.65
520.167	40.43
520.515	40.49
520.863	40.63
521.211	40.82
521.559	40.93
521.907	40.89
522.255	41.18
522.602	41.27
522.95	41.38
523.298	41.5
523.645	41.74
523.993	41.48
524.341	41.85
524.688	41.93
525.036	42.02
525.383	42.17
525.73	42.1
526.078	41.98
526.425	42.12
526.772	41.82
527.119	41.97
527.466	41.67
527.814	41.75
528.161	41.94
528.508	42.12
528.854	42.06
529.201	41.8
529.548	42.02
529.895	41.63
530.242	41.44
530.588	41.69
530.935	42.01
531.282	41.97
531.628	41.98
531.975	42.09
532.321	42.31
532.667	42.4
533.014	42.65
533.36	42.74
533.706	42.81
534.052	42.76
534.399	42.89
534.745	42.79
535.091	42.5
535.437	42.54
535.783	42.79
536.129	42.86
536.474	43.19
536.82	43.35
537.166	43.52
537.512	43.65
537.857	43.5
538.203	43.41
538.549	43.59
538.894	43.67
539.239	44
539.585	43.87
539.93	44.04
540.276	44.2
540.621	44.32
540.966	44.56
541.311	44.42
541.656	44.53
542.001	44.45
542.346	44.41
542.691	44.02
543.036	43.85
543.381	43.88
543.726	44.05
544.071	44.12
544.415	44.17
544.76	44.34
545.105	44.64
545.449	44.52
545.794	44.9
546.138	45.08
546.483	45.16
546.827	45.48
547.171	45.28
547.516	45.27
547.86	45.51
548.204	45.43
548.548	45.24
548.892	45.46
549.236	45.54
549.58	45.88
549.924	45.91
550.268	46.07
550.612	45.97
550.956	46.29
551.3	46.37
551.643	46.51
551.987	46.71
552.33	47.04
552.674	46.65
553.017	46.82
553.361	46.91
553.704	46.82
554.048	46.95
554.391	46.95
554.734	47.03
555.077	47.15
555.42	46.99
555.764	47.17
556.107	47.38
556.45	47.6
556.793	47.21
557.135	47.64
557.478	47.8
557.821	47.83
558.164	47.73
558.507	47.67
558.849	48.19
559.192	47.94
559.534	47.8
559.877	48.04
560.219	48.1
560.562	48.25
560.904	48.52
561.246	48.39
561.589	48.65
561.931	48.53
562.273	48.6
562.615	48.71
562.957	48.43
563.299	48.52
563.641	48.58
563.983	48.76
564.325	48.97
564.667	48.97
565.008	49.08
565.35	48.82
565.692	49.12
566.033	49.02
566.375	49.02
566.716	48.95
567.058	48.98
567.399	49.27
567.741	49.25
568.082	49.37
568.423	49.2
568.764	49.36
569.105	49.19
569.447	49.49
569.788	49.35
570.129	49.69
570.47	49.48
570.811	49.79
571.151	49.77
571.492	49.62
571.833	50.08
572.174	50.08
572.514	49.87
572.855	49.95
573.195	49.92
573.536	49.91
573.876	49.93
574.217	50
574.557	50.17
574.898	50.56
575.238	50.38
575.578	50.39
575.918	50.43
576.258	50.38
576.598	50.46
576.938	50.34
577.278	50.6
577.618	50.62
577.958	50.43
578.298	50.73
578.638	50.89
578.977	51.12
579.317	51.28
579.657	51.17
579.996	51.08
580.336	51.48
580.675	51.38
581.014	51.57
581.354	51.74
581.693	51.73
582.032	51.77
582.372	51.75
582.711	51.66
583.05	51.93
583.389	52.06
583.728	52.12
584.067	52.15
584.406	52.21
584.745	52.44
585.083	52.15
585.422	52.03
585.761	52.6
586.1	52.75
586.438	52.45
586.777	52.74
587.115	52.38
587.454	52.33
587.792	52.97
588.13	53
588.469	52.83
588.807	53.01
589.145	53.15
589.483	53.08
589.821	52.76
590.159	52.67
590.497	53.13
590.835	53.41
591.173	53.15
591.511	53.47
591.849	53.09
592.187	52.93
592.524	53.36
592.862	53.25
593.2	53.21
593.537	53.14
593.875	53.52
594.212	53.45
594.55	53.8
594.887	53.61
595.224	53.97
595.561	53.58
595.899	53.63
596.236	53.72
596.573	53.62
596.91	54.1
597.247	54.17
597.584	53.99
597.921	53.75
598.258	53.76
598.594	54
598.931	54.01
599.268	53.81
599.604	54.13
599.941	54.16
600.277	54.09
600.614	54.24
600.95	54.21
601.287	54.45
601.623	54.67
601.959	54.49
602.296	55.04
602.632	54.8
602.968	54.72
603.304	54.91
603.64	54.99
603.976	55.09
604.312	55.18
604.648	54.76
604.984	55.1
605.319	54.77
605.655	54.84
605.991	54.75
606.326	55.23
606.662	54.84
606.998	54.93
607.333	55.32
607.668	55.12
608.004	55.35
608.339	55.63
608.674	55.49
609.01	55.58
609.345	55.52
609.68	55.88
610.015	55.87
610.35	56.07
610.685	55.69
611.02	55.71
611.355	55.47
611.689	55.69
612.024	55.87
612.359	55.7
612.694	55.84
613.028	55.51
613.363	56.23
613.697	56.54
614.032	56.47
614.366	56.37
614.7	56.38
615.035	56.33
615.369	56.44
615.703	56.54
616.037	56.69
616.371	56.75
616.705	56.94
617.039	57
617.373	56.89
617.707	57.02
618.041	57.54
618.375	57.33
618.709	57.04
619.042	56.99
619.376	57.17
619.71	56.59
620.043	57.5
620.377	57.57
620.71	57.58
621.043	57.55
621.377	57.25
621.71	57.21
622.043	57.15
622.376	57.55
622.709	57.48
623.043	57.96
623.376	57.75
623.709	57.85
624.041	57.63
624.374	58.2
624.707	57.93
625.04	58.36
625.373	57.82
625.705	57.72
626.038	58.48
626.37	57.83
626.703	58.09
627.035	57.88
627.368	58.27
627.7	58.08
628.032	58.09
628.365	58.57
628.697	58.14
629.029	58.11
629.361	58.35
629.693	58.4
630.025	58.25
630.357	58.46
630.689	58.39
631.021	58.35
631.353	58.52
631.684	58.45
632.016	59.06
632.348	58.84
632.679	58.63
633.011	58.91
633.342	58.92
633.674	59.29
634.005	59.18
634.336	59.18
634.668	59.45
634.999	59.49
635.33	59.46
635.661	59.28
635.992	59.6
636.323	59.24
636.654	59.46
636.985	59.24
637.316	59.79
637.647	59.53
637.977	59.41
638.308	60.04
638.639	59.89
638.969	59.27
639.3	59.52
639.63	59.79
639.961	60.03
640.291	59.81
640.622	60.2
640.952	60.19
641.282	60.67
641.612	60.08
641.943	60.43
642.273	60.05
642.603	60.66
642.933	60.22
643.263	60.51
643.592	60.63
643.922	60.23
644.252	60.21
644.582	60.55
644.911	60.91
645.241	60.15
645.571	61.2
645.9	61
646.23	60.6
646.559	61.07
646.888	60.61
647.218	61.15
647.547	60.9
647.876	61.23
648.205	61.53
648.534	61.03
648.863	61.07
649.192	60.89
649.521	61.31
649.85	61.25
650.179	61.6
650.508	61.24
650.837	61.45
651.165	61.72
651.494	61.41
651.822	61.44
652.151	61.11
652.479	61.12
652.808	61.93
653.136	61.41
653.465	62.08
653.793	61.76
654.121	61.87
654.449	61.61
654.777	61.83
655.105	62.03
655.433	61.43
655.761	62.16
656.089	61.79
656.417	61.69
656.745	62.27
657.073	62.57
657.4	62.01
657.728	62.19
658.056	62.5
658.383	61.67
658.711	62.28
659.038	62.55
659.365	62.66
659.693	62.54
660.02	62.39
660.347	62.55
660.674	62.02
661.001	62.01
661.329	62.81
661.656	62.13
661.982	62.4
662.309	62.95
662.636	62.82
662.963	62.3
663.29	62.3
663.616	62.95
663.943	62.25
664.27	62.73
664.596	63.36
664.923	62.93
665.249	63.64
665.576	62.77
665.902	62.58
666.228	63.21
666.554	63.54
666.881	63.45
667.207	63.27
667.533	63.69
667.859	63.91
668.185	63.48
668.511	63.66
668.837	63.56
669.162	63.08
669.488	63.82
