Data from 0361_chest_Reflection__0__00.txt Node

Date: Mon Dec 11 17:34:33 CST 2023
User: ToomeyLab
Spectrometer: FLMS14357
Trigger mode: 0
Integration Time (sec): 1.000000E-2
Scans to average: 100
Electric dark correction enabled: true
Nonlinearity correction enabled: false
Boxcar width: 0
XAxis mode: Wavelengths
Number of Pixels in Spectrum: 2048
>>>>>Begin Spectral Data<<<<<
189.047	-156.6
189.435	-156.6
189.823	-156.6
190.211	-45.87
190.599	2123.49
190.987	90.95
191.375	197.5
191.763	163.62
192.151	85.66
192.538	39.53
192.926	30.71
193.314	127.31
193.702	-241.69
194.089	146.25
194.477	79.31
194.864	60.16
195.252	-57.42
195.639	1891.94
196.027	168.65
196.414	-12316.67
196.801	123.08
197.189	-651.6
197.576	103.36
197.963	15.86
198.351	11.43
198.738	47.87
199.125	-12.34
199.512	24.77
199.899	4.19
200.286	86.54
200.673	10.55
201.06	40.81
201.447	-2.6
201.833	48.05
202.22	61.55
202.607	-18.18
202.994	-32.76
203.38	-22.36
203.767	54.59
204.154	64.4
204.54	24.05
204.927	6.25
205.313	24.97
205.699	-17.45
206.086	-8.54
206.472	47.87
206.858	42.49
207.245	15.04
207.631	8.91
208.017	20.73
208.403	30.25
208.789	-36.98
209.175	21.64
209.561	22.51
209.947	2.5
210.333	14.77
210.719	23.35
211.105	27.37
211.491	20.97
211.876	50.55
212.262	-13.22
212.648	36.45
213.034	-0.8
213.419	18.71
213.805	4.75
214.19	14.92
214.576	13.01
214.961	43.57
215.346	14.18
215.732	21.39
216.117	8.87
216.502	12.63
216.888	6.18
217.273	21.02
217.658	-8.78
218.043	-8.71
218.428	8.84
218.813	9.04
219.198	24.36
219.583	7.12
219.968	-4.15
220.353	-26.87
220.738	35.5
221.122	11.48
221.507	24.47
221.892	6
222.276	16.84
222.661	0.18
223.046	-4.11
223.43	16.64
223.815	4.84
224.199	7.32
224.583	5.71
224.968	12.27
225.352	12.69
225.736	8.7
226.121	12.83
226.505	-0.24
226.889	6.15
227.273	6.1
227.657	7.8
228.041	3.49
228.425	6.3
228.809	0.31
229.193	5.74
229.577	4.59
229.961	4.59
230.344	4.73
230.728	3.46
231.112	3.47
231.495	3.81
231.879	3.43
232.263	3.2
232.646	4.52
233.03	3.86
233.413	3.99
233.797	6.57
234.18	4.82
234.563	3.09
234.946	3.36
235.33	6.08
235.713	5.06
236.096	4.5
236.479	5.08
236.862	2.26
237.245	4.11
237.628	4.28
238.011	2.15
238.394	4.75
238.777	3.4
239.16	3.19
239.543	6.2
239.925	3.29
240.308	3.65
240.691	5.11
241.073	5
241.456	4.75
241.838	5.93
242.221	4.72
242.603	3
242.986	3.79
243.368	4.48
243.75	4.26
244.133	3.82
244.515	3.59
244.897	3.67
245.279	3.78
245.661	3.83
246.043	4.22
246.425	5.08
246.807	3.61
247.189	4.45
247.571	3.8
247.953	3.32
248.335	4.03
248.717	4.03
249.098	3.51
249.48	3.82
249.862	4.07
250.243	3.79
250.625	3.92
251.006	3.51
251.388	3.7
251.769	3.94
252.151	5.32
252.532	3.88
252.913	4.06
253.295	4
253.676	4.21
254.057	3.81
254.438	3.9
254.819	3.19
255.2	3.29
255.581	3.24
255.962	3.67
256.343	4.08
256.724	4.65
257.105	4.77
257.486	3.62
257.867	4.44
258.247	2.59
258.628	4.97
259.009	4.75
259.389	4.51
259.77	4.27
260.15	4.05
260.531	3.88
260.911	3.27
261.292	3.36
261.672	3.64
262.052	3.39
262.432	3.69
262.813	3.89
263.193	3.64
263.573	4.23
263.953	3.69
264.333	3.16
264.713	3.92
265.093	3.75
265.473	4.21
265.853	3.9
266.233	3.57
266.612	4.91
266.992	4.6
267.372	4.58
267.752	4.61
268.131	4.03
268.511	3.47
268.89	3.69
269.27	3.7
269.649	3.78
270.029	4.3
270.408	3.99
270.787	3.59
271.167	3.18
271.546	3.57
271.925	3.2
272.304	3.46
272.683	3.25
273.062	2.95
273.441	3.48
273.82	3.55
274.199	3.48
274.578	3.24
274.957	3.69
275.336	3.77
275.715	3.62
276.093	3.89
276.472	3.5
276.851	3.79
277.229	3.65
277.608	3.08
277.986	3.98
278.365	2.98
278.743	4.13
279.122	3.58
279.5	4.06
279.878	3.59
280.257	2.81
280.635	3.75
281.013	3.42
281.391	3.96
281.769	3.19
282.147	3.78
282.525	3.04
282.903	3.83
283.281	3.3
283.659	2.83
284.037	3.06
284.415	3.54
284.792	3.74
285.17	3.51
285.548	4.07
285.925	3.43
286.303	3.92
286.68	3.08
287.058	3.52
287.435	4
287.813	3.83
288.19	3.51
288.567	3.22
288.945	3.22
289.322	3.6
289.699	3.5
290.076	3.42
290.453	3.87
290.83	4.06
291.207	3.88
291.584	3.64
291.961	3.68
292.338	3.98
292.715	4.3
293.092	4.06
293.469	3.92
293.845	3.72
294.222	4.12
294.599	3.84
294.975	3.39
295.352	4.06
295.728	3.92
296.105	3.76
296.481	4.08
296.858	3.7
297.234	4.23
297.61	4.28
297.986	4.54
298.363	3.92
298.739	3.76
299.115	3.8
299.491	4.13
299.867	4.01
300.243	4.3
300.619	4.14
300.995	3.33
301.371	4.47
301.746	3.71
302.122	4.2
302.498	4.44
302.874	4.51
303.249	4.61
303.625	3.99
304	4.21
304.376	4.48
304.751	4.27
305.127	4.48
305.502	4.82
305.878	4.35
306.253	4.84
306.628	4.85
307.003	4.43
307.378	4.65
307.754	4.72
308.129	4.6
308.504	4.28
308.879	3.69
309.254	5.01
309.629	5.09
310.003	5.03
310.378	4.56
310.753	4.73
311.128	4.52
311.502	4.25
311.877	4.65
312.252	4.49
312.626	4.71
313.001	4.34
313.375	4.2
313.75	4.29
314.124	4.76
314.498	4.13
314.873	4.5
315.247	4.62
315.621	5.14
315.995	4.98
316.369	4.39
316.743	4.95
317.117	4.92
317.491	5.34
317.865	4.86
318.239	4.68
318.613	4.55
318.987	4.7
319.361	5.15
319.734	4.87
320.108	5.33
320.482	4.8
320.855	4.76
321.229	4.48
321.602	4.66
321.976	5.3
322.349	5.13
322.723	4.48
323.096	4.8
323.469	5.46
323.843	5.11
324.216	5.17
324.589	5.36
324.962	4.35
325.335	4.96
325.708	5.01
326.081	5.21
326.454	5.1
326.827	5.06
327.2	4.74
327.573	4.77
327.945	5.06
328.318	4.72
328.691	4.72
329.063	5.03
329.436	4.84
329.809	4.87
330.181	4.82
330.553	5.18
330.926	4.86
331.298	4.95
331.671	5.1
332.043	5.3
332.415	5.44
332.787	5.45
333.159	4.76
333.532	4.89
333.904	5.32
334.276	5.25
334.648	5.23
335.02	5.19
335.391	4.88
335.763	5.27
336.135	5.17
336.507	5.42
336.879	6.05
337.25	5.04
337.622	5.21
337.993	5.33
338.365	4.85
338.736	5.22
339.108	5.37
339.479	5.06
339.851	4.83
340.222	5.36
340.593	4.74
340.964	5.84
341.336	5.36
341.707	5.35
342.078	5.34
342.449	5.02
342.82	5.41
343.191	5.08
343.562	5.33
343.933	5.22
344.303	4.74
344.674	5.31
345.045	5.53
345.416	5.1
345.786	5.48
346.157	5.08
346.527	5.14
346.898	5.41
347.268	5.47
347.639	5.26
348.009	5.48
348.38	4.76
348.75	4.9
349.12	5.5
349.49	5.64
349.861	5.1
350.231	5.15
350.601	5.31
350.971	5.35
351.341	4.88
351.711	5.21
352.081	4.97
352.45	5.31
352.82	5.17
353.19	5.09
353.56	5.09
353.929	5.03
354.299	5.73
354.669	5.45
355.038	4.96
355.408	4.9
355.777	5.02
356.147	5.47
356.516	5.46
356.885	5.47
357.254	5.38
357.624	5.63
357.993	5.39
358.362	5.36
358.731	5.38
359.1	5.15
359.469	5.16
359.838	5.34
360.207	5.31
360.576	5.08
360.945	5.42
361.314	5.52
361.682	5.24
362.051	5.15
362.42	5.34
362.788	4.95
363.157	5.42
363.525	5.27
363.894	5.23
364.262	5.28
364.631	5.31
364.999	5.35
365.367	5.23
365.735	5.41
366.104	5.15
366.472	5.22
366.84	4.9
367.208	5.27
367.576	5.6
367.944	5.64
368.312	5.44
368.68	5.33
369.048	5.37
369.416	4.87
369.783	5.64
370.151	5.6
370.519	5.73
370.886	5.25
371.254	5.73
371.621	5.24
371.989	5.6
372.356	5.52
372.724	6.17
373.091	5.97
373.458	5.48
373.826	5.36
374.193	5.38
374.56	5.81
374.927	5.62
375.294	5.69
375.661	5.42
376.028	5.71
376.395	5.71
376.762	5.71
377.129	5.92
377.496	5.5
377.863	5.98
378.229	5.54
378.596	5.94
378.963	5.75
379.329	5.31
379.696	5.64
380.062	5.42
380.429	5.45
380.795	5.8
381.161	5.43
381.528	5.55
381.894	5.79
382.26	5.78
382.626	5.47
382.993	5.9
383.359	5.8
383.725	5.4
384.091	5.63
384.457	5.36
384.823	5.96
385.188	5.65
385.554	5.36
385.92	5.46
386.286	5.59
386.651	5.84
387.017	5.86
387.383	5.5
387.748	5.65
388.114	5.55
388.479	5.55
388.845	6.03
389.21	5.45
389.575	5.84
389.94	5.71
390.306	5.77
390.671	5.77
391.036	5.79
391.401	6
391.766	5.74
392.131	5.94
392.496	6.11
392.861	5.88
393.226	5.94
393.591	5.82
393.956	5.68
394.32	5.83
394.685	5.76
395.05	5.86
395.414	6.03
395.779	5.81
396.143	5.61
396.508	5.51
396.872	5.66
397.236	5.7
397.601	5.67
397.965	5.73
398.329	5.93
398.694	5.82
399.058	5.87
399.422	6.01
399.786	6.07
400.15	5.56
400.514	6.08
400.878	5.97
401.242	5.89
401.605	5.88
401.969	5.78
402.333	5.65
402.697	5.86
403.06	5.82
403.424	5.95
403.787	6.13
404.151	5.74
404.514	5.7
404.878	6.34
405.241	5.92
405.604	5.87
405.968	5.83
406.331	5.75
406.694	5.75
407.057	5.77
407.42	6.06
407.783	5.92
408.146	5.89
408.509	5.83
408.872	6.04
409.235	5.95
409.598	5.91
409.961	6.25
410.323	6.19
410.686	6.07
411.049	5.98
411.411	5.84
411.774	6.08
412.136	6.04
412.499	6.45
412.861	5.98
413.223	5.79
413.586	5.88
413.948	5.95
414.31	6.13
414.672	5.58
415.035	6.04
415.397	5.73
415.759	6.01
416.121	5.85
416.483	5.95
416.845	5.94
417.206	5.88
417.568	5.87
417.93	6.13
418.292	5.97
418.653	5.85
419.015	5.92
419.377	6.1
419.738	5.97
420.1	6.08
420.461	5.96
420.822	5.88
421.184	5.91
421.545	5.82
421.906	5.94
422.267	6.07
422.629	5.86
422.99	5.9
423.351	5.8
423.712	5.91
424.073	5.97
424.434	6
424.795	6.04
425.155	5.97
425.516	5.94
425.877	5.9
426.238	5.93
426.598	5.95
426.959	6.01
427.32	6.11
427.68	6.05
428.041	5.92
428.401	6.09
428.761	6.07
429.122	6.23
429.482	6.11
429.842	6.13
430.202	6.11
430.563	6.17
430.923	6.15
431.283	6.09
431.643	6.24
432.003	6.36
432.363	6.14
432.722	6.22
433.082	6.27
433.442	6.43
433.802	6.03
434.161	6.38
434.521	6.2
434.881	6.27
435.24	6.17
435.6	6.15
435.959	6.29
436.319	6.17
436.678	6.2
437.037	6.43
437.396	6.36
437.756	6.38
438.115	6.38
438.474	6.43
438.833	6.22
439.192	6.3
439.551	6.45
439.91	6.54
440.269	6.42
440.628	6.24
440.987	6.49
441.345	6.26
441.704	6.27
442.063	6.28
442.421	6.3
442.78	6.29
443.138	6.24
443.497	6.38
443.855	6.28
444.214	6.48
444.572	6.28
444.93	6.53
445.288	6.43
445.647	6.56
446.005	6.3
446.363	6.32
446.721	6.42
447.079	6.2
447.437	6.27
447.795	6.24
448.153	6.38
448.51	6.35
448.868	6.27
449.226	6.23
449.584	6.41
449.941	6.47
450.299	6.52
450.656	6.48
451.014	6.52
451.371	6.38
451.729	6.51
452.086	6.59
452.443	6.76
452.801	6.56
453.158	6.58
453.515	6.52
453.872	6.54
454.229	6.52
454.586	6.66
454.943	6.52
455.3	6.53
455.657	6.54
456.014	6.52
456.371	6.69
456.727	6.53
457.084	6.62
457.441	6.9
457.797	6.71
458.154	6.62
458.51	6.81
458.867	6.44
459.223	6.57
459.58	6.67
459.936	6.64
460.292	6.49
460.648	6.6
461.005	6.51
461.361	6.6
461.717	6.49
462.073	6.41
462.429	6.55
462.785	6.42
463.141	6.65
463.496	6.8
463.852	6.6
464.208	6.67
464.564	6.64
464.919	6.75
465.275	6.7
465.631	6.47
465.986	6.73
466.342	6.81
466.697	6.69
467.052	6.57
467.408	6.71
467.763	6.74
468.118	6.61
468.473	6.79
468.829	6.81
469.184	6.99
469.539	6.8
469.894	6.71
470.249	6.69
470.603	6.75
470.958	6.97
471.313	6.76
471.668	6.93
472.023	7.03
472.377	6.83
472.732	6.85
473.086	7.07
473.441	6.91
473.795	6.98
474.15	6.95
474.504	6.79
474.859	6.89
475.213	6.89
475.567	6.97
475.921	6.89
476.275	6.93
476.63	7
476.984	6.92
477.338	6.79
477.692	6.98
478.045	6.89
478.399	6.86
478.753	6.65
479.107	6.79
479.461	7.12
479.814	6.9
480.168	7.06
480.521	7.1
480.875	7
481.228	6.83
481.582	7.15
481.935	7.11
482.289	7.04
482.642	7.01
482.995	7.01
483.348	6.9
483.701	6.99
484.055	7
484.408	7.01
484.761	6.93
485.114	6.87
485.466	6.67
485.819	6.56
486.172	6.62
486.525	6.65
486.878	6.75
487.23	6.86
487.583	6.91
487.936	6.88
488.288	6.93
488.641	6.88
488.993	6.78
489.345	6.84
489.698	6.79
490.05	6.81
490.402	6.8
490.754	6.92
491.107	7.03
491.459	7.09
491.811	7.13
492.163	7.17
492.515	7.19
492.866	7.07
493.218	6.96
493.57	6.89
493.922	6.86
494.274	6.99
494.625	7.12
494.977	7.16
495.328	7.25
495.68	7.31
496.031	7.28
496.383	7.3
496.734	7.33
497.086	7.42
497.437	7.47
497.788	7.37
498.139	7.38
498.49	7.45
498.842	7.38
499.193	7.31
499.544	7.25
499.894	7.26
500.245	7.38
500.596	7.37
500.947	7.41
501.298	7.43
501.648	7.46
501.999	7.43
502.35	7.55
502.7	7.52
503.051	7.47
503.401	7.57
503.752	7.56
504.102	7.51
504.452	7.56
504.803	7.67
505.153	7.62
505.503	7.7
505.853	7.73
506.203	7.45
506.553	7.7
506.903	7.45
507.253	7.64
507.603	7.54
507.953	7.71
508.303	7.49
508.652	7.72
509.002	7.59
509.352	7.85
509.701	7.72
510.051	7.75
510.4	7.68
510.75	7.61
511.099	7.7
511.449	7.85
511.798	7.7
512.147	7.81
512.496	7.7
512.846	7.83
513.195	7.87
513.544	7.84
513.893	7.71
514.242	7.88
514.591	7.73
514.939	7.73
515.288	7.85
515.637	7.82
515.986	7.77
516.334	7.94
516.683	7.99
517.032	8.09
517.38	8.02
517.729	8.06
518.077	8.11
518.426	8.08
518.774	7.98
519.122	8.07
519.47	7.96
519.819	7.88
520.167	7.93
520.515	7.83
520.863	7.91
521.211	7.97
521.559	8.03
521.907	8
522.255	7.96
522.602	8.03
522.95	8.24
523.298	8.22
523.645	8.26
523.993	8.27
524.341	8.27
524.688	8.23
525.036	8.28
525.383	8.3
525.73	8.38
526.078	8.34
526.425	8.28
526.772	8.36
527.119	8.25
527.466	8.18
527.814	8.22
528.161	8.24
528.508	8.2
528.854	8.2
529.201	8.2
529.548	8.22
529.895	8.2
530.242	8.07
530.588	7.98
530.935	8
531.282	8.13
531.628	8.17
531.975	8.28
532.321	8.35
532.667	8.43
533.014	8.41
533.36	8.49
533.706	8.55
534.052	8.45
534.399	8.48
534.745	8.5
535.091	8.37
535.437	8.37
535.783	8.43
536.129	8.53
536.474	8.63
536.82	8.66
537.166	8.8
537.512	8.71
537.857	8.72
538.203	8.7
538.549	8.82
538.894	8.73
539.239	8.81
539.585	8.89
539.93	8.81
540.276	9
540.621	8.94
540.966	9
541.311	9
541.656	9.08
542.001	9.04
542.346	9
542.691	8.95
543.036	8.8
543.381	8.7
543.726	8.75
544.071	8.86
544.415	8.89
544.76	9
545.105	8.99
545.449	9.02
545.794	9.13
546.138	9.26
546.483	9.25
546.827	9.32
547.171	9.35
547.516	9.3
547.86	9.38
548.204	9.4
548.548	9.21
548.892	9.38
549.236	9.22
549.58	9.52
549.924	9.58
550.268	9.45
550.612	9.41
550.956	9.56
551.3	9.68
551.643	9.78
551.987	9.78
552.33	9.85
552.674	9.85
553.017	9.8
553.361	9.8
553.704	9.68
554.048	9.84
554.391	9.85
554.734	9.76
555.077	9.91
555.42	9.92
555.764	9.87
556.107	10.12
556.45	10.02
556.793	10.11
557.135	10.1
557.478	10.18
557.821	10.09
558.164	10.05
558.507	10.17
558.849	10.18
559.192	10.02
559.534	10.29
559.877	10.31
560.219	10.3
560.562	10.18
560.904	10.3
561.246	10.52
561.589	10.43
561.931	10.51
562.273	10.35
562.615	10.61
562.957	10.62
563.299	10.79
563.641	10.47
563.983	10.78
564.325	10.69
564.667	10.68
565.008	10.75
565.35	11.01
565.692	10.6
566.033	10.83
566.375	10.8
566.716	10.8
567.058	10.92
567.399	10.75
567.741	10.86
568.082	10.63
568.423	10.85
568.764	10.82
569.105	11.1
569.447	11.15
569.788	10.99
570.129	11.16
570.47	10.9
570.811	11.08
571.151	11.09
571.492	11.1
571.833	11.06
572.174	11.41
572.514	11.11
572.855	11.09
573.195	11.41
573.536	11.3
573.876	11.36
574.217	11.36
574.557	11.32
574.898	11.27
575.238	11.41
575.578	11.62
575.918	11.44
576.258	11.54
576.598	11.54
576.938	11.59
577.278	11.49
577.618	11.59
577.958	11.67
578.298	11.9
578.638	11.85
578.977	11.86
579.317	11.88
579.657	11.76
579.996	11.89
580.336	12.01
580.675	12.14
581.014	12.03
581.354	12.22
581.693	12.29
582.032	11.99
582.372	12.13
582.711	12.09
583.05	12.21
583.389	12.32
583.728	12.27
584.067	12.12
584.406	12.15
584.745	12.36
585.083	12.45
585.422	12.58
585.761	12.56
586.1	12.56
586.438	12.38
586.777	12.71
587.115	12.54
587.454	12.48
587.792	12.48
588.13	12.87
588.469	12.62
588.807	12.87
589.145	13.06
589.483	13.03
589.821	12.38
590.159	12.81
590.497	12.68
590.835	13.18
591.173	13.08
591.511	13.12
591.849	13.06
592.187	13.04
592.524	12.95
592.862	13.01
593.2	13.08
593.537	12.95
593.875	13.32
594.212	13.33
594.55	13.22
594.887	13.35
595.224	13.52
595.561	13.19
595.899	13.13
596.236	13.31
596.573	13.3
596.91	13.38
597.247	13.33
597.584	13.36
597.921	13.38
598.258	13.64
598.594	13.49
598.931	13.69
599.268	13.57
599.604	13.55
599.941	13.66
600.277	13.62
600.614	13.76
600.95	13.73
601.287	13.76
601.623	14.01
601.959	14.11
602.296	14.11
602.632	14.23
602.968	14.02
603.304	14.1
603.64	14.21
603.976	14.1
604.312	14.09
604.648	14.14
604.984	14.4
605.319	14.1
605.655	13.95
605.991	14.26
606.326	14.31
606.662	14.2
606.998	14.11
607.333	14.28
607.668	14.46
608.004	14.38
608.339	14.4
608.674	14.7
609.01	14.51
609.345	14.54
609.68	15.01
610.015	14.66
610.35	14.99
610.685	14.47
611.02	14.75
611.355	14.85
611.689	14.85
612.024	14.71
612.359	14.81
612.694	14.91
613.028	14.93
613.363	14.8
613.697	15.17
614.032	15.21
614.366	15.16
614.7	14.93
615.035	15.43
615.369	15.55
615.703	15.48
616.037	15.23
616.371	15.36
616.705	15.77
617.039	15.88
617.373	15.47
617.707	15.87
618.041	16.08
618.375	15.73
618.709	15.42
619.042	15.46
619.376	15.88
619.71	15.52
620.043	15.67
620.377	15.94
620.71	16.08
621.043	16.1
621.377	15.75
621.71	16.1
622.043	15.62
622.376	15.97
622.709	16.19
623.043	16.31
623.376	15.96
623.709	16.14
624.041	16.15
624.374	16.1
624.707	16.59
625.04	16.38
625.373	16.49
625.705	16.48
626.038	16.34
626.37	16.61
626.703	16.77
627.035	16.09
627.368	16.93
627.7	16.42
628.032	16.19
628.365	16.61
628.697	16.7
629.029	16.62
629.361	16.5
629.693	16.92
630.025	16.77
630.357	16.33
630.689	16.68
631.021	16.61
631.353	16.44
631.684	17.02
632.016	17.07
632.348	17.16
632.679	17.18
633.011	17.16
633.342	17.12
633.674	17.34
634.005	17.24
634.336	17.36
634.668	17.33
634.999	17.38
635.33	17.07
635.661	17.45
635.992	17.46
636.323	17.18
636.654	17.47
636.985	17.46
637.316	17.72
637.647	17.81
637.977	17.69
638.308	17.79
638.639	17.35
638.969	17.4
639.3	17.58
639.63	17.88
639.961	17.75
640.291	18.21
640.622	17.21
640.952	18.16
641.282	17.99
641.612	18.15
641.943	18.17
642.273	18.19
642.603	18.06
642.933	18.32
643.263	18.35
643.592	17.95
643.922	18.13
644.252	17.8
644.582	18.24
644.911	18.46
645.241	17.98
645.571	18.4
645.9	18.07
646.23	18.55
646.559	18.59
646.888	18.66
647.218	18.72
647.547	18.44
647.876	18.81
648.205	18.31
648.534	18.42
648.863	18.48
649.192	18.5
649.521	19.07
649.85	18.59
650.179	18.81
650.508	18.92
650.837	18.51
651.165	19.33
651.494	18.94
651.822	18.66
652.151	18.98
652.479	18.54
652.808	19.15
653.136	19.3
653.465	19
653.793	19.03
654.121	19.76
654.449	19.27
654.777	19.38
655.105	19.07
655.433	19.56
655.761	19.41
656.089	19.19
656.417	19.19
656.745	19.77
657.073	19.72
657.4	19.84
657.728	19.65
658.056	20.07
658.383	19.25
658.711	19.55
659.038	19.79
659.365	19.92
659.693	20.17
660.02	20
660.347	19.36
660.674	19.48
661.001	19.32
661.329	19.52
661.656	19.89
661.982	19.81
662.309	20.29
662.636	19.79
662.963	20.33
663.29	19.5
663.616	19.61
663.943	19.7
664.27	20.2
664.596	20.93
664.923	20.33
665.249	20.25
665.576	19.77
665.902	20.63
666.228	20.23
666.554	20.8
666.881	20.57
667.207	21.09
667.533	20.36
667.859	20.62
668.185	20.6
668.511	20.48
668.837	20.48
669.162	20.62
669.488	20.74
669.814	20.5
670.139	19.76
670.465	20.8
670.791	21.12
671.116	20.94
671.442	21.06
671.767	21.55
672.092	20.73
672.418	19.99
672.743	20.86
673.068	20.44
673.393	21.35
673.718	20.74
674.043	21.14
674.368	20.84
674.693	21.59
675.018	21.64
675.343	20.88
675.667	21.01
675.992	21.14
676.317	20.81
676.641	21.45
676.966	21.46
677.29	21.47
677.615	21.52
677.939	21.02
678.264	20.75
678.588	21.41
678.912	21.82
679.236	21.27
679.56	22.06
679.885	21.65
680.209	21.42
680.532	22.18
680.856	21.65
681.18	21.54
681.504	21.24
681.828	21.54
682.152	21.91
682.475	22.13
682.799	22.59
683.122	21.56
683.446	21.75
683.769	21.85
684.093	21.97
684.416	22.05
