Data from 0361_crown_Reflection__2__08.txt Node

Date: Mon Dec 11 17:38:45 CST 2023
User: ToomeyLab
Spectrometer: FLMS14357
Trigger mode: 0
Integration Time (sec): 1.000000E-2
Scans to average: 100
Electric dark correction enabled: true
Nonlinearity correction enabled: false
Boxcar width: 0
XAxis mode: Wavelengths
Number of Pixels in Spectrum: 2048
>>>>>Begin Spectral Data<<<<<
189.047	-350.79
189.435	-350.79
189.823	-350.79
190.211	87.86
190.599	518.67
190.987	107.46
191.375	129.73
191.763	209.01
192.151	90.32
192.538	115.54
192.926	20.76
193.314	283.73
193.702	-127.4
194.089	-217.79
194.477	74.23
194.864	79.12
195.252	32.8
195.639	1298.39
196.027	436.01
196.414	37950
196.801	68.86
197.189	-155.6
197.576	47.29
197.963	16.79
198.351	-9.35
198.738	-11.96
199.125	-71.69
199.512	-10.51
199.899	14.75
200.286	3.66
200.673	-47.58
201.06	30.16
201.447	8.85
201.833	2.84
202.22	26.46
202.607	-19.96
202.994	-69.94
203.38	-35.63
203.767	45.96
204.154	44.01
204.54	-31.7
204.927	-31.58
205.313	1.4
205.699	-15.06
206.086	32.52
206.472	2.83
206.858	10.65
207.245	-6.22
207.631	13.33
208.017	13.05
208.403	11.36
208.789	-6.01
209.175	15.29
209.561	-0.94
209.947	0.08
210.333	37.36
210.719	29.79
211.105	18.69
211.491	15.36
211.876	15.96
212.262	-9.85
212.648	25.97
213.034	-1.9
213.419	5.15
213.805	-6.39
214.19	-4.64
214.576	-14.3
214.961	0.3
215.346	29.84
215.732	16.64
216.117	4.2
216.502	21.74
216.888	17.55
217.273	19.58
217.658	14.88
218.043	13.46
218.428	15.19
218.813	18.7
219.198	3.28
219.583	-9.33
219.968	-15.71
220.353	-8.04
220.738	43.11
221.122	14.16
221.507	27.43
221.892	16.94
222.276	11.88
222.661	-3.79
223.046	-1.23
223.43	17.9
223.815	0.5
224.199	14.66
224.583	-1.47
224.968	3.92
225.352	8.58
225.736	8.73
226.121	8.17
226.505	8.23
226.889	10.88
227.273	2.22
227.657	18.4
228.041	7.38
228.425	3.6
228.809	2.74
229.193	8.78
229.577	8.01
229.961	7.24
230.344	7.81
230.728	8.09
231.112	7.35
231.495	8.32
231.879	7.73
232.263	6.97
232.646	7.44
233.03	7.55
233.413	7.63
233.797	8.83
234.18	7.64
234.563	7.49
234.946	7.69
235.33	9.17
235.713	7.17
236.096	8.96
236.479	8.48
236.862	7.4
237.245	7.97
237.628	7.75
238.011	8.1
238.394	7.93
238.777	7.54
239.16	6.39
239.543	8.73
239.925	5.9
240.308	6.77
240.691	6.86
241.073	7.48
241.456	7.95
241.838	9.34
242.221	7.03
242.603	7.35
242.986	7.09
243.368	6.82
243.75	7.51
244.133	6.92
244.515	6.86
244.897	7.05
245.279	7.14
245.661	7.31
246.043	7.11
246.425	8.31
246.807	7.5
247.189	7.18
247.571	6.63
247.953	6.86
248.335	6.91
248.717	6.78
249.098	6.78
249.48	6.56
249.862	7.1
250.243	7.02
250.625	7.14
251.006	6.39
251.388	6.59
251.769	7.28
252.151	8.12
252.532	5.79
252.913	6.75
253.295	7.55
253.676	6.53
254.057	6.17
254.438	6.91
254.819	5.6
255.2	5.65
255.581	5.43
255.962	7.44
256.343	7.62
256.724	5.82
257.105	7.26
257.486	7.26
257.867	7.25
258.247	5.01
258.628	6.29
259.009	7.58
259.389	7.01
259.77	6.27
260.15	5.95
260.531	6.1
260.911	5.72
261.292	5.76
261.672	6
262.052	6.17
262.432	6.24
262.813	6.41
263.193	5.97
263.573	6.27
263.953	5.85
264.333	5.55
264.713	6.88
265.093	6.77
265.473	6.46
265.853	6.23
266.233	5.24
266.612	6.69
266.992	6.59
267.372	7.1
267.752	6.79
268.131	5.69
268.511	5.62
268.89	6.01
269.27	6.01
269.649	6.1
270.029	6.19
270.408	5.72
270.787	5.73
271.167	5.04
271.546	5.58
271.925	5.61
272.304	6.46
272.683	5.96
273.062	5.12
273.441	5.11
273.82	5.22
274.199	5.19
274.578	5.76
274.957	5.46
275.336	5.65
275.715	5.23
276.093	6.07
276.472	5.63
276.851	6.09
277.229	5.52
277.608	5.17
277.986	5.81
278.365	5.58
278.743	5.39
279.122	5.12
279.5	5.71
279.878	5.39
280.257	5.1
280.635	5.4
281.013	5.11
281.391	5.39
281.769	4.75
282.147	5.4
282.525	5.14
282.903	5.39
283.281	5.06
283.659	4.52
284.037	5.07
284.415	4.99
284.792	5.45
285.17	5.71
285.548	4.93
285.925	4.79
286.303	5.63
286.68	5.22
287.058	5.35
287.435	5.1
287.813	5.07
288.19	4.87
288.567	5.03
288.945	5.08
289.322	4.99
289.699	4.55
290.076	4.44
290.453	5.21
290.83	5.45
291.207	5.33
291.584	5.2
291.961	5.1
292.338	4.84
292.715	5.16
293.092	4.79
293.469	4.79
293.845	5.06
294.222	5.21
294.599	4.93
294.975	4.13
295.352	4.91
295.728	4.64
296.105	4.41
296.481	4.85
296.858	4.52
297.234	4.6
297.61	5.11
297.986	5.1
298.363	4.86
298.739	4.32
299.115	4.52
299.491	4.86
299.867	4.73
300.243	4.84
300.619	4.5
300.995	4.52
301.371	3.91
301.746	4.33
302.122	4.23
302.498	5.04
302.874	4.86
303.249	4.33
303.625	5.12
304	4.55
304.376	4.7
304.751	4.68
305.127	4.72
305.502	4.76
305.878	4.69
306.253	5.08
306.628	4.56
307.003	4.7
307.378	4.72
307.754	4.69
308.129	4.73
308.504	4
308.879	4.03
309.254	4.81
309.629	4.73
310.003	4.43
310.378	4.35
310.753	4.87
311.128	4.67
311.502	4.28
311.877	4.39
312.252	4.64
312.626	4.35
313.001	4.49
313.375	3.74
313.75	4.29
314.124	3.94
314.498	4.07
314.873	4.23
315.247	4.4
315.621	4.47
315.995	4.41
316.369	4.49
316.743	3.99
317.117	4.8
317.491	4.65
317.865	4.01
318.239	4.56
318.613	4.5
318.987	4.09
319.361	4.2
319.734	4.27
320.108	4.41
320.482	4.23
320.855	4.38
321.229	4.42
321.602	4.09
321.976	4.85
322.349	4.47
322.723	4.27
323.096	4.47
323.469	4.81
323.843	5.04
324.216	4.15
324.589	4.97
324.962	4.2
325.335	4.21
325.708	4.6
326.081	4.82
326.454	4.43
326.827	4.59
327.2	3.97
327.573	4.24
327.945	4.86
328.318	4.2
328.691	4.5
329.063	3.96
329.436	4.23
329.809	4.52
330.181	4.82
330.553	4.18
330.926	4.41
331.298	4.64
331.671	4.2
332.043	4.41
332.415	4.04
332.787	4.32
333.159	4.42
333.532	4.13
333.904	4.51
334.276	4.37
334.648	3.92
335.02	4.08
335.391	4.15
335.763	4.77
336.135	4.63
336.507	4.5
336.879	4.58
337.25	4.51
337.622	3.86
337.993	4.44
338.365	3.98
338.736	4.37
339.108	4.56
339.479	4.38
339.851	4.16
340.222	4.3
340.593	4.08
340.964	4.79
341.336	4.69
341.707	3.87
342.078	4.56
342.449	4.15
342.82	3.82
343.191	4.12
343.562	4.25
343.933	4.57
344.303	3.96
344.674	4.05
345.045	4.41
345.416	4.12
345.786	4.53
346.157	4.34
346.527	4.58
346.898	4.53
347.268	4.31
347.639	4.23
348.009	4.68
348.38	3.74
348.75	4.38
349.12	4.58
349.49	4.14
349.861	4.13
350.231	4.2
350.601	4.67
350.971	4.62
351.341	3.97
351.711	3.99
352.081	4.02
352.45	4.48
352.82	3.65
353.19	4.84
353.56	4.44
353.929	3.98
354.299	4.46
354.669	4.44
355.038	4.76
355.408	4.2
355.777	4.59
356.147	4.5
356.516	4.35
356.885	4.42
357.254	4.71
357.624	4.31
357.993	3.98
358.362	4.5
358.731	4.39
359.1	4.61
359.469	4.3
359.838	4.66
360.207	4.21
360.576	4.36
360.945	4.51
361.314	4.67
361.682	4.4
362.051	4.77
362.42	4.19
362.788	4.14
363.157	4.29
363.525	4.32
363.894	4.43
364.262	4.48
364.631	4.61
364.999	4.67
365.367	4.72
365.735	4.72
366.104	4.55
366.472	4.6
366.84	4.41
367.208	4.15
367.576	4.57
367.944	4.6
368.312	4.3
368.68	4.82
369.048	4.64
369.416	4.35
369.783	4.55
370.151	4.94
370.519	5.1
370.886	4.62
371.254	4.65
371.621	4.88
371.989	4.85
372.356	4.46
372.724	5.01
373.091	4.99
373.458	4.41
373.826	4.54
374.193	4.71
374.56	4.63
374.927	4.77
375.294	4.99
375.661	4.51
376.028	5.01
376.395	4.95
376.762	4.95
377.129	5.04
377.496	4.45
377.863	4.84
378.229	4.62
378.596	5
378.963	5.06
379.329	4.61
379.696	4.91
380.062	4.6
380.429	4.91
380.795	4.87
381.161	4.69
381.528	5.03
381.894	5.21
382.26	4.71
382.626	4.87
382.993	5.03
383.359	4.96
383.725	4.31
384.091	4.93
384.457	4.55
384.823	5.18
385.188	4.7
385.554	4.65
385.92	4.95
386.286	4.96
386.651	5.2
387.017	4.95
387.383	5.21
387.748	5
388.114	4.86
388.479	4.9
388.845	4.96
389.21	5.01
389.575	5.05
389.94	5.07
390.306	5.01
390.671	4.99
391.036	4.86
391.401	5.05
391.766	4.94
392.131	5.18
392.496	5.11
392.861	5.17
393.226	4.97
393.591	5.26
393.956	4.95
394.32	4.99
394.685	4.87
395.05	5.1
395.414	5.36
395.779	5.17
396.143	4.81
396.508	4.98
396.872	5.06
397.236	5.05
397.601	5.12
397.965	5.19
398.329	4.96
398.694	4.95
399.058	5.11
399.422	5.09
399.786	5.29
400.15	5.08
400.514	5.17
400.878	5.14
401.242	5.33
401.605	5.18
401.969	4.88
402.333	5.13
402.697	5.24
403.06	5.14
403.424	5.44
403.787	5.5
404.151	5.16
404.514	5.23
404.878	5.26
405.241	5.28
405.604	5.01
405.968	5.21
406.331	4.94
406.694	5.27
407.057	5.2
407.42	5.36
407.783	5.15
408.146	5.41
408.509	5.05
408.872	5.25
409.235	5.05
409.598	5.37
409.961	5.13
410.323	5.42
410.686	5.31
411.049	5.18
411.411	5.42
411.774	5.56
412.136	5.34
412.499	5.59
412.861	5.39
413.223	5.37
413.586	5.61
413.948	5.47
414.31	5.53
414.672	5.12
415.035	5.23
415.397	5.23
415.759	5.24
416.121	5.37
416.483	5.42
416.845	5.32
417.206	5.28
417.568	5.35
417.93	5.5
418.292	5.2
418.653	5.16
419.015	5.15
419.377	5.37
419.738	5.2
420.1	5.36
420.461	5.19
420.822	5.16
421.184	5.14
421.545	5.22
421.906	5.11
422.267	5.29
422.629	5.11
422.99	5.19
423.351	5.07
423.712	5.07
424.073	5.23
424.434	5.16
424.795	5.33
425.155	5.35
425.516	5.16
425.877	5.17
426.238	5.25
426.598	5.21
426.959	5.3
427.32	5.35
427.68	5.31
428.041	5.09
428.401	5.29
428.761	5.39
429.122	5.46
429.482	5.57
429.842	5.43
430.202	5.32
430.563	5.37
430.923	5.43
431.283	5.49
431.643	5.58
432.003	5.62
432.363	5.65
432.722	5.53
433.082	5.5
433.442	5.57
433.802	5.37
434.161	5.64
434.521	5.4
434.881	5.36
435.24	5.32
435.6	5.37
435.959	5.32
436.319	5.37
436.678	5.33
437.037	5.42
437.396	5.49
437.756	5.5
438.115	5.62
438.474	5.53
438.833	5.3
439.192	5.38
439.551	5.5
439.91	5.31
440.269	5.52
440.628	5.38
440.987	5.61
441.345	5.29
441.704	5.46
442.063	5.37
442.421	5.39
442.78	5.41
443.138	5.4
443.497	5.35
443.855	5.37
444.214	5.52
444.572	5.47
444.93	5.66
445.288	5.53
445.647	5.71
446.005	5.39
446.363	5.45
446.721	5.33
447.079	5.31
447.437	5.41
447.795	5.29
448.153	5.38
448.51	5.38
448.868	5.31
449.226	5.31
449.584	5.53
449.941	5.49
450.299	5.5
450.656	5.51
451.014	5.61
451.371	5.39
451.729	5.66
452.086	5.58
452.443	5.77
452.801	5.64
453.158	5.67
453.515	5.48
453.872	5.49
454.229	5.58
454.586	5.53
454.943	5.63
455.3	5.6
455.657	5.72
456.014	5.66
456.371	5.61
456.727	5.61
457.084	5.49
457.441	5.67
457.797	5.73
458.154	5.57
458.51	5.7
458.867	5.38
459.223	5.7
459.58	5.62
459.936	5.63
460.292	5.5
460.648	5.64
461.005	5.66
461.361	5.46
461.717	5.35
462.073	5.39
462.429	5.46
462.785	5.51
463.141	5.43
463.496	5.69
463.852	5.62
464.208	5.63
464.564	5.67
464.919	5.62
465.275	5.57
465.631	5.4
465.986	5.65
466.342	5.89
466.697	5.65
467.052	5.61
467.408	5.73
467.763	5.76
468.118	5.62
468.473	5.52
468.829	5.58
469.184	5.79
469.539	5.75
469.894	5.55
470.249	5.59
470.603	5.63
470.958	5.69
471.313	5.68
471.668	5.8
472.023	5.88
472.377	5.7
472.732	5.65
473.086	5.83
473.441	5.75
473.795	5.6
474.15	5.6
474.504	5.62
474.859	5.69
475.213	5.74
475.567	5.68
475.921	5.61
476.275	5.6
476.63	5.69
476.984	5.59
477.338	5.61
477.692	5.83
478.045	5.65
478.399	5.56
478.753	5.52
479.107	5.61
479.461	5.67
479.814	5.57
480.168	5.52
480.521	5.76
480.875	5.65
481.228	5.61
481.582	5.64
481.935	5.69
482.289	5.72
482.642	5.48
482.995	5.66
483.348	5.58
483.701	5.46
484.055	5.64
484.408	5.49
484.761	5.51
485.114	5.44
485.466	5.27
485.819	5.17
486.172	5.22
486.525	5.29
486.878	5.42
487.23	5.43
487.583	5.49
487.936	5.54
488.288	5.54
488.641	5.41
488.993	5.36
489.345	5.36
489.698	5.27
490.05	5.33
490.402	5.3
490.754	5.42
491.107	5.5
491.459	5.58
491.811	5.58
492.163	5.61
492.515	5.6
492.866	5.58
493.218	5.33
493.57	5.33
493.922	5.37
494.274	5.46
494.625	5.59
494.977	5.66
495.328	5.58
495.68	5.81
496.031	5.6
496.383	5.62
496.734	5.65
497.086	5.64
497.437	5.8
497.788	5.68
498.139	5.65
498.49	5.63
498.842	5.59
499.193	5.57
499.544	5.54
499.894	5.64
500.245	5.62
500.596	5.58
500.947	5.58
501.298	5.64
501.648	5.69
501.999	5.72
502.35	5.63
502.7	5.7
503.051	5.67
503.401	5.73
503.752	5.64
504.102	5.63
504.452	5.61
504.803	5.71
505.153	5.78
505.503	5.86
505.853	5.71
506.203	5.57
506.553	5.69
506.903	5.65
507.253	5.76
507.603	5.55
507.953	5.71
508.303	5.63
508.652	5.67
509.002	5.64
509.352	5.75
509.701	5.55
510.051	5.52
510.4	5.5
510.75	5.62
511.099	5.52
511.449	5.72
511.798	5.63
512.147	5.67
512.496	5.61
512.846	5.73
513.195	5.65
513.544	5.68
513.893	5.6
514.242	5.62
514.591	5.57
514.939	5.49
515.288	5.63
515.637	5.54
515.986	5.54
516.334	5.65
516.683	5.7
517.032	5.7
517.38	5.68
517.729	5.59
518.077	5.68
518.426	5.74
518.774	5.66
519.122	5.61
519.47	5.62
519.819	5.55
520.167	5.51
520.515	5.46
520.863	5.47
521.211	5.56
521.559	5.56
521.907	5.53
522.255	5.48
522.602	5.55
522.95	5.62
523.298	5.6
523.645	5.79
523.993	5.6
524.341	5.72
524.688	5.63
525.036	5.56
525.383	5.63
525.73	5.68
526.078	5.72
526.425	5.55
526.772	5.51
527.119	5.59
527.466	5.51
527.814	5.41
528.161	5.43
528.508	5.51
528.854	5.46
529.201	5.46
529.548	5.44
529.895	5.29
530.242	5.27
530.588	5.19
530.935	5.2
531.282	5.34
531.628	5.32
531.975	5.35
532.321	5.42
532.667	5.44
533.014	5.45
533.36	5.43
533.706	5.56
534.052	5.45
534.399	5.41
534.745	5.41
535.091	5.27
535.437	5.23
535.783	5.36
536.129	5.47
536.474	5.47
536.82	5.51
537.166	5.41
537.512	5.42
537.857	5.48
538.203	5.36
538.549	5.5
538.894	5.5
539.239	5.47
539.585	5.46
539.93	5.48
540.276	5.57
540.621	5.52
540.966	5.63
541.311	5.57
541.656	5.52
542.001	5.51
542.346	5.47
542.691	5.32
543.036	5.26
543.381	5.14
543.726	5.23
544.071	5.31
544.415	5.26
544.76	5.37
545.105	5.36
545.449	5.23
545.794	5.34
546.138	5.37
546.483	5.39
546.827	5.56
547.171	5.39
547.516	5.35
547.86	5.42
548.204	5.41
548.548	5.36
548.892	5.45
549.236	5.34
549.58	5.53
549.924	5.47
550.268	5.37
550.612	5.36
550.956	5.36
551.3	5.51
551.643	5.64
551.987	5.73
552.33	5.48
552.674	5.62
553.017	5.53
553.361	5.33
553.704	5.4
554.048	5.5
554.391	5.32
554.734	5.38
555.077	5.37
555.42	5.5
555.764	5.42
556.107	5.43
556.45	5.5
556.793	5.45
557.135	5.47
557.478	5.54
557.821	5.5
558.164	5.42
558.507	5.27
558.849	5.68
559.192	5.44
559.534	5.48
559.877	5.36
560.219	5.36
560.562	5.55
560.904	5.4
561.246	5.54
561.589	5.56
561.931	5.6
562.273	5.4
562.615	5.31
562.957	5.39
563.299	5.53
563.641	5.41
563.983	5.63
564.325	5.68
564.667	5.41
565.008	5.49
565.35	5.74
565.692	5.45
566.033	5.4
566.375	5.51
566.716	5.45
567.058	5.25
567.399	5.36
567.741	5.21
568.082	5.41
568.423	5.35
568.764	5.32
569.105	5.36
569.447	5.5
569.788	5.36
570.129	5.41
570.47	5.32
570.811	5.26
571.151	5.26
571.492	5.47
571.833	5.37
572.174	5.54
572.514	5.27
572.855	5.18
573.195	5.24
573.536	5.2
573.876	5.38
574.217	5.17
574.557	5.25
574.898	5.33
575.238	5.37
575.578	5.37
575.918	5.31
576.258	5.15
576.598	5.49
576.938	5.22
577.278	5.4
577.618	5.2
577.958	5.19
578.298	5.44
578.638	5.42
578.977	5.44
579.317	5.37
579.657	5.16
579.996	5.45
580.336	5.37
580.675	5.36
581.014	5.37
581.354	5.23
581.693	5.34
582.032	5.11
582.372	5.43
582.711	5.19
583.05	5.42
583.389	5.29
583.728	5.27
584.067	5.12
584.406	5.08
584.745	5.46
585.083	5.33
585.422	5.21
585.761	5.24
586.1	5.17
586.438	4.92
586.777	5.08
587.115	5.08
587.454	5.14
587.792	5.12
588.13	5.3
588.469	5.23
588.807	5.26
589.145	5.71
589.483	5.58
589.821	4.85
590.159	5.17
590.497	5.32
590.835	5.13
591.173	5.13
591.511	5.25
591.849	5.27
592.187	5.07
592.524	5.26
592.862	5.48
593.2	4.94
593.537	5.3
593.875	5.13
594.212	5.23
594.55	5
594.887	5.26
595.224	5.28
595.561	5.13
595.899	5.08
596.236	5.1
596.573	5.04
596.91	5.11
597.247	5.1
597.584	5.01
597.921	4.87
598.258	4.99
598.594	4.8
598.931	5.08
599.268	5.09
599.604	5.15
599.941	5.21
600.277	5.08
600.614	5.22
600.95	4.96
601.287	5.18
601.623	5.28
601.959	5.25
602.296	5.25
602.632	4.9
602.968	5.01
603.304	5.24
603.64	4.98
603.976	5.19
604.312	5.24
604.648	5.02
604.984	5.23
605.319	5.05
605.655	5.18
605.991	5.04
606.326	5.07
606.662	5
606.998	4.93
607.333	5.11
607.668	5.02
608.004	4.95
608.339	5.18
608.674	5.31
609.01	4.97
609.345	4.89
609.68	4.95
610.015	5.09
610.35	5.16
610.685	5.03
611.02	4.92
611.355	5.05
611.689	4.75
612.024	4.88
612.359	5.04
612.694	5.06
613.028	4.95
613.363	5.08
613.697	4.99
614.032	5.08
614.366	5.19
614.7	5.24
615.035	5.24
615.369	5.16
615.703	5.31
616.037	5.11
616.371	5.29
616.705	5.09
617.039	5.41
617.373	5.28
617.707	5.49
618.041	5.31
618.375	5.34
618.709	5.15
619.042	4.99
619.376	5.32
619.71	4.94
620.043	4.98
620.377	4.84
620.71	5.31
621.043	5.15
621.377	4.65
621.71	5.2
622.043	4.73
622.376	5.01
622.709	5.13
623.043	4.86
623.376	5.01
623.709	5.3
624.041	4.88
624.374	5.24
624.707	5.07
625.04	5.23
625.373	4.66
625.705	5.06
626.038	5.11
626.37	5.03
626.703	5.14
627.035	4.93
627.368	5.12
627.7	5.06
628.032	4.87
628.365	4.9
628.697	4.92
629.029	5.17
629.361	4.87
629.693	5.05
630.025	4.75
630.357	4.71
630.689	4.79
631.021	4.86
631.353	4.52
631.684	4.79
632.016	4.9
632.348	5.08
632.679	5.31
633.011	4.96
633.342	5.14
633.674	5.31
634.005	5.07
634.336	4.84
634.668	5.19
634.999	5.26
635.33	4.59
635.661	4.84
635.992	4.98
636.323	4.8
636.654	4.91
636.985	4.59
637.316	4.92
637.647	4.99
637.977	5.02
638.308	4.86
638.639	4.78
638.969	4.76
639.3	4.97
639.63	4.79
639.961	4.99
640.291	5.53
640.622	5.04
640.952	5.08
641.282	4.81
641.612	5.53
641.943	4.68
642.273	4.85
642.603	5.07
642.933	4.93
643.263	4.96
643.592	5.09
643.922	4.94
644.252	4.54
644.582	4.92
644.911	5.18
645.241	4.48
645.571	5.06
645.9	4.93
646.23	5.05
646.559	5.1
646.888	4.99
647.218	5.05
647.547	4.92
647.876	4.82
648.205	4.75
648.534	5.11
648.863	5.2
649.192	5.08
649.521	4.92
649.85	5.14
650.179	5.05
650.508	5.31
650.837	4.61
651.165	5.17
651.494	4.58
651.822	4.88
652.151	5.26
652.479	4.74
652.808	5.01
653.136	4.64
653.465	4.72
653.793	5.06
654.121	4.76
654.449	5.12
654.777	5.4
655.105	5.06
655.433	5.04
655.761	5.05
656.089	4.87
656.417	4.95
656.745	5.34
657.073	5.47
657.4	5.19
657.728	4.84
658.056	5.5
658.383	5.24
658.711	4.95
659.038	4.91
659.365	5.24
659.693	5.23
660.02	4.49
660.347	4.93
660.674	4.72
661.001	4.58
661.329	5.1
661.656	4.98
661.982	4.89
662.309	5
662.636	4.97
662.963	5.08
663.29	4.96
663.616	4.72
663.943	4.45
664.27	5.06
664.596	5.21
664.923	4.87
665.249	5.16
665.576	4.82
665.902	4.84
666.228	4.85
666.554	4.91
666.881	4.86
667.207	4.82
667.533	4.67
667.859	5.08
668.185	5.5
668.511	5.04
668.837	5.89
669.162	5.48
669.488	5.1
669.814	4.92
670.139	4.96
670.465	4.7
670.791	4.76
671.116	5.26
671.442	5.28
671.767	4.83
672.092	4.73
672.418	5.14
672.743	5.01
673.068	4.61
673.393	4.51
673.718	5
674.043	5.48
674.368	4.87
674.693	4.78
675.018	5.48
675.343	4.45
675.667	5.27
675.992	4.94
676.317	5.2
676.641	5.08
676.966	4.96
677.29	4.83
677.615	5.69
677.939	4.26
678.264	4.96
678.588	5.2
678.912	4.98
679.236	5.3
679.56	5.43
679.885	4.97
680.209	5.18
680.532	5.25
680.856	5.16
681.18	4.92
681.504	4.3
681.828	4.81
682.152	4.64
682.475	5.48
682.799	5.16
683.122	5.09
683.446	4.37
683.769	4.63
684.093	5.06
684.416	4.56
684.739	5.25
685.062	5.32
685.386	4.95
685.709	5.19
686.032	4.83
686.355	4.73
686.678	5.46
687.001	5.09
687.324	4.69
687.646	4.83
687.969	5.77
688.292	5.57
688.614	6.58
688.937	5.28
689.26	5.23
689.582	4.22
689.904	5.42
690.227	5.32
690.549	5.15
690.871	5.03
691.194	5.02
691.516	4.57
691.838	4.07
692.16	5.76
692.482	5.72
