Data from 0361_chest_Reflection__1__01.txt Node

Date: Mon Dec 11 17:34:42 CST 2023
User: ToomeyLab
Spectrometer: FLMS14357
Trigger mode: 0
Integration Time (sec): 1.000000E-2
Scans to average: 100
Electric dark correction enabled: true
Nonlinearity correction enabled: false
Boxcar width: 0
XAxis mode: Wavelengths
Number of Pixels in Spectrum: 2048
>>>>>Begin Spectral Data<<<<<
189.047	-9.83
189.435	-9.83
189.823	-9.83
190.211	124.02
190.599	938.25
190.987	-90.56
191.375	101.25
191.763	177.47
192.151	-39.23
192.538	73.63
192.926	6.87
193.314	-80.37
193.702	-6.95
194.089	93.91
194.477	96.49
194.864	281.43
195.252	-48.33
195.639	279.84
196.027	628.63
196.414	27691.67
196.801	70.4
197.189	884.2
197.576	168.82
197.963	44.78
198.351	0.45
198.738	-1.13
199.125	14.29
199.512	-12.53
199.899	10.74
200.286	70.31
200.673	-22.79
201.06	59.76
201.447	20.08
201.833	-0.52
202.22	42.84
202.607	22.24
202.994	14.49
203.38	-18.24
203.767	45.56
204.154	39.33
204.54	33.29
204.927	-19.39
205.313	22.61
205.699	-21.36
206.086	13.92
206.472	14.1
206.858	20.89
207.245	13.43
207.631	32.61
208.017	-9.89
208.403	17.2
208.789	20.82
209.175	27
209.561	14.1
209.947	6.07
210.333	39.32
210.719	31.44
211.105	6.75
211.491	8.19
211.876	21.17
212.262	-7.65
212.648	7.92
213.034	17.12
213.419	29.73
213.805	-17.77
214.19	-4.91
214.576	4.09
214.961	61.56
215.346	11.28
215.732	36.81
216.117	19.08
216.502	19.75
216.888	3.08
217.273	26.01
217.658	11.74
218.043	13.6
218.428	32.26
218.813	2.91
219.198	9.69
219.583	1.8
219.968	-0.46
220.353	12.27
220.738	29.13
221.122	22.24
221.507	24.25
221.892	17.98
222.276	6.58
222.661	2.14
223.046	6.47
223.43	0.51
223.815	0.35
224.199	13.07
224.583	11.1
224.968	15.23
225.352	15.44
225.736	14.66
226.121	6.13
226.505	5.73
226.889	12.64
227.273	7.54
227.657	14.14
228.041	6.8
228.425	2.73
228.809	2.51
229.193	4.27
229.577	7.13
229.961	5.96
230.344	5.35
230.728	5.09
231.112	4.36
231.495	4.75
231.879	5.19
232.263	3.72
232.646	5.77
233.03	4.69
233.413	5.54
233.797	6.89
234.18	5.43
234.563	5.57
234.946	7.2
235.33	7.12
235.713	4.26
236.096	7.03
236.479	5.99
236.862	5.02
237.245	4.81
237.628	6
238.011	6.57
238.394	5.31
238.777	3.02
239.16	5.11
239.543	6.31
239.925	6.8
240.308	5.8
240.691	6.3
241.073	4.74
241.456	6.62
241.838	7.01
242.221	5.62
242.603	4.42
242.986	4.46
243.368	5.18
243.75	5.01
244.133	5.76
244.515	4.71
244.897	4.55
245.279	4.67
245.661	4.88
246.043	4.48
246.425	5.37
246.807	6.39
247.189	4.88
247.571	4.69
247.953	4.54
248.335	4.78
248.717	4.67
249.098	4.45
249.48	4.38
249.862	4.9
250.243	4.89
250.625	4.49
251.006	4.27
251.388	5.25
251.769	5.05
252.151	6.68
252.532	5.06
252.913	5.24
253.295	4.83
253.676	4.16
254.057	4.83
254.438	4.87
254.819	4.22
255.2	3.25
255.581	4.37
255.962	5.7
256.343	3.83
256.724	5.14
257.105	5.23
257.486	4.6
257.867	5.13
258.247	3.92
258.628	5.12
259.009	5.76
259.389	5.23
259.77	4.54
260.15	4.3
260.531	4.96
260.911	3.69
261.292	3.93
261.672	3.96
262.052	4.41
262.432	4.33
262.813	4.09
263.193	3.92
263.573	4.79
263.953	5.2
264.333	4.36
264.713	4.31
265.093	4.51
265.473	4.12
265.853	3.87
266.233	3.79
266.612	4.63
266.992	4.96
267.372	5.3
267.752	4.89
268.131	4.24
268.511	3.7
268.89	4.64
269.27	5.04
269.649	4.28
270.029	5.17
270.408	4.71
270.787	4.06
271.167	3.09
271.546	3.86
271.925	4.14
272.304	4.5
272.683	3.87
273.062	3.82
273.441	3.72
273.82	3.48
274.199	3.94
274.578	3.84
274.957	4.46
275.336	4.1
275.715	3.76
276.093	4.93
276.472	4.27
276.851	4.53
277.229	4.38
277.608	3.4
277.986	4.88
278.365	3.68
278.743	4.63
279.122	4.07
279.5	4.72
279.878	4.66
280.257	3.77
280.635	3.54
281.013	3.99
281.391	4.24
281.769	3.46
282.147	3.74
282.525	3.62
282.903	4.24
283.281	3.42
283.659	3.64
284.037	3.48
284.415	3.69
284.792	4.61
285.17	4.36
285.548	4.23
285.925	3.51
286.303	3.9
286.68	3.9
287.058	3.78
287.435	3.7
287.813	4.01
288.19	3.78
288.567	3.68
288.945	4.23
289.322	3.71
289.699	3.51
290.076	3.82
290.453	3.89
290.83	4.32
291.207	4.02
291.584	3.81
291.961	4.01
292.338	3.85
292.715	4.07
293.092	3.99
293.469	4.34
293.845	3.69
294.222	4.68
294.599	3.94
294.975	3.93
295.352	3.75
295.728	3.49
296.105	3.64
296.481	4.23
296.858	3.94
297.234	4.12
297.61	4.28
297.986	4.16
298.363	4.17
298.739	4.17
299.115	3.82
299.491	4.25
299.867	4.05
300.243	4.1
300.619	4.48
300.995	3.43
301.371	4.06
301.746	3.85
302.122	4.21
302.498	4.67
302.874	4.4
303.249	3.92
303.625	4.34
304	4.41
304.376	4.04
304.751	4.16
305.127	4.63
305.502	4.26
305.878	4.12
306.253	4.71
306.628	4.35
307.003	4.6
307.378	4.12
307.754	4.67
308.129	3.99
308.504	4.49
308.879	4.03
309.254	5.02
309.629	5.02
310.003	4.19
310.378	4.45
310.753	4.53
311.128	4.17
311.502	4
311.877	3.94
312.252	4.04
312.626	4.63
313.001	4.65
313.375	3.72
313.75	4.34
314.124	4.23
314.498	4.25
314.873	4.16
315.247	4.06
315.621	4.64
315.995	4.97
316.369	4.26
316.743	4.89
317.117	4.65
317.491	4.62
317.865	4.71
318.239	4.74
318.613	4.61
318.987	4.36
319.361	5.32
319.734	4.48
320.108	3.99
320.482	4.52
320.855	4.13
321.229	4.34
321.602	4.05
321.976	4.51
322.349	4.35
322.723	4.49
323.096	4.8
323.469	4.74
323.843	4.72
324.216	4.55
324.589	4.42
324.962	4.34
325.335	4.54
325.708	4.72
326.081	4.96
326.454	4.32
326.827	4.14
327.2	4.01
327.573	4.05
327.945	4.6
328.318	4.44
328.691	4.25
329.063	4.06
329.436	4.2
329.809	4.73
330.181	5.12
330.553	4.53
330.926	4.49
331.298	5.06
331.671	4.15
332.043	4.79
332.415	5.31
332.787	4.67
333.159	4.83
333.532	4.58
333.904	4.99
334.276	4.73
334.648	4.99
335.02	4.74
335.391	3.96
335.763	4.58
336.135	4.82
336.507	5.01
336.879	4.67
337.25	4.18
337.622	4.22
337.993	4.47
338.365	4.93
338.736	4.7
339.108	4.47
339.479	4.6
339.851	4.14
340.222	4.57
340.593	4.13
340.964	5.06
341.336	4.58
341.707	4.17
342.078	4.67
342.449	3.83
342.82	4.16
343.191	4.04
343.562	3.94
343.933	4.7
344.303	4.49
344.674	4.54
345.045	4.4
345.416	4.15
345.786	4.8
346.157	4.5
346.527	4.41
346.898	4.27
347.268	4.38
347.639	4.71
348.009	4.27
348.38	3.95
348.75	4.43
349.12	4.87
349.49	4.17
349.861	4.29
350.231	4.01
350.601	4.93
350.971	4.74
351.341	3.56
351.711	4.84
352.081	4.31
352.45	4.36
352.82	3.75
353.19	4.05
353.56	4.17
353.929	4.64
354.299	4.68
354.669	4.59
355.038	4.34
355.408	4.34
355.777	4.41
356.147	4.52
356.516	4.31
356.885	4.34
357.254	4.3
357.624	4.22
357.993	4.42
358.362	4.9
358.731	4.43
359.1	4.3
359.469	4.17
359.838	4.51
360.207	4.62
360.576	4.17
360.945	4.62
361.314	4.51
361.682	4.3
362.051	4.38
362.42	4.35
362.788	4.36
363.157	4.29
363.525	4.08
363.894	4.43
364.262	4.48
364.631	4.63
364.999	4.28
365.367	4.59
365.735	4.45
366.104	4.17
366.472	4.49
366.84	4.18
367.208	4.33
367.576	4.84
367.944	4.2
368.312	4.49
368.68	4.46
369.048	4.23
369.416	4.07
369.783	4.43
370.151	4.52
370.519	4.98
370.886	4.36
371.254	4.87
371.621	4.75
371.989	4.52
372.356	4.93
372.724	4.79
373.091	4.82
373.458	4.29
373.826	4.41
374.193	4.55
374.56	4.67
374.927	4.7
375.294	4.45
375.661	4.38
376.028	4.69
376.395	4.63
376.762	4.67
377.129	4.47
377.496	4.54
377.863	4.48
378.229	4.62
378.596	4.57
378.963	4.82
379.329	4.42
379.696	4.64
380.062	4.15
380.429	4.6
380.795	4.69
381.161	4.51
381.528	4.53
381.894	4.38
382.26	4.68
382.626	4.69
382.993	4.87
383.359	4.73
383.725	4.53
384.091	4.84
384.457	4.51
384.823	4.79
385.188	4.52
385.554	4.41
385.92	4.58
386.286	4.77
386.651	4.43
387.017	4.81
387.383	4.48
387.748	4.62
388.114	4.57
388.479	4.57
388.845	4.46
389.21	4.37
389.575	4.86
389.94	4.85
390.306	4.66
390.671	4.52
391.036	4.76
391.401	4.91
391.766	4.53
392.131	4.72
392.496	4.86
392.861	4.92
393.226	4.85
393.591	4.67
393.956	4.83
394.32	4.74
394.685	4.52
395.05	4.73
395.414	4.79
395.779	4.27
396.143	4.48
396.508	4.64
396.872	4.79
397.236	4.74
397.601	4.39
397.965	4.82
398.329	4.98
398.694	4.69
399.058	4.65
399.422	4.82
399.786	4.52
400.15	4.53
400.514	4.91
400.878	4.54
401.242	4.88
401.605	4.48
401.969	4.66
402.333	4.68
402.697	4.6
403.06	4.72
403.424	4.86
403.787	4.85
404.151	4.56
404.514	4.89
404.878	4.62
405.241	4.79
405.604	4.57
405.968	4.75
406.331	4.67
406.694	4.49
407.057	4.76
407.42	4.98
407.783	4.84
408.146	4.84
408.509	4.66
408.872	4.69
409.235	4.79
409.598	4.73
409.961	4.98
410.323	4.89
410.686	4.87
411.049	4.74
411.411	4.7
411.774	4.94
412.136	4.61
412.499	5.06
412.861	4.76
413.223	4.74
413.586	4.71
413.948	4.76
414.31	4.69
414.672	4.72
415.035	4.84
415.397	4.91
415.759	4.91
416.121	4.83
416.483	4.83
416.845	4.88
417.206	4.73
417.568	4.79
417.93	4.86
418.292	4.55
418.653	4.68
419.015	4.57
419.377	4.82
419.738	4.77
420.1	4.79
420.461	4.66
420.822	4.76
421.184	4.78
421.545	4.72
421.906	4.68
422.267	4.76
422.629	4.66
422.99	4.72
423.351	4.61
423.712	4.64
424.073	4.72
424.434	4.66
424.795	4.85
425.155	4.77
425.516	4.75
425.877	4.74
426.238	4.72
426.598	4.77
426.959	4.66
427.32	4.82
427.68	4.9
428.041	4.69
428.401	4.83
428.761	4.86
429.122	4.8
429.482	4.98
429.842	4.91
430.202	4.97
430.563	4.87
430.923	4.84
431.283	4.94
431.643	4.97
432.003	5.1
432.363	5.06
432.722	4.94
433.082	4.96
433.442	4.82
433.802	4.84
434.161	5.14
434.521	4.74
434.881	4.94
435.24	4.88
435.6	4.94
435.959	4.98
436.319	4.99
436.678	5.01
437.037	4.97
437.396	5.07
437.756	4.98
438.115	5.13
438.474	5.05
438.833	4.88
439.192	5.04
439.551	5.09
439.91	5
440.269	5.04
440.628	4.86
440.987	5.13
441.345	4.89
441.704	5
442.063	5.04
442.421	4.95
442.78	4.89
443.138	4.94
443.497	4.9
443.855	4.93
444.214	5.15
444.572	4.92
444.93	4.99
445.288	4.98
445.647	5.06
446.005	4.8
446.363	4.91
446.721	5
447.079	4.92
447.437	4.84
447.795	4.93
448.153	4.97
448.51	4.94
448.868	4.89
449.226	4.8
449.584	5.08
449.941	5.1
450.299	5.01
450.656	5.05
451.014	5.17
451.371	4.91
451.729	5.25
452.086	5.06
452.443	5.18
452.801	5.09
453.158	5.25
453.515	5.05
453.872	5.06
454.229	5.06
454.586	5.07
454.943	5.29
455.3	5.22
455.657	5.19
456.014	5.1
456.371	5.27
456.727	5.21
457.084	5.11
457.441	5.16
457.797	5.21
458.154	5.21
458.51	5.21
458.867	5.08
459.223	5.18
459.58	5.1
459.936	5.2
460.292	5.1
460.648	5.27
461.005	5.05
461.361	5.06
461.717	4.97
462.073	5.13
462.429	5.12
462.785	5.11
463.141	5.12
463.496	5.15
463.852	5.14
464.208	5.35
464.564	5.22
464.919	5.15
465.275	5.15
465.631	5.12
465.986	5.34
466.342	5.2
466.697	5.15
467.052	5.09
467.408	5.44
467.763	5.23
468.118	5.1
468.473	5.17
468.829	5.33
469.184	5.36
469.539	5.3
469.894	5.27
470.249	5.28
470.603	5.32
470.958	5.39
471.313	5.4
471.668	5.3
472.023	5.34
472.377	5.35
472.732	5.3
473.086	5.32
473.441	5.45
473.795	5.32
474.15	5.53
474.504	5.36
474.859	5.39
475.213	5.34
475.567	5.36
475.921	5.28
476.275	5.39
476.63	5.32
476.984	5.4
477.338	5.21
477.692	5.43
478.045	5.41
478.399	5.19
478.753	5.23
479.107	5.36
479.461	5.31
479.814	5.45
480.168	5.44
480.521	5.51
480.875	5.4
481.228	5.48
481.582	5.54
481.935	5.49
482.289	5.45
482.642	5.4
482.995	5.37
483.348	5.44
483.701	5.31
484.055	5.45
484.408	5.39
484.761	5.31
485.114	5.2
485.466	5.11
485.819	5.08
486.172	5.08
486.525	5.17
486.878	5.23
487.23	5.31
487.583	5.34
487.936	5.33
488.288	5.37
488.641	5.23
488.993	5.24
489.345	5.26
489.698	5.22
490.05	5.25
490.402	5.26
490.754	5.33
491.107	5.37
491.459	5.39
491.811	5.59
492.163	5.52
492.515	5.46
492.866	5.41
493.218	5.25
493.57	5.25
493.922	5.38
494.274	5.4
494.625	5.43
494.977	5.59
495.328	5.54
495.68	5.76
496.031	5.67
496.383	5.48
496.734	5.61
497.086	5.75
497.437	5.9
497.788	5.72
498.139	5.57
498.49	5.64
498.842	5.64
499.193	5.67
499.544	5.63
499.894	5.68
500.245	5.61
500.596	5.84
500.947	5.72
501.298	5.88
501.648	5.75
501.999	5.75
502.35	5.84
502.7	5.73
503.051	5.62
503.401	5.79
503.752	5.84
504.102	5.91
504.452	5.8
504.803	5.91
505.153	5.93
505.503	5.92
505.853	6.02
506.203	5.79
506.553	5.89
506.903	5.73
507.253	5.95
507.603	5.83
507.953	5.97
508.303	5.86
508.652	5.92
509.002	5.84
509.352	6.08
509.701	5.96
510.051	5.89
510.4	5.96
510.75	5.87
511.099	5.89
511.449	6
511.798	5.92
512.147	5.96
512.496	5.92
512.846	5.99
513.195	6.05
513.544	6.01
513.893	5.93
514.242	5.93
514.591	6.01
514.939	5.99
515.288	6.15
515.637	6
515.986	6.05
516.334	6.13
516.683	6.18
517.032	6.2
517.38	6.19
517.729	6.07
518.077	6.13
518.426	6.25
518.774	6.08
519.122	6.09
519.47	6.08
519.819	5.98
520.167	6.06
520.515	5.95
520.863	5.96
521.211	6.09
521.559	6.15
521.907	6.15
522.255	6.15
522.602	6.14
522.95	6.21
523.298	6.23
523.645	6.38
523.993	6.24
524.341	6.36
524.688	6.24
525.036	6.4
525.383	6.3
525.73	6.27
526.078	6.46
526.425	6.3
526.772	6.24
527.119	6.34
527.466	6.25
527.814	6.33
528.161	6.26
528.508	6.37
528.854	6.33
529.201	6.32
529.548	6.3
529.895	6.16
530.242	6.17
530.588	6.06
530.935	6.16
531.282	6.24
531.628	6.24
531.975	6.29
532.321	6.36
532.667	6.43
533.014	6.43
533.36	6.43
533.706	6.49
534.052	6.43
534.399	6.52
534.745	6.45
535.091	6.42
535.437	6.32
535.783	6.45
536.129	6.53
536.474	6.55
536.82	6.56
537.166	6.59
537.512	6.64
537.857	6.64
538.203	6.45
538.549	6.67
538.894	6.7
539.239	6.77
539.585	6.71
539.93	6.61
540.276	6.77
540.621	6.84
540.966	6.88
541.311	6.8
541.656	6.8
542.001	6.85
542.346	6.82
542.691	6.76
543.036	6.7
543.381	6.65
543.726	6.71
544.071	6.76
544.415	6.82
544.76	6.84
545.105	6.83
545.449	6.95
545.794	6.92
546.138	7.05
546.483	6.93
546.827	7.14
547.171	6.98
547.516	7.08
547.86	7.13
548.204	7.2
548.548	7
548.892	7.02
549.236	7.11
549.58	7.36
549.924	7.29
550.268	7.2
550.612	7.2
550.956	7.27
551.3	7.25
551.643	7.42
551.987	7.4
552.33	7.5
552.674	7.6
553.017	7.64
553.361	7.46
553.704	7.52
554.048	7.52
554.391	7.37
554.734	7.46
555.077	7.58
555.42	7.66
555.764	7.72
556.107	7.66
556.45	7.7
556.793	7.61
557.135	7.76
557.478	7.8
557.821	7.69
558.164	7.83
558.507	7.6
558.849	7.75
559.192	7.89
559.534	7.81
559.877	7.93
560.219	7.99
560.562	8.13
560.904	8.07
561.246	7.97
561.589	7.92
561.931	7.93
562.273	8
562.615	8.1
562.957	8.1
563.299	8.24
563.641	7.96
563.983	8.35
564.325	8.32
564.667	8.28
565.008	8.13
565.35	8.44
565.692	8.25
566.033	8.32
566.375	8.33
566.716	8.28
567.058	8.31
567.399	8.34
567.741	8.25
568.082	8.4
568.423	8.27
568.764	8.33
569.105	8.41
569.447	8.48
569.788	8.43
570.129	8.59
570.47	8.31
570.811	8.38
571.151	8.58
571.492	8.52
571.833	8.62
572.174	8.7
572.514	8.58
572.855	8.64
573.195	8.73
573.536	8.63
573.876	8.84
574.217	8.74
574.557	8.75
574.898	8.8
575.238	8.88
575.578	8.92
575.918	8.96
576.258	8.82
576.598	8.82
576.938	9.09
577.278	9.05
577.618	8.97
577.958	8.93
578.298	9.21
578.638	9.24
578.977	9.17
579.317	9.37
579.657	8.96
579.996	9.13
580.336	9.3
580.675	9.11
581.014	9.21
581.354	9.44
581.693	9.45
582.032	9.06
582.372	9.24
582.711	9.28
583.05	9.48
583.389	9.54
583.728	9.82
584.067	9.38
584.406	9.54
584.745	9.81
585.083	9.51
585.422	9.66
585.761	9.88
586.1	9.52
586.438	9.59
586.777	9.8
587.115	9.57
587.454	9.77
587.792	9.84
588.13	9.98
588.469	9.7
588.807	9.87
589.145	10.44
589.483	10.04
589.821	9.86
590.159	10.05
590.497	10.14
590.835	10.16
591.173	9.93
591.511	10.17
591.849	10.17
592.187	10.09
592.524	10.27
592.862	10.11
593.2	10.18
593.537	10.23
593.875	10.46
594.212	10.48
594.55	10.23
594.887	10.38
595.224	10.57
595.561	10.42
595.899	10.49
596.236	10.69
596.573	10.77
596.91	10.66
597.247	10.68
597.584	10.59
597.921	10.47
598.258	10.44
598.594	10.51
598.931	10.77
599.268	10.67
599.604	10.69
599.941	10.87
600.277	10.64
600.614	10.97
600.95	10.8
601.287	11.06
601.623	10.93
601.959	10.94
602.296	10.94
602.632	11.1
602.968	11.07
603.304	10.81
603.64	11.01
603.976	11.37
604.312	11.24
604.648	11.38
604.984	11.23
605.319	11.16
605.655	11.31
605.991	11.21
606.326	11.23
606.662	11.18
606.998	11.13
607.333	11.43
607.668	11.48
608.004	11.27
608.339	11.63
608.674	11.71
609.01	11.57
609.345	11.63
609.68	11.77
610.015	11.8
610.35	11.7
610.685	11.43
611.02	11.62
611.355	11.83
611.689	11.96
612.024	11.61
612.359	11.94
612.694	12.01
613.028	11.63
613.363	12.1
613.697	11.93
614.032	11.98
614.366	12.29
614.7	11.85
615.035	12.15
615.369	12.27
615.703	12.14
616.037	12.45
616.371	12.12
616.705	12.38
617.039	12.7
617.373	12.76
617.707	12.57
618.041	12.42
618.375	12.67
618.709	12.48
619.042	12.33
619.376	12.67
619.71	12.52
620.043	12.28
620.377	12.82
620.71	12.69
621.043	12.52
621.377	12.42
621.71	12.76
622.043	12.56
622.376	12.85
622.709	13.45
623.043	12.91
623.376	13.05
623.709	12.97
624.041	13.37
624.374	13.05
624.707	13.05
625.04	13.65
625.373	13.15
625.705	13.19
626.038	13.09
626.37	13.4
626.703	13.77
627.035	13.41
627.368	13.43
627.7	13.02
628.032	13.42
628.365	13.35
628.697	13.19
629.029	13.14
629.361	13.23
629.693	13.32
630.025	13.57
630.357	13.65
630.689	13.5
631.021	13.59
631.353	13.57
631.684	13.89
632.016	13.77
632.348	14
632.679	14.16
633.011	14
633.342	14.07
633.674	13.92
634.005	13.8
634.336	14.09
634.668	13.84
634.999	14.33
635.33	14.01
635.661	14.14
635.992	14.34
636.323	14.35
636.654	14.43
636.985	14.26
637.316	14.59
637.647	14.71
637.977	14.7
638.308	14.66
638.639	14.21
638.969	13.91
639.3	14.65
639.63	14.34
639.961	14.43
640.291	14.91
640.622	14.69
640.952	14.46
641.282	14.94
641.612	15.54
641.943	15.12
642.273	15.19
642.603	15.06
642.933	14.86
643.263	14.87
643.592	14.72
643.922	15.16
644.252	14.46
644.582	15.34
644.911	15.21
645.241	15.05
645.571	15.41
645.9	15.15
646.23	15.09
646.559	15.19
646.888	15.4
647.218	15.31
647.547	15.03
647.876	15.84
648.205	15.58
648.534	15.6
648.863	15.51
649.192	15.58
649.521	15.91
649.85	15.68
650.179	15.95
650.508	15.78
650.837	15.58
651.165	15.79
651.494	16.1
651.822	15.8
652.151	16.19
652.479	16.05
652.808	15.93
653.136	15.65
653.465	16.33
653.793	16.24
654.121	16.1
654.449	15.64
654.777	16.12
655.105	15.74
655.433	16.17
655.761	16.3
656.089	16.1
656.417	15.79
656.745	16.52
657.073	16.48
657.4	16.53
657.728	16.42
658.056	17.36
658.383	16.24
658.711	16.48
659.038	16.65
659.365	16.2
659.693	16.71
660.02	16.45
660.347	16.65
660.674	16.78
661.001	16.62
661.329	16.78
661.656	16.87
661.982	16.68
662.309	16.91
662.636	16.67
662.963	16.87
663.29	16.78
663.616	16.77
663.943	16.38
664.27	17.43
664.596	17.44
664.923	17.34
665.249	17.09
665.576	16.62
665.902	16.89
666.228	17.19
666.554	17.5
666.881	17.25
667.207	17.43
667.533	17.14
667.859	17.34
668.185	18
668.511	17.79
668.837	17.46
669.162	17.59
669.488	17.74
669.814	17.42
670.139	17.6
670.465	17.34
670.791	17.42
671.116	18.19
671.442	18.1
671.767	17.59
672.092	17.82
672.418	17.82
672.743	17.81
673.068	17.73
673.393	18.29
673.718	17.94
674.043	17.93
674.368	18.39
674.693	17.87
675.018	18.02
675.343	17.88
675.667	18.03
675.992	18.66
676.317	18.21
676.641	19.21
676.966	18.2
677.29	18.3
677.615	18.94
677.939	17.66
678.264	18.32
678.588	18.51
678.912	18.67
679.236	18.21
679.56	18.68
679.885	18.61
680.209	18.94
680.532	19.92
680.856	19.28
681.18	18.57
681.504	18.42
681.828	18.16
682.152	18.35
682.475	19.34
682.799	18.94
683.122	18.88
683.446	18.58
683.769	18.72
684.093	19.05
684.416	18.65
684.739	19.61
685.062	19.15
685.386	19.28
685.709	19.59
686.032	18.81
