Data from 2009-1_chest_Reflection__4__219.txt Node

Date: Fri Dec 15 18:23:18 CST 2023
User: ToomeyLab
Spectrometer: FLMS14357
Trigger mode: 0
Integration Time (sec): 1.000000E-2
Scans to average: 100
Electric dark correction enabled: true
Nonlinearity correction enabled: false
Boxcar width: 0
XAxis mode: Wavelengths
Number of Pixels in Spectrum: 2048
>>>>>Begin Spectral Data<<<<<
189.047	-913.48
189.435	-913.48
189.823	-913.48
190.211	332.57
190.599	95.39
190.987	73.39
191.375	353.55
191.763	-48.66
192.151	-5.11
192.538	293.38
192.926	-304.26
193.314	96.82
193.702	71.71
194.089	-100.83
194.477	-82.76
194.864	141.18
195.252	69.2
195.639	79.83
196.027	203.26
196.414	66.8
196.801	201.5
197.189	717.85
197.576	137.75
197.963	-400.91
198.351	-131.36
198.738	-13.86
199.125	38.06
199.512	-54.17
199.899	32.36
200.286	36.16
200.673	17.85
201.06	6.87
201.447	21.61
201.833	6.22
202.22	21.33
202.607	-11.27
202.994	-319.37
203.38	-0.77
203.767	4.42
204.154	7.48
204.54	47.15
204.927	8.05
205.313	-24.69
205.699	52.42
206.086	73.4
206.472	23.44
206.858	19.15
207.245	-27.31
207.631	40.17
208.017	16.98
208.403	15.92
208.789	-9.05
209.175	-9.58
209.561	-18.37
209.947	13.41
210.333	-44.37
210.719	-16.1
211.105	17.31
211.491	-17.33
211.876	1.64
212.262	-1.47
212.648	23.27
213.034	-9.76
213.419	-23.8
213.805	16.44
214.19	-50.56
214.576	-17.22
214.961	-1.88
215.346	-74.17
215.732	2.81
216.117	11.55
216.502	-18.04
216.888	6.06
217.273	14.7
217.658	-19.19
218.043	40.7
218.428	-67.15
218.813	-41.19
219.198	-16.71
219.583	-14.71
219.968	1.77
220.353	-4.63
220.738	6.27
221.122	18.92
221.507	-24.65
221.892	-15.55
222.276	-37.43
222.661	-10.7
223.046	8.14
223.43	-0.41
223.815	-1.02
224.199	1.75
224.583	-0.85
224.968	-2.08
225.352	2.35
225.736	1.23
226.121	-18.71
226.505	3.56
226.889	-0.42
227.273	-3.44
227.657	4.29
228.041	2.35
228.425	-2.47
228.809	4.57
229.193	-0.91
229.577	1.33
229.961	0.51
230.344	0.39
230.728	1.44
231.112	1.71
231.495	1.24
231.879	0.79
232.263	1.26
232.646	0.45
233.03	1.83
233.413	0.25
233.797	-0.45
234.18	-1.62
234.563	-1.29
234.946	0.85
235.33	2.72
235.713	0.5
236.096	2.97
236.479	2.27
236.862	-0.26
237.245	0.59
237.628	0.53
238.011	0.96
238.394	1.93
238.777	1.85
239.16	-0.17
239.543	0.8
239.925	0.36
240.308	0.74
240.691	2.36
241.073	2.23
241.456	1.18
241.838	0.95
242.221	0.56
242.603	1.96
242.986	1.1
243.368	1.91
243.75	1.43
244.133	1.33
244.515	1.79
244.897	1.88
245.279	1.87
245.661	0.73
246.043	1.02
246.425	0.71
246.807	1.61
247.189	1.47
247.571	1.3
247.953	2.23
248.335	1.59
248.717	1.59
249.098	1.61
249.48	1.64
249.862	1.55
250.243	2
250.625	1.33
251.006	1.53
251.388	0.95
251.769	2.07
252.151	1.89
252.532	1.65
252.913	0.58
253.295	0.91
253.676	1.29
254.057	2.02
254.438	1.26
254.819	1.24
255.2	1.06
255.581	0.16
255.962	0.28
256.343	1.36
256.724	0.91
257.105	1.95
257.486	1.58
257.867	1.51
258.247	0.13
258.628	1.31
259.009	1.44
259.389	1.31
259.77	0.77
260.15	0.77
260.531	0.68
260.911	1.78
261.292	1.84
261.672	1.56
262.052	1.57
262.432	1.78
262.813	1.75
263.193	1.36
263.573	1.3
263.953	1.94
264.333	2.17
264.713	1.76
265.093	1.53
265.473	1.67
265.853	0.73
266.233	1.43
266.612	-0.62
266.992	0.87
267.372	2.24
267.752	1.48
268.131	1.61
268.511	2.13
268.89	1.51
269.27	1.13
269.649	1.37
270.029	1.08
270.408	2.89
270.787	1.62
271.167	1.36
271.546	2.03
271.925	0.8
272.304	1.39
272.683	1.1
273.062	1.41
273.441	1.39
273.82	1.56
274.199	1.91
274.578	1.53
274.957	1.31
275.336	1.3
275.715	1.34
276.093	1.07
276.472	1.37
276.851	1.34
277.229	1.13
277.608	0.6
277.986	1.5
278.365	1.2
278.743	0.69
279.122	1.2
279.5	1.76
279.878	1.73
280.257	2.06
280.635	1.31
281.013	1
281.391	1.98
281.769	1.51
282.147	1.82
282.525	2.46
282.903	1.13
283.281	1.63
283.659	1.93
284.037	1.38
284.415	2.12
284.792	1.45
285.17	0.54
285.548	1.23
285.925	1.38
286.303	1.54
286.68	1.19
287.058	1.48
287.435	1.92
287.813	1.21
288.19	1.44
288.567	1.3
288.945	2.13
289.322	1.92
289.699	1.25
290.076	1.45
290.453	1.22
290.83	1.02
291.207	1.36
291.584	1.54
291.961	1.71
292.338	1.22
292.715	1.79
293.092	1.62
293.469	1.39
293.845	1.87
294.222	0.9
294.599	1.53
294.975	1.33
295.352	2.98
295.728	1.29
296.105	1.38
296.481	2.02
296.858	1.55
297.234	1.23
297.61	1.69
297.986	1.82
298.363	1.58
298.739	1.68
299.115	1.49
299.491	1.3
299.867	1.45
300.243	2.13
300.619	1.5
300.995	1.93
301.371	1.28
301.746	1.5
302.122	2.2
302.498	1.79
302.874	1.66
303.249	1.37
303.625	1.27
304	1.58
304.376	2.11
304.751	1.29
305.127	2.39
305.502	1.38
305.878	1.68
306.253	1.98
306.628	2.44
307.003	1.5
307.378	2.23
307.754	1.53
308.129	1.36
308.504	2.37
308.879	0.97
309.254	2.97
309.629	2.69
310.003	1.37
310.378	2.36
310.753	2.3
311.128	1.91
311.502	1.96
311.877	2.55
312.252	1.59
312.626	1.71
313.001	1.57
313.375	2.2
313.75	1.55
314.124	2.03
314.498	1.75
314.873	2
315.247	2.04
315.621	1.77
315.995	1.42
316.369	1.76
316.743	1.56
317.117	2.59
317.491	1.73
317.865	2.25
318.239	1.52
318.613	1.84
318.987	2.44
319.361	1.32
319.734	2.11
320.108	1.76
320.482	1.75
320.855	2.45
321.229	2.34
321.602	1.87
321.976	2.69
322.349	2.01
322.723	1.78
323.096	1.97
323.469	1.77
323.843	1.91
324.216	2.37
324.589	1.45
324.962	1.81
325.335	2.01
325.708	1.54
326.081	2.15
326.454	2.36
326.827	2.28
327.2	2.02
327.573	2.67
327.945	2.41
328.318	1.99
328.691	1.74
329.063	2
329.436	1.29
329.809	2.54
330.181	2.24
330.553	2
330.926	2.63
331.298	2.07
331.671	1.7
332.043	2.66
332.415	2.35
332.787	2.37
333.159	2.59
333.532	2.76
333.904	1.97
334.276	1.37
334.648	1.65
335.02	1.82
335.391	1.95
335.763	1.84
336.135	2.64
336.507	2.4
336.879	1.98
337.25	2.11
337.622	2.43
337.993	1.55
338.365	2.54
338.736	2.11
339.108	2.36
339.479	2.75
339.851	2.14
340.222	2.25
340.593	1.82
340.964	2.87
341.336	2.47
341.707	1.59
342.078	2.63
342.449	2.34
342.82	2.29
343.191	2.23
343.562	2.52
343.933	2.46
344.303	2.38
344.674	1.91
345.045	1.93
345.416	2.83
345.786	2.42
346.157	2.49
346.527	2.11
346.898	1.9
347.268	2.52
347.639	1.96
348.009	2.38
348.38	2.23
348.75	2.5
349.12	2.04
349.49	2.76
349.861	2.52
350.231	2.17
350.601	1.67
350.971	2.66
351.341	2.78
351.711	1.96
352.081	2.42
352.45	1.89
352.82	2.28
353.19	2.07
353.56	2.25
353.929	2.21
354.299	2.59
354.669	2.12
355.038	2.7
355.408	2.23
355.777	2.19
356.147	2.46
356.516	2.04
356.885	2
357.254	2.2
357.624	3.05
357.993	2.45
358.362	1.86
358.731	1.94
359.1	2.51
359.469	2.61
359.838	2.63
360.207	2.26
360.576	2.14
360.945	2.27
361.314	2.52
361.682	2.13
362.051	2.12
362.42	2.77
362.788	2.24
363.157	2.55
363.525	2.63
363.894	2.71
364.262	2.44
364.631	2.36
364.999	2.53
365.367	2.07
365.735	2.94
366.104	2.57
366.472	2.52
366.84	2.3
367.208	2.02
367.576	2.62
367.944	2.72
368.312	2.09
368.68	1.98
369.048	2.32
369.416	2.42
369.783	1.99
370.151	2.64
370.519	2.79
370.886	2.74
371.254	2.58
371.621	2.24
371.989	3.25
372.356	1.82
372.724	2.39
373.091	2.45
373.458	2.32
373.826	2.47
374.193	2.18
374.56	2.67
374.927	2.22
375.294	2.38
375.661	2.3
376.028	1.94
376.395	2.56
376.762	2.44
377.129	2.31
377.496	2.15
377.863	2.19
378.229	1.99
378.596	2.34
378.963	2.23
379.329	2.03
379.696	2.54
380.062	2.55
380.429	2.38
380.795	2.2
381.161	2.13
381.528	2.92
381.894	2.22
382.26	2.11
382.626	2.54
382.993	1.93
383.359	2.49
383.725	2.32
384.091	2.16
384.457	2.56
384.823	2.3
385.188	2.32
385.554	2.7
385.92	2.52
386.286	2.79
386.651	2.55
387.017	2.89
387.383	2.52
387.748	2.67
388.114	2.59
388.479	2.14
388.845	2.8
389.21	2.71
389.575	2.48
389.94	2.66
390.306	2.56
390.671	2.68
391.036	2.33
391.401	2.2
391.766	2.62
392.131	2.27
392.496	2.77
392.861	2.32
393.226	2.51
393.591	2.44
393.956	2.4
394.32	2.46
394.685	2.34
395.05	2.15
395.414	2.55
395.779	2.39
396.143	2.46
396.508	2.5
396.872	2.53
397.236	2.51
397.601	2.34
397.965	2.5
398.329	2.71
398.694	2.33
399.058	2.46
399.422	2.19
399.786	2.71
400.15	2.58
400.514	2.44
400.878	2.56
401.242	2.84
401.605	2.61
401.969	2.44
402.333	2.55
402.697	2.47
403.06	2.71
403.424	2.48
403.787	2.41
404.151	2.41
404.514	2.39
404.878	2.34
405.241	2.48
405.604	2.67
405.968	2.55
406.331	2.52
406.694	2.54
407.057	2.46
407.42	2.79
407.783	2.49
408.146	2.37
408.509	2.36
408.872	2.16
409.235	2.39
409.598	2.77
409.961	2.35
410.323	2.65
410.686	2.32
411.049	2.43
411.411	2.35
411.774	2.32
412.136	2.33
412.499	2.36
412.861	2.37
413.223	2.38
413.586	2.68
413.948	2.41
414.31	2.41
414.672	2.25
415.035	2.32
415.397	2.59
415.759	2.32
416.121	2.48
416.483	2.47
416.845	2.36
417.206	2.38
417.568	2.38
417.93	2.33
418.292	2.31
418.653	2.3
419.015	2.8
419.377	2.47
419.738	2.57
420.1	2.44
420.461	2.52
420.822	2.51
421.184	2.51
421.545	2.62
421.906	2.4
422.267	2.43
422.629	2.4
422.99	2.45
423.351	2.46
423.712	2.54
424.073	2.54
424.434	2.53
424.795	2.53
425.155	2.54
425.516	2.56
425.877	2.5
426.238	2.47
426.598	2.59
426.959	2.63
427.32	2.51
427.68	2.64
428.041	2.57
428.401	2.65
428.761	2.57
429.122	2.74
429.482	2.56
429.842	2.77
430.202	2.68
430.563	2.79
430.923	2.63
431.283	2.76
431.643	2.62
432.003	2.63
432.363	2.7
432.722	2.79
433.082	2.83
433.442	2.78
433.802	2.87
434.161	2.73
434.521	3.06
434.881	2.87
435.24	2.79
435.6	2.69
435.959	2.85
436.319	2.88
436.678	2.67
437.037	2.74
437.396	2.9
437.756	2.71
438.115	2.89
438.474	2.97
438.833	2.91
439.192	2.81
439.551	2.84
439.91	2.92
440.269	2.84
440.628	2.82
440.987	2.9
441.345	2.67
441.704	2.76
442.063	2.73
442.421	2.84
442.78	2.85
443.138	2.89
443.497	2.93
443.855	2.9
444.214	2.92
444.572	2.94
444.93	3.03
445.288	2.99
445.647	3.01
446.005	2.96
446.363	2.92
446.721	3.01
447.079	2.87
447.437	2.95
447.795	3.04
448.153	2.85
448.51	2.92
448.868	2.94
449.226	2.93
449.584	2.96
449.941	3.15
450.299	3.04
450.656	2.95
451.014	3.1
451.371	2.97
451.729	2.87
452.086	3.26
452.443	3.1
452.801	3.19
453.158	3.12
453.515	2.93
453.872	3.1
454.229	3.14
454.586	2.95
454.943	3.13
455.3	3.3
455.657	2.99
456.014	2.89
456.371	2.99
456.727	3.16
457.084	3.36
457.441	3.03
457.797	3.13
458.154	3.23
458.51	3.18
458.867	3.02
459.223	3.24
459.58	3.19
459.936	3.07
460.292	3.14
460.648	2.99
461.005	3.11
461.361	3.08
461.717	3.04
462.073	3.02
462.429	3.15
462.785	3.27
463.141	3.09
463.496	3.12
463.852	3.26
464.208	3.28
464.564	3.34
464.919	3.31
465.275	3.19
465.631	3.36
465.986	3.37
466.342	3.21
466.697	3.1
467.052	3.36
467.408	3.41
467.763	3.23
468.118	3.23
468.473	3.35
468.829	3.39
469.184	3.24
469.539	3.29
469.894	3.23
470.249	3.41
470.603	3.39
470.958	3.36
471.313	3.49
471.668	3.29
472.023	3.3
472.377	3.04
472.732	3.31
473.086	3.2
473.441	3.11
473.795	3.54
474.15	3.44
474.504	3.35
474.859	3.56
475.213	3.23
475.567	3.21
475.921	3.32
476.275	3.45
476.63	3.28
476.984	3.43
477.338	3.38
477.692	3.23
478.045	3.19
478.399	3.51
478.753	3.4
479.107	3.4
479.461	3.33
479.814	3.43
480.168	3.3
480.521	3.34
480.875	3.39
481.228	3.4
481.582	3.46
481.935	3.36
482.289	3.54
482.642	3.55
482.995	3.33
483.348	3.39
483.701	3.35
484.055	3.4
484.408	3.44
484.761	3.32
485.114	3.2
485.466	3.17
485.819	3.13
486.172	3.17
486.525	3.27
486.878	3.33
487.23	3.33
487.583	3.4
487.936	3.38
488.288	3.37
488.641	3.44
488.993	3.27
489.345	3.26
489.698	3.27
490.05	3.27
490.402	3.34
490.754	3.36
491.107	3.51
491.459	3.5
491.811	3.55
492.163	3.51
492.515	3.47
492.866	3.49
493.218	3.44
493.57	3.31
493.922	3.33
494.274	3.5
494.625	3.59
494.977	3.67
495.328	3.61
495.68	3.52
496.031	3.7
496.383	3.56
496.734	3.74
497.086	3.55
497.437	3.67
497.788	3.64
498.139	3.49
498.49	3.73
498.842	3.49
499.193	3.61
499.544	3.64
499.894	3.61
500.245	3.62
500.596	3.59
500.947	3.67
501.298	3.55
501.648	3.63
501.999	3.84
502.35	3.76
502.7	3.71
503.051	3.51
503.401	3.64
503.752	3.76
504.102	3.68
504.452	3.73
504.803	3.62
505.153	3.8
505.503	3.69
505.853	3.73
506.203	3.53
506.553	3.6
506.903	3.67
507.253	3.8
507.603	3.57
507.953	3.83
508.303	3.95
508.652	3.62
509.002	3.84
509.352	3.85
509.701	3.71
510.051	3.8
510.4	3.82
510.75	3.78
511.099	3.81
511.449	3.8
511.798	3.75
512.147	3.83
512.496	3.74
512.846	3.86
513.195	3.75
513.544	3.82
513.893	3.92
514.242	3.8
514.591	4.09
514.939	3.94
515.288	3.7
515.637	3.86
515.986	4.03
516.334	4.04
516.683	3.93
517.032	4.04
517.38	3.98
517.729	4.07
518.077	3.86
518.426	3.98
518.774	3.99
519.122	4.1
519.47	3.93
519.819	3.83
520.167	3.86
520.515	3.89
520.863	3.9
521.211	4.02
521.559	3.99
521.907	3.91
522.255	3.98
522.602	4.03
522.95	4.04
523.298	4.05
523.645	4.14
523.993	3.86
524.341	4.14
524.688	4.15
525.036	4
525.383	4.16
525.73	4.31
526.078	4
526.425	4.12
526.772	4.14
527.119	4.08
527.466	4.05
527.814	4.05
528.161	4.02
528.508	4.08
528.854	4.09
529.201	4.12
529.548	4.01
529.895	3.98
530.242	3.89
530.588	3.86
530.935	3.96
531.282	4.03
531.628	4.12
531.975	4.09
532.321	4.13
532.667	4.17
533.014	4.36
533.36	4.29
533.706	4.18
534.052	4.22
534.399	4.14
534.745	4.08
535.091	4.09
535.437	4.12
535.783	4.17
536.129	4.29
536.474	4.32
536.82	4.28
537.166	4.4
537.512	4.38
537.857	4.25
538.203	4.29
538.549	4.19
538.894	4.28
539.239	4.38
539.585	4.42
539.93	4.33
540.276	4.5
540.621	4.61
540.966	4.48
541.311	4.32
541.656	4.38
542.001	4.53
542.346	4.58
542.691	4.31
543.036	4.32
543.381	4.16
543.726	4.34
544.071	4.36
544.415	4.51
544.76	4.44
545.105	4.44
545.449	4.52
545.794	4.54
546.138	4.58
546.483	4.6
546.827	4.54
547.171	4.6
547.516	4.77
547.86	4.6
548.204	4.57
548.548	4.58
548.892	4.66
549.236	4.58
549.58	4.67
549.924	4.81
550.268	4.87
550.612	4.89
550.956	4.9
551.3	4.89
551.643	5.02
551.987	5.03
552.33	4.84
552.674	5.02
553.017	4.89
553.361	5.08
553.704	5.16
554.048	4.88
554.391	4.85
554.734	4.85
555.077	5.08
555.42	4.9
555.764	5.06
556.107	4.92
556.45	4.85
556.793	5
557.135	5.29
557.478	5.26
557.821	5.26
558.164	5.29
558.507	5.11
558.849	5.17
559.192	5.2
559.534	5.14
559.877	5.4
560.219	5.09
560.562	5.6
560.904	5.26
561.246	5.35
561.589	5.45
561.931	5.3
562.273	5.35
562.615	5.64
562.957	5.29
563.299	5.06
563.641	5.4
563.983	5.54
564.325	5.17
564.667	5.56
565.008	5.24
565.35	5.38
565.692	5.24
566.033	5.49
566.375	5.59
566.716	5.69
567.058	5.45
567.399	5.45
567.741	5.33
568.082	5.52
568.423	5.57
568.764	5.38
569.105	5.72
569.447	5.77
569.788	5.59
570.129	5.67
570.47	5.69
570.811	5.82
571.151	5.8
571.492	5.69
571.833	5.7
572.174	5.67
572.514	5.67
572.855	5.78
573.195	5.78
573.536	5.79
573.876	5.67
574.217	5.79
574.557	5.86
574.898	5.91
575.238	5.96
575.578	5.83
575.918	6.14
576.258	5.98
576.598	5.91
576.938	5.89
577.278	6.02
577.618	5.87
577.958	6.06
578.298	6.24
578.638	6.18
578.977	6.23
579.317	6.18
579.657	6.26
579.996	6.15
580.336	6.12
580.675	6.25
581.014	6.25
581.354	6.24
581.693	6.48
582.032	6.19
582.372	6.15
582.711	6.44
583.05	6.49
583.389	6.31
583.728	6.33
584.067	6.64
584.406	6.44
584.745	6.65
585.083	6.76
585.422	6.66
585.761	6.76
586.1	6.73
586.438	6.7
586.777	6.52
587.115	6.94
587.454	6.58
587.792	6.66
588.13	7.21
588.469	6.87
588.807	6.8
589.145	6.51
589.483	6.86
589.821	6.64
590.159	7.15
590.497	7.25
590.835	7.19
591.173	6.83
591.511	7.18
591.849	7.05
592.187	7.17
592.524	7.14
592.862	7.14
593.2	7.3
593.537	7.23
593.875	6.9
594.212	6.88
594.55	7.2
594.887	7.38
595.224	7.27
595.561	7.27
595.899	7.19
596.236	7.08
596.573	7.6
596.91	7.14
597.247	7.22
597.584	7.6
597.921	7.4
598.258	7.22
598.594	7.49
598.931	7.23
599.268	7.41
599.604	7.44
599.941	7.51
600.277	7.41
600.614	7.33
600.95	7.5
601.287	7.74
601.623	7.89
601.959	7.48
602.296	7.58
602.632	7.81
602.968	7.99
603.304	8
603.64	7.82
603.976	7.93
604.312	7.81
604.648	7.82
604.984	8.05
605.319	8.07
605.655	8.01
605.991	7.97
606.326	7.88
606.662	7.88
606.998	7.64
607.333	7.96
607.668	8.08
608.004	8.26
608.339	8.39
608.674	8.42
609.01	8.29
609.345	8.03
609.68	8.41
610.015	7.99
610.35	7.83
610.685	8.34
611.02	8.14
611.355	8.24
611.689	8.08
612.024	8.18
612.359	8.16
612.694	8.38
613.028	8.59
613.363	8.79
613.697	8.63
614.032	8.52
614.366	8.47
614.7	8.84
615.035	8.87
615.369	8.65
615.703	8.92
616.037	9.11
616.371	8.89
616.705	9.01
617.039	8.97
617.373	8.79
617.707	8.71
618.041	8.7
618.375	8.89
618.709	9.23
619.042	8.9
619.376	9.02
619.71	9.26
620.043	9.26
620.377	8.95
620.71	9.08
621.043	9.14
621.377	9.22
621.71	9.23
622.043	9.01
622.376	9.3
622.709	9.32
623.043	9.67
623.376	9.41
623.709	9.17
624.041	9.52
624.374	9.33
624.707	9.06
625.04	9.62
625.373	9.11
625.705	9.57
626.038	9.35
626.37	9.74
626.703	9.08
627.035	9.96
627.368	10.02
627.7	9.69
628.032	9.54
628.365	9.57
628.697	9.57
629.029	9.54
629.361	9.58
629.693	10.08
630.025	9.67
630.357	9.99
630.689	10.03
631.021	9.88
631.353	10.22
631.684	9.5
632.016	9.79
632.348	10.3
632.679	10.26
633.011	10.23
633.342	10.42
633.674	9.98
634.005	10.46
634.336	10.05
634.668	10.85
634.999	10.19
635.33	10.28
635.661	10.52
635.992	10.26
636.323	10.75
636.654	10.78
636.985	10.64
637.316	10.39
637.647	10.42
637.977	10.75
638.308	11.16
638.639	10.15
638.969	10.64
639.3	10.57
639.63	10.17
639.961	11.2
640.291	10.89
640.622	11.06
640.952	10.89
641.282	11.33
641.612	11.01
641.943	11.19
642.273	10.88
642.603	11.7
642.933	11.37
643.263	11.03
643.592	11
643.922	11.03
644.252	10.94
644.582	10.86
644.911	11.41
645.241	11.32
645.571	11.37
645.9	11.02
646.23	10.73
646.559	11.31
646.888	11.64
647.218	11.28
647.547	12.24
647.876	11.1
648.205	11.37
648.534	11.42
648.863	11.5
649.192	11.64
649.521	11.39
649.85	11.46
650.179	11.98
650.508	11.3
650.837	11.74
651.165	11.98
651.494	11.86
651.822	12.11
652.151	12
652.479	12
652.808	11.51
653.136	11.92
653.465	11.25
653.793	11.71
654.121	12.18
654.449	11.76
654.777	12.34
655.105	12.4
655.433	12.02
655.761	11.93
656.089	12.71
656.417	11.96
656.745	12.57
657.073	11.98
657.4	13.18
657.728	12.76
658.056	12.73
658.383	12.55
658.711	12.46
659.038	12.66
659.365	12.73
659.693	12.36
660.02	12.7
660.347	12.8
660.674	12.9
661.001	12.91
661.329	12.15
661.656	12.73
661.982	12.83
662.309	12.95
662.636	12.46
662.963	13.39
663.29	13.19
663.616	13.39
663.943	12.6
664.27	12.68
664.596	13.56
664.923	13.45
665.249	12.9
665.576	12.59
665.902	13.81
666.228	13.44
666.554	14.01
666.881	13.52
667.207	14.11
667.533	13.69
667.859	13.48
668.185	13.29
668.511	13.46
668.837	12.99
669.162	13.75
669.488	13.27
669.814	13.93
670.139	13.99
670.465	13.69
670.791	13.54
671.116	14.25
671.442	13.64
671.767	13.67
672.092	14.45
672.418	13.56
672.743	14.4
673.068	13.65
673.393	14.13
673.718	14.27
674.043	14.04
674.368	14.06
674.693	14.46
675.018	14.21
675.343	14.29
675.667	13.86
675.992	14.38
676.317	14.49
676.641	14.11
676.966	14.56
677.29	14.04
677.615	14.65
677.939	14.35
678.264	14.38
678.588	14.98
678.912	14.55
679.236	14.95
679.56	13.95
679.885	15.21
680.209	14.53
680.532	14.96
680.856	15.39
681.18	15.02
681.504	14.93
681.828	14.95
682.152	14.77
682.475	15.34
682.799	14.98
683.122	14.9
683.446	14.91
683.769	15.86
684.093	15.02
684.416	15.51
684.739	15.13
685.062	15.26
685.386	15.38
685.709	14.91
686.032	15.33
686.355	16.41
686.678	15.52
687.001	14.97
687.324	15.83
687.646	15.28
687.969	16.14
