Data from 2009-1_chest_Reflection__0__215.txt Node

Date: Fri Dec 15 18:22:03 CST 2023
User: ToomeyLab
Spectrometer: FLMS14357
Trigger mode: 0
Integration Time (sec): 1.000000E-2
Scans to average: 100
Electric dark correction enabled: true
Nonlinearity correction enabled: false
Boxcar width: 0
XAxis mode: Wavelengths
Number of Pixels in Spectrum: 2048
>>>>>Begin Spectral Data<<<<<
189.047	193.48
189.435	193.48
189.823	193.48
190.211	845.41
190.599	-52.03
190.987	30.86
191.375	1368.44
191.763	287.8
192.151	20.67
192.538	183.62
192.926	355.84
193.314	49.45
193.702	78.35
194.089	21.3
194.477	213.09
194.864	8.84
195.252	79.74
195.639	58.05
196.027	338.21
196.414	55.13
196.801	44.43
197.189	175.28
197.576	59.76
197.963	-435.45
198.351	2.19
198.738	6.58
199.125	4.56
199.512	-0.17
199.899	51.07
200.286	32.94
200.673	38.94
201.06	-28.58
201.447	1.16
201.833	5.71
202.22	31.26
202.607	19.62
202.994	109.26
203.38	-3.08
203.767	50.98
204.154	17.04
204.54	42.87
204.927	16.34
205.313	-27.81
205.699	50.72
206.086	38.44
206.472	27.13
206.858	-19.37
207.245	-44.26
207.631	17.48
208.017	15.52
208.403	-29.34
208.789	6.92
209.175	9.96
209.561	-1.08
209.947	4.48
210.333	-41.69
210.719	40.93
211.105	-0.37
211.491	-41.77
211.876	23.87
212.262	28.14
212.648	29.18
213.034	14.34
213.419	-9.63
213.805	-29.04
214.19	-24.69
214.576	-30.23
214.961	-43.93
215.346	-139.1
215.732	-22.66
216.117	3.7
216.502	-12.11
216.888	8.55
217.273	2.99
217.658	-18.08
218.043	3.2
218.428	-41.88
218.813	-14.08
219.198	-6.61
219.583	3.22
219.968	13.16
220.353	-6.92
220.738	11.17
221.122	16.59
221.507	-30.84
221.892	-47.35
222.276	-13.03
222.661	-7.73
223.046	24.99
223.43	3.61
223.815	-1.84
224.199	-5.94
224.583	0.83
224.968	7.28
225.352	0.94
225.736	-4.36
226.121	-24.07
226.505	-4.26
226.889	6.18
227.273	-6.38
227.657	4.22
228.041	2.08
228.425	-1.67
228.809	2.47
229.193	2.62
229.577	0.36
229.961	4.77
230.344	2.85
230.728	2.74
231.112	2.57
231.495	2.58
231.879	0.78
232.263	2.97
232.646	3.29
233.03	1.95
233.413	1.74
233.797	0.95
234.18	2.49
234.563	3.01
234.946	-0.57
235.33	3.76
235.713	2.07
236.096	1.58
236.479	1.82
236.862	0.53
237.245	1.91
237.628	0.95
238.011	2.17
238.394	3.38
238.777	2.09
239.16	1.45
239.543	0.53
239.925	3.1
240.308	1.19
240.691	1.25
241.073	3.48
241.456	2.83
241.838	1.01
242.221	1.15
242.603	2.27
242.986	2.44
243.368	1.47
243.75	2.35
244.133	2.66
244.515	3.02
244.897	2.67
245.279	2.47
245.661	2.21
246.043	2.49
246.425	2.04
246.807	3.35
247.189	2.81
247.571	2.17
247.953	2.32
248.335	2.34
248.717	2.33
249.098	2.07
249.48	2.2
249.862	2.2
250.243	2.6
250.625	2.17
251.006	2.45
251.388	1.21
251.769	1.97
252.151	3.77
252.532	2.98
252.913	0.81
253.295	1.97
253.676	2.07
254.057	2.76
254.438	2.49
254.819	2.16
255.2	1.74
255.581	2.16
255.962	1.08
256.343	3.03
256.724	2.39
257.105	1.89
257.486	1.75
257.867	1.84
258.247	2.76
258.628	1.12
259.009	1.16
259.389	2.2
259.77	1.56
260.15	1.37
260.531	1.19
260.911	2.92
261.292	2.36
261.672	2.44
262.052	2.44
262.432	2.27
262.813	2.56
263.193	2.69
263.573	1.72
263.953	1.82
264.333	2.58
264.713	1.95
265.093	2.44
265.473	2.62
265.853	0.61
266.233	3.24
266.612	0.6
266.992	0.92
267.372	2.04
267.752	1.91
268.131	2.01
268.511	2.56
268.89	2.32
269.27	2.44
269.649	2.21
270.029	1.24
270.408	2.66
270.787	2.45
271.167	2.76
271.546	2.79
271.925	2.24
272.304	2.25
272.683	2.3
273.062	1.63
273.441	2.26
273.82	1.72
274.199	2.43
274.578	2.59
274.957	1.98
275.336	1.68
275.715	1.64
276.093	2
276.472	2.22
276.851	1.55
277.229	1.97
277.608	1.14
277.986	2.15
278.365	2.37
278.743	1.69
279.122	2.16
279.5	2.38
279.878	2.73
280.257	2.08
280.635	1.89
281.013	1.88
281.391	2.6
281.769	1.9
282.147	1.69
282.525	3.16
282.903	1.49
283.281	1.51
283.659	2.69
284.037	2.22
284.415	2.36
284.792	2.57
285.17	1.02
285.548	2.24
285.925	2.67
286.303	2.03
286.68	1.89
287.058	2.18
287.435	2.54
287.813	2.03
288.19	2.31
288.567	2.34
288.945	2.34
289.322	2.21
289.699	1.9
290.076	2.11
290.453	2.26
290.83	1.98
291.207	1.85
291.584	2.17
291.961	2.26
292.338	2.13
292.715	2.56
293.092	1.98
293.469	2.14
293.845	3.03
294.222	2.19
294.599	1.97
294.975	2.02
295.352	2.19
295.728	1.57
296.105	1.87
296.481	2.45
296.858	1.95
297.234	1.95
297.61	2.42
297.986	2.11
298.363	2.18
298.739	2.69
299.115	1.98
299.491	1.91
299.867	2.14
300.243	2.39
300.619	2.07
300.995	2.12
301.371	2.16
301.746	1.72
302.122	2.45
302.498	2.53
302.874	2.1
303.249	2.54
303.625	2.31
304	2.58
304.376	2.31
304.751	2.01
305.127	3.36
305.502	2.03
305.878	1.84
306.253	2.42
306.628	2.86
307.003	2.18
307.378	3.54
307.754	1.76
308.129	1.24
308.504	2.46
308.879	1.69
309.254	3.25
309.629	2.84
310.003	2.64
310.378	2.88
310.753	2.87
311.128	2.48
311.502	2.49
311.877	2.81
312.252	2.08
312.626	2.49
313.001	2.58
313.375	2.62
313.75	2.1
314.124	2.82
314.498	2.7
314.873	2.45
315.247	2.42
315.621	2.36
315.995	2.63
316.369	2.47
316.743	2.81
317.117	2.38
317.491	2.56
317.865	2.23
318.239	3.07
318.613	2.93
318.987	2.47
319.361	2.64
319.734	2.8
320.108	2.78
320.482	2.78
320.855	2.73
321.229	2.51
321.602	2.6
321.976	2.79
322.349	2.11
322.723	2.66
323.096	2.6
323.469	1.82
323.843	2.4
324.216	2.89
324.589	2.61
324.962	2.34
325.335	2.27
325.708	2.54
326.081	2.72
326.454	2.88
326.827	2.58
327.2	2.61
327.573	2.95
327.945	3.09
328.318	3.04
328.691	2.1
329.063	2.83
329.436	2.86
329.809	2.7
330.181	2.52
330.553	2.33
330.926	3.15
331.298	3.11
331.671	2.1
332.043	3.06
332.415	3.06
332.787	2.53
333.159	3.64
333.532	2.98
333.904	2.95
334.276	3.04
334.648	2.73
335.02	2.6
335.391	2.81
335.763	2.15
336.135	3.19
336.507	3.45
336.879	2.76
337.25	1.86
337.622	2.62
337.993	2.8
338.365	2.96
338.736	2.78
339.108	3.24
339.479	2.49
339.851	2.42
340.222	2.56
340.593	2.72
340.964	3.41
341.336	3.39
341.707	2.82
342.078	3.28
342.449	3.39
342.82	2.64
343.191	2.74
343.562	2.8
343.933	3.25
344.303	2.72
344.674	2.74
345.045	2.62
345.416	3.35
345.786	2.64
346.157	2.93
346.527	2.61
346.898	2.36
347.268	3.09
347.639	2.81
348.009	3.12
348.38	2.88
348.75	3.23
349.12	2.46
349.49	3.12
349.861	3.11
350.231	2.93
350.601	3.18
350.971	2.64
351.341	2.73
351.711	3.08
352.081	2.84
352.45	2.91
352.82	3.16
353.19	2.65
353.56	2.78
353.929	2.66
354.299	2.88
354.669	2.69
355.038	2.9
355.408	2.76
355.777	2.92
356.147	2.41
356.516	2.47
356.885	3.04
357.254	2.74
357.624	3.34
357.993	3.12
358.362	2.17
358.731	2.73
359.1	2.98
359.469	3.38
359.838	2.9
360.207	2.55
360.576	2.73
360.945	3.16
361.314	3.2
361.682	2.49
362.051	2.71
362.42	3.14
362.788	2.52
363.157	3.08
363.525	3.11
363.894	3.02
364.262	2.98
364.631	2.69
364.999	2.99
365.367	2.39
365.735	3.51
366.104	3.24
366.472	3
366.84	2.6
367.208	2.74
367.576	2.96
367.944	3.09
368.312	2.44
368.68	2.52
369.048	2.86
369.416	2.83
369.783	2.82
370.151	3.02
370.519	3.19
370.886	3.51
371.254	2.8
371.621	2.7
371.989	3.39
372.356	2.69
372.724	2.7
373.091	2.91
373.458	2.98
373.826	2.81
374.193	2.78
374.56	3.16
374.927	3.14
375.294	3.14
375.661	3.3
376.028	2.8
376.395	2.67
376.762	2.94
377.129	3.1
377.496	2.79
377.863	2.91
378.229	2.46
378.596	3
378.963	3.01
379.329	2.94
379.696	3.11
380.062	2.73
380.429	2.9
380.795	2.55
381.161	3.04
381.528	3.12
381.894	2.71
382.26	2.76
382.626	2.91
382.993	2.48
383.359	3.34
383.725	2.84
384.091	2.67
384.457	2.95
384.823	2.78
385.188	3.06
385.554	2.82
385.92	3.36
386.286	3.09
386.651	3.14
387.017	3.24
387.383	2.86
387.748	2.95
388.114	3.19
388.479	2.82
388.845	3.17
389.21	2.99
389.575	3.29
389.94	2.96
390.306	3.1
390.671	3.34
391.036	2.57
391.401	3.02
391.766	3.03
392.131	2.87
392.496	2.95
392.861	2.94
393.226	3.25
393.591	3.07
393.956	2.9
394.32	3
394.685	2.78
395.05	3.03
395.414	3.05
395.779	2.92
396.143	2.95
396.508	3.16
396.872	2.9
397.236	3
397.601	2.91
397.965	2.93
398.329	3.01
398.694	3.05
399.058	2.84
399.422	2.92
399.786	3.25
400.15	2.98
400.514	3.13
400.878	3.28
401.242	3.36
401.605	3.13
401.969	3.19
402.333	2.91
402.697	3.08
403.06	3.39
403.424	3.21
403.787	2.94
404.151	3.15
404.514	3.16
404.878	2.72
405.241	3.12
405.604	2.82
405.968	3.07
406.331	2.87
406.694	3.23
407.057	3.13
407.42	3.08
407.783	2.91
408.146	3.05
408.509	3.16
408.872	2.92
409.235	2.94
409.598	3.28
409.961	3.31
410.323	3.09
410.686	2.92
411.049	2.67
411.411	3.03
411.774	3.01
412.136	3.16
412.499	2.92
412.861	3.16
413.223	3.05
413.586	3.13
413.948	3.18
414.31	3.16
414.672	2.93
415.035	2.74
415.397	3.42
415.759	2.85
416.121	3.28
416.483	2.72
416.845	3.1
417.206	3.11
417.568	3.27
417.93	2.76
418.292	3.27
418.653	2.93
419.015	2.83
419.377	3.04
419.738	3.18
420.1	2.99
420.461	3.14
420.822	3.03
421.184	3.15
421.545	3.21
421.906	2.92
422.267	3.1
422.629	3.08
422.99	3.08
423.351	2.98
423.712	3.12
424.073	2.88
424.434	2.97
424.795	3.08
425.155	3.06
425.516	3.02
425.877	3.06
426.238	2.96
426.598	3.18
426.959	3.06
427.32	3.06
427.68	3.1
428.041	3
428.401	3.18
428.761	3.1
429.122	3.18
429.482	3.05
429.842	3.17
430.202	3.12
430.563	3.25
430.923	3.18
431.283	3.32
431.643	3.34
432.003	3.21
432.363	3.2
432.722	3.26
433.082	3.32
433.442	3.07
433.802	3.11
434.161	3.16
434.521	3.44
434.881	3.42
435.24	3.19
435.6	3.2
435.959	3.3
436.319	3.25
436.678	3.32
437.037	3.28
437.396	3.35
437.756	3.24
438.115	3.26
438.474	3.53
438.833	3.17
439.192	3.32
439.551	3.42
439.91	3.33
440.269	3.35
440.628	3.33
440.987	3.36
441.345	3.31
441.704	3.37
442.063	3.27
442.421	3.11
442.78	3.18
443.138	3.37
443.497	3.34
443.855	3.34
444.214	3.42
444.572	3.49
444.93	3.4
445.288	3.57
445.647	3.46
446.005	3.41
446.363	3.5
446.721	3.42
447.079	3.37
447.437	3.46
447.795	3.38
448.153	3.31
448.51	3.35
448.868	3.42
449.226	3.39
449.584	3.37
449.941	3.55
450.299	3.37
450.656	3.42
451.014	3.52
451.371	3.43
451.729	3.49
452.086	3.71
452.443	3.41
452.801	3.65
453.158	3.49
453.515	3.57
453.872	3.63
454.229	3.34
454.586	3.35
454.943	3.47
455.3	3.58
455.657	3.51
456.014	3.39
456.371	3.52
456.727	3.56
457.084	3.74
457.441	3.55
457.797	3.37
458.154	3.69
458.51	3.7
458.867	3.65
459.223	3.56
459.58	3.54
459.936	3.67
460.292	3.58
460.648	3.46
461.005	3.47
461.361	3.45
461.717	3.58
462.073	3.47
462.429	3.58
462.785	3.5
463.141	3.52
463.496	3.65
463.852	3.67
464.208	3.52
464.564	3.62
464.919	3.7
465.275	3.61
465.631	3.88
465.986	3.58
466.342	3.68
466.697	3.61
467.052	3.68
467.408	3.62
467.763	3.65
468.118	3.85
468.473	3.58
468.829	3.57
469.184	3.53
469.539	3.77
469.894	3.54
470.249	3.88
470.603	3.73
470.958	3.82
471.313	3.68
471.668	3.85
472.023	3.82
472.377	3.67
472.732	3.61
473.086	3.64
473.441	3.64
473.795	3.81
474.15	3.8
474.504	3.75
474.859	3.77
475.213	3.77
475.567	3.58
475.921	3.57
476.275	3.79
476.63	3.82
476.984	3.95
477.338	3.87
477.692	3.56
478.045	3.75
478.399	3.73
478.753	3.8
479.107	3.72
479.461	3.7
479.814	3.6
480.168	3.62
480.521	3.58
480.875	3.81
481.228	3.85
481.582	3.75
481.935	3.83
482.289	3.65
482.642	3.82
482.995	3.62
483.348	3.61
483.701	3.78
484.055	3.68
484.408	3.79
484.761	3.61
485.114	3.6
485.466	3.52
485.819	3.47
486.172	3.45
486.525	3.57
486.878	3.61
487.23	3.65
487.583	3.7
487.936	3.73
488.288	3.68
488.641	3.72
488.993	3.6
489.345	3.54
489.698	3.58
490.05	3.57
490.402	3.66
490.754	3.69
491.107	3.75
491.459	3.8
491.811	3.78
492.163	3.86
492.515	3.8
492.866	3.84
493.218	3.74
493.57	3.66
493.922	3.61
494.274	3.73
494.625	3.87
494.977	3.91
495.328	3.99
495.68	3.92
496.031	3.94
496.383	3.88
496.734	4.12
497.086	4.05
497.437	3.94
497.788	3.79
498.139	3.87
498.49	3.95
498.842	3.82
499.193	3.96
499.544	3.91
499.894	3.83
500.245	3.89
500.596	3.84
500.947	4.05
501.298	3.97
501.648	3.98
501.999	4
502.35	3.97
502.7	4.07
503.051	3.93
503.401	4.01
503.752	4.06
504.102	3.86
504.452	4.02
504.803	3.91
505.153	3.99
505.503	3.93
505.853	4.05
506.203	3.97
506.553	4.01
506.903	3.95
507.253	3.97
507.603	3.96
507.953	4.06
508.303	4.25
508.652	3.95
509.002	3.94
509.352	4.23
509.701	4.06
510.051	4.02
510.4	3.98
510.75	3.9
511.099	4.08
511.449	3.95
511.798	4.04
512.147	4.02
512.496	3.97
512.846	4.17
513.195	4.08
513.544	4.02
513.893	4.1
514.242	3.98
514.591	4.14
514.939	4.07
515.288	4.03
515.637	4.14
515.986	4.19
516.334	4.24
516.683	4.23
517.032	4.11
517.38	4.13
517.729	4.15
518.077	4.06
518.426	4.31
518.774	4.21
519.122	4.14
519.47	4.08
519.819	4
520.167	4.19
520.515	4.11
520.863	4.14
521.211	4.14
521.559	4.21
521.907	4.08
522.255	4.14
522.602	4.14
522.95	4.05
523.298	4.15
523.645	4.34
523.993	4.11
524.341	4.26
524.688	4.24
525.036	4.28
525.383	4.3
525.73	4.36
526.078	4.32
526.425	4.18
526.772	4.28
527.119	4.28
527.466	4.18
527.814	4.28
528.161	4.24
528.508	4.29
528.854	4.25
529.201	4.2
529.548	4.19
529.895	4.2
530.242	4.1
530.588	4.05
530.935	4.06
531.282	4.16
531.628	4.18
531.975	4.28
532.321	4.33
532.667	4.33
533.014	4.38
533.36	4.37
533.706	4.41
534.052	4.38
534.399	4.25
534.745	4.3
535.091	4.28
535.437	4.29
535.783	4.26
536.129	4.37
536.474	4.42
536.82	4.39
537.166	4.52
537.512	4.48
537.857	4.51
538.203	4.55
538.549	4.41
538.894	4.32
539.239	4.57
539.585	4.4
539.93	4.56
540.276	4.67
540.621	4.59
540.966	4.46
541.311	4.45
541.656	4.48
542.001	4.52
542.346	4.6
542.691	4.4
543.036	4.4
543.381	4.29
543.726	4.36
544.071	4.48
544.415	4.5
544.76	4.51
545.105	4.55
545.449	4.61
545.794	4.62
546.138	4.64
546.483	4.74
546.827	4.67
547.171	4.68
547.516	4.78
547.86	4.6
548.204	4.66
548.548	4.7
548.892	4.78
549.236	4.64
549.58	4.77
549.924	4.83
550.268	4.95
550.612	4.84
550.956	4.92
551.3	4.92
551.643	5.13
551.987	5.01
552.33	4.8
552.674	5.07
553.017	4.86
553.361	4.84
553.704	5.19
554.048	4.98
554.391	4.81
554.734	4.87
555.077	4.9
555.42	4.79
555.764	5.06
556.107	4.99
556.45	4.9
556.793	5.13
557.135	5.15
557.478	5.35
557.821	5.05
558.164	5
558.507	4.93
558.849	5.02
559.192	5.15
559.534	5.22
559.877	5.2
560.219	5.04
560.562	5.43
560.904	5.24
561.246	5.06
561.589	4.97
561.931	5.19
562.273	5.12
562.615	5.3
562.957	5.16
563.299	5.03
563.641	5.19
563.983	5.22
564.325	5.16
564.667	5.02
565.008	5.24
565.35	5.26
565.692	5.24
566.033	5.29
566.375	5.29
566.716	5.53
567.058	5.14
567.399	5.23
567.741	5.21
568.082	5.2
568.423	5.22
568.764	5.3
569.105	5.48
569.447	5.34
569.788	5.34
570.129	5.75
570.47	5.36
570.811	5.6
571.151	5.61
571.492	5.56
571.833	5.63
572.174	5.56
572.514	5.56
572.855	5.5
573.195	5.54
573.536	5.56
573.876	5.57
574.217	5.52
574.557	5.65
574.898	5.67
575.238	5.85
575.578	5.67
575.918	5.74
576.258	5.88
576.598	5.58
576.938	5.56
577.278	5.72
577.618	5.68
577.958	5.77
578.298	5.66
578.638	5.73
578.977	5.77
579.317	5.6
579.657	5.73
579.996	5.94
580.336	5.73
580.675	5.81
581.014	5.94
581.354	6.09
581.693	5.96
582.032	5.99
582.372	5.85
582.711	6.02
583.05	5.93
583.389	6.02
583.728	5.91
584.067	6.08
584.406	6.03
584.745	6.28
585.083	6.21
585.422	6.22
585.761	6.12
586.1	6.33
586.438	6.19
586.777	6.21
587.115	6.45
587.454	6.2
587.792	6.06
588.13	6.35
588.469	6.12
588.807	6.42
589.145	6.09
589.483	6.39
589.821	6.15
590.159	6.45
590.497	6.61
590.835	6.6
591.173	6.61
591.511	6.46
591.849	6.4
592.187	6.52
592.524	6.67
592.862	6.61
593.2	6.53
593.537	6.35
593.875	6.43
594.212	6.4
594.55	6.46
594.887	6.97
595.224	6.47
595.561	6.57
595.899	6.45
596.236	6.51
596.573	6.73
596.91	6.28
597.247	6.73
597.584	7.01
597.921	6.65
598.258	6.71
598.594	6.99
598.931	6.66
599.268	6.61
599.604	6.69
599.941	6.81
600.277	6.95
600.614	6.82
600.95	6.75
601.287	7.24
601.623	6.78
601.959	6.74
602.296	6.93
602.632	7.02
602.968	7.07
603.304	7
603.64	7.03
603.976	6.95
604.312	6.87
604.648	7.12
604.984	7.09
605.319	7.15
605.655	7.1
605.991	7.1
606.326	7.17
606.662	7.19
606.998	6.92
607.333	7.18
607.668	7.23
608.004	7.26
608.339	7.46
608.674	7.47
609.01	7.37
609.345	7.22
609.68	7.58
610.015	7.39
610.35	7.4
610.685	7.23
611.02	7.39
611.355	7.33
611.689	7.44
612.024	7.41
612.359	7.34
612.694	7.55
613.028	7.53
613.363	7.76
613.697	8.03
614.032	7.84
614.366	7.71
614.7	7.8
615.035	8.06
615.369	7.66
615.703	7.56
616.037	7.7
616.371	7.7
616.705	7.57
617.039	7.95
617.373	7.6
617.707	7.93
618.041	7.67
618.375	7.66
618.709	7.97
619.042	8.01
619.376	8.32
619.71	8.02
620.043	7.91
620.377	7.96
620.71	8.13
621.043	8.18
621.377	8.01
621.71	7.97
622.043	8
622.376	7.69
622.709	8.19
623.043	8.51
623.376	8.3
623.709	8.3
624.041	8.44
624.374	8.08
624.707	8.15
625.04	8.45
625.373	8.33
625.705	8.05
626.038	8.41
626.37	8.24
626.703	8.11
627.035	8.52
627.368	8.9
627.7	8.28
628.032	8.47
628.365	8.85
628.697	8.64
629.029	8.25
629.361	8.59
629.693	8.6
630.025	8.47
630.357	8.74
630.689	8.59
631.021	8.7
631.353	8.63
631.684	8.78
632.016	8.31
632.348	8.64
632.679	9.08
633.011	8.99
633.342	9.02
633.674	8.83
634.005	9.06
634.336	8.77
634.668	9.25
634.999	8.68
635.33	9.34
635.661	8.96
635.992	8.82
636.323	9.17
636.654	9.08
636.985	9.13
637.316	9.24
637.647	9.13
637.977	9.48
638.308	9.39
638.639	8.78
638.969	9.16
639.3	9
639.63	8.9
639.961	9.39
640.291	9.18
640.622	9.6
640.952	9.19
641.282	9.54
641.612	9.37
641.943	9.36
642.273	9.58
642.603	10.08
642.933	9.7
643.263	9.53
643.592	9.4
643.922	9.03
644.252	9.14
644.582	9.35
644.911	9.33
645.241	9.62
645.571	9.58
645.9	9.47
646.23	9.6
646.559	9.86
646.888	9.42
647.218	9.76
647.547	9.93
647.876	9.93
648.205	9.82
648.534	9.55
648.863	9.87
649.192	10.09
649.521	10.01
649.85	9.34
650.179	10.19
650.508	9.8
650.837	9.3
651.165	10.37
651.494	10.08
651.822	10.13
652.151	10.2
652.479	10.18
652.808	9.82
653.136	10.09
653.465	9.68
653.793	10.02
654.121	9.8
654.449	10.15
654.777	10.49
655.105	10.55
655.433	10.47
655.761	10.1
656.089	10.59
656.417	10.53
656.745	9.9
657.073	10.31
657.4	11.43
657.728	10.63
658.056	10.34
658.383	10.63
658.711	10.78
659.038	11.02
659.365	11.13
659.693	10.63
660.02	10.05
660.347	10.93
660.674	10.72
661.001	10.74
661.329	10.62
661.656	10.8
661.982	10.78
662.309	10.97
662.636	11.08
662.963	11.31
663.29	11.3
663.616	10.97
663.943	10.85
664.27	11.17
664.596	11.52
664.923	10.97
665.249	11.19
665.576	10.66
665.902	11.38
666.228	10.93
666.554	12.24
666.881	11.23
667.207	10.94
667.533	11.82
667.859	11.73
668.185	11.37
668.511	10.74
668.837	10.8
669.162	12.07
669.488	10.41
669.814	11.21
670.139	12.09
670.465	11.85
670.791	11.59
671.116	12.25
671.442	11.47
671.767	11.62
672.092	12.09
672.418	11.78
672.743	12.59
673.068	11.66
673.393	11.43
673.718	11.58
674.043	11.71
674.368	11.9
674.693	12.18
675.018	12.17
675.343	11.97
675.667	12.02
675.992	11.82
676.317	12.01
676.641	11.94
676.966	12.65
677.29	12.08
677.615	12.23
677.939	12.7
678.264	12.5
678.588	12.37
678.912	11.95
679.236	12.89
679.56	11.34
679.885	12.43
680.209	12.34
680.532	12.64
680.856	13.17
681.18	12.25
681.504	12.31
681.828	12.81
682.152	12.5
682.475	12.86
682.799	13.36
683.122	12.48
683.446	12.67
683.769	13.09
684.093	12.8
684.416	13.13
684.739	12.85
685.062	12.57
685.386	12.99
685.709	12.6
686.032	13.15
686.355	12.85
686.678	12.89
687.001	12.82
687.324	14.4
687.646	12.51
687.969	13.36
688.292	13.14
688.614	12.21
688.937	13.43
689.26	12.93
689.582	13.8
