Data from 2009-1_crown_Reflection__1__221.txt Node

Date: Fri Dec 15 18:24:21 CST 2023
User: ToomeyLab
Spectrometer: FLMS14357
Trigger mode: 0
Integration Time (sec): 1.000000E-2
Scans to average: 100
Electric dark correction enabled: true
Nonlinearity correction enabled: false
Boxcar width: 0
XAxis mode: Wavelengths
Number of Pixels in Spectrum: 2048
>>>>>Begin Spectral Data<<<<<
189.047	162.61
189.435	162.61
189.823	162.61
190.211	-208.26
190.599	57.85
190.987	41.82
191.375	446.1
191.763	-159.52
192.151	47.26
192.538	224.98
192.926	446.47
193.314	100.78
193.702	186.85
194.089	10.68
194.477	-133.02
194.864	33.55
195.252	49.68
195.639	59.71
196.027	-127.37
196.414	22.31
196.801	133.27
197.189	312.86
197.576	142.85
197.963	-384.85
198.351	-46.67
198.738	-46.41
199.125	-4.04
199.512	-96.5
199.899	7.5
200.286	0.39
200.673	-38.08
201.06	-34.66
201.447	-66.06
201.833	5.17
202.22	0.25
202.607	-8.88
202.994	167.38
203.38	22.5
203.767	36.31
204.154	24.39
204.54	39.14
204.927	12.8
205.313	-63.82
205.699	-14.42
206.086	56.68
206.472	11.37
206.858	20.51
207.245	-51.75
207.631	-3.35
208.017	14.13
208.403	-17.81
208.789	1.57
209.175	-1.66
209.561	6.93
209.947	-58.65
210.333	-64.86
210.719	17.7
211.105	9.31
211.491	-33.31
211.876	4.5
212.262	-9.88
212.648	6.48
213.034	3.9
213.419	-19.23
213.805	-77.41
214.19	-49.53
214.576	-29.72
214.961	-121.39
215.346	-94.71
215.732	-17.94
216.117	0.67
216.502	-64.16
216.888	-0.04
217.273	19.36
217.658	-37
218.043	4.83
218.428	-17.35
218.813	-3.42
219.198	-36.69
219.583	-6.56
219.968	-0.62
220.353	-25.21
220.738	2.55
221.122	-4.41
221.507	-9.1
221.892	-24.66
222.276	-63.11
222.661	3.57
223.046	10.87
223.43	3.21
223.815	8.77
224.199	-19.66
224.583	-5.63
224.968	-4.03
225.352	6.45
225.736	-0.51
226.121	-12.14
226.505	-11.21
226.889	7.03
227.273	-11.54
227.657	-1.22
228.041	-0.81
228.425	-1.51
228.809	2.86
229.193	2.4
229.577	1.53
229.961	1.7
230.344	1.12
230.728	1.44
231.112	1.98
231.495	1.82
231.879	1.02
232.263	3.25
232.646	4.17
233.03	2.12
233.413	0.22
233.797	2.33
234.18	-0.73
234.563	1.5
234.946	-1.07
235.33	4.02
235.713	2.66
236.096	1.08
236.479	3.5
236.862	-0.65
237.245	1.84
237.628	0.71
238.011	2.55
238.394	2.72
238.777	1.07
239.16	0.15
239.543	0.23
239.925	3.01
240.308	-0.07
240.691	1.55
241.073	1.92
241.456	0.12
241.838	1.15
242.221	1.64
242.603	1.94
242.986	2.45
243.368	1.94
243.75	3.01
244.133	2.56
244.515	2.44
244.897	2.12
245.279	2.24
245.661	1.59
246.043	1.17
246.425	0.8
246.807	2.18
247.189	2.32
247.571	2.62
247.953	2.33
248.335	2.17
248.717	2.29
249.098	1.93
249.48	2.32
249.862	2.16
250.243	2.38
250.625	2.04
251.006	2.25
251.388	0.69
251.769	2.14
252.151	2.28
252.532	2.18
252.913	1.48
253.295	1.23
253.676	1.23
254.057	2.45
254.438	1.86
254.819	1.54
255.2	0.88
255.581	1.96
255.962	1.37
256.343	2.84
256.724	1.46
257.105	2.68
257.486	2.12
257.867	2.14
258.247	2.05
258.628	1.25
259.009	1.05
259.389	1.9
259.77	1.3
260.15	0.52
260.531	1.23
260.911	2.16
261.292	1.72
261.672	2.26
262.052	2.24
262.432	2.46
262.813	2.19
263.193	2.24
263.573	1.75
263.953	1.06
264.333	2.81
264.713	1.9
265.093	1.92
265.473	2.08
265.853	1
266.233	2.51
266.612	-0.22
266.992	1.18
267.372	1.29
267.752	1.93
268.131	1.19
268.511	2.81
268.89	1.41
269.27	1.56
269.649	1.86
270.029	1.73
270.408	2.4
270.787	1.94
271.167	2.27
271.546	2.43
271.925	0.84
272.304	1.45
272.683	2.6
273.062	1.64
273.441	1.86
273.82	1.57
274.199	2.09
274.578	2.29
274.957	1.84
275.336	1.72
275.715	1.56
276.093	1.17
276.472	2.14
276.851	1.42
277.229	0.89
277.608	1.04
277.986	1.85
278.365	2.52
278.743	0.63
279.122	1.52
279.5	1.45
279.878	2.38
280.257	2.11
280.635	1.64
281.013	1.7
281.391	1.8
281.769	1.74
282.147	2.2
282.525	2.57
282.903	1.07
283.281	2.29
283.659	2.41
284.037	1.79
284.415	2.19
284.792	1.9
285.17	1.62
285.548	1.44
285.925	2.09
286.303	1.7
286.68	1.45
287.058	2.05
287.435	1.77
287.813	2.06
288.19	1.4
288.567	1.5
288.945	2.29
289.322	2.26
289.699	1.69
290.076	1.84
290.453	1.57
290.83	1.7
291.207	1.42
291.584	2.37
291.961	2.18
292.338	1.72
292.715	2.61
293.092	1.88
293.469	1.57
293.845	2.24
294.222	1.81
294.599	1.59
294.975	1.75
295.352	1.84
295.728	1.77
296.105	1.45
296.481	2.08
296.858	1.84
297.234	2.62
297.61	1.95
297.986	1.77
298.363	2.15
298.739	2.17
299.115	2.06
299.491	1.6
299.867	2.21
300.243	2.17
300.619	1.84
300.995	1.71
301.371	2.44
301.746	1.86
302.122	2.11
302.498	2.07
302.874	2.2
303.249	2.21
303.625	2.46
304	1.81
304.376	2.19
304.751	1.86
305.127	2.73
305.502	1.52
305.878	1.53
306.253	2.11
306.628	2.42
307.003	1.99
307.378	2.27
307.754	1.84
308.129	1.67
308.504	1.57
308.879	1.36
309.254	2.68
309.629	2.63
310.003	2.2
310.378	2.4
310.753	2.28
311.128	1.68
311.502	1.98
311.877	2.71
312.252	2.02
312.626	1.57
313.001	2.46
313.375	2.85
313.75	1.8
314.124	2.67
314.498	1.99
314.873	2.53
315.247	1.7
315.621	3
315.995	1.86
316.369	2.14
316.743	2
317.117	2.38
317.491	2.02
317.865	2.14
318.239	1.55
318.613	2.69
318.987	2.78
319.361	1.54
319.734	2.67
320.108	1.94
320.482	2.11
320.855	1.99
321.229	1.75
321.602	2.4
321.976	2.65
322.349	1.86
322.723	2.17
323.096	2.7
323.469	1.36
323.843	2.35
324.216	2.76
324.589	1.98
324.962	2.28
325.335	1.88
325.708	1.77
326.081	2.13
326.454	2.4
326.827	2.06
327.2	1.98
327.573	2.63
327.945	2.37
328.318	2.41
328.691	1.87
329.063	2.18
329.436	2.49
329.809	2.86
330.181	2.8
330.553	2.47
330.926	2.94
331.298	2.47
331.671	1.97
332.043	2.95
332.415	2.38
332.787	2.36
333.159	3.15
333.532	2.67
333.904	2.46
334.276	2.59
334.648	2.37
335.02	2.24
335.391	1.91
335.763	2.4
336.135	2.22
336.507	2.41
336.879	2.11
337.25	2.66
337.622	2.46
337.993	2.88
338.365	2.4
338.736	2.16
339.108	2.28
339.479	2.16
339.851	2.55
340.222	2.49
340.593	2.46
340.964	2.26
341.336	3.28
341.707	1.89
342.078	2.8
342.449	2.72
342.82	2.39
343.191	2.69
343.562	2.56
343.933	2.28
344.303	2.25
344.674	2.69
345.045	2.52
345.416	2.75
345.786	2.23
346.157	2.55
346.527	2.01
346.898	2.35
347.268	3.35
347.639	2.27
348.009	2.62
348.38	2.32
348.75	2.3
349.12	2.15
349.49	3.14
349.861	2.51
350.231	2.15
350.601	2.38
350.971	2.96
351.341	2.79
351.711	2.39
352.081	2.26
352.45	2.09
352.82	2.5
353.19	2.36
353.56	2.59
353.929	2.56
354.299	2.37
354.669	1.99
355.038	3.36
355.408	2.46
355.777	2.11
356.147	2.61
356.516	2.77
356.885	2.65
357.254	2.58
357.624	2.79
357.993	2.43
358.362	2.28
358.731	2.42
359.1	2.57
359.469	2.81
359.838	2.75
360.207	1.91
360.576	2.3
360.945	2.64
361.314	2.4
361.682	2.31
362.051	2.44
362.42	2.7
362.788	2.37
363.157	2.65
363.525	2.84
363.894	2.35
364.262	2.51
364.631	2.58
364.999	2.4
365.367	2.32
365.735	3.31
366.104	2.99
366.472	2.89
366.84	2.33
367.208	2.78
367.576	2.66
367.944	2.88
368.312	2.41
368.68	2.44
369.048	2.73
369.416	2.53
369.783	2.17
370.151	3.08
370.519	2.73
370.886	2.74
371.254	2.37
371.621	2.97
371.989	2.53
372.356	2.59
372.724	2.54
373.091	2.61
373.458	2.66
373.826	2.79
374.193	2.7
374.56	2.79
374.927	2.49
375.294	2.71
375.661	2.67
376.028	2.7
376.395	2.66
376.762	2.62
377.129	2.6
377.496	2.66
377.863	2.81
378.229	2.21
378.596	2.71
378.963	2.55
379.329	2.57
379.696	2.58
380.062	2.97
380.429	2.68
380.795	2.53
381.161	2.52
381.528	3.2
381.894	2.46
382.26	2.68
382.626	2.7
382.993	2.88
383.359	2.9
383.725	2.62
384.091	2.48
384.457	3.09
384.823	2.43
385.188	2.63
385.554	2.7
385.92	2.6
386.286	2.75
386.651	2.75
387.017	2.91
387.383	2.58
387.748	2.66
388.114	2.62
388.479	2.82
388.845	2.94
389.21	2.96
389.575	2.92
389.94	2.78
390.306	2.81
390.671	2.96
391.036	2.37
391.401	2.37
391.766	2.83
392.131	2.45
392.496	3
392.861	2.77
393.226	3.12
393.591	2.75
393.956	2.6
394.32	2.8
394.685	2.62
395.05	2.64
395.414	2.89
395.779	2.61
396.143	2.72
396.508	2.77
396.872	2.88
397.236	2.87
397.601	2.51
397.965	2.68
398.329	2.58
398.694	2.81
399.058	3.05
399.422	2.44
399.786	2.58
400.15	2.75
400.514	2.85
400.878	2.75
401.242	2.83
401.605	2.96
401.969	2.74
402.333	2.91
402.697	3.01
403.06	2.86
403.424	2.79
403.787	2.73
404.151	3
404.514	2.89
404.878	2.6
405.241	2.98
405.604	2.67
405.968	3.06
406.331	2.89
406.694	2.94
407.057	2.94
407.42	3.12
407.783	2.69
408.146	2.93
408.509	2.86
408.872	2.76
409.235	2.78
409.598	2.94
409.961	2.87
410.323	3.01
410.686	2.85
411.049	2.43
411.411	2.77
411.774	2.63
412.136	2.81
412.499	2.78
412.861	2.73
413.223	2.84
413.586	2.81
413.948	2.8
414.31	2.76
414.672	2.69
415.035	2.73
415.397	3.31
415.759	2.52
416.121	2.92
416.483	2.75
416.845	2.84
417.206	2.9
417.568	2.91
417.93	2.58
418.292	2.77
418.653	2.86
419.015	2.83
419.377	2.83
419.738	2.99
420.1	2.81
420.461	2.85
420.822	2.81
421.184	2.77
421.545	2.83
421.906	2.83
422.267	2.84
422.629	2.8
422.99	2.86
423.351	2.73
423.712	2.73
424.073	2.82
424.434	2.81
424.795	2.8
425.155	2.85
425.516	2.72
425.877	2.8
426.238	2.79
426.598	2.93
426.959	2.85
427.32	2.79
427.68	2.83
428.041	2.88
428.401	2.97
428.761	2.9
429.122	2.86
429.482	2.92
429.842	2.95
430.202	2.92
430.563	2.83
430.923	2.62
431.283	2.94
431.643	2.94
432.003	2.92
432.363	3.21
432.722	2.87
433.082	2.94
433.442	2.95
433.802	2.72
434.161	2.85
434.521	3.2
434.881	3.26
435.24	3.01
435.6	2.87
435.959	3.16
436.319	3.13
436.678	2.92
437.037	3.06
437.396	3.06
437.756	3.02
438.115	2.97
438.474	3.05
438.833	2.87
439.192	3.03
439.551	3.19
439.91	3.02
440.269	2.98
440.628	2.93
440.987	3.04
441.345	2.75
441.704	3.15
442.063	2.95
442.421	3
442.78	3.08
443.138	3.02
443.497	3.08
443.855	3.05
444.214	3.07
444.572	3.1
444.93	3.11
445.288	3.05
445.647	3.01
446.005	2.91
446.363	3.06
446.721	2.98
447.079	2.86
447.437	3.08
447.795	3.09
448.153	2.97
448.51	3.04
448.868	3.05
449.226	3
449.584	3.05
449.941	3.11
450.299	3.14
450.656	3.01
451.014	3.06
451.371	2.96
451.729	2.95
452.086	3.09
452.443	3.03
452.801	3.2
453.158	3.18
453.515	3.04
453.872	3.18
454.229	3.01
454.586	3.01
454.943	3.1
455.3	3.22
455.657	3.14
456.014	3.08
456.371	3.07
456.727	3.1
457.084	3.37
457.441	3.04
457.797	3.08
458.154	3.33
458.51	3.28
458.867	3.18
459.223	3.23
459.58	3.28
459.936	3.41
460.292	3.07
460.648	3.13
461.005	3.02
461.361	3.15
461.717	3.11
462.073	3.08
462.429	3.15
462.785	3.14
463.141	3.12
463.496	3.03
463.852	3.4
464.208	3.25
464.564	3.43
464.919	3.29
465.275	3.13
465.631	3.48
465.986	3.24
466.342	3.21
466.697	3.09
467.052	3.25
467.408	3.37
467.763	2.96
468.118	3.27
468.473	3.12
468.829	3.28
469.184	3.03
469.539	3.19
469.894	3.28
470.249	3.35
470.603	3.32
470.958	3.31
471.313	3.29
471.668	3.34
472.023	3.28
472.377	3.29
472.732	3.23
473.086	3.27
473.441	3.06
473.795	3.44
474.15	3.29
474.504	3.17
474.859	3.36
475.213	3.12
475.567	3.06
475.921	3.09
476.275	3.4
476.63	3.23
476.984	3.35
477.338	3.38
477.692	3.14
478.045	3.14
478.399	3.25
478.753	3.27
479.107	3.47
479.461	3.22
479.814	3.47
480.168	3.17
480.521	3.31
480.875	3.27
481.228	3.23
481.582	3.36
481.935	3.33
482.289	3.41
482.642	3.24
482.995	3.22
483.348	3.08
483.701	3.21
484.055	3.28
484.408	3.31
484.761	3.21
485.114	3.14
485.466	3.07
485.819	3.06
486.172	3.06
486.525	3.05
486.878	3.09
487.23	3.13
487.583	3.18
487.936	3.23
488.288	3.21
488.641	3.26
488.993	3.14
489.345	3.08
489.698	3.06
490.05	3.08
490.402	3.14
490.754	3.13
491.107	3.25
491.459	3.24
491.811	3.24
492.163	3.28
492.515	3.21
492.866	3.26
493.218	3.21
493.57	3.16
493.922	3.1
494.274	3.21
494.625	3.29
494.977	3.31
495.328	3.3
495.68	3.27
496.031	3.53
496.383	3.22
496.734	3.51
497.086	3.42
497.437	3.3
497.788	3.38
498.139	3.28
498.49	3.29
498.842	3.17
499.193	3.31
499.544	3.35
499.894	3.37
500.245	3.31
500.596	3.3
500.947	3.33
501.298	3.33
501.648	3.33
501.999	3.3
502.35	3.28
502.7	3.4
503.051	3.12
503.401	3.38
503.752	3.44
504.102	3.33
504.452	3.35
504.803	3.29
505.153	3.22
505.503	3.29
505.853	3.34
506.203	3.22
506.553	3.29
506.903	3.28
507.253	3.34
507.603	3.38
507.953	3.45
508.303	3.49
508.652	3.23
509.002	3.44
509.352	3.24
509.701	3.34
510.051	3.26
510.4	3.22
510.75	3.25
511.099	3.31
511.449	3.23
511.798	3.35
512.147	3.38
512.496	3.25
512.846	3.33
513.195	3.36
513.544	3.28
513.893	3.49
514.242	3.22
514.591	3.44
514.939	3.34
515.288	3.15
515.637	3.34
515.986	3.43
516.334	3.4
516.683	3.46
517.032	3.31
517.38	3.41
517.729	3.46
518.077	3.28
518.426	3.41
518.774	3.54
519.122	3.27
519.47	3.36
519.819	3.27
520.167	3.33
520.515	3.34
520.863	3.32
521.211	3.27
521.559	3.37
521.907	3.28
522.255	3.39
522.602	3.3
522.95	3.37
523.298	3.26
523.645	3.42
523.993	3.4
524.341	3.42
524.688	3.46
525.036	3.23
525.383	3.28
525.73	3.58
526.078	3.3
526.425	3.36
526.772	3.46
527.119	3.31
527.466	3.25
527.814	3.32
528.161	3.34
528.508	3.44
528.854	3.28
529.201	3.35
529.548	3.3
529.895	3.26
530.242	3.19
530.588	3.21
530.935	3.17
531.282	3.25
531.628	3.24
531.975	3.29
532.321	3.29
532.667	3.29
533.014	3.4
533.36	3.29
533.706	3.26
534.052	3.35
534.399	3.29
534.745	3.23
535.091	3.27
535.437	3.28
535.783	3.33
536.129	3.3
536.474	3.32
536.82	3.3
537.166	3.44
537.512	3.35
537.857	3.37
538.203	3.4
538.549	3.33
538.894	3.29
539.239	3.44
539.585	3.37
539.93	3.33
540.276	3.47
540.621	3.36
540.966	3.34
541.311	3.46
541.656	3.35
542.001	3.28
542.346	3.52
542.691	3.29
543.036	3.27
543.381	3.2
543.726	3.25
544.071	3.31
544.415	3.37
544.76	3.29
545.105	3.3
545.449	3.42
545.794	3.38
546.138	3.36
546.483	3.5
546.827	3.45
547.171	3.41
547.516	3.53
547.86	3.36
548.204	3.22
548.548	3.43
548.892	3.39
549.236	3.33
549.58	3.31
549.924	3.42
550.268	3.36
550.612	3.49
550.956	3.49
551.3	3.51
551.643	3.56
551.987	3.5
552.33	3.41
552.674	3.64
553.017	3.47
553.361	3.32
553.704	3.71
554.048	3.42
554.391	3.43
554.734	3.37
555.077	3.49
555.42	3.54
555.764	3.39
556.107	3.35
556.45	3.35
556.793	3.5
557.135	3.41
557.478	3.51
557.821	3.5
558.164	3.57
558.507	3.45
558.849	3.33
559.192	3.43
559.534	3.49
559.877	3.53
560.219	3.44
560.562	3.71
560.904	3.48
561.246	3.55
561.589	3.44
561.931	3.4
562.273	3.36
562.615	3.51
562.957	3.41
563.299	3.3
563.641	3.51
563.983	3.64
564.325	3.29
564.667	3.52
565.008	3.61
565.35	3.57
565.692	3.16
566.033	3.32
566.375	3.7
566.716	3.59
567.058	3.38
567.399	3.51
567.741	3.19
568.082	3.53
568.423	3.47
568.764	3.4
569.105	3.39
569.447	3.56
569.788	3.51
570.129	3.67
570.47	3.34
570.811	3.51
571.151	3.7
571.492	3.52
571.833	3.48
572.174	3.46
572.514	3.56
572.855	3.46
573.195	3.53
573.536	3.57
573.876	3.27
574.217	3.44
574.557	3.6
574.898	3.52
575.238	3.66
575.578	3.44
575.918	3.57
576.258	3.55
576.598	3.54
576.938	3.48
577.278	3.46
577.618	3.49
577.958	3.42
578.298	3.53
578.638	3.49
578.977	3.44
579.317	3.37
579.657	3.58
579.996	3.49
580.336	3.49
580.675	3.6
581.014	3.48
581.354	3.53
581.693	3.39
582.032	3.49
582.372	3.35
582.711	3.61
583.05	3.33
583.389	3.58
583.728	3.56
584.067	3.65
584.406	3.68
584.745	3.4
585.083	3.62
585.422	3.57
585.761	3.52
586.1	3.8
586.438	3.56
586.777	3.88
587.115	3.72
587.454	3.44
587.792	3.28
588.13	3.65
588.469	3.39
588.807	3.46
589.145	3.33
589.483	3.54
589.821	3.24
590.159	3.5
590.497	3.76
590.835	3.88
591.173	3.55
591.511	4
591.849	3.65
592.187	3.61
592.524	3.81
592.862	3.48
593.2	3.63
593.537	3.53
593.875	3.42
594.212	3.43
594.55	3.67
594.887	3.97
595.224	3.23
595.561	3.71
595.899	3.51
596.236	3.76
596.573	3.71
596.91	3.24
597.247	3.36
597.584	3.63
597.921	3.43
598.258	3.42
598.594	3.75
598.931	3.34
599.268	3.7
599.604	3.6
599.941	3.63
600.277	3.48
600.614	3.55
600.95	3.44
601.287	3.92
601.623	3.67
601.959	3.41
602.296	3.76
602.632	3.56
602.968	3.45
603.304	3.62
603.64	3.46
603.976	3.87
604.312	3.34
604.648	3.64
604.984	3.57
605.319	3.6
605.655	3.55
605.991	3.57
606.326	3.5
606.662	3.55
606.998	3.46
607.333	3.53
607.668	3.57
608.004	3.66
608.339	3.8
608.674	3.59
609.01	3.55
609.345	3.67
609.68	3.79
610.015	3.45
610.35	3.32
610.685	3.36
611.02	3.59
611.355	3.75
611.689	3.42
612.024	3.53
612.359	3.5
612.694	3.51
613.028	3.55
613.363	3.74
613.697	3.63
614.032	3.86
614.366	3.55
614.7	3.38
615.035	3.74
615.369	3.27
615.703	3.44
616.037	3.4
616.371	3.25
616.705	3.3
617.039	3.48
617.373	3.3
617.707	3.23
618.041	3.31
618.375	3.89
618.709	3.41
619.042	3.34
619.376	4.13
619.71	3.55
620.043	3.79
620.377	3.2
620.71	3.52
621.043	3.43
621.377	3.46
621.71	3.5
622.043	3.27
622.376	3.21
622.709	3.63
623.043	3.84
623.376	3.77
623.709	3.36
624.041	3.41
624.374	3.82
624.707	3.14
625.04	3.88
625.373	3.09
625.705	3.66
626.038	3.7
626.37	3.73
626.703	3.6
627.035	3.9
627.368	4.25
627.7	3.45
628.032	3.67
628.365	3.85
628.697	3.45
629.029	3.52
629.361	3.42
629.693	3.64
630.025	3.79
630.357	3.89
630.689	3.6
631.021	3.54
631.353	3.72
631.684	3.38
632.016	3.27
632.348	3.85
632.679	3.51
633.011	3.79
633.342	4.03
633.674	3.81
634.005	4.01
634.336	3.68
634.668	4.23
634.999	3.49
635.33	3.83
635.661	3.88
635.992	3.34
636.323	3.58
636.654	3.72
636.985	3.54
637.316	3.7
637.647	3.55
637.977	3.73
638.308	3.78
638.639	3.54
638.969	3.49
639.3	3.57
639.63	3.27
639.961	3.51
640.291	3.39
640.622	3.6
640.952	3.32
641.282	4
641.612	4.02
641.943	3.34
642.273	3.59
642.603	3.82
642.933	3.7
643.263	3.71
643.592	3.37
643.922	2.78
644.252	3.57
644.582	3.84
644.911	3.15
645.241	3.25
645.571	3.42
645.9	2.86
646.23	3.59
646.559	3.99
646.888	3.71
647.218	3.57
647.547	4.11
647.876	3.13
648.205	3.72
648.534	3.64
648.863	3.08
649.192	3.87
649.521	3.95
649.85	3.46
650.179	3.66
650.508	3.33
650.837	3.49
651.165	3.36
651.494	3.39
651.822	3.67
652.151	3.23
652.479	3.68
652.808	3.17
653.136	3.34
653.465	3.2
653.793	3.23
654.121	3.14
654.449	3.84
654.777	3.55
655.105	3.87
655.433	3.23
655.761	3.09
656.089	3.95
656.417	3.46
656.745	2.98
657.073	3.34
657.4	3.8
657.728	3.95
658.056	3.88
658.383	3.8
658.711	3.66
659.038	2.92
659.365	4.06
659.693	3.86
660.02	3.48
660.347	3.38
660.674	3.77
661.001	3.46
661.329	2.9
661.656	3.41
661.982	3.99
662.309	3.77
662.636	3.74
662.963	4.1
663.29	3.33
663.616	4.02
663.943	3.21
664.27	3.4
664.596	4.08
664.923	3.8
665.249	3.45
665.576	3.19
665.902	4.65
666.228	3.66
666.554	3.77
666.881	3.06
667.207	3.66
667.533	3.12
667.859	3.86
668.185	4.27
668.511	3.2
668.837	2.99
669.162	3.58
669.488	3.43
669.814	3.88
670.139	4.4
670.465	3.83
670.791	4.34
671.116	4.04
671.442	3.21
671.767	4.19
672.092	4.01
672.418	3.73
672.743	3.37
673.068	3.3
673.393	4.04
673.718	3.97
674.043	3.44
674.368	3.2
674.693	4.37
675.018	3.43
675.343	3.05
675.667	3.44
675.992	3.93
676.317	3.92
676.641	3.36
676.966	3.54
677.29	3.21
677.615	3.89
677.939	3.68
678.264	4.77
678.588	3.99
678.912	4.27
679.236	4.55
679.56	3.04
679.885	4.05
680.209	3.16
680.532	3.57
680.856	4.19
681.18	3.74
681.504	3.33
681.828	4.05
682.152	3.64
682.475	4.07
682.799	4.24
683.122	3.64
683.446	3.38
683.769	3.81
684.093	3.5
684.416	4.34
684.739	3.38
685.062	3.3
685.386	3.85
685.709	3.44
686.032	3.55
686.355	3.77
686.678	4
687.001	3.71
687.324	4.02
687.646	3.2
687.969	3.33
688.292	4.54
688.614	3.67
688.937	4.23
689.26	3.09
689.582	3.85
689.904	3.19
690.227	3.51
690.549	2.96
690.871	3.68
691.194	3.39
691.516	3.31
691.838	4.11
692.16	3.06
