Data from 2009-1_forehead_Reflection__1__226.txt Node

Date: Fri Dec 15 18:25:40 CST 2023
User: ToomeyLab
Spectrometer: FLMS14357
Trigger mode: 0
Integration Time (sec): 1.000000E-2
Scans to average: 100
Electric dark correction enabled: true
Nonlinearity correction enabled: false
Boxcar width: 0
XAxis mode: Wavelengths
Number of Pixels in Spectrum: 2048
>>>>>Begin Spectral Data<<<<<
189.047	673.04
189.435	673.04
189.823	673.04
190.211	1513.76
190.599	172.44
190.987	104.74
191.375	-418.44
191.763	-509.92
192.151	82.93
192.538	263.28
192.926	-399.51
193.314	128.61
193.702	62.97
194.089	-37.41
194.477	59.64
194.864	48.37
195.252	80.6
195.639	85.57
196.027	521.68
196.414	73.6
196.801	40.31
197.189	517.52
197.576	37.42
197.963	-1104.24
198.351	-89.08
198.738	-4.12
199.125	9.21
199.512	-8.34
199.899	59.66
200.286	6.23
200.673	-23.5
201.06	2.34
201.447	-33.16
201.833	3.85
202.22	-13.17
202.607	5
202.994	-163.86
203.38	51.54
203.767	54.04
204.154	5.18
204.54	28.18
204.927	10.08
205.313	-127.64
205.699	2.84
206.086	41.68
206.472	38.84
206.858	5.91
207.245	-55.43
207.631	27.52
208.017	36.4
208.403	-27.94
208.789	36.83
209.175	3.16
209.561	33.08
209.947	26.93
210.333	-38.77
210.719	-4.16
211.105	8.6
211.491	-26.41
211.876	-3.04
212.262	16.15
212.648	-13.13
213.034	11.38
213.419	-16.79
213.805	-9.82
214.19	-14.75
214.576	11.7
214.961	8.29
215.346	-56.03
215.732	7.81
216.117	-1.04
216.502	-33.52
216.888	14.38
217.273	11.12
217.658	18.51
218.043	0.86
218.428	-15.93
218.813	-7.8
219.198	-36.84
219.583	5.86
219.968	19.55
220.353	0.24
220.738	3.45
221.122	21.32
221.507	-41.98
221.892	-41.42
222.276	-38.24
222.661	-1.78
223.046	9.04
223.43	15.51
223.815	12.4
224.199	-3.36
224.583	-5.28
224.968	6.96
225.352	14.77
225.736	-9.29
226.121	-11.27
226.505	1.78
226.889	11.86
227.273	-4.85
227.657	4.96
228.041	2.48
228.425	-0.06
228.809	7.18
229.193	2.1
229.577	2.04
229.961	3.3
230.344	2.75
230.728	2.39
231.112	4.51
231.495	3.65
231.879	3.08
232.263	1.73
232.646	3.02
233.03	3.24
233.413	2.39
233.797	2.76
234.18	2.31
234.563	3.21
234.946	0.8
235.33	2.46
235.713	3.66
236.096	3.5
236.479	3.41
236.862	3.72
237.245	4.47
237.628	2.32
238.011	3.86
238.394	3.83
238.777	4.97
239.16	0.89
239.543	5
239.925	3.57
240.308	4.91
240.691	1.61
241.073	3.77
241.456	2.83
241.838	2.73
242.221	2.81
242.603	3.59
242.986	3.58
243.368	3.38
243.75	4.18
244.133	3.19
244.515	3.63
244.897	3.95
245.279	3.84
245.661	3.07
246.043	2.57
246.425	2.07
246.807	5.42
247.189	3.87
247.571	3.96
247.953	3.67
248.335	3.65
248.717	3.81
249.098	3.28
249.48	3.5
249.862	3.47
250.243	3.44
250.625	3.23
251.006	3.82
251.388	2.1
251.769	2.28
252.151	4.47
252.532	2.71
252.913	3.44
253.295	3.26
253.676	3.33
254.057	3.4
254.438	3.21
254.819	2.97
255.2	2.92
255.581	3.6
255.962	2.77
256.343	2.44
256.724	3.55
257.105	3.13
257.486	3.97
257.867	3.42
258.247	2.81
258.628	2.64
259.009	2.88
259.389	3.32
259.77	3
260.15	2.57
260.531	2.59
260.911	3.8
261.292	3.4
261.672	3.64
262.052	3.53
262.432	3.36
262.813	3.16
263.193	3.39
263.573	3.49
263.953	3.01
264.333	3.9
264.713	2.92
265.093	2.13
265.473	3.2
265.853	3.27
266.233	3.76
266.612	2.12
266.992	2.19
267.372	3.7
267.752	3.54
268.131	3.79
268.511	3.77
268.89	3.74
269.27	3.13
269.649	2.61
270.029	3.01
270.408	4.15
270.787	3.45
271.167	4.28
271.546	3.5
271.925	2.78
272.304	3.42
272.683	3.94
273.062	2.91
273.441	4.02
273.82	3.11
274.199	3.44
274.578	3.09
274.957	3
275.336	3.49
275.715	3.01
276.093	2.89
276.472	3.14
276.851	3.11
277.229	2.97
277.608	2.58
277.986	3.27
278.365	3.39
278.743	2.77
279.122	2.92
279.5	2.77
279.878	2.86
280.257	3.22
280.635	2.37
281.013	2.92
281.391	3.16
281.769	3.62
282.147	3.79
282.525	3.77
282.903	3.35
283.281	3.33
283.659	3.45
284.037	3.03
284.415	3.22
284.792	3.91
285.17	2.36
285.548	2.79
285.925	3.39
286.303	3.27
286.68	3.48
287.058	3.16
287.435	3.3
287.813	3.03
288.19	3.22
288.567	2.94
288.945	3.35
289.322	2.79
289.699	3.49
290.076	3.16
290.453	3.1
290.83	2.81
291.207	3.05
291.584	3.33
291.961	3.5
292.338	3.4
292.715	3.46
293.092	3.43
293.469	3.8
293.845	3.64
294.222	2.98
294.599	3.82
294.975	2.89
295.352	3.5
295.728	3.14
296.105	3.55
296.481	4.24
296.858	3.79
297.234	3.9
297.61	3.53
297.986	3.59
298.363	3.48
298.739	4
299.115	3.65
299.491	3.12
299.867	3.73
300.243	3.92
300.619	3.79
300.995	3.38
301.371	3.87
301.746	3.28
302.122	3.88
302.498	3.89
302.874	3.63
303.249	3.92
303.625	3.93
304	3.97
304.376	3.57
304.751	3.37
305.127	4.54
305.502	3.03
305.878	3.23
306.253	3.63
306.628	4.83
307.003	3.71
307.378	4.23
307.754	4.31
308.129	2.88
308.504	3.86
308.879	3.74
309.254	5.2
309.629	4.72
310.003	4.63
310.378	4.58
310.753	4.25
311.128	4.23
311.502	4.37
311.877	4.59
312.252	4.32
312.626	4.63
313.001	4.76
313.375	4.87
313.75	4.16
314.124	4.63
314.498	4.5
314.873	5.09
315.247	4.71
315.621	4.38
315.995	3.8
316.369	4.51
316.743	4.45
317.117	5.04
317.491	4.6
317.865	4.77
318.239	4.86
318.613	4.64
318.987	5.66
319.361	4.54
319.734	5.33
320.108	5.16
320.482	5.43
320.855	5.64
321.229	4.69
321.602	5.36
321.976	5.37
322.349	5.06
322.723	4.87
323.096	5.55
323.469	4.44
323.843	5.43
324.216	5.54
324.589	5.3
324.962	5.44
325.335	5.51
325.708	5.17
326.081	5.4
326.454	5.52
326.827	5.88
327.2	5.38
327.573	6.16
327.945	5.65
328.318	5.53
328.691	5.54
329.063	5.61
329.436	5.69
329.809	5.8
330.181	5.75
330.553	6.4
330.926	5.38
331.298	6.03
331.671	5.79
332.043	6.38
332.415	6.89
332.787	5.73
333.159	6.62
333.532	5.96
333.904	5.79
334.276	5.92
334.648	6.72
335.02	5.94
335.391	5.92
335.763	5.11
336.135	6.18
336.507	6.43
336.879	6.2
337.25	5.9
337.622	5.82
337.993	5.97
338.365	6.55
338.736	5.86
339.108	5.62
339.479	6.12
339.851	6.15
340.222	5.93
340.593	6.06
340.964	6.35
341.336	6.78
341.707	5.89
342.078	6.44
342.449	6.9
342.82	5.88
343.191	6.38
343.562	6.56
343.933	6.76
344.303	6.72
344.674	6.83
345.045	7.08
345.416	6.97
345.786	6.19
346.157	6.32
346.527	5.87
346.898	6.26
347.268	6.89
347.639	6.21
348.009	6.53
348.38	6.21
348.75	6.25
349.12	6.8
349.49	7.1
349.861	6.62
350.231	6.4
350.601	6.49
350.971	6.49
351.341	6.38
351.711	6.6
352.081	6.7
352.45	6.74
352.82	6.7
353.19	6.51
353.56	6.92
353.929	7
354.299	6.88
354.669	6.25
355.038	7.02
355.408	6.74
355.777	6.8
356.147	6.69
356.516	7.09
356.885	7.15
357.254	6.63
357.624	7.26
357.993	7.17
358.362	6.65
358.731	6.76
359.1	7.14
359.469	7.16
359.838	7.1
360.207	7.02
360.576	7.29
360.945	7.01
361.314	7.39
361.682	7.01
362.051	7
362.42	7.19
362.788	7.03
363.157	7.12
363.525	7.47
363.894	7.44
364.262	7.11
364.631	7.08
364.999	7.33
365.367	6.96
365.735	7.89
366.104	7.69
366.472	7.66
366.84	7.01
367.208	7.32
367.576	7.59
367.944	7.74
368.312	7.4
368.68	7.22
369.048	7.53
369.416	7.42
369.783	7.61
370.151	7.63
370.519	7.73
370.886	7.61
371.254	7.18
371.621	7.49
371.989	7.55
372.356	7.23
372.724	7.57
373.091	7.33
373.458	7.26
373.826	7.26
374.193	7.46
374.56	7.88
374.927	7.76
375.294	7.94
375.661	7.47
376.028	7.26
376.395	7.47
376.762	7.85
377.129	7.59
377.496	7.71
377.863	7.63
378.229	7.3
378.596	7.64
378.963	7.6
379.329	7.5
379.696	8.05
380.062	7.53
380.429	7.69
380.795	7.61
381.161	8.07
381.528	7.89
381.894	7.6
382.26	7.8
382.626	8.07
382.993	7.51
383.359	8.39
383.725	7.83
384.091	7.81
384.457	8.34
384.823	7.76
385.188	7.91
385.554	7.82
385.92	8.29
386.286	8.04
386.651	7.97
387.017	8.04
387.383	7.73
387.748	7.83
388.114	8.24
388.479	7.86
388.845	8.1
389.21	8.37
389.575	7.77
389.94	7.83
390.306	7.77
390.671	8.15
391.036	7.85
391.401	7.5
391.766	7.86
392.131	7.92
392.496	8.36
392.861	7.95
393.226	8.14
393.591	8.34
393.956	7.77
394.32	8.05
394.685	7.92
395.05	7.9
395.414	8.03
395.779	7.9
396.143	7.91
396.508	8
396.872	8.17
397.236	8.21
397.601	7.85
397.965	8.07
398.329	8.23
398.694	8.2
399.058	8.06
399.422	7.93
399.786	8.31
400.15	8.01
400.514	8.03
400.878	8.39
401.242	8.43
401.605	8.4
401.969	8.19
402.333	8.03
402.697	8.36
403.06	7.96
403.424	7.96
403.787	7.89
404.151	8.24
404.514	8.07
404.878	7.91
405.241	8.07
405.604	7.89
405.968	8.09
406.331	8.12
406.694	8.08
407.057	8.04
407.42	8.03
407.783	7.99
408.146	8
408.509	7.82
408.872	7.97
409.235	8.28
409.598	8.21
409.961	8.02
410.323	8.38
410.686	7.86
411.049	7.69
411.411	8.13
411.774	8.01
412.136	7.79
412.499	8.06
412.861	8.15
413.223	8.22
413.586	7.9
413.948	7.86
414.31	8.2
414.672	7.92
415.035	8.01
415.397	8.23
415.759	8.08
416.121	8.23
416.483	7.78
416.845	8.06
417.206	8.14
417.568	8.11
417.93	8.16
418.292	8.13
418.653	8.28
419.015	8.37
419.377	8.31
419.738	8.32
420.1	8.12
420.461	8.22
420.822	8.33
421.184	8.15
421.545	8.26
421.906	8.29
422.267	8.34
422.629	8.34
422.99	8.36
423.351	8.22
423.712	8.32
424.073	8.44
424.434	8.5
424.795	8.6
425.155	8.47
425.516	8.48
425.877	8.55
426.238	8.63
426.598	8.71
426.959	8.66
427.32	8.76
427.68	8.61
428.041	8.95
428.401	9.04
428.761	8.91
429.122	9.19
429.482	8.87
429.842	9.1
430.202	9.28
430.563	9.36
430.923	9.2
431.283	9.43
431.643	9.4
432.003	9.49
432.363	9.51
432.722	9.4
433.082	9.63
433.442	9.64
433.802	9.56
434.161	9.5
434.521	9.81
434.881	9.74
435.24	9.64
435.6	9.82
435.959	9.69
436.319	9.82
436.678	9.65
437.037	9.65
437.396	9.79
437.756	10.05
438.115	10.04
438.474	10.14
438.833	9.89
439.192	10.01
439.551	10.28
439.91	10.19
440.269	10.24
440.628	10.03
440.987	10.23
441.345	10.08
441.704	10.2
442.063	10.2
442.421	10.28
442.78	10.17
443.138	10.37
443.497	10.36
443.855	10.37
444.214	10.51
444.572	10.47
444.93	10.6
445.288	10.54
445.647	10.64
446.005	10.61
446.363	10.76
446.721	10.72
447.079	10.68
447.437	10.69
447.795	10.84
448.153	10.61
448.51	10.76
448.868	10.68
449.226	10.78
449.584	10.9
449.941	10.93
450.299	10.94
450.656	10.96
451.014	10.96
451.371	11
451.729	11.04
452.086	11.19
452.443	11.18
452.801	11.17
453.158	11.26
453.515	11.35
453.872	11.33
454.229	11.22
454.586	11.3
454.943	11.57
455.3	11.46
455.657	11.45
456.014	11.39
456.371	11.49
456.727	11.68
457.084	11.82
457.441	11.59
457.797	11.75
458.154	12.05
458.51	11.93
458.867	12
459.223	11.94
459.58	11.91
459.936	11.99
460.292	11.91
460.648	11.81
461.005	11.82
461.361	11.84
461.717	11.87
462.073	11.71
462.429	11.85
462.785	11.91
463.141	12.02
463.496	12.03
463.852	12.17
464.208	12.03
464.564	12.38
464.919	12.28
465.275	12.33
465.631	12.48
465.986	12.38
466.342	12.37
466.697	12.32
467.052	12.57
467.408	12.51
467.763	12.46
468.118	12.44
468.473	12.42
468.829	12.51
469.184	12.35
469.539	12.59
469.894	12.56
470.249	12.71
470.603	12.69
470.958	12.76
471.313	13
471.668	12.98
472.023	12.88
472.377	12.9
472.732	13.05
473.086	12.87
473.441	12.77
473.795	13.09
474.15	13.14
474.504	13.03
474.859	13.3
475.213	12.96
475.567	13.14
475.921	12.86
476.275	13.28
476.63	13.25
476.984	13.3
477.338	13.36
477.692	12.97
478.045	13.24
478.399	13.29
478.753	13.3
479.107	13.42
479.461	13.15
479.814	13.41
480.168	13.31
480.521	13.4
480.875	13.28
481.228	13.38
481.582	13.48
481.935	13.5
482.289	13.51
482.642	13.4
482.995	13.44
483.348	13.56
483.701	13.49
484.055	13.45
484.408	13.63
484.761	13.35
485.114	13.2
485.466	13.01
485.819	12.96
486.172	12.95
486.525	13.01
486.878	12.95
487.23	13.13
487.583	13.28
487.936	13.48
488.288	13.48
488.641	13.59
488.993	13.35
489.345	13.29
489.698	13.3
490.05	13.33
490.402	13.28
490.754	13.45
491.107	13.54
491.459	13.65
491.811	13.78
492.163	13.85
492.515	13.77
492.866	13.89
493.218	13.74
493.57	13.63
493.922	13.67
494.274	13.7
494.625	13.83
494.977	13.84
495.328	14.05
495.68	14.02
496.031	14.31
496.383	14.2
496.734	14.51
497.086	14.31
497.437	14.43
497.788	14.49
498.139	14.17
498.49	14.35
498.842	14.23
499.193	14.36
499.544	14.31
499.894	14.38
500.245	14.32
500.596	14.43
500.947	14.5
501.298	14.45
501.648	14.57
501.999	14.66
502.35	14.65
502.7	14.61
503.051	14.58
503.401	14.68
503.752	14.86
504.102	14.79
504.452	14.72
504.803	14.88
505.153	14.86
505.503	14.83
505.853	14.89
506.203	14.74
506.553	14.78
506.903	14.94
507.253	14.94
507.603	14.75
507.953	15.03
508.303	15.06
508.652	14.89
509.002	15.04
509.352	15.25
509.701	14.95
510.051	14.84
510.4	14.92
510.75	15.02
511.099	14.95
511.449	14.88
511.798	15.03
512.147	15.01
512.496	14.92
512.846	15
513.195	15.03
513.544	15.02
513.893	15.09
514.242	15.11
514.591	15.21
514.939	15.28
515.288	15.16
515.637	15.25
515.986	15.23
516.334	15.26
516.683	15.27
517.032	15.4
517.38	15.53
517.729	15.35
518.077	15.27
518.426	15.51
518.774	15.58
519.122	15.34
519.47	15.26
519.819	15.21
520.167	15.32
520.515	15.21
520.863	15.24
521.211	15.14
521.559	15.31
521.907	15.31
522.255	15.26
522.602	15.4
522.95	15.5
523.298	15.59
523.645	15.55
523.993	15.53
524.341	15.57
524.688	15.81
525.036	15.49
525.383	15.72
525.73	15.52
526.078	15.64
526.425	15.61
526.772	15.54
527.119	15.54
527.466	15.34
527.814	15.29
528.161	15.42
528.508	15.42
528.854	15.43
529.201	15.41
529.548	15.35
529.895	15.25
530.242	15.18
530.588	15.02
530.935	15.03
531.282	15.13
531.628	15.12
531.975	15.22
532.321	15.37
532.667	15.59
533.014	15.64
533.36	15.67
533.706	15.85
534.052	15.74
534.399	15.52
534.745	15.57
535.091	15.48
535.437	15.51
535.783	15.42
536.129	15.56
536.474	15.65
536.82	15.69
537.166	15.85
537.512	15.92
537.857	15.86
538.203	16.06
538.549	15.71
538.894	15.94
539.239	15.85
539.585	16
539.93	16.05
540.276	16.06
540.621	15.97
540.966	16.26
541.311	16.13
541.656	16.3
542.001	16.13
542.346	16.31
542.691	15.95
543.036	15.94
543.381	15.77
543.726	15.84
544.071	15.95
544.415	16.01
544.76	16.04
545.105	16.06
545.449	16.12
545.794	16.34
546.138	16.4
546.483	16.4
546.827	16.62
547.171	16.55
547.516	16.55
547.86	16.58
548.204	16.5
548.548	16.53
548.892	16.62
549.236	16.47
549.58	16.51
549.924	16.77
550.268	16.87
550.612	16.77
550.956	17.09
551.3	16.86
551.643	17.06
551.987	17.25
552.33	16.91
552.674	17.15
553.017	17
553.361	17.14
553.704	17.4
554.048	17.05
554.391	17.12
554.734	17.24
555.077	17.14
555.42	17.06
555.764	17.2
556.107	17.06
556.45	17.23
556.793	17.28
557.135	17.46
557.478	17.5
557.821	17.26
558.164	17.41
558.507	17.58
558.849	17.41
559.192	17.59
559.534	17.42
559.877	17.55
560.219	17.53
560.562	17.97
560.904	17.51
561.246	17.48
561.589	17.83
561.931	17.58
562.273	17.61
562.615	17.75
562.957	17.73
563.299	17.43
563.641	17.67
563.983	17.61
564.325	17.51
564.667	17.79
565.008	17.9
565.35	17.92
565.692	17.82
566.033	18.25
566.375	18.17
566.716	18.28
567.058	17.98
567.399	18.06
567.741	17.83
568.082	17.99
568.423	18.13
568.764	17.87
569.105	18.15
569.447	18.18
569.788	18.06
570.129	18.15
570.47	18.22
570.811	18.34
571.151	18.29
571.492	18.22
571.833	18.32
572.174	18.24
572.514	18.36
572.855	18.21
573.195	18.58
573.536	18.27
573.876	18.22
574.217	18.32
574.557	18.54
574.898	18.74
575.238	18.54
575.578	18.51
575.918	18.7
576.258	18.63
576.598	18.67
576.938	18.71
577.278	18.59
577.618	18.45
577.958	18.78
578.298	18.92
578.638	18.76
578.977	18.66
579.317	19.04
579.657	19.22
579.996	18.86
580.336	18.93
580.675	19.06
581.014	19.38
581.354	19.11
581.693	19.49
582.032	19.49
582.372	19.45
582.711	19.3
583.05	19.43
583.389	19.53
583.728	19.32
584.067	19.62
584.406	19.23
584.745	19.76
585.083	19.64
585.422	19.8
585.761	19.94
586.1	19.66
586.438	19.81
586.777	20
587.115	19.95
587.454	19.66
587.792	19.71
588.13	20.13
588.469	19.75
588.807	20.01
589.145	19.84
589.483	20.04
589.821	19.79
590.159	20.08
590.497	20.21
590.835	20.36
591.173	20
591.511	20.39
591.849	20.42
592.187	20.1
592.524	20.26
592.862	20.26
593.2	20.16
593.537	20.07
593.875	20.35
594.212	19.98
594.55	20.34
594.887	20.61
595.224	20.11
595.561	20.32
595.899	20.27
596.236	20.24
596.573	20.77
596.91	20.21
597.247	20.5
597.584	20.92
597.921	20.42
598.258	20.31
598.594	20.8
598.931	20.47
599.268	20.52
599.604	20.52
599.941	20.7
600.277	20.7
600.614	20.79
600.95	20.41
601.287	20.89
601.623	20.81
601.959	20.77
602.296	21.16
602.632	20.84
602.968	21.15
603.304	21.31
603.64	21.13
603.976	21.01
604.312	20.98
604.648	20.89
604.984	21.29
605.319	21.55
605.655	21.23
605.991	21.19
606.326	21.23
606.662	21.13
606.998	21.06
607.333	21.18
607.668	21.29
608.004	21.29
608.339	21.53
608.674	21.4
609.01	21.3
609.345	21.4
609.68	21.67
610.015	21.6
610.35	21.63
610.685	21.87
611.02	21.8
611.355	21.78
611.689	21.7
612.024	21.76
612.359	21.7
612.694	21.61
613.028	21.73
613.363	22.01
613.697	21.54
614.032	21.72
614.366	22.32
614.7	21.95
615.035	21.94
615.369	22.09
615.703	22.24
616.037	21.89
616.371	22.03
616.705	22.12
617.039	21.9
617.373	22.48
617.707	21.96
618.041	22.28
618.375	22.56
618.709	22.71
619.042	21.93
619.376	22.87
619.71	22.59
620.043	22.52
620.377	22.5
620.71	22.81
621.043	21.93
621.377	22.51
621.71	22.65
622.043	22.71
622.376	22.25
622.709	22.55
623.043	22.56
623.376	22.64
623.709	22.57
624.041	23.06
624.374	22.63
624.707	22.69
625.04	23
625.373	22.65
625.705	23.46
626.038	22.68
626.37	22.71
626.703	23.3
627.035	23.08
627.368	23.35
627.7	23.02
628.032	22.69
628.365	22.97
628.697	22.87
629.029	23.02
629.361	22.92
629.693	23.1
630.025	23.09
630.357	23.04
630.689	23.28
631.021	23.07
631.353	22.88
631.684	22.82
632.016	23.19
632.348	23.05
632.679	23.41
633.011	23.08
633.342	23.78
633.674	23.22
634.005	23.98
634.336	23.16
634.668	23.92
634.999	23.56
635.33	23.83
635.661	23.75
635.992	23.41
636.323	23.88
636.654	23.91
636.985	23.83
637.316	23.84
637.647	23.84
637.977	24.03
638.308	23.97
638.639	23.44
638.969	23.8
639.3	23.41
639.63	23.47
639.961	24.02
640.291	24.06
640.622	24.8
640.952	24.05
641.282	24.1
641.612	24.43
641.943	24.18
642.273	24.16
642.603	24.62
642.933	24.61
643.263	24.41
643.592	24.02
643.922	24.08
644.252	24.18
644.582	24.01
644.911	23.69
645.241	24.75
645.571	24.76
645.9	24.62
646.23	24.46
646.559	24.66
646.888	24.52
647.218	24.34
647.547	25.31
647.876	24.49
648.205	24.75
648.534	24.49
648.863	24.43
649.192	25.2
649.521	24.62
649.85	24.8
650.179	24.87
650.508	25.11
650.837	24.37
651.165	24.97
651.494	24.58
651.822	25.12
652.151	24.81
652.479	25.63
652.808	24.36
653.136	25.28
653.465	25.01
653.793	24.83
654.121	25.2
654.449	25.19
654.777	25.31
655.105	24.98
655.433	24.93
655.761	25.76
656.089	25.2
656.417	25.75
656.745	25.15
657.073	25.26
657.4	26.52
657.728	25.81
658.056	25.46
658.383	25.51
658.711	25.51
659.038	25.9
659.365	26.05
659.693	25.62
660.02	26.13
660.347	25.81
660.674	25.99
661.001	26.29
661.329	25.42
661.656	25.94
661.982	26.27
662.309	26.53
662.636	26.32
662.963	26.42
663.29	26.37
663.616	26.59
663.943	25.95
664.27	26.15
664.596	26.59
664.923	26.53
665.249	26.4
665.576	26.67
665.902	27.55
666.228	26.57
666.554	26.99
666.881	26.98
667.207	26.95
667.533	27.34
667.859	27.04
668.185	27.25
668.511	26.48
668.837	26.66
669.162	27.34
669.488	26.89
669.814	26.98
670.139	27.32
670.465	27.86
670.791	27.83
671.116	27.51
671.442	27.16
671.767	27.55
672.092	27.58
672.418	27.72
672.743	27.35
673.068	26.89
673.393	27.99
673.718	28.09
674.043	27.46
674.368	27.51
674.693	28.25
675.018	27.77
675.343	28.78
675.667	27.83
675.992	28.21
676.317	28.71
676.641	28.05
