Data from 2009-1_crown_Reflection__0__220.txt Node

Date: Fri Dec 15 18:24:08 CST 2023
User: ToomeyLab
Spectrometer: FLMS14357
Trigger mode: 0
Integration Time (sec): 1.000000E-2
Scans to average: 100
Electric dark correction enabled: true
Nonlinearity correction enabled: false
Boxcar width: 0
XAxis mode: Wavelengths
Number of Pixels in Spectrum: 2048
>>>>>Begin Spectral Data<<<<<
189.047	-90.87
189.435	-90.87
189.823	-90.87
190.211	-1313.3
190.599	-124.87
190.987	92.99
191.375	6.03
191.763	-124.26
192.151	30.62
192.538	203.07
192.926	5.72
193.314	183.92
193.702	153.5
194.089	-194.27
194.477	84.4
194.864	23.44
195.252	88.53
195.639	61.65
196.027	577.58
196.414	57.01
196.801	36.31
197.189	846.01
197.576	136.13
197.963	-2215.45
198.351	-39.54
198.738	0.81
199.125	6.7
199.512	-21.29
199.899	22.54
200.286	21.06
200.673	-51.11
201.06	-7.06
201.447	-3.58
201.833	19.44
202.22	12.91
202.607	32.58
202.994	159.34
203.38	-9.47
203.767	31.06
204.154	1.01
204.54	40.79
204.927	35.61
205.313	18.07
205.699	28.15
206.086	46.68
206.472	20.51
206.858	-0.87
207.245	-8.76
207.631	8.23
208.017	23.38
208.403	9.21
208.789	22.55
209.175	-5.29
209.561	20.5
209.947	30.99
210.333	-36.11
210.719	0.38
211.105	4.09
211.491	-33.71
211.876	27.78
212.262	-11.71
212.648	14.23
213.034	3.41
213.419	15.28
213.805	-22.54
214.19	-29.19
214.576	-12.09
214.961	-34.21
215.346	-76.44
215.732	-21.45
216.117	18.76
216.502	-18.19
216.888	-5.61
217.273	17.57
217.658	23.89
218.043	32.82
218.428	-5.71
218.813	11.82
219.198	-20.55
219.583	13.27
219.968	1.94
220.353	-10.84
220.738	23.8
221.122	5.84
221.507	-13.93
221.892	-38.85
222.276	-24.6
222.661	-1.98
223.046	19.56
223.43	10.48
223.815	3.65
224.199	-5.06
224.583	3.52
224.968	-5.78
225.352	7.48
225.736	12.15
226.121	-10.36
226.505	5.52
226.889	16.04
227.273	2.26
227.657	19.52
228.041	12.16
228.425	4.74
228.809	14.6
229.193	12.08
229.577	8.41
229.961	10.58
230.344	8.53
230.728	9.55
231.112	10.23
231.495	8.71
231.879	8.51
232.263	9.73
232.646	9.05
233.03	8.44
233.413	7.18
233.797	9.79
234.18	7.54
234.563	8.58
234.946	4.68
235.33	9.46
235.713	8.41
236.096	9.36
236.479	8.7
236.862	7.68
237.245	10.42
237.628	6.87
238.011	9.87
238.394	7.03
238.777	7.11
239.16	6.63
239.543	8.45
239.925	7.43
240.308	7.59
240.691	8.51
241.073	9.21
241.456	7.77
241.838	7.24
242.221	7.43
242.603	8.47
242.986	7.75
243.368	8.65
243.75	8.73
244.133	7.88
244.515	8.62
244.897	8.4
245.279	8.61
245.661	6.94
246.043	6.98
246.425	6.51
246.807	9.16
247.189	7.77
247.571	8.75
247.953	8.11
248.335	8.04
248.717	8.03
249.098	7.94
249.48	7.8
249.862	7.71
250.243	8.18
250.625	7.79
251.006	7.8
251.388	6.59
251.769	7.76
252.151	8.8
252.532	7.77
252.913	6.53
253.295	7.93
253.676	8.11
254.057	8.27
254.438	7.86
254.819	7.56
255.2	7.53
255.581	7.63
255.962	7.29
256.343	8.2
256.724	7.08
257.105	8.88
257.486	5.86
257.867	8.2
258.247	7.08
258.628	8.28
259.009	7.19
259.389	7.81
259.77	6.78
260.15	7.25
260.531	7.54
260.911	7.9
261.292	7.6
261.672	7.75
262.052	7.64
262.432	7.56
262.813	7.64
263.193	7.3
263.573	7.28
263.953	7.59
264.333	7.82
264.713	7.75
265.093	6.49
265.473	7.43
265.853	5.44
266.233	7.35
266.612	6.24
266.992	6.4
267.372	7.74
267.752	6.93
268.131	7.45
268.511	7.74
268.89	7.85
269.27	6.57
269.649	6.94
270.029	7.31
270.408	8.51
270.787	6.36
271.167	7.48
271.546	7.55
271.925	6.96
272.304	7.13
272.683	7.79
273.062	7.24
273.441	7.58
273.82	7.02
274.199	6.97
274.578	7.29
274.957	7.08
275.336	7.09
275.715	6.99
276.093	6.84
276.472	6.6
276.851	6.69
277.229	6.62
277.608	6.69
277.986	7.65
278.365	7.81
278.743	7.28
279.122	6.88
279.5	6.8
279.878	6.58
280.257	7.05
280.635	6.61
281.013	6.36
281.391	7.61
281.769	7.21
282.147	7.29
282.525	7.13
282.903	7.01
283.281	7.14
283.659	7.79
284.037	7.07
284.415	7.21
284.792	6.97
285.17	6.12
285.548	6.48
285.925	7.31
286.303	7.38
286.68	7.08
287.058	6.86
287.435	7.08
287.813	7.22
288.19	7
288.567	7.2
288.945	7.55
289.322	6.91
289.699	7.11
290.076	6.57
290.453	6.83
290.83	6.43
291.207	6.71
291.584	7.14
291.961	7.31
292.338	7.17
292.715	6.81
293.092	6.71
293.469	6.78
293.845	7.72
294.222	6.9
294.599	7.03
294.975	6.62
295.352	6.84
295.728	7.07
296.105	6.58
296.481	7.54
296.858	6.62
297.234	6.78
297.61	7.02
297.986	6.65
298.363	7.31
298.739	7.24
299.115	7.02
299.491	6.89
299.867	6.68
300.243	7.21
300.619	6.71
300.995	7.11
301.371	7.43
301.746	6.5
302.122	7.37
302.498	7.06
302.874	6.88
303.249	7.22
303.625	6.89
304	6.84
304.376	7.27
304.751	6.45
305.127	7.12
305.502	6.19
305.878	6.17
306.253	6.92
306.628	7.66
307.003	7.19
307.378	7.39
307.754	6.98
308.129	6.68
308.504	7.28
308.879	6.28
309.254	8.02
309.629	7.27
310.003	6.94
310.378	7.38
310.753	7.22
311.128	7.61
311.502	6.9
311.877	6.98
312.252	6.77
312.626	6.96
313.001	6.86
313.375	7.19
313.75	6.89
314.124	7.26
314.498	6.85
314.873	7.11
315.247	7.01
315.621	6.71
315.995	7.27
316.369	7.31
316.743	6.7
317.117	7.22
317.491	7.67
317.865	6.84
318.239	7.27
318.613	7.24
318.987	6.88
319.361	6.25
319.734	7.59
320.108	7.44
320.482	7.15
320.855	7.57
321.229	7.04
321.602	6.58
321.976	7.62
322.349	7.67
322.723	6.9
323.096	7.48
323.469	6.81
323.843	7.15
324.216	7.84
324.589	6.56
324.962	7.47
325.335	7.21
325.708	6.77
326.081	7.41
326.454	7.01
326.827	7.92
327.2	6.74
327.573	7.82
327.945	7.59
328.318	7.09
328.691	7.16
329.063	7.33
329.436	7.08
329.809	7.65
330.181	6.86
330.553	7.36
330.926	7.84
331.298	7.08
331.671	6.84
332.043	7.79
332.415	6.78
332.787	7.31
333.159	7.83
333.532	7.95
333.904	7.48
334.276	7.59
334.648	7.55
335.02	7
335.391	6.93
335.763	6.92
336.135	7.25
336.507	7.65
336.879	6.93
337.25	6.4
337.622	7.23
337.993	7.45
338.365	7.33
338.736	7.72
339.108	6.97
339.479	7.31
339.851	7.05
340.222	7.1
340.593	6.93
340.964	7.46
341.336	8.09
341.707	7.18
342.078	7.92
342.449	7.25
342.82	6.97
343.191	7.39
343.562	7.3
343.933	7.51
344.303	7.09
344.674	7.5
345.045	7.79
345.416	8.12
345.786	7
346.157	7.73
346.527	6.93
346.898	7.04
347.268	7.45
347.639	7.21
348.009	7.91
348.38	7.32
348.75	6.75
349.12	6.81
349.49	7.51
349.861	7
350.231	7.45
350.601	7.7
350.971	7.57
351.341	7.75
351.711	7.3
352.081	7.79
352.45	6.95
352.82	7.89
353.19	7.2
353.56	7.07
353.929	7.5
354.299	7.4
354.669	6.8
355.038	7.74
355.408	7.17
355.777	7.46
356.147	7.44
356.516	7.56
356.885	7.53
357.254	7.22
357.624	7.61
357.993	7.41
358.362	7
358.731	7.17
359.1	7.11
359.469	7.45
359.838	7.68
360.207	7.33
360.576	6.97
360.945	7.85
361.314	7.52
361.682	7.18
362.051	7.3
362.42	7.75
362.788	7
363.157	7.36
363.525	7.63
363.894	7.33
364.262	7.46
364.631	7.39
364.999	7.48
365.367	6.82
365.735	7.94
366.104	7.79
366.472	7.27
366.84	7.4
367.208	7.51
367.576	7.89
367.944	7.42
368.312	7.14
368.68	7.2
369.048	7.58
369.416	7.54
369.783	7.34
370.151	7.29
370.519	8
370.886	7.6
371.254	7.39
371.621	7.53
371.989	7.59
372.356	6.9
372.724	7.5
373.091	7.49
373.458	7.49
373.826	7.29
374.193	7.6
374.56	7.74
374.927	7.82
375.294	7.54
375.661	7.27
376.028	7.49
376.395	7.39
376.762	7.5
377.129	7.6
377.496	7.53
377.863	7.63
378.229	7.4
378.596	7.88
378.963	7.56
379.329	7.31
379.696	7.54
380.062	7.56
380.429	7.69
380.795	7.62
381.161	7.78
381.528	7.84
381.894	7.68
382.26	7.55
382.626	7.89
382.993	7.21
383.359	7.82
383.725	7.94
384.091	7.29
384.457	7.95
384.823	7.41
385.188	7.84
385.554	7.15
385.92	7.59
386.286	7.7
386.651	7.86
387.017	7.87
387.383	7.76
387.748	7.44
388.114	8.05
388.479	7.49
388.845	8.26
389.21	7.84
389.575	7.86
389.94	7.81
390.306	7.67
390.671	8.05
391.036	7.41
391.401	7.37
391.766	7.7
392.131	7.51
392.496	7.95
392.861	7.8
393.226	7.71
393.591	7.61
393.956	7.32
394.32	7.78
394.685	7.67
395.05	7.65
395.414	7.82
395.779	7.55
396.143	7.76
396.508	7.69
396.872	7.84
397.236	7.61
397.601	7.48
397.965	7.73
398.329	7.77
398.694	7.84
399.058	7.74
399.422	7.52
399.786	7.68
400.15	7.86
400.514	7.68
400.878	7.89
401.242	8.17
401.605	7.96
401.969	7.82
402.333	7.93
402.697	7.76
403.06	7.75
403.424	7.85
403.787	7.47
404.151	7.88
404.514	7.7
404.878	7.72
405.241	7.74
405.604	7.71
405.968	7.59
406.331	7.91
406.694	7.99
407.057	7.51
407.42	7.97
407.783	7.89
408.146	7.82
408.509	7.88
408.872	7.56
409.235	7.88
409.598	8.15
409.961	7.8
410.323	7.97
410.686	7.67
411.049	7.79
411.411	7.8
411.774	7.85
412.136	8.03
412.499	7.96
412.861	7.98
413.223	7.7
413.586	7.83
413.948	7.59
414.31	7.73
414.672	7.66
415.035	7.55
415.397	8.05
415.759	7.46
416.121	7.79
416.483	7.91
416.845	7.65
417.206	7.8
417.568	7.84
417.93	7.81
418.292	7.88
418.653	7.89
419.015	7.64
419.377	7.93
419.738	7.93
420.1	7.99
420.461	7.75
420.822	7.84
421.184	7.76
421.545	7.89
421.906	7.73
422.267	7.81
422.629	7.76
422.99	7.82
423.351	7.67
423.712	7.68
424.073	7.72
424.434	7.69
424.795	7.79
425.155	7.79
425.516	7.77
425.877	7.81
426.238	7.73
426.598	7.77
426.959	7.77
427.32	7.73
427.68	7.79
428.041	7.71
428.401	7.96
428.761	7.94
429.122	8
429.482	8
429.842	8.06
430.202	8.02
430.563	8.24
430.923	7.87
431.283	8.19
431.643	7.83
432.003	8.09
432.363	8.04
432.722	7.92
433.082	8.02
433.442	7.94
433.802	8.04
434.161	8.07
434.521	8.18
434.881	8.15
435.24	7.96
435.6	8.09
435.959	8.09
436.319	8.09
436.678	8.01
437.037	8.15
437.396	8.36
437.756	8.21
438.115	8.19
438.474	8.16
438.833	8.07
439.192	7.91
439.551	8.21
439.91	8.22
440.269	8.23
440.628	8.13
440.987	8.17
441.345	8.06
441.704	8.16
442.063	8.18
442.421	8.13
442.78	8.13
443.138	8.19
443.497	8.1
443.855	8.21
444.214	8.15
444.572	8.27
444.93	8.33
445.288	8.36
445.647	8.4
446.005	8.21
446.363	8.4
446.721	8.46
447.079	8.15
447.437	8.32
447.795	8.27
448.153	8.14
448.51	8.22
448.868	8.3
449.226	8.14
449.584	8.15
449.941	8.28
450.299	8.37
450.656	8.31
451.014	8.23
451.371	8.14
451.729	8.13
452.086	8.59
452.443	8.22
452.801	8.32
453.158	8.38
453.515	8.33
453.872	8.51
454.229	8.36
454.586	8.39
454.943	8.29
455.3	8.46
455.657	8.3
456.014	8.35
456.371	8.6
456.727	8.44
457.084	8.52
457.441	8.37
457.797	8.38
458.154	8.68
458.51	8.64
458.867	8.42
459.223	8.5
459.58	8.55
459.936	8.65
460.292	8.72
460.648	8.37
461.005	8.47
461.361	8.44
461.717	8.56
462.073	8.34
462.429	8.33
462.785	8.19
463.141	8.3
463.496	8.37
463.852	8.38
464.208	8.34
464.564	8.46
464.919	8.52
465.275	8.61
465.631	8.92
465.986	8.49
466.342	8.42
466.697	8.43
467.052	8.7
467.408	8.79
467.763	8.48
468.118	8.4
468.473	8.56
468.829	8.62
469.184	8.41
469.539	8.42
469.894	8.57
470.249	8.61
470.603	8.75
470.958	8.69
471.313	8.58
471.668	8.52
472.023	8.42
472.377	8.54
472.732	8.43
473.086	8.63
473.441	8.52
473.795	8.77
474.15	8.61
474.504	8.57
474.859	8.66
475.213	8.41
475.567	8.62
475.921	8.4
476.275	8.69
476.63	8.67
476.984	8.82
477.338	8.64
477.692	8.6
478.045	8.5
478.399	8.73
478.753	8.76
479.107	8.77
479.461	8.68
479.814	8.59
480.168	8.63
480.521	8.66
480.875	8.63
481.228	8.71
481.582	8.65
481.935	8.67
482.289	8.57
482.642	8.67
482.995	8.55
483.348	8.63
483.701	8.61
484.055	8.78
484.408	8.65
484.761	8.54
485.114	8.54
485.466	8.39
485.819	8.32
486.172	8.24
486.525	8.13
486.878	8.17
487.23	8.15
487.583	8.36
487.936	8.36
488.288	8.45
488.641	8.54
488.993	8.43
489.345	8.36
489.698	8.38
490.05	8.32
490.402	8.35
490.754	8.35
491.107	8.4
491.459	8.59
491.811	8.58
492.163	8.66
492.515	8.56
492.866	8.59
493.218	8.58
493.57	8.47
493.922	8.4
494.274	8.37
494.625	8.44
494.977	8.57
495.328	8.68
495.68	8.56
496.031	8.67
496.383	8.6
496.734	8.74
497.086	8.7
497.437	8.59
497.788	8.7
498.139	8.74
498.49	8.76
498.842	8.65
499.193	8.67
499.544	8.7
499.894	8.61
500.245	8.7
500.596	8.67
500.947	8.73
501.298	8.6
501.648	8.81
501.999	8.83
502.35	8.64
502.7	9.02
503.051	8.7
503.401	8.69
503.752	8.79
504.102	8.91
504.452	8.97
504.803	8.76
505.153	8.75
505.503	8.94
505.853	8.77
506.203	8.74
506.553	8.77
506.903	8.84
507.253	8.65
507.603	8.81
507.953	8.9
508.303	8.98
508.652	8.66
509.002	8.88
509.352	8.96
509.701	8.86
510.051	8.75
510.4	8.76
510.75	8.83
511.099	8.77
511.449	8.8
511.798	8.83
512.147	8.78
512.496	8.72
512.846	8.78
513.195	8.78
513.544	8.86
513.893	8.84
514.242	8.81
514.591	8.92
514.939	8.78
515.288	8.72
515.637	8.91
515.986	8.85
516.334	8.9
516.683	8.87
517.032	8.83
517.38	8.98
517.729	8.9
518.077	8.52
518.426	8.85
518.774	9.02
519.122	8.91
519.47	8.93
519.819	8.68
520.167	8.87
520.515	8.85
520.863	8.79
521.211	8.8
521.559	8.93
521.907	8.75
522.255	8.84
522.602	8.89
522.95	8.74
523.298	8.96
523.645	9.01
523.993	8.86
524.341	8.85
524.688	8.72
525.036	8.78
525.383	9.01
525.73	8.98
526.078	9.01
526.425	8.88
526.772	8.91
527.119	8.83
527.466	8.86
527.814	8.85
528.161	8.83
528.508	8.82
528.854	8.83
529.201	8.75
529.548	8.82
529.895	8.79
530.242	8.64
530.588	8.61
530.935	8.59
531.282	8.58
531.628	8.53
531.975	8.53
532.321	8.6
532.667	8.75
533.014	8.88
533.36	8.78
533.706	8.93
534.052	8.78
534.399	8.76
534.745	8.8
535.091	8.82
535.437	8.86
535.783	8.71
536.129	8.79
536.474	8.7
536.82	8.75
537.166	8.85
537.512	8.87
537.857	8.92
538.203	9.01
538.549	8.92
538.894	8.85
539.239	8.86
539.585	8.76
539.93	8.77
540.276	8.96
540.621	8.99
540.966	8.89
541.311	8.92
541.656	8.85
542.001	9.02
542.346	9.08
542.691	8.85
543.036	8.93
543.381	8.74
543.726	8.73
544.071	8.68
544.415	8.75
544.76	8.67
545.105	8.79
545.449	8.92
545.794	8.91
546.138	8.84
546.483	8.99
546.827	8.98
547.171	8.95
547.516	9.11
547.86	8.84
548.204	8.89
548.548	8.94
548.892	9.05
549.236	8.86
549.58	8.87
549.924	9
550.268	9.07
550.612	8.86
550.956	9.08
551.3	8.96
551.643	9.18
551.987	9.23
552.33	9.06
552.674	9.17
553.017	8.97
553.361	8.94
553.704	9.32
554.048	8.95
554.391	9.12
554.734	9.1
555.077	9.04
555.42	8.77
555.764	8.93
556.107	8.89
556.45	9.11
556.793	9.09
557.135	8.97
557.478	9.22
557.821	9.1
558.164	9.06
558.507	9.02
558.849	8.95
559.192	9.2
559.534	9.22
559.877	9.05
560.219	9.21
560.562	9.3
560.904	9.03
561.246	9.05
561.589	9.11
561.931	9.37
562.273	8.95
562.615	9.08
562.957	9.15
563.299	8.94
563.641	9.16
563.983	9.19
564.325	9
564.667	9
565.008	9.1
565.35	9.12
565.692	9.06
566.033	9.13
566.375	9.31
566.716	9.29
567.058	9
567.399	9
567.741	9.07
568.082	9.11
568.423	9.1
568.764	9.16
569.105	9.19
569.447	9.1
569.788	8.9
570.129	9.19
570.47	9.32
570.811	9.09
571.151	9.29
571.492	9.19
571.833	9.09
572.174	9.03
572.514	9.2
572.855	9.04
573.195	9.38
573.536	9.21
573.876	8.91
574.217	9.09
574.557	9.22
574.898	9.34
575.238	9.17
575.578	9.13
575.918	9.21
576.258	9.19
576.598	9.38
576.938	9.22
577.278	9.14
577.618	9.07
577.958	9.21
578.298	9.09
578.638	9.08
578.977	9.09
579.317	9.07
579.657	9.38
579.996	9.11
580.336	9.2
580.675	9.21
581.014	9.1
581.354	9.2
581.693	9.2
582.032	9.2
582.372	8.99
582.711	9.5
583.05	9.04
583.389	9.25
583.728	8.99
584.067	9.22
584.406	9.41
584.745	9.33
585.083	9.3
585.422	9.32
585.761	9.46
586.1	9.16
586.438	9.16
586.777	9.28
587.115	9.57
587.454	9.22
587.792	9.23
588.13	9.28
588.469	9.19
588.807	9.37
589.145	9.33
589.483	9.4
589.821	9.18
590.159	9.11
590.497	9.55
590.835	9.47
591.173	9.15
591.511	9.55
591.849	9.37
592.187	9.31
592.524	9.4
592.862	9.16
593.2	9.42
593.537	9.32
593.875	9.39
594.212	9.02
594.55	9.27
594.887	9.69
595.224	9.24
595.561	9.12
595.899	9.74
596.236	9.11
596.573	9.58
596.91	9.12
597.247	9.01
597.584	9.48
597.921	9.42
598.258	9.14
598.594	9.22
598.931	9.34
599.268	9.37
599.604	9.44
599.941	9.25
600.277	9.09
600.614	9.22
600.95	9.03
601.287	9.57
601.623	9.4
601.959	9.04
602.296	9.32
602.632	9.37
602.968	9.36
603.304	9.32
603.64	9.33
603.976	9.29
604.312	9.28
604.648	8.98
604.984	9.33
605.319	9.28
605.655	9.31
605.991	9.39
606.326	9.53
606.662	9.51
606.998	9.07
607.333	9.32
607.668	9.14
608.004	9.17
608.339	9.18
608.674	9.6
609.01	9.32
609.345	8.79
609.68	9.42
610.015	9.27
610.35	9.32
610.685	9.13
611.02	9.46
611.355	9.42
611.689	9.32
612.024	9.24
612.359	9.42
612.694	9.25
613.028	8.96
613.363	9.46
613.697	9.49
614.032	9.53
614.366	9.22
614.7	9.38
615.035	9.51
615.369	9.48
615.703	9.53
616.037	9.42
616.371	8.8
616.705	9.26
617.039	9.39
617.373	9.29
617.707	9.21
618.041	9.01
618.375	9.29
618.709	9.32
619.042	8.77
619.376	9.18
619.71	9.56
620.043	9.37
620.377	9.1
620.71	9.45
621.043	9.23
621.377	9.26
621.71	9.24
622.043	9.36
622.376	9.38
622.709	9.15
623.043	9.13
623.376	9.61
623.709	9.02
624.041	9.51
624.374	9.44
624.707	9.16
625.04	9.54
625.373	8.79
625.705	9.27
626.038	9.2
626.37	9.39
626.703	9.57
627.035	9.19
627.368	9.8
627.7	9.38
628.032	9.1
628.365	9.83
628.697	9.36
629.029	9.17
629.361	9.29
629.693	9.53
630.025	9.24
630.357	9.24
630.689	9.35
631.021	9.23
631.353	9.74
631.684	9.15
632.016	9.08
632.348	9.32
632.679	9.57
633.011	9.76
633.342	9.96
633.674	9.23
634.005	9.93
634.336	9.12
634.668	9.62
634.999	9.12
635.33	9.35
635.661	9.6
635.992	8.78
636.323	9.36
636.654	9.4
636.985	9.48
637.316	9.29
637.647	9.18
637.977	9.3
638.308	9.49
638.639	9.04
638.969	8.91
639.3	9.22
639.63	8.8
639.961	9.75
640.291	8.89
640.622	9.72
640.952	9.02
641.282	9.71
641.612	9.69
641.943	9.35
642.273	9.17
642.603	9.67
642.933	9.64
643.263	9.35
643.592	9.49
643.922	8.84
644.252	9.14
644.582	9.39
644.911	9.35
645.241	9.2
645.571	9.16
645.9	9.3
646.23	8.94
646.559	9.55
646.888	9.22
647.218	8.76
647.547	9.46
647.876	8.98
648.205	9.38
648.534	9.12
648.863	8.95
649.192	9.2
649.521	9.42
649.85	9.08
650.179	9.3
650.508	9.28
650.837	9.14
651.165	9.34
651.494	9.39
651.822	9.31
652.151	8.84
652.479	9.57
652.808	9.12
653.136	9.35
653.465	9.01
653.793	9.26
654.121	9.67
654.449	9.65
654.777	9.76
655.105	9.39
655.433	9.02
655.761	9.09
656.089	9.34
656.417	9.15
656.745	9.14
657.073	9.59
657.4	10.37
657.728	9.49
658.056	9.7
658.383	9.57
658.711	9.65
659.038	9.7
659.365	9.42
659.693	9.63
660.02	9.6
660.347	9.35
660.674	9.76
661.001	9.46
661.329	8.8
661.656	9.73
661.982	9.43
662.309	9.33
662.636	9.28
662.963	9.69
663.29	9.11
663.616	9.71
663.943	8.83
664.27	9.34
664.596	9.63
664.923	9.39
665.249	9.33
665.576	9.33
665.902	9.99
666.228	9.31
666.554	9.72
666.881	9.23
667.207	9.53
667.533	9.34
667.859	9.78
668.185	9.76
668.511	8.45
668.837	8.34
669.162	9.19
669.488	8.54
669.814	9.39
670.139	9.93
670.465	9.89
670.791	9.91
671.116	10.07
671.442	9.24
671.767	9.45
672.092	9.15
672.418	9.73
672.743	10.34
673.068	9.11
673.393	9.82
673.718	9.47
674.043	9.53
674.368	9.27
674.693	9.91
675.018	8.9
675.343	9.6
675.667	8.97
675.992	9.43
676.317	10
676.641	9.62
676.966	9.01
677.29	9.53
677.615	9.11
677.939	9.44
678.264	9.5
678.588	9.49
678.912	9.59
679.236	10.23
679.56	8.62
679.885	9.65
680.209	9.46
680.532	9.06
680.856	10.49
681.18	9.65
681.504	9.64
681.828	10.27
682.152	9.56
682.475	10
682.799	9.44
683.122	9.57
683.446	8.56
683.769	9.75
684.093	9.15
684.416	9.73
684.739	10.3
685.062	9.19
685.386	10.15
685.709	9.41
686.032	9.15
686.355	9.87
686.678	9.4
687.001	9.22
687.324	10.11
687.646	9.14
687.969	8.9
688.292	9.53
688.614	9.29
688.937	10.02
689.26	9.13
689.582	9.91
689.904	9.62
690.227	9.83
690.549	8.84
690.871	9.83
691.194	8.74
691.516	9.35
691.838	8.73
692.16	8.6
692.482	9.32
