Data from 2009-1_forehead_Reflection__0__225.txt Node

Date: Fri Dec 15 18:25:27 CST 2023
User: ToomeyLab
Spectrometer: FLMS14357
Trigger mode: 0
Integration Time (sec): 1.000000E-2
Scans to average: 100
Electric dark correction enabled: true
Nonlinearity correction enabled: false
Boxcar width: 0
XAxis mode: Wavelengths
Number of Pixels in Spectrum: 2048
>>>>>Begin Spectral Data<<<<<
189.047	-1319.13
189.435	-1319.13
189.823	-1319.13
190.211	-1338.53
190.599	-79.94
190.987	48.66
191.375	88.65
191.763	-380.43
192.151	147.46
192.538	162.76
192.926	-546.23
193.314	20.85
193.702	217.73
194.089	190.11
194.477	25.32
194.864	34.72
195.252	36.01
195.639	91.25
196.027	308.84
196.414	51.91
196.801	198.78
197.189	335.92
197.576	78.87
197.963	-709.7
198.351	-33.89
198.738	5.37
199.125	13.25
199.512	-25.69
199.899	-0.07
200.286	-7.31
200.673	7.54
201.06	13.74
201.447	-54.39
201.833	32.65
202.22	16.26
202.607	39.97
202.994	190.66
203.38	64.52
203.767	30.2
204.154	6.66
204.54	29.03
204.927	14.53
205.313	-23.83
205.699	67.76
206.086	62.9
206.472	30.17
206.858	30.21
207.245	-5.2
207.631	20.93
208.017	48.53
208.403	5.5
208.789	63.55
209.175	34.1
209.561	-7.84
209.947	58.34
210.333	-6.31
210.719	-5.47
211.105	18.67
211.491	9.93
211.876	-20.94
212.262	-12.04
212.648	-6.33
213.034	42.34
213.419	-14.86
213.805	11.03
214.19	-62.76
214.576	-23.22
214.961	-17.41
215.346	-78.76
215.732	-20.49
216.117	5.53
216.502	15.42
216.888	25.33
217.273	47.14
217.658	28.11
218.043	16.51
218.428	0.88
218.813	-42.72
219.198	-41.91
219.583	-3.02
219.968	25.58
220.353	-18.7
220.738	18.38
221.122	-9.48
221.507	-19.25
221.892	-36.09
222.276	-33.12
222.661	27.66
223.046	19.36
223.43	8.47
223.815	15.12
224.199	-2.31
224.583	5.05
224.968	-1.88
225.352	14.71
225.736	13.69
226.121	-14.64
226.505	3.04
226.889	19.26
227.273	4.71
227.657	9.81
228.041	5.84
228.425	3.89
228.809	4.67
229.193	5.6
229.577	0.7
229.961	5.66
230.344	4.65
230.728	3.73
231.112	4.94
231.495	4.71
231.879	4.12
232.263	4.73
232.646	5.94
233.03	4.37
233.413	2.94
233.797	4.31
234.18	5.91
234.563	3.06
234.946	4.32
235.33	5.47
235.713	7.06
236.096	5.26
236.479	6.24
236.862	3.97
237.245	7.19
237.628	3.3
238.011	5.99
238.394	5.73
238.777	5.5
239.16	3.53
239.543	6.88
239.925	6.42
240.308	5.13
240.691	5.87
241.073	6.35
241.456	5.1
241.838	6.23
242.221	3.39
242.603	5.73
242.986	5.48
243.368	4.8
243.75	4.45
244.133	4.27
244.515	4.67
244.897	5.15
245.279	4.91
245.661	3.63
246.043	4.58
246.425	4.28
246.807	5.48
247.189	3.45
247.571	4.92
247.953	5.13
248.335	4.5
248.717	4.89
249.098	4.82
249.48	4.98
249.862	4.86
250.243	4.91
250.625	4.83
251.006	4.9
251.388	4.01
251.769	4.75
252.151	5.62
252.532	4.17
252.913	3.96
253.295	4.22
253.676	4.62
254.057	4.97
254.438	4.72
254.819	4.52
255.2	4.09
255.581	5.62
255.962	4.31
256.343	5.15
256.724	4.54
257.105	5.27
257.486	3.92
257.867	4.92
258.247	4.96
258.628	5.51
259.009	3.68
259.389	4.6
259.77	4.61
260.15	4.25
260.531	4.12
260.911	5.26
261.292	5.05
261.672	4.88
262.052	4.78
262.432	5.23
262.813	4.78
263.193	5.11
263.573	4.16
263.953	3.88
264.333	5.14
264.713	4.86
265.093	4.35
265.473	4.38
265.853	4.01
266.233	4.81
266.612	2.59
266.992	2.59
267.372	4.57
267.752	4.54
268.131	4.58
268.511	4.89
268.89	5.22
269.27	4.58
269.649	3.97
270.029	4.02
270.408	5.56
270.787	4.94
271.167	4.99
271.546	4.67
271.925	3.61
272.304	3.82
272.683	4.66
273.062	4.2
273.441	4.14
273.82	4.02
274.199	3.99
274.578	4.68
274.957	4.23
275.336	4.75
275.715	4.51
276.093	4.43
276.472	4.48
276.851	4.29
277.229	4.19
277.608	3.36
277.986	3.95
278.365	3.72
278.743	3.73
279.122	4.16
279.5	4.25
279.878	4.41
280.257	3.62
280.635	3.66
281.013	3.63
281.391	5.05
281.769	4.66
282.147	4.31
282.525	4.82
282.903	4.09
283.281	4.83
283.659	4.87
284.037	4.56
284.415	4.72
284.792	4.77
285.17	3.58
285.548	3.88
285.925	4.5
286.303	4.3
286.68	4.34
287.058	4.32
287.435	4.47
287.813	4.17
288.19	4.17
288.567	4.38
288.945	4.79
289.322	4.69
289.699	4.05
290.076	4.25
290.453	4.07
290.83	4.6
291.207	4.39
291.584	4.92
291.961	4.77
292.338	4.6
292.715	4.85
293.092	4.61
293.469	4.68
293.845	4.91
294.222	3.98
294.599	4.8
294.975	4.52
295.352	5.24
295.728	4.35
296.105	4.92
296.481	5.4
296.858	5.15
297.234	4.49
297.61	5.53
297.986	5.4
298.363	5.48
298.739	5.46
299.115	5.33
299.491	5.04
299.867	5.41
300.243	5.3
300.619	5.01
300.995	5.27
301.371	5.53
301.746	5.38
302.122	5.34
302.498	5.32
302.874	5.89
303.249	5.59
303.625	5.53
304	5.67
304.376	6.01
304.751	5.54
305.127	7.07
305.502	5.78
305.878	4.95
306.253	5.82
306.628	6.48
307.003	6.4
307.378	6.7
307.754	5.87
308.129	5.81
308.504	5.77
308.879	6.51
309.254	7.21
309.629	7.15
310.003	6.71
310.378	7.07
310.753	7.36
311.128	6.7
311.502	7.14
311.877	7.44
312.252	6.8
312.626	6.99
313.001	6.39
313.375	7.41
313.75	6.55
314.124	7.17
314.498	7.78
314.873	7.06
315.247	7.43
315.621	7.07
315.995	6.86
316.369	7.77
316.743	7.45
317.117	8.22
317.491	7.76
317.865	7.82
318.239	7.13
318.613	7.94
318.987	8.75
319.361	7.84
319.734	8.67
320.108	7.82
320.482	8.04
320.855	8.15
321.229	8.81
321.602	7.71
321.976	9.19
322.349	8.47
322.723	8.7
323.096	9.21
323.469	8.29
323.843	8.5
324.216	9.12
324.589	8.97
324.962	9.47
325.335	8.57
325.708	9.45
326.081	9.36
326.454	8.93
326.827	8.52
327.2	9.46
327.573	9.5
327.945	9.2
328.318	9.35
328.691	9.39
329.063	9.63
329.436	9.54
329.809	9.54
330.181	10.16
330.553	10.06
330.926	10.13
331.298	10.13
331.671	9.94
332.043	10
332.415	10.06
332.787	9.59
333.159	9.99
333.532	10.47
333.904	9.8
334.276	9.78
334.648	10.37
335.02	10.16
335.391	10.05
335.763	9.42
336.135	10.51
336.507	10.47
336.879	10.39
337.25	10.72
337.622	10.4
337.993	11.13
338.365	10.61
338.736	10.03
339.108	10.33
339.479	10.19
339.851	10.69
340.222	10.66
340.593	10.96
340.964	10.49
341.336	11.46
341.707	10.56
342.078	11.02
342.449	11.07
342.82	10.55
343.191	10.85
343.562	10.78
343.933	11
344.303	10.93
344.674	10.42
345.045	11.11
345.416	11.72
345.786	10.98
346.157	11.15
346.527	10.87
346.898	10.82
347.268	11.76
347.639	11.63
348.009	11.39
348.38	11.3
348.75	11.41
349.12	11.46
349.49	12.05
349.861	11.43
350.231	11.43
350.601	11.81
350.971	11.8
351.341	11.98
351.711	11.68
352.081	11.67
352.45	11.5
352.82	12.12
353.19	11.58
353.56	11.42
353.929	12.12
354.299	12.13
354.669	11.79
355.038	12.3
355.408	11.98
355.777	12.19
356.147	11.88
356.516	12.71
356.885	12.12
357.254	12.04
357.624	12.23
357.993	12.25
358.362	11.98
358.731	11.92
359.1	12.43
359.469	12.63
359.838	12.45
360.207	12.13
360.576	12.37
360.945	12.16
361.314	12.54
361.682	12.53
362.051	12.34
362.42	13.17
362.788	12.63
363.157	12.77
363.525	12.55
363.894	12.84
364.262	12.83
364.631	12.83
364.999	12.78
365.367	12.44
365.735	13.51
366.104	13.05
366.472	13
366.84	12.97
367.208	13.41
367.576	13.21
367.944	13.58
368.312	13.33
368.68	12.89
369.048	13.51
369.416	13
369.783	12.94
370.151	13.36
370.519	13.79
370.886	13.74
371.254	13.81
371.621	13.94
371.989	13.52
372.356	13.05
372.724	13.67
373.091	13.45
373.458	13.43
373.826	13.68
374.193	13.35
374.56	13.8
374.927	13.87
375.294	13.96
375.661	13.86
376.028	13.47
376.395	13.74
376.762	13.81
377.129	13.88
377.496	14.23
377.863	14.17
378.229	13.64
378.596	13.79
378.963	13.81
379.329	13.8
379.696	14.13
380.062	14.38
380.429	14.56
380.795	14.23
381.161	14.33
381.528	14.45
381.894	14.28
382.26	13.97
382.626	14.05
382.993	14.18
383.359	14.82
383.725	14.14
384.091	14.26
384.457	14.44
384.823	14.39
385.188	14.55
385.554	14.21
385.92	14.64
386.286	14.61
386.651	14.35
387.017	15.03
387.383	14.46
387.748	14.52
388.114	14.35
388.479	14.35
388.845	14.84
389.21	14.42
389.575	14.59
389.94	14.77
390.306	14.66
390.671	15.05
391.036	14.7
391.401	14.66
391.766	14.87
392.131	14.48
392.496	14.82
392.861	14.51
393.226	14.96
393.591	14.85
393.956	14.7
394.32	14.68
394.685	14.76
395.05	14.79
395.414	14.58
395.779	14.62
396.143	14.8
396.508	14.99
396.872	14.83
397.236	15.09
397.601	14.8
397.965	15.11
398.329	15.03
398.694	14.79
399.058	15.27
399.422	14.82
399.786	14.86
400.15	15.14
400.514	14.9
400.878	15.03
401.242	15.39
401.605	15.13
401.969	14.87
402.333	15.2
402.697	15.23
403.06	15.26
403.424	14.93
403.787	14.71
404.151	14.95
404.514	14.81
404.878	14.73
405.241	15.07
405.604	14.86
405.968	15.01
406.331	14.92
406.694	14.69
407.057	14.67
407.42	14.88
407.783	14.59
408.146	14.73
408.509	14.76
408.872	14.99
409.235	14.7
409.598	15.07
409.961	14.61
410.323	14.85
410.686	14.8
411.049	14.61
411.411	14.77
411.774	14.65
412.136	14.59
412.499	14.92
412.861	14.98
413.223	14.79
413.586	14.78
413.948	14.97
414.31	14.74
414.672	14.89
415.035	14.73
415.397	15.37
415.759	15.11
416.121	15.09
416.483	14.89
416.845	14.88
417.206	14.88
417.568	15.04
417.93	14.89
418.292	15.09
418.653	15.09
419.015	15.05
419.377	15.05
419.738	15.24
420.1	14.89
420.461	15.21
420.822	15.32
421.184	15.31
421.545	15.3
421.906	15.34
422.267	15.29
422.629	15.48
422.99	15.38
423.351	15.47
423.712	15.56
424.073	15.8
424.434	15.65
424.795	15.92
425.155	15.8
425.516	15.82
425.877	16.09
426.238	15.98
426.598	16.18
426.959	16.25
427.32	16.42
427.68	16.36
428.041	16.55
428.401	16.77
428.761	16.68
429.122	17.06
429.482	17
429.842	17.35
430.202	17.03
430.563	17.5
430.923	17.21
431.283	17.63
431.643	17.51
432.003	17.72
432.363	17.6
432.722	17.58
433.082	17.8
433.442	17.96
433.802	17.89
434.161	17.79
434.521	18.17
434.881	18.01
435.24	17.81
435.6	18.07
435.959	18.08
436.319	18.23
436.678	18.39
437.037	18.52
437.396	18.57
437.756	18.79
438.115	18.74
438.474	18.71
438.833	18.59
439.192	18.8
439.551	18.77
439.91	19.14
440.269	19.24
440.628	19.1
440.987	19.19
441.345	19.13
441.704	19.13
442.063	19.12
442.421	19.11
442.78	19.07
443.138	19.29
443.497	19.44
443.855	19.45
444.214	19.63
444.572	19.84
444.93	19.86
445.288	19.97
445.647	19.88
446.005	19.88
446.363	19.81
446.721	20.01
447.079	19.7
447.437	19.86
447.795	20.03
448.153	19.82
448.51	19.82
448.868	20.04
449.226	20.09
449.584	20.24
449.941	20.38
450.299	20.44
450.656	20.45
451.014	20.67
451.371	20.62
451.729	20.58
452.086	20.96
452.443	20.77
452.801	21.23
453.158	20.91
453.515	20.86
453.872	21.07
454.229	20.88
454.586	21.13
454.943	21.36
455.3	21.29
455.657	21.34
456.014	21.23
456.371	21.46
456.727	21.66
457.084	21.82
457.441	21.49
457.797	21.78
458.154	22.12
458.51	21.95
458.867	22.04
459.223	22.04
459.58	21.92
459.936	21.92
460.292	21.81
460.648	21.92
461.005	21.97
461.361	21.85
461.717	21.73
462.073	21.66
462.429	22.24
462.785	22.32
463.141	22.28
463.496	22.32
463.852	22.69
464.208	22.7
464.564	22.75
464.919	22.83
465.275	23.09
465.631	23.3
465.986	22.83
466.342	23.04
466.697	22.97
467.052	23.12
467.408	23.13
467.763	23.18
468.118	23.4
468.473	22.97
468.829	23.06
469.184	23.27
469.539	23.3
469.894	23.06
470.249	23.6
470.603	23.47
470.958	23.63
471.313	23.62
471.668	23.86
472.023	23.71
472.377	23.67
472.732	23.56
473.086	23.73
473.441	23.9
473.795	24.09
474.15	24.1
474.504	23.96
474.859	23.97
475.213	24.08
475.567	24.11
475.921	24.14
476.275	24.26
476.63	24.37
476.984	24.61
477.338	24.56
477.692	24.27
478.045	24.42
478.399	24.4
478.753	24.3
479.107	24.49
479.461	24.48
479.814	24.45
480.168	24.48
480.521	24.77
480.875	24.64
481.228	24.73
481.582	24.91
481.935	24.93
482.289	24.72
482.642	24.84
482.995	24.95
483.348	24.62
483.701	24.71
484.055	24.91
484.408	24.72
484.761	24.48
485.114	24.27
485.466	23.76
485.819	23.67
486.172	23.93
486.525	24.2
486.878	24.45
487.23	24.62
487.583	24.78
487.936	24.98
488.288	24.93
488.641	24.88
488.993	24.54
489.345	24.4
489.698	24.42
490.05	24.62
490.402	24.86
490.754	25
491.107	25.32
491.459	25.52
491.811	25.69
492.163	25.61
492.515	25.58
492.866	25.52
493.218	25.16
493.57	24.91
493.922	25.03
494.274	25.52
494.625	25.8
494.977	25.99
495.328	26.26
495.68	26.14
496.031	26.55
496.383	26.39
496.734	26.45
497.086	26.6
497.437	26.45
497.788	26.46
498.139	26.32
498.49	26.42
498.842	26.34
499.193	26.57
499.544	26.65
499.894	26.69
500.245	26.63
500.596	26.63
500.947	26.89
501.298	26.78
501.648	26.92
501.999	26.95
502.35	27.14
502.7	27.12
503.051	27.47
503.401	27.22
503.752	27.3
504.102	27.35
504.452	27.36
504.803	27.27
505.153	27.5
505.503	27.4
505.853	27.48
506.203	27.42
506.553	27.5
506.903	27.38
507.253	27.62
507.603	27.61
507.953	27.69
508.303	27.61
508.652	27.64
509.002	27.86
509.352	27.66
509.701	27.54
510.051	27.71
510.4	27.58
510.75	27.67
511.099	27.68
511.449	27.73
511.798	27.86
512.147	27.77
512.496	27.86
512.846	28.05
513.195	27.95
513.544	28.05
513.893	27.94
514.242	28.02
514.591	28.31
514.939	28.06
515.288	28.11
515.637	28.18
515.986	28.47
516.334	28.38
516.683	28.46
517.032	28.44
517.38	28.61
517.729	28.53
518.077	28.22
518.426	28.51
518.774	28.58
519.122	28.39
519.47	28.18
519.819	28.3
520.167	28.22
520.515	28.03
520.863	28.05
521.211	28.3
521.559	28.44
521.907	28.63
522.255	28.51
522.602	28.68
522.95	28.87
523.298	28.77
523.645	28.99
523.993	28.72
524.341	29.02
524.688	28.94
525.036	28.89
525.383	29.23
525.73	29.21
526.078	29.01
526.425	28.98
526.772	28.88
527.119	28.87
527.466	28.52
527.814	28.81
528.161	28.78
528.508	28.6
528.854	28.78
529.201	28.76
529.548	28.52
529.895	28.42
530.242	28.01
530.588	27.9
530.935	28.11
531.282	28.45
531.628	28.69
531.975	28.88
532.321	28.95
532.667	29.12
533.014	29.33
533.36	29.27
533.706	29.42
534.052	29.16
534.399	29.1
534.745	28.81
535.091	28.79
535.437	28.86
535.783	28.98
536.129	29.38
536.474	29.44
536.82	29.55
537.166	30.06
537.512	29.89
537.857	29.86
538.203	29.77
538.549	29.56
538.894	29.7
539.239	29.69
539.585	29.91
539.93	30.05
540.276	30.42
540.621	30.2
540.966	30.36
541.311	30.07
541.656	30.14
542.001	30.29
542.346	30.12
542.691	29.68
543.036	29.48
543.381	29.3
543.726	29.43
544.071	29.83
544.415	29.93
544.76	30.11
545.105	30.03
545.449	30.25
545.794	30.46
546.138	30.6
546.483	30.71
546.827	30.71
547.171	30.74
547.516	30.81
547.86	30.76
548.204	30.74
548.548	30.57
548.892	30.74
549.236	30.69
549.58	31.13
549.924	31.14
550.268	31.62
550.612	31.35
550.956	31.69
551.3	31.39
551.643	31.57
551.987	31.72
552.33	31.79
552.674	31.83
553.017	31.75
553.361	31.84
553.704	32
554.048	31.68
554.391	31.64
554.734	31.83
555.077	31.78
555.42	31.84
555.764	31.78
556.107	32
556.45	32.32
556.793	32.44
557.135	32.19
557.478	32.4
557.821	32.52
558.164	32.65
558.507	32.22
558.849	32.1
559.192	32.6
559.534	32.73
559.877	32.4
560.219	32.62
560.562	32.83
560.904	32.69
561.246	32.56
561.589	33.07
561.931	32.62
562.273	32.69
562.615	32.91
562.957	32.76
563.299	32.53
563.641	32.71
563.983	32.99
564.325	32.8
564.667	32.99
565.008	32.89
565.35	33.23
565.692	32.99
566.033	33.17
566.375	33.06
566.716	33.33
567.058	33.01
567.399	33.03
567.741	32.82
568.082	32.77
568.423	32.94
568.764	32.81
569.105	33.24
569.447	33.25
569.788	33.29
570.129	33.6
570.47	33.53
570.811	33.62
571.151	33.64
571.492	33.49
571.833	33.87
572.174	33.45
572.514	33.9
572.855	33.8
573.195	33.57
573.536	33.58
573.876	33.37
574.217	33.66
574.557	33.77
574.898	34.07
575.238	33.88
575.578	33.92
575.918	34.04
576.258	34.07
576.598	34.19
576.938	34.01
577.278	34.11
577.618	34.07
577.958	34.29
578.298	34.34
578.638	34.36
578.977	34.54
579.317	34.4
579.657	34.68
579.996	34.66
580.336	34.81
580.675	34.76
581.014	35.23
581.354	35.06
581.693	35.15
582.032	34.96
582.372	35.15
582.711	35.29
583.05	35.54
583.389	35.12
583.728	35.16
584.067	35.45
584.406	35.11
584.745	35.18
585.083	35.28
585.422	35.72
585.761	35.74
586.1	35.97
586.438	35.59
586.777	35.6
587.115	35.92
587.454	35.73
587.792	35.74
588.13	36.03
588.469	35.93
588.807	36.03
589.145	35.92
589.483	36.13
589.821	36.06
590.159	36.53
590.497	36.08
590.835	36.28
591.173	36.15
591.511	36.39
591.849	35.92
592.187	36.24
592.524	36.65
592.862	36.13
593.2	36.47
593.537	36.42
593.875	36.17
594.212	36.11
594.55	36.65
594.887	37
595.224	36.41
595.561	36.66
595.899	36.61
596.236	36.6
596.573	36.95
596.91	36.28
597.247	36.64
597.584	37.23
597.921	36.75
598.258	36.74
598.594	36.77
598.931	36.46
599.268	36.39
599.604	36.85
599.941	36.99
600.277	36.88
600.614	37.38
600.95	36.76
601.287	37.35
601.623	36.74
601.959	37.23
602.296	37.1
602.632	37.42
602.968	37.78
603.304	37.24
603.64	37.55
603.976	37.79
604.312	37.12
604.648	37.54
604.984	37.41
605.319	37.38
605.655	37.56
605.991	37.41
606.326	37.49
606.662	37.32
606.998	37.26
607.333	37.41
607.668	37.75
608.004	38.14
608.339	38.11
608.674	37.91
609.01	37.96
609.345	37.83
609.68	38.34
610.015	38.22
610.35	38.12
610.685	38.03
611.02	38.34
611.355	38.06
611.689	38.16
612.024	38.25
612.359	38.1
612.694	37.98
613.028	38.33
613.363	38.56
613.697	39.02
614.032	38.68
614.366	38.6
614.7	38.8
615.035	38.95
615.369	38.67
615.703	38.85
616.037	39.18
616.371	38.37
616.705	38.86
617.039	39.13
617.373	39.02
617.707	38.8
618.041	39.1
618.375	39.19
618.709	39.3
619.042	39.25
619.376	39.61
619.71	39.56
620.043	39.45
620.377	39.2
620.71	39.67
621.043	39.68
621.377	39.88
621.71	39.08
622.043	39.43
622.376	39.4
622.709	39.53
623.043	39.72
623.376	39.32
623.709	39.77
624.041	39.48
624.374	39.77
624.707	39.99
625.04	40.4
625.373	39.68
625.705	40.41
626.038	39.95
626.37	40.19
626.703	39.51
627.035	39.85
627.368	40.28
627.7	39.66
628.032	39.76
628.365	40.21
628.697	39.85
629.029	40.18
629.361	39.92
629.693	40.35
630.025	40.17
630.357	40.23
630.689	40.46
631.021	40.46
631.353	40.73
631.684	39.93
632.016	40.32
632.348	40.04
632.679	40.53
633.011	40.53
633.342	41.02
633.674	40.71
634.005	41.12
634.336	40.55
634.668	41.29
634.999	40.74
635.33	40.93
635.661	40.86
635.992	40.68
636.323	40.4
636.654	41.31
636.985	41.06
637.316	41.17
637.647	41.22
637.977	41.26
638.308	41.56
638.639	41.24
638.969	41.21
639.3	41.18
639.63	40.88
639.961	41.19
640.291	41.42
640.622	42.11
640.952	41.84
641.282	41.78
641.612	41.63
641.943	41.66
642.273	41.99
642.603	41.93
642.933	42.01
643.263	42.59
643.592	41.39
643.922	41.37
644.252	41.84
644.582	41.84
644.911	41.92
645.241	42.03
645.571	41.79
645.9	41.92
646.23	42.19
646.559	42.11
646.888	41.73
647.218	42.37
647.547	42.72
647.876	41.92
648.205	41.8
648.534	42.03
648.863	42.33
649.192	42.4
649.521	42.38
649.85	42.14
650.179	42.22
650.508	41.95
650.837	42.62
651.165	42.35
651.494	42.49
651.822	42.68
652.151	42.44
652.479	42.43
652.808	42.02
653.136	42.77
653.465	42.8
653.793	42.75
654.121	42.6
654.449	42.69
654.777	42.62
655.105	42.8
655.433	43.07
655.761	43.17
656.089	42.72
656.417	43.66
656.745	42.84
657.073	43.68
657.4	43.55
657.728	43.56
658.056	42.72
658.383	43.21
658.711	43.59
659.038	42.83
659.365	43.61
659.693	43.01
660.02	43.46
660.347	43.29
660.674	43.44
661.001	43.15
661.329	42.71
661.656	43.53
661.982	43.69
662.309	43.52
662.636	43.69
662.963	43.63
663.29	43.57
663.616	43.78
663.943	43.49
664.27	43.75
664.596	43.91
664.923	44.15
665.249	43.63
665.576	44.76
665.902	44.14
666.228	44.43
666.554	44.55
666.881	44.11
667.207	43.87
667.533	43.95
667.859	44.35
668.185	44.64
668.511	44.33
668.837	43.55
669.162	45.1
