Data from 2009-1_chest_Reflection__3__218.txt Node

Date: Fri Dec 15 18:22:47 CST 2023
User: ToomeyLab
Spectrometer: FLMS14357
Trigger mode: 0
Integration Time (sec): 1.000000E-2
Scans to average: 100
Electric dark correction enabled: true
Nonlinearity correction enabled: false
Boxcar width: 0
XAxis mode: Wavelengths
Number of Pixels in Spectrum: 2048
>>>>>Begin Spectral Data<<<<<
189.047	801.74
189.435	801.74
189.823	801.74
190.211	130.28
190.599	39.11
190.987	125.42
191.375	-1340.43
191.763	-99.2
192.151	85.83
192.538	346.34
192.926	-65.69
193.314	70.81
193.702	296.02
194.089	-89.52
194.477	-18.84
194.864	26.56
195.252	97.35
195.639	34.45
196.027	517.47
196.414	90.1
196.801	74.34
197.189	255.88
197.576	226.71
197.963	-456.97
198.351	-40.55
198.738	-39.68
199.125	-18.28
199.512	-23.3
199.899	35.63
200.286	19.96
200.673	1.15
201.06	-28.98
201.447	-12.85
201.833	4.69
202.22	54.19
202.607	22.74
202.994	254.52
203.38	37.07
203.767	27.04
204.154	45.99
204.54	6.13
204.927	-28.27
205.313	-16.06
205.699	11.88
206.086	18.04
206.472	11.98
206.858	-7.38
207.245	-25.28
207.631	-7.65
208.017	33.84
208.403	32.73
208.789	15.96
209.175	19.96
209.561	-43.88
209.947	2.63
210.333	-65.04
210.719	-23.93
211.105	-32.59
211.491	-2.38
211.876	5.99
212.262	12.54
212.648	11.23
213.034	27.15
213.419	-52.25
213.805	-27.7
214.19	-89.61
214.576	-55.23
214.961	-5.47
215.346	-114.75
215.732	8.98
216.117	-20.56
216.502	-21.56
216.888	15.57
217.273	-1.59
217.658	-4.3
218.043	-10.59
218.428	-42.47
218.813	-41.62
219.198	-44.72
219.583	-17.29
219.968	-7.66
220.353	-15.65
220.738	10.75
221.122	-10.75
221.507	-16.25
221.892	-38.67
222.276	-19.45
222.661	-1.5
223.046	15.27
223.43	8
223.815	8.28
224.199	-5.73
224.583	-2.61
224.968	-4.72
225.352	10.74
225.736	-5.78
226.121	-8.54
226.505	-8.22
226.889	11.6
227.273	-3.82
227.657	10.58
228.041	5.31
228.425	0.15
228.809	3.58
229.193	2.84
229.577	0.01
229.961	0.97
230.344	0.4
230.728	1.07
231.112	0.88
231.495	2.04
231.879	0.06
232.263	1.8
232.646	1.32
233.03	0.71
233.413	-1.87
233.797	1.61
234.18	0.52
234.563	1.77
234.946	1.67
235.33	1.3
235.713	1.9
236.096	1.25
236.479	1.9
236.862	2.55
237.245	0.43
237.628	-0.06
238.011	1.89
238.394	4.89
238.777	1.5
239.16	-0.64
239.543	1.74
239.925	2.07
240.308	-0.02
240.691	1.45
241.073	1.25
241.456	-0.09
241.838	0.42
242.221	0.44
242.603	2.14
242.986	2.28
243.368	1.61
243.75	2.55
244.133	1.18
244.515	1.67
244.897	2.23
245.279	2.14
245.661	0.97
246.043	1.23
246.425	0.44
246.807	3.09
247.189	1.88
247.571	2.28
247.953	2.31
248.335	1.71
248.717	1.95
249.098	1.91
249.48	1.81
249.862	1.9
250.243	1.9
250.625	2.03
251.006	1.92
251.388	0.56
251.769	1.35
252.151	1.88
252.532	1.95
252.913	-0.2
253.295	1.27
253.676	1.41
254.057	1.57
254.438	1.68
254.819	1.8
255.2	1
255.581	1.77
255.962	1.55
256.343	1.38
256.724	0.82
257.105	1.19
257.486	-0.43
257.867	3.02
258.247	0.56
258.628	1.69
259.009	1.55
259.389	1.35
259.77	1.18
260.15	0.94
260.531	0.75
260.911	1.79
261.292	1.44
261.672	1.81
262.052	1.77
262.432	2.08
262.813	1.84
263.193	1.16
263.573	1.03
263.953	1.46
264.333	2.46
264.713	1.34
265.093	1.28
265.473	1.65
265.853	0.09
266.233	2.12
266.612	0.2
266.992	-0.16
267.372	2.11
267.752	1.28
268.131	1.22
268.511	1.78
268.89	2.3
269.27	1.77
269.649	1.16
270.029	1.5
270.408	3.03
270.787	1.93
271.167	2.16
271.546	2.04
271.925	1.06
272.304	2.31
272.683	2.1
273.062	1.42
273.441	1.88
273.82	1.22
274.199	1.1
274.578	2.17
274.957	1.29
275.336	1.44
275.715	1.29
276.093	1.67
276.472	1.55
276.851	1.11
277.229	0.81
277.608	1.07
277.986	1.61
278.365	1.29
278.743	1.42
279.122	2.3
279.5	2.08
279.878	1.84
280.257	1.65
280.635	0.85
281.013	1
281.391	1.55
281.769	1.58
282.147	2.19
282.525	2.2
282.903	1.03
283.281	2.12
283.659	1.45
284.037	1.95
284.415	1.48
284.792	1.25
285.17	0.61
285.548	1.18
285.925	1.87
286.303	1.98
286.68	1.29
287.058	1.55
287.435	1.73
287.813	1.76
288.19	1.33
288.567	1.54
288.945	1.9
289.322	1.22
289.699	1.35
290.076	1.65
290.453	1.32
290.83	1.06
291.207	1.73
291.584	1.56
291.961	2.11
292.338	1.7
292.715	1.68
293.092	1.75
293.469	1.68
293.845	1.81
294.222	1.06
294.599	1.05
294.975	1.85
295.352	2.07
295.728	1.41
296.105	2
296.481	1.5
296.858	1.59
297.234	1.31
297.61	1.71
297.986	1.59
298.363	1.86
298.739	1.93
299.115	1.91
299.491	1.95
299.867	2.04
300.243	2.17
300.619	1.64
300.995	1.74
301.371	2.03
301.746	1.75
302.122	2.47
302.498	2.04
302.874	2.25
303.249	1.99
303.625	1.82
304	2.09
304.376	2.16
304.751	1.54
305.127	2.63
305.502	1.46
305.878	1.12
306.253	2.15
306.628	2.62
307.003	2.66
307.378	2.85
307.754	1.88
308.129	1.29
308.504	2.17
308.879	1.68
309.254	3.31
309.629	2.35
310.003	2.66
310.378	2.65
310.753	2.41
311.128	2.16
311.502	2.26
311.877	2.59
312.252	1.84
312.626	2.65
313.001	2.07
313.375	2.61
313.75	2.29
314.124	2.07
314.498	2.2
314.873	2.36
315.247	2.09
315.621	2.56
315.995	1.54
316.369	2.68
316.743	1.68
317.117	2.8
317.491	2.41
317.865	2.77
318.239	2.33
318.613	2.77
318.987	2.65
319.361	2.44
319.734	3.08
320.108	2.86
320.482	2.44
320.855	2.8
321.229	2.26
321.602	2.16
321.976	2.39
322.349	2.27
322.723	2.49
323.096	2.39
323.469	2.1
323.843	2.59
324.216	2.54
324.589	2.21
324.962	2.58
325.335	2.42
325.708	2.48
326.081	2.36
326.454	3.08
326.827	1.71
327.2	2.77
327.573	2.86
327.945	2.51
328.318	2.47
328.691	2.13
329.063	2.73
329.436	2.34
329.809	3.08
330.181	2.77
330.553	2.71
330.926	2.49
331.298	2.93
331.671	2.9
332.043	3.22
332.415	3.05
332.787	3.09
333.159	3.44
333.532	2.66
333.904	2.96
334.276	2.82
334.648	2.4
335.02	2.57
335.391	2.58
335.763	2.63
336.135	2.56
336.507	3.02
336.879	2.78
337.25	2.41
337.622	2.61
337.993	2.37
338.365	2.88
338.736	2.76
339.108	2.85
339.479	2.82
339.851	3.07
340.222	2.77
340.593	2.83
340.964	2.91
341.336	3.22
341.707	2.47
342.078	3.4
342.449	3.05
342.82	2.64
343.191	2.82
343.562	3.06
343.933	2.72
344.303	2.73
344.674	2.71
345.045	2.65
345.416	3.27
345.786	2.77
346.157	3.06
346.527	2.27
346.898	2.49
347.268	2.83
347.639	2.48
348.009	2.79
348.38	2.19
348.75	2.92
349.12	2.79
349.49	3.57
349.861	2.66
350.231	2.76
350.601	3.32
350.971	3.03
351.341	3.16
351.711	2.85
352.081	2.25
352.45	2.64
352.82	3.33
353.19	2.62
353.56	2.58
353.929	2.85
354.299	2.84
354.669	2.49
355.038	3.25
355.408	2.52
355.777	3.16
356.147	2.68
356.516	3.02
356.885	2.8
357.254	2.9
357.624	3.09
357.993	2.75
358.362	2.47
358.731	2.55
359.1	3.11
359.469	3.19
359.838	3.16
360.207	2.58
360.576	2.72
360.945	3.12
361.314	3.19
361.682	2.6
362.051	2.86
362.42	3.08
362.788	2.65
363.157	3.12
363.525	3.13
363.894	2.83
364.262	3.06
364.631	3.26
364.999	2.75
365.367	2.51
365.735	3.53
366.104	3.21
366.472	2.95
366.84	2.68
367.208	3.06
367.576	3.37
367.944	3.21
368.312	2.85
368.68	2.57
369.048	3.24
369.416	3.16
369.783	2.5
370.151	2.66
370.519	3.45
370.886	3.08
371.254	3.14
371.621	3.01
371.989	3.22
372.356	2.58
372.724	3.19
373.091	2.78
373.458	2.93
373.826	3.18
374.193	2.91
374.56	3.03
374.927	2.84
375.294	2.89
375.661	2.87
376.028	2.72
376.395	2.75
376.762	3.01
377.129	2.82
377.496	2.82
377.863	3.12
378.229	2.8
378.596	3.09
378.963	2.91
379.329	2.76
379.696	3.09
380.062	2.98
380.429	3.03
380.795	2.91
381.161	2.87
381.528	3.48
381.894	3.02
382.26	2.61
382.626	2.94
382.993	3.01
383.359	3.59
383.725	3.01
384.091	3.19
384.457	3.03
384.823	2.88
385.188	3.33
385.554	2.9
385.92	3.01
386.286	3.12
386.651	3.14
387.017	3.52
387.383	2.95
387.748	2.99
388.114	3.16
388.479	3.15
388.845	3.1
389.21	3.18
389.575	3.1
389.94	3
390.306	3.15
390.671	3.1
391.036	2.82
391.401	2.73
391.766	2.85
392.131	2.92
392.496	3.35
392.861	2.89
393.226	3.27
393.591	3.1
393.956	3.03
394.32	3.02
394.685	3.1
395.05	2.95
395.414	3.03
395.779	2.96
396.143	3.03
396.508	3.11
396.872	3.2
397.236	3.13
397.601	2.85
397.965	2.95
398.329	2.83
398.694	3.09
399.058	3.21
399.422	2.82
399.786	3.15
400.15	2.99
400.514	3.26
400.878	3.39
401.242	3.27
401.605	3.13
401.969	3.05
402.333	3.19
402.697	3.08
403.06	3.15
403.424	2.79
403.787	3.14
404.151	3.28
404.514	3.06
404.878	3.02
405.241	3.42
405.604	2.97
405.968	3.34
406.331	3.25
406.694	3.42
407.057	3.18
407.42	3.19
407.783	2.94
408.146	3.02
408.509	2.69
408.872	2.73
409.235	2.97
409.598	3.15
409.961	2.99
410.323	3.41
410.686	2.71
411.049	2.83
411.411	3.08
411.774	3.16
412.136	2.96
412.499	2.98
412.861	3.06
413.223	2.92
413.586	3.14
413.948	3
414.31	3.15
414.672	3.02
415.035	2.77
415.397	3.11
415.759	3.02
416.121	3.13
416.483	2.88
416.845	3.04
417.206	2.85
417.568	3.22
417.93	2.82
418.292	3.14
418.653	2.98
419.015	3.15
419.377	2.91
419.738	3.16
420.1	2.97
420.461	3.08
420.822	3.14
421.184	3.11
421.545	3.09
421.906	2.9
422.267	3.01
422.629	3.07
422.99	2.96
423.351	3.09
423.712	3.04
424.073	3.16
424.434	3.09
424.795	3.24
425.155	3.15
425.516	3.12
425.877	3.05
426.238	3.02
426.598	3.2
426.959	3.19
427.32	3.23
427.68	3.32
428.041	3.1
428.401	3.35
428.761	3.31
429.122	3.33
429.482	3.16
429.842	3.56
430.202	3.43
430.563	3.33
430.923	3.34
431.283	3.48
431.643	3.31
432.003	3.29
432.363	3.45
432.722	3.28
433.082	3.38
433.442	3.44
433.802	3.4
434.161	3.46
434.521	3.58
434.881	3.53
435.24	3.4
435.6	3.5
435.959	3.53
436.319	3.5
436.678	3.58
437.037	3.48
437.396	3.72
437.756	3.64
438.115	3.59
438.474	3.57
438.833	3.45
439.192	3.57
439.551	3.77
439.91	3.59
440.269	3.55
440.628	3.41
440.987	3.56
441.345	3.49
441.704	3.6
442.063	3.53
442.421	3.59
442.78	3.42
443.138	3.57
443.497	3.61
443.855	3.67
444.214	3.69
444.572	3.8
444.93	3.64
445.288	3.65
445.647	3.73
446.005	3.77
446.363	3.72
446.721	3.67
447.079	3.41
447.437	3.66
447.795	3.71
448.153	3.67
448.51	3.59
448.868	3.75
449.226	3.69
449.584	3.76
449.941	3.86
450.299	3.73
450.656	3.69
451.014	3.84
451.371	3.67
451.729	3.74
452.086	3.98
452.443	3.9
452.801	3.97
453.158	3.72
453.515	3.83
453.872	3.87
454.229	3.69
454.586	3.66
454.943	3.75
455.3	3.97
455.657	3.82
456.014	3.82
456.371	3.71
456.727	3.93
457.084	4.03
457.441	3.69
457.797	3.8
458.154	4.1
458.51	3.95
458.867	4.05
459.223	4.02
459.58	4.03
459.936	3.84
460.292	3.91
460.648	4
461.005	3.89
461.361	3.9
461.717	3.82
462.073	3.89
462.429	3.9
462.785	4.12
463.141	4.09
463.496	3.92
463.852	4.08
464.208	4.11
464.564	4.16
464.919	4.06
465.275	4.15
465.631	4.17
465.986	3.99
466.342	3.99
466.697	3.97
467.052	4.02
467.408	4.24
467.763	4.19
468.118	3.99
468.473	4
468.829	4.19
469.184	3.98
469.539	4.04
469.894	4.06
470.249	4.25
470.603	4.38
470.958	4.18
471.313	4.09
471.668	4.15
472.023	4.2
472.377	4.07
472.732	4.08
473.086	4.12
473.441	3.98
473.795	4.23
474.15	4.18
474.504	4.26
474.859	4.2
475.213	4.11
475.567	3.98
475.921	4.12
476.275	4.37
476.63	4.43
476.984	4.26
477.338	4.24
477.692	4.14
478.045	4.25
478.399	4.23
478.753	4.39
479.107	4.21
479.461	4.19
479.814	4.36
480.168	4.2
480.521	4.2
480.875	4.24
481.228	4.25
481.582	4.29
481.935	4.29
482.289	4.28
482.642	4.26
482.995	4.16
483.348	4.05
483.701	4.21
484.055	4.29
484.408	4.27
484.761	4.12
485.114	4.1
485.466	3.98
485.819	3.93
486.172	3.98
486.525	4.04
486.878	4.13
487.23	4.19
487.583	4.26
487.936	4.27
488.288	4.25
488.641	4.2
488.993	4.15
489.345	4.07
489.698	4.08
490.05	4.12
490.402	4.25
490.754	4.24
491.107	4.33
491.459	4.32
491.811	4.41
492.163	4.42
492.515	4.24
492.866	4.39
493.218	4.3
493.57	4.17
493.922	4.28
494.274	4.39
494.625	4.42
494.977	4.47
495.328	4.52
495.68	4.48
496.031	4.57
496.383	4.48
496.734	4.72
497.086	4.61
497.437	4.56
497.788	4.52
498.139	4.39
498.49	4.55
498.842	4.37
499.193	4.44
499.544	4.57
499.894	4.51
500.245	4.58
500.596	4.47
500.947	4.67
501.298	4.53
501.648	4.66
501.999	4.63
502.35	4.55
502.7	4.64
503.051	4.58
503.401	4.63
503.752	4.76
504.102	4.66
504.452	4.65
504.803	4.65
505.153	4.66
505.503	4.73
505.853	4.63
506.203	4.55
506.553	4.63
506.903	4.67
507.253	4.7
507.603	4.56
507.953	4.75
508.303	4.85
508.652	4.48
509.002	4.83
509.352	4.8
509.701	4.71
510.051	4.63
510.4	4.69
510.75	4.78
511.099	4.79
511.449	4.8
511.798	4.73
512.147	4.75
512.496	4.76
512.846	4.82
513.195	4.7
513.544	4.73
513.893	4.76
514.242	4.71
514.591	4.95
514.939	4.76
515.288	4.73
515.637	4.76
515.986	4.89
516.334	4.85
516.683	4.81
517.032	4.77
517.38	4.9
517.729	4.87
518.077	4.92
518.426	4.94
518.774	4.94
519.122	4.87
519.47	4.76
519.819	4.72
520.167	4.76
520.515	4.66
520.863	4.81
521.211	4.87
521.559	4.94
521.907	4.9
522.255	4.9
522.602	4.9
522.95	4.85
523.298	4.97
523.645	5.11
523.993	5
524.341	5.08
524.688	5.1
525.036	5.01
525.383	5
525.73	5.21
526.078	5.01
526.425	4.99
526.772	5.09
527.119	5.02
527.466	4.94
527.814	4.89
528.161	4.93
528.508	4.93
528.854	4.98
529.201	4.89
529.548	4.88
529.895	4.86
530.242	4.72
530.588	4.72
530.935	4.79
531.282	4.88
531.628	4.93
531.975	4.97
532.321	5.01
532.667	5.04
533.014	5.06
533.36	5.14
533.706	5.14
534.052	5.1
534.399	4.91
534.745	4.97
535.091	4.92
535.437	4.99
535.783	5.04
536.129	5.15
536.474	5.13
536.82	5.17
537.166	5.23
537.512	5.25
537.857	5.19
538.203	5.21
538.549	5.19
538.894	5.13
539.239	5.3
539.585	5.35
539.93	5.23
540.276	5.42
540.621	5.38
540.966	5.47
541.311	5.3
541.656	5.36
542.001	5.37
542.346	5.43
542.691	5.19
543.036	5.14
543.381	5.01
543.726	5.18
544.071	5.38
544.415	5.43
544.76	5.37
545.105	5.43
545.449	5.36
545.794	5.46
546.138	5.56
546.483	5.58
546.827	5.56
547.171	5.53
547.516	5.62
547.86	5.45
548.204	5.43
548.548	5.51
548.892	5.65
549.236	5.48
549.58	5.56
549.924	5.63
550.268	5.84
550.612	5.88
550.956	5.95
551.3	5.83
551.643	5.91
551.987	6.03
552.33	5.76
552.674	5.98
553.017	6.03
553.361	5.86
553.704	6.04
554.048	5.72
554.391	5.8
554.734	5.78
555.077	5.76
555.42	5.81
555.764	5.93
556.107	5.77
556.45	5.98
556.793	6
557.135	6.21
557.478	6.27
557.821	6.11
558.164	5.94
558.507	6.24
558.849	6.09
559.192	6.03
559.534	6.08
559.877	6.32
560.219	6.19
560.562	6.21
560.904	6.12
561.246	6.31
561.589	6.24
561.931	6.26
562.273	6.15
562.615	6.36
562.957	6.08
563.299	6.16
563.641	6.38
563.983	6.23
564.325	6.13
564.667	6.25
565.008	6.24
565.35	6.4
565.692	6.34
566.033	6.5
566.375	6.4
566.716	6.54
567.058	6.29
567.399	6.51
567.741	6.27
568.082	6.5
568.423	6.26
568.764	6.42
569.105	6.52
569.447	6.66
569.788	6.46
570.129	6.67
570.47	6.58
570.811	6.65
571.151	6.5
571.492	6.65
571.833	6.61
572.174	6.59
572.514	6.7
572.855	6.64
573.195	6.8
573.536	6.59
573.876	6.6
574.217	6.65
574.557	6.71
574.898	6.75
575.238	6.91
575.578	6.84
575.918	6.94
576.258	6.9
576.598	6.88
576.938	6.92
577.278	6.87
577.618	6.86
577.958	6.95
578.298	6.93
578.638	7.18
578.977	7.03
579.317	6.92
579.657	6.88
579.996	6.98
580.336	7.07
580.675	7.13
581.014	7.17
581.354	7.29
581.693	7.37
582.032	7.26
582.372	7.28
582.711	7.36
583.05	7.14
583.389	7.33
583.728	7.21
584.067	7.37
584.406	7.47
584.745	7.38
585.083	7.5
585.422	7.49
585.761	7.59
586.1	7.54
586.438	7.43
586.777	7.46
587.115	7.74
587.454	7.59
587.792	7.59
588.13	7.64
588.469	7.53
588.807	7.83
589.145	7.42
589.483	7.69
589.821	7.77
590.159	7.93
590.497	7.89
590.835	8.05
591.173	7.96
591.511	8.32
591.849	7.97
592.187	7.78
592.524	7.94
592.862	7.93
593.2	8.14
593.537	8.12
593.875	7.86
594.212	7.66
594.55	7.88
594.887	8.21
595.224	7.89
595.561	8.03
595.899	7.95
596.236	8.17
596.573	8.22
596.91	7.69
597.247	7.88
597.584	8.49
597.921	8.14
598.258	8.08
598.594	8.12
598.931	7.94
599.268	8.27
599.604	8.13
599.941	8.39
600.277	8.22
600.614	8.34
600.95	8.26
601.287	8.52
601.623	8.48
601.959	8.59
602.296	8.72
602.632	8.41
602.968	8.59
603.304	8.68
603.64	8.52
603.976	8.67
604.312	8.56
604.648	8.44
604.984	8.41
605.319	8.73
605.655	8.59
605.991	8.77
606.326	8.53
606.662	8.69
606.998	8.48
607.333	8.8
607.668	8.85
608.004	8.83
608.339	9.09
608.674	8.89
609.01	8.88
609.345	8.98
609.68	9.07
610.015	9.01
610.35	9.06
610.685	8.96
611.02	9.18
611.355	8.96
611.689	9.02
612.024	9.14
612.359	9.09
612.694	9.21
613.028	9.11
613.363	9.37
613.697	9.77
614.032	9.55
614.366	9.36
614.7	9.34
615.035	9.58
615.369	9.62
615.703	9.58
616.037	9.42
616.371	9.44
616.705	9.43
617.039	9.92
617.373	9.31
617.707	9.48
618.041	9.68
618.375	9.6
618.709	10.03
619.042	9.88
619.376	9.89
619.71	9.87
620.043	9.79
620.377	9.83
620.71	9.88
621.043	9.8
621.377	9.92
621.71	9.75
622.043	10.06
622.376	9.82
622.709	9.8
623.043	10.19
623.376	10.25
623.709	9.95
624.041	10.46
624.374	10.09
624.707	10.35
625.04	10.29
625.373	10.04
625.705	10.02
626.038	10.09
626.37	10.18
626.703	9.93
627.035	10.24
627.368	10.78
627.7	10.32
628.032	10.27
628.365	10.58
628.697	10.18
629.029	10.17
629.361	10.63
629.693	10.57
630.025	10.18
630.357	10.61
630.689	10.78
631.021	10.42
631.353	10.49
631.684	10.42
632.016	10.92
632.348	11.09
632.679	10.95
633.011	10.92
633.342	10.74
633.674	10.74
634.005	11.24
634.336	11.14
634.668	11.01
634.999	10.9
635.33	11.41
635.661	11.28
635.992	10.88
636.323	11.17
636.654	11.17
636.985	11.18
637.316	11.03
637.647	11.06
637.977	11.41
638.308	11.52
638.639	10.98
638.969	10.62
639.3	11.15
639.63	10.81
639.961	11.54
640.291	11.37
640.622	11.65
640.952	11.27
641.282	11.64
641.612	11.62
641.943	11.49
642.273	11.57
642.603	11.98
642.933	12.06
643.263	11.73
643.592	11.34
643.922	11.67
644.252	11.07
644.582	11.93
644.911	11.56
645.241	11.72
645.571	12.08
645.9	12.06
646.23	11.9
646.559	12.16
646.888	12.01
647.218	12.31
647.547	11.95
647.876	11.98
648.205	12
648.534	12.35
648.863	11.82
649.192	12.11
649.521	12.29
649.85	12.29
650.179	12.42
650.508	12.18
650.837	11.93
651.165	12.33
651.494	12.49
651.822	12.64
652.151	12.25
652.479	12.02
652.808	12.09
653.136	12.3
653.465	11.86
653.793	12.23
654.121	12.16
654.449	12.61
654.777	12.82
655.105	12.64
655.433	12.25
655.761	12.47
656.089	13.04
656.417	13.2
656.745	12.83
657.073	12.71
657.4	13.52
657.728	13
658.056	12.99
658.383	12.93
658.711	13.01
659.038	13.27
659.365	13.13
659.693	12.82
660.02	12.68
660.347	13.19
660.674	13.39
661.001	13.11
661.329	12.68
661.656	13.22
661.982	13.24
662.309	13.17
662.636	13.04
662.963	13.82
663.29	14.06
663.616	13.65
663.943	12.51
664.27	12.75
664.596	13.59
664.923	13.32
665.249	13.35
665.576	13.71
665.902	14.14
666.228	14.21
666.554	13.73
666.881	13.99
667.207	13.92
667.533	14.04
667.859	14.26
668.185	14.26
668.511	13.59
668.837	13.18
669.162	13.85
669.488	13.33
669.814	14.71
670.139	14.76
670.465	14.1
670.791	14.35
671.116	14.6
671.442	13.95
671.767	14.69
672.092	14.9
672.418	14.44
672.743	14.62
673.068	14.3
673.393	14.46
673.718	14.24
674.043	14.7
674.368	14.79
674.693	14.4
675.018	14.94
675.343	13.85
675.667	14.59
675.992	15.01
676.317	15.15
676.641	15.12
676.966	14.73
677.29	14.43
677.615	15.6
677.939	15.23
678.264	15.27
678.588	15.15
678.912	14.79
679.236	15.62
679.56	14.33
679.885	15.52
680.209	14.41
680.532	14.96
680.856	15.9
681.18	15.17
681.504	15.06
681.828	15.68
682.152	15.11
682.475	15.22
682.799	15.24
683.122	15.27
683.446	15.32
683.769	16.12
684.093	14.56
684.416	15.89
684.739	15.72
685.062	15.44
685.386	16.27
685.709	14.91
686.032	15.51
686.355	15.95
686.678	15.78
687.001	15.92
