Data from 2009-1_forehead_Reflection__4__229.txt Node

Date: Fri Dec 15 18:26:10 CST 2023
User: ToomeyLab
Spectrometer: FLMS14357
Trigger mode: 0
Integration Time (sec): 1.000000E-2
Scans to average: 100
Electric dark correction enabled: true
Nonlinearity correction enabled: false
Boxcar width: 0
XAxis mode: Wavelengths
Number of Pixels in Spectrum: 2048
>>>>>Begin Spectral Data<<<<<
189.047	1401.3
189.435	1401.3
189.823	1401.3
190.211	1288.53
190.599	-53.14
190.987	129.93
191.375	303.9
191.763	-292.63
192.151	199.11
192.538	223.9
192.926	-75.06
193.314	27.82
193.702	48.79
194.089	-64.59
194.477	96.5
194.864	95.3
195.252	58.81
195.639	42.22
196.027	706.42
196.414	106.8
196.801	183.46
197.189	706.76
197.576	146.4
197.963	75.45
198.351	-57.04
198.738	21.67
199.125	10
199.512	8.51
199.899	31.61
200.286	20.15
200.673	98.76
201.06	3.65
201.447	1.7
201.833	-6.42
202.22	63.48
202.607	47.96
202.994	-11.56
203.38	130.73
203.767	37.1
204.154	17.52
204.54	31.86
204.927	-29.24
205.313	46.07
205.699	11.84
206.086	46.62
206.472	17.86
206.858	15.22
207.245	-17.9
207.631	14.81
208.017	18.32
208.403	-6.86
208.789	20.07
209.175	6.22
209.561	-23.26
209.947	-42.81
210.333	-5.7
210.719	15.22
211.105	25.91
211.491	-22.12
211.876	57.96
212.262	-2.95
212.648	3.15
213.034	13.85
213.419	-4.9
213.805	3.27
214.19	6.73
214.576	3.62
214.961	-12.88
215.346	-48.8
215.732	14.51
216.117	21.07
216.502	-21.58
216.888	-5.14
217.273	12.89
217.658	8.11
218.043	10.34
218.428	-37.58
218.813	2.12
219.198	-24.95
219.583	27.16
219.968	13.39
220.353	-8.62
220.738	26.88
221.122	15.85
221.507	-14.58
221.892	-15.73
222.276	-2.53
222.661	-0.09
223.046	27.48
223.43	14.06
223.815	30.03
224.199	-2.04
224.583	0.16
224.968	10.47
225.352	18.4
225.736	-1.95
226.121	-13.02
226.505	8.49
226.889	8.27
227.273	2.96
227.657	14.77
228.041	4.28
228.425	4
228.809	5.2
229.193	5.01
229.577	1.61
229.961	4.68
230.344	3.4
230.728	3.64
231.112	3.96
231.495	3.48
231.879	1.64
232.263	4.57
232.646	4.14
233.03	2.05
233.413	1.32
233.797	2.45
234.18	4.21
234.563	5.86
234.946	2.81
235.33	2.2
235.713	2.32
236.096	3.82
236.479	3.64
236.862	3.81
237.245	7.43
237.628	2.74
238.011	4.81
238.394	4.5
238.777	5.64
239.16	0.72
239.543	2.96
239.925	4
240.308	2.22
240.691	5.01
241.073	3.44
241.456	3.4
241.838	3.21
242.221	2.86
242.603	3.57
242.986	3.03
243.368	3.49
243.75	3.77
244.133	3.14
244.515	3.91
244.897	3.66
245.279	3.87
245.661	3.41
246.043	2.96
246.425	2.31
246.807	3.59
247.189	3.57
247.571	4.39
247.953	3.64
248.335	3.37
248.717	3.62
249.098	3.58
249.48	3.59
249.862	3.5
250.243	3.89
250.625	4.03
251.006	3.96
251.388	2.35
251.769	2.84
252.151	4.32
252.532	4.65
252.913	2.45
253.295	2.68
253.676	3.16
254.057	3.81
254.438	3.61
254.819	3.04
255.2	2.63
255.581	4.59
255.962	3.58
256.343	3.26
256.724	3.07
257.105	4.15
257.486	2.99
257.867	3.9
258.247	2.97
258.628	4.47
259.009	3.88
259.389	3.22
259.77	3.58
260.15	3
260.531	3.01
260.911	3.98
261.292	3.33
261.672	3.98
262.052	3.58
262.432	3.79
262.813	3.63
263.193	3.5
263.573	2.84
263.953	3.48
264.333	3.62
264.713	3.95
265.093	3.29
265.473	3.81
265.853	2.78
266.233	3.95
266.612	2.11
266.992	2.28
267.372	3.15
267.752	3.66
268.131	2.79
268.511	4.06
268.89	3.89
269.27	3.53
269.649	2.83
270.029	3.57
270.408	3.84
270.787	3.55
271.167	3.4
271.546	3.69
271.925	3.26
272.304	3.38
272.683	3.23
273.062	3.19
273.441	3.77
273.82	2.71
274.199	3.75
274.578	2.8
274.957	3.4
275.336	3.28
275.715	2.94
276.093	2.99
276.472	3.89
276.851	3.09
277.229	3.48
277.608	3.11
277.986	3.27
278.365	3.29
278.743	3.13
279.122	3.17
279.5	2.81
279.878	3.45
280.257	2.97
280.635	3.13
281.013	3.87
281.391	3.69
281.769	4.29
282.147	3.58
282.525	3.94
282.903	3.14
283.281	3.25
283.659	3.49
284.037	2.93
284.415	3.58
284.792	3.69
285.17	2.85
285.548	3.05
285.925	3.72
286.303	3.9
286.68	3.46
287.058	3.75
287.435	3.62
287.813	3.46
288.19	3.26
288.567	3.72
288.945	4.17
289.322	3.71
289.699	3.71
290.076	3.44
290.453	3.35
290.83	3.28
291.207	3.61
291.584	3.94
291.961	3.7
292.338	3.48
292.715	3.61
293.092	3.45
293.469	3.47
293.845	4.27
294.222	2.74
294.599	3.82
294.975	3.44
295.352	4.2
295.728	3.81
296.105	3.89
296.481	4.34
296.858	3.82
297.234	4.23
297.61	3.96
297.986	3.48
298.363	4.39
298.739	4.34
299.115	4.07
299.491	4.13
299.867	3.92
300.243	4.46
300.619	3.64
300.995	4.06
301.371	4.03
301.746	3.73
302.122	4.4
302.498	4.44
302.874	4.53
303.249	4.14
303.625	4.44
304	4.96
304.376	4.47
304.751	3.98
305.127	5.74
305.502	4.61
305.878	4.36
306.253	4.79
306.628	5.18
307.003	4.95
307.378	5.43
307.754	4.93
308.129	4.47
308.504	5.32
308.879	4.62
309.254	6.28
309.629	5.88
310.003	5.2
310.378	6.04
310.753	5.44
311.128	4.96
311.502	5.18
311.877	5.83
312.252	5.19
312.626	5.9
313.001	5.85
313.375	5.97
313.75	5.2
314.124	5.99
314.498	5.32
314.873	6.26
315.247	5.45
315.621	5.91
315.995	4.62
316.369	5.26
316.743	6.18
317.117	6.58
317.491	5.69
317.865	5.62
318.239	5.69
318.613	6.62
318.987	6.84
319.361	5.89
319.734	7.12
320.108	6.49
320.482	6.97
320.855	7.35
321.229	6.71
321.602	6.38
321.976	7.48
322.349	7.03
322.723	6.38
323.096	7.44
323.469	6.71
323.843	6.51
324.216	7.61
324.589	7.17
324.962	7.29
325.335	6.8
325.708	7.08
326.081	7.07
326.454	7.07
326.827	6.99
327.2	7.53
327.573	7.66
327.945	7.49
328.318	7.14
328.691	6.83
329.063	7.88
329.436	7.37
329.809	7.46
330.181	7.6
330.553	7.22
330.926	8.68
331.298	7.42
331.671	7.52
332.043	8.67
332.415	7.95
332.787	7.88
333.159	8.11
333.532	8.35
333.904	7.97
334.276	8.14
334.648	8.09
335.02	7.66
335.391	7.81
335.763	7.5
336.135	8.06
336.507	8.75
336.879	8.42
337.25	8.52
337.622	8.17
337.993	8.46
338.365	8.59
338.736	8.4
339.108	8.99
339.479	8.08
339.851	7.71
340.222	8.07
340.593	8.96
340.964	8.42
341.336	8.77
341.707	8.24
342.078	8.99
342.449	9.13
342.82	8.86
343.191	9.11
343.562	8.46
343.933	8.9
344.303	8.83
344.674	8.83
345.045	8.66
345.416	9.14
345.786	8.58
346.157	9.18
346.527	8.34
346.898	8.1
347.268	9.05
347.639	8.82
348.009	9.05
348.38	8.39
348.75	9.35
349.12	9.07
349.49	9.4
349.861	9.17
350.231	8.89
350.601	9.55
350.971	9.7
351.341	9.06
351.711	9.21
352.081	9.27
352.45	8.89
352.82	9.59
353.19	9.02
353.56	8.85
353.929	9.45
354.299	9.24
354.669	8.67
355.038	9.73
355.408	9.28
355.777	9.86
356.147	9.67
356.516	9.63
356.885	9.85
357.254	9.48
357.624	9.81
357.993	9.81
358.362	9.46
358.731	9.45
359.1	9.76
359.469	9.99
359.838	9.85
360.207	9.64
360.576	9.48
360.945	9.74
361.314	10.33
361.682	9.98
362.051	9.64
362.42	10.18
362.788	9.88
363.157	9.9
363.525	10.13
363.894	10.15
364.262	10.07
364.631	10.19
364.999	10.33
365.367	9.85
365.735	10.55
366.104	10.12
366.472	10.3
366.84	10.64
367.208	10.35
367.576	10.41
367.944	10.69
368.312	10.23
368.68	10.14
369.048	10.25
369.416	10.24
369.783	10.62
370.151	10.67
370.519	10.97
370.886	10.84
371.254	10.58
371.621	10.8
371.989	10.74
372.356	10.45
372.724	10.77
373.091	10.61
373.458	10.67
373.826	10.7
374.193	10.71
374.56	10.79
374.927	11.03
375.294	10.99
375.661	10.93
376.028	10.65
376.395	10.55
376.762	11.12
377.129	11.24
377.496	10.96
377.863	11.05
378.229	10.41
378.596	10.97
378.963	11.13
379.329	11.11
379.696	11.36
380.062	11.52
380.429	11.17
380.795	10.88
381.161	11.18
381.528	11.4
381.894	11.06
382.26	11.25
382.626	11.43
382.993	11.05
383.359	11.54
383.725	11.3
384.091	11.27
384.457	11.63
384.823	11.58
385.188	11.37
385.554	11.29
385.92	11.53
386.286	11.57
386.651	11.6
387.017	11.44
387.383	11.6
387.748	11.61
388.114	11.68
388.479	11.45
388.845	11.65
389.21	11.72
389.575	11.52
389.94	11.8
390.306	11.87
390.671	11.88
391.036	11.02
391.401	11.24
391.766	11.77
392.131	11.52
392.496	11.44
392.861	11.7
393.226	11.68
393.591	11.47
393.956	11.66
394.32	11.68
394.685	11.8
395.05	11.76
395.414	11.33
395.779	11.43
396.143	11.65
396.508	11.96
396.872	11.82
397.236	12.05
397.601	11.71
397.965	11.78
398.329	11.88
398.694	11.83
399.058	11.62
399.422	11.56
399.786	11.89
400.15	11.95
400.514	11.91
400.878	12.07
401.242	12.06
401.605	12.01
401.969	11.8
402.333	12.03
402.697	11.81
403.06	12.1
403.424	11.83
403.787	11.57
404.151	12.01
404.514	11.51
404.878	11.8
405.241	11.89
405.604	11.88
405.968	11.84
406.331	11.96
406.694	12.07
407.057	11.9
407.42	11.7
407.783	11.65
408.146	11.64
408.509	11.93
408.872	11.54
409.235	11.82
409.598	11.73
409.961	11.92
410.323	12.15
410.686	11.61
411.049	11.67
411.411	11.75
411.774	11.78
412.136	11.74
412.499	11.91
412.861	11.78
413.223	12.05
413.586	11.74
413.948	11.84
414.31	11.98
414.672	11.77
415.035	11.83
415.397	12.35
415.759	11.72
416.121	11.95
416.483	11.85
416.845	12.05
417.206	11.91
417.568	12
417.93	11.8
418.292	12.02
418.653	12.06
419.015	12.15
419.377	12.11
419.738	12.08
420.1	12
420.461	12.22
420.822	12.05
421.184	12.16
421.545	12.21
421.906	12.19
422.267	12.33
422.629	12.19
422.99	12.35
423.351	12.32
423.712	12.44
424.073	12.49
424.434	12.63
424.795	12.71
425.155	12.73
425.516	12.66
425.877	12.68
426.238	12.82
426.598	12.99
426.959	12.93
427.32	13.08
427.68	13.08
428.041	13.07
428.401	13.27
428.761	13.24
429.122	13.51
429.482	13.38
429.842	13.67
430.202	13.62
430.563	13.72
430.923	13.67
431.283	13.83
431.643	13.87
432.003	13.83
432.363	14.25
432.722	14.07
433.082	14.07
433.442	14.12
433.802	14.31
434.161	14.01
434.521	14.3
434.881	14.36
435.24	14.17
435.6	14.29
435.959	14.37
436.319	14.47
436.678	14.58
437.037	14.73
437.396	14.57
437.756	14.68
438.115	14.75
438.474	14.98
438.833	14.94
439.192	14.9
439.551	15.03
439.91	14.93
440.269	15.12
440.628	14.83
440.987	15.04
441.345	14.92
441.704	14.93
442.063	15.06
442.421	15.08
442.78	15.06
443.138	15.19
443.497	15.34
443.855	15.47
444.214	15.46
444.572	15.52
444.93	15.6
445.288	15.41
445.647	15.88
446.005	15.61
446.363	15.71
446.721	15.68
447.079	15.55
447.437	15.63
447.795	15.6
448.153	15.57
448.51	15.66
448.868	15.78
449.226	15.93
449.584	15.88
449.941	16.07
450.299	16.22
450.656	16.09
451.014	16.18
451.371	16.14
451.729	16.2
452.086	16.47
452.443	16.46
452.801	16.61
453.158	16.52
453.515	16.35
453.872	16.63
454.229	16.36
454.586	16.5
454.943	16.71
455.3	16.78
455.657	16.71
456.014	16.8
456.371	16.77
456.727	16.98
457.084	16.92
457.441	17.06
457.797	16.72
458.154	17.19
458.51	17.06
458.867	17.16
459.223	17.33
459.58	17.13
459.936	17.1
460.292	17.34
460.648	17.14
461.005	17.34
461.361	17.06
461.717	17.05
462.073	16.97
462.429	17.33
462.785	17.36
463.141	17.44
463.496	17.66
463.852	17.9
464.208	17.84
464.564	17.84
464.919	17.83
465.275	17.89
465.631	17.84
465.986	18.06
466.342	17.84
466.697	17.92
467.052	18.11
467.408	18.2
467.763	18.36
468.118	18.06
468.473	18.15
468.829	18.09
469.184	18.09
469.539	18.19
469.894	18.11
470.249	18.57
470.603	18.54
470.958	18.37
471.313	18.52
471.668	18.85
472.023	18.59
472.377	18.45
472.732	18.6
473.086	18.53
473.441	18.56
473.795	18.84
474.15	18.66
474.504	18.66
474.859	18.74
475.213	18.64
475.567	18.86
475.921	18.75
476.275	19.31
476.63	19.2
476.984	19.08
477.338	19.14
477.692	19.01
478.045	19.16
478.399	19.3
478.753	19.18
479.107	18.94
479.461	19.04
479.814	19.14
480.168	19.11
480.521	19.39
480.875	19.37
481.228	19.4
481.582	19.31
481.935	19.5
482.289	19.4
482.642	19.46
482.995	19.34
483.348	19.37
483.701	19.33
484.055	19.26
484.408	19.31
484.761	19.01
485.114	18.81
485.466	18.45
485.819	18.34
486.172	18.63
486.525	18.97
486.878	19.13
487.23	19.34
487.583	19.49
487.936	19.66
488.288	19.46
488.641	19.44
488.993	19.19
489.345	19.08
489.698	19.15
490.05	19.32
490.402	19.44
490.754	19.78
491.107	19.91
491.459	19.96
491.811	20.05
492.163	20.13
492.515	19.98
492.866	19.92
493.218	19.61
493.57	19.43
493.922	19.61
494.274	20.07
494.625	20.23
494.977	20.38
495.328	20.55
495.68	20.74
496.031	20.89
496.383	20.73
496.734	20.7
497.086	20.87
497.437	20.92
497.788	20.82
498.139	20.63
498.49	20.72
498.842	20.7
499.193	20.8
499.544	20.83
499.894	20.92
500.245	20.88
500.596	20.87
500.947	21.06
501.298	21.08
501.648	21
501.999	21.27
502.35	21.1
502.7	21.33
503.051	21.32
503.401	21.3
503.752	21.33
504.102	21.37
504.452	21.49
504.803	21.51
505.153	21.6
505.503	21.49
505.853	21.46
506.203	21.16
506.553	21.36
506.903	21.6
507.253	21.55
507.603	21.72
507.953	21.76
508.303	21.86
508.652	21.73
509.002	21.84
509.352	21.85
509.701	21.65
510.051	21.6
510.4	21.65
510.75	21.77
511.099	21.66
511.449	21.71
511.798	21.9
512.147	21.88
512.496	21.73
512.846	21.82
513.195	22.05
513.544	21.97
513.893	21.96
514.242	21.88
514.591	22.2
514.939	22.03
515.288	22.1
515.637	22.13
515.986	22.32
516.334	22.4
516.683	22.36
517.032	22.38
517.38	22.52
517.729	22.46
518.077	22.11
518.426	22.38
518.774	22.37
519.122	22.28
519.47	22.15
519.819	22.09
520.167	21.99
520.515	22.16
520.863	22.14
521.211	22.39
521.559	22.39
521.907	22.44
522.255	22.44
522.602	22.58
522.95	22.67
523.298	22.75
523.645	22.74
523.993	22.67
524.341	22.94
524.688	22.97
525.036	22.66
525.383	22.78
525.73	22.98
526.078	22.79
526.425	22.77
526.772	22.73
527.119	22.38
527.466	22.42
527.814	22.51
528.161	22.6
528.508	22.76
528.854	22.7
529.201	22.73
529.548	22.63
529.895	22.32
530.242	21.87
530.588	21.88
530.935	22.07
531.282	22.45
531.628	22.6
531.975	22.76
532.321	22.92
532.667	23.1
533.014	23.09
533.36	23.1
533.706	23.09
534.052	22.98
534.399	23.01
534.745	22.75
535.091	22.59
535.437	22.69
535.783	22.94
536.129	23.18
536.474	23.23
536.82	23.45
537.166	23.45
537.512	23.5
537.857	23.53
538.203	23.39
538.549	23.09
538.894	23.31
539.239	23.4
539.585	23.77
539.93	23.78
540.276	23.92
540.621	23.97
540.966	23.97
541.311	23.87
541.656	24.05
542.001	23.81
542.346	23.76
542.691	23.4
543.036	23.12
543.381	22.93
543.726	23.27
544.071	23.63
544.415	23.82
544.76	23.89
545.105	23.73
545.449	23.92
545.794	24.13
546.138	24.25
546.483	24.29
546.827	24.35
547.171	24.39
547.516	24.39
547.86	24.33
548.204	24.27
548.548	24.25
548.892	24.35
549.236	24.3
549.58	24.6
549.924	24.72
550.268	24.86
550.612	24.76
550.956	24.94
551.3	24.94
551.643	25.21
551.987	25.24
552.33	25.05
552.674	25.13
553.017	25.12
553.361	24.84
553.704	25.36
554.048	25.1
554.391	24.96
554.734	25.02
555.077	25.23
555.42	25.26
555.764	25.55
556.107	25.34
556.45	25.35
556.793	25.29
557.135	25.61
557.478	25.51
557.821	25.54
558.164	25.63
558.507	25.74
558.849	25.52
559.192	25.64
559.534	25.62
559.877	25.81
560.219	25.79
560.562	25.93
560.904	25.93
561.246	25.74
561.589	26.07
561.931	25.82
562.273	25.75
562.615	26.04
562.957	25.79
563.299	25.81
563.641	26.18
563.983	26.04
564.325	25.85
564.667	26.42
565.008	26.27
565.35	26.23
565.692	26
566.033	26.32
566.375	26.37
566.716	26.29
567.058	26.18
567.399	25.99
567.741	25.87
568.082	25.94
568.423	26.25
568.764	26.35
569.105	26.57
569.447	26.6
569.788	26.47
570.129	26.74
570.47	26.63
570.811	26.74
571.151	26.63
571.492	26.62
571.833	26.83
572.174	26.54
572.514	26.84
572.855	26.73
573.195	26.7
573.536	26.67
573.876	26.53
574.217	26.63
574.557	26.78
574.898	26.94
575.238	27.21
575.578	26.79
575.918	27.41
576.258	27.29
576.598	27.06
576.938	26.91
577.278	27.04
577.618	26.93
577.958	27.16
578.298	27.35
578.638	27.32
578.977	27.44
579.317	27.21
579.657	27.56
579.996	27.54
580.336	27.51
580.675	27.79
581.014	27.62
581.354	27.59
581.693	27.88
582.032	27.87
582.372	28.18
582.711	28
583.05	28.01
583.389	28.13
583.728	27.6
584.067	28.14
584.406	27.8
584.745	28.06
585.083	28.08
585.422	28.37
585.761	28.22
586.1	28.12
586.438	28.15
586.777	28.64
587.115	28.54
587.454	28.37
587.792	28.08
588.13	28.26
588.469	28.35
588.807	28.55
589.145	28.21
589.483	28.71
589.821	28.04
590.159	28.69
590.497	28.67
590.835	28.51
591.173	28.63
591.511	28.91
591.849	28.76
592.187	28.62
592.524	28.74
592.862	28.64
593.2	28.87
593.537	28.75
593.875	29.01
594.212	28.64
594.55	28.84
594.887	29.18
595.224	28.96
595.561	28.84
595.899	28.71
596.236	29.14
596.573	29.29
596.91	29.01
597.247	29.01
597.584	29.44
597.921	28.99
598.258	28.88
598.594	28.87
598.931	28.98
599.268	29.23
599.604	29.01
599.941	29.33
600.277	29.05
600.614	29.44
600.95	29.5
601.287	29.68
601.623	29.17
601.959	29.52
602.296	29.4
602.632	29.88
602.968	29.77
603.304	29.88
603.64	29.72
603.976	29.75
604.312	29.47
604.648	29.71
604.984	29.58
605.319	29.87
605.655	29.57
605.991	30.03
606.326	29.56
606.662	29.57
606.998	29.73
607.333	29.93
607.668	29.89
608.004	30.06
608.339	30.18
608.674	29.95
609.01	29.97
609.345	30.3
609.68	30.56
610.015	30.06
610.35	30.49
610.685	30.25
611.02	30.13
611.355	30.17
611.689	30.13
612.024	30.39
612.359	30.26
612.694	30.35
613.028	30.54
613.363	30.64
613.697	31.01
614.032	30.5
614.366	30.54
614.7	30.64
615.035	30.34
615.369	30.9
615.703	31.08
616.037	30.88
616.371	30.51
616.705	30.95
617.039	31.4
617.373	30.87
617.707	31.06
618.041	31.1
618.375	31.29
618.709	31.19
619.042	30.66
619.376	31.04
619.71	31.47
620.043	31.58
620.377	31.38
620.71	31.49
621.043	31.08
621.377	31.29
621.71	31.51
622.043	31.61
622.376	31.1
622.709	31.25
623.043	31.49
623.376	31.42
623.709	31.45
624.041	31.64
624.374	31.21
624.707	31.29
625.04	31.73
625.373	31.48
625.705	31.71
626.038	31.14
626.37	31.79
626.703	31.96
627.035	31.47
627.368	31.76
627.7	31.44
628.032	31.35
628.365	31.33
628.697	31.73
629.029	31.68
629.361	31.78
629.693	32.19
630.025	32.01
630.357	32.19
630.689	32.14
631.021	32.32
631.353	32.39
631.684	32.08
632.016	32.07
632.348	32.04
632.679	32.23
633.011	32.58
633.342	32.32
633.674	32.01
634.005	32.68
634.336	31.97
634.668	32.45
634.999	32.02
635.33	32.64
635.661	32.67
635.992	32.18
636.323	32.55
636.654	32.51
636.985	32.98
637.316	32.57
637.647	32.42
637.977	32.22
638.308	33
638.639	32.59
638.969	32.36
639.3	32.54
639.63	32.56
639.961	32.69
640.291	32.82
640.622	33.17
640.952	32.82
641.282	33.6
641.612	32.83
641.943	32.47
642.273	33.13
642.603	33.45
642.933	33.1
643.263	33.43
643.592	32.72
643.922	33.01
644.252	32.95
644.582	33.21
644.911	33.24
645.241	33.47
645.571	33.25
645.9	33.23
646.23	33.58
646.559	33.64
646.888	33.35
647.218	33.36
647.547	34.66
647.876	32.85
648.205	33.16
648.534	33.13
648.863	33.74
649.192	33.18
649.521	34.41
649.85	33.17
650.179	34.11
650.508	33.3
650.837	34.07
651.165	34.26
651.494	33.63
651.822	33.99
652.151	33.54
652.479	33.59
652.808	33.38
653.136	33.98
653.465	33.55
653.793	33.55
654.121	33.73
654.449	33.61
654.777	34.26
655.105	33.83
655.433	34.37
655.761	34.08
656.089	34.52
656.417	34.25
656.745	33.7
657.073	33.66
657.4	34.83
657.728	34.85
658.056	34.86
658.383	34.48
658.711	34.61
659.038	34.31
659.365	34.77
659.693	34.53
660.02	34.85
660.347	34.14
660.674	34.35
661.001	34.42
661.329	33.88
661.656	34.52
661.982	34.41
662.309	34.7
662.636	34.26
662.963	34.79
663.29	34.84
663.616	34.99
663.943	34.62
664.27	35.07
664.596	35.22
664.923	34.57
665.249	35.15
665.576	34.85
665.902	35.25
666.228	35.27
666.554	35.67
666.881	35.1
667.207	34.7
667.533	35.46
667.859	35.96
668.185	35.65
668.511	34.54
668.837	34.84
669.162	34.59
669.488	34.55
669.814	35.62
670.139	35.51
670.465	35.48
670.791	35.55
671.116	35.36
671.442	35.44
