Data from 21-2_forehead_Reflection__1__177.txt Node

Date: Thu Dec 15 17:52:36 CST 2022
User: ToomeyLab
Spectrometer: FLMS14357
Trigger mode: 0
Integration Time (sec): 1.000000E-2
Scans to average: 100
Electric dark correction enabled: true
Nonlinearity correction enabled: false
Boxcar width: 0
XAxis mode: Wavelengths
Number of Pixels in Spectrum: 2048
>>>>>Begin Spectral Data<<<<<
189.047	-143.03
189.435	-143.03
189.823	-143.03
190.211	32.17
190.599	830.89
190.987	-6.71
191.375	2112.4
191.763	-844.15
192.151	-152.33
192.538	74.14
192.926	58.91
193.314	275.57
193.702	-300.11
194.089	-186.07
194.477	99.78
194.864	48.45
195.252	-774.66
195.639	77.41
196.027	-7639.66
196.414	167.92
196.801	-58.77
197.189	55.95
197.576	142.25
197.963	72.46
198.351	19.3
198.738	1.76
199.125	0.39
199.512	40.81
199.899	34.14
200.286	-35.16
200.673	64.73
201.06	-1.64
201.447	-0.34
201.833	4.95
202.22	12.77
202.607	19.62
202.994	26.79
203.38	65.23
203.767	37.95
204.154	19.36
204.54	19.86
204.927	38.68
205.313	71.93
205.699	41.68
206.086	35.91
206.472	36.64
206.858	12.62
207.245	-12.97
207.631	9.75
208.017	33.87
208.403	7.87
208.789	34.66
209.175	29.86
209.561	-56.62
209.947	51.16
210.333	-10.49
210.719	20.14
211.105	24.63
211.491	10.3
211.876	-31.93
212.262	18.71
212.648	10.22
213.034	-6.04
213.419	19.57
213.805	-17.32
214.19	-14.81
214.576	1.94
214.961	11.13
215.346	-3.36
215.732	6.1
216.117	25.97
216.502	7.84
216.888	31.69
217.273	27.26
217.658	4.01
218.043	-8.43
218.428	-26.91
218.813	26.96
219.198	-7.42
219.583	-6.95
219.968	-5.9
220.353	-18.9
220.738	16.86
221.122	0.44
221.507	3.62
221.892	-12.14
222.276	-16.41
222.661	-14.84
223.046	-11.69
223.43	22.44
223.815	5.34
224.199	-3.39
224.583	-5.32
224.968	-1.45
225.352	-5.36
225.736	17.41
226.121	-2.82
226.505	-5.17
226.889	4.01
227.273	-4.76
227.657	4.29
228.041	0.85
228.425	0.26
228.809	1.37
229.193	2.96
229.577	1.23
229.961	1.63
230.344	2.78
230.728	2.86
231.112	2.44
231.495	0.64
231.879	0.84
232.263	3.22
232.646	1.79
233.03	2.27
233.413	2.19
233.797	1.66
234.18	1.3
234.563	1.94
234.946	0.95
235.33	0.21
235.713	2.48
236.096	2.82
236.479	4.2
236.862	1.2
237.245	0.56
237.628	3.45
238.011	2.75
238.394	2.11
238.777	1.81
239.16	4.32
239.543	2.89
239.925	2.44
240.308	-0.74
240.691	2
241.073	0.71
241.456	2.51
241.838	2.62
242.221	2.46
242.603	2.3
242.986	2.38
243.368	2.63
243.75	2.27
244.133	2.72
244.515	2.31
244.897	2.09
245.279	2.65
245.661	2.3
246.043	1.96
246.425	2.67
246.807	2.63
247.189	1.93
247.571	2.29
247.953	2.28
248.335	2.12
248.717	2.51
249.098	2.45
249.48	2.1
249.862	2.43
250.243	2.11
250.625	2.67
251.006	2.99
251.388	1.63
251.769	2.44
252.151	3.08
252.532	1.93
252.913	2.97
253.295	2.41
253.676	2.15
254.057	2.39
254.438	2.49
254.819	2.85
255.2	2.94
255.581	2.81
255.962	3.67
256.343	2.92
256.724	2.44
257.105	2.19
257.486	1.68
257.867	2.42
258.247	3.16
258.628	2.61
259.009	1.92
259.389	1.56
259.77	1.76
260.15	3.17
260.531	2.77
260.911	2.03
261.292	2.42
261.672	2.2
262.052	2.31
262.432	2.16
262.813	2.52
263.193	2.2
263.573	2.42
263.953	2.39
264.333	2.46
264.713	2.51
265.093	2.56
265.473	1.73
265.853	2.77
266.233	1.91
266.612	1.57
266.992	2.2
267.372	2.46
267.752	2.42
268.131	2.53
268.511	2.44
268.89	2.96
269.27	1.79
269.649	2.04
270.029	2.44
270.408	2.5
270.787	2.58
271.167	2.39
271.546	2.68
271.925	2.31
272.304	2.84
272.683	2.17
273.062	2.09
273.441	1.96
273.82	2.08
274.199	2.3
274.578	2.52
274.957	2.62
275.336	2.72
275.715	2.49
276.093	2.15
276.472	2.46
276.851	2.48
277.229	2.2
277.608	2.04
277.986	2.91
278.365	2.33
278.743	2.73
279.122	2.16
279.5	2.14
279.878	1.95
280.257	2.08
280.635	2.67
281.013	1.94
281.391	2.14
281.769	2.86
282.147	2.08
282.525	2.1
282.903	1.88
283.281	2.51
283.659	2.58
284.037	2.19
284.415	2.27
284.792	2.6
285.17	2.17
285.548	2.09
285.925	2.48
286.303	2.44
286.68	2.45
287.058	2.49
287.435	2.08
287.813	1.92
288.19	2.12
288.567	2.55
288.945	1.86
289.322	2.82
289.699	2.64
290.076	2.41
290.453	2.33
290.83	2.59
291.207	2.7
291.584	2.88
291.961	2.38
292.338	2.69
292.715	2.7
293.092	3.16
293.469	2.23
293.845	2.85
294.222	3.35
294.599	2.26
294.975	2.1
295.352	2.94
295.728	2.96
296.105	2.84
296.481	2.62
296.858	3.04
297.234	2.52
297.61	3.09
297.986	3.2
298.363	3.29
298.739	3.13
299.115	3.05
299.491	3.32
299.867	3
300.243	3.06
300.619	2.75
300.995	3.54
301.371	3.15
301.746	3.3
302.122	2.57
302.498	3.48
302.874	3.51
303.249	3.31
303.625	3.38
304	3.86
304.376	3.82
304.751	3.79
305.127	3.31
305.502	3.98
305.878	3.86
306.253	3.72
306.628	3.89
307.003	4.07
307.378	3.86
307.754	4.33
308.129	3.97
308.504	3.97
308.879	4.35
309.254	4.09
309.629	4.31
310.003	4.11
310.378	4.04
310.753	4.66
311.128	4.27
311.502	4.46
311.877	4.22
312.252	4.75
312.626	4.67
313.001	4.79
313.375	4.82
313.75	5.08
314.124	5.33
314.498	5.38
314.873	4.69
315.247	5.26
315.621	5.14
315.995	5.13
316.369	5.05
316.743	5.46
317.117	4.94
317.491	5.43
317.865	5.02
318.239	5.71
318.613	5.38
318.987	5.28
319.361	6.13
319.734	5.95
320.108	5.89
320.482	6.26
320.855	5.87
321.229	5.99
321.602	6.19
321.976	5.93
322.349	7.04
322.723	6.88
323.096	6.38
323.469	5.88
323.843	6.14
324.216	6.14
324.589	7.13
324.962	6.34
325.335	6.38
325.708	6.75
326.081	6.96
326.454	7.28
326.827	6.89
327.2	6.23
327.573	7.25
327.945	6.45
328.318	6.39
328.691	6.77
329.063	6.37
329.436	6.84
329.809	7.4
330.181	7.99
330.553	7.27
330.926	7.85
331.298	6.99
331.671	7.7
332.043	7.31
332.415	7.51
332.787	7.51
333.159	7.23
333.532	8.11
333.904	7.74
334.276	7.82
334.648	7.94
335.02	7.62
335.391	7.41
335.763	7.48
336.135	7.57
336.507	7.14
336.879	8.05
337.25	7.88
337.622	8.4
337.993	7.75
338.365	8.26
338.736	7.68
339.108	7.7
339.479	8.37
339.851	8.49
340.222	8.55
340.593	8.37
340.964	8.79
341.336	8.44
341.707	8.54
342.078	8.36
342.449	8.55
342.82	8.71
343.191	8.66
343.562	8.68
343.933	8.43
344.303	8.6
344.674	8.65
345.045	8.91
345.416	9.03
345.786	8.85
346.157	8.9
346.527	8.97
346.898	8.84
347.268	9.16
347.639	8.95
348.009	9.13
348.38	9.34
348.75	9.28
349.12	9.53
349.49	9.39
349.861	9.35
350.231	9.51
350.601	9.78
350.971	9.3
351.341	9.48
351.711	9.6
352.081	9.48
352.45	9.43
352.82	9.36
353.19	9.52
353.56	9.56
353.929	10.02
354.299	9.85
354.669	9.99
355.038	10.46
355.408	9.98
355.777	10.24
356.147	10.16
356.516	10.18
356.885	10.14
357.254	9.97
357.624	9.95
357.993	10.56
358.362	10.42
358.731	10.58
359.1	10.47
359.469	10.49
359.838	10.48
360.207	10.43
360.576	10.75
360.945	10.83
361.314	10.66
361.682	10.63
362.051	10.8
362.42	10.78
362.788	10.99
363.157	10.74
363.525	11.01
363.894	10.78
364.262	11.01
364.631	11.29
364.999	11.35
365.367	11.21
365.735	10.99
366.104	11.14
366.472	11.18
366.84	11.16
367.208	11.55
367.576	11.24
367.944	11.5
368.312	11.41
368.68	11.9
369.048	11.73
369.416	11.24
369.783	11.66
370.151	12.12
370.519	12.59
370.886	12.21
371.254	12.06
371.621	12.14
371.989	12.17
372.356	11.77
372.724	12.17
373.091	11.81
373.458	12.23
373.826	12.52
374.193	12.47
374.56	12.64
374.927	12.23
375.294	12.65
375.661	12.97
376.028	12.68
376.395	12.6
376.762	12.19
377.129	12.84
377.496	12.78
377.863	12.66
378.229	13.03
378.596	13.03
378.963	12.8
379.329	13.2
379.696	12.79
380.062	13.04
380.429	12.97
380.795	13.25
381.161	12.94
381.528	13.28
381.894	13.29
382.26	13.18
382.626	13.07
382.993	13.54
383.359	13.4
383.725	13.31
384.091	13.54
384.457	13.47
384.823	13.6
385.188	13.7
385.554	13.65
385.92	13.66
386.286	13.9
386.651	13.91
387.017	13.97
387.383	14.07
387.748	14.2
388.114	14.27
388.479	13.96
388.845	13.94
389.21	14.22
389.575	14.3
389.94	14.37
390.306	14.41
390.671	14.54
391.036	14.65
391.401	14.66
391.766	14.31
392.131	14.78
392.496	14.7
392.861	14.48
393.226	14.52
393.591	14.49
393.956	14.52
394.32	14.85
394.685	14.56
395.05	14.93
395.414	14.84
395.779	15
396.143	14.86
396.508	14.84
396.872	15.05
397.236	15.15
397.601	15.17
397.965	15.42
398.329	15.46
398.694	15.39
399.058	15.23
399.422	15.37
399.786	15.4
400.15	15.77
400.514	15.59
400.878	15.69
401.242	15.7
401.605	15.67
401.969	15.62
402.333	15.61
402.697	15.97
403.06	16.02
403.424	15.89
403.787	15.94
404.151	15.96
404.514	16.12
404.878	16.05
405.241	15.8
405.604	15.99
405.968	16.31
406.331	16.16
406.694	16.07
407.057	16.1
407.42	16.26
407.783	16.51
408.146	16.4
408.509	16.43
408.872	16.47
409.235	16.79
409.598	16.59
409.961	17
410.323	16.78
410.686	17.02
411.049	16.85
411.411	16.63
411.774	16.88
412.136	16.94
412.499	17.11
412.861	16.73
413.223	16.96
413.586	16.91
413.948	17.42
414.31	17.21
414.672	17.12
415.035	17.53
415.397	17.32
415.759	17.42
416.121	17.4
416.483	17.48
416.845	17.64
417.206	17.18
417.568	17.3
417.93	17.6
418.292	17.43
418.653	17.53
419.015	17.51
419.377	17.42
419.738	17.57
420.1	17.55
420.461	17.37
420.822	17.72
421.184	17.62
421.545	17.59
421.906	17.76
422.267	17.73
422.629	17.59
422.99	17.66
423.351	17.8
423.712	17.91
424.073	17.95
424.434	18.07
424.795	17.93
425.155	17.94
425.516	18.02
425.877	18.08
426.238	18.07
426.598	18.11
426.959	18.22
427.32	18.38
427.68	18.48
428.041	18.64
428.401	18.49
428.761	18.71
429.122	19.02
429.482	18.93
429.842	19.01
430.202	18.92
430.563	19.15
430.923	19.13
431.283	19.39
431.643	19.32
432.003	19.41
432.363	19.42
432.722	19.16
433.082	19.28
433.442	19.34
433.802	19.39
434.161	19.36
434.521	19.23
434.881	19.51
435.24	19.42
435.6	19.58
435.959	19.58
436.319	19.65
436.678	19.66
437.037	19.78
437.396	20.03
437.756	19.75
438.115	20.01
438.474	20.15
438.833	20.21
439.192	20.17
439.551	19.97
439.91	20.17
440.269	20.14
440.628	20.16
440.987	20.19
441.345	20.3
441.704	20.19
442.063	20.05
442.421	20.32
442.78	20.28
443.138	20.39
443.497	20.41
443.855	20.7
444.214	20.46
444.572	20.97
444.93	20.88
445.288	20.86
445.647	20.73
446.005	20.8
446.363	20.81
446.721	20.88
447.079	20.72
447.437	20.81
447.795	20.78
448.153	20.7
448.51	20.91
448.868	20.79
449.226	20.93
449.584	21.11
449.941	21.06
450.299	21.27
450.656	21.4
451.014	21.46
451.371	21.63
451.729	21.67
452.086	21.85
452.443	21.85
452.801	21.78
453.158	22.08
453.515	21.88
453.872	21.93
454.229	21.92
454.586	21.98
454.943	22.01
455.3	22.02
455.657	22.24
456.014	22.24
456.371	22.37
456.727	22.47
457.084	22.48
457.441	22.49
457.797	22.6
458.154	22.68
458.51	22.68
458.867	22.64
459.223	22.77
459.58	22.69
459.936	22.67
460.292	22.7
460.648	22.65
461.005	22.53
461.361	22.68
461.717	22.52
462.073	22.71
462.429	22.85
462.785	22.76
463.141	23.05
463.496	23.18
463.852	23.27
464.208	23.54
464.564	23.34
464.919	23.54
465.275	23.61
465.631	23.72
465.986	23.71
466.342	23.52
466.697	23.67
467.052	23.92
467.408	23.64
467.763	23.97
468.118	24.02
468.473	23.87
468.829	23.92
469.184	23.99
469.539	23.84
469.894	24.31
470.249	24.2
470.603	24.2
470.958	24.39
471.313	24.42
471.668	24.56
472.023	24.45
472.377	24.38
472.732	24.63
473.086	24.36
473.441	24.43
473.795	24.93
474.15	24.59
474.504	24.8
474.859	24.64
475.213	24.77
475.567	25.04
475.921	25.03
476.275	25.03
476.63	24.93
476.984	25.1
477.338	25.24
477.692	25.1
478.045	25.1
478.399	25.27
478.753	25.35
479.107	25.32
479.461	25.3
479.814	25.2
480.168	25.34
480.521	25.26
480.875	25.5
481.228	25.51
481.582	25.6
481.935	25.68
482.289	25.67
482.642	25.66
482.995	25.51
483.348	25.59
483.701	25.54
484.055	25.54
484.408	25.31
484.761	24.99
485.114	25
485.466	25
485.819	24.97
486.172	24.85
486.525	24.92
486.878	25.04
487.23	25.15
487.583	25.44
487.936	25.48
488.288	25.59
488.641	25.48
488.993	25.49
489.345	25.44
489.698	25.43
490.05	25.4
490.402	25.63
490.754	25.67
491.107	25.87
491.459	26.06
491.811	26.25
492.163	26.35
492.515	26.2
492.866	26.11
493.218	26.23
493.57	26.19
493.922	26.23
494.274	26.19
494.625	26.54
494.977	26.63
495.328	26.88
495.68	27.21
496.031	27.1
496.383	27.19
496.734	27.39
497.086	27.46
497.437	27.63
497.788	27.48
498.139	27.31
498.49	27.53
498.842	27.48
499.193	27.49
499.544	27.55
499.894	27.6
500.245	27.82
500.596	28.06
500.947	27.82
501.298	27.91
501.648	28.11
501.999	28.21
502.35	28.13
502.7	28.34
503.051	28.34
503.401	28.42
503.752	28.44
504.102	28.47
504.452	28.63
504.803	28.41
505.153	28.86
505.503	28.59
505.853	28.78
506.203	28.73
506.553	28.67
506.903	28.68
507.253	28.76
507.603	29.03
507.953	29.02
508.303	29.23
508.652	29.07
509.002	29.28
509.352	29.38
509.701	29.09
510.051	29.12
510.4	29.21
510.75	29.12
511.099	29.09
511.449	29.15
511.798	29.22
512.147	29.38
512.496	29.41
512.846	29.49
513.195	29.33
513.544	29.57
513.893	29.64
514.242	29.56
514.591	29.69
514.939	29.72
515.288	29.8
515.637	29.89
515.986	29.95
516.334	30
516.683	30.16
517.032	30.22
517.38	30.38
517.729	30.37
518.077	30.15
518.426	30.42
518.774	30.44
519.122	30.34
519.47	30.34
519.819	30.15
520.167	30.04
520.515	30.23
520.863	30.05
521.211	30.1
521.559	30.35
521.907	30.41
522.255	30.57
522.602	30.63
522.95	30.85
523.298	31.1
523.645	31.05
523.993	31.05
524.341	31.2
524.688	31.07
525.036	31.25
525.383	31.3
525.73	31.21
526.078	31.43
526.425	31.21
526.772	31.05
527.119	30.92
527.466	31.1
527.814	30.97
528.161	30.99
528.508	30.92
528.854	31.04
529.201	31.07
529.548	30.85
529.895	30.84
530.242	31
530.588	31.02
530.935	30.81
531.282	30.73
531.628	30.8
531.975	31.1
532.321	31.35
532.667	31.49
533.014	31.8
533.36	31.75
533.706	31.97
534.052	31.95
534.399	31.87
534.745	31.87
535.091	31.75
535.437	31.72
535.783	31.77
536.129	31.74
536.474	32.01
536.82	32.27
537.166	32.26
537.512	32.38
537.857	32.4
538.203	32.5
538.549	32.52
538.894	32.63
539.239	32.47
539.585	32.67
539.93	32.74
540.276	32.9
540.621	33.27
540.966	33.14
541.311	33.27
541.656	33.19
542.001	33.11
542.346	32.94
542.691	32.88
543.036	32.76
543.381	32.7
543.726	32.67
544.071	32.69
544.415	32.81
544.76	32.95
545.105	33.21
545.449	33.24
545.794	33.32
546.138	33.62
546.483	33.61
546.827	33.73
547.171	33.95
547.516	34.1
547.86	33.95
548.204	33.98
548.548	33.92
548.892	34.11
549.236	34.01
549.58	34.19
549.924	34.1
550.268	34.57
550.612	34.69
550.956	34.83
551.3	34.88
551.643	34.96
551.987	35.05
552.33	35.2
552.674	35.17
553.017	35.22
553.361	35.39
553.704	35.28
554.048	35.19
554.391	35.13
554.734	35.21
555.077	35.35
555.42	35.19
555.764	35.29
556.107	35.46
556.45	35.41
556.793	35.93
557.135	35.56
557.478	35.82
557.821	35.93
558.164	35.99
558.507	35.89
558.849	35.86
559.192	36.07
559.534	36.15
559.877	36.3
560.219	36.13
560.562	36.03
560.904	36.32
561.246	36.31
561.589	36.48
561.931	36.44
562.273	36.51
562.615	36.61
562.957	36.44
563.299	36.32
563.641	36.62
563.983	36.54
564.325	36.74
564.667	36.72
565.008	36.56
565.35	36.71
565.692	36.76
566.033	37.19
566.375	37.18
566.716	36.82
567.058	37.07
567.399	37.06
567.741	36.95
568.082	36.92
568.423	36.75
568.764	37.04
569.105	36.95
569.447	37.07
569.788	37.13
570.129	37.35
570.47	37.32
570.811	37.27
571.151	37.36
571.492	37.71
571.833	37.48
572.174	37.45
572.514	37.66
572.855	37.39
573.195	37.69
573.536	37.79
573.876	37.4
574.217	37.43
574.557	37.55
574.898	37.76
575.238	37.92
575.578	37.7
575.918	38.02
576.258	38.32
576.598	37.99
576.938	38.14
577.278	38.28
577.618	38.03
577.958	38.25
578.298	38.21
578.638	38.57
578.977	38.47
579.317	38.61
579.657	38.6
579.996	38.59
580.336	38.74
580.675	38.91
581.014	38.91
581.354	39.07
581.693	39.03
582.032	39.36
582.372	39.53
582.711	39.45
583.05	39.3
583.389	39.56
583.728	39.35
584.067	39.35
584.406	39.43
584.745	39.24
585.083	39.6
585.422	39.26
585.761	39.69
586.1	39.69
586.438	39.98
586.777	39.68
587.115	39.92
587.454	39.98
587.792	39.92
588.13	40.01
588.469	39.8
588.807	40.06
589.145	39.87
589.483	40.02
589.821	40.12
590.159	39.95
590.497	40.31
590.835	40.36
591.173	40.08
591.511	40.15
591.849	40.54
592.187	40.25
592.524	40.35
592.862	40.24
593.2	40.46
593.537	40.65
593.875	40.79
594.212	41.03
594.55	40.76
594.887	40.91
595.224	41.17
595.561	40.92
595.899	40.84
596.236	40.99
596.573	40.73
596.91	40.77
597.247	40.96
597.584	41
597.921	40.67
598.258	40.66
598.594	40.96
598.931	40.75
599.268	40.61
599.604	40.85
599.941	40.63
600.277	40.96
600.614	41.29
600.95	41.1
601.287	41.25
601.623	41.35
601.959	42.27
602.296	41.71
602.632	41.71
602.968	41.62
603.304	41.72
603.64	41.55
603.976	41.56
604.312	41.9
604.648	41.72
604.984	41.96
605.319	41.87
605.655	41.62
605.991	41.67
606.326	41.43
606.662	41.62
606.998	41.84
607.333	41.84
607.668	41.87
608.004	41.6
608.339	41.93
608.674	42.23
609.01	42.43
609.345	42.46
609.68	42.72
610.015	42.56
610.35	42.5
610.685	42.6
611.02	42.35
611.355	42.29
611.689	42.37
612.024	42.35
612.359	42.32
612.694	42.51
613.028	42.5
613.363	42.79
613.697	42.85
614.032	43.09
614.366	43.2
614.7	43.07
615.035	43.34
615.369	43.4
615.703	43.68
616.037	43.04
616.371	43.11
616.705	43.42
617.039	43.19
617.373	43.74
617.707	43.53
618.041	43.62
618.375	43.25
618.709	43.62
619.042	43.77
619.376	43.46
619.71	43.95
620.043	44.34
620.377	43.96
620.71	43.83
621.043	44.13
621.377	44.19
621.71	44.24
622.043	44.14
622.376	44.63
622.709	44.16
623.043	44.38
623.376	44.16
623.709	44.67
624.041	43.96
624.374	44.82
624.707	44.48
625.04	44.34
625.373	44.9
625.705	44.88
626.038	44.62
626.37	44.61
626.703	44.68
627.035	44.75
627.368	45.03
627.7	44.7
628.032	45.05
628.365	44.9
628.697	44.67
629.029	44.58
629.361	44.75
629.693	44.9
630.025	44.59
630.357	44.72
630.689	44.7
631.021	45.11
631.353	45.25
631.684	45.05
632.016	45.12
632.348	44.98
632.679	44.99
633.011	45.41
633.342	45.41
633.674	45.43
634.005	45.42
634.336	45.09
634.668	45.86
634.999	45.73
635.33	45.81
635.661	45.61
635.992	45.42
636.323	45.67
636.654	45.61
636.985	45.33
637.316	45.78
637.647	45.84
637.977	45.08
638.308	45.99
638.639	45.76
638.969	45.92
639.3	46.08
639.63	45.94
639.961	45.98
640.291	45.82
640.622	46.05
640.952	46.14
641.282	46
641.612	46.19
641.943	46.47
642.273	46.39
642.603	46.09
642.933	46.46
643.263	46.27
643.592	46.29
643.922	46.87
644.252	46.39
644.582	46.9
644.911	46.68
645.241	46.68
645.571	46.6
645.9	47.33
646.23	47.12
646.559	46.44
646.888	46.85
647.218	46.73
647.547	46.65
647.876	46.68
648.205	46.22
648.534	47.19
648.863	46.63
649.192	47.1
649.521	47.25
649.85	46.84
650.179	47.28
650.508	47.15
650.837	47.68
651.165	47.04
651.494	47.27
651.822	46.81
652.151	46.84
652.479	47.21
652.808	47.34
653.136	46.93
653.465	47.75
653.793	47.52
654.121	47.92
654.449	47.27
654.777	47.35
655.105	47.55
655.433	47.9
655.761	48.02
656.089	48.02
656.417	48.55
656.745	48.2
657.073	47.96
657.4	48.12
657.728	47.51
658.056	47.68
658.383	47.78
658.711	48.48
659.038	48.24
659.365	48.61
659.693	47.88
660.02	48.15
660.347	47.9
660.674	48.34
661.001	48.61
661.329	48.21
661.656	48.21
661.982	48.2
662.309	48.43
662.636	48.7
662.963	48.57
663.29	48.47
663.616	48.29
663.943	48.4
664.27	48.1
664.596	48.01
664.923	49.2
665.249	48.56
665.576	48.41
665.902	48.39
666.228	48.69
666.554	49.23
666.881	48.56
667.207	49.12
667.533	49.34
667.859	48.81
668.185	49.36
668.511	48.8
668.837	48.77
669.162	49.44
669.488	49.06
669.814	49.92
670.139	48.98
670.465	49.77
670.791	48.89
671.116	48.78
