Data from 21-2_chest_Reflection__3__169.txt Node

Date: Thu Dec 15 17:48:23 CST 2022
User: ToomeyLab
Spectrometer: FLMS14357
Trigger mode: 0
Integration Time (sec): 1.000000E-2
Scans to average: 100
Electric dark correction enabled: true
Nonlinearity correction enabled: false
Boxcar width: 0
XAxis mode: Wavelengths
Number of Pixels in Spectrum: 2048
>>>>>Begin Spectral Data<<<<<
189.047	62.97
189.435	62.97
189.823	62.97
190.211	-6.95
190.599	739.49
190.987	-3.39
191.375	-485.6
191.763	-846.46
192.151	319.81
192.538	57.23
192.926	175.03
193.314	-20.91
193.702	269.34
194.089	-105.48
194.477	12.16
194.864	54.68
195.252	-884.47
195.639	69.14
196.027	-5982.76
196.414	58.77
196.801	-131.58
197.189	110.21
197.576	-4.93
197.963	1377.01
198.351	-13
198.738	4.22
199.125	-54.49
199.512	8.78
199.899	-53.27
200.286	-20.65
200.673	37.06
201.06	11.25
201.447	-23.44
201.833	-11.78
202.22	-10.38
202.607	3.03
202.994	12.01
203.38	14.55
203.767	-58.74
204.154	-2.58
204.54	24.29
204.927	8.47
205.313	39.41
205.699	12.96
206.086	17.88
206.472	-13.83
206.858	12.45
207.245	-6.52
207.631	-17.92
208.017	34.62
208.403	-34.11
208.789	1.73
209.175	7.48
209.561	-76.23
209.947	7.32
210.333	-8.51
210.719	-4.52
211.105	11.9
211.491	-2.31
211.876	-9.73
212.262	10.3
212.648	3.72
213.034	-2.04
213.419	-11.64
213.805	-31.2
214.19	-39.26
214.576	-17.04
214.961	7.81
215.346	1.6
215.732	-43.27
216.117	-8.33
216.502	-47.48
216.888	9.91
217.273	-5.56
217.658	-18.62
218.043	-23.88
218.428	-18.61
218.813	-7.48
219.198	-13.88
219.583	-39.39
219.968	4.68
220.353	-19.78
220.738	-33.36
221.122	5.04
221.507	-19.08
221.892	-24.02
222.276	-47.64
222.661	-10.47
223.046	-11.79
223.43	10.93
223.815	-7.38
224.199	1.35
224.583	-3.73
224.968	-3.93
225.352	-6.38
225.736	9.8
226.121	-0.56
226.505	-7.6
226.889	7.16
227.273	-6.22
227.657	1.59
228.041	3.21
228.425	-1.65
228.809	2.88
229.193	1.7
229.577	2.52
229.961	2.62
230.344	3.17
230.728	3.31
231.112	3.14
231.495	2.41
231.879	3.2
232.263	3.24
232.646	3.65
233.03	3.72
233.413	2.02
233.797	1.72
234.18	2.47
234.563	2.81
234.946	2.49
235.33	1.69
235.713	3.26
236.096	4.12
236.479	4.39
236.862	2.07
237.245	1.63
237.628	3.2
238.011	3.13
238.394	2.03
238.777	2.91
239.16	4.54
239.543	4.13
239.925	2.73
240.308	2.88
240.691	1.85
241.073	1.74
241.456	2.49
241.838	4.3
242.221	2.79
242.603	3.8
242.986	3.73
243.368	3.73
243.75	3.19
244.133	3.61
244.515	3.38
244.897	3.44
245.279	3.28
245.661	3.11
246.043	3.16
246.425	3.61
246.807	3.19
247.189	3.57
247.571	2.79
247.953	2.97
248.335	3.39
248.717	3.28
249.098	3.23
249.48	3.01
249.862	3.66
250.243	3.35
250.625	3.37
251.006	3.82
251.388	3.02
251.769	2.82
252.151	1.89
252.532	3.27
252.913	3.6
253.295	2.8
253.676	3.07
254.057	3.43
254.438	3.24
254.819	3.11
255.2	4.7
255.581	3.25
255.962	2.97
256.343	2.78
256.724	2.52
257.105	3.97
257.486	2.25
257.867	2.64
258.247	2.8
258.628	3.26
259.009	2.36
259.389	2.8
259.77	3.1
260.15	3.63
260.531	3.26
260.911	2.99
261.292	3.19
261.672	3.11
262.052	3.01
262.432	2.92
262.813	2.96
263.193	3.19
263.573	3.21
263.953	2.6
264.333	2.89
264.713	3.11
265.093	2.74
265.473	2.47
265.853	2.15
266.233	3.2
266.612	2.55
266.992	2.17
267.372	3.53
267.752	3.08
268.131	3
268.511	2.83
268.89	3.5
269.27	2.26
269.649	3.11
270.029	2.92
270.408	3.3
270.787	3.05
271.167	2.98
271.546	2.86
271.925	2.88
272.304	2.78
272.683	2.65
273.062	3.28
273.441	2.6
273.82	2.89
274.199	2.97
274.578	2.96
274.957	2.39
275.336	3.19
275.715	2.91
276.093	2.41
276.472	2.34
276.851	2.79
277.229	2.64
277.608	2.8
277.986	3.05
278.365	3.52
278.743	2.43
279.122	2.58
279.5	2.23
279.878	2.65
280.257	2.25
280.635	3.24
281.013	2.81
281.391	2.44
281.769	3.68
282.147	2.82
282.525	2.97
282.903	2.87
283.281	3.13
283.659	3.19
284.037	2.65
284.415	2.72
284.792	2.84
285.17	2.52
285.548	2.79
285.925	2.81
286.303	3.14
286.68	2.88
287.058	2.94
287.435	2.67
287.813	2.82
288.19	2.26
288.567	2.64
288.945	2.63
289.322	2.69
289.699	2.89
290.076	2.81
290.453	2.33
290.83	3.03
291.207	2.71
291.584	2.96
291.961	2.68
292.338	2.66
292.715	2.72
293.092	3.26
293.469	2.83
293.845	2.83
294.222	3.28
294.599	1.92
294.975	2.12
295.352	2.67
295.728	2.94
296.105	2.72
296.481	2.76
296.858	2.91
297.234	2.26
297.61	2.68
297.986	2.97
298.363	2.88
298.739	2.97
299.115	2.87
299.491	3.09
299.867	2.66
300.243	2.17
300.619	2.53
300.995	2.89
301.371	3.06
301.746	2.53
302.122	2.15
302.498	2.77
302.874	2.82
303.249	2.44
303.625	2.7
304	2.93
304.376	2.92
304.751	2.99
305.127	2.23
305.502	3.04
305.878	2.85
306.253	2.44
306.628	2.84
307.003	2.49
307.378	2.66
307.754	2.65
308.129	2.6
308.504	3.66
308.879	2.87
309.254	2.91
309.629	2.99
310.003	2.73
310.378	3.2
310.753	2.97
311.128	2.34
311.502	3
311.877	2.65
312.252	3.03
312.626	3.02
313.001	2.85
313.375	2.94
313.75	2.96
314.124	3.28
314.498	2.89
314.873	2.87
315.247	2.39
315.621	2.79
315.995	2.55
316.369	2.36
316.743	2.59
317.117	2.41
317.491	2.75
317.865	2.15
318.239	3
318.613	2.67
318.987	1.98
319.361	2.67
319.734	2.9
320.108	2.68
320.482	3.04
320.855	2.73
321.229	2.89
321.602	2.75
321.976	2.25
322.349	3.33
322.723	3.05
323.096	2.83
323.469	2.84
323.843	2.57
324.216	2.84
324.589	2.77
324.962	2.51
325.335	3.01
325.708	2.79
326.081	2.69
326.454	2.99
326.827	2.85
327.2	2.49
327.573	3.37
327.945	2.39
328.318	2.28
328.691	2.71
329.063	2.47
329.436	2.68
329.809	3.34
330.181	2.87
330.553	3.13
330.926	3.16
331.298	2.66
331.671	3.16
332.043	2.71
332.415	2.88
332.787	3.01
333.159	2.83
333.532	2.5
333.904	3.17
334.276	2.88
334.648	2.96
335.02	2.94
335.391	2.73
335.763	3.02
336.135	3.18
336.507	2.75
336.879	2.79
337.25	3.04
337.622	3.14
337.993	3.14
338.365	2.82
338.736	2.91
339.108	2.97
339.479	3
339.851	3.25
340.222	3.06
340.593	2.79
340.964	3.11
341.336	3
341.707	2.93
342.078	3.05
342.449	3.17
342.82	3.19
343.191	2.95
343.562	3.03
343.933	2.77
344.303	3.38
344.674	3.31
345.045	2.77
345.416	3.09
345.786	2.69
346.157	2.91
346.527	2.92
346.898	2.44
347.268	3.21
347.639	3.04
348.009	2.81
348.38	2.92
348.75	2.73
349.12	3.18
349.49	3.17
349.861	3.23
350.231	2.99
350.601	2.94
350.971	2.91
351.341	3.57
351.711	3.01
352.081	3.03
352.45	2.84
352.82	2.22
353.19	2.62
353.56	2.81
353.929	3.06
354.299	3.28
354.669	2.82
355.038	3.42
355.408	3.03
355.777	2.73
356.147	3.01
356.516	2.91
356.885	2.94
357.254	2.77
357.624	2.62
357.993	3.23
358.362	3.23
358.731	3.11
359.1	3.05
359.469	3.2
359.838	3.23
360.207	2.97
360.576	3.41
360.945	3.29
361.314	2.82
361.682	2.73
362.051	2.94
362.42	2.98
362.788	3.19
363.157	3.08
363.525	3.07
363.894	2.91
364.262	3.13
364.631	3.42
364.999	3.23
365.367	3.06
365.735	3.22
366.104	2.86
366.472	3.13
366.84	3.08
367.208	3.42
367.576	3.01
367.944	3.11
368.312	3.08
368.68	3.12
369.048	3.08
369.416	2.55
369.783	2.73
370.151	3.61
370.519	3.46
370.886	3.12
371.254	3.26
371.621	3.35
371.989	3.5
372.356	3.09
372.724	3.26
373.091	3.12
373.458	2.98
373.826	3.41
374.193	2.83
374.56	3.2
374.927	3.14
375.294	3.26
375.661	3.21
376.028	2.65
376.395	3.19
376.762	3.15
377.129	3.16
377.496	3.47
377.863	3.22
378.229	3.55
378.596	3.37
378.963	3.18
379.329	3.32
379.696	3.28
380.062	3.11
380.429	3.27
380.795	3.35
381.161	2.87
381.528	2.8
381.894	3.18
382.26	3.13
382.626	3.27
382.993	3.42
383.359	3.25
383.725	3.24
384.091	3.3
384.457	3.08
384.823	3.32
385.188	3.29
385.554	3.18
385.92	2.98
386.286	3.21
386.651	3.27
387.017	3.58
387.383	3.28
387.748	3.25
388.114	3.43
388.479	3.22
388.845	3.02
389.21	3.44
389.575	3.46
389.94	3.58
390.306	3.53
390.671	3.16
391.036	3.28
391.401	3.47
391.766	3.26
392.131	3.6
392.496	3.26
392.861	3.16
393.226	3.11
393.591	3.35
393.956	3.36
394.32	3.65
394.685	3.14
395.05	3.16
395.414	3.17
395.779	3.51
396.143	3.17
396.508	3.12
396.872	3.41
397.236	3.46
397.601	3.51
397.965	3.44
398.329	3.65
398.694	3.22
399.058	3.45
399.422	3.48
399.786	3.3
400.15	3.42
400.514	3.31
400.878	3.32
401.242	3.5
401.605	3.36
401.969	3.11
402.333	3.42
402.697	3.63
403.06	3.55
403.424	3.45
403.787	3.33
404.151	3.42
404.514	3.42
404.878	3.38
405.241	3.43
405.604	3.37
405.968	3.42
406.331	3.5
406.694	3.3
407.057	3.25
407.42	3.3
407.783	3.39
408.146	3.39
408.509	3.44
408.872	3.51
409.235	3.58
409.598	3.48
409.961	3.61
410.323	3.41
410.686	3.43
411.049	3.34
411.411	3.42
411.774	3.56
412.136	3.38
412.499	3.76
412.861	3.06
413.223	3.3
413.586	3.29
413.948	3.54
414.31	3.43
414.672	3.4
415.035	3.49
415.397	3.43
415.759	3.1
416.121	3.69
416.483	3.21
416.845	3.31
417.206	3.5
417.568	3.29
417.93	3.48
418.292	3.33
418.653	3.27
419.015	3.27
419.377	3.24
419.738	3.57
420.1	3.49
420.461	3.31
420.822	3.37
421.184	3.45
421.545	3.52
421.906	3.52
422.267	3.34
422.629	3.43
422.99	3.29
423.351	3.38
423.712	3.52
424.073	3.52
424.434	3.48
424.795	3.36
425.155	3.33
425.516	3.34
425.877	3.4
426.238	3.44
426.598	3.39
426.959	3.37
427.32	3.25
427.68	3.48
428.041	3.55
428.401	3.34
428.761	3.54
429.122	3.33
429.482	3.44
429.842	3.3
430.202	3.45
430.563	3.48
430.923	3.52
431.283	3.62
431.643	3.66
432.003	3.51
432.363	3.51
432.722	3.48
433.082	3.54
433.442	3.5
433.802	3.42
434.161	3.54
434.521	3.5
434.881	3.47
435.24	3.54
435.6	3.46
435.959	3.57
436.319	3.48
436.678	3.73
437.037	3.48
437.396	3.59
437.756	3.37
438.115	3.43
438.474	3.41
438.833	3.48
439.192	3.64
439.551	3.44
439.91	3.46
440.269	3.44
440.628	3.43
440.987	3.48
441.345	3.52
441.704	3.42
442.063	3.53
442.421	3.57
442.78	3.52
443.138	3.48
443.497	3.46
443.855	3.64
444.214	3.41
444.572	3.62
444.93	3.63
445.288	3.38
445.647	3.42
446.005	3.57
446.363	3.41
446.721	3.48
447.079	3.43
447.437	3.53
447.795	3.51
448.153	3.52
448.51	3.54
448.868	3.44
449.226	3.58
449.584	3.53
449.941	3.53
450.299	3.5
450.656	3.59
451.014	3.56
451.371	3.55
451.729	3.59
452.086	3.6
452.443	3.6
452.801	3.49
453.158	3.65
453.515	3.45
453.872	3.51
454.229	3.51
454.586	3.36
454.943	3.62
455.3	3.43
455.657	3.47
456.014	3.57
456.371	3.52
456.727	3.55
457.084	3.72
457.441	3.63
457.797	3.59
458.154	3.43
458.51	3.58
458.867	3.49
459.223	3.54
459.58	3.7
459.936	3.55
460.292	3.46
460.648	3.45
461.005	3.47
461.361	3.49
461.717	3.55
462.073	3.62
462.429	3.65
462.785	3.69
463.141	3.63
463.496	3.77
463.852	3.57
464.208	3.66
464.564	3.6
464.919	3.6
465.275	3.66
465.631	3.75
465.986	3.71
466.342	3.42
466.697	3.58
467.052	3.59
467.408	3.71
467.763	3.65
468.118	3.48
468.473	3.65
468.829	3.58
469.184	3.68
469.539	3.41
469.894	3.78
470.249	3.54
470.603	3.76
470.958	3.68
471.313	3.66
471.668	3.68
472.023	3.69
472.377	3.43
472.732	3.77
473.086	3.7
473.441	3.66
473.795	3.84
474.15	3.62
474.504	3.62
474.859	3.48
475.213	3.67
475.567	3.57
475.921	3.76
476.275	3.8
476.63	3.57
476.984	3.57
477.338	3.87
477.692	3.63
478.045	3.61
478.399	3.66
478.753	3.58
479.107	3.75
479.461	3.55
479.814	3.69
480.168	3.58
480.521	3.68
480.875	3.67
481.228	3.76
481.582	3.64
481.935	3.74
482.289	3.57
482.642	3.65
482.995	3.5
483.348	3.51
483.701	3.64
484.055	3.59
484.408	3.62
484.761	3.51
485.114	3.41
485.466	3.44
485.819	3.42
486.172	3.47
486.525	3.5
486.878	3.58
487.23	3.61
487.583	3.59
487.936	3.54
488.288	3.56
488.641	3.46
488.993	3.52
489.345	3.49
489.698	3.47
490.05	3.52
490.402	3.52
490.754	3.57
491.107	3.6
491.459	3.69
491.811	3.61
492.163	3.66
492.515	3.53
492.866	3.49
493.218	3.52
493.57	3.58
493.922	3.61
494.274	3.63
494.625	3.76
494.977	3.69
495.328	3.78
495.68	3.72
496.031	3.68
496.383	3.75
496.734	3.57
497.086	3.74
497.437	3.88
497.788	3.89
498.139	3.77
498.49	3.66
498.842	3.8
499.193	3.74
499.544	3.72
499.894	3.65
500.245	3.78
500.596	3.88
500.947	3.72
501.298	3.76
501.648	3.76
501.999	3.8
502.35	3.65
502.7	3.83
503.051	3.73
503.401	3.9
503.752	3.69
504.102	3.67
504.452	3.62
504.803	3.62
505.153	3.85
505.503	3.8
505.853	3.79
506.203	3.87
506.553	3.81
506.903	3.84
507.253	3.81
507.603	3.81
507.953	3.77
508.303	3.86
508.652	3.67
509.002	3.82
509.352	3.89
509.701	3.69
510.051	3.82
510.4	3.86
510.75	3.77
511.099	3.65
511.449	3.89
511.798	3.82
512.147	3.77
512.496	3.88
512.846	3.84
513.195	3.8
513.544	3.93
513.893	3.81
514.242	3.79
514.591	3.73
514.939	3.85
515.288	3.87
515.637	3.81
515.986	3.93
516.334	3.87
516.683	3.98
517.032	3.74
517.38	3.78
517.729	4.01
518.077	3.92
518.426	3.88
518.774	3.79
519.122	3.85
519.47	3.76
519.819	3.92
520.167	3.78
520.515	3.89
520.863	3.85
521.211	3.84
521.559	3.84
521.907	3.96
522.255	4
522.602	3.9
522.95	3.95
523.298	4
523.645	3.95
523.993	3.93
524.341	3.9
524.688	3.95
525.036	3.87
525.383	3.99
525.73	3.89
526.078	3.95
526.425	3.96
526.772	3.95
527.119	3.98
527.466	4
527.814	3.98
528.161	4.01
528.508	4.05
528.854	3.99
529.201	3.93
529.548	3.92
529.895	3.83
530.242	3.81
530.588	3.84
530.935	3.89
531.282	3.86
531.628	3.92
531.975	3.91
532.321	3.99
532.667	3.99
533.014	4.09
533.36	4.01
533.706	4.01
534.052	4.09
534.399	4.04
534.745	3.93
535.091	3.93
535.437	3.92
535.783	4.06
536.129	4.07
536.474	4.06
536.82	4.18
537.166	3.99
537.512	4.09
537.857	4.11
538.203	4.1
538.549	4.07
538.894	4.12
539.239	4.15
539.585	4.21
539.93	4.21
540.276	4.13
540.621	4.17
540.966	4.2
541.311	4.28
541.656	4.1
542.001	4.15
542.346	4.15
542.691	4.09
543.036	4.02
543.381	4.12
543.726	4.15
544.071	4.13
544.415	4.18
544.76	4.17
545.105	4.23
545.449	4.21
545.794	4.26
546.138	4.2
546.483	4.33
546.827	4.27
547.171	4.36
547.516	4.38
547.86	4.32
548.204	4.39
548.548	4.33
548.892	4.33
549.236	4.3
549.58	4.36
549.924	4.5
550.268	4.5
550.612	4.52
550.956	4.48
551.3	4.6
551.643	4.57
551.987	4.74
552.33	4.64
552.674	4.45
553.017	4.7
553.361	4.54
553.704	4.51
554.048	4.48
554.391	4.52
554.734	4.49
555.077	4.71
555.42	4.45
555.764	4.57
556.107	4.6
556.45	4.62
556.793	4.67
557.135	4.74
557.478	4.64
557.821	4.74
558.164	4.7
558.507	4.68
558.849	4.89
559.192	4.62
559.534	4.74
559.877	4.72
560.219	4.63
560.562	4.51
560.904	5.01
561.246	4.72
561.589	4.98
561.931	4.64
562.273	4.79
562.615	4.68
562.957	4.76
563.299	4.85
563.641	4.76
563.983	4.62
564.325	5.01
564.667	4.78
565.008	4.88
565.35	4.71
565.692	4.84
566.033	4.76
566.375	5.03
566.716	4.74
567.058	4.96
567.399	5.06
567.741	4.85
568.082	4.9
568.423	4.89
568.764	4.95
569.105	5.01
569.447	4.98
569.788	4.9
570.129	5.18
570.47	5.02
570.811	4.97
571.151	4.87
571.492	4.99
571.833	5.13
572.174	5.12
572.514	5.07
572.855	5.23
573.195	5.08
573.536	5.13
573.876	5.15
574.217	5.07
574.557	5.17
574.898	5.17
575.238	5.2
575.578	5.46
575.918	5.24
576.258	5.47
576.598	5.23
576.938	5.1
577.278	5.22
577.618	5.33
577.958	5.27
578.298	5.21
578.638	5.3
578.977	5.45
579.317	5.43
579.657	5.41
579.996	5.49
580.336	5.42
580.675	5.44
581.014	5.63
581.354	5.26
581.693	5.6
582.032	5.75
582.372	5.69
582.711	5.65
583.05	5.42
583.389	5.63
583.728	5.94
584.067	5.48
584.406	5.62
584.745	5.64
585.083	5.77
585.422	5.59
585.761	5.82
586.1	5.79
586.438	5.71
586.777	5.58
587.115	5.81
587.454	5.72
587.792	5.84
588.13	5.73
588.469	5.76
588.807	6.08
589.145	5.99
589.483	5.65
589.821	5.95
590.159	5.83
590.497	5.97
590.835	6.04
591.173	6.2
591.511	5.95
591.849	5.97
592.187	5.85
592.524	6.32
592.862	5.87
593.2	6.14
593.537	5.88
593.875	6
594.212	6.02
594.55	6.07
594.887	6.11
595.224	6.28
595.561	6.11
595.899	6.21
596.236	6.22
596.573	5.86
596.91	6.22
597.247	6.26
597.584	6.37
597.921	6.33
598.258	6.44
598.594	6.12
598.931	6.01
599.268	6.13
599.604	6.44
599.941	6.35
600.277	6.34
600.614	6.42
600.95	6.13
601.287	6.25
601.623	6.2
601.959	6.86
602.296	6.59
602.632	6.66
602.968	6.46
603.304	6.65
603.64	6.65
603.976	6.37
604.312	6.52
604.648	6.61
604.984	6.68
605.319	6.62
605.655	6.58
605.991	6.55
606.326	6.57
606.662	6.32
606.998	6.7
607.333	6.75
607.668	6.53
608.004	6.58
608.339	6.66
608.674	6.84
609.01	7
609.345	6.98
609.68	6.5
610.015	6.87
610.35	7.05
610.685	6.65
611.02	6.85
611.355	6.94
611.689	6.77
612.024	7.16
612.359	7.11
612.694	7.18
613.028	6.84
613.363	6.98
613.697	7.26
614.032	6.97
614.366	6.92
614.7	7.09
615.035	7.22
615.369	7.27
615.703	7.1
616.037	7.13
616.371	7.07
616.705	7.25
617.039	7.02
617.373	7.45
617.707	7.37
618.041	7.01
618.375	6.66
618.709	7.29
619.042	7.47
619.376	7.3
619.71	7.25
620.043	7.7
620.377	7.38
620.71	7.25
621.043	7.68
621.377	7.66
621.71	7.97
622.043	7.48
622.376	7.39
622.709	8.15
623.043	7.77
623.376	7.61
623.709	7.57
624.041	7.34
624.374	7.89
624.707	7.74
625.04	7.9
625.373	8.04
625.705	8.05
626.038	8.11
626.37	7.7
626.703	7.74
627.035	7.87
627.368	8.1
627.7	7.94
628.032	7.77
628.365	8.23
628.697	8.19
629.029	8.12
629.361	7.94
629.693	7.89
630.025	8.24
630.357	8.19
630.689	8.1
631.021	8.36
631.353	8.17
631.684	8.12
632.016	7.93
632.348	7.74
632.679	8.04
633.011	7.95
633.342	8.15
633.674	8.51
634.005	8.29
634.336	8.43
634.668	8.47
634.999	8.16
635.33	8.32
635.661	8.28
635.992	8.62
636.323	8.34
636.654	8.46
636.985	8.4
637.316	8.31
637.647	8.63
637.977	8.46
638.308	8.8
638.639	8.62
638.969	8.67
639.3	8.68
639.63	8.51
639.961	8.97
640.291	8.4
640.622	8.75
640.952	8.93
641.282	8.68
641.612	8.85
641.943	8.65
642.273	8.54
642.603	8.9
642.933	8.91
643.263	9.28
643.592	9.32
643.922	9.44
644.252	8.92
644.582	9.05
644.911	9.15
645.241	8.41
645.571	9.33
645.9	9.31
646.23	8.95
646.559	8.95
646.888	9.25
647.218	9.21
647.547	8.95
647.876	9.44
648.205	9.1
648.534	8.87
648.863	9.02
649.192	9.29
649.521	9.38
649.85	9.47
650.179	9.24
650.508	9.23
650.837	9.38
651.165	9.51
651.494	9.34
651.822	9.41
652.151	8.97
652.479	9.37
652.808	9.55
653.136	9.06
653.465	8.9
653.793	9.3
654.121	9.82
654.449	9.44
654.777	9.04
655.105	9.43
655.433	9.88
655.761	9.57
656.089	10.03
656.417	10.18
656.745	9.99
657.073	10.03
657.4	10.05
657.728	9.48
658.056	9.51
658.383	9.35
658.711	10.13
659.038	10.41
659.365	10.06
659.693	10.03
660.02	9.9
660.347	10.15
660.674	9.84
661.001	9.98
661.329	9.86
661.656	9.83
661.982	9.57
662.309	9.95
662.636	10.1
662.963	10.15
663.29	10.23
663.616	9.81
663.943	10.26
664.27	9.65
664.596	9.91
664.923	10.42
665.249	10.32
665.576	10.25
665.902	9.74
666.228	10.27
666.554	10.55
666.881	10.02
667.207	10.02
667.533	10.67
667.859	10.51
668.185	10.6
668.511	10.58
668.837	10.61
669.162	10.5
669.488	10.32
669.814	10.83
670.139	10.23
670.465	11.23
670.791	10.62
671.116	10.51
671.442	10.06
671.767	10.81
672.092	10.92
672.418	11.01
672.743	10.66
673.068	10.61
673.393	11.16
673.718	10.64
674.043	10.86
674.368	10.39
674.693	10.96
675.018	11.06
675.343	11.08
675.667	11.22
675.992	11.16
676.317	10.29
676.641	10.93
676.966	10.7
677.29	10.91
677.615	10.96
677.939	11.18
678.264	11.26
678.588	11.18
678.912	11.58
679.236	10.59
679.56	10.52
679.885	10.94
680.209	11.85
680.532	12.28
680.856	11.38
681.18	11.95
681.504	11.28
681.828	11.19
682.152	11.76
682.475	11.28
682.799	11.1
683.122	11.48
683.446	10.93
683.769	11.59
684.093	12.03
684.416	10.76
684.739	11.29
685.062	11.49
685.386	11.87
685.709	11.51
686.032	11.98
686.355	11.57
686.678	12.35
687.001	11.72
687.324	11.89
687.646	12.35
687.969	11.39
688.292	11.73
688.614	12.24
688.937	11.8
689.26	12.07
689.582	11.86
