Data from 21-2_chest_Reflection__4__170.txt Node

Date: Thu Dec 15 17:48:34 CST 2022
User: ToomeyLab
Spectrometer: FLMS14357
Trigger mode: 0
Integration Time (sec): 1.000000E-2
Scans to average: 100
Electric dark correction enabled: true
Nonlinearity correction enabled: false
Boxcar width: 0
XAxis mode: Wavelengths
Number of Pixels in Spectrum: 2048
>>>>>Begin Spectral Data<<<<<
189.047	-109.67
189.435	-109.67
189.823	-109.67
190.211	-92.02
190.599	1450
190.987	-48.1
191.375	-322.8
191.763	-318.62
192.151	284.95
192.538	14.85
192.926	17.05
193.314	99.19
193.702	-150.92
194.089	105.7
194.477	21.1
194.864	81.76
195.252	410.73
195.639	133.15
196.027	-9005.17
196.414	203.95
196.801	116.67
197.189	11.87
197.576	24.16
197.963	1935.56
198.351	-6.56
198.738	-38.05
199.125	9.81
199.512	7.35
199.899	-11.01
200.286	20.61
200.673	46.8
201.06	-4.26
201.447	10.07
201.833	16.3
202.22	20.42
202.607	-52.68
202.994	34.93
203.38	23.36
203.767	23.6
204.154	38.21
204.54	-2.55
204.927	12.02
205.313	29.57
205.699	17.55
206.086	37.46
206.472	22.65
206.858	-17.47
207.245	5.56
207.631	-11.35
208.017	18.34
208.403	-46.9
208.789	-13.64
209.175	-27.8
209.561	-34.98
209.947	-41.25
210.333	-1.77
210.719	-8.12
211.105	25.58
211.491	-1.38
211.876	-5.67
212.262	3.81
212.648	22.25
213.034	-5.23
213.419	-12.8
213.805	-32.01
214.19	-4.28
214.576	15.55
214.961	7.27
215.346	-35.47
215.732	9.6
216.117	4.13
216.502	-11.74
216.888	2.54
217.273	0.73
217.658	3.9
218.043	-16.08
218.428	-25.08
218.813	0.75
219.198	-21.35
219.583	-4.2
219.968	11.92
220.353	-16.01
220.738	-7.41
221.122	2.74
221.507	-6.88
221.892	-22.96
222.276	-34.46
222.661	-2.26
223.046	-24.7
223.43	8.54
223.815	-8.3
224.199	0.76
224.583	3.37
224.968	2.41
225.352	-4.22
225.736	6.52
226.121	2.2
226.505	-3.99
226.889	1.3
227.273	-6.9
227.657	3.2
228.041	-0.82
228.425	-0.87
228.809	-2.04
229.193	2.27
229.577	2.12
229.961	1.52
230.344	2.25
230.728	2.32
231.112	1.98
231.495	0.41
231.879	1.47
232.263	2.4
232.646	3.15
233.03	3.5
233.413	2.91
233.797	-0.26
234.18	1.95
234.563	0.84
234.946	-0.05
235.33	2.3
235.713	3.33
236.096	1.56
236.479	3.21
236.862	0.86
237.245	1
237.628	1.98
238.011	1.53
238.394	0.01
238.777	1.37
239.16	2.17
239.543	3.91
239.925	2.93
240.308	1.04
240.691	0.75
241.073	1.53
241.456	3.19
241.838	2.31
242.221	2.41
242.603	2.33
242.986	2.97
243.368	2.67
243.75	2.58
244.133	2.72
244.515	2.7
244.897	2.45
245.279	2.25
245.661	2.98
246.043	3.08
246.425	2.7
246.807	2.74
247.189	2.54
247.571	2
247.953	2.43
248.335	2.56
248.717	2.54
249.098	2.61
249.48	2.49
249.862	2.34
250.243	2.68
250.625	2.99
251.006	4.16
251.388	2.43
251.769	3.14
252.151	3.05
252.532	2.01
252.913	2.57
253.295	2.55
253.676	2.93
254.057	2.65
254.438	2.28
254.819	2.66
255.2	2.46
255.581	4.06
255.962	2.14
256.343	3.08
256.724	2.41
257.105	3.19
257.486	1.43
257.867	1.64
258.247	2.25
258.628	2.13
259.009	2.59
259.389	2.15
259.77	2.31
260.15	3.14
260.531	2.37
260.911	2.3
261.292	2.62
261.672	2.52
262.052	2.56
262.432	2.19
262.813	2.17
263.193	3.03
263.573	2.52
263.953	2.09
264.333	2.81
264.713	2.45
265.093	2.33
265.473	2.01
265.853	2.07
266.233	1.82
266.612	2.37
266.992	2.06
267.372	2.94
267.752	2.46
268.131	2.07
268.511	2.18
268.89	2.92
269.27	1.81
269.649	1.79
270.029	2.06
270.408	2.1
270.787	2.23
271.167	2.57
271.546	3.13
271.925	2.74
272.304	2.6
272.683	2.11
273.062	2.42
273.441	2.12
273.82	2.11
274.199	1.92
274.578	2.64
274.957	2.41
275.336	2.32
275.715	2.74
276.093	1.92
276.472	2.22
276.851	2.59
277.229	1.96
277.608	2.02
277.986	2.25
278.365	2.62
278.743	2.48
279.122	1.97
279.5	2.64
279.878	2.21
280.257	1.72
280.635	2.39
281.013	1.88
281.391	2.16
281.769	2.47
282.147	2.13
282.525	2.21
282.903	1.97
283.281	2.88
283.659	2.12
284.037	2.23
284.415	2.16
284.792	2.48
285.17	2.22
285.548	1.97
285.925	1.91
286.303	2.64
286.68	2.17
287.058	2.41
287.435	2.24
287.813	2.5
288.19	2.31
288.567	2.27
288.945	2.43
289.322	2.42
289.699	2.59
290.076	2.27
290.453	2.18
290.83	2.31
291.207	2.81
291.584	2.67
291.961	2.67
292.338	2.34
292.715	2.23
293.092	2.99
293.469	2.4
293.845	2.56
294.222	3.15
294.599	2.39
294.975	2.07
295.352	2.84
295.728	3.06
296.105	2.66
296.481	3.05
296.858	3.03
297.234	2.5
297.61	2.88
297.986	3.16
298.363	3.04
298.739	3.23
299.115	2.9
299.491	3.18
299.867	3.04
300.243	2.86
300.619	2.67
300.995	3.14
301.371	3.13
301.746	2.78
302.122	2.73
302.498	3.23
302.874	3.17
303.249	3.17
303.625	2.75
304	2.94
304.376	3.15
304.751	3.05
305.127	2.53
305.502	3.09
305.878	3.2
306.253	2.71
306.628	3.22
307.003	3.11
307.378	2.81
307.754	3.3
308.129	3.03
308.504	2.84
308.879	2.58
309.254	3.3
309.629	3.41
310.003	3.19
310.378	3.42
310.753	3.51
311.128	2.93
311.502	3.39
311.877	3.36
312.252	2.99
312.626	3.6
313.001	3.45
313.375	3.6
313.75	3.26
314.124	3.58
314.498	3.41
314.873	2.98
315.247	3.21
315.621	3.35
315.995	3.41
316.369	2.64
316.743	3
317.117	3.23
317.491	3.31
317.865	2.71
318.239	3.91
318.613	3.19
318.987	3.07
319.361	3.04
319.734	3.3
320.108	3.25
320.482	3.61
320.855	3.54
321.229	3.3
321.602	3.69
321.976	2.86
322.349	4.08
322.723	3.48
323.096	3.82
323.469	3.29
323.843	2.8
324.216	3.33
324.589	3.11
324.962	3.58
325.335	3.23
325.708	3.37
326.081	3.25
326.454	3.6
326.827	3.97
327.2	3.11
327.573	4.13
327.945	2.87
328.318	3.69
328.691	3.38
329.063	3.3
329.436	3.48
329.809	3.68
330.181	4.18
330.553	3.66
330.926	3.81
331.298	3.3
331.671	3.93
332.043	3.16
332.415	3.22
332.787	3.48
333.159	3.59
333.532	3.43
333.904	3.75
334.276	3.73
334.648	4.03
335.02	3.28
335.391	3.58
335.763	3.77
336.135	3.96
336.507	3.5
336.879	3.63
337.25	3.55
337.622	3.71
337.993	3.39
338.365	3.66
338.736	3.83
339.108	4.13
339.479	3.72
339.851	3.78
340.222	4.23
340.593	3.36
340.964	4.06
341.336	3.4
341.707	3.76
342.078	3.79
342.449	3.72
342.82	3.55
343.191	3.73
343.562	3.55
343.933	3.71
344.303	3.93
344.674	3.65
345.045	3.61
345.416	3.98
345.786	3.39
346.157	3.54
346.527	3.87
346.898	3.2
347.268	3.7
347.639	3.51
348.009	4.05
348.38	3.4
348.75	3.63
349.12	3.72
349.49	3.94
349.861	3.81
350.231	3.83
350.601	3.77
350.971	3.43
351.341	3.76
351.711	3.73
352.081	3.42
352.45	3.5
352.82	3.49
353.19	3.69
353.56	3.4
353.929	3.71
354.299	3.68
354.669	3.71
355.038	4.01
355.408	3.63
355.777	3.78
356.147	3.8
356.516	3.88
356.885	3.71
357.254	3.56
357.624	3.57
357.993	3.86
358.362	3.71
358.731	3.71
359.1	3.71
359.469	3.88
359.838	3.98
360.207	3.68
360.576	3.89
360.945	3.97
361.314	3.81
361.682	3.58
362.051	3.91
362.42	3.76
362.788	3.77
363.157	3.54
363.525	3.79
363.894	3.67
364.262	3.84
364.631	4.12
364.999	3.9
365.367	3.74
365.735	3.7
366.104	3.95
366.472	4.05
366.84	4
367.208	4.12
367.576	3.78
367.944	3.81
368.312	3.98
368.68	4.09
369.048	3.87
369.416	3.49
369.783	3.7
370.151	4.34
370.519	4.2
370.886	4.01
371.254	4.02
371.621	4.1
371.989	3.76
372.356	3.81
372.724	3.8
373.091	3.73
373.458	4
373.826	4.23
374.193	3.77
374.56	3.88
374.927	3.8
375.294	4.15
375.661	4.24
376.028	3.61
376.395	3.86
376.762	3.72
377.129	3.87
377.496	4.13
377.863	4.05
378.229	4.18
378.596	4.32
378.963	3.97
379.329	4.27
379.696	4.06
380.062	4.03
380.429	3.98
380.795	4.01
381.161	3.6
381.528	3.83
381.894	3.92
382.26	4.1
382.626	4.3
382.993	4.38
383.359	4.06
383.725	3.58
384.091	4.07
384.457	3.58
384.823	4.02
385.188	4.1
385.554	4.11
385.92	3.87
386.286	3.91
386.651	3.91
387.017	4.38
387.383	3.92
387.748	4.36
388.114	4.21
388.479	4.25
388.845	3.92
389.21	4.12
389.575	4.22
389.94	4.41
390.306	4.23
390.671	4.09
391.036	4.05
391.401	4.21
391.766	3.95
392.131	4.28
392.496	4.14
392.861	4.15
393.226	3.86
393.591	4.32
393.956	4.21
394.32	4.05
394.685	4.23
395.05	4.37
395.414	4.1
395.779	4.32
396.143	4.07
396.508	4.31
396.872	4.16
397.236	4.49
397.601	4.14
397.965	4.07
398.329	4.35
398.694	3.93
399.058	4.09
399.422	4.13
399.786	4.18
400.15	4.09
400.514	4.36
400.878	4.17
401.242	4.26
401.605	4.34
401.969	3.98
402.333	3.87
402.697	4.58
403.06	4.19
403.424	4.25
403.787	4.06
404.151	4.36
404.514	4.37
404.878	4.21
405.241	4.35
405.604	4.2
405.968	4.35
406.331	4.22
406.694	4.3
407.057	4.15
407.42	4.33
407.783	4.28
408.146	4.13
408.509	4.33
408.872	4.26
409.235	4.23
409.598	4.21
409.961	4.39
410.323	4.41
410.686	4.31
411.049	4.54
411.411	4.4
411.774	4.29
412.136	4.24
412.499	4.3
412.861	3.88
413.223	4.04
413.586	4.35
413.948	4.34
414.31	4.31
414.672	4.29
415.035	4.51
415.397	4.05
415.759	4.13
416.121	4.5
416.483	4.19
416.845	4.27
417.206	4.29
417.568	4.2
417.93	4.24
418.292	4.09
418.653	4.06
419.015	4.34
419.377	4.23
419.738	4.47
420.1	4.23
420.461	4.19
420.822	4.37
421.184	4.33
421.545	4.32
421.906	4.27
422.267	4.18
422.629	4.19
422.99	4.24
423.351	4.25
423.712	4.29
424.073	4.45
424.434	4.37
424.795	4.2
425.155	4.23
425.516	4.27
425.877	4.29
426.238	4.22
426.598	4.21
426.959	4.38
427.32	4.36
427.68	4.4
428.041	4.5
428.401	4.29
428.761	4.38
429.122	4.36
429.482	4.46
429.842	4.4
430.202	4.51
430.563	4.43
430.923	4.55
431.283	4.38
431.643	4.41
432.003	4.6
432.363	4.57
432.722	4.62
433.082	4.44
433.442	4.53
433.802	4.45
434.161	4.47
434.521	4.53
434.881	4.5
435.24	4.45
435.6	4.6
435.959	4.62
436.319	4.46
436.678	4.66
437.037	4.51
437.396	4.38
437.756	4.41
438.115	4.44
438.474	4.59
438.833	4.52
439.192	4.55
439.551	4.47
439.91	4.51
440.269	4.45
440.628	4.48
440.987	4.48
441.345	4.57
441.704	4.49
442.063	4.47
442.421	4.55
442.78	4.51
443.138	4.55
443.497	4.5
443.855	4.65
444.214	4.36
444.572	4.68
444.93	4.57
445.288	4.55
445.647	4.45
446.005	4.56
446.363	4.45
446.721	4.5
447.079	4.54
447.437	4.59
447.795	4.56
448.153	4.49
448.51	4.55
448.868	4.47
449.226	4.6
449.584	4.52
449.941	4.59
450.299	4.57
450.656	4.66
451.014	4.68
451.371	4.72
451.729	4.66
452.086	4.65
452.443	4.73
452.801	4.63
453.158	4.81
453.515	4.69
453.872	4.66
454.229	4.62
454.586	4.59
454.943	4.76
455.3	4.77
455.657	4.69
456.014	4.69
456.371	4.76
456.727	4.89
457.084	4.94
457.441	4.79
457.797	4.64
458.154	4.8
458.51	4.61
458.867	4.72
459.223	4.64
459.58	4.81
459.936	4.78
460.292	4.65
460.648	4.57
461.005	4.67
461.361	4.64
461.717	4.82
462.073	4.82
462.429	4.78
462.785	4.91
463.141	4.85
463.496	4.87
463.852	4.98
464.208	4.83
464.564	4.71
464.919	4.92
465.275	4.77
465.631	5.07
465.986	5.08
466.342	4.78
466.697	4.79
467.052	5
467.408	5.03
467.763	4.78
468.118	4.71
468.473	4.98
468.829	4.75
469.184	4.86
469.539	4.8
469.894	4.91
470.249	4.9
470.603	5.03
470.958	5.02
471.313	5.01
471.668	5.07
472.023	5.08
472.377	4.86
472.732	4.9
473.086	5.06
473.441	4.96
473.795	5.17
474.15	4.96
474.504	4.91
474.859	4.85
475.213	4.99
475.567	4.96
475.921	4.96
476.275	5.11
476.63	5.06
476.984	4.71
477.338	5.01
477.692	4.98
478.045	5.04
478.399	5.02
478.753	5.13
479.107	5.15
479.461	5.02
479.814	5.07
480.168	5.06
480.521	5.18
480.875	5.2
481.228	5.01
481.582	5.02
481.935	5.08
482.289	5.15
482.642	5.21
482.995	5.11
483.348	5.01
483.701	5.06
484.055	5.06
484.408	5.02
484.761	4.93
485.114	4.78
485.466	4.79
485.819	4.8
486.172	4.89
486.525	4.85
486.878	4.98
487.23	4.99
487.583	5.01
487.936	4.99
488.288	4.99
488.641	4.96
488.993	4.92
489.345	4.93
489.698	4.93
490.05	4.96
490.402	4.98
490.754	5.02
491.107	5.01
491.459	5.14
491.811	5.16
492.163	5.11
492.515	5.06
492.866	5.06
493.218	5.05
493.57	5.08
493.922	5.18
494.274	5.21
494.625	5.3
494.977	5.18
495.328	5.24
495.68	5.35
496.031	5.33
496.383	5.26
496.734	5.25
497.086	5.45
497.437	5.35
497.788	5.4
498.139	5.43
498.49	5.35
498.842	5.43
499.193	5.39
499.544	5.34
499.894	5.28
500.245	5.41
500.596	5.47
500.947	5.43
501.298	5.35
501.648	5.41
501.999	5.5
502.35	5.44
502.7	5.72
503.051	5.42
503.401	5.53
503.752	5.39
504.102	5.48
504.452	5.49
504.803	5.47
505.153	5.63
505.503	5.64
505.853	5.71
506.203	5.67
506.553	5.59
506.903	5.54
507.253	5.61
507.603	5.59
507.953	5.55
508.303	5.69
508.652	5.53
509.002	5.6
509.352	5.7
509.701	5.51
510.051	5.63
510.4	5.66
510.75	5.63
511.099	5.55
511.449	5.69
511.798	5.55
512.147	5.68
512.496	5.73
512.846	5.75
513.195	5.78
513.544	5.76
513.893	5.73
514.242	5.57
514.591	5.78
514.939	5.78
515.288	5.83
515.637	5.77
515.986	5.85
516.334	5.78
516.683	5.81
517.032	5.87
517.38	5.8
517.729	5.86
518.077	5.8
518.426	5.84
518.774	5.8
519.122	5.91
519.47	5.77
519.819	5.92
520.167	5.77
520.515	5.89
520.863	5.83
521.211	5.79
521.559	5.82
521.907	5.9
522.255	5.92
522.602	6.01
522.95	6
523.298	5.95
523.645	5.91
523.993	5.95
524.341	6.07
524.688	6.09
525.036	6.11
525.383	6.05
525.73	6.05
526.078	6.13
526.425	6.05
526.772	6.05
527.119	6.03
527.466	6.1
527.814	6.15
528.161	6.07
528.508	6.18
528.854	6.1
529.201	5.99
529.548	5.98
529.895	5.95
530.242	5.97
530.588	5.98
530.935	6.01
531.282	6.02
531.628	6.07
531.975	6.14
532.321	6.24
532.667	6.23
533.014	6.39
533.36	6.31
533.706	6.37
534.052	6.33
534.399	6.29
534.745	6.21
535.091	6.18
535.437	6.25
535.783	6.27
536.129	6.32
536.474	6.45
536.82	6.49
537.166	6.43
537.512	6.44
537.857	6.49
538.203	6.47
538.549	6.43
538.894	6.42
539.239	6.66
539.585	6.57
539.93	6.62
540.276	6.52
540.621	6.64
540.966	6.68
541.311	6.77
541.656	6.71
542.001	6.59
542.346	6.53
542.691	6.49
543.036	6.61
543.381	6.58
543.726	6.68
544.071	6.64
544.415	6.62
544.76	6.73
545.105	6.73
545.449	6.8
545.794	6.81
546.138	6.84
546.483	6.93
546.827	6.84
547.171	6.95
547.516	7
547.86	7
548.204	7.05
548.548	6.92
548.892	7.06
549.236	6.98
549.58	7.05
549.924	7.19
550.268	7.29
550.612	7.24
550.956	7.28
551.3	7.45
551.643	7.26
551.987	7.32
552.33	7.59
552.674	7.34
553.017	7.5
553.361	7.44
553.704	7.24
554.048	7.4
554.391	7.54
554.734	7.34
555.077	7.39
555.42	7.47
555.764	7.54
556.107	7.67
556.45	7.72
556.793	7.68
557.135	7.62
557.478	7.69
557.821	7.82
558.164	7.79
558.507	7.5
558.849	7.89
559.192	7.78
559.534	7.86
559.877	7.8
560.219	7.78
560.562	7.94
560.904	8.01
561.246	7.69
561.589	7.96
561.931	8
562.273	7.97
562.615	7.85
562.957	8
563.299	8.01
563.641	8.09
563.983	7.98
564.325	7.92
564.667	8.15
565.008	8.18
565.35	7.93
565.692	8.24
566.033	8.26
566.375	8.21
566.716	8.14
567.058	8.17
567.399	8.4
567.741	8.38
568.082	8.26
568.423	8.23
568.764	8.23
569.105	8.3
569.447	8.3
569.788	8.32
570.129	8.33
570.47	8.55
570.811	8.48
571.151	8.57
571.492	8.53
571.833	8.51
572.174	8.57
572.514	8.53
572.855	8.64
573.195	8.62
573.536	8.72
573.876	8.63
574.217	8.74
574.557	8.82
574.898	8.59
575.238	8.93
575.578	8.96
575.918	8.82
576.258	9.05
576.598	8.84
576.938	8.74
577.278	8.95
577.618	8.85
577.958	9.14
578.298	9.12
578.638	8.88
578.977	9.09
579.317	9.31
579.657	9.11
579.996	9.12
580.336	9.42
580.675	9.34
581.014	9.34
581.354	9.21
581.693	9.48
582.032	9.49
582.372	9.39
582.711	9.5
583.05	9.48
583.389	9.77
583.728	9.47
584.067	9.56
584.406	9.77
584.745	9.27
585.083	9.41
585.422	9.97
585.761	9.71
586.1	9.87
586.438	9.83
586.777	9.81
587.115	9.91
587.454	9.91
587.792	9.76
588.13	9.93
588.469	9.81
588.807	10.03
589.145	10.17
589.483	9.84
589.821	10.28
590.159	10.15
590.497	9.97
590.835	10.12
591.173	10.24
591.511	10.4
591.849	10.29
592.187	10.29
592.524	10.27
592.862	10.1
593.2	10.31
593.537	10.22
593.875	10.55
594.212	10.47
594.55	10.62
594.887	10.62
595.224	10.5
595.561	10.55
595.899	10.63
596.236	10.71
596.573	10.48
596.91	10.45
597.247	10.78
597.584	10.78
597.921	10.7
598.258	10.76
598.594	10.66
598.931	10.63
599.268	10.54
599.604	10.75
599.941	10.93
600.277	10.86
600.614	10.91
600.95	10.92
601.287	10.84
601.623	10.8
601.959	11.38
602.296	10.76
602.632	11.06
602.968	11.37
603.304	11.32
603.64	11.2
603.976	10.91
604.312	11.18
604.648	11.1
604.984	11.46
605.319	11.17
605.655	11.33
605.991	11.3
606.326	11.24
606.662	11.32
606.998	11.59
607.333	11.5
607.668	11.36
608.004	11.51
608.339	11.77
608.674	11.92
609.01	11.86
609.345	11.71
609.68	11.66
610.015	11.82
610.35	11.74
610.685	11.47
611.02	11.65
611.355	11.97
611.689	11.88
612.024	12
612.359	11.97
612.694	12.11
613.028	11.8
613.363	12.02
613.697	12.15
614.032	12.1
614.366	12.34
614.7	12.1
615.035	12.32
615.369	12.65
615.703	12.37
616.037	12.25
616.371	12.2
616.705	12.53
617.039	12.61
617.373	12.78
617.707	12.31
618.041	12.4
618.375	11.81
618.709	12.72
619.042	12.62
619.376	12.7
619.71	12.43
620.043	12.92
620.377	12.6
620.71	12.79
621.043	12.8
621.377	12.82
621.71	13.2
622.043	13.02
622.376	12.85
622.709	13.45
623.043	12.98
623.376	12.7
623.709	13.04
624.041	13.2
624.374	13.28
624.707	13.2
625.04	13.22
625.373	13.4
625.705	13.53
626.038	13.3
626.37	13.23
626.703	13.3
627.035	13.49
627.368	13.83
627.7	13.55
628.032	13.36
628.365	13.6
628.697	13.69
629.029	13.5
629.361	13.68
629.693	13.54
630.025	13.38
630.357	13.69
630.689	13.79
631.021	13.86
631.353	14.07
631.684	13.89
632.016	13.88
632.348	13.89
632.679	14.09
633.011	14.13
633.342	14.06
633.674	13.96
634.005	14.06
634.336	13.89
634.668	14.21
634.999	14.26
635.33	14.36
635.661	14.05
635.992	14.1
636.323	13.98
636.654	14.17
636.985	14.19
637.316	13.99
637.647	14.22
637.977	13.8
638.308	14.58
638.639	14.24
638.969	14.48
639.3	14.99
639.63	14.32
639.961	14.66
640.291	14.73
640.622	14.67
640.952	15.01
641.282	14.39
641.612	14.41
641.943	14.72
642.273	14.6
642.603	15.21
642.933	15.3
643.263	15.27
643.592	15.11
643.922	15.69
644.252	15
644.582	14.75
644.911	15.04
645.241	15.25
645.571	14.81
645.9	15.26
646.23	15.23
646.559	14.93
646.888	14.94
647.218	14.84
647.547	15.11
647.876	15.12
648.205	15.19
648.534	15.18
648.863	15.54
649.192	15.36
649.521	15.9
649.85	15.47
650.179	15.72
650.508	15.32
650.837	15.65
651.165	15.92
651.494	15.97
651.822	15.83
652.151	15.58
652.479	15.73
652.808	15.62
653.136	15.55
653.465	15.68
653.793	15.88
654.121	16.06
654.449	16.25
654.777	15.8
655.105	15.89
655.433	16.2
655.761	16.39
656.089	16.45
656.417	16.57
656.745	16.45
657.073	16.21
657.4	15.8
657.728	15.96
658.056	15.89
658.383	16.36
658.711	16.33
659.038	16.76
659.365	16.65
659.693	16.66
660.02	16.45
660.347	16.16
660.674	16.53
661.001	16.53
661.329	16.54
661.656	16.4
661.982	16.48
662.309	16.63
662.636	16.52
662.963	16.31
663.29	16.68
663.616	16.93
663.943	16.91
664.27	16.66
664.596	16.61
664.923	16.94
665.249	16.88
665.576	17.2
665.902	16.59
666.228	17.25
666.554	17.13
666.881	16.44
667.207	16.99
667.533	17.03
667.859	17.04
668.185	17.41
668.511	17.57
668.837	17.17
669.162	17.02
669.488	16.87
669.814	17.45
670.139	16.51
670.465	17.18
670.791	16.73
671.116	17.06
671.442	17
671.767	17.18
672.092	17.43
672.418	17.36
672.743	17.75
673.068	17.24
673.393	17.6
673.718	17.64
674.043	16.85
674.368	17.28
674.693	18.28
675.018	18.26
675.343	18.45
675.667	18.02
675.992	17.55
676.317	17.65
676.641	17.68
676.966	17.69
677.29	17.56
677.615	17.07
677.939	18.54
678.264	18.4
678.588	18.18
678.912	17.51
679.236	18.19
679.56	17.31
679.885	18
680.209	18.6
680.532	19.3
680.856	19.02
681.18	19.04
681.504	18.56
681.828	18.04
682.152	18.43
682.475	18.38
682.799	18.57
683.122	18.27
683.446	17.86
683.769	19
684.093	19.02
684.416	18.32
684.739	17.92
685.062	19
685.386	18.76
685.709	18.82
686.032	19.32
686.355	18.21
