Data from 21-2_chest_Reflection__0__166.txt Node

Date: Thu Dec 15 17:47:40 CST 2022
User: ToomeyLab
Spectrometer: FLMS14357
Trigger mode: 0
Integration Time (sec): 1.000000E-2
Scans to average: 100
Electric dark correction enabled: true
Nonlinearity correction enabled: false
Boxcar width: 0
XAxis mode: Wavelengths
Number of Pixels in Spectrum: 2048
>>>>>Begin Spectral Data<<<<<
189.047	-46.56
189.435	-46.56
189.823	-46.56
190.211	74.83
190.599	583.44
190.987	57.35
191.375	-188.8
191.763	-311.38
192.151	-53.59
192.538	51.58
192.926	171.19
193.314	307.26
193.702	183.98
194.089	-5.31
194.477	4.33
194.864	81.32
195.252	-418.26
195.639	79.69
196.027	-7241.38
196.414	-145.96
196.801	236.26
197.189	98.36
197.576	-19.73
197.963	434.22
198.351	9.59
198.738	-148.28
199.125	-65.25
199.512	4.19
199.899	-23.68
200.286	-24.33
200.673	9.1
201.06	-29.28
201.447	10.41
201.833	16.04
202.22	-79.34
202.607	20.41
202.994	25.22
203.38	-41.58
203.767	-26.44
204.154	9.59
204.54	7.09
204.927	-37.49
205.313	19.32
205.699	0.06
206.086	24.63
206.472	28.55
206.858	4.13
207.245	13.13
207.631	-16.85
208.017	27.48
208.403	-29.57
208.789	16.87
209.175	5.54
209.561	-71.51
209.947	-41.79
210.333	8.01
210.719	15.16
211.105	17.65
211.491	17.98
211.876	-19.64
212.262	30.56
212.648	14.98
213.034	-3.18
213.419	-3.44
213.805	-18.74
214.19	-30.75
214.576	-24.5
214.961	7.35
215.346	-7.07
215.732	-9.89
216.117	-14.2
216.502	-22.96
216.888	24.75
217.273	-0.95
217.658	-11.61
218.043	-14.89
218.428	5.35
218.813	0.49
219.198	-29.3
219.583	-34.38
219.968	18.99
220.353	-14.03
220.738	0.81
221.122	-11.3
221.507	-8.78
221.892	-9.78
222.276	-32.07
222.661	-18.9
223.046	-22.16
223.43	20.55
223.815	-1.1
224.199	1.06
224.583	-10.04
224.968	-3.95
225.352	-2.19
225.736	7.81
226.121	2.3
226.505	-6.07
226.889	-3.04
227.273	-4.38
227.657	0.91
228.041	3.2
228.425	-0.17
228.809	0.07
229.193	1.02
229.577	1.4
229.961	1.16
230.344	1.65
230.728	2.52
231.112	2.44
231.495	0.08
231.879	1.51
232.263	1.38
232.646	1.81
233.03	2.7
233.413	2.2
233.797	1.1
234.18	-0.44
234.563	3.26
234.946	2.06
235.33	0
235.713	1.3
236.096	2.45
236.479	1.84
236.862	-0.22
237.245	1.05
237.628	1.57
238.011	0.63
238.394	0.86
238.777	1.79
239.16	1.64
239.543	2.59
239.925	0.72
240.308	1.08
240.691	0.5
241.073	1.6
241.456	0.79
241.838	1.9
242.221	2
242.603	2.34
242.986	1.94
243.368	2.26
243.75	2.15
244.133	2.34
244.515	1.97
244.897	1.44
245.279	1.61
245.661	1.76
246.043	1.06
246.425	1.93
246.807	2.18
247.189	1.39
247.571	1.32
247.953	1.55
248.335	2.33
248.717	2.15
249.098	2.18
249.48	1.9
249.862	1.77
250.243	1.94
250.625	2.43
251.006	2.65
251.388	1.34
251.769	0.94
252.151	3.45
252.532	1.24
252.913	1.79
253.295	1.5
253.676	2.1
254.057	2.18
254.438	1.91
254.819	1.26
255.2	1.55
255.581	3.05
255.962	2.67
256.343	1.76
256.724	2.18
257.105	2.11
257.486	1.07
257.867	2.45
258.247	2.69
258.628	1.71
259.009	1.54
259.389	1.6
259.77	2.17
260.15	2.4
260.531	2.22
260.911	1.88
261.292	1.99
261.672	2.07
262.052	2.17
262.432	1.86
262.813	1.81
263.193	2.23
263.573	2.07
263.953	1.6
264.333	2.27
264.713	2.29
265.093	1.8
265.473	0.95
265.853	1.91
266.233	2.26
266.612	1.3
266.992	1.68
267.372	1.88
267.752	2.14
268.131	2.26
268.511	1.86
268.89	2.12
269.27	1.11
269.649	1.4
270.029	1.44
270.408	1.03
270.787	2.17
271.167	2.36
271.546	1.99
271.925	1.78
272.304	1.47
272.683	1.41
273.062	1.9
273.441	1.57
273.82	2.16
274.199	1.74
274.578	1.97
274.957	1.78
275.336	1.63
275.715	2.18
276.093	1.57
276.472	1.5
276.851	2
277.229	1.5
277.608	1.7
277.986	1.94
278.365	1.81
278.743	1.96
279.122	1.75
279.5	1.6
279.878	1.23
280.257	1.49
280.635	1.94
281.013	1.72
281.391	1.44
281.769	2.43
282.147	1.88
282.525	1.46
282.903	1.56
283.281	2.03
283.659	2.04
284.037	1.82
284.415	1.73
284.792	1.73
285.17	1.52
285.548	1.55
285.925	1.79
286.303	2.13
286.68	1.69
287.058	2.05
287.435	1.55
287.813	1.71
288.19	1.53
288.567	1.57
288.945	1.8
289.322	2.09
289.699	1.91
290.076	1.8
290.453	1.57
290.83	2.08
291.207	1.65
291.584	1.95
291.961	1.88
292.338	1.85
292.715	1.43
293.092	1.95
293.469	1.85
293.845	2.03
294.222	2.3
294.599	1
294.975	1.47
295.352	2.08
295.728	1.72
296.105	1.74
296.481	2.29
296.858	1.99
297.234	1.67
297.61	1.79
297.986	2.24
298.363	1.88
298.739	2.19
299.115	2.1
299.491	2.4
299.867	1.69
300.243	1.77
300.619	1.52
300.995	2.13
301.371	2.51
301.746	2.13
302.122	1.77
302.498	1.93
302.874	2.26
303.249	2.26
303.625	1.41
304	1.61
304.376	2.54
304.751	1.95
305.127	1.74
305.502	2.21
305.878	2.1
306.253	1.66
306.628	2.29
307.003	1.71
307.378	1.43
307.754	2.17
308.129	1.82
308.504	1.85
308.879	2.42
309.254	2.11
309.629	1.73
310.003	1.91
310.378	2.15
310.753	2.23
311.128	1.87
311.502	2.25
311.877	1.51
312.252	2.18
312.626	2.48
313.001	2.63
313.375	2.42
313.75	2.56
314.124	2.43
314.498	2.52
314.873	1.75
315.247	2.04
315.621	1.89
315.995	1.7
316.369	1.95
316.743	1.83
317.117	1.97
317.491	2.08
317.865	1.51
318.239	2.32
318.613	2.28
318.987	2.04
319.361	2.32
319.734	1.89
320.108	2
320.482	2.23
320.855	2.45
321.229	2.21
321.602	1.83
321.976	1.64
322.349	2.64
322.723	1.94
323.096	2.04
323.469	1.81
323.843	1.75
324.216	2.09
324.589	2.47
324.962	2.28
325.335	2.01
325.708	2.34
326.081	2.27
326.454	2.46
326.827	2.07
327.2	2.31
327.573	2.33
327.945	2.04
328.318	1.97
328.691	2.09
329.063	1.45
329.436	1.66
329.809	2.59
330.181	2.46
330.553	2.86
330.926	2.4
331.298	2.03
331.671	2.21
332.043	1.87
332.415	2.57
332.787	2.26
333.159	2.16
333.532	2.22
333.904	2.71
334.276	2.3
334.648	2.51
335.02	1.83
335.391	2.37
335.763	2.33
336.135	2.39
336.507	1.73
336.879	1.91
337.25	2.09
337.622	2.43
337.993	2.34
338.365	2.22
338.736	2.35
339.108	2.32
339.479	2.37
339.851	2.42
340.222	2.56
340.593	2.21
340.964	2.21
341.336	1.86
341.707	2.28
342.078	1.93
342.449	2.41
342.82	2.52
343.191	2.44
343.562	2.23
343.933	2.34
344.303	2.31
344.674	2.14
345.045	2.47
345.416	2.49
345.786	2.27
346.157	2.02
346.527	2.31
346.898	1.96
347.268	1.87
347.639	2.49
348.009	2.42
348.38	1.81
348.75	2.73
349.12	2.3
349.49	2.67
349.861	2.35
350.231	2.41
350.601	2.12
350.971	1.74
351.341	2.45
351.711	2.25
352.081	2.02
352.45	2.03
352.82	2.03
353.19	2.51
353.56	2.27
353.929	2.36
354.299	2.25
354.669	2.26
355.038	2.4
355.408	2.52
355.777	2.35
356.147	2.41
356.516	2.42
356.885	2.39
357.254	2.22
357.624	2.28
357.993	2.57
358.362	2.41
358.731	2.58
359.1	2.41
359.469	2.46
359.838	2.54
360.207	2.4
360.576	2.45
360.945	2.69
361.314	2.27
361.682	2.34
362.051	2.41
362.42	2.43
362.788	2.44
363.157	2.54
363.525	2.43
363.894	2.17
364.262	2.42
364.631	2.59
364.999	2.3
365.367	2.36
365.735	2.4
366.104	2.25
366.472	2.33
366.84	2.38
367.208	2.51
367.576	2.24
367.944	2.44
368.312	2.53
368.68	2.94
369.048	2.39
369.416	1.95
369.783	2.29
370.151	2.73
370.519	2.64
370.886	2.2
371.254	2.72
371.621	2.67
371.989	2.76
372.356	2.62
372.724	2.5
373.091	2.2
373.458	2.26
373.826	2.69
374.193	2.35
374.56	2.54
374.927	2.32
375.294	2.73
375.661	2.98
376.028	2.38
376.395	2.67
376.762	2.42
377.129	2.23
377.496	2.65
377.863	2.72
378.229	2.83
378.596	2.65
378.963	2.75
379.329	2.48
379.696	2.3
380.062	2.64
380.429	2.12
380.795	2.72
381.161	2.45
381.528	2.29
381.894	2.35
382.26	2.68
382.626	2.5
382.993	2.78
383.359	2.33
383.725	2.37
384.091	2.5
384.457	2.33
384.823	2.72
385.188	2.63
385.554	2.43
385.92	2.36
386.286	2.51
386.651	2.35
387.017	2.78
387.383	2.56
387.748	2.5
388.114	2.7
388.479	2.36
388.845	2.45
389.21	2.88
389.575	2.73
389.94	2.91
390.306	2.65
390.671	2.55
391.036	2.57
391.401	2.59
391.766	2.57
392.131	2.72
392.496	2.77
392.861	2.7
393.226	2.66
393.591	2.65
393.956	2.65
394.32	2.9
394.685	2.72
395.05	2.54
395.414	2.6
395.779	2.85
396.143	2.57
396.508	2.74
396.872	2.63
397.236	2.72
397.601	2.77
397.965	2.68
398.329	2.79
398.694	2.49
399.058	2.91
399.422	2.69
399.786	2.64
400.15	2.56
400.514	2.88
400.878	2.61
401.242	2.7
401.605	2.68
401.969	2.58
402.333	2.53
402.697	3.03
403.06	2.83
403.424	2.79
403.787	2.73
404.151	2.85
404.514	2.76
404.878	2.58
405.241	2.76
405.604	2.81
405.968	2.71
406.331	2.75
406.694	2.63
407.057	2.59
407.42	2.68
407.783	2.83
408.146	2.64
408.509	2.81
408.872	2.79
409.235	2.75
409.598	2.62
409.961	2.87
410.323	2.65
410.686	2.66
411.049	2.83
411.411	2.75
411.774	2.73
412.136	2.79
412.499	2.85
412.861	2.62
413.223	2.61
413.586	2.9
413.948	2.7
414.31	2.83
414.672	2.63
415.035	2.86
415.397	2.68
415.759	2.65
416.121	2.74
416.483	2.69
416.845	2.79
417.206	2.78
417.568	2.68
417.93	2.74
418.292	2.57
418.653	2.67
419.015	2.71
419.377	2.7
419.738	2.76
420.1	2.63
420.461	2.72
420.822	2.77
421.184	2.69
421.545	2.78
421.906	2.69
422.267	2.64
422.629	2.68
422.99	2.67
423.351	2.69
423.712	2.76
424.073	2.75
424.434	2.85
424.795	2.66
425.155	2.58
425.516	2.67
425.877	2.67
426.238	2.72
426.598	2.77
426.959	2.76
427.32	2.69
427.68	2.74
428.041	2.82
428.401	2.78
428.761	2.81
429.122	2.8
429.482	2.74
429.842	2.72
430.202	2.91
430.563	2.79
430.923	3
431.283	2.87
431.643	2.84
432.003	2.88
432.363	2.98
432.722	2.78
433.082	2.78
433.442	2.87
433.802	2.76
434.161	2.91
434.521	2.72
434.881	2.86
435.24	2.79
435.6	2.84
435.959	2.97
436.319	2.82
436.678	2.87
437.037	2.77
437.396	2.74
437.756	2.68
438.115	2.88
438.474	2.93
438.833	2.79
439.192	2.88
439.551	2.78
439.91	2.93
440.269	2.88
440.628	2.77
440.987	2.92
441.345	2.85
441.704	2.72
442.063	2.8
442.421	2.76
442.78	2.85
443.138	2.8
443.497	2.72
443.855	2.9
444.214	2.71
444.572	2.92
444.93	2.78
445.288	2.92
445.647	2.84
446.005	2.81
446.363	2.82
446.721	2.85
447.079	2.85
447.437	2.83
447.795	2.88
448.153	2.84
448.51	2.9
448.868	2.83
449.226	2.81
449.584	2.85
449.941	3.05
450.299	2.94
450.656	2.93
451.014	2.9
451.371	3.04
451.729	2.92
452.086	2.86
452.443	2.92
452.801	2.77
453.158	3.01
453.515	2.89
453.872	2.94
454.229	2.74
454.586	2.78
454.943	2.94
455.3	2.96
455.657	2.93
456.014	2.98
456.371	2.98
456.727	2.98
457.084	3.07
457.441	3.04
457.797	2.93
458.154	3.03
458.51	2.88
458.867	2.77
459.223	2.98
459.58	2.94
459.936	3.03
460.292	2.84
460.648	2.85
461.005	2.86
461.361	2.86
461.717	2.9
462.073	3.02
462.429	3
462.785	2.98
463.141	3
463.496	3.03
463.852	3.02
464.208	2.94
464.564	2.83
464.919	2.92
465.275	2.92
465.631	3.11
465.986	3.05
466.342	2.92
466.697	2.83
467.052	3.1
467.408	2.93
467.763	3.02
468.118	2.92
468.473	3
468.829	3.04
469.184	2.96
469.539	2.95
469.894	3.11
470.249	2.98
470.603	3.23
470.958	3.07
471.313	3.02
471.668	3.12
472.023	3.01
472.377	2.93
472.732	3.26
473.086	3.04
473.441	3.01
473.795	3.16
474.15	3.03
474.504	3.08
474.859	2.96
475.213	3.2
475.567	2.91
475.921	3.05
476.275	2.99
476.63	3.09
476.984	2.84
477.338	3.13
477.692	2.99
478.045	3.06
478.399	3.12
478.753	3.18
479.107	3.11
479.461	2.96
479.814	3.06
480.168	3.05
480.521	3.14
480.875	3.15
481.228	3.06
481.582	3.06
481.935	3.26
482.289	3.11
482.642	3.33
482.995	3.06
483.348	3.07
483.701	3.14
484.055	3
484.408	3.06
484.761	2.94
485.114	2.87
485.466	2.87
485.819	2.92
486.172	2.92
486.525	2.96
486.878	3.01
487.23	3.04
487.583	3.07
487.936	3.04
488.288	2.98
488.641	2.98
488.993	2.99
489.345	2.95
489.698	2.96
490.05	2.95
490.402	2.98
490.754	3.04
491.107	2.99
491.459	3.16
491.811	3.11
492.163	3.14
492.515	3.05
492.866	3.02
493.218	2.98
493.57	3.08
493.922	3.06
494.274	3.13
494.625	3.2
494.977	3.16
495.328	3.16
495.68	3.22
496.031	3.13
496.383	3.06
496.734	3.1
497.086	3.17
497.437	3.16
497.788	3.24
498.139	3.19
498.49	3.14
498.842	3.27
499.193	3.23
499.544	3.23
499.894	3.13
500.245	3.27
500.596	3.25
500.947	3.2
501.298	3.23
501.648	3.26
501.999	3.34
502.35	3.24
502.7	3.47
503.051	3.29
503.401	3.39
503.752	3.18
504.102	3.23
504.452	3.23
504.803	3.27
505.153	3.34
505.503	3.29
505.853	3.31
506.203	3.33
506.553	3.17
506.903	3.3
507.253	3.15
507.603	3.32
507.953	3.25
508.303	3.34
508.652	3.25
509.002	3.33
509.352	3.38
509.701	3.25
510.051	3.35
510.4	3.35
510.75	3.25
511.099	3.25
511.449	3.42
511.798	3.3
512.147	3.35
512.496	3.27
512.846	3.32
513.195	3.39
513.544	3.41
513.893	3.3
514.242	3.35
514.591	3.29
514.939	3.45
515.288	3.5
515.637	3.35
515.986	3.37
516.334	3.5
516.683	3.35
517.032	3.35
517.38	3.35
517.729	3.43
518.077	3.39
518.426	3.47
518.774	3.35
519.122	3.46
519.47	3.37
519.819	3.43
520.167	3.36
520.515	3.36
520.863	3.38
521.211	3.35
521.559	3.34
521.907	3.51
522.255	3.33
522.602	3.49
522.95	3.54
523.298	3.53
523.645	3.54
523.993	3.53
524.341	3.51
524.688	3.53
525.036	3.51
525.383	3.57
525.73	3.54
526.078	3.57
526.425	3.49
526.772	3.45
527.119	3.51
527.466	3.52
527.814	3.5
528.161	3.59
528.508	3.58
528.854	3.51
529.201	3.49
529.548	3.49
529.895	3.4
530.242	3.39
530.588	3.39
530.935	3.46
531.282	3.49
531.628	3.48
531.975	3.54
532.321	3.56
532.667	3.61
533.014	3.6
533.36	3.59
533.706	3.62
534.052	3.61
534.399	3.59
534.745	3.54
535.091	3.56
535.437	3.54
535.783	3.61
536.129	3.63
536.474	3.68
536.82	3.74
537.166	3.62
537.512	3.69
537.857	3.68
538.203	3.69
538.549	3.65
538.894	3.73
539.239	3.81
539.585	3.84
539.93	3.83
540.276	3.87
540.621	3.87
540.966	3.75
541.311	3.77
541.656	3.81
542.001	3.84
542.346	3.77
542.691	3.67
543.036	3.72
543.381	3.71
543.726	3.77
544.071	3.76
544.415	3.86
544.76	3.81
545.105	3.84
545.449	3.81
545.794	3.92
546.138	3.83
546.483	3.91
546.827	3.92
547.171	3.93
547.516	3.95
547.86	4.01
548.204	3.99
548.548	4
548.892	4.04
549.236	4.01
549.58	4.07
549.924	4.12
550.268	4.11
550.612	4.17
550.956	4.08
551.3	4.41
551.643	4.03
551.987	4.33
552.33	4.37
552.674	4.28
553.017	4.21
553.361	4.26
553.704	4.22
554.048	4.36
554.391	4.39
554.734	4.15
555.077	4.13
555.42	4.18
555.764	4.27
556.107	4.47
556.45	4.44
556.793	4.4
557.135	4.37
557.478	4.47
557.821	4.37
558.164	4.45
558.507	4.17
558.849	4.24
559.192	4.32
559.534	4.34
559.877	4.51
560.219	4.49
560.562	4.39
560.904	4.5
561.246	4.28
561.589	4.53
561.931	4.51
562.273	4.61
562.615	4.45
562.957	4.41
563.299	4.47
563.641	4.53
563.983	4.52
564.325	4.48
564.667	4.54
565.008	4.48
565.35	4.47
565.692	4.54
566.033	4.51
566.375	4.59
566.716	4.58
567.058	4.69
567.399	4.69
567.741	4.63
568.082	4.78
568.423	4.67
568.764	4.69
569.105	4.83
569.447	4.76
569.788	4.7
570.129	4.75
570.47	4.83
570.811	4.84
571.151	4.91
571.492	4.79
571.833	4.82
572.174	4.91
572.514	4.92
572.855	5.1
573.195	4.8
573.536	4.95
573.876	5
574.217	4.83
574.557	4.97
574.898	4.87
575.238	5.12
575.578	5.06
575.918	5.09
576.258	5.34
576.598	4.9
576.938	5.07
577.278	5.15
577.618	5.14
577.958	5.09
578.298	5.1
578.638	5.25
578.977	5.3
579.317	5.38
579.657	5.18
579.996	5.42
580.336	5.37
580.675	5.23
581.014	5.33
581.354	5.36
581.693	5.47
582.032	5.41
582.372	5.57
582.711	5.39
583.05	5.3
583.389	5.42
583.728	5.61
584.067	5.3
584.406	5.63
584.745	5.43
585.083	5.58
585.422	5.58
585.761	5.88
586.1	5.59
586.438	5.57
586.777	5.54
587.115	5.8
587.454	5.39
587.792	5.84
588.13	5.6
588.469	5.91
588.807	5.76
589.145	5.65
589.483	5.59
589.821	5.8
590.159	6.02
590.497	5.93
590.835	5.86
591.173	5.92
591.511	5.91
591.849	5.93
592.187	5.83
592.524	5.97
592.862	5.75
593.2	6.16
593.537	5.93
593.875	6.11
594.212	6
594.55	6.31
594.887	6.16
595.224	6.2
595.561	6.1
595.899	6.27
596.236	6.22
596.573	6.16
596.91	6.2
597.247	6.39
597.584	6.31
597.921	6.16
598.258	6.25
598.594	6.34
598.931	6.17
599.268	6.3
599.604	6.48
599.941	6.39
600.277	6.45
600.614	6.42
600.95	6.4
601.287	6.39
601.623	6.28
601.959	6.61
602.296	6.46
602.632	6.7
602.968	6.6
603.304	6.62
603.64	6.72
603.976	6.48
604.312	6.47
604.648	6.58
604.984	6.68
605.319	6.69
605.655	6.62
605.991	6.72
606.326	6.68
606.662	6.55
606.998	6.81
607.333	6.74
607.668	6.63
608.004	6.78
608.339	6.79
608.674	7.01
609.01	7.05
609.345	7.14
609.68	6.91
610.015	6.96
610.35	7.17
610.685	6.8
611.02	6.83
611.355	6.78
611.689	6.99
612.024	7.08
612.359	7.1
612.694	7.16
613.028	6.96
613.363	7.14
613.697	7.11
614.032	7.08
614.366	7.09
614.7	7.6
615.035	7.59
615.369	7.48
615.703	7.46
616.037	7.39
616.371	7.15
616.705	7.38
617.039	7.51
617.373	7.52
617.707	7.87
618.041	7.33
618.375	7
618.709	7.54
619.042	7.26
619.376	7.42
619.71	7.51
620.043	7.89
620.377	7.53
620.71	7.77
621.043	7.76
621.377	7.81
621.71	7.95
622.043	8.26
622.376	7.99
622.709	8.48
623.043	8.09
623.376	7.82
623.709	7.98
624.041	8.04
624.374	8
624.707	8.17
625.04	8.06
625.373	8.05
625.705	8.67
626.038	8.17
626.37	7.93
626.703	8.25
627.035	8.13
627.368	8.36
627.7	8.18
628.032	8.18
628.365	8.33
628.697	8.61
629.029	8.45
629.361	8.54
629.693	8.36
630.025	8.28
630.357	8.74
630.689	8.75
631.021	8.76
631.353	8.76
631.684	8.4
632.016	8.17
632.348	8.39
632.679	8.56
633.011	8.82
633.342	8.42
633.674	8.6
634.005	8.8
634.336	8.86
634.668	8.81
634.999	8.67
635.33	8.88
635.661	9.04
635.992	9.13
636.323	9.09
636.654	8.74
636.985	8.91
637.316	8.76
637.647	9.14
637.977	8.91
638.308	9.29
638.639	9.15
638.969	9.12
639.3	9.23
639.63	9.01
639.961	9.54
640.291	9.08
640.622	9.47
640.952	9.41
641.282	9.01
641.612	9.35
641.943	9.17
642.273	9.14
642.603	9.42
642.933	9.52
643.263	9.96
643.592	9.21
643.922	9.88
644.252	9.37
644.582	9.67
644.911	9.8
645.241	9.32
645.571	9.34
645.9	9.69
646.23	9.99
646.559	9.36
646.888	9.98
647.218	9.87
647.547	9.58
647.876	9.66
648.205	9.56
648.534	10.62
648.863	9.79
649.192	10.23
649.521	9.94
649.85	9.5
650.179	10.17
650.508	9.8
650.837	10.35
651.165	10.22
651.494	9.91
651.822	10.38
652.151	10.15
652.479	10.27
652.808	10.18
653.136	9.67
653.465	10.31
653.793	10.53
654.121	10.32
654.449	10.23
654.777	10.23
655.105	10.23
655.433	10.7
655.761	10.45
656.089	10.34
656.417	10.99
656.745	10.67
657.073	10.3
657.4	10.84
657.728	10.18
658.056	11.16
658.383	10.64
658.711	10.61
659.038	10.98
659.365	10.78
659.693	10.61
660.02	10.88
660.347	10.79
660.674	10.88
661.001	10.68
661.329	10.66
661.656	10.76
661.982	10.85
662.309	11.13
662.636	11.16
662.963	11.23
663.29	11.14
663.616	11.19
663.943	11.19
664.27	11.33
664.596	10.8
664.923	11.02
665.249	11.41
665.576	11.07
665.902	10.83
666.228	11.87
666.554	11.52
666.881	10.96
667.207	10.98
667.533	11.21
667.859	11.54
668.185	11.23
668.511	11.83
668.837	11.21
669.162	11.53
669.488	10.83
669.814	12.07
670.139	10.92
670.465	11.56
670.791	11.18
671.116	11.46
671.442	11.23
671.767	11.75
672.092	11.32
672.418	12.36
672.743	11.81
673.068	11.82
673.393	11.67
673.718	11.33
674.043	11.65
674.368	11.65
674.693	12.03
675.018	12.28
675.343	12.31
675.667	11.86
675.992	12.4
676.317	11.46
676.641	12.79
676.966	11.98
677.29	12.11
677.615	12.15
677.939	12.59
678.264	12.08
678.588	12.64
678.912	12.14
679.236	12.18
679.56	11.83
679.885	12.56
680.209	12.34
680.532	13.16
680.856	12.85
681.18	13.26
681.504	12.85
681.828	12.32
682.152	12.37
682.475	12.65
682.799	12.22
683.122	12.26
683.446	12.34
683.769	13.31
684.093	12.98
684.416	12.66
684.739	12.48
685.062	12.65
685.386	12.47
685.709	12.83
686.032	12.94
686.355	13.48
686.678	13.64
687.001	12.72
687.324	13.13
687.646	13.49
687.969	12.56
688.292	12.86
688.614	13.32
688.937	13.58
689.26	13.54
