Data from 21-2_crown_Reflection__1__172.txt Node

Date: Thu Dec 15 17:51:22 CST 2022
User: ToomeyLab
Spectrometer: FLMS14357
Trigger mode: 0
Integration Time (sec): 1.000000E-2
Scans to average: 100
Electric dark correction enabled: true
Nonlinearity correction enabled: false
Boxcar width: 0
XAxis mode: Wavelengths
Number of Pixels in Spectrum: 2048
>>>>>Begin Spectral Data<<<<<
189.047	-17.55
189.435	-17.55
189.823	-17.55
190.211	-49.41
190.599	1018.79
190.987	62.39
191.375	-550.8
191.763	-711.54
192.151	18.74
192.538	2.96
192.926	-5.03
193.314	126.6
193.702	192.11
194.089	112.51
194.477	107.48
194.864	145.65
195.252	-1917.58
195.639	79.83
196.027	-4305.17
196.414	124
196.801	-111.65
197.189	50.94
197.576	-23.22
197.963	-4.01
198.351	-5.35
198.738	-128.31
199.125	-75.25
199.512	-1.58
199.899	-33.56
200.286	-50.39
200.673	23.25
201.06	-55.73
201.447	-46.12
201.833	-23.59
202.22	-9.31
202.607	-49.14
202.994	-15.29
203.38	24.15
203.767	-16.8
204.154	31.21
204.54	2.26
204.927	-18.36
205.313	18.33
205.699	19.67
206.086	28.83
206.472	22.59
206.858	-39.04
207.245	-10.59
207.631	-18.25
208.017	44.16
208.403	-3.94
208.789	6.44
209.175	-20.76
209.561	-99.91
209.947	-34.02
210.333	-15.78
210.719	19
211.105	22.56
211.491	34.63
211.876	-9.05
212.262	-7.84
212.648	7.93
213.034	20.61
213.419	-3.07
213.805	-13.53
214.19	-23.51
214.576	-22.27
214.961	16.51
215.346	-6.93
215.732	-4.33
216.117	-5.91
216.502	-10.13
216.888	-19.46
217.273	-11.92
217.658	13.95
218.043	-8.59
218.428	-16.75
218.813	-6.91
219.198	-44.41
219.583	-15.37
219.968	-4.16
220.353	-11.22
220.738	36.87
221.122	3.84
221.507	-12.37
221.892	-27.48
222.276	-23.27
222.661	-20.89
223.046	-17.98
223.43	7.93
223.815	-1.5
224.199	-1.82
224.583	-17.85
224.968	-5.99
225.352	4.01
225.736	3.74
226.121	-6.58
226.505	-2.87
226.889	2.23
227.273	-4.19
227.657	1.33
228.041	0.03
228.425	-4.54
228.809	-1.6
229.193	0.13
229.577	0.98
229.961	0.28
230.344	1.28
230.728	1.77
231.112	2.1
231.495	-0.84
231.879	0.56
232.263	1.72
232.646	1.67
233.03	3.19
233.413	0.09
233.797	-1.23
234.18	-1.42
234.563	1.1
234.946	-0.43
235.33	0.94
235.713	1.73
236.096	2.07
236.479	1.39
236.862	-0.23
237.245	0.93
237.628	1.57
238.011	2.13
238.394	1.49
238.777	0.77
239.16	2.67
239.543	-0.09
239.925	0.99
240.308	0.87
240.691	0.55
241.073	0.29
241.456	0.37
241.838	0.07
242.221	0.93
242.603	1.12
242.986	0.9
243.368	1.27
243.75	1.33
244.133	1.5
244.515	1.28
244.897	0.8
245.279	1.25
245.661	1.04
246.043	0.44
246.425	1.93
246.807	0.55
247.189	1.1
247.571	1.28
247.953	1.14
248.335	1.36
248.717	1.51
249.098	1.38
249.48	1.33
249.862	1.64
250.243	1.63
250.625	1.51
251.006	1.4
251.388	0.71
251.769	-0.74
252.151	1.59
252.532	0.1
252.913	1.06
253.295	0.58
253.676	1.22
254.057	1.01
254.438	1.19
254.819	1.54
255.2	2.07
255.581	2.2
255.962	1.9
256.343	2.19
256.724	1.08
257.105	0.46
257.486	0.32
257.867	0.85
258.247	1.46
258.628	1.01
259.009	1.16
259.389	1.27
259.77	0.7
260.15	2.1
260.531	1.45
260.911	1.25
261.292	1.41
261.672	1.19
262.052	1.21
262.432	0.9
262.813	1.31
263.193	0.58
263.573	1.02
263.953	1.26
264.333	1.32
264.713	1.15
265.093	0.55
265.473	0.65
265.853	0.94
266.233	1
266.612	0.84
266.992	1.02
267.372	1.26
267.752	1.51
268.131	0.91
268.511	0.83
268.89	1.5
269.27	0.63
269.649	0.65
270.029	1.02
270.408	1.21
270.787	1.04
271.167	0.85
271.546	1.81
271.925	1.27
272.304	0.87
272.683	0.96
273.062	0.97
273.441	0.67
273.82	1.25
274.199	1.11
274.578	1
274.957	1.26
275.336	1.47
275.715	1.39
276.093	0.88
276.472	0.94
276.851	0.93
277.229	1.22
277.608	0.68
277.986	0.89
278.365	0.88
278.743	1.23
279.122	0.37
279.5	0.91
279.878	1.35
280.257	0.63
280.635	1.3
281.013	0.58
281.391	0.69
281.769	1.43
282.147	1.1
282.525	0.67
282.903	0.73
283.281	1.35
283.659	1.37
284.037	0.9
284.415	0.99
284.792	1.32
285.17	0.57
285.548	0.74
285.925	1.2
286.303	1.43
286.68	1.38
287.058	1.49
287.435	1.1
287.813	1.2
288.19	0.74
288.567	1.24
288.945	1.3
289.322	1.32
289.699	0.98
290.076	1.17
290.453	0.85
290.83	1.41
291.207	0.91
291.584	1.7
291.961	1.16
292.338	1.04
292.715	1.07
293.092	1.43
293.469	0.83
293.845	1.09
294.222	1.57
294.599	0.79
294.975	0.85
295.352	1.69
295.728	1.16
296.105	1.28
296.481	1.42
296.858	1.21
297.234	1.25
297.61	1.53
297.986	1.67
298.363	1.35
298.739	1.36
299.115	1.26
299.491	1.64
299.867	1.12
300.243	1.23
300.619	1.3
300.995	1.47
301.371	1.5
301.746	1.4
302.122	0.92
302.498	1.33
302.874	1.53
303.249	1.3
303.625	1.12
304	1.34
304.376	1.58
304.751	1.28
305.127	1.02
305.502	1.56
305.878	1.42
306.253	1.15
306.628	1
307.003	1.16
307.378	0.66
307.754	1.59
308.129	0.96
308.504	1.52
308.879	1.63
309.254	1.81
309.629	1.15
310.003	0.85
310.378	1.98
310.753	1.67
311.128	1.07
311.502	1.31
311.877	1.59
312.252	1.72
312.626	1.76
313.001	1.48
313.375	1.53
313.75	1.46
314.124	1.77
314.498	1.71
314.873	0.89
315.247	1.26
315.621	1.22
315.995	1.79
316.369	0.69
316.743	1.2
317.117	1.38
317.491	1.31
317.865	0.76
318.239	1.49
318.613	1.85
318.987	1.15
319.361	1.23
319.734	1.57
320.108	1.59
320.482	1.88
320.855	1.47
321.229	1.5
321.602	1.8
321.976	0.87
322.349	2.02
322.723	1.53
323.096	1.74
323.469	1.64
323.843	1.19
324.216	1.68
324.589	1.81
324.962	1.65
325.335	1.42
325.708	1.5
326.081	2.04
326.454	1.49
326.827	1.53
327.2	1.49
327.573	2.05
327.945	1.04
328.318	1.49
328.691	1.58
329.063	1.41
329.436	0.97
329.809	1.3
330.181	1.95
330.553	1.84
330.926	1.65
331.298	1.08
331.671	1.67
332.043	1.49
332.415	1.74
332.787	1.6
333.159	1.55
333.532	1.53
333.904	1.82
334.276	2
334.648	1.44
335.02	1.46
335.391	1.46
335.763	1.53
336.135	1.93
336.507	1.51
336.879	1.25
337.25	1.85
337.622	1.52
337.993	1.7
338.365	1.66
338.736	1.96
339.108	1.38
339.479	1.54
339.851	1.92
340.222	1.94
340.593	1.29
340.964	1.56
341.336	1.44
341.707	1.45
342.078	1.6
342.449	1.83
342.82	1.86
343.191	1.39
343.562	1.59
343.933	1.35
344.303	1.74
344.674	1.43
345.045	1.8
345.416	2.01
345.786	1.45
346.157	1.99
346.527	1.71
346.898	1.31
347.268	1.77
347.639	1.54
348.009	1.92
348.38	1.64
348.75	1.68
349.12	1.99
349.49	1.62
349.861	2
350.231	1.59
350.601	1.7
350.971	1.64
351.341	1.74
351.711	1.73
352.081	1.37
352.45	1.12
352.82	1.12
353.19	1.53
353.56	1.56
353.929	1.45
354.299	1.92
354.669	1.76
355.038	1.78
355.408	1.5
355.777	1.7
356.147	1.96
356.516	1.39
356.885	1.58
357.254	1.64
357.624	1.29
357.993	1.86
358.362	1.65
358.731	1.88
359.1	1.82
359.469	1.86
359.838	1.59
360.207	1.44
360.576	1.77
360.945	1.85
361.314	1.47
361.682	1.36
362.051	1.58
362.42	1.51
362.788	1.74
363.157	1.6
363.525	1.84
363.894	1.35
364.262	1.79
364.631	1.72
364.999	1.6
365.367	1.57
365.735	1.48
366.104	1.51
366.472	1.64
366.84	1.69
367.208	1.95
367.576	1.44
367.944	1.91
368.312	1.65
368.68	1.89
369.048	1.63
369.416	1.5
369.783	1.71
370.151	1.97
370.519	1.97
370.886	1.58
371.254	1.5
371.621	1.93
371.989	1.7
372.356	1.88
372.724	1.86
373.091	1.66
373.458	1.56
373.826	1.73
374.193	1.6
374.56	1.91
374.927	1.5
375.294	1.87
375.661	1.91
376.028	1.75
376.395	1.73
376.762	1.52
377.129	1.64
377.496	1.89
377.863	1.95
378.229	2.07
378.596	1.89
378.963	1.86
379.329	1.82
379.696	1.65
380.062	1.56
380.429	1.37
380.795	1.91
381.161	1.41
381.528	1.49
381.894	1.64
382.26	1.9
382.626	1.62
382.993	1.86
383.359	1.72
383.725	1.47
384.091	1.65
384.457	1.53
384.823	1.7
385.188	1.71
385.554	1.9
385.92	1.69
386.286	1.87
386.651	1.61
387.017	1.86
387.383	1.69
387.748	1.88
388.114	1.89
388.479	1.73
388.845	1.51
389.21	2.04
389.575	2.09
389.94	1.93
390.306	1.77
390.671	1.87
391.036	1.69
391.401	1.97
391.766	1.55
392.131	1.97
392.496	1.83
392.861	1.64
393.226	1.75
393.591	1.69
393.956	1.93
394.32	1.97
394.685	1.68
395.05	1.86
395.414	1.91
395.779	2.06
396.143	1.74
396.508	1.67
396.872	1.77
397.236	2.11
397.601	2.01
397.965	1.77
398.329	1.95
398.694	1.58
399.058	1.96
399.422	1.82
399.786	1.76
400.15	1.62
400.514	2
400.878	1.97
401.242	1.9
401.605	1.84
401.969	1.86
402.333	1.65
402.697	2.11
403.06	1.91
403.424	2.15
403.787	1.89
404.151	1.75
404.514	1.84
404.878	1.73
405.241	1.92
405.604	1.75
405.968	1.82
406.331	1.94
406.694	1.77
407.057	1.81
407.42	1.79
407.783	1.95
408.146	1.64
408.509	1.93
408.872	1.86
409.235	1.98
409.598	1.93
409.961	2.01
410.323	1.69
410.686	1.76
411.049	2.06
411.411	1.7
411.774	1.91
412.136	1.9
412.499	1.97
412.861	1.49
413.223	1.73
413.586	1.84
413.948	1.97
414.31	1.95
414.672	1.83
415.035	2.02
415.397	1.87
415.759	1.8
416.121	2.02
416.483	1.82
416.845	1.96
417.206	1.82
417.568	1.86
417.93	1.82
418.292	1.69
418.653	1.75
419.015	1.76
419.377	1.77
419.738	1.96
420.1	1.84
420.461	1.65
420.822	1.86
421.184	1.91
421.545	1.91
421.906	1.91
422.267	1.85
422.629	1.84
422.99	1.79
423.351	1.8
423.712	1.88
424.073	1.91
424.434	1.96
424.795	1.84
425.155	1.87
425.516	1.78
425.877	1.83
426.238	1.83
426.598	1.83
426.959	1.87
427.32	1.83
427.68	1.86
428.041	1.94
428.401	1.74
428.761	2.06
429.122	1.79
429.482	1.85
429.842	1.89
430.202	2.03
430.563	1.95
430.923	1.97
431.283	2
431.643	1.98
432.003	2.08
432.363	1.99
432.722	1.94
433.082	2.01
433.442	1.91
433.802	1.94
434.161	1.98
434.521	1.94
434.881	2.01
435.24	1.98
435.6	1.91
435.959	1.96
436.319	1.98
436.678	2.04
437.037	1.84
437.396	1.96
437.756	1.7
438.115	1.79
438.474	1.89
438.833	1.97
439.192	2
439.551	1.79
439.91	1.9
440.269	1.94
440.628	1.85
440.987	1.98
441.345	1.91
441.704	1.86
442.063	1.91
442.421	1.94
442.78	1.87
443.138	1.91
443.497	1.84
443.855	2.02
444.214	1.76
444.572	2.14
444.93	1.84
445.288	2.03
445.647	1.85
446.005	1.91
446.363	1.95
446.721	1.78
447.079	1.93
447.437	2.01
447.795	1.94
448.153	1.91
448.51	1.97
448.868	1.87
449.226	1.91
449.584	1.97
449.941	2
450.299	1.93
450.656	1.92
451.014	2
451.371	2.05
451.729	2.03
452.086	2
452.443	1.95
452.801	1.93
453.158	2.24
453.515	1.92
453.872	1.97
454.229	2
454.586	1.84
454.943	2.01
455.3	1.98
455.657	1.97
456.014	1.95
456.371	1.91
456.727	2.17
457.084	2.22
457.441	2.09
457.797	2.01
458.154	1.89
458.51	1.95
458.867	2
459.223	1.93
459.58	2.01
459.936	1.94
460.292	1.93
460.648	1.93
461.005	1.91
461.361	2
461.717	2.01
462.073	2
462.429	2.09
462.785	2.22
463.141	1.93
463.496	2.07
463.852	2.21
464.208	2.02
464.564	2.03
464.919	2.04
465.275	2.05
465.631	2.08
465.986	2.1
466.342	2.03
466.697	1.92
467.052	2.11
467.408	2.01
467.763	1.95
468.118	1.89
468.473	2.03
468.829	1.94
469.184	2.05
469.539	1.8
469.894	2.07
470.249	2.18
470.603	2.13
470.958	2.09
471.313	2.15
471.668	2.05
472.023	2.17
472.377	2.02
472.732	2.12
473.086	1.89
473.441	1.95
473.795	2.14
474.15	2.08
474.504	2.07
474.859	1.84
475.213	2.09
475.567	1.96
475.921	2.14
476.275	2.12
476.63	2.04
476.984	2.09
477.338	2.11
477.692	2.04
478.045	2.08
478.399	2.17
478.753	2.06
479.107	2.13
479.461	2.01
479.814	2.15
480.168	2.05
480.521	2.22
480.875	2.12
481.228	2.02
481.582	1.97
481.935	2.23
482.289	2.05
482.642	2.09
482.995	2.11
483.348	2.1
483.701	2.15
484.055	2.04
484.408	2.05
484.761	1.98
485.114	1.93
485.466	1.94
485.819	1.94
486.172	1.96
486.525	2.01
486.878	2.07
487.23	2.02
487.583	2.02
487.936	1.99
488.288	2.01
488.641	2.01
488.993	1.99
489.345	1.97
489.698	1.99
490.05	1.99
490.402	2.04
490.754	2.01
491.107	1.98
491.459	2.05
491.811	2.06
492.163	2.02
492.515	1.99
492.866	1.97
493.218	2.05
493.57	2.06
493.922	2.04
494.274	2.1
494.625	2.14
494.977	2.09
495.328	2.07
495.68	2.09
496.031	2.14
496.383	2.1
496.734	2.02
497.086	2.1
497.437	2.18
497.788	2.19
498.139	2.13
498.49	2.11
498.842	2.17
499.193	2.03
499.544	2.16
499.894	2.07
500.245	2.21
500.596	2.12
500.947	2.11
501.298	2.22
501.648	2.12
501.999	2.24
502.35	2.11
502.7	2.23
503.051	2.05
503.401	2.14
503.752	2.07
504.102	2.19
504.452	2.17
504.803	2.07
505.153	2.26
505.503	2.15
505.853	2.08
506.203	2.25
506.553	2.18
506.903	2.21
507.253	2.1
507.603	2.17
507.953	2.24
508.303	2.3
508.652	2.08
509.002	2.18
509.352	2.17
509.701	2.09
510.051	2.25
510.4	2.18
510.75	2.16
511.099	2.07
511.449	2.23
511.798	2.12
512.147	2.12
512.496	2.13
512.846	2.06
513.195	2.1
513.544	2.28
513.893	2.15
514.242	2.12
514.591	2.1
514.939	2.28
515.288	2.28
515.637	2.09
515.986	2.2
516.334	2.28
516.683	2.18
517.032	2.13
517.38	2.2
517.729	2.04
518.077	2.15
518.426	2.25
518.774	2.12
519.122	2.13
519.47	2.11
519.819	2.17
520.167	2.15
520.515	2.14
520.863	2.17
521.211	2.14
521.559	2.15
521.907	2.18
522.255	2.12
522.602	2.24
522.95	2.2
523.298	2.18
523.645	2.25
523.993	2.21
524.341	2.19
524.688	2.24
525.036	2.16
525.383	2.2
525.73	2.11
526.078	2.31
526.425	2.1
526.772	2.15
527.119	2.2
527.466	2.22
527.814	2.18
528.161	2.22
528.508	2.3
528.854	2.13
529.201	2.18
529.548	2.2
529.895	2.13
530.242	2.1
530.588	2.07
530.935	2.1
531.282	2.12
531.628	2.18
531.975	2.19
532.321	2.2
532.667	2.2
533.014	2.24
533.36	2.22
533.706	2.21
534.052	2.18
534.399	2.22
534.745	2.16
535.091	2.13
535.437	2.12
535.783	2.18
536.129	2.18
536.474	2.3
536.82	2.24
537.166	2.23
537.512	2.26
537.857	2.28
538.203	2.21
538.549	2.19
538.894	2.19
539.239	2.28
539.585	2.29
539.93	2.25
540.276	2.15
540.621	2.32
540.966	2.26
541.311	2.27
541.656	2.18
542.001	2.25
542.346	2.23
542.691	2.14
543.036	2.22
543.381	2.19
543.726	2.25
544.071	2.25
544.415	2.28
544.76	2.23
545.105	2.22
545.449	2.27
545.794	2.17
546.138	2.33
546.483	2.29
546.827	2.21
547.171	2.31
547.516	2.35
547.86	2.35
548.204	2.3
548.548	2.25
548.892	2.26
549.236	2.27
549.58	2.42
549.924	2.41
550.268	2.44
550.612	2.43
550.956	2.39
551.3	2.47
551.643	2.35
551.987	2.49
552.33	2.51
552.674	2.32
553.017	2.51
553.361	2.38
553.704	2.38
554.048	2.3
554.391	2.36
554.734	2.27
555.077	2.43
555.42	2.41
555.764	2.37
556.107	2.41
556.45	2.42
556.793	2.48
557.135	2.41
557.478	2.48
557.821	2.58
558.164	2.39
558.507	2.22
558.849	2.52
559.192	2.31
559.534	2.49
559.877	2.37
560.219	2.32
560.562	2.45
560.904	2.56
561.246	2.29
561.589	2.52
561.931	2.49
562.273	2.43
562.615	2.47
562.957	2.35
563.299	2.5
563.641	2.29
563.983	2.23
564.325	2.38
564.667	2.39
565.008	2.33
565.35	2.3
565.692	2.28
566.033	2.32
566.375	2.42
566.716	2.37
567.058	2.36
567.399	2.3
567.741	2.48
568.082	2.51
568.423	2.29
568.764	2.47
569.105	2.42
569.447	2.42
569.788	2.41
570.129	2.28
570.47	2.48
570.811	2.43
571.151	2.41
571.492	2.43
571.833	2.45
572.174	2.43
572.514	2.48
572.855	2.52
573.195	2.33
573.536	2.55
573.876	2.35
574.217	2.34
574.557	2.44
574.898	2.39
575.238	2.45
575.578	2.45
575.918	2.28
576.258	2.61
576.598	2.34
576.938	2.42
577.278	2.35
577.618	2.47
577.958	2.53
578.298	2.4
578.638	2.51
578.977	2.45
579.317	2.47
579.657	2.62
579.996	2.54
580.336	2.59
580.675	2.49
581.014	2.39
581.354	2.31
581.693	2.57
582.032	2.66
582.372	2.5
582.711	2.63
583.05	2.53
583.389	2.59
583.728	2.68
584.067	2.45
584.406	2.63
584.745	2.39
585.083	2.57
585.422	2.62
585.761	2.5
586.1	2.54
586.438	2.55
586.777	2.61
587.115	2.73
587.454	2.34
587.792	2.29
588.13	2.37
588.469	2.53
588.807	2.72
589.145	2.5
589.483	2.31
589.821	2.54
590.159	2.71
590.497	2.73
590.835	2.74
591.173	2.81
591.511	2.56
591.849	2.53
592.187	2.47
592.524	2.77
592.862	2.36
593.2	2.54
593.537	2.53
593.875	2.31
594.212	2.62
594.55	2.43
594.887	2.52
595.224	2.72
595.561	2.51
595.899	2.64
596.236	2.7
596.573	2.47
596.91	2.64
597.247	2.66
597.584	2.6
597.921	2.7
598.258	2.7
598.594	2.5
598.931	2.41
599.268	2.47
599.604	2.51
599.941	2.65
600.277	2.45
600.614	2.5
600.95	2.38
601.287	2.45
601.623	2.58
601.959	2.88
602.296	2.68
602.632	2.57
602.968	2.67
603.304	2.45
603.64	2.59
603.976	2.44
604.312	2.49
604.648	2.79
604.984	2.71
605.319	2.59
605.655	2.59
605.991	2.6
606.326	2.62
606.662	2.55
606.998	2.72
607.333	2.69
607.668	2.56
608.004	2.52
608.339	2.55
608.674	2.72
609.01	2.68
609.345	2.8
609.68	2.46
610.015	2.61
610.35	2.75
610.685	2.52
611.02	2.42
611.355	2.49
611.689	2.66
612.024	2.68
612.359	2.66
612.694	2.8
613.028	2.44
613.363	2.44
613.697	2.74
614.032	2.51
614.366	2.74
614.7	2.82
615.035	2.69
615.369	2.48
615.703	2.76
616.037	2.87
616.371	2.62
616.705	2.84
617.039	2.76
617.373	2.71
617.707	2.87
618.041	2.59
618.375	2.27
618.709	2.73
619.042	2.71
619.376	2.75
619.71	2.86
620.043	2.68
620.377	2.62
620.71	2.33
621.043	3.06
621.377	2.6
621.71	2.97
622.043	2.53
622.376	2.64
622.709	3.19
623.043	2.53
623.376	2.33
623.709	3.15
624.041	2.49
624.374	2.88
624.707	2.66
625.04	2.71
625.373	2.85
625.705	2.81
626.038	2.8
626.37	2.69
626.703	2.98
627.035	2.75
627.368	2.96
627.7	2.88
628.032	2.58
628.365	3.11
628.697	2.92
629.029	2.77
629.361	2.92
629.693	2.78
630.025	2.88
630.357	2.82
630.689	2.86
631.021	2.74
631.353	2.83
631.684	2.73
632.016	2.5
632.348	2.72
632.679	2.84
633.011	3.01
633.342	3.02
633.674	2.62
634.005	2.91
634.336	2.95
634.668	2.87
634.999	2.89
635.33	2.87
635.661	2.71
635.992	2.68
636.323	2.62
636.654	3.09
636.985	2.4
637.316	2.78
637.647	2.64
637.977	2.57
638.308	3.03
638.639	2.33
638.969	2.58
639.3	3.08
639.63	2.83
639.961	2.61
640.291	2.53
640.622	3.16
640.952	2.96
641.282	2.49
641.612	2.72
641.943	2.15
642.273	2.49
642.603	2.99
642.933	3.22
643.263	2.72
643.592	3.52
643.922	3.06
644.252	2.81
644.582	2.99
644.911	2.63
645.241	2.74
645.571	3.27
645.9	3.01
646.23	3.21
646.559	2.82
646.888	3.35
647.218	2.76
647.547	2.86
647.876	2.96
648.205	2.45
648.534	2.63
648.863	2.52
649.192	2.72
649.521	3.01
649.85	3.15
650.179	2.93
650.508	2.83
650.837	2.94
651.165	2.73
651.494	3.08
651.822	3.27
652.151	2.81
652.479	3.43
652.808	2.84
653.136	2.29
653.465	2.57
653.793	3.07
654.121	2.86
654.449	2.91
654.777	2.46
655.105	2.55
655.433	3.16
655.761	3.29
656.089	2.75
656.417	3.19
656.745	3.55
657.073	2.87
657.4	2.89
657.728	2.58
658.056	3.18
658.383	3.27
658.711	3.26
659.038	3.41
659.365	3.1
659.693	3.01
660.02	2.96
660.347	2.88
660.674	2.39
661.001	2.99
661.329	2.83
661.656	2.56
661.982	2.73
662.309	2.87
662.636	3.14
662.963	2.85
663.29	3.11
663.616	2.87
663.943	2.87
664.27	2.77
664.596	2.85
664.923	3.22
665.249	3.11
665.576	2.93
665.902	2.64
666.228	3.11
666.554	3.54
666.881	2.63
667.207	3.41
667.533	3
667.859	2.78
668.185	3.14
668.511	3.21
668.837	2.96
669.162	2.57
669.488	2.73
669.814	2.93
670.139	2.38
670.465	3.68
670.791	2.41
671.116	2.65
671.442	2.43
671.767	2.71
672.092	2.96
672.418	2.9
672.743	2.95
673.068	2.68
673.393	3.1
673.718	2.72
674.043	2.97
674.368	2.98
674.693	3.27
675.018	3.22
675.343	2.95
675.667	2.53
675.992	3.13
676.317	2.55
676.641	3.18
676.966	2.81
677.29	2.63
677.615	2.66
677.939	3.6
678.264	2.52
678.588	3.13
678.912	2.68
679.236	2.26
679.56	2.62
679.885	2.98
680.209	3.48
680.532	3.31
680.856	3.13
681.18	3.54
681.504	3.13
681.828	2.51
682.152	3.15
682.475	3.58
682.799	2.98
683.122	3.21
683.446	2.06
683.769	2.95
684.093	3.16
684.416	2.69
684.739	3.14
685.062	2.73
685.386	3.06
685.709	2.96
686.032	3.27
686.355	2.74
686.678	3.77
687.001	3.05
687.324	3.44
687.646	3.23
687.969	3.88
688.292	3.29
688.614	3.86
688.937	3.26
689.26	3.49
689.582	3.26
689.904	3.65
690.227	3.32
690.549	3.47
690.871	2.98
691.194	3.44
691.516	2.88
691.838	3.83
