Data from 21-2_crown_Reflection__0__171.txt Node

Date: Thu Dec 15 17:51:13 CST 2022
User: ToomeyLab
Spectrometer: FLMS14357
Trigger mode: 0
Integration Time (sec): 1.000000E-2
Scans to average: 100
Electric dark correction enabled: true
Nonlinearity correction enabled: false
Boxcar width: 0
XAxis mode: Wavelengths
Number of Pixels in Spectrum: 2048
>>>>>Begin Spectral Data<<<<<
189.047	63.61
189.435	63.61
189.823	63.61
190.211	-165.13
190.599	429.3
190.987	15.5
191.375	-209.6
191.763	-728
192.151	353.79
192.538	-34.24
192.926	311.09
193.314	84.72
193.702	189.02
194.089	245.98
194.477	135.33
194.864	200.41
195.252	-954.34
195.639	70.1
196.027	-3772.41
196.414	245.31
196.801	-287.22
197.189	93.67
197.576	66.56
197.963	63.1
198.351	1.66
198.738	-80.57
199.125	-90.69
199.512	30.68
199.899	-56.31
200.286	8.94
200.673	31.47
201.06	-5.35
201.447	-0.78
201.833	-37.25
202.22	-30.21
202.607	-55.52
202.994	2.01
203.38	-25.01
203.767	-3.15
204.154	22.07
204.54	6.95
204.927	7.76
205.313	26.54
205.699	1.07
206.086	8.51
206.472	-7.2
206.858	-3.88
207.245	26.18
207.631	-21.64
208.017	55.14
208.403	-61.43
208.789	-27.98
209.175	16.94
209.561	-84.9
209.947	11.86
210.333	-13.86
210.719	16.19
211.105	14.35
211.491	-33.61
211.876	8.36
212.262	13.35
212.648	0.53
213.034	-25.01
213.419	1.21
213.805	-59.7
214.19	-42
214.576	-47.51
214.961	-21.98
215.346	-31.94
215.732	-8.43
216.117	-7.97
216.502	-40.95
216.888	-19.26
217.273	14.91
217.658	-15.71
218.043	-17.6
218.428	-40.43
218.813	-10.08
219.198	-17.51
219.583	-11.27
219.968	0.46
220.353	-36.99
220.738	-10.1
221.122	-13.2
221.507	-19.71
221.892	-29.47
222.276	-17.13
222.661	-19.98
223.046	-8.14
223.43	6.78
223.815	-0.74
224.199	-1.71
224.583	-0.26
224.968	-14.95
225.352	-6.31
225.736	-1.44
226.121	0.88
226.505	-4.86
226.889	-1.24
227.273	-8.16
227.657	-3.53
228.041	-2.01
228.425	-6.85
228.809	-2.44
229.193	1.27
229.577	-0.3
229.961	-0.71
230.344	0.65
230.728	0.94
231.112	0.86
231.495	-0.98
231.879	-0.52
232.263	0.46
232.646	-1.53
233.03	0.69
233.413	0.71
233.797	-3.88
234.18	0.38
234.563	1.31
234.946	-1.9
235.33	0.35
235.713	0.86
236.096	0.67
236.479	1.51
236.862	-2.51
237.245	-1.45
237.628	0.32
238.011	1.01
238.394	-1.6
238.777	0.46
239.16	0.95
239.543	0.36
239.925	-1.29
240.308	-1.83
240.691	-0.81
241.073	-1.02
241.456	-0.38
241.838	-0.55
242.221	0.87
242.603	0.22
242.986	0.63
243.368	0.07
243.75	0.97
244.133	0.65
244.515	0.35
244.897	-0.14
245.279	-0.36
245.661	0.16
246.043	0.54
246.425	1.01
246.807	-0.23
247.189	0.05
247.571	-0.07
247.953	0.18
248.335	0.51
248.717	0.74
249.098	0.63
249.48	0.2
249.862	0.47
250.243	0.61
250.625	0.71
251.006	0.79
251.388	0.28
251.769	-0.98
252.151	0.76
252.532	-0.35
252.913	-0.07
253.295	0.05
253.676	0.3
254.057	0.23
254.438	0.47
254.819	-0
255.2	0.95
255.581	1.24
255.962	0.82
256.343	0.7
256.724	0.23
257.105	-0.45
257.486	-0.93
257.867	0.31
258.247	0.99
258.628	-0.37
259.009	0.15
259.389	-0.94
259.77	0.13
260.15	1.19
260.531	0.49
260.911	0.63
261.292	0.61
261.672	0.55
262.052	0.52
262.432	0.44
262.813	0.87
263.193	0.04
263.573	0.18
263.953	0.14
264.333	0.38
264.713	0.24
265.093	0.07
265.473	-0.03
265.853	0.4
266.233	0.03
266.612	-0.31
266.992	0.04
267.372	0.56
267.752	0.77
268.131	0.37
268.511	0.2
268.89	0.6
269.27	0.09
269.649	0.63
270.029	0.11
270.408	0.1
270.787	0.05
271.167	0.5
271.546	1.05
271.925	0.41
272.304	0.59
272.683	0.21
273.062	0.22
273.441	0.13
273.82	0.88
274.199	-0.09
274.578	0.65
274.957	0.57
275.336	0.7
275.715	0.66
276.093	0.36
276.472	0.12
276.851	0.52
277.229	0.69
277.608	-0.43
277.986	0.17
278.365	0.27
278.743	0.39
279.122	-0.06
279.5	0.26
279.878	-0.09
280.257	0.27
280.635	0.72
281.013	0.28
281.391	0.35
281.769	0.62
282.147	0.38
282.525	0.5
282.903	0.05
283.281	0.69
283.659	0.84
284.037	0.48
284.415	0.46
284.792	0.37
285.17	0.13
285.548	0.11
285.925	0.55
286.303	0.88
286.68	0.01
287.058	0.62
287.435	0.33
287.813	0.31
288.19	0.27
288.567	0.37
288.945	0.34
289.322	0.45
289.699	0.86
290.076	0.35
290.453	0.09
290.83	0.47
291.207	0.7
291.584	0.94
291.961	0.66
292.338	0.31
292.715	0.33
293.092	0.67
293.469	0.42
293.845	0.37
294.222	0.73
294.599	0.51
294.975	-0.41
295.352	0.32
295.728	0.52
296.105	0.7
296.481	0.77
296.858	0.42
297.234	0.2
297.61	0.47
297.986	0.71
298.363	0.73
298.739	0.86
299.115	0.55
299.491	0.66
299.867	0.39
300.243	0.42
300.619	0.21
300.995	0.7
301.371	0.59
301.746	0.54
302.122	0.14
302.498	0.23
302.874	0.47
303.249	0.92
303.625	0.4
304	1.12
304.376	0.81
304.751	0.54
305.127	0.27
305.502	0.1
305.878	0.68
306.253	0.4
306.628	0.89
307.003	0.53
307.378	0.29
307.754	0.81
308.129	0.23
308.504	0.89
308.879	0.74
309.254	1.02
309.629	0.78
310.003	0.11
310.378	0.67
310.753	0.66
311.128	0.04
311.502	0.65
311.877	0.78
312.252	0.57
312.626	1.05
313.001	0.67
313.375	0.4
313.75	0.74
314.124	0.8
314.498	0.81
314.873	0.21
315.247	0.5
315.621	0.44
315.995	0.64
316.369	0.43
316.743	0.24
317.117	0.41
317.491	0.69
317.865	0.31
318.239	0.65
318.613	0.25
318.987	0.06
319.361	0.73
319.734	0.75
320.108	0.92
320.482	1.05
320.855	0.59
321.229	0.31
321.602	0.23
321.976	0.7
322.349	0.91
322.723	0.69
323.096	0.48
323.469	-0.07
323.843	0.15
324.216	0.91
324.589	0.43
324.962	0.35
325.335	0.48
325.708	0.55
326.081	0.85
326.454	0.74
326.827	0.85
327.2	0.55
327.573	0.55
327.945	0.3
328.318	1.1
328.691	0.54
329.063	0.5
329.436	0.49
329.809	0.81
330.181	1.06
330.553	0.34
330.926	0.98
331.298	0.52
331.671	0.74
332.043	-0.1
332.415	0.28
332.787	1.25
333.159	0.34
333.532	1.02
333.904	1.11
334.276	0.9
334.648	0.75
335.02	0.35
335.391	0.32
335.763	1.01
336.135	1
336.507	0.58
336.879	0.52
337.25	1.18
337.622	0.52
337.993	0.6
338.365	0.86
338.736	0.69
339.108	0.99
339.479	0.67
339.851	0.93
340.222	0.84
340.593	1.07
340.964	0.39
341.336	0.42
341.707	0.77
342.078	0.55
342.449	0.7
342.82	0.76
343.191	0.65
343.562	0.72
343.933	0.36
344.303	0.64
344.674	0.35
345.045	0.9
345.416	0.91
345.786	0.54
346.157	1.17
346.527	0.73
346.898	0.32
347.268	0.9
347.639	0.83
348.009	0.86
348.38	1.04
348.75	0.93
349.12	0.91
349.49	0.84
349.861	0.98
350.231	0.72
350.601	0.98
350.971	0.36
351.341	0.89
351.711	0.44
352.081	0.74
352.45	0.46
352.82	0.25
353.19	0.52
353.56	0.94
353.929	0.66
354.299	0.68
354.669	0.87
355.038	1.23
355.408	0.95
355.777	0.8
356.147	0.86
356.516	0.87
356.885	0.73
357.254	0.77
357.624	0.62
357.993	0.83
358.362	1.1
358.731	1.13
359.1	0.78
359.469	1.04
359.838	0.99
360.207	0.9
360.576	1.01
360.945	0.97
361.314	0.88
361.682	0.72
362.051	0.75
362.42	0.9
362.788	0.76
363.157	0.71
363.525	0.88
363.894	0.63
364.262	0.87
364.631	1.15
364.999	0.75
365.367	0.79
365.735	0.59
366.104	0.74
366.472	0.82
366.84	0.66
367.208	1.04
367.576	0.73
367.944	0.79
368.312	0.93
368.68	0.95
369.048	0.56
369.416	0.69
369.783	1.1
370.151	1.21
370.519	1.1
370.886	1
371.254	1.56
371.621	1.1
371.989	1.07
372.356	0.78
372.724	1
373.091	0.58
373.458	0.45
373.826	1.15
374.193	0.56
374.56	0.98
374.927	0.8
375.294	0.77
375.661	0.99
376.028	0.74
376.395	1.08
376.762	0.65
377.129	0.66
377.496	0.98
377.863	0.87
378.229	1.22
378.596	1.06
378.963	0.93
379.329	1
379.696	0.99
380.062	0.82
380.429	0.69
380.795	1.11
381.161	0.56
381.528	0.76
381.894	0.65
382.26	1.02
382.626	1.07
382.993	1.19
383.359	0.93
383.725	0.51
384.091	0.8
384.457	0.67
384.823	1.05
385.188	0.94
385.554	1.1
385.92	0.67
386.286	0.75
386.651	0.96
387.017	1.01
387.383	0.85
387.748	1.08
388.114	0.97
388.479	0.98
388.845	0.55
389.21	1.22
389.575	1.28
389.94	1.1
390.306	1.02
390.671	0.75
391.036	0.9
391.401	0.93
391.766	0.7
392.131	1.08
392.496	0.96
392.861	0.84
393.226	0.87
393.591	0.91
393.956	0.87
394.32	1.17
394.685	0.84
395.05	1
395.414	0.82
395.779	1.17
396.143	0.64
396.508	0.88
396.872	0.95
397.236	1.17
397.601	1.07
397.965	0.86
398.329	1.06
398.694	0.53
399.058	0.9
399.422	1
399.786	0.82
400.15	1.09
400.514	1.19
400.878	1.03
401.242	1.02
401.605	1.12
401.969	0.67
402.333	0.78
402.697	1.16
403.06	1.18
403.424	0.98
403.787	0.91
404.151	0.96
404.514	0.97
404.878	0.73
405.241	1.05
405.604	0.92
405.968	1
406.331	1.03
406.694	0.96
407.057	0.79
407.42	0.99
407.783	1.23
408.146	0.98
408.509	1.06
408.872	0.97
409.235	1.01
409.598	1.07
409.961	1.26
410.323	0.82
410.686	1.01
411.049	1.15
411.411	0.94
411.774	0.92
412.136	0.92
412.499	1.23
412.861	0.83
413.223	0.8
413.586	0.97
413.948	1.02
414.31	0.9
414.672	0.79
415.035	1.13
415.397	0.91
415.759	0.93
416.121	1.05
416.483	0.97
416.845	0.94
417.206	1.07
417.568	0.89
417.93	1.06
418.292	0.97
418.653	0.86
419.015	0.95
419.377	0.86
419.738	1.09
420.1	0.96
420.461	1
420.822	1.13
421.184	1.14
421.545	1.17
421.906	1.1
422.267	1.05
422.629	1.07
422.99	0.93
423.351	1.03
423.712	1.06
424.073	1.02
424.434	1.11
424.795	0.9
425.155	1
425.516	1
425.877	1.03
426.238	0.96
426.598	1.06
426.959	1.04
427.32	1.07
427.68	1.02
428.041	1.09
428.401	1.06
428.761	1.27
429.122	1.02
429.482	0.86
429.842	0.95
430.202	1.08
430.563	1.16
430.923	1.09
431.283	1.09
431.643	1.15
432.003	1.22
432.363	1.18
432.722	0.93
433.082	1.05
433.442	1.15
433.802	1.1
434.161	1.01
434.521	1.02
434.881	1.12
435.24	0.95
435.6	1.16
435.959	1.14
436.319	1.09
436.678	1.16
437.037	1.06
437.396	1.12
437.756	0.94
438.115	1.15
438.474	1.15
438.833	0.97
439.192	0.99
439.551	0.97
439.91	1.06
440.269	1.19
440.628	0.93
440.987	1.13
441.345	1.08
441.704	1.06
442.063	1.09
442.421	1.15
442.78	1.11
443.138	1.03
443.497	1.12
443.855	1.18
444.214	0.96
444.572	1.25
444.93	1.1
445.288	0.99
445.647	0.87
446.005	1.13
446.363	1.09
446.721	1.16
447.079	0.94
447.437	1.15
447.795	1.15
448.153	1.05
448.51	1.14
448.868	1.01
449.226	1.12
449.584	1.09
449.941	1.11
450.299	1.06
450.656	1.1
451.014	1.2
451.371	1.21
451.729	1.08
452.086	1.04
452.443	1.18
452.801	1.11
453.158	1.3
453.515	1.02
453.872	1.19
454.229	0.91
454.586	0.93
454.943	1.08
455.3	1.08
455.657	0.94
456.014	0.93
456.371	1.11
456.727	1.15
457.084	1.25
457.441	1.29
457.797	1.1
458.154	1.1
458.51	1.03
458.867	1.11
459.223	1.15
459.58	1.08
459.936	1.09
460.292	0.99
460.648	1.03
461.005	1.01
461.361	1.09
461.717	1.09
462.073	1.12
462.429	1.2
462.785	1.24
463.141	1.09
463.496	1.19
463.852	1.22
464.208	1.2
464.564	1.03
464.919	1.11
465.275	1.09
465.631	1.26
465.986	1.25
466.342	1.11
466.697	1.12
467.052	1.19
467.408	1.24
467.763	1.11
468.118	1.02
468.473	1.02
468.829	1.02
469.184	1.11
469.539	0.94
469.894	1.17
470.249	1.11
470.603	1.05
470.958	1.26
471.313	1.16
471.668	1.28
472.023	1.2
472.377	1.04
472.732	1.25
473.086	1.21
473.441	1.07
473.795	1.3
474.15	1.12
474.504	1.2
474.859	0.89
475.213	1.16
475.567	1
475.921	1.22
476.275	1.14
476.63	1.22
476.984	0.94
477.338	1.2
477.692	1.02
478.045	1.16
478.399	1.11
478.753	0.97
479.107	1.1
479.461	1.15
479.814	1.12
480.168	1.08
480.521	1.2
480.875	1.16
481.228	1.18
481.582	1.13
481.935	1.28
482.289	1.17
482.642	1.28
482.995	1.12
483.348	1.15
483.701	1.19
484.055	1.16
484.408	1.17
484.761	1.13
485.114	1.04
485.466	1.07
485.819	1.07
486.172	1.11
486.525	1.12
486.878	1.16
487.23	1.18
487.583	1.16
487.936	1.18
488.288	1.17
488.641	1.08
488.993	1.12
489.345	1.13
489.698	1.09
490.05	1.11
490.402	1.15
490.754	1.08
491.107	1.14
491.459	1.16
491.811	1.18
492.163	1.16
492.515	1.14
492.866	1.09
493.218	1.1
493.57	1.15
493.922	1.12
494.274	1.18
494.625	1.27
494.977	1.29
495.328	1.25
495.68	1.14
496.031	1.08
496.383	1.14
496.734	1.17
497.086	1.17
497.437	1.24
497.788	1.3
498.139	1.19
498.49	1.16
498.842	1.28
499.193	1.17
499.544	1.17
499.894	1.24
500.245	1.15
500.596	1.2
500.947	1.24
501.298	1.06
501.648	1.23
501.999	1.23
502.35	1.06
502.7	1.29
503.051	1.2
503.401	1.2
503.752	1.08
504.102	1.14
504.452	1.03
504.803	1.1
505.153	1.19
505.503	1.21
505.853	1.3
506.203	1.28
506.553	1.22
506.903	1.25
507.253	1.13
507.603	1.24
507.953	1.16
508.303	1.28
508.652	0.97
509.002	1.25
509.352	1.21
509.701	1.05
510.051	1.2
510.4	1.32
510.75	1.13
511.099	1.14
511.449	1.21
511.798	1.1
512.147	1.16
512.496	1.19
512.846	1.15
513.195	1.24
513.544	1.31
513.893	1.23
514.242	1.08
514.591	1.14
514.939	1.3
515.288	1.31
515.637	1.19
515.986	1.17
516.334	1.27
516.683	1.23
517.032	1.17
517.38	1.05
517.729	1.15
518.077	1.18
518.426	1.25
518.774	1.18
519.122	1.2
519.47	1.19
519.819	1.19
520.167	1.19
520.515	1.2
520.863	1.08
521.211	1.15
521.559	1.11
521.907	1.19
522.255	1.13
522.602	1.25
522.95	1.31
523.298	1.28
523.645	1.31
523.993	1.24
524.341	1.3
524.688	1.2
525.036	1.23
525.383	1.32
525.73	1.17
526.078	1.28
526.425	1.19
526.772	1.19
527.119	1.24
527.466	1.2
527.814	1.26
528.161	1.28
528.508	1.28
528.854	1.18
529.201	1.17
529.548	1.21
529.895	1.15
530.242	1.15
530.588	1.13
530.935	1.16
531.282	1.16
531.628	1.2
531.975	1.2
532.321	1.21
532.667	1.25
533.014	1.25
533.36	1.22
533.706	1.21
534.052	1.27
534.399	1.19
534.745	1.23
535.091	1.18
535.437	1.2
535.783	1.22
536.129	1.13
536.474	1.28
536.82	1.29
537.166	1.04
537.512	1.2
537.857	1.29
538.203	1.13
538.549	1.19
538.894	1.2
539.239	1.23
539.585	1.3
539.93	1.38
540.276	1.24
540.621	1.35
540.966	1.2
541.311	1.3
541.656	1.2
542.001	1.26
542.346	1.2
542.691	1.15
543.036	1.2
543.381	1.21
543.726	1.21
544.071	1.19
544.415	1.25
544.76	1.21
545.105	1.19
545.449	1.26
545.794	1.32
546.138	1.2
546.483	1.23
546.827	1.22
547.171	1.23
547.516	1.27
547.86	1.37
548.204	1.27
548.548	1.26
548.892	1.27
549.236	1.21
549.58	1.26
549.924	1.29
550.268	1.39
550.612	1.26
550.956	1.3
551.3	1.46
551.643	1.28
551.987	1.48
552.33	1.38
552.674	1.27
553.017	1.31
553.361	1.19
553.704	1.14
554.048	1.24
554.391	1.51
554.734	1.23
555.077	1.38
555.42	1.24
555.764	1.2
556.107	1.38
556.45	1.33
556.793	1.38
557.135	1.28
557.478	1.29
557.821	1.36
558.164	1.26
558.507	1.31
558.849	1.49
559.192	1.25
559.534	1.26
559.877	1.14
560.219	1.28
560.562	1.19
560.904	1.49
561.246	1.14
561.589	1.51
561.931	1.31
562.273	1.31
562.615	1.16
562.957	1.18
563.299	1.32
563.641	1.33
563.983	1.1
564.325	1.32
564.667	1.16
565.008	1.18
565.35	1.21
565.692	1.38
566.033	1.32
566.375	1.39
566.716	1.18
567.058	1.2
567.399	1.25
567.741	1.3
568.082	1.38
568.423	1.18
568.764	1.33
569.105	1.42
569.447	1.08
569.788	1.31
570.129	1.29
570.47	1.27
570.811	1.3
571.151	1.18
571.492	1.31
571.833	1.22
572.174	1.38
572.514	1.2
572.855	1.42
573.195	1.25
573.536	1.31
573.876	1.25
574.217	1.21
574.557	1.18
574.898	1.28
575.238	1.39
575.578	1.41
575.918	1.32
576.258	1.53
576.598	1.3
576.938	1.24
577.278	1.24
577.618	1.24
577.958	1.38
578.298	1.35
578.638	1.43
578.977	1.34
579.317	1.44
579.657	1.26
579.996	1.52
580.336	1.25
580.675	1.21
581.014	1.31
581.354	1.23
581.693	1.45
582.032	1.43
582.372	1.45
582.711	1.4
583.05	1.43
583.389	1.32
583.728	1.61
584.067	1.12
584.406	1.53
584.745	1.26
585.083	1.38
585.422	1.44
585.761	1.46
586.1	1.42
586.438	1.35
586.777	1.44
587.115	1.34
587.454	1.2
587.792	1.23
588.13	1.22
588.469	1.29
588.807	1.25
589.145	1.29
589.483	1.03
589.821	1.29
590.159	1.53
590.497	1.29
590.835	1.58
591.173	1.61
591.511	1.57
591.849	1.43
592.187	1.25
592.524	1.39
592.862	1.17
593.2	1.39
593.537	1.39
593.875	1.3
594.212	1.32
594.55	1.49
594.887	1.68
595.224	1.36
595.561	1.42
595.899	1.23
596.236	1.52
596.573	1.32
596.91	1.3
597.247	1.34
597.584	1.42
597.921	1.46
598.258	1.47
598.594	1.26
598.931	1.11
599.268	1.23
599.604	1.37
599.941	1.4
600.277	1.35
600.614	1.41
600.95	1.32
601.287	1.04
601.623	1.18
601.959	1.7
602.296	1.52
602.632	1.45
602.968	1.32
603.304	1.33
603.64	1.46
603.976	1.35
604.312	1.12
604.648	1.45
604.984	1.51
605.319	1.36
605.655	1.26
605.991	1.17
606.326	1.41
606.662	1.07
606.998	1.45
607.333	1.3
607.668	1.26
608.004	1.25
608.339	1.31
608.674	1.51
609.01	1.64
609.345	1.29
609.68	1.33
610.015	1.44
610.35	1.3
610.685	1.13
611.02	1.4
611.355	1.3
611.689	1.24
612.024	1.5
612.359	1.29
612.694	1.64
613.028	1.18
613.363	1.34
613.697	1.28
614.032	1.3
614.366	1.18
614.7	1.39
615.035	1.51
615.369	1.54
615.703	1.66
616.037	1.36
616.371	1.01
616.705	1.35
617.039	1.2
617.373	1.55
617.707	1.24
618.041	1.4
618.375	0.9
618.709	1.54
619.042	1.38
619.376	1.33
619.71	1.31
620.043	1.66
620.377	1.37
620.71	1.56
621.043	1.45
621.377	1.46
621.71	1.52
622.043	1.33
622.376	1.21
622.709	1.88
623.043	1.5
623.376	1.44
623.709	1.57
624.041	1.21
624.374	1.75
624.707	1.43
625.04	0.95
625.373	1.78
625.705	1.62
626.038	1.43
626.37	1
626.703	1.44
627.035	1.43
627.368	1.84
627.7	1.36
628.032	1.24
628.365	1.7
628.697	1.68
629.029	1.46
629.361	1.51
629.693	1.45
630.025	1.46
630.357	1.36
630.689	1.27
631.021	1.61
631.353	1.57
631.684	1.16
632.016	1.29
632.348	1.13
632.679	1.44
633.011	1.16
633.342	1.04
633.674	1.32
634.005	1.57
634.336	1.74
634.668	1.39
634.999	1.34
635.33	1.42
635.661	1.24
635.992	1.63
636.323	1.56
636.654	1.46
636.985	1.12
637.316	1.25
637.647	1.45
637.977	1.34
638.308	1.66
638.639	1.39
638.969	0.74
639.3	1.35
639.63	1.5
639.961	1.37
640.291	1.3
640.622	1.57
640.952	1.54
641.282	0.97
641.612	1.27
641.943	1.33
642.273	1.21
642.603	1.35
642.933	1.62
643.263	1.31
643.592	1.58
643.922	1.73
644.252	1.34
644.582	1.67
644.911	1.33
645.241	1.34
645.571	1.39
645.9	1.55
646.23	1.73
646.559	1.16
646.888	1.48
647.218	1.4
647.547	1.27
647.876	1.14
648.205	1.44
648.534	1.49
648.863	1.25
649.192	1.69
649.521	1.49
649.85	1.49
650.179	1.84
650.508	0.97
650.837	1.5
651.165	1.29
651.494	1.34
651.822	1.74
652.151	0.98
652.479	1.61
652.808	1.53
653.136	1.31
653.465	1.14
653.793	1.88
654.121	1.22
654.449	1.1
654.777	0.95
655.105	1
655.433	1.76
655.761	1.09
656.089	1.37
656.417	1.93
656.745	1.82
657.073	1.32
657.4	1.02
657.728	0.94
658.056	1.37
658.383	1.65
658.711	1.59
659.038	1.4
659.365	1.55
659.693	1.35
660.02	1.29
660.347	1.54
660.674	1.35
661.001	1.31
661.329	1.58
661.656	1
661.982	1.17
662.309	1.24
662.636	1.26
662.963	1.37
663.29	1.24
663.616	0.98
663.943	1.43
664.27	0.95
664.596	1.47
664.923	1.4
665.249	1.48
665.576	1.41
665.902	1.05
666.228	1.36
666.554	1.82
666.881	0.93
667.207	1.78
667.533	1.72
667.859	1.3
668.185	1.74
668.511	1.68
668.837	1.7
669.162	1.73
669.488	0.93
669.814	0.89
670.139	0.79
670.465	1.65
670.791	1.35
671.116	1.41
671.442	1.13
671.767	1.16
672.092	1.07
672.418	1.66
672.743	1.48
673.068	0.8
673.393	1.74
673.718	0.6
674.043	1.56
674.368	0.96
674.693	1.49
675.018	1.81
675.343	1.61
675.667	1.78
675.992	1.54
676.317	0.57
676.641	1.58
676.966	1.51
677.29	1.26
677.615	1.31
677.939	1.45
678.264	0.92
678.588	0.99
678.912	1.56
679.236	0.92
679.56	1.03
679.885	0.71
680.209	1.47
680.532	2.36
680.856	1.87
681.18	2.08
681.504	1.47
681.828	1.12
682.152	1.57
682.475	1.48
682.799	1.37
683.122	1.63
683.446	1.29
683.769	1.75
684.093	1.72
684.416	1.18
684.739	1.4
685.062	1.31
685.386	1.34
685.709	1.71
686.032	1.9
686.355	1.34
686.678	1.4
687.001	1.2
687.324	1.38
687.646	1.49
687.969	1.48
688.292	0.72
688.614	1.53
688.937	1.34
689.26	1.69
689.582	1.74
689.904	1.61
690.227	1.65
690.549	1.64
690.871	1.98
691.194	1.23
691.516	1.52
691.838	1.31
