Data from 21-2_chest_Reflection__1__167.txt Node

Date: Thu Dec 15 17:47:51 CST 2022
User: ToomeyLab
Spectrometer: FLMS14357
Trigger mode: 0
Integration Time (sec): 1.000000E-2
Scans to average: 100
Electric dark correction enabled: true
Nonlinearity correction enabled: false
Boxcar width: 0
XAxis mode: Wavelengths
Number of Pixels in Spectrum: 2048
>>>>>Begin Spectral Data<<<<<
189.047	-202.8
189.435	-202.8
189.823	-202.8
190.211	281.73
190.599	1246.18
190.987	121.18
191.375	-822
191.763	-222.62
192.151	135.83
192.538	-39.12
192.926	132.28
193.314	113.92
193.702	187.76
194.089	-18.08
194.477	124.47
194.864	69.76
195.252	-173.74
195.639	110.12
196.027	-4977.59
196.414	73.96
196.801	80.58
197.189	-13.03
197.576	48.59
197.963	1105.61
198.351	34.34
198.738	-30.75
199.125	-29.95
199.512	41.55
199.899	-47.44
200.286	-29.35
200.673	26.23
201.06	-10.25
201.447	20.99
201.833	-13.37
202.22	14.9
202.607	-96.27
202.994	-6.64
203.38	24.99
203.767	48.78
204.154	20.34
204.54	21.96
204.927	22.54
205.313	33.52
205.699	-1.61
206.086	51.35
206.472	27.23
206.858	-2.58
207.245	-11.36
207.631	-20.68
208.017	21.47
208.403	-79.06
208.789	23.23
209.175	14.76
209.561	-57.66
209.947	-0.32
210.333	-0.98
210.719	19.05
211.105	32.06
211.491	8.36
211.876	-5.57
212.262	43.31
212.648	28.24
213.034	8.37
213.419	3.79
213.805	-28.08
214.19	-34.87
214.576	-24.85
214.961	-3.02
215.346	-28.64
215.732	3.79
216.117	13.51
216.502	-4.63
216.888	16.49
217.273	-11.26
217.658	-0.55
218.043	-2.5
218.428	-2.13
218.813	14.82
219.198	-47.04
219.583	18.03
219.968	-1.42
220.353	-19.67
220.738	7.34
221.122	10.04
221.507	-10.56
221.892	-26.2
222.276	-29.01
222.661	-12.35
223.046	-5.37
223.43	22.46
223.815	-11.17
224.199	-3.88
224.583	-4.99
224.968	-4.23
225.352	-11.2
225.736	8.73
226.121	2.04
226.505	2.73
226.889	1.68
227.273	-5.54
227.657	-0.74
228.041	1.2
228.425	-2.88
228.809	-0.16
229.193	2.39
229.577	0.62
229.961	-0.22
230.344	1.14
230.728	1.66
231.112	1.79
231.495	0.06
231.879	1.12
232.263	1.08
232.646	0.19
233.03	0.96
233.413	0.96
233.797	-0.61
234.18	0.54
234.563	1.12
234.946	0.62
235.33	0.78
235.713	0.49
236.096	1.26
236.479	2.14
236.862	1.67
237.245	-0.29
237.628	1.83
238.011	0.77
238.394	-1.05
238.777	1.42
239.16	2.78
239.543	0.6
239.925	2.13
240.308	0.58
240.691	0.56
241.073	0.51
241.456	1.98
241.838	0.16
242.221	1.56
242.603	1.05
242.986	0.87
243.368	1.6
243.75	1.04
244.133	1.74
244.515	1.27
244.897	1.38
245.279	1.18
245.661	0.85
246.043	0.83
246.425	1.55
246.807	0.92
247.189	1.17
247.571	1.54
247.953	0.95
248.335	1.17
248.717	1.33
249.098	1.35
249.48	1.04
249.862	0.96
250.243	1.21
250.625	0.86
251.006	2.21
251.388	0.65
251.769	0.99
252.151	1.1
252.532	1.22
252.913	1.16
253.295	1.1
253.676	1.29
254.057	1.22
254.438	1.26
254.819	1.52
255.2	1.82
255.581	1.47
255.962	1.32
256.343	2.07
256.724	1.38
257.105	0.57
257.486	0.69
257.867	1.23
258.247	1.53
258.628	0.81
259.009	0.84
259.389	0.22
259.77	0.81
260.15	1.82
260.531	1.39
260.911	1.29
261.292	1.33
261.672	1.24
262.052	1.21
262.432	1.05
262.813	1.33
263.193	0.59
263.573	1.05
263.953	1.1
264.333	1.39
264.713	1.86
265.093	0.86
265.473	0.16
265.853	0.82
266.233	1.28
266.612	0.33
266.992	0.9
267.372	1.71
267.752	1.71
268.131	1.17
268.511	1.02
268.89	1.5
269.27	0.44
269.649	0.69
270.029	1.07
270.408	1.15
270.787	1.3
271.167	1.64
271.546	1.63
271.925	0.65
272.304	1.18
272.683	1.11
273.062	1.16
273.441	0.8
273.82	1.15
274.199	1.01
274.578	1.17
274.957	1.11
275.336	1.46
275.715	1.6
276.093	0.77
276.472	0.55
276.851	1.49
277.229	0.93
277.608	1.05
277.986	1.11
278.365	1
278.743	0.83
279.122	0.73
279.5	0.85
279.878	1.16
280.257	0.91
280.635	0.73
281.013	0.81
281.391	1.03
281.769	1.56
282.147	1.09
282.525	1.07
282.903	0.59
283.281	1.39
283.659	1.4
284.037	0.88
284.415	0.9
284.792	0.95
285.17	1.23
285.548	1.03
285.925	0.82
286.303	1.14
286.68	1.27
287.058	1.08
287.435	1.01
287.813	1.19
288.19	1.03
288.567	0.92
288.945	1.17
289.322	1.75
289.699	0.83
290.076	1.14
290.453	0.85
290.83	1.21
291.207	1.06
291.584	1.27
291.961	1.09
292.338	0.56
292.715	1.22
293.092	1.37
293.469	1.58
293.845	1.13
294.222	1.52
294.599	0.36
294.975	0.69
295.352	1.01
295.728	0.96
296.105	1.27
296.481	1.47
296.858	0.91
297.234	0.5
297.61	1.05
297.986	1.41
298.363	0.94
298.739	1.29
299.115	1.27
299.491	1.5
299.867	1.09
300.243	1.29
300.619	0.99
300.995	1.29
301.371	1.54
301.746	1.22
302.122	0.89
302.498	1.34
302.874	1.63
303.249	1.58
303.625	0.92
304	1.22
304.376	1.79
304.751	1.68
305.127	0.79
305.502	1.8
305.878	1.67
306.253	0.95
306.628	1.36
307.003	1.33
307.378	1.65
307.754	1.02
308.129	1.12
308.504	1.26
308.879	1.7
309.254	1.6
309.629	1.47
310.003	1.28
310.378	1.75
310.753	1.64
311.128	1.01
311.502	1.25
311.877	1.27
312.252	1.44
312.626	1.38
313.001	1.38
313.375	1.54
313.75	1.33
314.124	1.74
314.498	1.77
314.873	1.45
315.247	1.52
315.621	1.12
315.995	1.29
316.369	1.08
316.743	1.15
317.117	1.44
317.491	1.55
317.865	0.97
318.239	1.4
318.613	1.37
318.987	0.98
319.361	1.46
319.734	1.48
320.108	1.82
320.482	1.87
320.855	1.75
321.229	1.74
321.602	1.64
321.976	0.86
322.349	2.28
322.723	1.7
323.096	1.7
323.469	1.72
323.843	1.15
324.216	1.63
324.589	2.26
324.962	1.02
325.335	1.35
325.708	1.71
326.081	1.32
326.454	1.77
326.827	1.85
327.2	1.52
327.573	2.21
327.945	1.39
328.318	1.63
328.691	1.58
329.063	1.17
329.436	0.99
329.809	1.6
330.181	1.94
330.553	1.87
330.926	1.9
331.298	1.45
331.671	1.75
332.043	1.77
332.415	1.52
332.787	1.81
333.159	1.24
333.532	1.9
333.904	1.31
334.276	1.47
334.648	2.04
335.02	1.49
335.391	1.62
335.763	1.93
336.135	1.8
336.507	1.32
336.879	1.95
337.25	1.93
337.622	1.91
337.993	1.7
338.365	1.73
338.736	1.47
339.108	1.63
339.479	1.69
339.851	1.91
340.222	1.66
340.593	2.07
340.964	1.38
341.336	1.44
341.707	2.11
342.078	1.62
342.449	1.74
342.82	1.73
343.191	1.64
343.562	1.96
343.933	1.62
344.303	1.97
344.674	2.05
345.045	1.67
345.416	2.04
345.786	1.88
346.157	1.75
346.527	1.76
346.898	1.47
347.268	1.93
347.639	1.52
348.009	1.82
348.38	1.85
348.75	1.97
349.12	2.09
349.49	1.84
349.861	1.86
350.231	1.6
350.601	1.63
350.971	1.41
351.341	1.67
351.711	1.81
352.081	1.82
352.45	1.52
352.82	1.45
353.19	1.53
353.56	1.76
353.929	2.09
354.299	1.96
354.669	2.03
355.038	2.05
355.408	1.87
355.777	2.08
356.147	1.45
356.516	1.72
356.885	1.95
357.254	1.53
357.624	1.22
357.993	1.74
358.362	1.91
358.731	2.02
359.1	1.8
359.469	1.97
359.838	1.65
360.207	1.57
360.576	1.99
360.945	1.64
361.314	1.76
361.682	1.75
362.051	1.55
362.42	1.79
362.788	1.98
363.157	1.79
363.525	1.84
363.894	1.75
364.262	1.96
364.631	1.89
364.999	1.78
365.367	1.84
365.735	1.46
366.104	1.76
366.472	1.76
366.84	1.87
367.208	2.09
367.576	1.9
367.944	1.66
368.312	1.7
368.68	1.87
369.048	1.93
369.416	1.67
369.783	1.81
370.151	1.79
370.519	1.91
370.886	1.77
371.254	1.89
371.621	2.1
371.989	2.03
372.356	1.94
372.724	1.63
373.091	1.55
373.458	1.53
373.826	2.23
374.193	1.82
374.56	1.93
374.927	1.7
375.294	2.18
375.661	2.2
376.028	1.83
376.395	2.01
376.762	1.76
377.129	1.94
377.496	2
377.863	1.89
378.229	2.03
378.596	1.91
378.963	2.1
379.329	1.73
379.696	1.71
380.062	1.81
380.429	1.89
380.795	1.97
381.161	1.39
381.528	1.44
381.894	1.88
382.26	2.05
382.626	2.13
382.993	2.08
383.359	1.71
383.725	1.57
384.091	2.05
384.457	1.73
384.823	1.73
385.188	2.09
385.554	1.93
385.92	1.98
386.286	1.98
386.651	1.8
387.017	2.11
387.383	1.95
387.748	2.13
388.114	2.15
388.479	1.78
388.845	1.67
389.21	2.08
389.575	2.2
389.94	2.1
390.306	2.02
390.671	2.18
391.036	1.94
391.401	2.09
391.766	1.87
392.131	2.36
392.496	1.88
392.861	1.96
393.226	1.81
393.591	2.09
393.956	1.98
394.32	2.11
394.685	1.89
395.05	1.99
395.414	2.03
395.779	2.02
396.143	1.78
396.508	1.82
396.872	1.94
397.236	2.24
397.601	2.18
397.965	1.94
398.329	2.04
398.694	1.98
399.058	2.27
399.422	2.22
399.786	1.99
400.15	2
400.514	2.05
400.878	1.92
401.242	2.22
401.605	2.11
401.969	2.17
402.333	1.81
402.697	2.37
403.06	2.11
403.424	2.13
403.787	2.18
404.151	2.13
404.514	1.91
404.878	1.89
405.241	2.19
405.604	1.92
405.968	1.95
406.331	2.3
406.694	1.88
407.057	1.99
407.42	1.99
407.783	2
408.146	2.06
408.509	2.03
408.872	2.02
409.235	1.99
409.598	2.13
409.961	2.22
410.323	1.9
410.686	1.82
411.049	2.04
411.411	1.93
411.774	2.03
412.136	1.94
412.499	2
412.861	1.97
413.223	1.91
413.586	2.22
413.948	2.23
414.31	2.11
414.672	1.89
415.035	2.17
415.397	2.1
415.759	1.82
416.121	2.11
416.483	1.86
416.845	2.08
417.206	2.15
417.568	2.06
417.93	2.14
418.292	1.99
418.653	1.94
419.015	2.02
419.377	1.85
419.738	2.14
420.1	2.12
420.461	2.02
420.822	2.06
421.184	2.02
421.545	2.04
421.906	2.1
422.267	2.02
422.629	2.01
422.99	2.05
423.351	2.02
423.712	2.09
424.073	2.24
424.434	2.21
424.795	1.95
425.155	2.03
425.516	1.96
425.877	2.07
426.238	2.01
426.598	2
426.959	2.11
427.32	1.98
427.68	2.15
428.041	2.17
428.401	2
428.761	2.19
429.122	2.01
429.482	2.13
429.842	2.04
430.202	2.24
430.563	2.09
430.923	2.06
431.283	2.21
431.643	2.24
432.003	2.22
432.363	2.26
432.722	2.05
433.082	1.94
433.442	2.34
433.802	2.08
434.161	2.21
434.521	2.07
434.881	2.1
435.24	2
435.6	2.12
435.959	2.24
436.319	2.06
436.678	2.31
437.037	2.28
437.396	2.11
437.756	1.98
438.115	2.2
438.474	2.2
438.833	2.1
439.192	2.14
439.551	2.1
439.91	2.12
440.269	2.19
440.628	2.03
440.987	2.29
441.345	2.16
441.704	2.16
442.063	2.12
442.421	2.12
442.78	2.14
443.138	2.09
443.497	2.22
443.855	2.33
444.214	2.08
444.572	2.3
444.93	2.21
445.288	2.2
445.647	2.09
446.005	2.2
446.363	2.2
446.721	2.23
447.079	2.11
447.437	2.15
447.795	2.22
448.153	2.19
448.51	2.25
448.868	2.09
449.226	2.16
449.584	2.11
449.941	2.22
450.299	2.14
450.656	2.22
451.014	2.25
451.371	2.18
451.729	2.27
452.086	2.31
452.443	2.34
452.801	2.32
453.158	2.21
453.515	2.09
453.872	2.3
454.229	2
454.586	2.13
454.943	2.27
455.3	2.25
455.657	2.23
456.014	2.25
456.371	2.45
456.727	2.34
457.084	2.34
457.441	2.3
457.797	2.17
458.154	2.27
458.51	2.33
458.867	2.26
459.223	2.14
459.58	2.2
459.936	2.22
460.292	2.19
460.648	2.27
461.005	2.22
461.361	2.24
461.717	2.24
462.073	2.26
462.429	2.29
462.785	2.45
463.141	2.27
463.496	2.33
463.852	2.34
464.208	2.28
464.564	2.29
464.919	2.43
465.275	2.38
465.631	2.44
465.986	2.48
466.342	2.29
466.697	2.31
467.052	2.46
467.408	2.44
467.763	2.26
468.118	2.32
468.473	2.49
468.829	2.31
469.184	2.41
469.539	2.23
469.894	2.37
470.249	2.37
470.603	2.39
470.958	2.51
471.313	2.39
471.668	2.47
472.023	2.37
472.377	2.26
472.732	2.35
473.086	2.37
473.441	2.47
473.795	2.56
474.15	2.39
474.504	2.42
474.859	2.25
475.213	2.53
475.567	2.37
475.921	2.42
476.275	2.37
476.63	2.48
476.984	2.32
477.338	2.46
477.692	2.38
478.045	2.49
478.399	2.47
478.753	2.35
479.107	2.53
479.461	2.44
479.814	2.4
480.168	2.4
480.521	2.57
480.875	2.53
481.228	2.48
481.582	2.47
481.935	2.51
482.289	2.55
482.642	2.51
482.995	2.39
483.348	2.36
483.701	2.43
484.055	2.45
484.408	2.4
484.761	2.35
485.114	2.25
485.466	2.25
485.819	2.25
486.172	2.28
486.525	2.33
486.878	2.41
487.23	2.36
487.583	2.41
487.936	2.38
488.288	2.31
488.641	2.31
488.993	2.24
489.345	2.31
489.698	2.32
490.05	2.37
490.402	2.38
490.754	2.34
491.107	2.39
491.459	2.51
491.811	2.51
492.163	2.49
492.515	2.4
492.866	2.34
493.218	2.36
493.57	2.41
493.922	2.42
494.274	2.51
494.625	2.51
494.977	2.5
495.328	2.56
495.68	2.51
496.031	2.44
496.383	2.46
496.734	2.54
497.086	2.6
497.437	2.62
497.788	2.7
498.139	2.58
498.49	2.52
498.842	2.54
499.193	2.46
499.544	2.53
499.894	2.54
500.245	2.65
500.596	2.64
500.947	2.57
501.298	2.51
501.648	2.6
501.999	2.61
502.35	2.56
502.7	2.76
503.051	2.59
503.401	2.7
503.752	2.57
504.102	2.57
504.452	2.58
504.803	2.55
505.153	2.66
505.503	2.66
505.853	2.67
506.203	2.66
506.553	2.62
506.903	2.73
507.253	2.61
507.603	2.7
507.953	2.74
508.303	2.72
508.652	2.68
509.002	2.74
509.352	2.67
509.701	2.54
510.051	2.8
510.4	2.75
510.75	2.69
511.099	2.59
511.449	2.7
511.798	2.69
512.147	2.61
512.496	2.8
512.846	2.71
513.195	2.75
513.544	2.85
513.893	2.72
514.242	2.73
514.591	2.68
514.939	2.75
515.288	2.78
515.637	2.72
515.986	2.73
516.334	2.8
516.683	2.91
517.032	2.73
517.38	2.76
517.729	2.75
518.077	2.73
518.426	2.84
518.774	2.82
519.122	2.81
519.47	2.73
519.819	2.82
520.167	2.67
520.515	2.75
520.863	2.75
521.211	2.74
521.559	2.68
521.907	2.86
522.255	2.7
522.602	2.91
522.95	2.91
523.298	2.91
523.645	2.84
523.993	2.89
524.341	2.89
524.688	2.76
525.036	2.85
525.383	2.92
525.73	2.84
526.078	2.92
526.425	2.84
526.772	2.85
527.119	2.95
527.466	3
527.814	2.88
528.161	3.01
528.508	2.91
528.854	2.89
529.201	2.83
529.548	2.81
529.895	2.82
530.242	2.76
530.588	2.79
530.935	2.85
531.282	2.8
531.628	2.88
531.975	2.89
532.321	2.95
532.667	2.99
533.014	2.96
533.36	3.05
533.706	3.02
534.052	3.1
534.399	3
534.745	2.93
535.091	2.94
535.437	2.91
535.783	2.92
536.129	3
536.474	3.14
536.82	3.08
537.166	2.98
537.512	3.07
537.857	3.05
538.203	3.07
538.549	3.04
538.894	3.12
539.239	3.12
539.585	3.11
539.93	3.14
540.276	3.14
540.621	3.17
540.966	3.26
541.311	3.28
541.656	3.19
542.001	3.14
542.346	3.12
542.691	3.03
543.036	3.09
543.381	3.12
543.726	3.18
544.071	3.13
544.415	3.21
544.76	3.17
545.105	3.15
545.449	3.27
545.794	3.22
546.138	3.21
546.483	3.37
546.827	3.3
547.171	3.35
547.516	3.34
547.86	3.34
548.204	3.38
548.548	3.33
548.892	3.37
549.236	3.4
549.58	3.4
549.924	3.52
550.268	3.55
550.612	3.43
550.956	3.59
551.3	3.71
551.643	3.41
551.987	3.63
552.33	3.71
552.674	3.46
553.017	3.59
553.361	3.66
553.704	3.65
554.048	3.57
554.391	3.59
554.734	3.5
555.077	3.63
555.42	3.57
555.764	3.7
556.107	3.77
556.45	3.73
556.793	3.85
557.135	3.85
557.478	3.81
557.821	3.82
558.164	3.75
558.507	3.6
558.849	3.99
559.192	3.89
559.534	3.76
559.877	3.81
560.219	3.78
560.562	3.78
560.904	4.13
561.246	3.8
561.589	4.13
561.931	3.92
562.273	3.92
562.615	3.93
562.957	3.81
563.299	3.9
563.641	3.96
563.983	3.77
564.325	3.94
564.667	4.13
565.008	3.96
565.35	3.79
565.692	3.86
566.033	4.03
566.375	3.99
566.716	3.91
567.058	3.94
567.399	4.01
567.741	4.06
568.082	3.88
568.423	3.95
568.764	4.04
569.105	4.15
569.447	4.1
569.788	4.13
570.129	4.08
570.47	4.14
570.811	4.24
571.151	4.24
571.492	4.02
571.833	4.1
572.174	4.15
572.514	4.37
572.855	4.28
573.195	4.19
573.536	4.27
573.876	4.18
574.217	4.21
574.557	4.21
574.898	4.31
575.238	4.3
575.578	4.39
575.918	4.33
576.258	4.57
576.598	4.41
576.938	4.34
577.278	4.53
577.618	4.36
577.958	4.5
578.298	4.46
578.638	4.49
578.977	4.55
579.317	4.6
579.657	4.57
579.996	4.64
580.336	4.72
580.675	4.52
581.014	4.63
581.354	4.63
581.693	4.76
582.032	4.93
582.372	4.71
582.711	4.87
583.05	4.93
583.389	4.8
583.728	5.09
584.067	4.66
584.406	4.83
584.745	4.89
585.083	5
585.422	5.23
585.761	4.94
586.1	4.82
586.438	4.95
586.777	4.99
587.115	5.23
587.454	4.87
587.792	5.11
588.13	5.15
588.469	5.12
588.807	5.18
589.145	5
589.483	4.87
589.821	5.14
590.159	5.28
590.497	5.19
590.835	5.27
591.173	5.41
591.511	5.32
591.849	5.1
592.187	5.24
592.524	5.36
592.862	5.21
593.2	5.36
593.537	5.35
593.875	5.27
594.212	5.3
594.55	5.32
594.887	5.44
595.224	5.47
595.561	5.21
595.899	5.44
596.236	5.52
596.573	5.2
596.91	5.37
597.247	5.54
597.584	5.49
597.921	5.55
598.258	5.72
598.594	5.4
598.931	5.39
599.268	5.51
599.604	5.61
599.941	5.55
600.277	5.56
600.614	5.61
600.95	5.69
601.287	5.6
601.623	5.36
601.959	5.95
602.296	5.92
602.632	5.79
602.968	5.73
603.304	5.95
603.64	5.89
603.976	5.78
604.312	5.83
604.648	5.88
604.984	6.1
605.319	5.76
605.655	5.81
605.991	5.74
606.326	5.9
606.662	5.69
606.998	5.99
607.333	5.96
607.668	5.88
608.004	5.9
608.339	6.05
608.674	6.19
609.01	6.23
609.345	6.39
609.68	6.13
610.015	6.27
610.35	6.12
610.685	5.98
611.02	5.9
611.355	6.12
611.689	5.99
612.024	6.3
612.359	6.2
612.694	6.48
613.028	6.24
613.363	6.28
613.697	6.19
614.032	6.72
614.366	6.35
614.7	6.55
615.035	6.67
615.369	6.75
615.703	6.92
616.037	6.53
616.371	6.57
616.705	6.56
617.039	6.41
617.373	6.86
617.707	6.79
618.041	6.5
618.375	6.18
618.709	6.82
619.042	6.75
619.376	6.77
619.71	6.59
620.043	7.03
620.377	6.97
620.71	6.98
621.043	7.08
621.377	6.63
621.71	7.12
622.043	7.06
622.376	7.01
622.709	7.52
623.043	7.19
623.376	6.89
623.709	7.26
624.041	7
624.374	7.41
624.707	7.16
625.04	6.93
625.373	7.43
625.705	7.41
626.038	7.32
626.37	7.05
626.703	7.26
627.035	7.22
627.368	7.63
627.7	7.41
628.032	7.34
628.365	7.16
628.697	7.63
629.029	7.3
629.361	7.74
629.693	7.31
630.025	7.55
630.357	7.47
630.689	7.41
631.021	7.57
631.353	7.36
631.684	7.52
632.016	7.61
632.348	7.41
632.679	7.92
633.011	7.77
633.342	7.88
633.674	7.73
634.005	7.98
634.336	7.74
634.668	7.69
634.999	7.63
635.33	8.07
635.661	7.85
635.992	7.48
636.323	7.81
636.654	7.95
636.985	7.84
637.316	7.87
637.647	7.99
637.977	7.91
638.308	8.44
638.639	8.11
638.969	7.91
639.3	8.53
639.63	7.92
639.961	8.27
640.291	8.15
640.622	8.32
640.952	8.49
641.282	8.05
641.612	8.01
641.943	7.93
642.273	8.15
642.603	8.44
642.933	8.68
643.263	9.06
643.592	8.62
643.922	8.89
644.252	8.47
644.582	8.74
644.911	7.96
645.241	8.56
645.571	8.5
645.9	8.63
646.23	8.94
646.559	8.62
646.888	8.89
647.218	8.86
647.547	8.71
647.876	8.72
648.205	8.29
648.534	8.88
648.863	8.87
649.192	8.84
649.521	8.94
649.85	8.76
650.179	9.05
650.508	9.07
650.837	9.08
651.165	8.92
651.494	8.9
651.822	8.97
652.151	8.48
652.479	9.11
652.808	9.21
653.136	8.78
653.465	8.69
653.793	8.86
654.121	9.14
654.449	9.05
654.777	8.96
655.105	8.81
655.433	9.64
655.761	9.2
656.089	9.39
656.417	9.41
656.745	9.67
657.073	9.12
657.4	9.73
657.728	9.07
658.056	9.27
658.383	9.35
658.711	9.32
659.038	10.13
659.365	9.54
659.693	9.31
660.02	9.07
660.347	9.33
660.674	8.98
661.001	9.42
661.329	9.84
661.656	9.23
661.982	9.33
662.309	9.72
662.636	9.65
662.963	9.52
663.29	9.96
663.616	9.42
663.943	9.71
664.27	9.77
664.596	9.89
664.923	9.9
665.249	10.1
665.576	9.38
665.902	9.72
666.228	10.3
666.554	10.22
666.881	9.74
667.207	9.73
667.533	9.89
667.859	9.71
668.185	9.87
668.511	10.36
668.837	9.94
669.162	10.29
669.488	10.19
669.814	10.51
670.139	9.6
670.465	10.08
670.791	9.9
671.116	10.1
671.442	9.53
671.767	10.58
672.092	10.16
672.418	9.93
672.743	10.14
673.068	10.02
673.393	10.75
673.718	10.25
674.043	10.21
674.368	9.92
674.693	10.06
675.018	11.12
675.343	10.85
675.667	10.39
675.992	10.73
676.317	10.38
676.641	10.95
676.966	11.06
677.29	10.9
677.615	10.21
677.939	10.98
678.264	10.82
678.588	11.3
678.912	11.33
679.236	10.98
679.56	10.67
679.885	10.68
680.209	11.21
680.532	11.4
680.856	11.26
681.18	11.97
681.504	11.34
681.828	10.54
682.152	10.81
682.475	11.24
682.799	11.22
683.122	10.94
683.446	10.16
683.769	11.75
684.093	11.23
684.416	10.55
684.739	11.11
685.062	11.47
685.386	11.67
685.709	11.26
686.032	11.48
686.355	11.1
686.678	11.31
687.001	11.96
687.324	10.91
687.646	11.44
687.969	11.26
688.292	11.29
688.614	12.29
688.937	11.55
689.26	11.87
689.582	11.28
689.904	11.98
690.227	12.18
690.549	11.9
