Data from 21-2_forehead_Reflection__2__178.txt Node

Date: Thu Dec 15 17:52:47 CST 2022
User: ToomeyLab
Spectrometer: FLMS14357
Trigger mode: 0
Integration Time (sec): 1.000000E-2
Scans to average: 100
Electric dark correction enabled: true
Nonlinearity correction enabled: false
Boxcar width: 0
XAxis mode: Wavelengths
Number of Pixels in Spectrum: 2048
>>>>>Begin Spectral Data<<<<<
189.047	105.96
189.435	105.96
189.823	105.96
190.211	-249.56
190.599	2035.67
190.987	91.14
191.375	899.2
191.763	-50.46
192.151	171.65
192.538	68.84
192.926	330.36
193.314	129.58
193.702	-37.53
194.089	-182.85
194.477	92.43
194.864	63.53
195.252	-144.29
195.639	80
196.027	-10275.86
196.414	60.54
196.801	-29.74
197.189	56.66
197.576	-31.64
197.963	139.04
198.351	13.19
198.738	-51.98
199.125	-32.21
199.512	17.2
199.899	29.04
200.286	12.13
200.673	35.27
201.06	-0.22
201.447	49.85
201.833	43.05
202.22	37.11
202.607	-82.44
202.994	1.4
203.38	40.69
203.767	-49.78
204.154	18.39
204.54	47.02
204.927	19.23
205.313	23.27
205.699	30.09
206.086	26.58
206.472	58.47
206.858	-3.04
207.245	-29.94
207.631	20.58
208.017	39.34
208.403	-41.9
208.789	0.96
209.175	9.97
209.561	-61.85
209.947	13.49
210.333	7.14
210.719	29.56
211.105	18.87
211.491	-1.38
211.876	-36.41
212.262	29.86
212.648	10.34
213.034	-23.26
213.419	6.42
213.805	-23.91
214.19	-45.47
214.576	6.59
214.961	18.55
215.346	2.42
215.732	14.71
216.117	14.46
216.502	-10.19
216.888	28.97
217.273	-7.83
217.658	-15.55
218.043	-23.85
218.428	4.07
218.813	11.69
219.198	-0.26
219.583	-10.44
219.968	-15.64
220.353	-17.7
220.738	-9.24
221.122	-12.12
221.507	5.55
221.892	-35.17
222.276	-21.57
222.661	-15.99
223.046	-0.65
223.43	5.51
223.815	0.99
224.199	10.48
224.583	-10.5
224.968	1.87
225.352	-3.04
225.736	5.2
226.121	-2.07
226.505	0.16
226.889	4.09
227.273	-0.31
227.657	1.93
228.041	3.08
228.425	-3.33
228.809	1.02
229.193	1.6
229.577	1.15
229.961	1.05
230.344	1.85
230.728	2.19
231.112	2.13
231.495	-0.22
231.879	-0.19
232.263	2.02
232.646	0.79
233.03	3.44
233.413	4.47
233.797	-0.84
234.18	0.26
234.563	-0.74
234.946	-0.95
235.33	1.08
235.713	0.98
236.096	3.2
236.479	3.25
236.862	0.68
237.245	0.96
237.628	3.56
238.011	1.48
238.394	0.09
238.777	1.2
239.16	2.46
239.543	3.08
239.925	0.39
240.308	-0.13
240.691	0.08
241.073	0.52
241.456	0.64
241.838	1.13
242.221	1.35
242.603	1.7
242.986	1.44
243.368	1.33
243.75	1.84
244.133	1.78
244.515	1.66
244.897	1.83
245.279	1.56
245.661	0.89
246.043	1.72
246.425	2.41
246.807	1.57
247.189	1.74
247.571	1.62
247.953	1.52
248.335	1.72
248.717	1.88
249.098	1.56
249.48	1.33
249.862	1.44
250.243	1.56
250.625	1.33
251.006	2.25
251.388	1
251.769	1.25
252.151	2.06
252.532	1.39
252.913	2.01
253.295	1.38
253.676	1.88
254.057	1.71
254.438	1.24
254.819	0.88
255.2	1.72
255.581	2.23
255.962	2.79
256.343	2.59
256.724	2.2
257.105	0.83
257.486	1.43
257.867	1.29
258.247	1.78
258.628	1.28
259.009	1.1
259.389	0.7
259.77	1.57
260.15	2.22
260.531	1.66
260.911	1.64
261.292	1.72
261.672	1.64
262.052	1.7
262.432	1.3
262.813	1.23
263.193	1.42
263.573	1.47
263.953	0.68
264.333	1.74
264.713	2.28
265.093	1.09
265.473	1.52
265.853	2.07
266.233	1.83
266.612	1.13
266.992	2.41
267.372	1.84
267.752	1.82
268.131	1.61
268.511	1.65
268.89	2.02
269.27	1.26
269.649	1.09
270.029	1.9
270.408	1.4
270.787	2.09
271.167	1.21
271.546	2.46
271.925	2.03
272.304	1.72
272.683	1.39
273.062	1.43
273.441	1.64
273.82	1.65
274.199	1.24
274.578	1.96
274.957	1.5
275.336	1.76
275.715	2.1
276.093	1.36
276.472	1.17
276.851	1.23
277.229	1.69
277.608	1.11
277.986	1.43
278.365	2.11
278.743	1.32
279.122	1.72
279.5	1.34
279.878	1.65
280.257	1.24
280.635	1.94
281.013	1
281.391	0.79
281.769	2.05
282.147	1.52
282.525	1.53
282.903	0.87
283.281	1.71
283.659	1.59
284.037	1.47
284.415	1.69
284.792	1.94
285.17	1.57
285.548	1.79
285.925	1.7
286.303	2.15
286.68	1.69
287.058	1.48
287.435	1.38
287.813	1.64
288.19	1.37
288.567	1.35
288.945	1.36
289.322	1.89
289.699	1.6
290.076	1.49
290.453	1.72
290.83	2.44
291.207	1.34
291.584	2.1
291.961	2.01
292.338	1.46
292.715	1.8
293.092	2.3
293.469	1.81
293.845	2.14
294.222	2.14
294.599	1.91
294.975	1.63
295.352	1.95
295.728	1.62
296.105	1.59
296.481	2.1
296.858	1.87
297.234	1.73
297.61	2.06
297.986	2.37
298.363	1.91
298.739	2.42
299.115	2.38
299.491	2.55
299.867	1.95
300.243	1.69
300.619	1.79
300.995	2.25
301.371	2.3
301.746	2.32
302.122	1.83
302.498	2.28
302.874	2.19
303.249	2.42
303.625	1.99
304	2.98
304.376	2.65
304.751	2.8
305.127	2.35
305.502	2.81
305.878	2.55
306.253	2.6
306.628	2.69
307.003	2.47
307.378	2.7
307.754	2.66
308.129	2.08
308.504	2.78
308.879	2.85
309.254	3.1
309.629	3.27
310.003	2.69
310.378	2.84
310.753	2.81
311.128	2.81
311.502	3.19
311.877	2.78
312.252	2.98
312.626	3.17
313.001	3.08
313.375	3.23
313.75	3.45
314.124	3.35
314.498	3.47
314.873	3.38
315.247	2.78
315.621	3.25
315.995	3.26
316.369	2.98
316.743	2.84
317.117	2.71
317.491	3.39
317.865	3.09
318.239	3.97
318.613	3.42
318.987	2.97
319.361	3.82
319.734	3.76
320.108	3.54
320.482	3.83
320.855	3.05
321.229	3.89
321.602	4.05
321.976	3.52
322.349	4.29
322.723	3.92
323.096	3.83
323.469	3.7
323.843	3.32
324.216	3.85
324.589	4.27
324.962	3.67
325.335	3.75
325.708	3.92
326.081	4.12
326.454	3.91
326.827	3.68
327.2	3.69
327.573	4.51
327.945	3.92
328.318	4.18
328.691	4.45
329.063	4.22
329.436	4.28
329.809	4.73
330.181	4.8
330.553	4.79
330.926	4.69
331.298	4.13
331.671	4.87
332.043	4.18
332.415	4.68
332.787	5.15
333.159	4.22
333.532	5.18
333.904	4.47
334.276	4.4
334.648	4.88
335.02	4.7
335.391	4.6
335.763	4.43
336.135	5.27
336.507	4.65
336.879	4.77
337.25	5.05
337.622	4.94
337.993	5.13
338.365	5.35
338.736	5.01
339.108	5.07
339.479	4.81
339.851	5.5
340.222	5.31
340.593	4.85
340.964	5.08
341.336	5.04
341.707	5.07
342.078	4.76
342.449	4.98
342.82	5.07
343.191	5
343.562	5.47
343.933	5.36
344.303	5.41
344.674	5.13
345.045	5.22
345.416	5.43
345.786	5.08
346.157	5.57
346.527	5.35
346.898	5.24
347.268	5.84
347.639	5.15
348.009	5.63
348.38	5.49
348.75	5.83
349.12	5.78
349.49	5.75
349.861	5.53
350.231	5.76
350.601	5.88
350.971	5.51
351.341	5.76
351.711	5.81
352.081	5.39
352.45	5.61
352.82	5.24
353.19	5.72
353.56	5.41
353.929	5.91
354.299	5.86
354.669	6.54
355.038	6.41
355.408	5.8
355.777	6.22
356.147	6.21
356.516	5.82
356.885	6.07
357.254	6.21
357.624	6.02
357.993	6.18
358.362	6.42
358.731	6.49
359.1	5.95
359.469	6.42
359.838	6.37
360.207	5.97
360.576	6.47
360.945	6.35
361.314	6.29
361.682	6.22
362.051	6.28
362.42	6.62
362.788	6.71
363.157	6.33
363.525	6.57
363.894	6.28
364.262	6.54
364.631	6.71
364.999	6.45
365.367	6.62
365.735	6.4
366.104	6.69
366.472	6.46
366.84	6.94
367.208	6.98
367.576	6.35
367.944	6.59
368.312	6.87
368.68	7.02
369.048	6.74
369.416	6.79
369.783	7.15
370.151	7.46
370.519	7.38
370.886	7.12
371.254	7.22
371.621	7.54
371.989	7.35
372.356	7.17
372.724	7.31
373.091	6.86
373.458	7.18
373.826	7.45
374.193	7.32
374.56	7.63
374.927	7.31
375.294	7.41
375.661	7.78
376.028	7.41
376.395	7.56
376.762	7.43
377.129	7.36
377.496	7.62
377.863	7.62
378.229	7.81
378.596	7.74
378.963	7.58
379.329	7.75
379.696	7.38
380.062	7.79
380.429	7.69
380.795	7.98
381.161	7.75
381.528	7.55
381.894	7.86
382.26	7.79
382.626	7.73
382.993	8.05
383.359	7.85
383.725	7.91
384.091	8.36
384.457	8.02
384.823	8.06
385.188	8.14
385.554	8.31
385.92	7.83
386.286	8.13
386.651	8.2
387.017	8.36
387.383	8.27
387.748	8.39
388.114	8.4
388.479	8.17
388.845	8.32
389.21	8.41
389.575	8.53
389.94	8.55
390.306	8.59
390.671	8.62
391.036	8.44
391.401	8.65
391.766	8.51
392.131	8.71
392.496	8.75
392.861	8.43
393.226	8.75
393.591	8.81
393.956	8.78
394.32	9.04
394.685	8.76
395.05	9.01
395.414	8.75
395.779	9.1
396.143	8.6
396.508	8.81
396.872	8.8
397.236	9.29
397.601	9.08
397.965	8.96
398.329	9.11
398.694	8.97
399.058	9.11
399.422	9.26
399.786	9.1
400.15	9.24
400.514	9.44
400.878	9.32
401.242	9.32
401.605	9.36
401.969	9.23
402.333	9.46
402.697	9.72
403.06	9.45
403.424	9.39
403.787	9.46
404.151	9.61
404.514	9.75
404.878	9.54
405.241	9.52
405.604	9.48
405.968	9.54
406.331	9.81
406.694	9.69
407.057	9.59
407.42	9.92
407.783	9.91
408.146	9.89
408.509	9.73
408.872	9.89
409.235	9.79
409.598	9.82
409.961	9.83
410.323	9.89
410.686	10.1
411.049	10.31
411.411	9.91
411.774	9.97
412.136	9.99
412.499	10.31
412.861	9.84
413.223	10.11
413.586	10.25
413.948	10.35
414.31	10.15
414.672	10.31
415.035	10.71
415.397	10.17
415.759	10.13
416.121	10.52
416.483	10.43
416.845	10.56
417.206	10.4
417.568	10.34
417.93	10.45
418.292	10.3
418.653	10.3
419.015	10.57
419.377	10.45
419.738	10.56
420.1	10.59
420.461	10.45
420.822	10.65
421.184	10.54
421.545	10.67
421.906	10.6
422.267	10.51
422.629	10.49
422.99	10.5
423.351	10.55
423.712	10.56
424.073	10.86
424.434	10.97
424.795	10.77
425.155	10.75
425.516	10.79
425.877	10.86
426.238	10.8
426.598	10.77
426.959	11.01
427.32	10.93
427.68	11
428.041	11.13
428.401	11.11
428.761	11.3
429.122	11.3
429.482	11.2
429.842	11.51
430.202	11.48
430.563	11.42
430.923	11.63
431.283	11.66
431.643	11.5
432.003	11.57
432.363	11.73
432.722	11.64
433.082	11.65
433.442	11.57
433.802	11.72
434.161	11.61
434.521	11.5
434.881	11.82
435.24	11.56
435.6	11.7
435.959	11.78
436.319	11.87
436.678	11.86
437.037	11.96
437.396	12.05
437.756	11.84
438.115	11.9
438.474	11.9
438.833	12.1
439.192	12
439.551	11.99
439.91	12.23
440.269	12.07
440.628	12.02
440.987	12.16
441.345	12.22
441.704	11.98
442.063	12.02
442.421	12.24
442.78	12.23
443.138	12.35
443.497	12.16
443.855	12.54
444.214	12.31
444.572	12.62
444.93	12.46
445.288	12.61
445.647	12.35
446.005	12.58
446.363	12.64
446.721	12.54
447.079	12.63
447.437	12.62
447.795	12.52
448.153	12.51
448.51	12.67
448.868	12.6
449.226	12.69
449.584	12.77
449.941	12.69
450.299	12.76
450.656	12.88
451.014	12.96
451.371	13.04
451.729	13.14
452.086	13.26
452.443	13.1
452.801	13.12
453.158	13.37
453.515	13.33
453.872	13.16
454.229	13.14
454.586	13.12
454.943	13.4
455.3	13.47
455.657	13.51
456.014	13.51
456.371	13.55
456.727	13.79
457.084	13.67
457.441	13.83
457.797	13.64
458.154	13.76
458.51	13.74
458.867	13.75
459.223	13.65
459.58	13.73
459.936	13.8
460.292	13.71
460.648	13.71
461.005	13.63
461.361	13.69
461.717	13.69
462.073	13.83
462.429	13.89
462.785	14.01
463.141	13.94
463.496	14.12
463.852	14.18
464.208	14.3
464.564	14.2
464.919	14.44
465.275	14.43
465.631	14.44
465.986	14.57
466.342	14.35
466.697	14.51
467.052	14.56
467.408	14.64
467.763	14.49
468.118	14.57
468.473	14.75
468.829	14.61
469.184	14.92
469.539	14.68
469.894	14.83
470.249	14.77
470.603	14.77
470.958	14.85
471.313	15.01
471.668	15.1
472.023	15.09
472.377	14.92
472.732	15.13
473.086	15.02
473.441	15.15
473.795	15.36
474.15	15.08
474.504	15.33
474.859	14.99
475.213	15.29
475.567	15.29
475.921	15.23
476.275	15.39
476.63	15.36
476.984	15.32
477.338	15.54
477.692	15.48
478.045	15.42
478.399	15.42
478.753	15.54
479.107	15.58
479.461	15.52
479.814	15.71
480.168	15.53
480.521	15.67
480.875	15.76
481.228	15.69
481.582	15.8
481.935	15.87
482.289	15.94
482.642	15.83
482.995	15.79
483.348	15.61
483.701	15.71
484.055	15.67
484.408	15.59
484.761	15.32
485.114	15.17
485.466	15.19
485.819	15.24
486.172	15.16
486.525	15.34
486.878	15.53
487.23	15.62
487.583	15.71
487.936	15.79
488.288	15.71
488.641	15.73
488.993	15.68
489.345	15.58
489.698	15.64
490.05	15.75
490.402	15.85
490.754	15.86
491.107	16.06
491.459	16.29
491.811	16.32
492.163	16.45
492.515	16.28
492.866	16.19
493.218	16.14
493.57	16.17
493.922	16.23
494.274	16.37
494.625	16.56
494.977	16.62
495.328	16.83
495.68	16.86
496.031	17.12
496.383	16.98
496.734	17.02
497.086	17.4
497.437	17.13
497.788	17.19
498.139	17.11
498.49	17.13
498.842	17.17
499.193	17.15
499.544	17.28
499.894	17.3
500.245	17.42
500.596	17.45
500.947	17.5
501.298	17.45
501.648	17.69
501.999	17.51
502.35	17.61
502.7	17.83
503.051	17.83
503.401	17.96
503.752	17.77
504.102	17.82
504.452	18.05
504.803	17.92
505.153	18.01
505.503	17.98
505.853	18.1
506.203	18.09
506.553	18.03
506.903	18.08
507.253	18.17
507.603	18.17
507.953	18.22
508.303	18.44
508.652	18.07
509.002	18.42
509.352	18.33
509.701	18.28
510.051	18.37
510.4	18.46
510.75	18.12
511.099	18.33
511.449	18.5
511.798	18.52
512.147	18.49
512.496	18.51
512.846	18.54
513.195	18.59
513.544	18.78
513.893	18.56
514.242	18.56
514.591	18.67
514.939	18.87
515.288	19
515.637	18.86
515.986	18.94
516.334	18.98
516.683	19.13
517.032	19.18
517.38	19.09
517.729	19.29
518.077	19.23
518.426	19.38
518.774	19.22
519.122	19.09
519.47	19.06
519.819	19.05
520.167	18.93
520.515	19.01
520.863	18.96
521.211	19.04
521.559	19.22
521.907	19.38
522.255	19.36
522.602	19.6
522.95	19.65
523.298	19.65
523.645	19.83
523.993	19.83
524.341	19.74
524.688	19.9
525.036	19.92
525.383	19.88
525.73	19.86
526.078	19.99
526.425	19.83
526.772	19.73
527.119	19.82
527.466	19.72
527.814	19.71
528.161	19.8
528.508	19.85
528.854	19.75
529.201	19.77
529.548	19.57
529.895	19.42
530.242	19.58
530.588	19.53
530.935	19.56
531.282	19.54
531.628	19.72
531.975	19.83
532.321	20.05
532.667	20.19
533.014	20.32
533.36	20.42
533.706	20.38
534.052	20.31
534.399	20.24
534.745	20.11
535.091	20.11
535.437	20.23
535.783	20.25
536.129	20.43
536.474	20.54
536.82	20.71
537.166	20.77
537.512	20.81
537.857	20.76
538.203	20.66
538.549	20.79
538.894	20.85
539.239	20.89
539.585	20.97
539.93	21.31
540.276	21.33
540.621	21.3
540.966	21.36
541.311	21.58
541.656	21.47
542.001	21.24
542.346	21.08
542.691	20.91
543.036	20.87
543.381	20.94
543.726	20.93
544.071	21.1
544.415	21.14
544.76	21.26
545.105	21.37
545.449	21.53
545.794	21.64
546.138	21.65
546.483	21.84
546.827	21.91
547.171	21.95
547.516	22
547.86	21.93
548.204	21.87
548.548	22.01
548.892	21.96
549.236	22.05
549.58	22.22
549.924	22.2
550.268	22.57
550.612	22.57
550.956	22.66
551.3	23
551.643	22.82
551.987	22.84
552.33	23.12
552.674	22.81
553.017	22.91
553.361	22.93
553.704	22.97
554.048	22.76
554.391	23.05
554.734	22.87
555.077	23.08
555.42	23.11
555.764	23.22
556.107	23.34
556.45	23.31
556.793	23.43
557.135	23.46
557.478	23.41
557.821	23.46
558.164	23.74
558.507	23.35
558.849	23.62
559.192	23.6
559.534	23.87
559.877	23.67
560.219	23.78
560.562	23.93
560.904	24.07
561.246	23.74
561.589	24.06
561.931	23.95
562.273	24.03
562.615	24.02
562.957	23.85
563.299	23.98
563.641	23.9
563.983	24.06
564.325	24.16
564.667	24.3
565.008	24.13
565.35	24.12
565.692	24.22
566.033	24.28
566.375	24.29
566.716	24.23
567.058	24.45
567.399	24.54
567.741	24.35
568.082	24.37
568.423	24.34
568.764	24.4
569.105	24.53
569.447	24.5
569.788	24.47
570.129	24.7
570.47	24.8
570.811	24.81
571.151	24.78
571.492	25.09
571.833	24.87
572.174	24.89
572.514	24.92
572.855	24.99
573.195	24.83
573.536	24.92
573.876	24.82
574.217	24.93
574.557	24.75
574.898	24.94
575.238	25.15
575.578	25.03
575.918	25.08
576.258	25.32
576.598	25.36
576.938	25.2
577.278	25.25
577.618	25.29
577.958	25.43
578.298	25.55
578.638	25.82
578.977	25.5
579.317	25.71
579.657	25.62
579.996	25.75
580.336	25.95
580.675	25.84
581.014	25.76
581.354	25.94
581.693	26.2
582.032	26.27
582.372	26.04
582.711	26.03
583.05	26.24
583.389	26.16
583.728	26.53
584.067	26.33
584.406	26.51
584.745	26.28
585.083	26.25
585.422	26.38
585.761	26.69
586.1	26.48
586.438	26.52
586.777	26.84
587.115	26.78
587.454	26.76
587.792	26.9
588.13	26.88
588.469	26.75
588.807	26.89
589.145	26.82
589.483	26.75
589.821	26.76
590.159	26.8
590.497	26.99
590.835	27.16
591.173	27.17
591.511	27.14
591.849	27.32
592.187	26.97
592.524	27.15
592.862	27.14
593.2	27.21
593.537	27.31
593.875	27.49
594.212	27.47
594.55	27.41
594.887	27.55
595.224	27.55
595.561	27.26
595.899	27.58
596.236	27.66
596.573	27.35
596.91	27.41
597.247	27.69
597.584	27.85
597.921	27.59
598.258	27.73
598.594	27.58
598.931	27.57
599.268	27.48
599.604	27.71
599.941	27.6
600.277	27.85
600.614	27.84
600.95	28.18
601.287	27.87
601.623	27.91
601.959	28.41
602.296	28.37
602.632	28.02
602.968	28.2
603.304	28.42
603.64	28.66
603.976	28.04
604.312	28.32
604.648	28.36
604.984	28.53
605.319	28.02
605.655	28.38
605.991	28.1
606.326	28.34
606.662	28.21
606.998	28.58
607.333	28.44
607.668	28.52
608.004	28.49
608.339	28.73
608.674	28.69
609.01	29.13
609.345	28.9
609.68	28.85
610.015	28.85
610.35	28.76
610.685	28.78
611.02	28.74
611.355	28.74
611.689	28.8
612.024	28.9
612.359	29.05
612.694	28.95
613.028	29.1
613.363	29.04
613.697	29.54
614.032	29.39
614.366	29.11
614.7	29.17
615.035	29.64
615.369	29.76
615.703	30.01
616.037	29.65
616.371	29.41
616.705	29.85
617.039	29.8
617.373	30.07
617.707	29.68
618.041	29.65
618.375	29.29
618.709	30.04
619.042	30.06
619.376	30.03
619.71	29.88
620.043	29.94
620.377	30.16
620.71	29.95
621.043	30.08
621.377	30.24
621.71	30.47
622.043	30.07
622.376	30.53
622.709	30.65
623.043	30.3
623.376	30.46
623.709	30.5
624.041	30.42
624.374	30.16
624.707	30.78
625.04	30.34
625.373	30.83
625.705	30.85
626.038	30.45
626.37	30.59
626.703	30.62
627.035	30.93
627.368	30.6
627.7	30.44
628.032	30.9
628.365	30.65
628.697	30.56
629.029	30.65
629.361	31.13
629.693	30.74
630.025	30.56
630.357	31.01
630.689	30.99
631.021	31.15
631.353	30.96
631.684	31.04
632.016	31.02
632.348	31.34
632.679	30.84
633.011	30.93
633.342	31.64
633.674	31.32
634.005	31.21
634.336	31.54
634.668	31.55
634.999	31.25
635.33	31.43
635.661	31.26
635.992	31.43
636.323	31.46
636.654	31.34
636.985	31.38
637.316	31.71
637.647	31.25
637.977	31.46
638.308	31.8
638.639	31.14
638.969	31.41
639.3	32.01
639.63	31.85
639.961	31.85
640.291	31.9
640.622	32.26
640.952	31.84
641.282	31.88
641.612	31.94
641.943	31.5
642.273	31.74
642.603	32.06
642.933	32.32
643.263	32.13
643.592	32.34
643.922	32.67
644.252	32.58
644.582	32.22
644.911	32.52
645.241	32.2
645.571	32.54
645.9	32.4
646.23	32.79
646.559	32.08
646.888	32.66
647.218	32.87
647.547	31.97
647.876	32.46
648.205	32.6
648.534	32.76
648.863	32.15
649.192	32.48
649.521	32.57
649.85	32.42
650.179	32.51
650.508	32.77
650.837	33.24
651.165	33.09
651.494	33.32
651.822	33.1
652.151	32.62
652.479	32.85
652.808	32.94
653.136	33.05
653.465	32.76
653.793	33.18
654.121	33.29
654.449	33.1
654.777	32.45
655.105	32.66
655.433	33.55
655.761	33.72
656.089	33.25
656.417	33.74
656.745	33.29
657.073	33.52
657.4	33.75
657.728	32.8
658.056	33.04
658.383	33.54
658.711	33.83
659.038	33.51
659.365	33.62
659.693	33.63
660.02	33.83
660.347	33.42
660.674	33.8
661.001	33.59
661.329	33.54
661.656	33.31
661.982	33.67
662.309	33.88
662.636	33.75
662.963	33.66
663.29	34.09
663.616	33.56
663.943	33.7
664.27	33.57
664.596	34.42
664.923	34.45
665.249	34.18
665.576	34.22
665.902	34.22
666.228	34.8
666.554	34.18
666.881	33.63
667.207	34.16
667.533	34.67
667.859	34.06
668.185	34.62
668.511	34.02
668.837	33.68
669.162	34.63
669.488	33.66
669.814	34.77
670.139	34.1
670.465	35.06
670.791	34.2
671.116	34.35
671.442	34.74
671.767	34.46
672.092	34.87
672.418	34.67
672.743	34.29
673.068	33.97
673.393	34.95
673.718	34.45
674.043	34.61
