Data from 1844-1_crown_Reflection__4__115.txt Node

Date: Fri Sep 30 18:41:07 CDT 2022
User: ToomeyLab
Spectrometer: FLMS14357
Trigger mode: 0
Integration Time (sec): 1.000000E-2
Scans to average: 100
Electric dark correction enabled: true
Nonlinearity correction enabled: false
Boxcar width: 0
XAxis mode: Wavelengths
Number of Pixels in Spectrum: 2048
>>>>>Begin Spectral Data<<<<<
189.047	34.98
189.435	34.98
189.823	34.98
190.211	-53.67
190.599	-193.54
190.987	74.21
191.375	98.43
191.763	675.51
192.151	38.71
192.538	-30.63
192.926	17.38
193.314	-107.11
193.702	51.61
194.089	-126.53
194.477	-284.46
194.864	56.87
195.252	20.28
195.639	-26.92
196.027	155.16
196.414	131.6
196.801	90.45
197.189	6.89
197.576	-1101.17
197.963	114.85
198.351	-29.6
198.738	-73.73
199.125	33.46
199.512	59.36
199.899	-12.55
200.286	20.28
200.673	33.96
201.06	39.32
201.447	4.87
201.833	29.09
202.22	-35.15
202.607	24.6
202.994	52.88
203.38	-14.81
203.767	20.42
204.154	24.5
204.54	47.17
204.927	31.86
205.313	-66.49
205.699	30.63
206.086	-41.9
206.472	3.15
206.858	16.76
207.245	-0.81
207.631	-24.57
208.017	-17.3
208.403	30.36
208.789	9.15
209.175	21.16
209.561	-7.55
209.947	13.8
210.333	8.59
210.719	-19.34
211.105	-14.46
211.491	-11.07
211.876	49.98
212.262	15.99
212.648	5.26
213.034	-15.9
213.419	16.69
213.805	-1.19
214.19	27.54
214.576	3.54
214.961	0.92
215.346	14.6
215.732	4.31
216.117	-14.57
216.502	9.4
216.888	4.69
217.273	-8.25
217.658	17.16
218.043	0.84
218.428	17.92
218.813	9.37
219.198	33.69
219.583	27.34
219.968	12.93
220.353	-9.84
220.738	13.74
221.122	-17.76
221.507	19.24
221.892	-3.63
222.276	-7.86
222.661	0.89
223.046	-7.01
223.43	0.29
223.815	3.12
224.199	9.97
224.583	5.44
224.968	5.7
225.352	-2.59
225.736	6.88
226.121	10.47
226.505	7.58
226.889	12.58
227.273	-4.61
227.657	5.94
228.041	-4.03
228.425	7.44
228.809	2.1
229.193	3.62
229.577	0.86
229.961	3.4
230.344	1.84
230.728	1.89
231.112	2.5
231.495	0.62
231.879	3.41
232.263	1.51
232.646	1.03
233.03	1.76
233.413	2.54
233.797	2.58
234.18	1.57
234.563	4.91
234.946	3.57
235.33	2.35
235.713	3.4
236.096	2.01
236.479	1.79
236.862	2.14
237.245	3.05
237.628	0.47
238.011	3.35
238.394	2.07
238.777	-0.28
239.16	0.01
239.543	2.61
239.925	1.15
240.308	0.71
240.691	2.94
241.073	3.1
241.456	2.06
241.838	3.17
242.221	2.24
242.603	2.93
242.986	2.72
243.368	1.48
243.75	1.61
244.133	2.47
244.515	2.15
244.897	1.91
245.279	2.4
245.661	2.1
246.043	2.48
246.425	2.82
246.807	1.7
247.189	2.67
247.571	2.8
247.953	2.41
248.335	2.17
248.717	2.03
249.098	2.11
249.48	2.35
249.862	2.04
250.243	2.15
250.625	1.79
251.006	2.14
251.388	1.45
251.769	2.71
252.151	1.75
252.532	2.39
252.913	0.99
253.295	2.25
253.676	1.92
254.057	2.2
254.438	2.05
254.819	2.92
255.2	1.77
255.581	3
255.962	2.98
256.343	0.82
256.724	2.64
257.105	3.35
257.486	2.99
257.867	2.31
258.247	1.28
258.628	2.04
259.009	3.08
259.389	1.39
259.77	2.45
260.15	2.12
260.531	2.3
260.911	2
261.292	1.89
261.672	1.84
262.052	1.83
262.432	2
262.813	2.35
263.193	1.91
263.573	2.2
263.953	1.51
264.333	2.23
264.713	1.86
265.093	1
265.473	2.4
265.853	1.28
266.233	1.84
266.612	2.26
266.992	1.23
267.372	1.63
267.752	1.78
268.131	2.22
268.511	1.75
268.89	1.62
269.27	2.04
269.649	1.79
270.029	2.43
270.408	1.85
270.787	2.38
271.167	2.17
271.546	2.14
271.925	2.16
272.304	1.88
272.683	1.84
273.062	2.03
273.441	1.75
273.82	1.16
274.199	2.12
274.578	1.83
274.957	2.11
275.336	1.97
275.715	1.28
276.093	2.04
276.472	1.94
276.851	1.56
277.229	1.82
277.608	1.81
277.986	2.22
278.365	2.1
278.743	2.08
279.122	1.89
279.5	1.48
279.878	2.12
280.257	1.37
280.635	1.98
281.013	2.42
281.391	2.02
281.769	1.54
282.147	1.62
282.525	2.26
282.903	1.56
283.281	1.79
283.659	1.95
284.037	2.04
284.415	2.16
284.792	1.99
285.17	1.02
285.548	1.92
285.925	2.23
286.303	1.51
286.68	1.45
287.058	1.57
287.435	1.89
287.813	1.6
288.19	2
288.567	1.63
288.945	1.21
289.322	1.81
289.699	1.89
290.076	1.88
290.453	1.6
290.83	1.69
291.207	1.58
291.584	1.79
291.961	1.73
292.338	1.7
292.715	2.06
293.092	1.52
293.469	1.88
293.845	1.58
294.222	1.73
294.599	1.87
294.975	1.51
295.352	1.85
295.728	1.82
296.105	1.49
296.481	1.75
296.858	2.06
297.234	2.11
297.61	1.6
297.986	1.36
298.363	1.67
298.739	1.27
299.115	1.48
299.491	1.69
299.867	1.65
300.243	1.6
300.619	1.76
300.995	2.07
301.371	2.18
301.746	1.75
302.122	2.26
302.498	1.48
302.874	1.67
303.249	1.96
303.625	1.62
304	1.61
304.376	1.57
304.751	1.89
305.127	1.96
305.502	2.09
305.878	2.08
306.253	1.43
306.628	1.91
307.003	2.15
307.378	2.18
307.754	1.7
308.129	1.72
308.504	1.76
308.879	1.93
309.254	1.55
309.629	2.19
310.003	1.33
310.378	1.64
310.753	2
311.128	1.87
311.502	1.79
311.877	1.68
312.252	1.97
312.626	1.85
313.001	1.3
313.375	1.72
313.75	1.7
314.124	1.85
314.498	1.66
314.873	1.56
315.247	1.68
315.621	2.34
315.995	2.21
316.369	1.35
316.743	1.94
317.117	1.94
317.491	2.52
317.865	2.62
318.239	1.88
318.613	2.39
318.987	2.3
319.361	1.76
319.734	1.57
320.108	2.11
320.482	1.5
320.855	1.52
321.229	2.51
321.602	1.47
321.976	2.23
322.349	2.4
322.723	1.5
323.096	1.96
323.469	2.2
323.843	1.47
324.216	1.27
324.589	2.4
324.962	1.76
325.335	1.56
325.708	1.95
326.081	2.08
326.454	1.91
326.827	1.73
327.2	1.6
327.573	1.44
327.945	1.88
328.318	1.45
328.691	2.02
329.063	1.76
329.436	1.52
329.809	2.19
330.181	1.91
330.553	1.6
330.926	1.98
331.298	1.74
331.671	2.06
332.043	1.73
332.415	2.03
332.787	2.01
333.159	1.91
333.532	1.84
333.904	1.55
334.276	2.45
334.648	1.84
335.02	2.01
335.391	1.9
335.763	1.73
336.135	2.02
336.507	1.93
336.879	2.11
337.25	1.92
337.622	1.98
337.993	1.82
338.365	1.37
338.736	1.79
339.108	2.07
339.479	2.55
339.851	1.69
340.222	2.33
340.593	1.47
340.964	1.73
341.336	2.15
341.707	1.87
342.078	2.04
342.449	2.35
342.82	1.77
343.191	1.75
343.562	1.56
343.933	1.86
344.303	2.07
344.674	2.07
345.045	1.94
345.416	2.26
345.786	1.92
346.157	2.34
346.527	1.71
346.898	1.85
347.268	1.69
347.639	1.6
348.009	1.68
348.38	2.15
348.75	2.48
349.12	1.78
349.49	2.08
349.861	1.68
350.231	1.56
350.601	1.96
350.971	1.81
351.341	1.91
351.711	1.69
352.081	1.94
352.45	1.89
352.82	1.98
353.19	2.23
353.56	2.04
353.929	1.48
354.299	1.94
354.669	1.58
355.038	1.83
355.408	2.37
355.777	2
356.147	1.84
356.516	1.83
356.885	1.48
357.254	1.95
357.624	2.25
357.993	1.11
358.362	1.84
358.731	1.68
359.1	1.81
359.469	1.72
359.838	2.24
360.207	1.65
360.576	2.08
360.945	2.06
361.314	1.69
361.682	1.94
362.051	2.09
362.42	2.11
362.788	2.04
363.157	1.8
363.525	1.68
363.894	1.84
364.262	2.1
364.631	2.18
364.999	2.03
365.367	2.04
365.735	1.72
366.104	1.78
366.472	2.41
366.84	2.24
367.208	2.24
367.576	2.63
367.944	1.7
368.312	1.75
368.68	1.52
369.048	1.97
369.416	2.19
369.783	1.69
370.151	2.11
370.519	1.92
370.886	2.16
371.254	2.06
371.621	2.25
371.989	2.12
372.356	1.93
372.724	2.01
373.091	1.85
373.458	2.07
373.826	2.18
374.193	2.4
374.56	2.09
374.927	2.42
375.294	2.27
375.661	1.88
376.028	1.86
376.395	2.09
376.762	1.88
377.129	2.12
377.496	2.08
377.863	1.96
378.229	2.05
378.596	2.18
378.963	2.32
379.329	1.73
379.696	2.12
380.062	2.31
380.429	2.09
380.795	1.84
381.161	1.61
381.528	1.88
381.894	1.91
382.26	1.99
382.626	2.03
382.993	2.21
383.359	1.88
383.725	1.95
384.091	1.95
384.457	2.07
384.823	2.28
385.188	1.85
385.554	1.93
385.92	2.09
386.286	1.96
386.651	2.22
387.017	1.74
387.383	1.87
387.748	1.6
388.114	2.05
388.479	1.97
388.845	1.91
389.21	2.07
389.575	2.05
389.94	2.15
390.306	2.11
390.671	2.07
391.036	2.17
391.401	2.06
391.766	2.12
392.131	1.95
392.496	2.06
392.861	2.09
393.226	2
393.591	1.89
393.956	2.13
394.32	1.99
394.685	2
395.05	2.15
395.414	1.93
395.779	2.17
396.143	2.08
396.508	1.78
396.872	2.08
397.236	1.93
397.601	1.92
397.965	2.12
398.329	1.94
398.694	2.09
399.058	2.18
399.422	2.18
399.786	2
400.15	1.98
400.514	2.09
400.878	2.15
401.242	1.89
401.605	1.8
401.969	1.75
402.333	2.02
402.697	2.27
403.06	2.11
403.424	2.05
403.787	2.29
404.151	2.28
404.514	2.06
404.878	2.05
405.241	2.12
405.604	1.94
405.968	2.05
406.331	1.99
406.694	2.12
407.057	1.95
407.42	2.19
407.783	1.9
408.146	1.92
408.509	2.04
408.872	2.1
409.235	2.19
409.598	2.17
409.961	2.13
410.323	2.11
410.686	2.21
411.049	2.07
411.411	2.17
411.774	2.27
412.136	2.14
412.499	2.14
412.861	2
413.223	1.66
413.586	2.01
413.948	2.12
414.31	2.04
414.672	2.09
415.035	2
415.397	2.01
415.759	2.17
416.121	2.13
416.483	1.82
416.845	2.03
417.206	2.04
417.568	2
417.93	1.87
418.292	2.15
418.653	1.92
419.015	2.06
419.377	2.04
419.738	1.97
420.1	2.03
420.461	1.99
420.822	2.04
421.184	2.01
421.545	1.83
421.906	1.81
422.267	1.95
422.629	2.01
422.99	1.92
423.351	1.97
423.712	1.94
424.073	1.96
424.434	2.02
424.795	2.06
425.155	1.95
425.516	1.96
425.877	2.02
426.238	1.93
426.598	2.02
426.959	2.01
427.32	1.99
427.68	2.05
428.041	1.95
428.401	1.99
428.761	2.06
429.122	2.13
429.482	1.99
429.842	2.05
430.202	1.98
430.563	2.09
430.923	1.93
431.283	1.88
431.643	2.08
432.003	1.93
432.363	1.9
432.722	2.15
433.082	2.08
433.442	1.98
433.802	2.11
434.161	1.92
434.521	2
434.881	1.98
435.24	1.91
435.6	2.01
435.959	1.98
436.319	2
436.678	1.96
437.037	2.1
437.396	2.09
437.756	2.01
438.115	1.96
438.474	1.92
438.833	2.07
439.192	2.03
439.551	2.04
439.91	2.06
440.269	1.77
440.628	2.04
440.987	1.97
441.345	2.01
441.704	1.95
442.063	2.12
442.421	1.98
442.78	2.05
443.138	1.84
443.497	2.07
443.855	2.15
444.214	2.09
444.572	2
444.93	1.86
445.288	2.01
445.647	1.91
446.005	1.96
446.363	2.13
446.721	2.1
447.079	1.96
447.437	1.99
447.795	1.92
448.153	1.94
448.51	1.94
448.868	1.99
449.226	2.04
449.584	2
449.941	2
450.299	1.97
450.656	2.11
451.014	2.15
451.371	2.02
451.729	2.2
452.086	2.04
452.443	2.13
452.801	2.06
453.158	1.96
453.515	1.97
453.872	2.06
454.229	2.07
454.586	2.19
454.943	2.16
455.3	2
455.657	2.11
456.014	1.87
456.371	2
456.727	1.97
457.084	1.95
457.441	1.97
457.797	1.92
458.154	1.85
458.51	1.95
458.867	2.03
459.223	2.04
459.58	2.13
459.936	2.17
460.292	2.17
460.648	2.02
461.005	2.04
461.361	1.96
461.717	1.98
462.073	1.95
462.429	1.99
462.785	2.03
463.141	2.08
463.496	1.96
463.852	1.99
464.208	2.21
464.564	1.85
464.919	2.04
465.275	2
465.631	2.26
465.986	1.96
466.342	2.26
466.697	2.11
467.052	2.07
467.408	2.04
467.763	1.92
468.118	2.14
468.473	1.93
468.829	1.95
469.184	2.04
469.539	2.05
469.894	2.15
470.249	2.02
470.603	2.08
470.958	2.12
471.313	2.02
471.668	2.1
472.023	1.87
472.377	2.09
472.732	2.07
473.086	2.03
473.441	2.16
473.795	1.99
474.15	1.96
474.504	2.09
474.859	1.99
475.213	2.16
475.567	2.1
475.921	1.98
476.275	2.01
476.63	2.02
476.984	2.02
477.338	2.05
477.692	1.98
478.045	2.02
478.399	2.07
478.753	2
479.107	1.84
479.461	1.99
479.814	1.94
480.168	2.06
480.521	2
480.875	2.12
481.228	1.94
481.582	2.04
481.935	2.13
482.289	2.19
482.642	2.1
482.995	1.94
483.348	2.01
483.701	2.04
484.055	2.03
484.408	1.99
484.761	1.88
485.114	1.86
485.466	1.84
485.819	1.83
486.172	1.89
486.525	1.96
486.878	1.99
487.23	1.94
487.583	1.96
487.936	1.99
488.288	2.03
488.641	1.88
488.993	1.95
489.345	1.88
489.698	1.91
490.05	1.91
490.402	1.96
490.754	1.99
491.107	1.97
491.459	1.95
491.811	1.9
492.163	1.98
492.515	1.98
492.866	1.94
493.218	1.9
493.57	1.9
493.922	1.92
494.274	1.97
494.625	2.04
494.977	2.05
495.328	2.08
495.68	1.9
496.031	1.93
496.383	2.05
496.734	2.07
497.086	2.1
497.437	2.06
497.788	2.17
498.139	1.97
498.49	1.94
498.842	2.06
499.193	2
499.544	1.99
499.894	2.09
500.245	1.96
500.596	2.04
500.947	1.98
501.298	2.08
501.648	1.98
501.999	2.09
502.35	2.1
502.7	2.08
503.051	2.05
503.401	2.05
503.752	2.02
504.102	2.37
504.452	2.1
504.803	1.96
505.153	2.15
505.503	2.07
505.853	1.97
506.203	1.9
506.553	2.08
506.903	2.08
507.253	2.14
507.603	2.11
507.953	2.18
508.303	2.21
508.652	1.98
509.002	2.16
509.352	2.09
509.701	2.07
510.051	2.17
510.4	2.09
510.75	1.99
511.099	1.92
511.449	2.03
511.798	1.93
512.147	1.98
512.496	2.03
512.846	2.1
513.195	2.09
513.544	2.07
513.893	2.09
514.242	2.06
514.591	2.09
514.939	2
515.288	2.1
515.637	2.05
515.986	2.14
516.334	1.98
516.683	1.94
517.032	2.01
517.38	2.02
517.729	2.16
518.077	1.94
518.426	1.97
518.774	1.99
519.122	2
519.47	2.07
519.819	2.03
520.167	2.03
520.515	2.06
520.863	2.01
521.211	2.06
521.559	2.07
521.907	2.07
522.255	1.92
522.602	2.03
522.95	2.06
523.298	2.08
523.645	2.1
523.993	2.11
524.341	2.05
524.688	2.06
525.036	1.96
525.383	1.84
525.73	2.04
526.078	2.07
526.425	1.95
526.772	2.04
527.119	1.91
527.466	1.9
527.814	2.01
528.161	1.92
528.508	2.06
528.854	1.95
529.201	1.96
529.548	1.96
529.895	1.9
530.242	1.88
530.588	1.94
530.935	1.94
531.282	1.96
531.628	2
531.975	1.98
532.321	1.99
532.667	2.03
533.014	1.96
533.36	1.98
533.706	1.99
534.052	2.03
534.399	2.01
534.745	2
535.091	1.94
535.437	2
535.783	2.01
536.129	2.01
536.474	2.05
536.82	1.97
537.166	2.06
537.512	2
537.857	2.05
538.203	1.94
538.549	2.01
538.894	2.05
539.239	2.08
539.585	1.99
539.93	2
540.276	1.95
540.621	2.09
540.966	2.14
541.311	2.06
541.656	2.06
542.001	2.16
542.346	2.01
542.691	1.93
543.036	1.94
543.381	1.93
543.726	1.96
544.071	2.08
544.415	2
544.76	2.02
545.105	1.96
545.449	2.04
545.794	1.9
546.138	2.01
546.483	2.17
546.827	1.99
547.171	2.15
547.516	1.97
547.86	2.01
548.204	2.06
548.548	2.04
548.892	2.03
549.236	2.13
549.58	2.09
549.924	2.01
550.268	2.2
550.612	2.24
550.956	2.11
551.3	2.17
551.643	2.18
551.987	2.08
552.33	2.07
552.674	2.08
553.017	1.98
553.361	2.05
553.704	2.19
554.048	2.08
554.391	2.12
554.734	2
555.077	2.13
555.42	2.09
555.764	2.17
556.107	2.23
556.45	2.12
556.793	2.06
557.135	2.07
557.478	2.09
557.821	1.96
558.164	2.24
558.507	2.11
558.849	2.16
559.192	2.02
559.534	2.22
559.877	2
560.219	2.1
560.562	2.18
560.904	1.95
561.246	2.12
561.589	2.14
561.931	2.04
562.273	2.08
562.615	2.02
562.957	2.18
563.299	2.14
563.641	1.95
563.983	1.96
564.325	2.12
564.667	2.48
565.008	2.03
565.35	2.1
565.692	2.19
566.033	1.87
566.375	1.99
566.716	2.15
567.058	2.12
567.399	2.08
567.741	2.09
568.082	2.27
568.423	2.13
568.764	2.18
569.105	2.06
569.447	1.99
569.788	2.24
570.129	2.07
570.47	2.1
570.811	2.09
571.151	2.05
571.492	2.25
571.833	2.07
572.174	1.91
572.514	2.28
572.855	2
573.195	2.12
573.536	2.06
573.876	2.13
574.217	1.97
574.557	1.99
574.898	2.02
575.238	2.27
575.578	2.22
575.918	2.01
576.258	2.13
576.598	2.12
576.938	2.19
577.278	2.22
577.618	2.02
577.958	1.99
578.298	2.18
578.638	2.21
578.977	2.1
579.317	1.93
579.657	2.09
579.996	2.05
580.336	2.32
580.675	2.07
581.014	1.92
581.354	2.2
581.693	2.22
582.032	2.03
582.372	2.21
582.711	1.84
583.05	2.07
583.389	2.17
583.728	2.04
584.067	2.12
584.406	2.07
584.745	2.01
585.083	2.19
585.422	2.25
585.761	2.23
586.1	2.32
586.438	2.49
586.777	2.36
587.115	2.11
587.454	2.22
587.792	1.85
588.13	2.1
588.469	2.1
588.807	2.13
589.145	1.96
589.483	2.34
589.821	2.15
590.159	2.66
590.497	2.11
590.835	2.23
591.173	2.05
591.511	1.98
591.849	2.17
592.187	2.21
592.524	2.16
592.862	2.27
593.2	2.3
593.537	2.18
593.875	2.42
594.212	2.04
594.55	1.99
594.887	2.38
595.224	2.25
595.561	2.1
595.899	2.13
596.236	2.5
596.573	2.03
596.91	1.96
597.247	1.94
597.584	2.37
597.921	1.95
598.258	2.13
598.594	2.02
598.931	2.11
599.268	2.05
599.604	2.18
599.941	1.99
600.277	2.08
600.614	2.21
600.95	2.33
601.287	2.32
601.623	2.16
601.959	2.08
602.296	2.41
602.632	2.31
602.968	2.32
603.304	2.19
603.64	2.3
603.976	2.06
604.312	2.16
604.648	2.41
604.984	2.27
605.319	2.23
605.655	2.16
605.991	2.13
606.326	2.27
606.662	2.18
606.998	2.25
607.333	1.97
607.668	2.11
608.004	2.26
608.339	2.34
608.674	2.25
609.01	2.08
609.345	1.78
609.68	2.37
610.015	2.43
610.35	2.15
610.685	1.94
611.02	1.95
611.355	1.97
611.689	1.97
612.024	2.34
612.359	2.07
612.694	2.37
613.028	2.29
613.363	1.83
613.697	2.31
614.032	2.2
614.366	2.23
614.7	2.1
615.035	2.45
615.369	2.17
615.703	2.38
616.037	2.1
616.371	2.04
616.705	2.11
617.039	2.32
617.373	2.36
617.707	2.17
618.041	2.3
618.375	2.09
618.709	2.3
619.042	1.98
619.376	2.42
619.71	2.31
620.043	2.21
620.377	2.5
620.71	1.68
621.043	2.5
621.377	2.04
621.71	2.02
622.043	2.23
622.376	2.11
622.709	2.03
623.043	2.26
623.376	1.89
623.709	1.96
624.041	2.18
624.374	2.1
624.707	2.18
625.04	2.29
625.373	2.3
625.705	2.07
626.038	2.25
626.37	2.45
626.703	2.62
627.035	2.18
627.368	2.5
627.7	2.34
628.032	2.19
628.365	2.1
628.697	2.12
629.029	2.24
629.361	2.22
629.693	2.35
630.025	2.18
630.357	2.2
630.689	2.46
631.021	2.09
631.353	2.11
631.684	2.16
632.016	2.2
632.348	2.51
632.679	2.4
633.011	2.21
633.342	2.33
633.674	2.66
634.005	2.51
634.336	2.7
634.668	2.32
634.999	2.41
635.33	2.53
635.661	2.24
635.992	2.35
636.323	2.27
636.654	2.11
636.985	2.04
637.316	2.66
637.647	2.1
637.977	2.46
638.308	2.11
638.639	1.98
638.969	2.13
639.3	2.43
639.63	1.78
639.961	2.31
640.291	2.19
640.622	2.62
640.952	2.45
641.282	2.34
641.612	2.51
641.943	2.37
642.273	2.44
642.603	1.97
642.933	2.05
643.263	2.59
643.592	2.41
643.922	1.73
644.252	2.42
644.582	2.29
644.911	2.36
645.241	2.3
645.571	2.37
645.9	2.49
646.23	1.98
646.559	2.24
646.888	2.79
647.218	2.19
647.547	2.64
647.876	2.25
648.205	2.25
648.534	2.53
648.863	2.47
649.192	1.88
649.521	2.38
649.85	2.39
650.179	2.47
650.508	2.21
650.837	2.46
651.165	2.17
651.494	2.2
651.822	2.26
652.151	2.72
652.479	2.96
652.808	2.2
653.136	2.46
653.465	2.45
653.793	1.98
654.121	2.39
654.449	2.59
654.777	2.16
655.105	2.56
655.433	2.06
655.761	3.12
656.089	2.88
656.417	2.15
656.745	1.98
657.073	2.22
657.4	2.83
657.728	2.31
658.056	1.93
658.383	2.24
658.711	2.82
659.038	1.72
659.365	2.41
659.693	1.84
660.02	2.32
660.347	2.78
660.674	2.44
661.001	2.24
661.329	2.46
661.656	2.27
661.982	2.3
662.309	2.63
662.636	2.49
662.963	2.19
663.29	2.44
663.616	2.28
663.943	2.5
664.27	2.24
664.596	2.39
664.923	2.7
665.249	2.69
665.576	2.26
665.902	2.5
666.228	2.68
666.554	2.58
666.881	2.61
667.207	2.32
667.533	2.14
667.859	2.86
668.185	2.61
668.511	2.71
668.837	2.53
669.162	2.86
669.488	2.49
669.814	2.33
670.139	2.2
670.465	2.72
670.791	2.63
671.116	2.16
671.442	3.1
671.767	2.72
672.092	2.09
672.418	1.98
672.743	2.8
673.068	2.68
673.393	2.34
673.718	2.62
674.043	2.66
674.368	2.36
674.693	2.41
675.018	2.2
675.343	2.95
675.667	2.7
675.992	2.59
676.317	2.68
676.641	2.74
676.966	2.36
677.29	1.92
677.615	1.67
677.939	1.86
678.264	1.61
678.588	3.07
678.912	2.45
679.236	2.78
679.56	2.2
679.885	2.3
680.209	2.57
680.532	2.63
680.856	3.1
681.18	2.68
681.504	2.29
681.828	2.5
682.152	2.09
682.475	2.39
682.799	2.18
683.122	2.6
683.446	3
683.769	3
684.093	3.19
684.416	2.56
684.739	2.8
685.062	2.64
685.386	2.37
685.709	2.6
686.032	1.7
686.355	2.69
686.678	2.34
687.001	2.91
687.324	3.08
687.646	2.55
687.969	2.28
688.292	2.8
688.614	2.37
688.937	2.42
689.26	2.41
689.582	2.8
689.904	2.47
690.227	2.76
690.549	1.9
690.871	2.23
691.194	2.42
691.516	2.51
691.838	2.51
692.16	2.69
692.482	3.41
692.804	3.39
693.126	1.95
693.448	2.16
693.769	1.78
694.091	1.53
694.413	2.95
