Data from 1844-1_forehead_Reflection__4__120.txt Node

Date: Fri Sep 30 18:42:26 CDT 2022
User: ToomeyLab
Spectrometer: FLMS14357
Trigger mode: 0
Integration Time (sec): 1.000000E-2
Scans to average: 100
Electric dark correction enabled: true
Nonlinearity correction enabled: false
Boxcar width: 0
XAxis mode: Wavelengths
Number of Pixels in Spectrum: 2048
>>>>>Begin Spectral Data<<<<<
189.047	-90.59
189.435	-90.59
189.823	-90.59
190.211	-9.68
190.599	-420.27
190.987	99.02
191.375	-51.56
191.763	208.84
192.151	33.67
192.538	-29.32
192.926	90.43
193.314	227.45
193.702	66.1
194.089	197.61
194.477	-2627.46
194.864	-11.91
195.252	-2.66
195.639	154.02
196.027	-181.56
196.414	131.72
196.801	140.21
197.189	12.78
197.576	162.62
197.963	124.11
198.351	-24.79
198.738	-11.91
199.125	54.44
199.512	-21.62
199.899	62.35
200.286	27.54
200.673	52.67
201.06	59.03
201.447	22.97
201.833	41.98
202.22	46.65
202.607	50.84
202.994	54.47
203.38	42.79
203.767	-14.26
204.154	56.17
204.54	35.34
204.927	49.73
205.313	-56.35
205.699	31.8
206.086	-30.64
206.472	7.39
206.858	24.28
207.245	9.23
207.631	38.21
208.017	-9.01
208.403	45.54
208.789	7.63
209.175	19.04
209.561	29.09
209.947	-5.4
210.333	-38.63
210.719	-5.39
211.105	7.48
211.491	15.61
211.876	63.33
212.262	47.27
212.648	22.28
213.034	6.45
213.419	57.02
213.805	20.46
214.19	14.77
214.576	4.26
214.961	33.24
215.346	17.23
215.732	29.83
216.117	-13.07
216.502	28.73
216.888	16.03
217.273	-4.22
217.658	32.53
218.043	12.75
218.428	28.42
218.813	11.68
219.198	24.59
219.583	27.13
219.968	10.33
220.353	32.51
220.738	6.82
221.122	-9.38
221.507	25.29
221.892	16.79
222.276	-7.03
222.661	9.97
223.046	18
223.43	3.1
223.815	6.69
224.199	8.48
224.583	5.81
224.968	3.59
225.352	7.43
225.736	9.2
226.121	4.54
226.505	7.95
226.889	7.29
227.273	5.55
227.657	8.72
228.041	4.34
228.425	7.52
228.809	5.08
229.193	7.26
229.577	-0.13
229.961	3.59
230.344	1.47
230.728	1.48
231.112	3.04
231.495	2.15
231.879	6.2
232.263	4.27
232.646	-0.03
233.03	3.3
233.413	3.04
233.797	3.73
234.18	1.75
234.563	2.86
234.946	4.44
235.33	2.67
235.713	5
236.096	3.26
236.479	3.92
236.862	1.6
237.245	4.1
237.628	0.97
238.011	3.16
238.394	2.11
238.777	1.72
239.16	-0.08
239.543	4.38
239.925	2.43
240.308	2.17
240.691	3.51
241.073	2.16
241.456	1.82
241.838	3.47
242.221	2.16
242.603	2.62
242.986	2.32
243.368	1.37
243.75	2.57
244.133	2.43
244.515	1.89
244.897	2.29
245.279	2.66
245.661	2.83
246.043	2.1
246.425	1.61
246.807	2.7
247.189	2.62
247.571	2.5
247.953	2.65
248.335	2
248.717	1.88
249.098	2.15
249.48	1.85
249.862	2.04
250.243	2.07
250.625	2.38
251.006	2.18
251.388	1.33
251.769	3.01
252.151	2.58
252.532	2.73
252.913	2.46
253.295	2.43
253.676	1.76
254.057	2.42
254.438	1.72
254.819	2.78
255.2	1.53
255.581	2.85
255.962	2.42
256.343	3.22
256.724	2.68
257.105	3.39
257.486	2.59
257.867	2.12
258.247	3.07
258.628	3.57
259.009	2.92
259.389	2.01
259.77	3.25
260.15	2.29
260.531	2.33
260.911	2.43
261.292	2.14
261.672	2.17
262.052	1.98
262.432	1.93
262.813	2.76
263.193	2.47
263.573	2.32
263.953	1.7
264.333	2.29
264.713	2.06
265.093	1.67
265.473	1.86
265.853	3.01
266.233	2.32
266.612	2.15
266.992	1.85
267.372	2.03
267.752	2.26
268.131	2.14
268.511	2.66
268.89	2.18
269.27	2.56
269.649	2
270.029	2.64
270.408	1.98
270.787	2.17
271.167	1.93
271.546	2.42
271.925	2.39
272.304	2.15
272.683	2.01
273.062	2.41
273.441	1.88
273.82	2.07
274.199	2.22
274.578	1.8
274.957	2.04
275.336	2.35
275.715	1.97
276.093	2.34
276.472	2.48
276.851	2.1
277.229	1.98
277.608	2.23
277.986	1.93
278.365	2.66
278.743	2.15
279.122	1.92
279.5	1.88
279.878	1.47
280.257	2.61
280.635	2.6
281.013	2.59
281.391	2.42
281.769	3.06
282.147	1.72
282.525	2.23
282.903	2.27
283.281	2.28
283.659	2.57
284.037	1.91
284.415	2.49
284.792	2.39
285.17	1.49
285.548	2.1
285.925	2.23
286.303	1.96
286.68	1.77
287.058	1.95
287.435	2.63
287.813	1.89
288.19	2.42
288.567	2.66
288.945	1.79
289.322	2.44
289.699	2.38
290.076	2.08
290.453	2.25
290.83	2.18
291.207	2.24
291.584	1.96
291.961	2.05
292.338	2.6
292.715	2.39
293.092	2.31
293.469	1.72
293.845	2.21
294.222	2.02
294.599	3.06
294.975	2.67
295.352	2.91
295.728	2.71
296.105	2.44
296.481	2.32
296.858	2.57
297.234	2.55
297.61	2.05
297.986	2.35
298.363	2.28
298.739	2.15
299.115	2.46
299.491	2.47
299.867	2.09
300.243	2.1
300.619	2.58
300.995	3.21
301.371	2.53
301.746	2.55
302.122	3.34
302.498	2.68
302.874	2.71
303.249	2.99
303.625	2.67
304	3.24
304.376	2.85
304.751	2.86
305.127	2.85
305.502	2.89
305.878	3.13
306.253	2.63
306.628	2.44
307.003	2.56
307.378	2.51
307.754	3
308.129	2.82
308.504	3.06
308.879	3.25
309.254	2.83
309.629	3.34
310.003	3.07
310.378	2.95
310.753	2.79
311.128	2.7
311.502	3.54
311.877	3.19
312.252	3.37
312.626	3.41
313.001	3.1
313.375	3.17
313.75	3.56
314.124	3.16
314.498	3.2
314.873	4.19
315.247	3.51
315.621	3.79
315.995	3.71
316.369	3.08
316.743	3.69
317.117	3.99
317.491	4.1
317.865	3.68
318.239	3.94
318.613	3.9
318.987	3.25
319.361	3.94
319.734	3.72
320.108	3.67
320.482	3.79
320.855	3.87
321.229	3.91
321.602	3.47
321.976	3.99
322.349	3.83
322.723	3.53
323.096	4.51
323.469	4.05
323.843	3.93
324.216	4.45
324.589	4.33
324.962	4.6
325.335	4.07
325.708	3.87
326.081	4.91
326.454	4.34
326.827	4.5
327.2	4.27
327.573	4.07
327.945	4.12
328.318	4.41
328.691	4.62
329.063	3.78
329.436	3.92
329.809	4.59
330.181	4.75
330.553	4.19
330.926	4.74
331.298	4.45
331.671	4.71
332.043	4.44
332.415	4.73
332.787	4.59
333.159	4.93
333.532	4.72
333.904	4.72
334.276	4.46
334.648	4.41
335.02	5.4
335.391	4.69
335.763	4.66
336.135	4.75
336.507	4.92
336.879	4.47
337.25	4.46
337.622	5.13
337.993	4.75
338.365	4.37
338.736	4.62
339.108	5.49
339.479	5.76
339.851	5.02
340.222	5
340.593	4.93
340.964	4.69
341.336	4.84
341.707	4.65
342.078	4.94
342.449	4.84
342.82	4.67
343.191	4.98
343.562	5.29
343.933	4.9
344.303	5.1
344.674	5.28
345.045	4.75
345.416	5.26
345.786	5
346.157	5.75
346.527	5.16
346.898	5.38
347.268	4.69
347.639	5.15
348.009	5.2
348.38	5.55
348.75	6.16
349.12	5.78
349.49	5.65
349.861	5.36
350.231	5.34
350.601	5.97
350.971	5.45
351.341	5.48
351.711	5.32
352.081	5.49
352.45	5.6
352.82	5.89
353.19	5.74
353.56	5.43
353.929	5.28
354.299	5.89
354.669	5.39
355.038	5.51
355.408	5.95
355.777	5.39
356.147	5.52
356.516	6.17
356.885	5.19
357.254	6.07
357.624	6.11
357.993	5.49
358.362	5.91
358.731	5.91
359.1	5.74
359.469	5.69
359.838	6.27
360.207	6
360.576	6.01
360.945	5.87
361.314	5.93
361.682	5.79
362.051	6.22
362.42	6.24
362.788	6.37
363.157	6.05
363.525	5.96
363.894	6.01
364.262	6.53
364.631	6.39
364.999	6.43
365.367	6.47
365.735	5.96
366.104	6.1
366.472	6.49
366.84	6.63
367.208	6.39
367.576	7.18
367.944	6.35
368.312	6.14
368.68	6.39
369.048	6.11
369.416	6.54
369.783	6.91
370.151	6.63
370.519	6.7
370.886	6.77
371.254	6.64
371.621	7.08
371.989	6.98
372.356	6.67
372.724	6.8
373.091	6.71
373.458	6.66
373.826	6.74
374.193	6.91
374.56	7.06
374.927	7.36
375.294	7.22
375.661	6.99
376.028	7.25
376.395	7.05
376.762	6.96
377.129	7.37
377.496	7.24
377.863	6.99
378.229	7.42
378.596	7.25
378.963	7.2
379.329	7.13
379.696	7.44
380.062	7.48
380.429	7.29
380.795	7.29
381.161	7
381.528	7.44
381.894	7.15
382.26	7.12
382.626	7.44
382.993	7.4
383.359	7.38
383.725	7.51
384.091	7.35
384.457	7.76
384.823	7.54
385.188	7.65
385.554	7.73
385.92	8.02
386.286	7.88
386.651	8.03
387.017	7.65
387.383	8.06
387.748	7.46
388.114	7.56
388.479	7.77
388.845	7.7
389.21	7.99
389.575	8.11
389.94	7.71
390.306	7.84
390.671	8.03
391.036	8.07
391.401	7.81
391.766	8.18
392.131	7.98
392.496	7.99
392.861	8.19
393.226	8.17
393.591	8.02
393.956	8.28
394.32	8.32
394.685	8.22
395.05	8.33
395.414	8.19
395.779	8.3
396.143	8.53
396.508	8.18
396.872	8.59
397.236	8.34
397.601	8.39
397.965	8.4
398.329	8.27
398.694	8.59
399.058	8.26
399.422	8.78
399.786	8.56
400.15	8.39
400.514	8.71
400.878	8.51
401.242	8.56
401.605	8.89
401.969	8.97
402.333	8.96
402.697	8.86
403.06	8.77
403.424	8.72
403.787	9.09
404.151	9.06
404.514	8.71
404.878	8.93
405.241	9.02
405.604	9.13
405.968	9.09
406.331	8.79
406.694	9.04
407.057	8.91
407.42	9.06
407.783	8.9
408.146	9.08
408.509	9.02
408.872	8.93
409.235	9.18
409.598	9.28
409.961	9.04
410.323	9.72
410.686	9.52
411.049	9.17
411.411	8.99
411.774	9.46
412.136	9.43
412.499	9.42
412.861	9.38
413.223	9.1
413.586	9.48
413.948	9.59
414.31	9.43
414.672	9.42
415.035	9.85
415.397	9.54
415.759	9.73
416.121	9.72
416.483	9.58
416.845	9.63
417.206	9.79
417.568	9.8
417.93	9.7
418.292	9.7
418.653	9.72
419.015	9.7
419.377	9.62
419.738	9.7
420.1	9.81
420.461	9.81
420.822	9.75
421.184	9.66
421.545	9.63
421.906	9.54
422.267	9.57
422.629	9.72
422.99	9.74
423.351	9.71
423.712	9.85
424.073	9.9
424.434	9.96
424.795	9.99
425.155	9.91
425.516	9.99
425.877	9.98
426.238	9.99
426.598	9.99
426.959	10.01
427.32	10.21
427.68	10.31
428.041	10.2
428.401	10.38
428.761	10.53
429.122	10.53
429.482	10.4
429.842	10.43
430.202	10.54
430.563	10.33
430.923	10.47
431.283	10.56
431.643	10.69
432.003	10.53
432.363	10.71
432.722	10.87
433.082	10.7
433.442	10.59
433.802	10.71
434.161	10.8
434.521	10.84
434.881	10.8
435.24	10.78
435.6	10.93
435.959	10.99
436.319	10.89
436.678	10.79
437.037	11.08
437.396	11.2
437.756	10.95
438.115	10.94
438.474	11.07
438.833	11.2
439.192	11.1
439.551	11.24
439.91	11.17
440.269	10.78
440.628	11.21
440.987	11.28
441.345	11.1
441.704	11.31
442.063	11.19
442.421	11.25
442.78	11.15
443.138	11.12
443.497	11.33
443.855	11.39
444.214	11.28
444.572	11.57
444.93	11.48
445.288	11.71
445.647	11.63
446.005	11.53
446.363	11.56
446.721	11.44
447.079	11.52
447.437	11.56
447.795	11.43
448.153	11.42
448.51	11.44
448.868	11.64
449.226	11.7
449.584	11.7
449.941	11.68
450.299	11.79
450.656	11.91
451.014	11.91
451.371	11.9
451.729	11.97
452.086	11.94
452.443	12.09
452.801	12.15
453.158	12.1
453.515	12.1
453.872	12.29
454.229	12.13
454.586	12.31
454.943	12.28
455.3	12.36
455.657	12.4
456.014	12.13
456.371	12.23
456.727	12.5
457.084	12.36
457.441	12.36
457.797	12.33
458.154	12.35
458.51	12.3
458.867	12.5
459.223	12.42
459.58	12.46
459.936	12.63
460.292	12.59
460.648	12.4
461.005	12.53
461.361	12.43
461.717	12.35
462.073	12.5
462.429	12.55
462.785	12.7
463.141	12.78
463.496	12.88
463.852	12.83
464.208	12.97
464.564	12.87
464.919	13.07
465.275	13.14
465.631	13.23
465.986	13.19
466.342	13.17
466.697	13.16
467.052	13.36
467.408	13.15
467.763	13.21
468.118	13.33
468.473	13.27
468.829	13.14
469.184	13.51
469.539	13.3
469.894	13.4
470.249	13.42
470.603	13.5
470.958	13.45
471.313	13.38
471.668	13.54
472.023	13.63
472.377	13.54
472.732	13.77
473.086	13.69
473.441	13.66
473.795	13.7
474.15	13.53
474.504	13.85
474.859	13.94
475.213	13.84
475.567	13.94
475.921	13.78
476.275	13.96
476.63	13.88
476.984	13.84
477.338	13.88
477.692	13.93
478.045	14.03
478.399	14.04
478.753	14.07
479.107	14.1
479.461	13.99
479.814	13.91
480.168	14.19
480.521	14.11
480.875	14.06
481.228	14.18
481.582	14.08
481.935	14.15
482.289	14.37
482.642	14.14
482.995	14.2
483.348	14.17
483.701	14.21
484.055	14.11
484.408	13.96
484.761	13.89
485.114	13.63
485.466	13.51
485.819	13.51
486.172	13.69
486.525	13.84
486.878	14.04
487.23	14.08
487.583	14.14
487.936	14.32
488.288	14.17
488.641	14.08
488.993	13.99
489.345	13.98
489.698	13.99
490.05	14.1
490.402	14.26
490.754	14.36
491.107	14.52
491.459	14.66
491.811	14.63
492.163	14.88
492.515	14.61
492.866	14.52
493.218	14.34
493.57	14.36
493.922	14.43
494.274	14.67
494.625	14.87
494.977	15.07
495.328	15.14
495.68	15.25
496.031	15.25
496.383	15.33
496.734	15.41
497.086	15.48
497.437	15.48
497.788	15.42
498.139	15.25
498.49	15.33
498.842	15.4
499.193	15.47
499.544	15.41
499.894	15.58
500.245	15.6
500.596	15.56
500.947	15.61
501.298	15.72
501.648	15.79
501.999	15.81
502.35	15.76
502.7	15.93
503.051	15.97
503.401	15.94
503.752	15.75
504.102	16.03
504.452	15.94
504.803	16.12
505.153	16.14
505.503	16.14
505.853	16.26
506.203	16.04
506.553	16.11
506.903	16.41
507.253	16.23
507.603	16.4
507.953	16.5
508.303	16.52
508.652	16.42
509.002	16.44
509.352	16.28
509.701	16.39
510.051	16.3
510.4	16.35
510.75	16.37
511.099	16.27
511.449	16.33
511.798	16.52
512.147	16.41
512.496	16.54
512.846	16.57
513.195	16.46
513.544	16.73
513.893	16.67
514.242	16.68
514.591	16.82
514.939	16.74
515.288	17.04
515.637	16.83
515.986	16.91
516.334	16.86
516.683	16.98
517.032	16.87
517.38	17.13
517.729	17.25
518.077	17.07
518.426	17.09
518.774	17.07
519.122	16.96
519.47	16.98
519.819	17.05
520.167	16.89
520.515	16.82
520.863	16.92
521.211	17.17
521.559	17.18
521.907	17.28
522.255	17.27
522.602	17.54
522.95	17.47
523.298	17.57
523.645	17.39
523.993	17.62
524.341	17.59
524.688	17.7
525.036	17.66
525.383	17.41
525.73	17.79
526.078	17.74
526.425	17.62
526.772	17.69
527.119	17.31
527.466	17.41
527.814	17.58
528.161	17.6
528.508	17.59
528.854	17.63
529.201	17.55
529.548	17.36
529.895	17.28
530.242	17.19
530.588	17.19
530.935	17.3
531.282	17.45
531.628	17.58
531.975	17.7
532.321	17.81
532.667	18.06
533.014	17.98
533.36	18.06
533.706	18.16
534.052	18.06
534.399	18.01
534.745	17.83
535.091	17.81
535.437	17.86
535.783	17.98
536.129	18.22
536.474	18.28
536.82	18.38
537.166	18.47
537.512	18.46
537.857	18.58
538.203	18.35
538.549	18.29
538.894	18.42
539.239	18.73
539.585	18.71
539.93	18.73
540.276	19.09
540.621	18.95
540.966	19.16
541.311	19.05
541.656	19.08
542.001	19.04
542.346	18.82
542.691	18.51
543.036	18.34
543.381	18.38
543.726	18.59
544.071	18.79
544.415	18.86
544.76	18.88
545.105	18.93
545.449	19.18
545.794	19.3
546.138	19.28
546.483	19.51
546.827	19.35
547.171	19.39
547.516	19.51
547.86	19.45
548.204	19.49
548.548	19.39
548.892	19.4
549.236	19.57
549.58	19.78
549.924	19.68
550.268	20.06
550.612	20.1
550.956	20.2
551.3	20.26
551.643	20.28
551.987	20.16
552.33	20.42
552.674	20.29
553.017	20.27
553.361	20.24
553.704	20.6
554.048	20.25
554.391	20.46
554.734	20.28
555.077	20.49
555.42	20.47
555.764	20.45
556.107	20.52
556.45	20.78
556.793	20.46
557.135	20.89
557.478	20.72
557.821	20.75
558.164	20.97
558.507	21.03
558.849	20.82
559.192	21.11
559.534	20.94
559.877	20.93
560.219	20.98
560.562	21.01
560.904	21.19
561.246	21.35
561.589	21.14
561.931	21.24
562.273	21.5
562.615	21.27
562.957	21.27
563.299	21.43
563.641	21.37
563.983	21.4
564.325	21.46
564.667	21.45
565.008	21.45
565.35	21.45
565.692	21.48
566.033	21.42
566.375	21.41
566.716	21.68
567.058	21.5
567.399	21.65
567.741	21.64
568.082	21.41
568.423	21.67
568.764	21.64
569.105	21.62
569.447	21.72
569.788	21.95
570.129	22.02
570.47	21.99
570.811	21.85
571.151	22.06
571.492	22.08
571.833	21.89
572.174	21.94
572.514	22.19
572.855	22.11
573.195	22.24
573.536	22.25
573.876	22.2
574.217	22.1
574.557	22.31
574.898	22.31
575.238	22.43
575.578	22.45
575.918	22.48
576.258	22.49
576.598	22.39
576.938	22.38
577.278	22.61
577.618	22.59
577.958	22.69
578.298	22.78
578.638	22.61
578.977	22.67
579.317	22.98
579.657	22.77
579.996	22.7
580.336	22.98
580.675	23.11
581.014	22.97
581.354	23.32
581.693	23.42
582.032	23.13
582.372	23.17
582.711	23.19
583.05	23.17
583.389	23.07
583.728	23.2
584.067	23.46
584.406	23.33
584.745	23.67
585.083	23.46
585.422	23.63
585.761	23.37
586.1	23.47
586.438	23.67
586.777	23.88
587.115	23.54
587.454	23.76
587.792	23.68
588.13	23.81
588.469	23.75
588.807	23.8
589.145	23.85
589.483	24.25
589.821	23.61
590.159	23.96
590.497	23.88
590.835	24.09
591.173	23.96
591.511	23.94
591.849	24.27
592.187	24.12
592.524	24.14
592.862	24.27
593.2	24.4
593.537	24.26
593.875	24.56
594.212	24.28
594.55	24.31
594.887	24.21
595.224	24.38
595.561	24.25
595.899	24.34
596.236	24.65
596.573	24.3
596.91	24.52
597.247	24.25
597.584	24.68
597.921	24.59
598.258	24.44
598.594	24.36
598.931	24.4
599.268	24.56
599.604	24.68
599.941	24.6
600.277	24.84
600.614	25.18
600.95	25.33
601.287	24.83
601.623	25.1
601.959	24.99
602.296	25.04
602.632	25.34
602.968	25.5
603.304	25.06
603.64	25.22
603.976	25.06
604.312	24.91
604.648	25.35
604.984	25.52
605.319	25.23
605.655	25.16
605.991	25.43
606.326	25.32
606.662	25.02
606.998	25.08
607.333	25.3
607.668	25.35
608.004	25.46
608.339	25.77
608.674	25.78
609.01	25.64
609.345	25.31
609.68	25.72
610.015	25.76
610.35	25.74
610.685	25.5
611.02	25.77
611.355	25.34
611.689	25.55
612.024	25.74
612.359	25.88
612.694	25.8
613.028	26.12
613.363	25.93
613.697	26.14
614.032	26.04
614.366	26.37
614.7	26.4
615.035	26.28
615.369	26.4
615.703	26.33
616.037	26.47
616.371	26.28
616.705	26.67
617.039	26.81
617.373	26.62
617.707	26.27
618.041	26.62
618.375	26.49
618.709	26.58
619.042	26.59
619.376	26.9
619.71	26.83
620.043	26.82
620.377	26.86
620.71	26.87
621.043	27
621.377	26.96
621.71	26.66
622.043	27.16
622.376	26.93
622.709	27.36
623.043	27.33
623.376	26.73
623.709	27.12
624.041	27.34
624.374	27.31
624.707	26.57
625.04	27.22
625.373	27.58
625.705	27.25
626.038	27.12
626.37	27.3
626.703	27.12
627.035	27.43
627.368	27.46
627.7	27.13
628.032	27.32
628.365	27.18
628.697	27.58
629.029	27.13
629.361	27.17
629.693	27.61
630.025	27.32
630.357	27.6
630.689	27.52
631.021	27.64
631.353	27.54
631.684	27.45
632.016	28.29
632.348	27.69
632.679	27.96
633.011	27.93
633.342	28.1
633.674	27.63
634.005	27.99
634.336	27.79
634.668	27.94
634.999	28.51
635.33	28.45
635.661	28.39
635.992	28.21
636.323	28.23
636.654	27.89
636.985	28.3
637.316	28.41
637.647	28.02
637.977	28.6
638.308	27.93
638.639	28
638.969	28.38
639.3	28.32
639.63	27.91
639.961	28.79
640.291	28.45
640.622	28.93
640.952	28.8
641.282	28.75
641.612	28.6
641.943	28.73
642.273	28.89
642.603	28.67
642.933	28.46
643.263	29.02
643.592	28.94
643.922	29.07
644.252	28.98
644.582	29.2
644.911	29.05
645.241	29.7
645.571	29.28
645.9	29.27
646.23	29.08
646.559	28.81
646.888	28.88
647.218	28.86
647.547	29.56
647.876	29.4
648.205	29.42
648.534	29.06
648.863	29.01
649.192	29.23
649.521	29.57
649.85	29.73
650.179	29.75
650.508	30
650.837	29.67
651.165	29.38
651.494	29.46
651.822	29.58
652.151	29.7
652.479	30
652.808	30.06
653.136	29.89
653.465	29.66
653.793	29.71
654.121	29.71
654.449	29.8
654.777	29.58
655.105	29.87
655.433	29.36
655.761	30.26
656.089	30.38
656.417	29.35
656.745	29.83
657.073	29.65
657.4	30.36
657.728	30.06
658.056	29.56
658.383	30.58
658.711	30.57
659.038	29.91
659.365	30.22
659.693	30.34
660.02	30.12
660.347	30.09
660.674	30.4
661.001	30.28
661.329	30.28
661.656	29.73
661.982	30.18
662.309	30.15
662.636	30.38
662.963	30.15
663.29	30.18
663.616	30.36
663.943	30.26
664.27	30.37
664.596	30.36
664.923	30.16
665.249	30.84
665.576	30.61
665.902	30.59
666.228	30.99
666.554	30.63
666.881	31.15
667.207	30.91
667.533	30.86
667.859	31.33
668.185	31.45
668.511	30.96
668.837	31.26
669.162	31.16
669.488	30.89
669.814	31.69
670.139	30.73
670.465	31.47
670.791	31.54
671.116	31.17
671.442	31.28
671.767	31.06
672.092	31.22
672.418	31.24
672.743	31
673.068	30.93
673.393	31.91
673.718	31.41
674.043	31.89
674.368	31.42
674.693	31.44
675.018	31.43
675.343	31.7
675.667	31.58
