Data from 1844-1_forehead_Reflection__2__118.txt Node

Date: Fri Sep 30 18:42:03 CDT 2022
User: ToomeyLab
Spectrometer: FLMS14357
Trigger mode: 0
Integration Time (sec): 1.000000E-2
Scans to average: 100
Electric dark correction enabled: true
Nonlinearity correction enabled: false
Boxcar width: 0
XAxis mode: Wavelengths
Number of Pixels in Spectrum: 2048
>>>>>Begin Spectral Data<<<<<
189.047	67.59
189.435	67.59
189.823	67.59
190.211	5.55
190.599	876.84
190.987	188.64
191.375	69.49
191.763	335.1
192.151	63.85
192.538	34.48
192.926	130.63
193.314	393.88
193.702	75.31
194.089	-35.81
194.477	290.67
194.864	285.18
195.252	13
195.639	27.8
196.027	-65.14
196.414	42.64
196.801	122.46
197.189	41.04
197.576	-325.83
197.963	-230.68
198.351	29.79
198.738	-45.17
199.125	40.27
199.512	36.43
199.899	11.92
200.286	44.04
200.673	51.31
201.06	57.34
201.447	46.65
201.833	70.48
202.22	69.35
202.607	19.84
202.994	45.31
203.38	76.6
203.767	53.92
204.154	27.06
204.54	59.18
204.927	46.12
205.313	11.33
205.699	35.79
206.086	31.47
206.472	36.44
206.858	14.91
207.245	37.56
207.631	-3.76
208.017	12.1
208.403	30.5
208.789	-0.2
209.175	36.07
209.561	14.6
209.947	26.43
210.333	22.38
210.719	44.14
211.105	-5.81
211.491	26.91
211.876	23.48
212.262	64.9
212.648	34.31
213.034	18.04
213.419	13.47
213.805	-9.58
214.19	48.32
214.576	12.9
214.961	7.27
215.346	52.47
215.732	19.68
216.117	9.61
216.502	30.77
216.888	32.79
217.273	-0.01
217.658	32.36
218.043	-4.36
218.428	30.08
218.813	23.58
219.198	9.35
219.583	17.03
219.968	31.04
220.353	11.71
220.738	21.04
221.122	22.53
221.507	26.72
221.892	34.65
222.276	3.61
222.661	30.82
223.046	12.9
223.43	3.67
223.815	17.79
224.199	0.15
224.583	7.54
224.968	4.6
225.352	8.4
225.736	10.66
226.121	9.73
226.505	6.8
226.889	5
227.273	0.24
227.657	8.08
228.041	3.42
228.425	8.47
228.809	7.64
229.193	6.32
229.577	4.1
229.961	4.75
230.344	3.88
230.728	3
231.112	3.78
231.495	4.87
231.879	5.66
232.263	3.37
232.646	2.27
233.03	4.43
233.413	4.14
233.797	1.69
234.18	2.82
234.563	6.58
234.946	5.18
235.33	4.85
235.713	5.79
236.096	3.83
236.479	4.94
236.862	5.86
237.245	5.44
237.628	3.45
238.011	5.25
238.394	5.1
238.777	3.24
239.16	3.53
239.543	3.43
239.925	4.69
240.308	3.69
240.691	4.36
241.073	4.19
241.456	4.87
241.838	4.59
242.221	4.2
242.603	4.93
242.986	3.76
243.368	3.01
243.75	3.57
244.133	3.64
244.515	3.38
244.897	3.74
245.279	4.62
245.661	4.21
246.043	3.75
246.425	3.02
246.807	3.3
247.189	3.96
247.571	4.26
247.953	3.7
248.335	3.64
248.717	3.51
249.098	3.71
249.48	3.37
249.862	3.75
250.243	3.9
250.625	4.64
251.006	4
251.388	2
251.769	4.69
252.151	3.84
252.532	4.9
252.913	2.92
253.295	3.7
253.676	3.57
254.057	3.99
254.438	3.18
254.819	4.39
255.2	5.17
255.581	3.9
255.962	4.34
256.343	4.53
256.724	4.47
257.105	4.51
257.486	4.36
257.867	3.43
258.247	3.91
258.628	4.08
259.009	4.29
259.389	3.88
259.77	4.38
260.15	3.41
260.531	4.4
260.911	3.51
261.292	3.38
261.672	3.4
262.052	3.49
262.432	3.3
262.813	4.13
263.193	3.73
263.573	3.49
263.953	3.67
264.333	4.58
264.713	3.26
265.093	3.43
265.473	3.77
265.853	3.23
266.233	4.1
266.612	4.19
266.992	3.3
267.372	2.74
267.752	3.12
268.131	3.66
268.511	3.46
268.89	3.43
269.27	3.67
269.649	3.35
270.029	3.67
270.408	3.52
270.787	3.67
271.167	3.92
271.546	3.91
271.925	4.15
272.304	3.7
272.683	3.48
273.062	3.59
273.441	3.41
273.82	3.19
274.199	3.64
274.578	3.59
274.957	3.89
275.336	3.23
275.715	4.06
276.093	3.64
276.472	3.73
276.851	3.5
277.229	3.52
277.608	3.62
277.986	3.14
278.365	4.02
278.743	2.99
279.122	3.66
279.5	3.88
279.878	3.77
280.257	3.75
280.635	4.19
281.013	3.61
281.391	3.15
281.769	3.73
282.147	2.98
282.525	3.22
282.903	3.51
283.281	3.58
283.659	3.98
284.037	3.52
284.415	3.86
284.792	3.98
285.17	3.27
285.548	3.58
285.925	3.57
286.303	3.36
286.68	3.14
287.058	3.4
287.435	3.54
287.813	3.45
288.19	3.3
288.567	3.24
288.945	2.78
289.322	3.65
289.699	3.98
290.076	3.24
290.453	3.7
290.83	3.56
291.207	3.37
291.584	3.86
291.961	3.91
292.338	3.95
292.715	4.05
293.092	3.61
293.469	4.21
293.845	4.12
294.222	3.96
294.599	4.49
294.975	4.23
295.352	4.29
295.728	4.22
296.105	3.8
296.481	4.41
296.858	4.13
297.234	4.29
297.61	3.71
297.986	3.69
298.363	4.01
298.739	3.85
299.115	3.91
299.491	4.02
299.867	4.14
300.243	4.13
300.619	4.17
300.995	4.29
301.371	4.14
301.746	4.06
302.122	4.57
302.498	4.95
302.874	4.7
303.249	4.54
303.625	4.48
304	4.6
304.376	4.78
304.751	4.72
305.127	4.75
305.502	4.92
305.878	5.15
306.253	4.33
306.628	4.54
307.003	4.5
307.378	4.97
307.754	5.15
308.129	5.07
308.504	4.69
308.879	4.81
309.254	4.83
309.629	3.96
310.003	4.99
310.378	5.13
310.753	5.04
311.128	5.02
311.502	5.18
311.877	4.8
312.252	5.24
312.626	5.04
313.001	4.87
313.375	4.94
313.75	5.35
314.124	5.53
314.498	5.68
314.873	5.45
315.247	4.93
315.621	5.97
315.995	6.2
316.369	5.21
316.743	5.97
317.117	6.08
317.491	6.14
317.865	6.52
318.239	5.67
318.613	6.43
318.987	6.13
319.361	5.52
319.734	5.61
320.108	6.26
320.482	5.8
320.855	6.37
321.229	6.58
321.602	6.14
321.976	6.34
322.349	6.01
322.723	6.13
323.096	6.18
323.469	6.62
323.843	6.64
324.216	6.65
324.589	7.18
324.962	6.08
325.335	5.87
325.708	6.14
326.081	6.62
326.454	6.58
326.827	6.63
327.2	6.62
327.573	6.6
327.945	6.27
328.318	6.5
328.691	6.93
329.063	6.99
329.436	6.88
329.809	7.57
330.181	6.66
330.553	7.14
330.926	7.06
331.298	6.91
331.671	6.99
332.043	6.92
332.415	6.92
332.787	7.01
333.159	6.66
333.532	7.29
333.904	7.1
334.276	7.21
334.648	6.93
335.02	7.33
335.391	7.52
335.763	7.51
336.135	7.99
336.507	7.62
336.879	7.75
337.25	7.28
337.622	7.55
337.993	7.13
338.365	7.81
338.736	7.12
339.108	7.95
339.479	7.68
339.851	7.54
340.222	7.82
340.593	7.51
340.964	7.39
341.336	7.69
341.707	7.89
342.078	7.98
342.449	8.16
342.82	7.73
343.191	7.98
343.562	8.14
343.933	8.05
344.303	8.07
344.674	8.16
345.045	7.21
345.416	7.8
345.786	8.41
346.157	8.56
346.527	7.88
346.898	7.87
347.268	7.82
347.639	7.86
348.009	7.89
348.38	8.6
348.75	8.8
349.12	8.44
349.49	8.65
349.861	8.48
350.231	8.13
350.601	8.57
350.971	8.21
351.341	8.56
351.711	8.35
352.081	8.59
352.45	8.65
352.82	8.67
353.19	8.97
353.56	8.72
353.929	8.53
354.299	8.86
354.669	8.46
355.038	8.92
355.408	8.83
355.777	8.33
356.147	9.04
356.516	9.25
356.885	8.58
357.254	9.48
357.624	9.02
357.993	8.34
358.362	8.77
358.731	8.9
359.1	8.94
359.469	8.87
359.838	9.16
360.207	9.06
360.576	9.01
360.945	9.15
361.314	9.18
361.682	8.97
362.051	9.47
362.42	9.16
362.788	9.29
363.157	8.97
363.525	9.09
363.894	9.12
364.262	9.31
364.631	9.64
364.999	9.66
365.367	9.82
365.735	9.19
366.104	9.47
366.472	9.66
366.84	9.74
367.208	9.66
367.576	10.24
367.944	10.02
368.312	9.77
368.68	9.54
369.048	9.62
369.416	9.79
369.783	9.82
370.151	9.85
370.519	9.88
370.886	9.95
371.254	10.07
371.621	10.34
371.989	10.26
372.356	9.83
372.724	10.45
373.091	10.03
373.458	10.24
373.826	10.38
374.193	10.39
374.56	10.39
374.927	10.78
375.294	10.61
375.661	10.4
376.028	10.31
376.395	10.17
376.762	10.45
377.129	10.96
377.496	10.6
377.863	10.31
378.229	10.97
378.596	10.25
378.963	10.62
379.329	10.45
379.696	10.89
380.062	10.94
380.429	10.97
380.795	10.65
381.161	10.78
381.528	11.08
381.894	10.78
382.26	10.78
382.626	10.56
382.993	11.16
383.359	11
383.725	10.82
384.091	11.04
384.457	11.24
384.823	11.16
385.188	11.11
385.554	11.43
385.92	11.32
386.286	11.38
386.651	11.53
387.017	11.07
387.383	11.18
387.748	11.11
388.114	11.17
388.479	11.17
388.845	11.41
389.21	11.21
389.575	11.31
389.94	11.47
390.306	11.62
390.671	11.42
391.036	11.91
391.401	11.62
391.766	11.83
392.131	11.45
392.496	11.57
392.861	11.9
393.226	11.7
393.591	11.59
393.956	11.89
394.32	11.86
394.685	11.74
395.05	12.04
395.414	12.01
395.779	11.68
396.143	11.94
396.508	11.88
396.872	12.22
397.236	11.89
397.601	12.17
397.965	12.22
398.329	12.28
398.694	12.34
399.058	12.48
399.422	12.53
399.786	12.36
400.15	12.29
400.514	12.07
400.878	12.38
401.242	12.21
401.605	12.53
401.969	12.7
402.333	12.42
402.697	12.54
403.06	12.47
403.424	12.55
403.787	12.82
404.151	12.76
404.514	12.37
404.878	12.69
405.241	12.72
405.604	12.85
405.968	12.66
406.331	12.6
406.694	12.81
407.057	12.86
407.42	12.83
407.783	12.68
408.146	12.94
408.509	13.08
408.872	12.93
409.235	13.26
409.598	12.87
409.961	12.97
410.323	13.22
410.686	13.16
411.049	13.07
411.411	13.19
411.774	13.52
412.136	13.12
412.499	13.28
412.861	13.35
413.223	13.18
413.586	13.47
413.948	13.63
414.31	13.7
414.672	13.41
415.035	13.79
415.397	13.51
415.759	13.59
416.121	13.44
416.483	13.57
416.845	13.37
417.206	14.03
417.568	13.51
417.93	13.44
418.292	13.74
418.653	13.59
419.015	13.81
419.377	13.56
419.738	13.69
420.1	13.67
420.461	13.69
420.822	13.62
421.184	13.81
421.545	13.68
421.906	13.47
422.267	13.63
422.629	13.64
422.99	13.62
423.351	13.75
423.712	13.93
424.073	13.89
424.434	14.07
424.795	13.91
425.155	13.91
425.516	13.9
425.877	14.06
426.238	14.05
426.598	14.06
426.959	14.12
427.32	14.22
427.68	14.44
428.041	14.32
428.401	14.41
428.761	14.59
429.122	14.48
429.482	14.65
429.842	14.51
430.202	14.56
430.563	14.72
430.923	14.63
431.283	14.75
431.643	14.87
432.003	14.73
432.363	14.76
432.722	14.85
433.082	14.98
433.442	14.83
433.802	14.86
434.161	14.93
434.521	14.87
434.881	14.92
435.24	14.91
435.6	15.1
435.959	15.03
436.319	15.09
436.678	15.01
437.037	15.27
437.396	15.36
437.756	15.34
438.115	15.3
438.474	15.22
438.833	15.38
439.192	15.25
439.551	15.38
439.91	15.32
440.269	15.29
440.628	15.42
440.987	15.33
441.345	15.53
441.704	15.43
442.063	15.64
442.421	15.65
442.78	15.51
443.138	15.51
443.497	15.56
443.855	15.88
444.214	15.81
444.572	15.94
444.93	15.75
445.288	15.72
445.647	16
446.005	15.94
446.363	15.92
446.721	15.79
447.079	15.79
447.437	15.92
447.795	15.73
448.153	15.74
448.51	15.81
448.868	15.87
449.226	15.88
449.584	16
449.941	16.11
450.299	16.14
450.656	16.12
451.014	16.54
451.371	16.33
451.729	16.39
452.086	16.47
452.443	16.59
452.801	16.62
453.158	16.4
453.515	16.57
453.872	16.46
454.229	16.42
454.586	16.63
454.943	16.59
455.3	16.83
455.657	16.76
456.014	16.83
456.371	16.73
456.727	16.82
457.084	16.78
457.441	16.78
457.797	16.86
458.154	16.9
458.51	16.88
458.867	17.14
459.223	16.97
459.58	17.12
459.936	17.27
460.292	17.04
460.648	16.91
461.005	16.87
461.361	16.77
461.717	16.88
462.073	16.96
462.429	17.13
462.785	17.25
463.141	17.41
463.496	17.41
463.852	17.52
464.208	17.48
464.564	17.44
464.919	17.56
465.275	17.87
465.631	17.75
465.986	17.61
466.342	17.64
466.697	17.79
467.052	17.94
467.408	17.67
467.763	17.91
468.118	17.96
468.473	17.66
468.829	17.96
469.184	17.94
469.539	17.96
469.894	18.12
470.249	18.15
470.603	18.21
470.958	18.28
471.313	18.24
471.668	18.23
472.023	18.35
472.377	18.25
472.732	18.35
473.086	18.35
473.441	18.43
473.795	18.3
474.15	18.31
474.504	18.58
474.859	18.4
475.213	18.44
475.567	18.64
475.921	18.36
476.275	18.49
476.63	18.68
476.984	18.76
477.338	18.71
477.692	18.86
478.045	18.62
478.399	18.57
478.753	18.83
479.107	18.72
479.461	18.7
479.814	18.73
480.168	18.84
480.521	18.95
480.875	18.99
481.228	19.11
481.582	18.87
481.935	18.89
482.289	19.16
482.642	18.9
482.995	19.09
483.348	18.91
483.701	18.89
484.055	18.8
484.408	18.58
484.761	18.35
485.114	18.2
485.466	18.05
485.819	18.11
486.172	18.38
486.525	18.59
486.878	18.74
487.23	18.71
487.583	18.95
487.936	19.09
488.288	18.89
488.641	18.66
488.993	18.66
489.345	18.65
489.698	18.77
490.05	18.89
490.402	18.93
490.754	19.22
491.107	19.34
491.459	19.46
491.811	19.61
492.163	19.53
492.515	19.36
492.866	19.23
493.218	18.96
493.57	19.13
493.922	19.32
494.274	19.57
494.625	19.74
494.977	19.84
495.328	20.07
495.68	20.16
496.031	20.13
496.383	20.3
496.734	20.36
497.086	20.15
497.437	20.44
497.788	20.32
498.139	20.19
498.49	20.18
498.842	20.19
499.193	20.4
499.544	20.35
499.894	20.58
500.245	20.51
500.596	20.49
500.947	20.54
501.298	20.79
501.648	20.71
501.999	20.95
502.35	20.88
502.7	20.94
503.051	21.1
503.401	21.09
503.752	20.99
504.102	21.19
504.452	21.02
504.803	21.07
505.153	21.24
505.503	21.07
505.853	21.26
506.203	21.11
506.553	21.24
506.903	21.31
507.253	21.34
507.603	21.34
507.953	21.39
508.303	21.76
508.652	21.4
509.002	21.49
509.352	21.54
509.701	21.44
510.051	21.44
510.4	21.37
510.75	21.42
511.099	21.53
511.449	21.54
511.798	21.71
512.147	21.67
512.496	21.63
512.846	21.68
513.195	21.82
513.544	22.01
513.893	21.84
514.242	21.81
514.591	22
514.939	22
515.288	22.17
515.637	22.05
515.986	22.04
516.334	22.18
516.683	22.23
517.032	22.21
517.38	22.35
517.729	22.4
518.077	22.37
518.426	22.47
518.774	22.46
519.122	22.19
519.47	22.32
519.819	22.27
520.167	22.24
520.515	22
520.863	22.21
521.211	22.32
521.559	22.4
521.907	22.57
522.255	22.67
522.602	22.72
522.95	22.64
523.298	22.87
523.645	22.91
523.993	22.97
524.341	23
524.688	23.09
525.036	22.96
525.383	23.06
525.73	23.06
526.078	23.06
526.425	22.84
526.772	22.92
527.119	22.66
527.466	22.74
527.814	22.78
528.161	22.84
528.508	22.91
528.854	22.87
529.201	22.91
529.548	22.73
529.895	22.47
530.242	22.4
530.588	22.53
530.935	22.67
531.282	22.82
531.628	22.97
531.975	23.04
532.321	23.29
532.667	23.38
533.014	23.4
533.36	23.42
533.706	23.61
534.052	23.44
534.399	23.37
534.745	23.17
535.091	23.16
535.437	23.25
535.783	23.43
536.129	23.6
536.474	23.87
536.82	23.94
537.166	24.02
537.512	23.96
537.857	23.99
538.203	23.8
538.549	23.74
538.894	24
539.239	24.21
539.585	24.27
539.93	24.37
540.276	24.52
540.621	24.6
540.966	24.7
541.311	24.63
541.656	24.54
542.001	24.58
542.346	24.23
542.691	24
543.036	23.81
543.381	23.94
543.726	23.98
544.071	24.32
544.415	24.38
544.76	24.39
545.105	24.53
545.449	24.66
545.794	24.94
546.138	24.93
546.483	25.03
546.827	25.11
547.171	25.13
547.516	25.25
547.86	25.06
548.204	25
548.548	25.08
548.892	25.21
549.236	25.3
549.58	25.44
549.924	25.51
550.268	25.89
550.612	25.9
550.956	25.92
551.3	25.93
551.643	26.02
551.987	26.02
552.33	26.25
552.674	26.27
553.017	26.15
553.361	26.19
553.704	26.41
554.048	26.16
554.391	26.16
554.734	26.1
555.077	26.19
555.42	26.35
555.764	26.36
556.107	26.65
556.45	26.62
556.793	26.55
557.135	26.76
557.478	26.58
557.821	26.64
558.164	27.01
558.507	26.81
558.849	26.91
559.192	27.02
559.534	26.93
559.877	27.18
560.219	27.12
560.562	27.07
560.904	27.1
561.246	27.12
561.589	27.16
561.931	27.22
562.273	27.25
562.615	27.32
562.957	27.21
563.299	27.34
563.641	27.64
563.983	27.47
564.325	27.53
564.667	27.66
565.008	27.65
565.35	27.64
565.692	27.75
566.033	27.58
566.375	27.52
566.716	27.63
567.058	27.87
567.399	27.74
567.741	27.66
568.082	27.68
568.423	27.57
568.764	27.6
569.105	27.72
569.447	27.83
569.788	28.06
570.129	27.92
570.47	28.09
570.811	28.07
571.151	28.15
571.492	28.27
571.833	28.31
572.174	28.16
572.514	28.26
572.855	28.2
573.195	28.27
573.536	28.28
573.876	28.21
574.217	28.26
574.557	28.43
574.898	28.54
575.238	28.57
575.578	28.72
575.918	28.59
576.258	28.6
576.598	28.51
576.938	28.62
577.278	28.61
577.618	28.74
577.958	28.9
578.298	28.79
578.638	29.01
578.977	29.08
579.317	29.16
579.657	29.18
579.996	29.24
580.336	29.43
580.675	29.4
581.014	29.25
581.354	29.43
581.693	29.65
582.032	29.75
582.372	29.76
582.711	29.38
583.05	29.68
583.389	29.55
583.728	29.87
584.067	29.81
584.406	29.71
584.745	30.15
585.083	29.85
585.422	30.06
585.761	29.96
586.1	30.25
586.438	30.3
586.777	30.19
587.115	30.48
587.454	30.11
587.792	30.3
588.13	30.2
588.469	30.36
588.807	30.01
589.145	30.35
589.483	30.7
589.821	30.4
590.159	30.43
590.497	30.41
590.835	30.42
591.173	30.6
591.511	30.45
591.849	30.47
592.187	30.7
592.524	30.61
592.862	30.81
593.2	30.9
593.537	30.77
593.875	30.81
594.212	30.84
594.55	31.12
594.887	31.01
595.224	30.96
595.561	30.87
595.899	30.9
596.236	31.25
596.573	31.13
596.91	31.14
597.247	31.23
597.584	31.15
597.921	31.12
598.258	31.01
598.594	31.04
598.931	31.09
599.268	31.13
599.604	31.37
599.941	31.33
600.277	31.34
600.614	31.95
600.95	31.63
601.287	31.84
601.623	31.54
601.959	31.56
602.296	31.81
602.632	31.96
602.968	32.05
603.304	31.99
603.64	32.2
603.976	31.81
604.312	32.06
604.648	31.97
604.984	32.19
605.319	31.93
605.655	32.06
605.991	31.81
606.326	31.79
606.662	31.87
606.998	31.89
607.333	32.03
607.668	32.02
608.004	32.39
608.339	32.33
608.674	32.49
609.01	32.6
609.345	32.46
609.68	32.73
610.015	32.34
610.35	32.65
610.685	32.48
611.02	32.44
611.355	32.59
611.689	32.32
612.024	32.71
612.359	32.98
612.694	32.97
613.028	33.22
613.363	32.88
613.697	33.23
614.032	32.95
614.366	33.43
614.7	33.16
615.035	33.91
615.369	33.09
615.703	33.49
616.037	33.74
616.371	33.56
616.705	33.28
617.039	33.56
617.373	33.72
617.707	33.62
618.041	33.62
618.375	33.54
618.709	33.34
619.042	33.35
619.376	33.98
619.71	34.55
620.043	34.13
620.377	33.98
620.71	34
621.043	33.97
621.377	33.94
621.71	33.81
622.043	33.88
622.376	34.08
622.709	34.2
623.043	34.13
623.376	34.11
623.709	34.32
624.041	34.51
624.374	34.42
624.707	34.22
625.04	34.79
625.373	34.74
625.705	34.47
626.038	34.25
626.37	34.61
626.703	34.62
627.035	34.55
627.368	34.93
627.7	34.56
628.032	34.55
628.365	34.44
628.697	34.65
629.029	34.76
629.361	34.56
629.693	35.05
630.025	35.04
630.357	34.71
630.689	34.74
631.021	34.65
631.353	35.15
631.684	34.85
632.016	35.47
632.348	35.22
632.679	35.14
633.011	35.07
633.342	35.05
633.674	35.19
634.005	35.5
634.336	35.91
634.668	34.99
634.999	35.54
635.33	35.54
635.661	35.62
635.992	35.56
636.323	35.29
636.654	35.32
636.985	35.46
637.316	35.32
637.647	35.51
637.977	35.81
638.308	35.63
638.639	35.5
638.969	35.74
639.3	36.07
639.63	35.77
639.961	35.83
640.291	36.35
640.622	36.17
640.952	36.26
641.282	35.97
641.612	36.11
641.943	35.98
642.273	36.37
642.603	35.7
642.933	36.2
643.263	36.72
643.592	35.93
643.922	36.15
644.252	36.31
644.582	36.77
644.911	36.72
645.241	36.79
645.571	36.26
645.9	36.81
646.23	36.91
646.559	36.57
646.888	36.85
647.218	36.91
647.547	36.74
647.876	36.81
648.205	37.1
648.534	37.08
648.863	36.72
649.192	37.12
649.521	37.09
649.85	37.01
650.179	37.52
650.508	37.5
650.837	37.43
651.165	36.79
651.494	37.08
651.822	37.41
652.151	37.25
652.479	37.49
652.808	37.16
653.136	37.62
653.465	36.9
653.793	37.18
654.121	37.5
654.449	37.98
654.777	36.98
655.105	37.6
655.433	37.45
655.761	38.39
656.089	38.43
656.417	37.37
656.745	37.11
657.073	37.91
657.4	38.22
657.728	38.02
658.056	37.88
658.383	38.4
658.711	38.1
659.038	38.08
659.365	38.13
659.693	37.93
660.02	38.22
660.347	38.14
660.674	38.33
661.001	38.36
661.329	38.18
661.656	37.89
661.982	38.44
662.309	38.22
662.636	38.6
662.963	38.24
663.29	38.04
663.616	37.6
663.943	38.25
664.27	37.58
664.596	37.91
664.923	38.11
665.249	38.41
665.576	39.18
665.902	39.13
666.228	38.99
666.554	38.11
666.881	39.26
667.207	38.48
667.533	39.05
667.859	39.33
668.185	39.14
668.511	38.81
668.837	39.1
669.162	39.07
669.488	38.92
669.814	39.54
670.139	39.41
670.465	39.43
670.791	39.28
671.116	39.37
671.442	39.3
671.767	39.07
672.092	39.08
672.418	39.62
672.743	39.84
