Data from 1844-1_forehead_Reflection__1__117.txt Node

Date: Fri Sep 30 18:41:53 CDT 2022
User: ToomeyLab
Spectrometer: FLMS14357
Trigger mode: 0
Integration Time (sec): 1.000000E-2
Scans to average: 100
Electric dark correction enabled: true
Nonlinearity correction enabled: false
Boxcar width: 0
XAxis mode: Wavelengths
Number of Pixels in Spectrum: 2048
>>>>>Begin Spectral Data<<<<<
189.047	67.56
189.435	67.56
189.823	67.56
190.211	-128.97
190.599	641.43
190.987	119.18
191.375	33.91
191.763	241.63
192.151	46.33
192.538	88.98
192.926	88.54
193.314	254.9
193.702	184.57
194.089	-77
194.477	-66.32
194.864	-174.52
195.252	-28.71
195.639	5.55
196.027	-671.4
196.414	43.9
196.801	68.1
197.189	41.33
197.576	-56.36
197.963	490.85
198.351	18.59
198.738	-38.33
199.125	69.51
199.512	18.14
199.899	42.19
200.286	19.8
200.673	34.66
201.06	85.96
201.447	23.86
201.833	30.52
202.22	36.83
202.607	27.07
202.994	47.29
203.38	45.18
203.767	53.4
204.154	42.36
204.54	21.33
204.927	46.48
205.313	63.15
205.699	15.36
206.086	4.08
206.472	30.87
206.858	40.25
207.245	24.24
207.631	1.68
208.017	9.82
208.403	40.91
208.789	3.77
209.175	27.35
209.561	-16.61
209.947	-3.52
210.333	31.07
210.719	20.73
211.105	-11.96
211.491	12.87
211.876	5.56
212.262	45.77
212.648	39.12
213.034	6.32
213.419	18.42
213.805	-4.41
214.19	0.65
214.576	23.42
214.961	27.73
215.346	42.57
215.732	24.67
216.117	-10.69
216.502	17.26
216.888	17.74
217.273	44.31
217.658	30.28
218.043	16.8
218.428	12.19
218.813	21.88
219.198	-0.43
219.583	29.45
219.968	28.23
220.353	33.22
220.738	29.39
221.122	19.02
221.507	35.44
221.892	17.17
222.276	13.93
222.661	19.8
223.046	13.58
223.43	7.95
223.815	17.01
224.199	13.53
224.583	5.08
224.968	20.43
225.352	10.73
225.736	11.53
226.121	14.66
226.505	9.45
226.889	7.48
227.273	-0.78
227.657	8.33
228.041	8.56
228.425	6.93
228.809	8.5
229.193	9.64
229.577	4.56
229.961	7.12
230.344	4.68
230.728	3.71
231.112	4.9
231.495	4.59
231.879	5.71
232.263	3.36
232.646	3.78
233.03	5.56
233.413	5.64
233.797	4.68
234.18	3.28
234.563	4.51
234.946	4.32
235.33	3.24
235.713	4.85
236.096	5.95
236.479	7.15
236.862	6.3
237.245	6.47
237.628	5.4
238.011	7.51
238.394	5.4
238.777	3.75
239.16	4.7
239.543	6.42
239.925	3.78
240.308	4.79
240.691	5.72
241.073	4.69
241.456	5.58
241.838	5.35
242.221	5.3
242.603	4.93
242.986	4.94
243.368	3.77
243.75	4.8
244.133	5.07
244.515	4.13
244.897	4.95
245.279	4.64
245.661	4.75
246.043	4.79
246.425	5.12
246.807	5.32
247.189	5.37
247.571	5.21
247.953	4.76
248.335	4.41
248.717	4.63
249.098	4.85
249.48	4.33
249.862	4.67
250.243	4.25
250.625	4.7
251.006	4.64
251.388	4.02
251.769	5.21
252.151	4.94
252.532	4.95
252.913	4.93
253.295	4.58
253.676	4.14
254.057	4.56
254.438	4.47
254.819	5.34
255.2	5.09
255.581	4.93
255.962	4.03
256.343	4.28
256.724	5.2
257.105	6.28
257.486	5.55
257.867	5.47
258.247	5.31
258.628	5.17
259.009	6.23
259.389	4.81
259.77	4.88
260.15	4.98
260.531	4.92
260.911	4.61
261.292	4.6
261.672	4.44
262.052	4.18
262.432	4.42
262.813	5.23
263.193	4.95
263.573	4.9
263.953	4.82
264.333	5.18
264.713	3.68
265.093	4.85
265.473	4.08
265.853	5.07
266.233	3.73
266.612	4.23
266.992	4.9
267.372	3.91
267.752	4.37
268.131	4.19
268.511	4.43
268.89	4.12
269.27	4.4
269.649	4.72
270.029	4.95
270.408	4.51
270.787	3.89
271.167	4.55
271.546	4.31
271.925	5.12
272.304	4.6
272.683	4.4
273.062	4.61
273.441	4.34
273.82	4.2
274.199	4.39
274.578	4.05
274.957	4.42
275.336	4.49
275.715	4.82
276.093	5.2
276.472	4.95
276.851	4.5
277.229	4.42
277.608	4.48
277.986	4.4
278.365	4.89
278.743	3.91
279.122	4.74
279.5	5.14
279.878	3.92
280.257	4.89
280.635	4.68
281.013	4.82
281.391	4.06
281.769	4.41
282.147	4.41
282.525	4.75
282.903	4.45
283.281	4.25
283.659	4.6
284.037	4.53
284.415	4.55
284.792	4.31
285.17	4.18
285.548	4.22
285.925	4.56
286.303	4.22
286.68	4.39
287.058	4.2
287.435	4.64
287.813	4.47
288.19	4.54
288.567	4.34
288.945	3.99
289.322	3.83
289.699	4.42
290.076	4.43
290.453	4.57
290.83	4.69
291.207	4.49
291.584	4.5
291.961	4.52
292.338	4.78
292.715	5.17
293.092	4.26
293.469	4.64
293.845	5.11
294.222	5
294.599	5.43
294.975	5.08
295.352	4.89
295.728	5.16
296.105	4.86
296.481	4.86
296.858	5.25
297.234	5.05
297.61	4.67
297.986	4.83
298.363	5.23
298.739	4.85
299.115	5.09
299.491	5.17
299.867	5.15
300.243	5.06
300.619	5.26
300.995	5.29
301.371	5.54
301.746	4.94
302.122	5.62
302.498	5.63
302.874	5.55
303.249	5.22
303.625	5.3
304	5.67
304.376	5.91
304.751	5.83
305.127	5.94
305.502	5.73
305.878	5.92
306.253	5.76
306.628	5.72
307.003	5.73
307.378	6.2
307.754	6.19
308.129	6.21
308.504	6.49
308.879	5.92
309.254	5.77
309.629	6.27
310.003	6.31
310.378	6.37
310.753	5.76
311.128	6.03
311.502	6.33
311.877	6.4
312.252	6.26
312.626	6.56
313.001	6.24
313.375	6.54
313.75	7.15
314.124	6.31
314.498	6.31
314.873	6.83
315.247	6.37
315.621	7.14
315.995	7.28
316.369	6.81
316.743	7.1
317.117	7.69
317.491	7.71
317.865	7.77
318.239	7.53
318.613	7.6
318.987	7.35
319.361	7.15
319.734	6.96
320.108	7.24
320.482	7.33
320.855	7.37
321.229	7.63
321.602	7.75
321.976	7.96
322.349	7.92
322.723	7.7
323.096	8.15
323.469	7.79
323.843	7.42
324.216	7.48
324.589	7.98
324.962	8.25
325.335	7.59
325.708	8.15
326.081	8.22
326.454	8.27
326.827	7.7
327.2	7.72
327.573	7.68
327.945	7.8
328.318	8.01
328.691	8.13
329.063	8.5
329.436	7.88
329.809	8.99
330.181	8.97
330.553	8.49
330.926	8.73
331.298	8.26
331.671	8.67
332.043	8.11
332.415	8.17
332.787	8.45
333.159	8.37
333.532	9.13
333.904	9.02
334.276	9.07
334.648	8.72
335.02	9.29
335.391	9.14
335.763	8.97
336.135	8.99
336.507	9.31
336.879	9.24
337.25	9.08
337.622	9.16
337.993	9
338.365	8.92
338.736	9.04
339.108	8.93
339.479	9.39
339.851	8.86
340.222	9.79
340.593	9.23
340.964	9.23
341.336	9.49
341.707	9.4
342.078	9.57
342.449	9.58
342.82	9.32
343.191	9.31
343.562	9.6
343.933	9.79
344.303	9.64
344.674	9.76
345.045	9.54
345.416	9.92
345.786	9.46
346.157	10.16
346.527	9.97
346.898	10.09
347.268	9.34
347.639	9.73
348.009	10.08
348.38	10.48
348.75	10.6
349.12	10.38
349.49	10.68
349.861	9.93
350.231	10.23
350.601	10.22
350.971	10.1
351.341	10.07
351.711	10.11
352.081	10.26
352.45	10.53
352.82	10.84
353.19	10.77
353.56	10.54
353.929	10.05
354.299	10.76
354.669	10.45
355.038	10.75
355.408	10.96
355.777	10.6
356.147	10.9
356.516	11.19
356.885	10.21
357.254	10.77
357.624	10.73
357.993	10.65
358.362	10.92
358.731	10.83
359.1	11.1
359.469	10.83
359.838	11.27
360.207	11.21
360.576	10.92
360.945	11.42
361.314	11
361.682	11.16
362.051	11.14
362.42	11.28
362.788	11.48
363.157	11.17
363.525	10.93
363.894	11.04
364.262	11.31
364.631	11.64
364.999	11.46
365.367	11.42
365.735	11.62
366.104	11.17
366.472	11.64
366.84	11.72
367.208	11.58
367.576	12.2
367.944	12.05
368.312	11.78
368.68	11.88
369.048	11.45
369.416	12.23
369.783	12.13
370.151	12.07
370.519	11.91
370.886	11.98
371.254	11.92
371.621	12.2
371.989	12.29
372.356	12.25
372.724	12.36
373.091	12.05
373.458	12.38
373.826	12.22
374.193	12.3
374.56	12.3
374.927	12.84
375.294	12.83
375.661	12.41
376.028	12.63
376.395	12.29
376.762	12.67
377.129	13.03
377.496	12.84
377.863	12.75
378.229	12.98
378.596	12.9
378.963	12.74
379.329	12.67
379.696	13.33
380.062	13.4
380.429	13.03
380.795	13.06
381.161	13.13
381.528	13.01
381.894	12.87
382.26	13.02
382.626	13.08
382.993	13.28
383.359	13.51
383.725	13.02
384.091	13.19
384.457	13.49
384.823	13.6
385.188	13.33
385.554	13.64
385.92	13.73
386.286	13.56
386.651	13.66
387.017	13.78
387.383	13.63
387.748	13.41
388.114	13.51
388.479	13.95
388.845	13.77
389.21	13.71
389.575	13.97
389.94	13.98
390.306	14.13
390.671	14.03
391.036	14.19
391.401	14.17
391.766	14.25
392.131	14.17
392.496	14.13
392.861	14.4
393.226	14.2
393.591	14.3
393.956	14.35
394.32	14.6
394.685	14.39
395.05	14.62
395.414	14.34
395.779	14.64
396.143	14.73
396.508	14.56
396.872	14.88
397.236	14.68
397.601	14.73
397.965	14.74
398.329	14.74
398.694	14.92
399.058	14.93
399.422	15.15
399.786	14.96
400.15	15.14
400.514	15.06
400.878	14.86
401.242	14.8
401.605	15.04
401.969	15.11
402.333	15.37
402.697	15.48
403.06	15.17
403.424	15.22
403.787	15.46
404.151	15.45
404.514	15.73
404.878	15.36
405.241	15.35
405.604	15.56
405.968	15.62
406.331	15.49
406.694	15.66
407.057	15.35
407.42	15.68
407.783	15.66
408.146	15.66
408.509	15.5
408.872	15.78
409.235	15.88
409.598	16.1
409.961	15.85
410.323	16.33
410.686	16.2
411.049	16.17
411.411	16.19
411.774	16.34
412.136	15.89
412.499	16.21
412.861	15.96
413.223	15.93
413.586	16.18
413.948	16.35
414.31	16.31
414.672	16.56
415.035	16.54
415.397	16.34
415.759	16.68
416.121	16.68
416.483	16.4
416.845	16.44
417.206	16.53
417.568	16.35
417.93	16.48
418.292	16.69
418.653	16.37
419.015	16.78
419.377	16.55
419.738	16.52
420.1	16.75
420.461	16.44
420.822	16.56
421.184	16.69
421.545	16.67
421.906	16.43
422.267	16.57
422.629	16.68
422.99	16.6
423.351	16.65
423.712	16.78
424.073	16.8
424.434	16.93
424.795	17.07
425.155	17.08
425.516	17.07
425.877	17.06
426.238	17.13
426.598	17.1
426.959	17.1
427.32	17.29
427.68	17.47
428.041	17.35
428.401	17.52
428.761	17.82
429.122	17.6
429.482	17.76
429.842	17.72
430.202	17.67
430.563	17.8
430.923	17.85
431.283	17.84
431.643	17.88
432.003	17.88
432.363	17.87
432.722	18.12
433.082	18.21
433.442	18.17
433.802	18.22
434.161	18.21
434.521	18.33
434.881	18.02
435.24	18.19
435.6	18.29
435.959	18.39
436.319	18.33
436.678	18.47
437.037	18.68
437.396	18.61
437.756	18.48
438.115	18.44
438.474	18.51
438.833	18.65
439.192	18.89
439.551	18.74
439.91	18.76
440.269	18.58
440.628	18.72
440.987	18.92
441.345	18.77
441.704	18.86
442.063	18.91
442.421	18.82
442.78	18.89
443.138	18.88
443.497	18.85
443.855	19.02
444.214	19.12
444.572	19.1
444.93	19.33
445.288	19.28
445.647	19.45
446.005	19.25
446.363	19.33
446.721	19.27
447.079	19.28
447.437	19.4
447.795	19.12
448.153	19.17
448.51	19.16
448.868	19.25
449.226	19.39
449.584	19.45
449.941	19.49
450.299	19.81
450.656	19.89
451.014	19.96
451.371	19.81
451.729	19.7
452.086	19.83
452.443	19.97
452.801	20.25
453.158	20.08
453.515	19.87
453.872	20.16
454.229	20.12
454.586	20.22
454.943	20.15
455.3	20.17
455.657	20.46
456.014	20.26
456.371	20.39
456.727	20.44
457.084	20.28
457.441	20.55
457.797	20.62
458.154	20.51
458.51	20.66
458.867	20.79
459.223	20.7
459.58	20.82
459.936	21.04
460.292	21
460.648	20.72
461.005	20.65
461.361	20.48
461.717	20.5
462.073	20.62
462.429	20.79
462.785	20.94
463.141	21.21
463.496	21.07
463.852	21.26
464.208	21.48
464.564	21.23
464.919	21.34
465.275	21.47
465.631	21.67
465.986	21.53
466.342	21.46
466.697	21.4
467.052	21.56
467.408	21.61
467.763	21.82
468.118	21.96
468.473	21.8
468.829	21.57
469.184	21.86
469.539	21.8
469.894	21.76
470.249	21.85
470.603	22.01
470.958	22.02
471.313	21.97
471.668	22.11
472.023	21.9
472.377	22.18
472.732	22.4
473.086	22.33
473.441	22.29
473.795	22.38
474.15	22.34
474.504	22.47
474.859	22.37
475.213	22.44
475.567	22.23
475.921	22.52
476.275	22.22
476.63	22.73
476.984	22.62
477.338	22.69
477.692	22.77
478.045	22.62
478.399	22.7
478.753	23
479.107	22.69
479.461	22.82
479.814	22.48
480.168	22.78
480.521	22.71
480.875	22.89
481.228	22.91
481.582	23.01
481.935	22.97
482.289	22.97
482.642	22.96
482.995	22.91
483.348	22.93
483.701	22.99
484.055	22.89
484.408	22.8
484.761	22.52
485.114	22.24
485.466	22.24
485.819	22.22
486.172	22.4
486.525	22.55
486.878	22.7
487.23	22.82
487.583	22.83
487.936	23.19
488.288	23
488.641	22.83
488.993	22.75
489.345	22.73
489.698	22.8
490.05	22.94
490.402	23.07
490.754	23.3
491.107	23.27
491.459	23.5
491.811	23.68
492.163	23.75
492.515	23.49
492.866	23.4
493.218	23.22
493.57	23.28
493.922	23.42
494.274	23.47
494.625	23.76
494.977	23.98
495.328	24.14
495.68	24.4
496.031	24.4
496.383	24.44
496.734	24.63
497.086	24.61
497.437	24.5
497.788	24.66
498.139	24.42
498.49	24.35
498.842	24.57
499.193	24.66
499.544	24.58
499.894	24.72
500.245	24.67
500.596	24.73
500.947	24.88
501.298	25.02
501.648	25.06
501.999	25.12
502.35	25.2
502.7	25.14
503.051	25.28
503.401	25.21
503.752	25.35
504.102	25.44
504.452	25.38
504.803	25.55
505.153	25.7
505.503	25.48
505.853	25.54
506.203	25.44
506.553	25.66
506.903	25.8
507.253	25.55
507.603	25.79
507.953	26.04
508.303	26
508.652	25.71
509.002	25.91
509.352	25.72
509.701	25.78
510.051	25.94
510.4	25.97
510.75	25.76
511.099	25.78
511.449	25.88
511.798	25.99
512.147	25.93
512.496	26.12
512.846	26.19
513.195	26.39
513.544	26.25
513.893	26.24
514.242	26.16
514.591	26.36
514.939	26.28
515.288	26.64
515.637	26.53
515.986	26.57
516.334	26.59
516.683	26.52
517.032	26.56
517.38	26.82
517.729	26.98
518.077	26.89
518.426	26.8
518.774	26.94
519.122	26.64
519.47	26.64
519.819	26.68
520.167	26.8
520.515	26.51
520.863	26.74
521.211	26.92
521.559	26.85
521.907	27.1
522.255	26.94
522.602	27.29
522.95	27.35
523.298	27.5
523.645	27.26
523.993	27.42
524.341	27.52
524.688	27.6
525.036	27.44
525.383	27.46
525.73	27.7
526.078	27.81
526.425	27.37
526.772	27.42
527.119	27.24
527.466	27.2
527.814	27.32
528.161	27.38
528.508	27.42
528.854	27.45
529.201	27.44
529.548	27.28
529.895	27.16
530.242	27.14
530.588	27.14
530.935	27.29
531.282	27.35
531.628	27.49
531.975	27.57
532.321	27.77
532.667	28.07
533.014	28.05
533.36	28.14
533.706	28.21
534.052	28.09
534.399	28.07
534.745	27.8
535.091	27.87
535.437	27.92
535.783	27.96
536.129	28.17
536.474	28.33
536.82	28.54
537.166	28.61
537.512	28.67
537.857	28.73
538.203	28.62
538.549	28.56
538.894	28.54
539.239	28.77
539.585	28.97
539.93	29.03
540.276	29.18
540.621	29.29
540.966	29.41
541.311	29.14
541.656	29.31
542.001	29.24
542.346	28.92
542.691	28.73
543.036	28.72
543.381	28.62
543.726	28.95
544.071	29.01
544.415	29.09
544.76	29.2
545.105	29.37
545.449	29.42
545.794	29.51
546.138	29.58
546.483	29.86
546.827	29.93
547.171	29.92
547.516	29.98
547.86	29.85
548.204	29.97
548.548	29.91
548.892	29.97
549.236	29.99
549.58	30.31
549.924	30.15
550.268	30.46
550.612	30.62
550.956	30.67
551.3	30.52
551.643	30.74
551.987	30.83
552.33	30.76
552.674	30.88
553.017	30.87
553.361	30.92
553.704	31.16
554.048	30.97
554.391	31.04
554.734	31.1
555.077	31.24
555.42	30.98
555.764	31.24
556.107	31.59
556.45	31.28
556.793	31.21
557.135	31.42
557.478	31.44
557.821	31.65
558.164	31.75
558.507	31.46
558.849	31.71
559.192	31.84
559.534	31.84
559.877	31.99
560.219	31.76
560.562	31.89
560.904	31.81
561.246	31.93
561.589	32.07
561.931	32.16
562.273	31.8
562.615	32.2
562.957	32.25
563.299	32.38
563.641	32.25
563.983	32.4
564.325	32.43
564.667	32.31
565.008	32.57
565.35	32.46
565.692	32.4
566.033	32.38
566.375	32.33
566.716	32.69
567.058	32.58
567.399	32.5
567.741	32.58
568.082	32.78
568.423	32.55
568.764	32.62
569.105	32.69
569.447	32.76
569.788	32.9
570.129	32.96
570.47	33
570.811	32.99
571.151	33.1
571.492	33.27
571.833	33.19
572.174	32.89
572.514	33.23
572.855	33.02
573.195	33.17
573.536	33.21
573.876	33.23
574.217	33.21
574.557	33.18
574.898	33.42
575.238	33.56
575.578	33.47
575.918	33.58
576.258	33.72
576.598	33.64
576.938	33.76
577.278	33.86
577.618	33.88
577.958	33.79
578.298	34.28
578.638	34.13
578.977	34.37
579.317	34.11
579.657	34.16
579.996	34.16
580.336	34.4
580.675	34.15
581.014	34.32
581.354	34.68
581.693	34.52
582.032	34.5
582.372	34.8
582.711	34.76
583.05	34.62
583.389	34.87
583.728	34.83
584.067	34.69
584.406	34.79
584.745	35.09
585.083	34.91
585.422	34.97
585.761	34.84
586.1	35.14
586.438	35.25
586.777	35.49
587.115	35.45
587.454	35.08
587.792	35.43
588.13	35.35
588.469	35.46
588.807	35.38
589.145	35.54
589.483	35.51
589.821	35.54
590.159	35.45
590.497	35.42
590.835	35.32
591.173	35.58
591.511	35.45
591.849	35.9
592.187	35.77
592.524	35.56
592.862	35.73
593.2	35.91
593.537	35.92
593.875	36.08
594.212	35.86
594.55	35.82
594.887	36.19
595.224	36.11
595.561	36.08
595.899	35.89
596.236	36.36
596.573	35.97
596.91	36.06
597.247	36.07
597.584	36.31
597.921	36.16
598.258	36.18
598.594	36.09
598.931	36.06
599.268	36.46
599.604	36.12
599.941	36.32
600.277	36.56
600.614	36.91
600.95	36.93
601.287	36.66
601.623	36.93
601.959	36.82
602.296	36.99
602.632	37.23
602.968	37.16
603.304	37.03
603.64	36.97
603.976	36.84
604.312	36.95
604.648	37.09
604.984	37.31
605.319	36.78
605.655	36.94
605.991	36.79
606.326	37.11
606.662	37.22
606.998	36.76
607.333	37.14
607.668	37.02
608.004	37.54
608.339	37.51
608.674	37.27
609.01	37.38
609.345	37.45
609.68	37.93
610.015	37.81
610.35	37.52
610.685	37.44
611.02	37.51
611.355	37.56
611.689	37.4
612.024	37.86
612.359	37.5
612.694	37.96
613.028	38.08
613.363	37.96
613.697	38.04
614.032	38.13
614.366	38.31
614.7	38.54
615.035	38.32
615.369	38.28
615.703	38.45
616.037	38.83
616.371	38.56
616.705	38.22
617.039	38.49
617.373	38.72
617.707	38.46
618.041	38.39
618.375	38.71
618.709	38.77
619.042	39.16
619.376	38.98
619.71	39.14
620.043	38.85
620.377	39.12
620.71	38.99
621.043	39.15
621.377	39.06
621.71	39.14
622.043	38.92
622.376	39.29
622.709	39.43
623.043	39.16
623.376	39.13
623.709	39.11
624.041	39.17
624.374	39.26
624.707	38.88
625.04	39.29
625.373	39.6
625.705	39.58
626.038	39.01
626.37	39.49
626.703	39.53
627.035	39.77
627.368	39.97
627.7	39.47
628.032	39.66
628.365	39.6
628.697	39.85
629.029	39.63
629.361	39.67
629.693	39.95
630.025	40.12
630.357	40.24
630.689	39.87
631.021	39.6
631.353	40.13
631.684	40
632.016	40.4
632.348	40.35
632.679	40.08
633.011	40.11
633.342	40.5
633.674	40.42
634.005	40.26
634.336	40.17
634.668	40.42
634.999	40.76
635.33	40.57
635.661	40.38
635.992	40.74
636.323	40.44
636.654	40.76
636.985	41.11
637.316	40.7
637.647	40.51
637.977	41.18
638.308	40.51
638.639	40.53
638.969	41.49
639.3	41.14
639.63	40.98
639.961	40.66
640.291	40.6
640.622	41.42
640.952	41.23
641.282	41.47
641.612	41.2
641.943	41.07
642.273	41.27
642.603	41.32
642.933	41.45
643.263	41.57
643.592	41.2
643.922	41.41
644.252	41
644.582	41.93
644.911	41.61
645.241	41.96
645.571	41.5
645.9	41.91
646.23	41.52
646.559	41.46
646.888	41.32
647.218	42.07
647.547	42.06
647.876	41.74
648.205	42.43
648.534	41.99
648.863	41.81
649.192	41.77
649.521	42.2
649.85	42.32
650.179	42.28
650.508	41.96
650.837	41.76
651.165	42.16
651.494	42.29
651.822	42.18
652.151	42.55
652.479	42.38
652.808	42.56
653.136	42.55
653.465	41.93
653.793	41.86
654.121	41.95
654.449	42.71
654.777	42.12
655.105	42.16
655.433	42.16
655.761	42.92
656.089	42.84
656.417	42.47
656.745	42.38
657.073	42.57
657.4	42.22
657.728	42.81
658.056	42.54
658.383	42.82
658.711	44.02
659.038	43.09
659.365	42.7
659.693	43.12
660.02	43.01
660.347	42.84
660.674	42.95
661.001	43.34
661.329	43.26
661.656	42.74
661.982	42.99
662.309	43.03
662.636	43.4
662.963	43.32
663.29	43.28
663.616	43.22
663.943	42.56
664.27	43.43
664.596	43.52
664.923	42.59
665.249	43.49
665.576	43.93
665.902	42.9
666.228	43.75
666.554	43.51
666.881	43.92
667.207	43.68
667.533	43.84
667.859	44.36
668.185	43.7
668.511	43.93
668.837	43.81
669.162	43.68
669.488	44.25
669.814	44.2
670.139	43.47
670.465	43.95
670.791	44.45
671.116	43.56
