Data from 1844-1_forehead_Reflection__0__116.txt Node

Date: Fri Sep 30 18:41:44 CDT 2022
User: ToomeyLab
Spectrometer: FLMS14357
Trigger mode: 0
Integration Time (sec): 1.000000E-2
Scans to average: 100
Electric dark correction enabled: true
Nonlinearity correction enabled: false
Boxcar width: 0
XAxis mode: Wavelengths
Number of Pixels in Spectrum: 2048
>>>>>Begin Spectral Data<<<<<
189.047	20.84
189.435	20.84
189.823	20.84
190.211	10.7
190.599	-737.86
190.987	-44.35
191.375	105.13
191.763	370.2
192.151	44.24
192.538	-9.3
192.926	49.33
193.314	157.01
193.702	106.75
194.089	9.74
194.477	1914.51
194.864	-16.07
195.252	83.58
195.639	112.56
196.027	-487.14
196.414	46.45
196.801	212.61
197.189	-96.96
197.576	-9.2
197.963	-27.66
198.351	57.39
198.738	53.1
199.125	54.26
199.512	50.65
199.899	-21.34
200.286	30.57
200.673	50.48
201.06	57.75
201.447	52.39
201.833	18.06
202.22	36.45
202.607	46.67
202.994	60.86
203.38	54.29
203.767	29.57
204.154	80.87
204.54	33.06
204.927	75.23
205.313	14
205.699	25.52
206.086	37.34
206.472	27.9
206.858	46.28
207.245	50.38
207.631	6.87
208.017	49.12
208.403	33.4
208.789	29.54
209.175	31.25
209.561	41.59
209.947	33.05
210.333	20.01
210.719	-6.86
211.105	31.17
211.491	47.65
211.876	35.44
212.262	47.52
212.648	16.53
213.034	21.49
213.419	23.53
213.805	9.77
214.19	17.38
214.576	41.26
214.961	49.82
215.346	29.63
215.732	44.28
216.117	20.2
216.502	40.09
216.888	47.32
217.273	49.39
217.658	30.04
218.043	-2.93
218.428	41.06
218.813	34.71
219.198	36.15
219.583	27.83
219.968	32.87
220.353	40.62
220.738	22.86
221.122	17.17
221.507	30.45
221.892	40.01
222.276	4.21
222.661	29.91
223.046	17.82
223.43	19.24
223.815	6.93
224.199	11.25
224.583	4.81
224.968	15.68
225.352	13.96
225.736	25.16
226.121	17.3
226.505	14.43
226.889	7.03
227.273	2.54
227.657	15.48
228.041	7.48
228.425	13.54
228.809	9.38
229.193	7.17
229.577	4.92
229.961	7.46
230.344	6.1
230.728	6.38
231.112	6.08
231.495	6.7
231.879	10.54
232.263	7.18
232.646	5.42
233.03	7.26
233.413	8.28
233.797	8.92
234.18	6.86
234.563	8.41
234.946	10.92
235.33	6.03
235.713	7.73
236.096	7.53
236.479	8.16
236.862	6.67
237.245	8.4
237.628	7.93
238.011	8.2
238.394	8.19
238.777	5.32
239.16	5.92
239.543	7.12
239.925	6.22
240.308	7.56
240.691	8.87
241.073	7.75
241.456	6.61
241.838	7.77
242.221	6.26
242.603	6.71
242.986	6.78
243.368	5.96
243.75	5.91
244.133	6.51
244.515	5.6
244.897	6.43
245.279	6.58
245.661	6.34
246.043	6.65
246.425	5.94
246.807	6.39
247.189	7.3
247.571	6.74
247.953	6.4
248.335	6.06
248.717	5.87
249.098	5.8
249.48	5.86
249.862	5.73
250.243	6.25
250.625	6.26
251.006	6.01
251.388	5.91
251.769	6.9
252.151	6.49
252.532	6.61
252.913	6.54
253.295	6.21
253.676	5.77
254.057	6.21
254.438	6.02
254.819	6.98
255.2	6.59
255.581	7.28
255.962	6.46
256.343	7.29
256.724	6.91
257.105	7.1
257.486	7.06
257.867	7.4
258.247	6.73
258.628	6.85
259.009	6.55
259.389	6.09
259.77	6.99
260.15	6.23
260.531	6.75
260.911	5.97
261.292	5.5
261.672	5.57
262.052	5.75
262.432	5.47
262.813	6.33
263.193	6.01
263.573	5.9
263.953	6.07
264.333	6.23
264.713	5.74
265.093	6.06
265.473	5.77
265.853	5.97
266.233	5.14
266.612	5.86
266.992	5.01
267.372	5.4
267.752	6.13
268.131	5.34
268.511	5.29
268.89	5.46
269.27	6.53
269.649	5.62
270.029	6.32
270.408	5.7
270.787	5.7
271.167	6.26
271.546	6.25
271.925	6.24
272.304	5.79
272.683	5.9
273.062	5.57
273.441	5.55
273.82	5.31
274.199	5.88
274.578	5.39
274.957	5.39
275.336	5.71
275.715	5.87
276.093	6.1
276.472	6.14
276.851	6.15
277.229	6.3
277.608	5.52
277.986	5.43
278.365	6.27
278.743	5.59
279.122	5.3
279.5	6.02
279.878	5.9
280.257	5.98
280.635	6.04
281.013	6.13
281.391	5.15
281.769	5.59
282.147	5.23
282.525	6.08
282.903	5.63
283.281	5.67
283.659	5.94
284.037	5.8
284.415	5.43
284.792	5.3
285.17	5.25
285.548	5.86
285.925	5.72
286.303	5.43
286.68	5.1
287.058	5.21
287.435	5.66
287.813	5.35
288.19	5.57
288.567	5.7
288.945	5.18
289.322	5.73
289.699	5.36
290.076	5.79
290.453	5.71
290.83	5.19
291.207	5.25
291.584	5.47
291.961	5.99
292.338	5.57
292.715	5.97
293.092	5.2
293.469	6.15
293.845	6.03
294.222	5.97
294.599	6.71
294.975	5.82
295.352	6
295.728	5.86
296.105	5.71
296.481	6.08
296.858	6.11
297.234	6.11
297.61	6.17
297.986	5.97
298.363	6.17
298.739	5.73
299.115	5.79
299.491	5.86
299.867	5.89
300.243	5.78
300.619	5.68
300.995	6.61
301.371	6.25
301.746	5.75
302.122	6.14
302.498	6.11
302.874	6.72
303.249	6.74
303.625	6.17
304	6.52
304.376	6.56
304.751	6.71
305.127	6.75
305.502	6.6
305.878	6.16
306.253	6.22
306.628	6.52
307.003	6.54
307.378	6.5
307.754	6.75
308.129	6.26
308.504	7.15
308.879	6.7
309.254	6.84
309.629	7.22
310.003	6.87
310.378	6.77
310.753	7.01
311.128	7.09
311.502	7.08
311.877	7.21
312.252	6.97
312.626	7.31
313.001	7.07
313.375	7.37
313.75	7.68
314.124	6.94
314.498	7.06
314.873	7.52
315.247	7.64
315.621	7.79
315.995	7.99
316.369	7.72
316.743	8.07
317.117	8.83
317.491	8.88
317.865	8.67
318.239	8.62
318.613	8.19
318.987	8.35
319.361	8.21
319.734	8.23
320.108	8.34
320.482	7.82
320.855	8.22
321.229	8.36
321.602	8.44
321.976	9.21
322.349	8.55
322.723	8.64
323.096	9.19
323.469	9.21
323.843	8.47
324.216	8.85
324.589	8.99
324.962	8.89
325.335	8.96
325.708	9.06
326.081	9.14
326.454	9.41
326.827	8.99
327.2	9.06
327.573	8.74
327.945	9.33
328.318	8.86
328.691	9.39
329.063	9.5
329.436	9.46
329.809	10
330.181	9.85
330.553	9.56
330.926	9.86
331.298	9.95
331.671	10.17
332.043	9.64
332.415	9.82
332.787	9.65
333.159	9.99
333.532	10.65
333.904	10.09
334.276	10.6
334.648	10.06
335.02	10.09
335.391	10.69
335.763	10.28
336.135	10.06
336.507	10.73
336.879	11.33
337.25	10.42
337.622	10.3
337.993	10.57
338.365	10.77
338.736	10.73
339.108	10.75
339.479	10.91
339.851	10.85
340.222	11.11
340.593	10.43
340.964	10.84
341.336	10.88
341.707	11.04
342.078	11.38
342.449	11.52
342.82	11.17
343.191	11.03
343.562	11.35
343.933	11.45
344.303	11.27
344.674	11.66
345.045	11.56
345.416	11.96
345.786	11.61
346.157	11.79
346.527	11.6
346.898	11.66
347.268	11.63
347.639	11.68
348.009	11.49
348.38	11.96
348.75	12.56
349.12	12.18
349.49	12.21
349.861	11.87
350.231	12.23
350.601	12.29
350.971	12.12
351.341	12.58
351.711	12.12
352.081	12.52
352.45	12.83
352.82	12.45
353.19	12.63
353.56	12.49
353.929	12.31
354.299	12.59
354.669	12.65
355.038	12.85
355.408	13.46
355.777	12.85
356.147	13.09
356.516	13
356.885	13.12
357.254	13.19
357.624	13.37
357.993	12.76
358.362	13.4
358.731	13.06
359.1	13.27
359.469	13.09
359.838	13.29
360.207	13.2
360.576	13.25
360.945	13.65
361.314	13.77
361.682	13.89
362.051	13.59
362.42	13.8
362.788	13.47
363.157	13.91
363.525	13.44
363.894	13.64
364.262	13.66
364.631	14.15
364.999	14.04
365.367	13.96
365.735	13.83
366.104	14.12
366.472	14.39
366.84	14.49
367.208	14.7
367.576	14.59
367.944	14.5
368.312	14.31
368.68	14.52
369.048	14.65
369.416	14.91
369.783	14.82
370.151	14.37
370.519	14.71
370.886	14.93
371.254	14.95
371.621	15.41
371.989	15.39
372.356	15.24
372.724	15.01
373.091	15.33
373.458	15.31
373.826	15.3
374.193	15.74
374.56	15.6
374.927	16.33
375.294	16.07
375.661	15.48
376.028	15.77
376.395	15.81
376.762	15.73
377.129	16.04
377.496	16.2
377.863	15.58
378.229	16.45
378.596	16.16
378.963	15.9
379.329	15.97
379.696	16.35
380.062	16.24
380.429	16.31
380.795	16.54
381.161	16.32
381.528	16.43
381.894	16.41
382.26	16.5
382.626	16.81
382.993	16.89
383.359	16.7
383.725	16.85
384.091	16.71
384.457	17.25
384.823	17.21
385.188	17.1
385.554	17.39
385.92	17.5
386.286	17.47
386.651	17.27
387.017	17.32
387.383	17.18
387.748	17.12
388.114	17.36
388.479	17.68
388.845	17.34
389.21	17.71
389.575	17.99
389.94	17.52
390.306	17.96
390.671	17.77
391.036	18.28
391.401	18.02
391.766	18.03
392.131	18.05
392.496	18.51
392.861	18.58
393.226	17.96
393.591	18.26
393.956	18.44
394.32	18.47
394.685	18.21
395.05	18.79
395.414	18.68
395.779	18.54
396.143	18.83
396.508	18.59
396.872	18.59
397.236	18.75
397.601	18.97
397.965	18.91
398.329	18.97
398.694	19.22
399.058	19.21
399.422	19.39
399.786	19.39
400.15	19.28
400.514	19.17
400.878	19.64
401.242	19.53
401.605	19.23
401.969	19.44
402.333	19.53
402.697	19.67
403.06	19.68
403.424	19.83
403.787	19.93
404.151	20.11
404.514	19.93
404.878	20.17
405.241	19.97
405.604	20.07
405.968	20.05
406.331	19.94
406.694	20.08
407.057	20.12
407.42	20.26
407.783	20.19
408.146	20.26
408.509	20.46
408.872	20.48
409.235	20.69
409.598	20.64
409.961	20.7
410.323	21.08
410.686	21.17
411.049	20.78
411.411	20.97
411.774	21.05
412.136	20.75
412.499	20.97
412.861	21.18
413.223	20.9
413.586	21.27
413.948	21.31
414.31	21.62
414.672	21.44
415.035	21.44
415.397	21.79
415.759	21.3
416.121	21.67
416.483	21.47
416.845	21.66
417.206	21.67
417.568	21.9
417.93	21.93
418.292	21.75
418.653	21.61
419.015	21.83
419.377	21.77
419.738	21.65
420.1	21.84
420.461	21.88
420.822	21.97
421.184	21.97
421.545	21.8
421.906	21.93
422.267	22.06
422.629	21.92
422.99	21.96
423.351	22.03
423.712	22.19
424.073	22.33
424.434	22.35
424.795	22.58
425.155	22.52
425.516	22.71
425.877	22.61
426.238	22.49
426.598	22.47
426.959	22.7
427.32	22.8
427.68	22.94
428.041	23.18
428.401	23.22
428.761	23.36
429.122	23.51
429.482	23.54
429.842	23.72
430.202	23.69
430.563	23.78
430.923	24.01
431.283	23.88
431.643	24.07
432.003	23.99
432.363	24.04
432.722	24.27
433.082	24.38
433.442	24.47
433.802	24.38
434.161	24.25
434.521	24.31
434.881	24.24
435.24	24.66
435.6	24.59
435.959	24.59
436.319	24.65
436.678	24.61
437.037	24.86
437.396	25
437.756	24.97
438.115	25
438.474	25.23
438.833	25.26
439.192	25.36
439.551	25.35
439.91	25.55
440.269	25.18
440.628	25.31
440.987	25.6
441.345	25.45
441.704	25.34
442.063	25.49
442.421	25.68
442.78	25.61
443.138	25.55
443.497	25.5
443.855	25.82
444.214	26.02
444.572	26.21
444.93	25.96
445.288	26.35
445.647	26.3
446.005	26.52
446.363	26.33
446.721	26.28
447.079	26.32
447.437	26.32
447.795	26.16
448.153	26.26
448.51	26.26
448.868	26.21
449.226	26.28
449.584	26.53
449.941	26.68
450.299	27.01
450.656	27.04
451.014	27.09
451.371	27.25
451.729	27.26
452.086	27.35
452.443	27.64
452.801	27.72
453.158	27.75
453.515	27.67
453.872	27.75
454.229	27.57
454.586	27.81
454.943	27.52
455.3	27.74
455.657	27.83
456.014	28.26
456.371	28.07
456.727	28
457.084	28.23
457.441	28.39
457.797	28.1
458.154	28.28
458.51	28.54
458.867	28.46
459.223	28.63
459.58	28.81
459.936	28.95
460.292	28.89
460.648	28.64
461.005	28.63
461.361	28.57
461.717	28.42
462.073	28.5
462.429	28.6
462.785	28.72
463.141	28.73
463.496	28.94
463.852	29.16
464.208	29.23
464.564	29.43
464.919	29.41
465.275	29.64
465.631	29.82
465.986	29.77
466.342	30.1
466.697	29.89
467.052	29.95
467.408	30.09
467.763	30.23
468.118	30.54
468.473	30.22
468.829	30.07
469.184	30.24
469.539	30.36
469.894	30.29
470.249	30.33
470.603	30.55
470.958	30.54
471.313	30.38
471.668	30.79
472.023	30.76
472.377	30.9
472.732	30.87
473.086	31.08
473.441	31.02
473.795	31.09
474.15	31.16
474.504	31.19
474.859	31.31
475.213	31.2
475.567	31.29
475.921	30.97
476.275	31.38
476.63	31.6
476.984	31.41
477.338	31.55
477.692	31.61
478.045	31.71
478.399	31.72
478.753	31.85
479.107	31.69
479.461	31.75
479.814	31.71
480.168	31.88
480.521	32.01
480.875	31.84
481.228	32.09
481.582	31.93
481.935	32.24
482.289	32.25
482.642	32.19
482.995	32.17
483.348	32.15
483.701	32.03
484.055	32.09
484.408	32.03
484.761	31.83
485.114	31.57
485.466	31.66
485.819	31.51
486.172	31.25
486.525	31.3
486.878	31.37
487.23	31.56
487.583	31.87
487.936	32.26
488.288	32.47
488.641	32.29
488.993	32.14
489.345	31.96
489.698	32.02
490.05	31.99
490.402	32.03
490.754	32.35
491.107	32.39
491.459	32.93
491.811	32.98
492.163	33.23
492.515	33.13
492.866	33.26
493.218	32.95
493.57	32.85
493.922	32.71
494.274	32.79
494.625	33.07
494.977	33.28
495.328	33.54
495.68	34.09
496.031	34.21
496.383	34.34
496.734	34.7
497.086	34.45
497.437	34.37
497.788	34.55
498.139	34.34
498.49	34.31
498.842	34.29
499.193	34.39
499.544	34.46
499.894	34.83
500.245	34.66
500.596	34.84
500.947	34.75
501.298	34.94
501.648	35.18
501.999	35.24
502.35	35.31
502.7	35.45
503.051	35.37
503.401	35.58
503.752	35.66
504.102	35.73
504.452	35.59
504.803	35.73
505.153	36.08
505.503	35.74
505.853	35.68
506.203	35.81
506.553	35.68
506.903	35.95
507.253	36.1
507.603	36.19
507.953	36.13
508.303	36.38
508.652	36.19
509.002	36.37
509.352	36.32
509.701	36.1
510.051	36.17
510.4	36.26
510.75	36.17
511.099	36.16
511.449	36.31
511.798	36.41
512.147	36.38
512.496	36.57
512.846	36.82
513.195	36.73
513.544	36.76
513.893	36.79
514.242	36.8
514.591	36.88
514.939	36.84
515.288	37.03
515.637	36.89
515.986	36.92
516.334	37.15
516.683	37.25
517.032	37.18
517.38	37.48
517.729	37.75
518.077	37.38
518.426	37.75
518.774	37.69
519.122	37.58
519.47	37.65
519.819	37.34
520.167	37.37
520.515	37.26
520.863	37.19
521.211	37.13
521.559	37.35
521.907	37.44
522.255	37.44
522.602	38.01
522.95	37.89
523.298	38.17
523.645	38.16
523.993	38.33
524.341	38.31
524.688	38.33
525.036	38.45
525.383	38.18
525.73	38.55
526.078	38.63
526.425	38.53
526.772	38.4
527.119	38.31
527.466	38.06
527.814	37.93
528.161	37.92
528.508	38.07
528.854	38.13
529.201	38.37
529.548	38.33
529.895	38.14
530.242	38.17
530.588	38.18
530.935	37.85
531.282	37.62
531.628	37.76
531.975	37.96
532.321	38.41
532.667	38.65
533.014	38.64
533.36	38.96
533.706	38.98
534.052	39.19
534.399	39.06
534.745	38.96
535.091	38.85
535.437	38.71
535.783	38.62
536.129	38.89
536.474	39.12
536.82	39.29
537.166	39.58
537.512	39.35
537.857	39.64
538.203	39.82
538.549	39.52
538.894	39.67
539.239	39.5
539.585	39.71
539.93	39.93
540.276	40.15
540.621	40.3
540.966	40.65
541.311	40.44
541.656	40.58
542.001	40.61
542.346	40.28
542.691	40.22
543.036	39.92
543.381	39.74
543.726	39.73
544.071	39.72
544.415	39.8
544.76	39.93
545.105	40.22
545.449	40.41
545.794	40.53
546.138	40.45
546.483	40.89
546.827	41
547.171	41.18
547.516	41.25
547.86	41.11
548.204	41.17
548.548	41.05
548.892	41.1
549.236	41.28
549.58	41.34
549.924	41.55
550.268	41.68
550.612	41.84
550.956	42.04
551.3	42.04
551.643	42.15
551.987	42.16
552.33	42.34
552.674	42.36
553.017	42.33
553.361	42.47
553.704	42.83
554.048	42.61
554.391	42.63
554.734	42.47
555.077	42.39
555.42	42.24
555.764	42.5
556.107	42.66
556.45	42.94
556.793	42.57
557.135	42.95
557.478	43.01
557.821	43.12
558.164	43.44
558.507	42.95
558.849	43.09
559.192	43.26
559.534	43.07
559.877	43.39
560.219	43.75
560.562	43.27
560.904	43.82
561.246	43.41
561.589	43.42
561.931	43.9
562.273	43.74
562.615	43.67
562.957	43.88
563.299	43.85
563.641	44.06
563.983	43.96
564.325	43.97
564.667	44.12
565.008	43.95
565.35	44.13
565.692	44.26
566.033	44.19
566.375	44.03
566.716	44.36
567.058	44.18
567.399	44.22
567.741	44.28
568.082	44.27
568.423	44.18
568.764	44.22
569.105	43.97
569.447	44.2
569.788	44.47
570.129	44.51
570.47	44.66
570.811	44.96
571.151	44.61
571.492	44.67
571.833	44.94
572.174	44.82
572.514	44.84
572.855	44.74
573.195	44.95
573.536	44.89
573.876	45.06
574.217	44.79
574.557	44.88
574.898	44.87
575.238	45.08
575.578	45.03
575.918	44.95
576.258	45.47
576.598	45.12
576.938	45.37
577.278	45.56
577.618	45.32
577.958	45.06
578.298	45.73
578.638	45.4
578.977	45.87
579.317	45.62
579.657	45.69
579.996	45.66
580.336	46.16
580.675	45.89
581.014	46.03
581.354	46.12
581.693	46.32
582.032	46.35
582.372	46.44
582.711	46.41
583.05	46.32
583.389	46.46
583.728	46.44
584.067	46.46
584.406	46.46
584.745	46.42
585.083	46.48
585.422	46.67
585.761	46.85
586.1	46.64
586.438	47.08
586.777	47.09
587.115	46.92
587.454	46.91
587.792	47.04
588.13	47.03
588.469	47.04
588.807	47.21
589.145	47.3
589.483	47.6
589.821	47.22
590.159	47.18
590.497	47.37
590.835	47.36
591.173	47.27
591.511	47.38
591.849	47.7
592.187	47.55
592.524	47.18
592.862	47.43
593.2	47.45
593.537	47.51
593.875	47.79
594.212	47.64
594.55	47.82
594.887	47.88
595.224	48.08
595.561	47.95
595.899	48.06
596.236	48.29
596.573	47.95
596.91	47.88
597.247	48.17
597.584	48.14
597.921	48.09
598.258	48.33
598.594	47.96
598.931	48.17
599.268	48.12
599.604	47.96
599.941	48.03
600.277	47.88
600.614	48.73
600.95	48.76
601.287	48.59
601.623	48.43
601.959	48.87
602.296	48.84
602.632	49.03
602.968	48.96
603.304	48.8
603.64	48.89
603.976	48.72
604.312	48.86
604.648	49.33
604.984	49.37
605.319	49.1
605.655	48.8
605.991	49.11
606.326	48.8
606.662	49.07
606.998	48.9
607.333	48.75
607.668	48.65
608.004	49
608.339	49.25
608.674	49.38
609.01	49.21
609.345	49.5
609.68	49.44
610.015	49.58
610.35	49.61
610.685	49.55
611.02	49.5
611.355	49.6
611.689	49.1
612.024	49.36
612.359	49.6
612.694	49.55
613.028	49.67
613.363	49.87
613.697	50.05
614.032	49.87
614.366	50.62
614.7	50.15
615.035	50.23
615.369	50.16
615.703	50.55
616.037	50.66
616.371	50.49
616.705	50.55
617.039	50.02
617.373	50.6
617.707	51.02
618.041	50.54
618.375	50.81
618.709	50.72
619.042	50.83
619.376	51.08
619.71	51.4
620.043	51.07
620.377	51.03
620.71	51.05
621.043	51.21
621.377	50.8
621.71	51.04
622.043	51.23
622.376	50.91
622.709	51.26
623.043	51.36
623.376	51.24
623.709	51.58
624.041	51.69
624.374	51.67
624.707	51.27
625.04	51.52
625.373	51.73
625.705	51.29
626.038	51.52
626.37	51.94
626.703	51.77
627.035	52.21
627.368	52.23
627.7	51.69
628.032	51.86
628.365	51.59
628.697	51.87
629.029	51.94
629.361	51.4
629.693	51.92
630.025	52.1
630.357	51.98
630.689	51.89
631.021	52.13
631.353	52.27
631.684	52.08
632.016	52.6
632.348	52.41
632.679	51.77
633.011	52.42
633.342	52.66
633.674	52.47
634.005	52.5
634.336	52.32
634.668	52.9
634.999	52.95
635.33	52.7
635.661	52.71
635.992	52.6
636.323	52.42
636.654	52.64
636.985	53.06
637.316	52.82
637.647	52.94
637.977	53.13
638.308	52.55
638.639	52.72
638.969	53.15
639.3	53.14
639.63	52.56
639.961	52.94
640.291	53.2
640.622	53.32
640.952	53.14
641.282	53.67
641.612	53.24
641.943	53.41
642.273	53.43
642.603	53.92
642.933	53.22
643.263	53.8
643.592	53.89
643.922	53.57
644.252	54.27
644.582	54.11
644.911	53.89
645.241	54.14
645.571	53.68
645.9	54.11
646.23	53.47
646.559	53.49
646.888	54.06
647.218	54.21
647.547	54.81
647.876	54.44
648.205	54.47
648.534	54.02
648.863	54.3
649.192	54
649.521	54.29
649.85	54.56
650.179	54.33
650.508	54.02
650.837	53.89
651.165	54.33
651.494	54.67
651.822	55.09
652.151	54.32
652.479	54.59
652.808	54.31
653.136	54.24
653.465	54.47
653.793	54.16
654.121	54.52
654.449	54.71
654.777	54.41
655.105	54.42
655.433	54.99
655.761	55.07
656.089	54.84
656.417	54.48
656.745	54.7
657.073	54.76
657.4	54.83
657.728	55.08
658.056	54.7
658.383	55.65
658.711	55.67
659.038	54.97
659.365	55.36
659.693	55.1
660.02	55.38
660.347	55.6
660.674	55.78
661.001	55.66
661.329	55.39
661.656	55.14
661.982	55.36
662.309	55.11
662.636	55.25
662.963	54.99
663.29	55.26
663.616	55.54
663.943	55.22
664.27	55.35
664.596	55.45
664.923	55
665.249	55.98
665.576	56.52
665.902	55.55
666.228	55.97
666.554	55.94
666.881	55.64
667.207	55.45
667.533	56.49
667.859	56.96
668.185	56.34
668.511	55.2
668.837	55.38
669.162	56.2
669.488	56.32
669.814	56.85
