Data from 1844-1_crown_Reflection__0__111.txt Node

Date: Fri Sep 30 18:40:21 CDT 2022
User: ToomeyLab
Spectrometer: FLMS14357
Trigger mode: 0
Integration Time (sec): 1.000000E-2
Scans to average: 100
Electric dark correction enabled: true
Nonlinearity correction enabled: false
Boxcar width: 0
XAxis mode: Wavelengths
Number of Pixels in Spectrum: 2048
>>>>>Begin Spectral Data<<<<<
189.047	-33.23
189.435	-33.23
189.823	-33.23
190.211	174.42
190.599	621.83
190.987	34.72
191.375	22.89
191.763	397.28
192.151	-48.26
192.538	3.54
192.926	101.23
193.314	198.55
193.702	19.46
194.089	30.01
194.477	-186.53
194.864	510.91
195.252	-66.56
195.639	-94.67
196.027	-250.42
196.414	38.29
196.801	22.28
197.189	45.74
197.576	-975.34
197.963	464.16
198.351	6.56
198.738	-44.61
199.125	59.39
199.512	18.85
199.899	8.82
200.286	7.68
200.673	47.7
201.06	46.62
201.447	42.21
201.833	44.78
202.22	17.59
202.607	44.54
202.994	60.74
203.38	23.67
203.767	20.04
204.154	41.85
204.54	44.75
204.927	40.17
205.313	-65.13
205.699	46.5
206.086	28.72
206.472	22.63
206.858	32.84
207.245	29.54
207.631	-27.27
208.017	-36.42
208.403	5.9
208.789	26.41
209.175	32.94
209.561	0.28
209.947	8.65
210.333	-21.45
210.719	-20.8
211.105	-16.25
211.491	10.46
211.876	15.6
212.262	24.39
212.648	29.87
213.034	-10.34
213.419	18.14
213.805	2.3
214.19	-21.85
214.576	-3.56
214.961	30.55
215.346	49.67
215.732	18.68
216.117	18.94
216.502	15.25
216.888	33.92
217.273	-11.94
217.658	16.27
218.043	-23.13
218.428	-6.97
218.813	1.1
219.198	15.13
219.583	7.95
219.968	11.47
220.353	21.9
220.738	14.04
221.122	1.07
221.507	20.73
221.892	29.28
222.276	-16.2
222.661	6.48
223.046	-4.02
223.43	-6.47
223.815	-4
224.199	-1.83
224.583	-11.9
224.968	-11.32
225.352	-1.28
225.736	10.95
226.121	11.59
226.505	-1.46
226.889	-0.35
227.273	-0.81
227.657	10.95
228.041	8.21
228.425	6.84
228.809	1.13
229.193	3.57
229.577	1.1
229.961	2
230.344	1.71
230.728	1.95
231.112	2.96
231.495	2.04
231.879	2.85
232.263	2.84
232.646	1.92
233.03	3.44
233.413	1.77
233.797	1.54
234.18	2.51
234.563	3.13
234.946	3.75
235.33	1.16
235.713	3.61
236.096	2.15
236.479	3.59
236.862	0.77
237.245	2.67
237.628	1.81
238.011	3.97
238.394	3.55
238.777	-0.4
239.16	1.52
239.543	1.08
239.925	-0.44
240.308	0.99
240.691	4.34
241.073	4.45
241.456	1.75
241.838	3.03
242.221	2.1
242.603	2.44
242.986	2.81
243.368	1.54
243.75	2.35
244.133	2.71
244.515	2.06
244.897	2.16
245.279	2.33
245.661	1.37
246.043	1.77
246.425	1.45
246.807	2.63
247.189	2.64
247.571	2.49
247.953	2.18
248.335	1.81
248.717	2.12
249.098	2.18
249.48	1.7
249.862	1.8
250.243	1.86
250.625	2.29
251.006	2.45
251.388	1.53
251.769	2.96
252.151	2.66
252.532	1.84
252.913	1.72
253.295	1.99
253.676	1.75
254.057	2.02
254.438	1.49
254.819	3.05
255.2	1.88
255.581	2.76
255.962	3.14
256.343	2.43
256.724	1.16
257.105	2.9
257.486	2.37
257.867	3.2
258.247	1.92
258.628	2.74
259.009	3.06
259.389	1.53
259.77	2.29
260.15	1.5
260.531	2.48
260.911	2.35
261.292	1.77
261.672	1.79
262.052	1.81
262.432	1.84
262.813	2.65
263.193	2.36
263.573	2.07
263.953	1.89
264.333	2.26
264.713	1.34
265.093	1.63
265.473	2.03
265.853	2.02
266.233	1.07
266.612	1.96
266.992	2.01
267.372	1.16
267.752	2.22
268.131	1.77
268.511	1.91
268.89	1.74
269.27	2
269.649	1.52
270.029	2.12
270.408	1.73
270.787	1.8
271.167	1.79
271.546	2.02
271.925	1.77
272.304	2.48
272.683	1.82
273.062	1.8
273.441	1.54
273.82	1.36
274.199	1.92
274.578	1.95
274.957	1.84
275.336	2.32
275.715	2.06
276.093	1.75
276.472	2.2
276.851	2
277.229	1.95
277.608	1.77
277.986	1.67
278.365	2.04
278.743	2.19
279.122	1.79
279.5	1.83
279.878	1.74
280.257	2.18
280.635	2.68
281.013	2.16
281.391	2.06
281.769	1.98
282.147	1.73
282.525	2.6
282.903	1.65
283.281	2.01
283.659	1.74
284.037	1.79
284.415	2.29
284.792	2.03
285.17	1.02
285.548	1.75
285.925	2.05
286.303	1.98
286.68	1.95
287.058	1.56
287.435	1.75
287.813	1.8
288.19	1.59
288.567	1.77
288.945	1.16
289.322	1.15
289.699	1.94
290.076	1.71
290.453	1.71
290.83	1.48
291.207	1.59
291.584	1.17
291.961	1.63
292.338	1.93
292.715	1.99
293.092	1.67
293.469	1.71
293.845	2.29
294.222	1.46
294.599	2.13
294.975	2.24
295.352	1.97
295.728	1.65
296.105	1.49
296.481	2.01
296.858	1.99
297.234	2.36
297.61	1.63
297.986	1.47
298.363	2.05
298.739	1.69
299.115	1.67
299.491	2
299.867	1.91
300.243	1.7
300.619	1.68
300.995	2.47
301.371	1.61
301.746	1.76
302.122	2.31
302.498	1.89
302.874	2.15
303.249	1.54
303.625	2.06
304	2.21
304.376	1.92
304.751	1.78
305.127	1.9
305.502	2.2
305.878	2.35
306.253	1.67
306.628	1.66
307.003	1.86
307.378	1.92
307.754	1.74
308.129	2.02
308.504	1.7
308.879	1.89
309.254	1.37
309.629	1.87
310.003	1.61
310.378	1.66
310.753	1.61
311.128	2.07
311.502	1.83
311.877	1.78
312.252	1.88
312.626	1.92
313.001	1.73
313.375	1.64
313.75	2.23
314.124	1.99
314.498	1.51
314.873	1.67
315.247	1.68
315.621	2.04
315.995	2.14
316.369	2.13
316.743	2.17
317.117	2.14
317.491	2.7
317.865	2.44
318.239	2.18
318.613	2.27
318.987	2.01
319.361	1.96
319.734	1.45
320.108	2.01
320.482	1.72
320.855	1.8
321.229	2.08
321.602	2.11
321.976	2.36
322.349	2.19
322.723	2.37
323.096	2.5
323.469	2.34
323.843	1.52
324.216	1.42
324.589	2.28
324.962	2.28
325.335	2.41
325.708	2
326.081	2.21
326.454	2.23
326.827	1.72
327.2	1.76
327.573	1.73
327.945	1.79
328.318	1.77
328.691	2.43
329.063	1.76
329.436	1.96
329.809	2.12
330.181	1.94
330.553	2.06
330.926	1.94
331.298	1.87
331.671	2.15
332.043	1.83
332.415	2.17
332.787	1.91
333.159	1.96
333.532	2.4
333.904	2.16
334.276	2.25
334.648	1.71
335.02	2.18
335.391	2.48
335.763	1.99
336.135	2.1
336.507	2.33
336.879	2.43
337.25	1.57
337.622	2.33
337.993	1.51
338.365	1.68
338.736	2.08
339.108	2.06
339.479	2.31
339.851	1.63
340.222	2.01
340.593	1.61
340.964	1.99
341.336	2.14
341.707	1.8
342.078	1.84
342.449	2.36
342.82	1.96
343.191	2.02
343.562	2.17
343.933	2.03
344.303	1.99
344.674	1.93
345.045	1.93
345.416	2.35
345.786	2.11
346.157	2.49
346.527	1.96
346.898	1.88
347.268	1.61
347.639	1.91
348.009	2.34
348.38	2.47
348.75	2.55
349.12	2.16
349.49	2.58
349.861	1.95
350.231	2.16
350.601	2.3
350.971	1.76
351.341	2.12
351.711	2.06
352.081	2.31
352.45	2.32
352.82	2.09
353.19	2.37
353.56	2.01
353.929	1.97
354.299	1.97
354.669	1.88
355.038	2.12
355.408	1.78
355.777	1.33
356.147	1.91
356.516	2.21
356.885	2
357.254	2.47
357.624	2.03
357.993	1.89
358.362	1.99
358.731	1.83
359.1	1.79
359.469	1.84
359.838	2.36
360.207	2.08
360.576	1.57
360.945	2.35
361.314	1.98
361.682	2.2
362.051	2.15
362.42	1.93
362.788	1.89
363.157	2.21
363.525	1.9
363.894	1.93
364.262	2.29
364.631	2.28
364.999	1.74
365.367	2.24
365.735	1.82
366.104	1.86
366.472	2.14
366.84	2.25
367.208	2.09
367.576	2.84
367.944	2.43
368.312	1.92
368.68	1.85
369.048	1.84
369.416	2.42
369.783	2.22
370.151	2.1
370.519	2.23
370.886	2.12
371.254	1.98
371.621	2.33
371.989	2.42
372.356	2.04
372.724	2.26
373.091	2.14
373.458	1.95
373.826	2.13
374.193	2.55
374.56	2.14
374.927	2.65
375.294	2.18
375.661	2.01
376.028	1.96
376.395	2.04
376.762	1.81
377.129	2.56
377.496	2.53
377.863	1.78
378.229	2.42
378.596	2
378.963	2.3
379.329	2.09
379.696	2.19
380.062	2.3
380.429	2.23
380.795	2.18
381.161	1.97
381.528	2.33
381.894	2.11
382.26	2.06
382.626	2.26
382.993	2.18
383.359	1.88
383.725	1.86
384.091	2.12
384.457	2.27
384.823	2.32
385.188	2.21
385.554	2.45
385.92	2.3
386.286	2.17
386.651	2.37
387.017	2.17
387.383	2.22
387.748	1.67
388.114	2.29
388.479	2.21
388.845	2.02
389.21	2.17
389.575	2.34
389.94	2.05
390.306	2.24
390.671	2.2
391.036	2.42
391.401	1.89
391.766	2.15
392.131	2.16
392.496	2.31
392.861	2.29
393.226	1.95
393.591	2.03
393.956	2.45
394.32	2.34
394.685	2.29
395.05	2.08
395.414	1.96
395.779	1.93
396.143	2.34
396.508	1.92
396.872	2.3
397.236	2.05
397.601	2.31
397.965	2.44
398.329	2.07
398.694	2.38
399.058	2.22
399.422	2.35
399.786	2.04
400.15	2.26
400.514	2.02
400.878	2.16
401.242	1.97
401.605	2.13
401.969	2.38
402.333	2.38
402.697	2.24
403.06	2.1
403.424	2.14
403.787	2.42
404.151	2.58
404.514	2.3
404.878	2.06
405.241	2.17
405.604	2.17
405.968	2.3
406.331	2.2
406.694	2.14
407.057	2.14
407.42	2.3
407.783	2
408.146	2.07
408.509	2.23
408.872	2.14
409.235	2.17
409.598	2.3
409.961	2.17
410.323	2.48
410.686	2.49
411.049	2.14
411.411	2.15
411.774	2.15
412.136	2.33
412.499	2.23
412.861	2.27
413.223	2.14
413.586	2.12
413.948	2.13
414.31	2.13
414.672	2.15
415.035	2.21
415.397	2.26
415.759	2.25
416.121	1.98
416.483	2.2
416.845	2.09
417.206	2.25
417.568	2.06
417.93	1.9
418.292	2.33
418.653	2.15
419.015	2.2
419.377	2.13
419.738	2.04
420.1	2.25
420.461	2.21
420.822	2.17
421.184	2.13
421.545	2.13
421.906	1.88
422.267	2.04
422.629	2.1
422.99	2.07
423.351	2.09
423.712	2.08
424.073	2.04
424.434	2.08
424.795	2.04
425.155	2.13
425.516	2.17
425.877	2.11
426.238	2.06
426.598	2.19
426.959	2.01
427.32	2.13
427.68	2.13
428.041	2.08
428.401	2.17
428.761	2.28
429.122	2.17
429.482	2.18
429.842	2.18
430.202	2.1
430.563	2.21
430.923	2.1
431.283	2.12
431.643	2.28
432.003	2.06
432.363	2.13
432.722	2.19
433.082	2.26
433.442	2.04
433.802	2.15
434.161	2.06
434.521	2.07
434.881	1.98
435.24	2.05
435.6	2.19
435.959	2.23
436.319	2.23
436.678	2.09
437.037	2.2
437.396	2.16
437.756	2.27
438.115	2.03
438.474	2.16
438.833	2.23
439.192	2.16
439.551	2.16
439.91	2.04
440.269	2.05
440.628	2.13
440.987	2.22
441.345	2.23
441.704	2.16
442.063	2.28
442.421	2.29
442.78	2.21
443.138	2.04
443.497	2.25
443.855	2.28
444.214	2.18
444.572	2.27
444.93	2.15
445.288	2.22
445.647	2.13
446.005	2.08
446.363	2.24
446.721	2.13
447.079	1.98
447.437	2.17
447.795	2.09
448.153	2.1
448.51	2.14
448.868	2.07
449.226	2.08
449.584	2.12
449.941	2.11
450.299	2.24
450.656	2.22
451.014	2.25
451.371	2.23
451.729	2.25
452.086	2.23
452.443	2.18
452.801	2.22
453.158	2.05
453.515	2.14
453.872	2.11
454.229	2.09
454.586	2.38
454.943	2.18
455.3	2.13
455.657	2.14
456.014	2.03
456.371	2.17
456.727	2.14
457.084	2.12
457.441	2.22
457.797	2.16
458.154	1.95
458.51	2.17
458.867	2.22
459.223	2.1
459.58	2.21
459.936	2.22
460.292	2.23
460.648	2.07
461.005	2.12
461.361	2.09
461.717	2.07
462.073	2.14
462.429	2.06
462.785	2.19
463.141	2.32
463.496	2.16
463.852	2.2
464.208	2.23
464.564	2.11
464.919	2.19
465.275	2.2
465.631	2.28
465.986	2.41
466.342	2.14
466.697	2.2
467.052	2.31
467.408	2.17
467.763	2.16
468.118	2.19
468.473	2.23
468.829	2.15
469.184	2.23
469.539	2.27
469.894	2.22
470.249	2.26
470.603	2.17
470.958	2.17
471.313	2.13
471.668	2.31
472.023	2.16
472.377	2.18
472.732	2.17
473.086	2.08
473.441	2.32
473.795	2.12
474.15	2.14
474.504	2.21
474.859	2.33
475.213	2.09
475.567	2.21
475.921	2.1
476.275	1.9
476.63	2.06
476.984	2.15
477.338	2.09
477.692	2.31
478.045	2.2
478.399	2.26
478.753	2.25
479.107	2.15
479.461	2.12
479.814	2.01
480.168	2.14
480.521	2.11
480.875	2.21
481.228	2.07
481.582	2.21
481.935	2.15
482.289	2.23
482.642	2.18
482.995	2.14
483.348	2.09
483.701	2.16
484.055	2.14
484.408	2.01
484.761	1.98
485.114	1.91
485.466	1.93
485.819	1.91
486.172	2.01
486.525	2.08
486.878	2.13
487.23	2.04
487.583	2.04
487.936	2.08
488.288	2.04
488.641	1.96
488.993	2.03
489.345	2.02
489.698	2.05
490.05	2.04
490.402	2.07
490.754	2.13
491.107	2.07
491.459	2.23
491.811	2.14
492.163	2.13
492.515	2.1
492.866	2.05
493.218	1.99
493.57	2.02
493.922	2.05
494.274	2.1
494.625	2.18
494.977	2.21
495.328	2.19
495.68	2.06
496.031	2.14
496.383	2.12
496.734	2.25
497.086	2.15
497.437	2.23
497.788	2.15
498.139	2.12
498.49	2.13
498.842	2.08
499.193	2.17
499.544	2.08
499.894	2.19
500.245	2.12
500.596	2.1
500.947	2.18
501.298	2.27
501.648	2.11
501.999	2.11
502.35	2.27
502.7	2.09
503.051	2.14
503.401	2.16
503.752	2.2
504.102	2.34
504.452	2.12
504.803	2.17
505.153	2.26
505.503	2.07
505.853	2.15
506.203	1.97
506.553	2.15
506.903	2.27
507.253	2.22
507.603	2.24
507.953	2.19
508.303	2.26
508.652	2.14
509.002	2.27
509.352	2.27
509.701	2.08
510.051	2.24
510.4	2.18
510.75	2.12
511.099	2.06
511.449	2.17
511.798	2.16
512.147	2.16
512.496	2.11
512.846	2.14
513.195	2.38
513.544	2.13
513.893	2.24
514.242	2.03
514.591	2.19
514.939	2.01
515.288	2.21
515.637	2.15
515.986	2.23
516.334	2.21
516.683	2.15
517.032	2.13
517.38	2.24
517.729	2.24
518.077	2.1
518.426	2.11
518.774	2.12
519.122	2.09
519.47	2.15
519.819	2.19
520.167	2.21
520.515	2.11
520.863	2.05
521.211	2.18
521.559	2.18
521.907	2.18
522.255	2.17
522.602	2.21
522.95	2.16
523.298	2.22
523.645	2.11
523.993	2.19
524.341	2.14
524.688	2.27
525.036	2.15
525.383	1.95
525.73	2.17
526.078	2.18
526.425	2.09
526.772	2.12
527.119	1.96
527.466	1.96
527.814	2.1
528.161	2.05
528.508	2.06
528.854	2.06
529.201	1.97
529.548	1.91
529.895	1.98
530.242	1.96
530.588	1.99
530.935	2.03
531.282	2.07
531.628	2.09
531.975	2.08
532.321	2.04
532.667	2.14
533.014	2.14
533.36	2.09
533.706	2.11
534.052	2.13
534.399	2.1
534.745	2.06
535.091	2
535.437	2.07
535.783	2.07
536.129	2.14
536.474	2.11
536.82	2.15
537.166	2.12
537.512	2.04
537.857	2.19
538.203	2.03
538.549	2.04
538.894	2.05
539.239	2.05
539.585	2.21
539.93	2.14
540.276	2.15
540.621	2.1
540.966	2.28
541.311	2.09
541.656	2.02
542.001	2.08
542.346	2.05
542.691	1.94
543.036	1.97
543.381	1.98
543.726	2.04
544.071	2.13
544.415	2.1
544.76	2.12
545.105	2.05
545.449	2.06
545.794	2.11
546.138	2.1
546.483	2.25
546.827	2.12
547.171	2.2
547.516	2.07
547.86	2.01
548.204	2.07
548.548	2.06
548.892	2.11
549.236	2.19
549.58	2.21
549.924	2.11
550.268	2.29
550.612	2.23
550.956	2.18
551.3	2.35
551.643	2.32
551.987	2.26
552.33	2.37
552.674	2.36
553.017	2.11
553.361	2.15
553.704	2.47
554.048	2.04
554.391	2.28
554.734	2
555.077	2.14
555.42	2.19
555.764	2.15
556.107	2.26
556.45	2.22
556.793	2.06
557.135	2.37
557.478	2.15
557.821	2.35
558.164	2.33
558.507	2.32
558.849	2.32
559.192	2.31
559.534	2.09
559.877	2.19
560.219	2.21
560.562	2.2
560.904	2.1
561.246	2.13
561.589	2.15
561.931	2.15
562.273	2.22
562.615	2.21
562.957	2.16
563.299	2.31
563.641	2.03
563.983	2.12
564.325	2.09
564.667	2.32
565.008	2.02
565.35	2.05
565.692	2.32
566.033	2
566.375	1.98
566.716	2.14
567.058	2.12
567.399	1.98
567.741	2.1
568.082	2.15
568.423	2.18
568.764	2.12
569.105	2.04
569.447	2.07
569.788	2.36
570.129	2.05
570.47	2.25
570.811	2.04
571.151	2.27
571.492	2.4
571.833	2.2
572.174	2.03
572.514	2.21
572.855	1.97
573.195	2.17
573.536	2.23
573.876	2.31
574.217	2.09
574.557	2.21
574.898	2.21
575.238	2.35
575.578	2.33
575.918	2.04
576.258	2.33
576.598	2.27
576.938	2.14
577.278	2.41
577.618	2.31
577.958	2.1
578.298	2.35
578.638	2.31
578.977	2.13
579.317	2.21
579.657	2.13
579.996	2.11
580.336	2.35
580.675	2.18
581.014	2.19
581.354	2.24
581.693	2.24
582.032	2.18
582.372	2.12
582.711	2.18
583.05	2.23
583.389	2.2
583.728	2.2
584.067	2.23
584.406	2.19
584.745	2.39
585.083	2.26
585.422	2.47
585.761	2.22
586.1	2.43
586.438	2.28
586.777	2.57
587.115	2.42
587.454	2.33
587.792	2.02
588.13	2.33
588.469	2.25
588.807	2.09
589.145	2.07
589.483	2.52
589.821	2.39
590.159	2.47
590.497	2.15
590.835	2.17
591.173	2.06
591.511	2.13
591.849	2.06
592.187	2.32
592.524	2.27
592.862	2.38
593.2	2.46
593.537	2.17
593.875	1.94
594.212	2.2
594.55	2.24
594.887	2.43
595.224	2.3
595.561	2.07
595.899	2.21
596.236	2.31
596.573	2.3
596.91	2.17
597.247	2.01
597.584	2.28
597.921	2.02
598.258	2.02
598.594	1.98
598.931	2.14
599.268	1.97
599.604	2.29
599.941	2.01
600.277	2.07
600.614	2.35
600.95	2.4
601.287	2.19
601.623	2.13
601.959	2.09
602.296	2.39
602.632	2.27
602.968	2.43
603.304	2.37
603.64	2.42
603.976	2.13
604.312	2.03
604.648	2.24
604.984	2.47
605.319	2.17
605.655	2.25
605.991	2.34
606.326	2.15
606.662	2.26
606.998	2.19
607.333	2.22
607.668	2.26
608.004	2.37
608.339	2.3
608.674	2.38
609.01	2.13
609.345	2.16
609.68	2.26
610.015	2.4
610.35	2.24
610.685	2.01
611.02	2.05
611.355	2.05
611.689	2.06
612.024	2.24
612.359	2.24
612.694	2.45
613.028	2.38
613.363	2.1
613.697	2.22
614.032	2.28
614.366	2.44
614.7	1.98
615.035	2.5
615.369	2.15
615.703	2.25
616.037	2.22
616.371	2.36
616.705	2.3
617.039	2.59
617.373	2.56
617.707	1.82
618.041	2.26
618.375	2.2
618.709	2.47
619.042	2.03
619.376	2.45
619.71	2.19
620.043	2.37
620.377	2.5
620.71	2.13
621.043	2.63
621.377	2.23
621.71	2.21
622.043	2.18
622.376	2.15
622.709	2.35
623.043	2.49
623.376	2.23
623.709	2.44
624.041	2.52
624.374	2.64
624.707	2.12
625.04	2.49
625.373	2.5
625.705	2.13
626.038	2.06
626.37	2.02
626.703	2.75
627.035	2.27
627.368	2.47
627.7	2.47
628.032	2.11
628.365	1.99
628.697	2.42
629.029	2.13
629.361	2.26
629.693	2.52
630.025	2.27
630.357	2.35
630.689	2.39
631.021	2.11
631.353	2.27
631.684	2.5
632.016	2.69
632.348	2.38
632.679	1.84
633.011	2.28
633.342	2.2
633.674	2.78
634.005	2.66
634.336	2.09
634.668	2.43
634.999	2.19
635.33	2.43
635.661	2.38
635.992	2.24
636.323	2.24
636.654	2.37
636.985	2.24
637.316	2.51
637.647	2.29
637.977	2.65
638.308	2.19
638.639	2.12
638.969	2.37
639.3	2.16
639.63	1.87
639.961	2.38
640.291	2.07
640.622	2.41
640.952	2.51
641.282	2.21
641.612	2.46
641.943	2.45
642.273	2.54
642.603	2.1
642.933	2.24
643.263	2.59
643.592	2.51
643.922	1.78
644.252	2.66
644.582	2.58
644.911	2.91
645.241	2.64
645.571	2.26
645.9	2.59
646.23	2.51
646.559	2.36
646.888	2.51
647.218	2.16
647.547	2.02
647.876	2.07
648.205	2.35
648.534	2.87
648.863	2.55
649.192	2.33
649.521	2.17
649.85	2.62
650.179	2.68
650.508	2.53
650.837	2.5
651.165	2.33
651.494	2.41
651.822	2.85
652.151	2.42
652.479	2.35
652.808	2.3
653.136	2.36
653.465	2.25
653.793	2.51
654.121	2.05
654.449	2.35
654.777	2.06
655.105	2.61
655.433	2.29
655.761	3
656.089	2.73
656.417	2.03
656.745	2.26
657.073	2.16
657.4	2.98
657.728	2.65
658.056	2.59
658.383	3.04
658.711	2.99
659.038	1.84
659.365	2.23
659.693	2.06
660.02	2.73
660.347	2.18
660.674	2.39
661.001	2.5
661.329	2.48
661.656	2.15
661.982	2.49
662.309	2.86
662.636	2.46
662.963	2.32
663.29	1.75
663.616	2.04
663.943	2.51
664.27	2.54
664.596	2.26
664.923	2.05
665.249	2.28
665.576	2.57
665.902	2.64
666.228	2.16
666.554	2.67
666.881	2.18
667.207	2.86
667.533	2.77
667.859	2.18
668.185	2.81
668.511	2.04
668.837	2.62
669.162	2.57
669.488	2.37
669.814	2.69
670.139	2.22
670.465	2.62
670.791	2.49
671.116	2.57
671.442	2.54
671.767	3
672.092	1.91
672.418	1.92
672.743	2.56
673.068	2.85
673.393	2.33
673.718	2.02
674.043	2.64
674.368	2.81
674.693	2.49
675.018	2.33
675.343	2.04
675.667	2.64
675.992	2.38
676.317	2.57
676.641	2.66
676.966	2.21
677.29	1.74
677.615	2.43
677.939	2.59
678.264	1.99
678.588	2.44
678.912	2.8
679.236	2.35
679.56	2.3
679.885	2
680.209	2.33
680.532	2.36
680.856	2.93
681.18	2.28
681.504	2.5
681.828	2.29
682.152	2.08
682.475	2.35
682.799	2.18
683.122	2.15
683.446	2.85
683.769	3.27
684.093	2.46
684.416	2.76
684.739	2.85
685.062	2.78
685.386	3.02
685.709	2.43
686.032	2.23
686.355	2.72
686.678	2.05
687.001	2.7
687.324	3.26
687.646	2.62
687.969	1.83
688.292	2.4
688.614	2.04
688.937	2.97
689.26	1.97
689.582	2.3
689.904	2.88
690.227	2.5
690.549	1.41
690.871	2.39
691.194	2.49
691.516	2.92
691.838	2.64
692.16	2.45
