Data from 1844-1_chest_Reflection__2__108.txt Node

Date: Fri Sep 30 18:38:31 CDT 2022
User: ToomeyLab
Spectrometer: FLMS14357
Trigger mode: 0
Integration Time (sec): 1.000000E-2
Scans to average: 100
Electric dark correction enabled: true
Nonlinearity correction enabled: false
Boxcar width: 0
XAxis mode: Wavelengths
Number of Pixels in Spectrum: 2048
>>>>>Begin Spectral Data<<<<<
189.047	-37.59
189.435	-37.59
189.823	-37.59
190.211	-49.54
190.599	447.44
190.987	92.86
191.375	-26.98
191.763	499.46
192.151	84.73
192.538	36.07
192.926	-20.85
193.314	175.31
193.702	175.96
194.089	-3.37
194.477	-675.13
194.864	460.37
195.252	73.46
195.639	-78.98
196.027	450.59
196.414	90.55
196.801	164.3
197.189	-21.41
197.576	-26.81
197.963	491.82
198.351	-7.75
198.738	-14.88
199.125	26.73
199.512	35.56
199.899	-4.3
200.286	-12.13
200.673	58.06
201.06	21.12
201.447	40.62
201.833	-3.35
202.22	34.11
202.607	18.19
202.994	39.4
203.38	20.85
203.767	1.12
204.154	25.99
204.54	28.82
204.927	19.88
205.313	-41.89
205.699	39.96
206.086	-71.61
206.472	24.96
206.858	37.23
207.245	12.95
207.631	-10.7
208.017	10.55
208.403	12.28
208.789	12.93
209.175	17.56
209.561	-19.57
209.947	-2.37
210.333	-45.36
210.719	-25.78
211.105	-42.1
211.491	-18.62
211.876	36.5
212.262	15.85
212.648	17.2
213.034	-4.16
213.419	25.63
213.805	3.33
214.19	-5.99
214.576	25.54
214.961	15.87
215.346	16.52
215.732	23.57
216.117	-5.53
216.502	-0.45
216.888	29.7
217.273	41.27
217.658	-2.04
218.043	19.07
218.428	5.13
218.813	9.95
219.198	32.07
219.583	4.58
219.968	10.18
220.353	1.1
220.738	2.14
221.122	19.33
221.507	13.59
221.892	3.24
222.276	-14.62
222.661	-3.76
223.046	-1.42
223.43	-2.36
223.815	-1.28
224.199	1.12
224.583	-8.18
224.968	-2.6
225.352	3.46
225.736	4.22
226.121	4.22
226.505	0.47
226.889	-0.49
227.273	-5.73
227.657	5.81
228.041	6.25
228.425	1.03
228.809	2.22
229.193	3.82
229.577	1.68
229.961	2.64
230.344	1.7
230.728	1.78
231.112	2.01
231.495	2.77
231.879	2.92
232.263	1.15
232.646	0.61
233.03	4.28
233.413	2.54
233.797	1.02
234.18	0.69
234.563	3.13
234.946	4.48
235.33	2.52
235.713	3.52
236.096	3.55
236.479	3.72
236.862	2.9
237.245	1.79
237.628	1.32
238.011	5.07
238.394	2.46
238.777	0.63
239.16	0.68
239.543	2.89
239.925	-0.1
240.308	3.09
240.691	3.12
241.073	2.17
241.456	2.75
241.838	2.53
242.221	1.22
242.603	2.94
242.986	2.83
243.368	1.07
243.75	1.76
244.133	2.19
244.515	1.93
244.897	2.15
245.279	2.34
245.661	2.33
246.043	1.4
246.425	1.82
246.807	2.5
247.189	2.26
247.571	2.07
247.953	2.47
248.335	1.67
248.717	1.99
249.098	2.1
249.48	1.99
249.862	1.81
250.243	1.9
250.625	2.18
251.006	1.86
251.388	0.39
251.769	2.73
252.151	2.04
252.532	1.99
252.913	1.64
253.295	2.06
253.676	1.7
254.057	1.98
254.438	1.66
254.819	2.22
255.2	2.1
255.581	2.35
255.962	2.84
256.343	2.09
256.724	2.4
257.105	2.44
257.486	2.85
257.867	2.48
258.247	2.28
258.628	2.78
259.009	2.41
259.389	1.39
259.77	1.86
260.15	1.52
260.531	2.08
260.911	1.92
261.292	1.9
261.672	1.8
262.052	1.67
262.432	1.72
262.813	2.09
263.193	1.44
263.573	0.92
263.953	1.27
264.333	1.9
264.713	0.98
265.093	2.27
265.473	1.45
265.853	1.35
266.233	1.83
266.612	1.82
266.992	1.8
267.372	0.72
267.752	1.26
268.131	1.89
268.511	1.21
268.89	1.86
269.27	1.99
269.649	1.4
270.029	2.31
270.408	1.49
270.787	1.78
271.167	1.53
271.546	2.2
271.925	2.41
272.304	1.83
272.683	1.88
273.062	2
273.441	1.83
273.82	1.35
274.199	1.88
274.578	1.14
274.957	1.62
275.336	1.68
275.715	1.88
276.093	2.14
276.472	1.77
276.851	1.73
277.229	2.14
277.608	1.51
277.986	2.11
278.365	2.36
278.743	1.25
279.122	2.11
279.5	1.41
279.878	1.38
280.257	2.13
280.635	2.23
281.013	2.46
281.391	1.37
281.769	1.51
282.147	1.41
282.525	2.08
282.903	1.94
283.281	1.61
283.659	2.13
284.037	1.67
284.415	1.82
284.792	2.06
285.17	0.98
285.548	1.73
285.925	1.56
286.303	1.53
286.68	1.4
287.058	1.84
287.435	1.8
287.813	1.93
288.19	1.63
288.567	1.69
288.945	0.95
289.322	1.81
289.699	2.11
290.076	1.43
290.453	1.85
290.83	1.44
291.207	1.46
291.584	1.6
291.961	1.66
292.338	1.91
292.715	2.06
293.092	1.29
293.469	2.32
293.845	1.78
294.222	1.7
294.599	2.53
294.975	2.09
295.352	1.6
295.728	1.76
296.105	1.57
296.481	1.53
296.858	1.97
297.234	1.59
297.61	1.8
297.986	1.49
298.363	1.91
298.739	1.66
299.115	1.91
299.491	1.95
299.867	1.88
300.243	1.68
300.619	1.42
300.995	2.3
301.371	1.63
301.746	1.96
302.122	1.95
302.498	1.67
302.874	2.02
303.249	2.18
303.625	2
304	2.34
304.376	2.24
304.751	2.03
305.127	1.86
305.502	2.2
305.878	2.02
306.253	1.81
306.628	2.06
307.003	1.84
307.378	1.88
307.754	1.99
308.129	2.05
308.504	1.87
308.879	2.06
309.254	1.35
309.629	1.88
310.003	1.93
310.378	1.74
310.753	1.72
311.128	1.57
311.502	2.25
311.877	2.17
312.252	2
312.626	1.76
313.001	1.79
313.375	1.82
313.75	1.86
314.124	1.74
314.498	1.89
314.873	1.58
315.247	1.45
315.621	1.86
315.995	2.41
316.369	1.95
316.743	2.15
317.117	2.19
317.491	2.67
317.865	3.08
318.239	2.1
318.613	2.26
318.987	1.88
319.361	1.88
319.734	1.34
320.108	2.33
320.482	1.95
320.855	2.03
321.229	2.2
321.602	2.36
321.976	2.25
322.349	1.46
322.723	1.4
323.096	3.15
323.469	2.18
323.843	1.99
324.216	2.2
324.589	2.87
324.962	2.41
325.335	2.05
325.708	1.95
326.081	2.45
326.454	2.41
326.827	1.97
327.2	2.17
327.573	2.03
327.945	2.03
328.318	2.14
328.691	2.42
329.063	1.75
329.436	1.35
329.809	2.53
330.181	2.57
330.553	2.45
330.926	2.27
331.298	2.21
331.671	2.44
332.043	1.62
332.415	2.09
332.787	1.75
333.159	2.31
333.532	2.37
333.904	2.36
334.276	2.09
334.648	1.49
335.02	1.95
335.391	1.93
335.763	2.36
336.135	2.34
336.507	2.28
336.879	2.54
337.25	1.94
337.622	2.15
337.993	1.98
338.365	1.81
338.736	2.16
339.108	2.03
339.479	2.45
339.851	1.83
340.222	2.51
340.593	2.31
340.964	1.95
341.336	2.08
341.707	2.25
342.078	2.15
342.449	1.85
342.82	1.87
343.191	2.04
343.562	1.94
343.933	2.19
344.303	2.17
344.674	2.66
345.045	1.91
345.416	2.69
345.786	2.19
346.157	2.69
346.527	2.14
346.898	1.93
347.268	2.07
347.639	1.66
348.009	2.58
348.38	2.52
348.75	2.59
349.12	2.53
349.49	2.57
349.861	1.61
350.231	2.34
350.601	2.39
350.971	2.02
351.341	2.62
351.711	1.95
352.081	2.45
352.45	2.57
352.82	2.3
353.19	2.53
353.56	1.87
353.929	2.08
354.299	2.31
354.669	1.7
355.038	2.49
355.408	2.31
355.777	2.27
356.147	2.13
356.516	2.15
356.885	1.78
357.254	2.36
357.624	2.38
357.993	1.63
358.362	2.34
358.731	2.4
359.1	2.25
359.469	1.88
359.838	2.2
360.207	2.22
360.576	2.11
360.945	2.21
361.314	2.38
361.682	2.16
362.051	2.12
362.42	1.96
362.788	2.17
363.157	2.18
363.525	1.94
363.894	2.25
364.262	2.37
364.631	2.52
364.999	2.01
365.367	2.21
365.735	1.77
366.104	1.93
366.472	2.36
366.84	2.12
367.208	2.13
367.576	2.75
367.944	2.31
368.312	1.96
368.68	1.98
369.048	1.68
369.416	2.24
369.783	2.33
370.151	2.33
370.519	2.21
370.886	2.29
371.254	2.07
371.621	2.4
371.989	2.4
372.356	1.99
372.724	2.26
373.091	1.98
373.458	1.94
373.826	2.2
374.193	2.2
374.56	2.33
374.927	2.78
375.294	2.39
375.661	2.24
376.028	2.19
376.395	2.13
376.762	2.27
377.129	2.48
377.496	2.47
377.863	2.2
378.229	2.55
378.596	2.43
378.963	2.49
379.329	2.11
379.696	2.67
380.062	2.5
380.429	2.25
380.795	2.01
381.161	1.87
381.528	2.47
381.894	1.91
382.26	2.18
382.626	2.15
382.993	2.39
383.359	1.96
383.725	2.09
384.091	2.2
384.457	2.41
384.823	2.48
385.188	2.25
385.554	2.14
385.92	2.33
386.286	2.53
386.651	2.47
387.017	2.11
387.383	2.34
387.748	2.02
388.114	2.61
388.479	2.33
388.845	2.17
389.21	2.29
389.575	2.21
389.94	2.29
390.306	2.43
390.671	2.4
391.036	2.45
391.401	1.99
391.766	2.26
392.131	2.25
392.496	2.21
392.861	2.32
393.226	2.28
393.591	2.1
393.956	2.5
394.32	2.42
394.685	2.25
395.05	2.51
395.414	2.21
395.779	2.07
396.143	2.65
396.508	2.37
396.872	2.38
397.236	2.45
397.601	2.3
397.965	2.36
398.329	1.97
398.694	2.41
399.058	2.29
399.422	2.57
399.786	2.32
400.15	2.3
400.514	2.49
400.878	2.19
401.242	2.3
401.605	2.14
401.969	2.32
402.333	2.27
402.697	2.47
403.06	2.26
403.424	2.37
403.787	2.44
404.151	2.29
404.514	2.5
404.878	2.25
405.241	2.34
405.604	2.4
405.968	2.5
406.331	2.23
406.694	2.32
407.057	2.35
407.42	2.24
407.783	2.32
408.146	2.1
408.509	2.33
408.872	2.29
409.235	2.45
409.598	2.51
409.961	2.16
410.323	2.42
410.686	2.45
411.049	2.22
411.411	2.39
411.774	2.39
412.136	2.53
412.499	2.29
412.861	2.44
413.223	2.07
413.586	2.13
413.948	2.63
414.31	2.39
414.672	2.47
415.035	2.46
415.397	2.3
415.759	2.4
416.121	2.27
416.483	2.19
416.845	2.37
417.206	2.55
417.568	2.52
417.93	2.43
418.292	2.26
418.653	2.16
419.015	2.6
419.377	2.28
419.738	2.39
420.1	2.39
420.461	2.29
420.822	2.39
421.184	2.31
421.545	2.18
421.906	2.11
422.267	2.31
422.629	2.36
422.99	2.27
423.351	2.2
423.712	2.37
424.073	2.35
424.434	2.4
424.795	2.28
425.155	2.18
425.516	2.28
425.877	2.31
426.238	2.34
426.598	2.42
426.959	2.34
427.32	2.43
427.68	2.39
428.041	2.26
428.401	2.4
428.761	2.56
429.122	2.5
429.482	2.5
429.842	2.44
430.202	2.37
430.563	2.54
430.923	2.34
431.283	2.36
431.643	2.49
432.003	2.31
432.363	2.31
432.722	2.57
433.082	2.54
433.442	2.28
433.802	2.48
434.161	2.36
434.521	2.45
434.881	2.38
435.24	2.27
435.6	2.43
435.959	2.37
436.319	2.29
436.678	2.45
437.037	2.44
437.396	2.62
437.756	2.37
438.115	2.36
438.474	2.48
438.833	2.37
439.192	2.49
439.551	2.35
439.91	2.24
440.269	2.25
440.628	2.46
440.987	2.55
441.345	2.55
441.704	2.33
442.063	2.49
442.421	2.45
442.78	2.39
443.138	2.32
443.497	2.4
443.855	2.5
444.214	2.43
444.572	2.49
444.93	2.38
445.288	2.48
445.647	2.37
446.005	2.48
446.363	2.52
446.721	2.4
447.079	2.43
447.437	2.44
447.795	2.38
448.153	2.37
448.51	2.31
448.868	2.39
449.226	2.41
449.584	2.41
449.941	2.44
450.299	2.39
450.656	2.49
451.014	2.67
451.371	2.65
451.729	2.5
452.086	2.55
452.443	2.53
452.801	2.58
453.158	2.23
453.515	2.35
453.872	2.51
454.229	2.45
454.586	2.51
454.943	2.42
455.3	2.31
455.657	2.51
456.014	2.34
456.371	2.48
456.727	2.41
457.084	2.33
457.441	2.44
457.797	2.29
458.154	2.3
458.51	2.48
458.867	2.44
459.223	2.51
459.58	2.66
459.936	2.66
460.292	2.44
460.648	2.43
461.005	2.52
461.361	2.37
461.717	2.4
462.073	2.45
462.429	2.48
462.785	2.53
463.141	2.54
463.496	2.54
463.852	2.41
464.208	2.62
464.564	2.4
464.919	2.58
465.275	2.48
465.631	2.63
465.986	2.44
466.342	2.45
466.697	2.54
467.052	2.68
467.408	2.49
467.763	2.47
468.118	2.52
468.473	2.49
468.829	2.42
469.184	2.53
469.539	2.48
469.894	2.65
470.249	2.6
470.603	2.65
470.958	2.49
471.313	2.5
471.668	2.66
472.023	2.43
472.377	2.48
472.732	2.59
473.086	2.58
473.441	2.66
473.795	2.5
474.15	2.48
474.504	2.58
474.859	2.64
475.213	2.69
475.567	2.62
475.921	2.46
476.275	2.63
476.63	2.71
476.984	2.47
477.338	2.55
477.692	2.66
478.045	2.49
478.399	2.47
478.753	2.66
479.107	2.56
479.461	2.58
479.814	2.47
480.168	2.69
480.521	2.54
480.875	2.55
481.228	2.5
481.582	2.63
481.935	2.56
482.289	2.68
482.642	2.44
482.995	2.42
483.348	2.52
483.701	2.61
484.055	2.47
484.408	2.46
484.761	2.44
485.114	2.35
485.466	2.3
485.819	2.3
486.172	2.38
486.525	2.48
486.878	2.52
487.23	2.47
487.583	2.49
487.936	2.57
488.288	2.53
488.641	2.44
488.993	2.43
489.345	2.4
489.698	2.4
490.05	2.46
490.402	2.49
490.754	2.55
491.107	2.49
491.459	2.54
491.811	2.53
492.163	2.57
492.515	2.53
492.866	2.51
493.218	2.43
493.57	2.43
493.922	2.41
494.274	2.56
494.625	2.56
494.977	2.6
495.328	2.62
495.68	2.46
496.031	2.65
496.383	2.58
496.734	2.55
497.086	2.56
497.437	2.68
497.788	2.6
498.139	2.53
498.49	2.54
498.842	2.56
499.193	2.69
499.544	2.64
499.894	2.65
500.245	2.6
500.596	2.6
500.947	2.66
501.298	2.76
501.648	2.56
501.999	2.65
502.35	2.62
502.7	2.64
503.051	2.62
503.401	2.63
503.752	2.66
504.102	2.74
504.452	2.69
504.803	2.67
505.153	2.73
505.503	2.61
505.853	2.69
506.203	2.47
506.553	2.65
506.903	2.72
507.253	2.63
507.603	2.78
507.953	2.88
508.303	2.74
508.652	2.57
509.002	2.73
509.352	2.87
509.701	2.64
510.051	2.77
510.4	2.71
510.75	2.75
511.099	2.57
511.449	2.66
511.798	2.63
512.147	2.69
512.496	2.69
512.846	2.67
513.195	2.69
513.544	2.74
513.893	2.72
514.242	2.72
514.591	2.81
514.939	2.72
515.288	2.84
515.637	2.64
515.986	2.75
516.334	2.69
516.683	2.59
517.032	2.55
517.38	2.7
517.729	2.83
518.077	2.79
518.426	2.72
518.774	2.75
519.122	2.57
519.47	2.72
519.819	2.72
520.167	2.73
520.515	2.79
520.863	2.75
521.211	2.77
521.559	2.81
521.907	2.79
522.255	2.7
522.602	2.77
522.95	2.84
523.298	2.89
523.645	2.73
523.993	2.84
524.341	2.93
524.688	2.82
525.036	2.77
525.383	2.71
525.73	2.9
526.078	2.87
526.425	2.7
526.772	2.79
527.119	2.66
527.466	2.72
527.814	2.67
528.161	2.7
528.508	2.7
528.854	2.81
529.201	2.72
529.548	2.67
529.895	2.68
530.242	2.64
530.588	2.67
530.935	2.72
531.282	2.78
531.628	2.73
531.975	2.78
532.321	2.74
532.667	2.81
533.014	2.8
533.36	2.84
533.706	2.91
534.052	2.84
534.399	2.77
534.745	2.78
535.091	2.75
535.437	2.81
535.783	2.82
536.129	2.83
536.474	2.86
536.82	2.87
537.166	2.93
537.512	2.9
537.857	3.03
538.203	2.8
538.549	2.85
538.894	2.82
539.239	2.98
539.585	2.9
539.93	2.92
540.276	2.88
540.621	2.95
540.966	3.05
541.311	2.88
541.656	3.02
542.001	2.84
542.346	3.03
542.691	2.88
543.036	2.82
543.381	2.82
543.726	2.9
544.071	2.93
544.415	2.92
544.76	2.95
545.105	2.92
545.449	2.96
545.794	2.95
546.138	3
546.483	3.04
546.827	2.93
547.171	3.08
547.516	3.03
547.86	3.02
548.204	3.07
548.548	2.97
548.892	3.1
549.236	3.11
549.58	3.18
549.924	3.04
550.268	3.26
550.612	3.16
550.956	3.18
551.3	3.17
551.643	3.18
551.987	3.16
552.33	3.25
552.674	3.15
553.017	3.14
553.361	3.15
553.704	3.34
554.048	3.03
554.391	3.31
554.734	3.12
555.077	3.23
555.42	3.19
555.764	3.23
556.107	3.22
556.45	3.16
556.793	3.18
557.135	3.27
557.478	3.3
557.821	3.45
558.164	3.41
558.507	3.4
558.849	3.45
559.192	3.4
559.534	3.38
559.877	3.22
560.219	3.48
560.562	3.44
560.904	3.3
561.246	3.42
561.589	3.3
561.931	3.43
562.273	3.39
562.615	3.57
562.957	3.34
563.299	3.52
563.641	3.24
563.983	3.34
564.325	3.45
564.667	3.57
565.008	3.37
565.35	3.37
565.692	3.54
566.033	3.26
566.375	3.31
566.716	3.36
567.058	3.47
567.399	3.42
567.741	3.45
568.082	3.61
568.423	3.35
568.764	3.5
569.105	3.45
569.447	3.39
569.788	3.66
570.129	3.58
570.47	3.47
570.811	3.44
571.151	3.61
571.492	3.45
571.833	3.48
572.174	3.43
572.514	3.73
572.855	3.49
573.195	3.46
573.536	3.65
573.876	3.7
574.217	3.51
574.557	3.65
574.898	3.71
575.238	3.75
575.578	3.76
575.918	3.62
576.258	3.79
576.598	3.59
576.938	3.66
577.278	3.76
577.618	3.84
577.958	3.6
578.298	3.7
578.638	3.84
578.977	3.81
579.317	3.85
579.657	3.82
579.996	3.73
580.336	3.96
580.675	3.78
581.014	3.8
581.354	3.82
581.693	3.89
582.032	3.9
582.372	3.86
582.711	3.75
583.05	3.94
583.389	3.69
583.728	4.19
584.067	3.96
584.406	3.71
584.745	4.05
585.083	3.84
585.422	3.93
585.761	3.85
586.1	3.83
586.438	4.29
586.777	4.16
587.115	4.15
587.454	4.02
587.792	4.06
588.13	4.12
588.469	4.13
588.807	3.87
589.145	3.99
589.483	4.09
589.821	4.26
590.159	4.19
590.497	4.07
590.835	4.19
591.173	3.91
591.511	4.16
591.849	4.15
592.187	4.24
592.524	4.14
592.862	4.33
593.2	4.06
593.537	4.24
593.875	4.31
594.212	4
594.55	4.4
594.887	4.72
595.224	4.21
595.561	4.31
595.899	4.1
596.236	4.48
596.573	4.3
596.91	4.44
597.247	4.09
597.584	4.27
597.921	4.32
598.258	4.36
598.594	4.25
598.931	4.32
599.268	4.33
599.604	4.32
599.941	4.31
600.277	4.47
600.614	4.51
600.95	4.68
601.287	4.54
601.623	4.58
601.959	4.43
602.296	4.67
602.632	4.46
602.968	4.66
603.304	4.47
603.64	4.6
603.976	4.61
604.312	4.27
604.648	4.72
604.984	5.03
605.319	4.48
605.655	4.54
605.991	4.5
606.326	4.77
606.662	4.74
606.998	4.5
607.333	4.63
607.668	4.65
608.004	4.97
608.339	4.75
608.674	5
609.01	4.83
609.345	4.45
609.68	4.91
610.015	4.88
610.35	4.57
610.685	4.41
611.02	4.52
611.355	4.51
611.689	4.58
612.024	4.82
612.359	4.95
612.694	5.08
613.028	5.17
613.363	4.67
613.697	4.79
614.032	4.93
614.366	4.88
614.7	4.86
615.035	5.13
615.369	5.11
615.703	4.97
616.037	5.02
616.371	4.96
616.705	5.12
617.039	5.3
617.373	5.25
617.707	4.88
618.041	5.22
618.375	5.16
618.709	5.27
619.042	4.94
619.376	5.44
619.71	5.24
620.043	5.4
620.377	5.3
620.71	4.87
621.043	5.37
621.377	4.96
621.71	4.96
622.043	5.06
622.376	4.78
622.709	5.19
623.043	5.67
623.376	5.26
623.709	5.22
624.041	5.29
624.374	5.77
624.707	5.11
625.04	5.49
625.373	5.14
625.705	5.17
626.038	5.43
626.37	5.3
626.703	5.77
627.035	5.27
627.368	5.34
627.7	5.45
628.032	5.41
628.365	5.3
628.697	5.53
629.029	5.34
629.361	5.37
629.693	5.56
630.025	5.63
630.357	5.79
630.689	5.84
631.021	5.69
631.353	5.36
631.684	5.7
632.016	5.81
632.348	5.63
632.679	5.54
633.011	5.72
633.342	5.84
633.674	6.12
634.005	5.81
634.336	5.98
634.668	5.88
634.999	5.94
635.33	6.16
635.661	5.68
635.992	5.75
636.323	5.79
636.654	5.82
636.985	5.85
637.316	6.44
637.647	5.91
637.977	6.28
638.308	5.92
638.639	5.5
638.969	5.95
639.3	6.02
639.63	5.8
639.961	6.53
640.291	6.19
640.622	6.29
640.952	6.28
641.282	5.82
641.612	6.09
641.943	5.89
642.273	6.57
642.603	5.99
642.933	5.96
643.263	6.33
643.592	6.45
643.922	6.15
644.252	6.45
644.582	6.65
644.911	6.69
645.241	6.57
645.571	6.39
645.9	6.24
646.23	6.27
646.559	5.9
646.888	6.56
647.218	6.3
647.547	6.5
647.876	6.51
648.205	6.31
648.534	6.46
648.863	6.77
649.192	6.09
649.521	6.3
649.85	6.86
650.179	6.47
650.508	6.51
650.837	6.61
651.165	6.28
651.494	6.8
651.822	6.71
652.151	6.51
652.479	6.79
652.808	6.83
653.136	6.87
653.465	6.59
653.793	6.81
654.121	6.69
654.449	6.75
654.777	6.22
655.105	6.96
655.433	6.93
655.761	7.26
656.089	7.47
656.417	6.54
656.745	6.88
657.073	6.88
657.4	7.59
657.728	6.93
658.056	6.97
658.383	7.09
658.711	7.42
659.038	6.63
659.365	6.88
659.693	6.36
660.02	6.93
660.347	6.87
660.674	7.14
661.001	7.06
661.329	7.23
661.656	6.85
661.982	7.39
662.309	7.53
662.636	7.05
662.963	7.15
663.29	6.61
663.616	7.26
663.943	7.05
664.27	7.23
664.596	7.19
664.923	7.33
665.249	7.65
665.576	7.05
665.902	7.57
666.228	7.71
666.554	7.57
666.881	7.43
667.207	7.31
667.533	7.43
667.859	7.86
668.185	7.36
668.511	7.52
668.837	7.61
669.162	7.51
669.488	7.67
669.814	7.36
670.139	7
670.465	8.51
670.791	7.27
671.116	7.23
671.442	7.74
671.767	7.88
672.092	7.36
672.418	6.87
672.743	7.42
673.068	8.02
673.393	7.93
673.718	7.51
674.043	7.93
674.368	8.4
674.693	8
675.018	7.25
675.343	7.8
675.667	8.4
675.992	7.4
676.317	8.09
676.641	7.92
676.966	7.55
677.29	6.99
677.615	7.89
677.939	8.29
678.264	7.48
678.588	7.74
678.912	8.06
679.236	8.28
679.56	8.46
679.885	8.26
680.209	7.76
680.532	8.32
680.856	8.17
681.18	8.54
681.504	8.23
681.828	8.11
682.152	8.11
682.475	7.73
682.799	8.23
683.122	8.38
683.446	8.62
683.769	8.43
684.093	8.91
684.416	8.91
684.739	8.79
685.062	8.53
685.386	9.08
685.709	7.69
686.032	8.19
686.355	8.1
686.678	8.21
687.001	8.76
687.324	8.15
687.646	8.28
687.969	8.28
688.292	8.89
688.614	8.49
688.937	8.84
689.26	7.86
689.582	8.01
689.904	8.7
690.227	8.18
690.549	7.93
690.871	8.69
691.194	7.87
691.516	8.8
691.838	8.57
692.16	9.03
692.482	8.54
