Data from 1844-1_crown_Reflection__1__112.txt Node

Date: Fri Sep 30 18:40:31 CDT 2022
User: ToomeyLab
Spectrometer: FLMS14357
Trigger mode: 0
Integration Time (sec): 1.000000E-2
Scans to average: 100
Electric dark correction enabled: true
Nonlinearity correction enabled: false
Boxcar width: 0
XAxis mode: Wavelengths
Number of Pixels in Spectrum: 2048
>>>>>Begin Spectral Data<<<<<
189.047	24.96
189.435	24.96
189.823	24.96
190.211	34.81
190.599	728.51
190.987	178.49
191.375	101.57
191.763	-233.88
192.151	-11.03
192.538	27.73
192.926	133.32
193.314	194.4
193.702	15.3
194.089	84.62
194.477	-236.79
194.864	-149.96
195.252	-87.38
195.639	3.25
196.027	819.12
196.414	45.64
196.801	187.8
197.189	57.26
197.576	-258.12
197.963	253.93
198.351	-7.29
198.738	-63.32
199.125	36.52
199.512	-17.26
199.899	9.34
200.286	5.39
200.673	31.16
201.06	50.4
201.447	27.34
201.833	47.17
202.22	22.77
202.607	22.94
202.994	43.3
203.38	27.8
203.767	-3.12
204.154	19.2
204.54	35.23
204.927	33.56
205.313	-31.66
205.699	28.24
206.086	-105.39
206.472	20.96
206.858	44.32
207.245	10.45
207.631	-21.82
208.017	-25.44
208.403	24.79
208.789	-18.38
209.175	31.43
209.561	-5.29
209.947	-13.04
210.333	-31.5
210.719	-25.63
211.105	-6.58
211.491	-14.09
211.876	14.48
212.262	0.28
212.648	16.27
213.034	-13.37
213.419	14.56
213.805	13.29
214.19	-27.67
214.576	-4.1
214.961	-5.33
215.346	2.15
215.732	-8.61
216.117	2.2
216.502	16.82
216.888	31.23
217.273	2.67
217.658	3.13
218.043	-15.43
218.428	13.82
218.813	-0.67
219.198	-0.03
219.583	21.25
219.968	19.93
220.353	11.94
220.738	21.81
221.122	23.13
221.507	10.02
221.892	-17.64
222.276	-4.17
222.661	21.12
223.046	9.66
223.43	-10.47
223.815	-1.59
224.199	6.69
224.583	-1.94
224.968	1.18
225.352	-0.07
225.736	1.17
226.121	1.64
226.505	-0.39
226.889	6.11
227.273	0.6
227.657	4.92
228.041	4.29
228.425	6.33
228.809	2.32
229.193	6.4
229.577	1.36
229.961	3.31
230.344	1.89
230.728	3.4
231.112	3.5
231.495	3.47
231.879	5.32
232.263	1.13
232.646	1.64
233.03	4.54
233.413	2.66
233.797	4.89
234.18	4.39
234.563	2.84
234.946	3.03
235.33	3.57
235.713	5.61
236.096	3.93
236.479	3.13
236.862	3.57
237.245	4.29
237.628	3.17
238.011	4.98
238.394	4.1
238.777	2.07
239.16	2.28
239.543	3.24
239.925	2.07
240.308	3.45
240.691	4.05
241.073	3.79
241.456	3.49
241.838	2.59
242.221	3.43
242.603	3.55
242.986	4.01
243.368	1.94
243.75	3.17
244.133	3.48
244.515	3.4
244.897	3.49
245.279	3.26
245.661	3.62
246.043	1.94
246.425	2.97
246.807	2.87
247.189	3.39
247.571	3.78
247.953	3.34
248.335	3.01
248.717	3.15
249.098	3.5
249.48	3.01
249.862	3.26
250.243	2.67
250.625	3.21
251.006	3.41
251.388	1.96
251.769	3.67
252.151	3.03
252.532	3.33
252.913	2.51
253.295	3.75
253.676	2.87
254.057	3.26
254.438	3.36
254.819	3.1
255.2	2.54
255.581	2.97
255.962	2.76
256.343	3.15
256.724	3.2
257.105	4.31
257.486	2.31
257.867	4.17
258.247	2.41
258.628	3.4
259.009	4
259.389	2.51
259.77	3.33
260.15	3.01
260.531	3.1
260.911	2.98
261.292	2.77
261.672	2.98
262.052	3
262.432	3
262.813	3.86
263.193	2.87
263.573	3.2
263.953	2.89
264.333	3.4
264.713	2.14
265.093	2.36
265.473	2.65
265.853	2.72
266.233	2.5
266.612	3.01
266.992	1.77
267.372	2.15
267.752	2.07
268.131	2.71
268.511	2.82
268.89	1.92
269.27	2.89
269.649	2.45
270.029	3.2
270.408	2.58
270.787	2.93
271.167	2.53
271.546	2.96
271.925	3.66
272.304	2.73
272.683	2.36
273.062	2.81
273.441	2.63
273.82	2.22
274.199	2.58
274.578	2.59
274.957	3.07
275.336	2.76
275.715	3.08
276.093	3.2
276.472	2.42
276.851	2.57
277.229	2.65
277.608	2.63
277.986	2.47
278.365	2.89
278.743	2.45
279.122	2.92
279.5	2.96
279.878	2.46
280.257	2.57
280.635	3.1
281.013	3.22
281.391	2.27
281.769	2.68
282.147	2.05
282.525	2.68
282.903	2.78
283.281	2.66
283.659	2.52
284.037	2.56
284.415	3.08
284.792	2.79
285.17	2.13
285.548	2.81
285.925	2.69
286.303	2.32
286.68	2.08
287.058	2.6
287.435	2.44
287.813	2.38
288.19	2.46
288.567	2.55
288.945	2.13
289.322	1.88
289.699	2.3
290.076	2.6
290.453	2.82
290.83	1.95
291.207	2.2
291.584	2.49
291.961	2.33
292.338	2.76
292.715	2.89
293.092	2.05
293.469	2.49
293.845	3.21
294.222	2.53
294.599	3.17
294.975	2.79
295.352	2.82
295.728	2.52
296.105	2.29
296.481	3.01
296.858	3.22
297.234	2.58
297.61	2.33
297.986	1.91
298.363	2.64
298.739	2.52
299.115	2.73
299.491	2.44
299.867	2.51
300.243	2.25
300.619	2.68
300.995	2.78
301.371	2.52
301.746	2.19
302.122	2.78
302.498	2.28
302.874	2.9
303.249	2.45
303.625	2.36
304	3.04
304.376	2.92
304.751	3.24
305.127	2.71
305.502	2.39
305.878	2.75
306.253	2.83
306.628	2.79
307.003	2.33
307.378	2.77
307.754	2.45
308.129	2.68
308.504	2.26
308.879	2.8
309.254	1.81
309.629	2.11
310.003	2.26
310.378	2.42
310.753	2.51
311.128	2.6
311.502	2.76
311.877	2.43
312.252	2.66
312.626	2.93
313.001	2.55
313.375	2.2
313.75	2.61
314.124	2.59
314.498	2.5
314.873	2.65
315.247	2.35
315.621	2.59
315.995	2.39
316.369	1.92
316.743	3.12
317.117	3.16
317.491	3.16
317.865	2.97
318.239	3.12
318.613	3.25
318.987	2.55
319.361	2.39
319.734	2.2
320.108	2.35
320.482	2.33
320.855	2.92
321.229	2.89
321.602	2.74
321.976	2.97
322.349	2.61
322.723	2.61
323.096	2.79
323.469	2.56
323.843	1.97
324.216	2.61
324.589	3.22
324.962	3.01
325.335	2.23
325.708	2.69
326.081	2.83
326.454	2.69
326.827	2.49
327.2	2.86
327.573	2.36
327.945	2.61
328.318	2.54
328.691	2.85
329.063	2.86
329.436	2.43
329.809	2.72
330.181	2.7
330.553	2.57
330.926	2.68
331.298	2.31
331.671	2.83
332.043	2.85
332.415	2.81
332.787	2.48
333.159	2.21
333.532	2.94
333.904	2.5
334.276	2.91
334.648	2.22
335.02	3.03
335.391	2.86
335.763	2.51
336.135	2.74
336.507	2.66
336.879	3.18
337.25	2.04
337.622	2.62
337.993	2.43
338.365	2.6
338.736	2.67
339.108	2.85
339.479	3.38
339.851	2.97
340.222	2.8
340.593	2.54
340.964	2.48
341.336	2.49
341.707	2.31
342.078	2.84
342.449	2.55
342.82	2.36
343.191	2.61
343.562	2.82
343.933	2.93
344.303	2.51
344.674	2.25
345.045	2.39
345.416	2.8
345.786	2.85
346.157	3.14
346.527	2.52
346.898	2.23
347.268	2.45
347.639	2.51
348.009	2.76
348.38	3.07
348.75	3.28
349.12	2.99
349.49	3.21
349.861	2.48
350.231	2.38
350.601	2.82
350.971	2.73
351.341	2.46
351.711	2.64
352.081	2.95
352.45	2.89
352.82	3.18
353.19	3.44
353.56	2.8
353.929	2.6
354.299	3.09
354.669	3.05
355.038	3.13
355.408	3.24
355.777	2.91
356.147	2.57
356.516	2.89
356.885	2.65
357.254	2.88
357.624	2.6
357.993	2.15
358.362	3.09
358.731	2.75
359.1	2.62
359.469	2.35
359.838	3.11
360.207	3.19
360.576	2.83
360.945	2.9
361.314	2.85
361.682	2.63
362.051	2.47
362.42	2.91
362.788	2.93
363.157	2.81
363.525	2.6
363.894	2.74
364.262	3.17
364.631	3.13
364.999	2.73
365.367	2.87
365.735	2.79
366.104	2.67
366.472	3.19
366.84	3.03
367.208	3.07
367.576	3.48
367.944	2.71
368.312	2.52
368.68	2.75
369.048	2.47
369.416	2.9
369.783	2.87
370.151	2.68
370.519	2.72
370.886	3.19
371.254	2.72
371.621	3.14
371.989	2.79
372.356	2.71
372.724	2.87
373.091	2.39
373.458	2.65
373.826	3.18
374.193	2.93
374.56	3.15
374.927	3.33
375.294	3.36
375.661	2.86
376.028	2.57
376.395	3.06
376.762	2.65
377.129	3.32
377.496	3.01
377.863	2.53
378.229	3.32
378.596	2.98
378.963	3.15
379.329	2.6
379.696	3.18
380.062	3.04
380.429	3.14
380.795	2.65
381.161	2.79
381.528	3.1
381.894	2.69
382.26	2.82
382.626	2.84
382.993	3
383.359	2.91
383.725	2.63
384.091	2.65
384.457	3.32
384.823	3.27
385.188	3.02
385.554	2.93
385.92	3.04
386.286	3.18
386.651	3.02
387.017	2.94
387.383	2.65
387.748	2.73
388.114	2.98
388.479	2.91
388.845	2.77
389.21	2.71
389.575	3.09
389.94	2.92
390.306	2.96
390.671	2.9
391.036	2.96
391.401	2.7
391.766	2.94
392.131	2.96
392.496	3.3
392.861	3.3
393.226	2.68
393.591	3.03
393.956	3.21
394.32	3.11
394.685	2.86
395.05	3.16
395.414	2.83
395.779	2.98
396.143	3.19
396.508	2.82
396.872	3.23
397.236	3.11
397.601	3.09
397.965	3.11
398.329	2.93
398.694	3.09
399.058	3.2
399.422	3.15
399.786	2.89
400.15	2.94
400.514	2.93
400.878	2.92
401.242	2.89
401.605	2.93
401.969	2.85
402.333	3.18
402.697	3.07
403.06	2.94
403.424	3
403.787	3.14
404.151	3.11
404.514	3
404.878	2.9
405.241	3.14
405.604	3.25
405.968	3.03
406.331	2.96
406.694	3.12
407.057	2.99
407.42	3.15
407.783	2.96
408.146	2.84
408.509	3.05
408.872	3.17
409.235	2.97
409.598	3.08
409.961	2.92
410.323	3.27
410.686	3.33
411.049	2.81
411.411	3.12
411.774	3.22
412.136	3.09
412.499	2.99
412.861	2.8
413.223	2.79
413.586	2.96
413.948	3.35
414.31	3.08
414.672	3.08
415.035	3.28
415.397	3.13
415.759	3.17
416.121	3.15
416.483	3.07
416.845	3.2
417.206	3.01
417.568	3.1
417.93	2.97
418.292	2.96
418.653	2.91
419.015	3.09
419.377	3.11
419.738	2.94
420.1	3.05
420.461	3.06
420.822	2.97
421.184	2.93
421.545	2.91
421.906	2.67
422.267	2.93
422.629	2.97
422.99	3.04
423.351	2.93
423.712	2.97
424.073	3.04
424.434	3.01
424.795	2.87
425.155	2.93
425.516	2.99
425.877	3.03
426.238	2.95
426.598	2.93
426.959	2.97
427.32	3.08
427.68	3.09
428.041	3.01
428.401	3.12
428.761	3.15
429.122	3.13
429.482	3.03
429.842	3.04
430.202	2.97
430.563	2.85
430.923	2.94
431.283	2.81
431.643	3.16
432.003	3.04
432.363	2.96
432.722	3
433.082	3.03
433.442	3.17
433.802	3.02
434.161	3.04
434.521	3.02
434.881	2.94
435.24	3.05
435.6	3.2
435.959	2.99
436.319	3.03
436.678	3.1
437.037	3.13
437.396	3.16
437.756	3.09
438.115	3.01
438.474	3.04
438.833	3.02
439.192	3.02
439.551	3.1
439.91	2.93
440.269	2.87
440.628	3.01
440.987	2.99
441.345	3.05
441.704	3.09
442.063	3.06
442.421	3.04
442.78	3.05
443.138	2.91
443.497	3.07
443.855	3.18
444.214	2.98
444.572	3.2
444.93	3.04
445.288	2.98
445.647	3
446.005	2.98
446.363	3.01
446.721	3.03
447.079	2.88
447.437	3.04
447.795	2.91
448.153	2.96
448.51	3.04
448.868	2.98
449.226	3.02
449.584	3.04
449.941	3
450.299	3.01
450.656	3.1
451.014	3.11
451.371	3.12
451.729	3.16
452.086	3.01
452.443	3.1
452.801	3.12
453.158	2.99
453.515	2.98
453.872	3.11
454.229	2.95
454.586	3.17
454.943	3.12
455.3	3.03
455.657	3.13
456.014	3.04
456.371	3.01
456.727	3.05
457.084	2.88
457.441	3.09
457.797	3.12
458.154	2.92
458.51	2.94
458.867	3
459.223	2.81
459.58	3.19
459.936	3.19
460.292	3.1
460.648	2.95
461.005	3.09
461.361	3.03
461.717	2.99
462.073	3.05
462.429	3.07
462.785	3.18
463.141	3.16
463.496	3.07
463.852	3.13
464.208	3.22
464.564	3
464.919	3.12
465.275	3.14
465.631	3.16
465.986	2.96
466.342	2.96
466.697	3
467.052	3.14
467.408	2.99
467.763	2.96
468.118	3.18
468.473	3.12
468.829	2.94
469.184	3.15
469.539	3.06
469.894	3.14
470.249	3.19
470.603	3.14
470.958	3.05
471.313	2.99
471.668	3.11
472.023	3.06
472.377	3.19
472.732	2.99
473.086	3.04
473.441	3.13
473.795	2.99
474.15	2.91
474.504	3.03
474.859	3.11
475.213	3.07
475.567	3.09
475.921	3.04
476.275	2.92
476.63	2.99
476.984	3.07
477.338	2.99
477.692	3.13
478.045	3.03
478.399	3.04
478.753	3.22
479.107	2.94
479.461	3.07
479.814	2.82
480.168	3.14
480.521	3.03
480.875	3.1
481.228	3.02
481.582	3.18
481.935	3.04
482.289	3.11
482.642	3.01
482.995	2.94
483.348	2.9
483.701	3.09
484.055	2.95
484.408	2.83
484.761	2.85
485.114	2.74
485.466	2.73
485.819	2.76
486.172	2.89
486.525	3.06
486.878	3.06
487.23	3.04
487.583	2.98
487.936	3.02
488.288	2.98
488.641	2.85
488.993	2.86
489.345	2.85
489.698	2.89
490.05	2.91
490.402	3.01
490.754	3.03
491.107	3.07
491.459	3.07
491.811	2.98
492.163	3.11
492.515	3
492.866	2.9
493.218	2.76
493.57	2.9
493.922	2.97
494.274	3
494.625	3.13
494.977	3.17
495.328	3.09
495.68	3
496.031	3.13
496.383	3.12
496.734	3.04
497.086	3.12
497.437	3.05
497.788	3.03
498.139	2.93
498.49	2.93
498.842	2.98
499.193	3.09
499.544	3.04
499.894	3.03
500.245	3.03
500.596	3.02
500.947	3
501.298	3.27
501.648	3.02
501.999	3.12
502.35	3.05
502.7	3.13
503.051	3.09
503.401	3.13
503.752	3.06
504.102	3.14
504.452	3.06
504.803	3.12
505.153	3.22
505.503	3.02
505.853	3.04
506.203	2.91
506.553	3.12
506.903	3.11
507.253	3.12
507.603	3.23
507.953	3.28
508.303	3.21
508.652	3
509.002	3.05
509.352	3.21
509.701	2.93
510.051	3.13
510.4	2.97
510.75	3.14
511.099	2.94
511.449	3.04
511.798	2.89
512.147	3.18
512.496	3.09
512.846	3.08
513.195	3.09
513.544	3.11
513.893	3.02
514.242	3.05
514.591	3.05
514.939	3.13
515.288	3.13
515.637	2.98
515.986	3.1
516.334	3.1
516.683	2.98
517.032	2.96
517.38	3.06
517.729	3.12
518.077	3.08
518.426	3.06
518.774	3.14
519.122	2.97
519.47	3.02
519.819	3.04
520.167	3.07
520.515	2.94
520.863	3.04
521.211	3.15
521.559	3.11
521.907	3.13
522.255	3.05
522.602	3.1
522.95	3.09
523.298	3.11
523.645	3.02
523.993	3.11
524.341	3.13
524.688	3.14
525.036	2.98
525.383	2.92
525.73	3.11
526.078	3.07
526.425	2.92
526.772	2.97
527.119	2.89
527.466	2.9
527.814	2.99
528.161	2.97
528.508	2.94
528.854	2.92
529.201	2.88
529.548	2.91
529.895	2.79
530.242	2.77
530.588	2.83
530.935	2.87
531.282	2.99
531.628	3.02
531.975	2.99
532.321	3.02
532.667	3.07
533.014	3
533.36	2.98
533.706	3.01
534.052	3.04
534.399	2.96
534.745	2.83
535.091	2.86
535.437	2.99
535.783	2.97
536.129	3.06
536.474	3.02
536.82	3.01
537.166	3.05
537.512	3
537.857	3.09
538.203	2.93
538.549	2.86
538.894	2.95
539.239	3.15
539.585	3.15
539.93	3.08
540.276	3.11
540.621	3.24
540.966	3.1
541.311	2.98
541.656	2.92
542.001	2.97
542.346	2.98
542.691	2.75
543.036	2.8
543.381	2.87
543.726	2.92
544.071	3.01
544.415	3.02
544.76	3.03
545.105	2.96
545.449	3.01
545.794	2.98
546.138	3.02
546.483	3.08
546.827	2.97
547.171	3.05
547.516	2.95
547.86	2.97
548.204	3.07
548.548	2.86
548.892	2.96
549.236	3.07
549.58	3.11
549.924	3.05
550.268	3.3
550.612	3.14
550.956	3.31
551.3	3.04
551.643	3.13
551.987	3.1
552.33	2.96
552.674	3.05
553.017	3.02
553.361	3.04
553.704	3.07
554.048	2.99
554.391	3.11
554.734	2.96
555.077	3
555.42	3.01
555.764	3.19
556.107	3.25
556.45	3.12
556.793	3.03
557.135	3.36
557.478	2.97
557.821	2.94
558.164	3.25
558.507	3.26
558.849	2.95
559.192	3.15
559.534	2.99
559.877	3.27
560.219	3.07
560.562	3.1
560.904	3.16
561.246	3.1
561.589	2.94
561.931	3.11
562.273	3
562.615	3.17
562.957	2.96
563.299	3.01
563.641	2.98
563.983	2.99
564.325	3.11
564.667	3.22
565.008	3.1
565.35	3.09
565.692	3.21
566.033	3.05
566.375	2.86
566.716	3.09
567.058	3.07
567.399	3.03
567.741	3.09
568.082	3.04
568.423	3.19
568.764	3.1
569.105	3.01
569.447	3.04
569.788	3.2
570.129	3.03
570.47	3.18
570.811	2.84
571.151	2.92
571.492	3.15
571.833	3.05
572.174	2.97
572.514	3.1
572.855	3.01
573.195	2.97
573.536	3.08
573.876	3
574.217	3.08
574.557	3.07
574.898	3.09
575.238	3.19
575.578	3.11
575.918	2.95
576.258	3.15
576.598	3.03
576.938	3.02
577.278	3.1
577.618	3.01
577.958	3.01
578.298	3.16
578.638	3.23
578.977	3.09
579.317	3.1
579.657	3.07
579.996	3.06
580.336	3.27
580.675	3.09
581.014	3.12
581.354	3.13
581.693	3.15
582.032	2.96
582.372	2.96
582.711	3.02
583.05	3.11
583.389	3.03
583.728	3.01
584.067	3.2
584.406	3
584.745	3.04
585.083	2.9
585.422	2.98
585.761	2.97
586.1	3.08
586.438	3.24
586.777	3.25
587.115	3.35
587.454	3.19
587.792	3.1
588.13	3.15
588.469	2.95
588.807	2.99
589.145	2.95
589.483	3.47
589.821	3.21
590.159	3.38
590.497	3.02
590.835	3.21
591.173	3.04
591.511	2.99
591.849	3.07
592.187	3.17
592.524	3.05
592.862	3.19
593.2	3.27
593.537	3.02
593.875	3.18
594.212	3.06
594.55	3.28
594.887	3.31
595.224	3.1
595.561	2.9
595.899	2.94
596.236	3.08
596.573	2.91
596.91	3.03
597.247	2.76
597.584	3.13
597.921	2.89
598.258	2.92
598.594	3.06
598.931	2.94
599.268	2.93
599.604	2.94
599.941	2.96
600.277	3.17
600.614	3.19
600.95	3.29
601.287	3.05
601.623	3.13
601.959	3.09
602.296	2.92
602.632	3.03
602.968	3.2
603.304	3.12
603.64	2.97
603.976	2.88
604.312	3.03
604.648	3.15
604.984	3.21
605.319	3.26
605.655	2.93
605.991	3.06
606.326	3.03
606.662	3.14
606.998	3.04
607.333	3.09
607.668	3.08
608.004	3.29
608.339	3.14
608.674	3.17
609.01	2.91
609.345	3.01
609.68	3.2
610.015	3.33
610.35	3.06
610.685	2.96
611.02	3.03
611.355	2.87
611.689	2.7
612.024	3.02
612.359	3.12
612.694	3.1
613.028	3.21
613.363	3.01
613.697	2.99
614.032	3.01
614.366	3.11
614.7	2.99
615.035	3.31
615.369	2.9
615.703	3.27
616.037	2.99
616.371	3.14
616.705	2.86
617.039	3.39
617.373	3.17
617.707	2.93
618.041	3.09
618.375	3.1
618.709	3.2
619.042	3.06
619.376	3.12
619.71	3.41
620.043	3.18
620.377	3.49
620.71	3.14
621.043	3.32
621.377	3.17
621.71	2.8
622.043	2.93
622.376	2.84
622.709	2.86
623.043	2.92
623.376	3.03
623.709	3.07
624.041	3.4
624.374	3.11
624.707	2.85
625.04	3.09
625.373	3.26
625.705	2.8
626.038	2.93
626.37	3.05
626.703	3.13
627.035	2.86
627.368	3.2
627.7	3.29
628.032	2.96
628.365	3
628.697	3.14
629.029	2.9
629.361	3.16
629.693	3.35
630.025	3.25
630.357	3.02
630.689	3.23
631.021	3
631.353	2.95
631.684	3.3
632.016	3.46
632.348	3
632.679	3.2
633.011	3.09
633.342	2.88
633.674	3.65
634.005	3.24
634.336	3.14
634.668	3.25
634.999	2.97
635.33	3.55
635.661	3.07
635.992	2.95
636.323	3.36
636.654	2.87
636.985	3.07
637.316	3.05
637.647	2.93
637.977	3.27
638.308	2.77
638.639	2.81
638.969	3.05
639.3	3.04
639.63	2.94
639.961	3.09
640.291	2.81
640.622	3.27
640.952	3.16
641.282	2.93
641.612	3.05
641.943	2.93
642.273	3.23
642.603	3.13
642.933	3.06
643.263	3.23
643.592	3.11
643.922	2.77
644.252	3.28
644.582	3.64
644.911	3.38
645.241	3.19
645.571	2.95
645.9	2.93
646.23	3.05
646.559	3.02
646.888	3.11
647.218	2.75
647.547	2.81
647.876	3.07
648.205	2.95
648.534	2.96
648.863	3.47
649.192	2.93
649.521	3.03
649.85	3.24
650.179	3.52
650.508	2.52
650.837	3.46
651.165	3.19
651.494	3.5
651.822	4.03
652.151	3.18
652.479	3.58
652.808	3.52
653.136	3.17
653.465	3.05
653.793	3.03
654.121	2.92
654.449	3.4
654.777	2.62
655.105	2.94
655.433	3.5
655.761	3.46
656.089	3.41
656.417	2.87
656.745	2.8
657.073	3.16
657.4	3.36
657.728	3.05
658.056	2.61
658.383	3.31
658.711	3.56
659.038	3.07
659.365	3.17
659.693	2.87
660.02	3.46
660.347	2.9
660.674	3.35
661.001	3.04
661.329	3.33
661.656	3.18
661.982	3.41
662.309	3.55
662.636	3.39
662.963	3.16
663.29	3.32
663.616	2.93
663.943	3.41
664.27	3.07
664.596	2.98
664.923	3.25
665.249	3.19
665.576	3.17
665.902	3.43
666.228	3.76
666.554	3.32
666.881	3.85
667.207	2.8
667.533	3.05
667.859	3.63
668.185	3.52
668.511	3.05
668.837	3.2
669.162	3.29
669.488	2.98
669.814	3.12
670.139	3.02
670.465	3.6
670.791	3.56
671.116	2.86
671.442	3.06
671.767	3.33
672.092	2.9
672.418	2.99
672.743	3.26
673.068	3.85
673.393	3.71
673.718	2.98
674.043	3.65
674.368	3.66
674.693	3.33
675.018	2.79
675.343	3.35
675.667	3.97
675.992	3.34
676.317	3.48
676.641	2.88
676.966	2.79
677.29	2.91
677.615	2.88
677.939	3.26
678.264	3.06
678.588	3.36
678.912	2.95
679.236	2.93
679.56	3.12
679.885	3.11
680.209	3.02
680.532	3.24
680.856	3.78
681.18	3.14
681.504	3.38
681.828	3.34
682.152	2.9
682.475	3.22
682.799	3.14
683.122	3.13
683.446	3.38
683.769	3.99
684.093	3.96
684.416	3.79
684.739	3.55
685.062	4
685.386	3.43
685.709	3.16
686.032	3.05
686.355	3.54
686.678	2.87
687.001	3.78
687.324	3.41
687.646	3.25
687.969	3.36
688.292	3.48
688.614	3.22
688.937	3.43
689.26	3.03
689.582	3.92
689.904	3.62
690.227	3.43
690.549	2.6
690.871	3.7
691.194	3.78
691.516	3.46
691.838	3.17
692.16	4.01
692.482	3.36
692.804	4.08
693.126	3.16
693.448	3.39
