Data from 1844-1_chest_Reflection__3__109.txt Node

Date: Fri Sep 30 18:38:44 CDT 2022
User: ToomeyLab
Spectrometer: FLMS14357
Trigger mode: 0
Integration Time (sec): 1.000000E-2
Scans to average: 100
Electric dark correction enabled: true
Nonlinearity correction enabled: false
Boxcar width: 0
XAxis mode: Wavelengths
Number of Pixels in Spectrum: 2048
>>>>>Begin Spectral Data<<<<<
189.047	61.31
189.435	61.31
189.823	61.31
190.211	134.24
190.599	-596.44
190.987	45.61
191.375	39.8
191.763	453.61
192.151	6.8
192.538	30.95
192.926	38.47
193.314	86.77
193.702	149.15
194.089	61.46
194.477	-1221.76
194.864	152.71
195.252	45.57
195.639	65.95
196.027	-47.72
196.414	108.51
196.801	124.84
197.189	-57.85
197.576	-130.33
197.963	-296.88
198.351	-2.45
198.738	-10.27
199.125	52.24
199.512	15.52
199.899	56.54
200.286	26.17
200.673	47.06
201.06	34.77
201.447	3.11
201.833	38.35
202.22	30.57
202.607	33.45
202.994	82.29
203.38	43.6
203.767	-6.87
204.154	57.69
204.54	26.53
204.927	31.08
205.313	8.2
205.699	46.12
206.086	-52.96
206.472	31.96
206.858	54.91
207.245	55.03
207.631	-2.67
208.017	5.95
208.403	49.51
208.789	27.49
209.175	26
209.561	1.38
209.947	-0.4
210.333	-3.48
210.719	22.93
211.105	1.74
211.491	15.07
211.876	39.28
212.262	20.82
212.648	45.86
213.034	-9.83
213.419	37.91
213.805	-6.07
214.19	33.7
214.576	35.16
214.961	14.85
215.346	2.7
215.732	13.77
216.117	-2.57
216.502	29.03
216.888	24.86
217.273	14.53
217.658	22.41
218.043	-1.48
218.428	12.14
218.813	31.69
219.198	-7.13
219.583	13.44
219.968	20.21
220.353	31.58
220.738	34.72
221.122	10.23
221.507	23.22
221.892	18.83
222.276	11.06
222.661	20.41
223.046	11.53
223.43	-0.55
223.815	10.37
224.199	11.78
224.583	8.59
224.968	-0.58
225.352	5.9
225.736	8.31
226.121	5.59
226.505	4
226.889	2.96
227.273	-0.27
227.657	4.28
228.041	4.91
228.425	7.83
228.809	7.59
229.193	5.73
229.577	3.89
229.961	5.86
230.344	5.7
230.728	5.4
231.112	6.1
231.495	6.01
231.879	7.63
232.263	7.03
232.646	5.65
233.03	6.68
233.413	5.21
233.797	4.62
234.18	3.49
234.563	6.71
234.946	5.52
235.33	3.11
235.713	7.45
236.096	6.73
236.479	6.62
236.862	4.97
237.245	5.82
237.628	4.4
238.011	5.8
238.394	6.46
238.777	3.23
239.16	5.08
239.543	6.05
239.925	8.18
240.308	4.3
240.691	5.99
241.073	5.18
241.456	4.69
241.838	6.12
242.221	6.02
242.603	5.97
242.986	6.34
243.368	4.49
243.75	5.14
244.133	5.65
244.515	5.27
244.897	5.27
245.279	5.94
245.661	5.65
246.043	5.27
246.425	5.59
246.807	5.82
247.189	5.78
247.571	5.44
247.953	5.59
248.335	4.83
248.717	5.09
249.098	5.06
249.48	4.92
249.862	5.09
250.243	5.03
250.625	4.91
251.006	5.44
251.388	4.55
251.769	4.87
252.151	4.9
252.532	4.7
252.913	5.21
253.295	5.24
253.676	4.17
254.057	4.97
254.438	5
254.819	5.66
255.2	5.38
255.581	6.05
255.962	4.47
256.343	5.88
256.724	4.92
257.105	4.97
257.486	4.84
257.867	5.77
258.247	4.4
258.628	5.89
259.009	5.47
259.389	4.74
259.77	5.87
260.15	5.02
260.531	5.2
260.911	4.92
261.292	4.53
261.672	4.42
262.052	4.45
262.432	4.18
262.813	5
263.193	4.98
263.573	5.03
263.953	4.8
264.333	4.92
264.713	4.3
265.093	4.44
265.473	4.9
265.853	4.5
266.233	4.95
266.612	4.95
266.992	3.57
267.372	4.01
267.752	4.71
268.131	4.44
268.511	4.18
268.89	4.47
269.27	5.03
269.649	4.7
270.029	5.56
270.408	4.46
270.787	4.11
271.167	4.57
271.546	4.13
271.925	4.64
272.304	4.81
272.683	4.04
273.062	4.3
273.441	4.37
273.82	4.08
274.199	4.37
274.578	4.56
274.957	4.56
275.336	4.15
275.715	4.87
276.093	4.25
276.472	4.4
276.851	4.6
277.229	4.49
277.608	4.78
277.986	4.13
278.365	4.83
278.743	4.28
279.122	4.59
279.5	4.58
279.878	4.47
280.257	4.84
280.635	4.45
281.013	5.11
281.391	4.51
281.769	4.6
282.147	4.29
282.525	4.44
282.903	4.05
283.281	4.15
283.659	4.82
284.037	4.2
284.415	4.75
284.792	4.47
285.17	3.75
285.548	4.61
285.925	4.59
286.303	4.25
286.68	4.24
287.058	4.3
287.435	4.15
287.813	4.43
288.19	4.51
288.567	4.22
288.945	3.64
289.322	3.81
289.699	4.32
290.076	4.29
290.453	4.58
290.83	4.53
291.207	4.15
291.584	4.06
291.961	4.44
292.338	4.23
292.715	4.9
293.092	4.06
293.469	4.62
293.845	4.74
294.222	4.07
294.599	4.4
294.975	4.73
295.352	4.69
295.728	4.71
296.105	4.31
296.481	4.53
296.858	4.64
297.234	4.57
297.61	4.43
297.986	3.98
298.363	4.33
298.739	4.35
299.115	4.18
299.491	4.66
299.867	4.21
300.243	4.09
300.619	4.16
300.995	4.85
301.371	4.61
301.746	4.54
302.122	4.52
302.498	4.47
302.874	4.7
303.249	4.23
303.625	4.22
304	4.5
304.376	4.53
304.751	4.16
305.127	4.3
305.502	4.1
305.878	4.35
306.253	4.28
306.628	4.15
307.003	4.04
307.378	4.34
307.754	4.17
308.129	4.22
308.504	4.35
308.879	4.55
309.254	3.92
309.629	4.48
310.003	4.26
310.378	4.45
310.753	3.98
311.128	4.6
311.502	4.37
311.877	4.37
312.252	4.55
312.626	4.61
313.001	4.39
313.375	3.93
313.75	4.82
314.124	4.04
314.498	3.86
314.873	4.12
315.247	3.99
315.621	3.99
315.995	4.31
316.369	3.92
316.743	4.3
317.117	4.8
317.491	5.09
317.865	4.88
318.239	4.52
318.613	3.87
318.987	4.29
319.361	3.88
319.734	3.72
320.108	4.42
320.482	4.22
320.855	4.82
321.229	4.25
321.602	4.28
321.976	4.31
322.349	4.51
322.723	4.19
323.096	4.45
323.469	4.71
323.843	4.19
324.216	4.12
324.589	4.37
324.962	4.31
325.335	4.11
325.708	4.25
326.081	4.35
326.454	4.3
326.827	4.01
327.2	4.22
327.573	4.13
327.945	4.36
328.318	4.53
328.691	4.66
329.063	4.37
329.436	4.24
329.809	4.67
330.181	4.6
330.553	4.45
330.926	4.41
331.298	3.98
331.671	4.76
332.043	4.82
332.415	3.77
332.787	4.06
333.159	3.95
333.532	4.56
333.904	4.27
334.276	4.59
334.648	4.03
335.02	4.39
335.391	4.72
335.763	4.47
336.135	4.16
336.507	4.57
336.879	4.2
337.25	4.18
337.622	4.88
337.993	3.68
338.365	4.36
338.736	4.41
339.108	3.95
339.479	4.48
339.851	3.71
340.222	4.23
340.593	4.23
340.964	4.35
341.336	4.38
341.707	4.14
342.078	4.78
342.449	4.2
342.82	4
343.191	4.1
343.562	4.64
343.933	4.39
344.303	4.25
344.674	4.38
345.045	4.17
345.416	4.52
345.786	4.66
346.157	4.6
346.527	4.52
346.898	4.41
347.268	4.47
347.639	3.76
348.009	4.27
348.38	4.61
348.75	4.95
349.12	4.55
349.49	4.78
349.861	3.81
350.231	4.5
350.601	4.52
350.971	4.38
351.341	4.48
351.711	4.21
352.081	4.57
352.45	4.37
352.82	4.63
353.19	4.97
353.56	4.25
353.929	4.02
354.299	4.23
354.669	4.52
355.038	4.22
355.408	5.05
355.777	3.93
356.147	4.11
356.516	4.62
356.885	4.08
357.254	4.61
357.624	4.45
357.993	4.04
358.362	4.59
358.731	4.56
359.1	4.07
359.469	3.96
359.838	4.34
360.207	4.28
360.576	4.17
360.945	4.28
361.314	4.19
361.682	4.35
362.051	4.29
362.42	4.32
362.788	4.42
363.157	4.4
363.525	4.35
363.894	4.31
364.262	4.51
364.631	4.3
364.999	4.38
365.367	4.45
365.735	4.41
366.104	4.22
366.472	4.58
366.84	4.52
367.208	4.47
367.576	4.6
367.944	4.62
368.312	4.23
368.68	4.12
369.048	4.3
369.416	4.47
369.783	4.19
370.151	4.56
370.519	4.61
370.886	4.36
371.254	4.34
371.621	4.74
371.989	4.42
372.356	4.33
372.724	4.49
373.091	4.03
373.458	4.32
373.826	4.75
374.193	4.83
374.56	4.73
374.927	4.98
375.294	4.41
375.661	4.34
376.028	4.23
376.395	4.39
376.762	4.2
377.129	4.82
377.496	4.66
377.863	4.12
378.229	4.93
378.596	4.53
378.963	4.62
379.329	4.29
379.696	4.63
380.062	4.64
380.429	4.69
380.795	4.38
381.161	4.21
381.528	4.65
381.894	4.38
382.26	4.46
382.626	4.36
382.993	4.6
383.359	4.5
383.725	4.3
384.091	4.37
384.457	4.5
384.823	4.52
385.188	4.41
385.554	4.57
385.92	4.75
386.286	4.59
386.651	4.86
387.017	4.48
387.383	4.42
387.748	4.06
388.114	4.53
388.479	4.46
388.845	4.38
389.21	4.25
389.575	4.45
389.94	4.27
390.306	4.73
390.671	4.39
391.036	4.42
391.401	4.14
391.766	4.41
392.131	4.18
392.496	4.37
392.861	4.54
393.226	4.57
393.591	4.39
393.956	4.66
394.32	4.58
394.685	4.3
395.05	4.41
395.414	4.52
395.779	4.44
396.143	4.78
396.508	4.27
396.872	4.55
397.236	4.53
397.601	4.4
397.965	4.76
398.329	4.38
398.694	4.7
399.058	4.49
399.422	4.67
399.786	4.43
400.15	4.58
400.514	4.41
400.878	4.41
401.242	4.18
401.605	4.49
401.969	4.66
402.333	4.53
402.697	4.73
403.06	4.41
403.424	4.53
403.787	4.61
404.151	4.58
404.514	4.68
404.878	4.49
405.241	4.53
405.604	4.65
405.968	4.6
406.331	4.34
406.694	4.52
407.057	4.57
407.42	4.51
407.783	4.48
408.146	4.5
408.509	4.54
408.872	4.42
409.235	4.82
409.598	4.57
409.961	4.22
410.323	4.77
410.686	4.79
411.049	4.19
411.411	4.74
411.774	4.88
412.136	4.56
412.499	4.48
412.861	4.49
413.223	4.32
413.586	4.33
413.948	4.79
414.31	4.8
414.672	4.66
415.035	4.68
415.397	4.74
415.759	4.47
416.121	4.42
416.483	4.51
416.845	4.52
417.206	4.59
417.568	4.53
417.93	4.4
418.292	4.73
418.653	4.41
419.015	4.62
419.377	4.53
419.738	4.41
420.1	4.55
420.461	4.48
420.822	4.46
421.184	4.48
421.545	4.38
421.906	4.32
422.267	4.36
422.629	4.53
422.99	4.44
423.351	4.3
423.712	4.47
424.073	4.36
424.434	4.41
424.795	4.39
425.155	4.48
425.516	4.4
425.877	4.49
426.238	4.37
426.598	4.44
426.959	4.4
427.32	4.51
427.68	4.59
428.041	4.48
428.401	4.58
428.761	4.7
429.122	4.45
429.482	4.62
429.842	4.66
430.202	4.38
430.563	4.61
430.923	4.5
431.283	4.47
431.643	4.65
432.003	4.54
432.363	4.83
432.722	4.76
433.082	4.55
433.442	4.57
433.802	4.58
434.161	4.61
434.521	4.56
434.881	4.48
435.24	4.54
435.6	4.54
435.959	4.52
436.319	4.52
436.678	4.46
437.037	4.69
437.396	4.69
437.756	4.56
438.115	4.54
438.474	4.61
438.833	4.58
439.192	4.64
439.551	4.66
439.91	4.52
440.269	4.6
440.628	4.68
440.987	4.61
441.345	4.6
441.704	4.49
442.063	4.7
442.421	4.61
442.78	4.55
443.138	4.5
443.497	4.62
443.855	4.65
444.214	4.59
444.572	4.66
444.93	4.56
445.288	4.64
445.647	4.58
446.005	4.65
446.363	4.64
446.721	4.48
447.079	4.44
447.437	4.58
447.795	4.44
448.153	4.45
448.51	4.47
448.868	4.44
449.226	4.43
449.584	4.43
449.941	4.53
450.299	4.5
450.656	4.53
451.014	4.71
451.371	4.75
451.729	4.51
452.086	4.52
452.443	4.67
452.801	4.68
453.158	4.69
453.515	4.53
453.872	4.74
454.229	4.63
454.586	4.74
454.943	4.63
455.3	4.54
455.657	4.66
456.014	4.53
456.371	4.73
456.727	4.63
457.084	4.58
457.441	4.52
457.797	4.67
458.154	4.45
458.51	4.61
458.867	4.71
459.223	4.66
459.58	4.73
459.936	4.67
460.292	4.7
460.648	4.51
461.005	4.7
461.361	4.56
461.717	4.6
462.073	4.55
462.429	4.48
462.785	4.59
463.141	4.69
463.496	4.67
463.852	4.62
464.208	4.7
464.564	4.52
464.919	4.72
465.275	4.79
465.631	4.64
465.986	4.6
466.342	4.71
466.697	4.72
467.052	4.75
467.408	4.71
467.763	4.69
468.118	4.81
468.473	4.7
468.829	4.55
469.184	4.74
469.539	4.69
469.894	4.73
470.249	4.78
470.603	4.84
470.958	4.7
471.313	4.76
471.668	4.75
472.023	4.58
472.377	4.74
472.732	4.76
473.086	4.67
473.441	4.75
473.795	4.74
474.15	4.7
474.504	4.78
474.859	4.78
475.213	4.58
475.567	4.68
475.921	4.66
476.275	4.61
476.63	4.65
476.984	4.62
477.338	4.74
477.692	4.74
478.045	4.68
478.399	4.66
478.753	4.86
479.107	4.68
479.461	4.72
479.814	4.49
480.168	4.69
480.521	4.7
480.875	4.72
481.228	4.57
481.582	4.79
481.935	4.74
482.289	4.6
482.642	4.67
482.995	4.69
483.348	4.59
483.701	4.71
484.055	4.66
484.408	4.63
484.761	4.52
485.114	4.46
485.466	4.43
485.819	4.4
486.172	4.41
486.525	4.4
486.878	4.44
487.23	4.51
487.583	4.47
487.936	4.58
488.288	4.59
488.641	4.53
488.993	4.52
489.345	4.43
489.698	4.45
490.05	4.54
490.402	4.48
490.754	4.54
491.107	4.57
491.459	4.65
491.811	4.65
492.163	4.62
492.515	4.61
492.866	4.62
493.218	4.53
493.57	4.48
493.922	4.55
494.274	4.55
494.625	4.57
494.977	4.66
495.328	4.73
495.68	4.63
496.031	4.72
496.383	4.67
496.734	4.78
497.086	4.7
497.437	4.84
497.788	4.76
498.139	4.65
498.49	4.67
498.842	4.69
499.193	4.75
499.544	4.76
499.894	4.77
500.245	4.75
500.596	4.71
500.947	4.69
501.298	4.79
501.648	4.7
501.999	4.82
502.35	4.77
502.7	4.86
503.051	4.8
503.401	4.95
503.752	4.75
504.102	4.89
504.452	4.74
504.803	4.81
505.153	4.94
505.503	4.86
505.853	4.78
506.203	4.69
506.553	4.83
506.903	4.96
507.253	4.71
507.603	4.85
507.953	5.02
508.303	4.9
508.652	4.84
509.002	4.99
509.352	4.93
509.701	4.87
510.051	5.02
510.4	4.7
510.75	4.88
511.099	4.7
511.449	4.74
511.798	4.76
512.147	4.82
512.496	4.9
512.846	4.82
513.195	5.05
513.544	4.82
513.893	4.91
514.242	4.79
514.591	4.87
514.939	4.82
515.288	4.96
515.637	4.8
515.986	4.96
516.334	4.89
516.683	4.73
517.032	4.84
517.38	4.95
517.729	5.03
518.077	4.86
518.426	4.82
518.774	4.9
519.122	4.83
519.47	4.96
519.819	4.98
520.167	4.9
520.515	4.85
520.863	4.95
521.211	4.95
521.559	4.96
521.907	4.92
522.255	4.87
522.602	4.97
522.95	4.92
523.298	5.02
523.645	4.94
523.993	5.05
524.341	5.11
524.688	5.05
525.036	4.95
525.383	4.85
525.73	5.1
526.078	5
526.425	4.93
526.772	5.04
527.119	4.89
527.466	4.89
527.814	4.87
528.161	4.9
528.508	4.94
528.854	4.93
529.201	4.96
529.548	4.9
529.895	4.85
530.242	4.85
530.588	4.83
530.935	4.88
531.282	4.89
531.628	4.89
531.975	4.89
532.321	4.92
532.667	5.05
533.014	5.03
533.36	5.06
533.706	5.05
534.052	5.06
534.399	5.08
534.745	5.04
535.091	4.9
535.437	5
535.783	5.05
536.129	5.03
536.474	4.98
536.82	5.09
537.166	5.17
537.512	5.13
537.857	5.12
538.203	5.08
538.549	5.09
538.894	5.15
539.239	5.19
539.585	5.21
539.93	5.22
540.276	5.18
540.621	5.36
540.966	5.32
541.311	5.38
541.656	5.36
542.001	5.29
542.346	5.36
542.691	5.14
543.036	5.08
543.381	5.02
543.726	5.1
544.071	5.19
544.415	5.12
544.76	5.12
545.105	5.16
545.449	5.21
545.794	5.29
546.138	5.29
546.483	5.37
546.827	5.27
547.171	5.45
547.516	5.24
547.86	5.34
548.204	5.36
548.548	5.3
548.892	5.38
549.236	5.43
549.58	5.47
549.924	5.45
550.268	5.5
550.612	5.59
550.956	5.62
551.3	5.44
551.643	5.56
551.987	5.54
552.33	5.56
552.674	5.67
553.017	5.52
553.361	5.47
553.704	5.81
554.048	5.64
554.391	5.67
554.734	5.45
555.077	5.62
555.42	5.59
555.764	5.56
556.107	5.63
556.45	5.65
556.793	5.47
557.135	5.66
557.478	5.78
557.821	5.75
558.164	5.88
558.507	5.74
558.849	5.82
559.192	5.85
559.534	5.78
559.877	5.84
560.219	5.74
560.562	5.9
560.904	5.69
561.246	5.7
561.589	5.84
561.931	5.94
562.273	5.83
562.615	5.86
562.957	5.98
563.299	5.99
563.641	5.78
563.983	5.67
564.325	6.07
564.667	6.07
565.008	5.72
565.35	6.05
565.692	5.96
566.033	5.85
566.375	5.76
566.716	5.93
567.058	6.15
567.399	6
567.741	6.08
568.082	5.98
568.423	6.15
568.764	6.12
569.105	5.88
569.447	6.06
569.788	6.15
570.129	6.16
570.47	6.3
570.811	6.06
571.151	6.27
571.492	6.14
571.833	5.99
572.174	6.02
572.514	6.29
572.855	5.99
573.195	6.27
573.536	6.29
573.876	6.33
574.217	6.17
574.557	6.21
574.898	6.1
575.238	6.43
575.578	6.36
575.918	6.18
576.258	6.48
576.598	6.44
576.938	6.28
577.278	6.45
577.618	6.41
577.958	6.15
578.298	6.55
578.638	6.56
578.977	6.51
579.317	6.47
579.657	6.57
579.996	6.36
580.336	6.63
580.675	6.57
581.014	6.6
581.354	6.65
581.693	6.56
582.032	6.62
582.372	6.66
582.711	6.42
583.05	6.6
583.389	6.74
583.728	6.73
584.067	6.77
584.406	6.58
584.745	6.7
585.083	6.68
585.422	6.75
585.761	6.66
586.1	6.75
586.438	7.03
586.777	6.99
587.115	7
587.454	6.93
587.792	6.88
588.13	6.94
588.469	6.94
588.807	7.03
589.145	7.04
589.483	7.14
589.821	6.91
590.159	7.04
590.497	7.1
590.835	6.94
591.173	7.07
591.511	7
591.849	7
592.187	7.16
592.524	6.75
592.862	7.28
593.2	6.97
593.537	6.96
593.875	7.32
594.212	6.95
594.55	7.38
594.887	7.34
595.224	7.12
595.561	7.17
595.899	7.18
596.236	7.55
596.573	6.95
596.91	7.25
597.247	7.03
597.584	7.42
597.921	7.5
598.258	7.28
598.594	7.42
598.931	7.36
599.268	7.35
599.604	7.25
599.941	7.22
600.277	7.43
600.614	7.57
600.95	7.72
601.287	7.6
601.623	7.64
601.959	7.91
602.296	7.72
602.632	7.65
602.968	7.83
603.304	7.8
603.64	7.62
603.976	7.65
604.312	7.6
604.648	7.84
604.984	7.9
605.319	7.78
605.655	7.9
605.991	7.79
606.326	7.84
606.662	7.85
606.998	7.84
607.333	7.74
607.668	7.91
608.004	7.84
608.339	7.89
608.674	7.97
609.01	7.94
609.345	7.85
609.68	8.32
610.015	8.14
610.35	8.16
610.685	8.02
611.02	7.87
611.355	7.9
611.689	7.85
612.024	8.04
612.359	8.24
612.694	8.42
613.028	8.48
613.363	8.17
613.697	8.38
614.032	8.08
614.366	8.56
614.7	8.26
615.035	8.44
615.369	8.33
615.703	8.62
616.037	8.35
616.371	8.42
616.705	7.93
617.039	8.69
617.373	8.64
617.707	8.23
618.041	8.37
618.375	8.29
618.709	8.88
619.042	8.3
619.376	8.87
619.71	8.59
620.043	8.93
620.377	8.62
620.71	8.57
621.043	9.24
621.377	8.57
621.71	8.83
622.043	8.64
622.376	8.88
622.709	9
623.043	9.16
623.376	8.94
623.709	9.13
624.041	9.19
624.374	8.99
624.707	8.67
625.04	9.02
625.373	9.19
625.705	9.24
626.038	9.05
626.37	8.9
626.703	9.48
627.035	9.11
627.368	9.33
627.7	9.07
628.032	9.16
628.365	9.01
628.697	9.44
629.029	9.17
629.361	9.21
629.693	9.51
630.025	9.53
630.357	9.39
630.689	9.19
631.021	9.3
631.353	9.43
631.684	9.43
632.016	9.87
632.348	9.67
632.679	9.42
633.011	9.55
633.342	9.6
633.674	9.87
634.005	9.81
634.336	9.94
634.668	9.81
634.999	9.79
635.33	9.94
635.661	9.79
635.992	10.01
636.323	9.7
636.654	9.62
636.985	9.92
637.316	10.15
637.647	9.74
637.977	10.27
638.308	9.75
638.639	9.9
638.969	10.01
639.3	9.92
639.63	9.89
639.961	9.93
640.291	9.81
640.622	10.52
640.952	10.44
641.282	10.09
641.612	10.28
641.943	10.53
642.273	10.22
642.603	10.19
642.933	10.39
643.263	10.35
643.592	10.4
643.922	10.23
644.252	10.54
644.582	11.04
644.911	10.54
645.241	10.69
645.571	9.82
645.9	10.69
646.23	10.38
646.559	10.72
646.888	10.64
647.218	10.38
647.547	10.68
647.876	11.13
648.205	10.76
648.534	10.73
648.863	10.85
649.192	10.36
649.521	10.7
649.85	10.92
650.179	10.75
650.508	10.45
650.837	10.89
651.165	10.51
651.494	10.67
651.822	11.1
652.151	11.01
652.479	11.65
652.808	11.02
653.136	11.28
653.465	11.3
653.793	11.36
654.121	10.82
654.449	11.38
654.777	11.02
655.105	11.65
655.433	11.26
655.761	11.32
656.089	12.02
656.417	11.2
656.745	11.7
657.073	10.98
657.4	11.71
657.728	11.59
658.056	11.24
658.383	11.32
658.711	11.78
659.038	10.9
659.365	11.7
659.693	11.46
660.02	11.92
660.347	11.95
660.674	11.61
661.001	11.77
661.329	11.72
661.656	11.63
661.982	11.78
662.309	12.21
662.636	11.67
662.963	11.35
663.29	11.69
663.616	11.87
663.943	12.16
664.27	11.96
664.596	12.52
664.923	11.65
665.249	12.43
665.576	12.4
665.902	12.05
666.228	12.27
666.554	11.94
666.881	12.3
667.207	12.38
667.533	11.83
667.859	12.35
668.185	12.03
668.511	11.99
668.837	12.78
669.162	12.83
669.488	12.35
669.814	12.7
670.139	12.05
670.465	12.94
670.791	12.6
671.116	12.32
671.442	12.61
671.767	12.96
672.092	12.55
672.418	12.69
672.743	12.53
673.068	13.35
673.393	12.76
673.718	12.19
674.043	13.16
674.368	12.57
674.693	12.82
675.018	13.06
675.343	13.29
675.667	13.54
675.992	12.95
676.317	12.9
676.641	12.69
676.966	12.31
677.29	12.86
677.615	12.31
677.939	13.2
678.264	12.51
678.588	12.53
678.912	12.75
679.236	12.58
679.56	13.23
679.885	12.89
680.209	12.99
680.532	13.21
680.856	13.93
681.18	14.07
681.504	13.45
681.828	13.46
682.152	13.77
682.475	13.54
682.799	13.4
683.122	13.46
683.446	13.63
683.769	13.71
684.093	14.58
684.416	14.65
684.739	14.02
685.062	14.04
685.386	14.03
685.709	13.95
686.032	13.49
686.355	13.87
686.678	13.41
687.001	14.09
687.324	14.58
687.646	13
687.969	13.54
688.292	14.34
688.614	14
688.937	14.25
689.26	13.19
689.582	14.2
