Data from 0045_crown_Reflection__1__152.txt Node

Date: Fri Nov 04 16:05:24 CDT 2022
User: ToomeyLab
Spectrometer: FLMS14357
Trigger mode: 0
Integration Time (sec): 1.000000E-2
Scans to average: 100
Electric dark correction enabled: true
Nonlinearity correction enabled: false
Boxcar width: 0
XAxis mode: Wavelengths
Number of Pixels in Spectrum: 2048
>>>>>Begin Spectral Data<<<<<
189.047	77.45
189.435	77.45
189.823	77.45
190.211	23.59
190.599	562.46
190.987	988.62
191.375	139.16
191.763	84.15
192.151	65.91
192.538	19.32
192.926	290.78
193.314	124.12
193.702	62.92
194.089	175.18
194.477	133.32
194.864	-66.17
195.252	312.54
195.639	-29.14
196.027	81.06
196.414	115.75
196.801	41.49
197.189	289.71
197.576	206.62
197.963	-32.17
198.351	-69.07
198.738	-6.57
199.125	-21.03
199.512	-50.26
199.899	-26.6
200.286	-44.14
200.673	43.07
201.06	-10.28
201.447	-11.29
201.833	19.99
202.22	-25.58
202.607	-7.95
202.994	35.06
203.38	41.43
203.767	-1.62
204.154	34.5
204.54	-119.5
204.927	-4.17
205.313	28.57
205.699	42.12
206.086	15.9
206.472	-9.33
206.858	3.36
207.245	5.94
207.631	24.53
208.017	-7.57
208.403	7.9
208.789	56.15
209.175	-31.09
209.561	-73.47
209.947	-113.09
210.333	3.76
210.719	-21.29
211.105	-52.94
211.491	-0.49
211.876	-14.08
212.262	-16.12
212.648	-10.66
213.034	16.87
213.419	-6.65
213.805	-2.61
214.19	-8.88
214.576	-26.25
214.961	26.6
215.346	-20.98
215.732	-4.54
216.117	-7.79
216.502	2.05
216.888	-1.96
217.273	-0.81
217.658	-48.76
218.043	7.04
218.428	13.58
218.813	-1.34
219.198	8.33
219.583	-23.01
219.968	11.45
220.353	-30.7
220.738	-37.73
221.122	0.38
221.507	7.69
221.892	-23.88
222.276	2.47
222.661	6.96
223.046	-10.06
223.43	-1.5
223.815	2.86
224.199	8.98
224.583	-0.91
224.968	5.35
225.352	-0.75
225.736	-9.9
226.121	-9.05
226.505	13.75
226.889	-1.9
227.273	-5.2
227.657	-0.18
228.041	6.15
228.425	9.27
228.809	5.45
229.193	6.75
229.577	4.22
229.961	7.02
230.344	6.81
230.728	5.68
231.112	4.58
231.495	5.09
231.879	6.03
232.263	5.4
232.646	3.69
233.03	4.08
233.413	4.41
233.797	3.75
234.18	4.69
234.563	5.33
234.946	3.09
235.33	6.25
235.713	4.47
236.096	4.92
236.479	5.44
236.862	3.65
237.245	3.88
237.628	4.59
238.011	4.22
238.394	4.59
238.777	5.64
239.16	4.54
239.543	4.75
239.925	4.76
240.308	6.16
240.691	5
241.073	5.22
241.456	3.99
241.838	4.34
242.221	3.47
242.603	4.9
242.986	3.78
243.368	4.54
243.75	5.18
244.133	4.86
244.515	5.14
244.897	4.85
245.279	4.87
245.661	5.69
246.043	5.61
246.425	4.83
246.807	5.16
247.189	5.04
247.571	5.18
247.953	4.84
248.335	4.68
248.717	4.62
249.098	4.6
249.48	4.56
249.862	4.81
250.243	4.97
250.625	4.56
251.006	4.49
251.388	4.82
251.769	4.9
252.151	5.69
252.532	5.19
252.913	3.76
253.295	4.92
253.676	4.27
254.057	4.29
254.438	4.73
254.819	4.45
255.2	3.78
255.581	4.09
255.962	5.07
256.343	3.49
256.724	4.15
257.105	4.32
257.486	4.63
257.867	5.76
258.247	4.97
258.628	4.28
259.009	3.52
259.389	4.49
259.77	4.49
260.15	4.37
260.531	4.88
260.911	4.29
261.292	3.77
261.672	4.03
262.052	4.32
262.432	4.29
262.813	4.02
263.193	3.5
263.573	4.1
263.953	3.94
264.333	4.38
264.713	4.26
265.093	3.81
265.473	4.23
265.853	3.66
266.233	3.91
266.612	4.58
266.992	4.55
267.372	3.51
267.752	4.57
268.131	4.01
268.511	4.06
268.89	4.52
269.27	4.21
269.649	3.69
270.029	4.01
270.408	4.16
270.787	3.99
271.167	3.63
271.546	4.45
271.925	3.96
272.304	4.21
272.683	4.11
273.062	3.91
273.441	4.28
273.82	4.08
274.199	4.42
274.578	3.72
274.957	4.04
275.336	4.01
275.715	4.23
276.093	4.07
276.472	4.03
276.851	4.04
277.229	4.08
277.608	3.97
277.986	4.99
278.365	4.12
278.743	4.18
279.122	4.19
279.5	4.2
279.878	3.57
280.257	3.41
280.635	3.6
281.013	3.99
281.391	4.09
281.769	4.18
282.147	3.41
282.525	3.54
282.903	4.04
283.281	4.24
283.659	3.93
284.037	3.92
284.415	3.69
284.792	4.06
285.17	3.6
285.548	4.34
285.925	3.59
286.303	3.68
286.68	4.27
287.058	3.54
287.435	4.03
287.813	3.62
288.19	3.83
288.567	3.64
288.945	4.01
289.322	3.76
289.699	3.87
290.076	4.13
290.453	3.42
290.83	3.87
291.207	3.67
291.584	4.22
291.961	4.01
292.338	4.01
292.715	4
293.092	3.94
293.469	3.75
293.845	3.85
294.222	3.36
294.599	3.4
294.975	3.82
295.352	3.73
295.728	3.76
296.105	3.96
296.481	3.6
296.858	4.02
297.234	4.19
297.61	3.82
297.986	3.8
298.363	3.38
298.739	3.96
299.115	3.95
299.491	3.76
299.867	3.72
300.243	3.51
300.619	3.98
300.995	4.54
301.371	3.97
301.746	3.75
302.122	3.94
302.498	3.25
302.874	4.05
303.249	3.59
303.625	3.76
304	3.74
304.376	3.37
304.751	3.71
305.127	3.12
305.502	4.11
305.878	3.93
306.253	3.49
306.628	3.41
307.003	3.98
307.378	3.85
307.754	3.8
308.129	3.35
308.504	3.31
308.879	3.7
309.254	4.04
309.629	3.78
310.003	3.85
310.378	4.23
310.753	3.89
311.128	3.39
311.502	3.15
311.877	3.69
312.252	3.72
312.626	3.68
313.001	3.6
313.375	3.7
313.75	3.56
314.124	3.74
314.498	4.01
314.873	4.08
315.247	3.32
315.621	4.3
315.995	3.87
316.369	3.74
316.743	4.3
317.117	3.94
317.491	4.02
317.865	3.62
318.239	3.94
318.613	3.9
318.987	3.33
319.361	3.79
319.734	3.66
320.108	3.58
320.482	3.42
320.855	3.54
321.229	3.52
321.602	3.46
321.976	3.83
322.349	4.45
322.723	3.77
323.096	4.27
323.469	3.88
323.843	4.14
324.216	4
324.589	4.16
324.962	4.04
325.335	3.52
325.708	3.31
326.081	3.67
326.454	3.99
326.827	3.95
327.2	3.9
327.573	3.53
327.945	3.95
328.318	3.06
328.691	3.6
329.063	3.83
329.436	3.62
329.809	3.61
330.181	3.56
330.553	3.66
330.926	3.52
331.298	3.89
331.671	3.9
332.043	3.58
332.415	3.7
332.787	3.33
333.159	3.59
333.532	3.6
333.904	4.34
334.276	3.41
334.648	4.1
335.02	3.38
335.391	3.88
335.763	3.57
336.135	3.8
336.507	4.37
336.879	3.78
337.25	4.08
337.622	3.7
337.993	3.95
338.365	3.66
338.736	4.11
339.108	3.77
339.479	3.64
339.851	3.39
340.222	3.77
340.593	4.23
340.964	3.92
341.336	4
341.707	3.11
342.078	3.85
342.449	4.08
342.82	3.63
343.191	3.56
343.562	3.71
343.933	3.79
344.303	3.92
344.674	3.88
345.045	3.44
345.416	3.53
345.786	4.09
346.157	3.85
346.527	4.12
346.898	3.95
347.268	3.93
347.639	4.08
348.009	4.27
348.38	3.92
348.75	3.72
349.12	3.66
349.49	4.3
349.861	3.74
350.231	4.07
350.601	3.76
350.971	3.62
351.341	3.8
351.711	3.95
352.081	3.78
352.45	4.12
352.82	4.07
353.19	4.23
353.56	3.9
353.929	3.63
354.299	4.38
354.669	3.96
355.038	4.07
355.408	3.83
355.777	3.97
356.147	3.68
356.516	3.61
356.885	3.77
357.254	3.69
357.624	3.79
357.993	3.85
358.362	3.55
358.731	3.83
359.1	4.08
359.469	3.87
359.838	3.79
360.207	3.6
360.576	3.9
360.945	4.23
361.314	4.24
361.682	3.84
362.051	4.06
362.42	4.14
362.788	4.02
363.157	3.7
363.525	3.81
363.894	3.91
364.262	4.06
364.631	4.18
364.999	4.16
365.367	3.6
365.735	4.14
366.104	3.81
366.472	3.95
366.84	3.93
367.208	4.14
367.576	3.88
367.944	3.93
368.312	3.9
368.68	3.8
369.048	3.74
369.416	3.75
369.783	3.76
370.151	3.63
370.519	4.12
370.886	4.02
371.254	4.23
371.621	4.07
371.989	4.14
372.356	3.95
372.724	4.05
373.091	4.23
373.458	4.07
373.826	4.25
374.193	3.92
374.56	3.6
374.927	4.07
375.294	4.07
375.661	4.13
376.028	3.93
376.395	4.13
376.762	4.22
377.129	4.15
377.496	4.49
377.863	3.99
378.229	4.12
378.596	3.98
378.963	4.02
379.329	3.72
379.696	4.02
380.062	4.33
380.429	4.03
380.795	3.74
381.161	3.97
381.528	4.17
381.894	3.71
382.26	4.08
382.626	3.91
382.993	4.15
383.359	4.01
383.725	4.01
384.091	3.79
384.457	4.18
384.823	3.88
385.188	4.11
385.554	4.08
385.92	3.62
386.286	4.03
386.651	4.08
387.017	4.08
387.383	3.82
387.748	3.87
388.114	3.84
388.479	4.62
388.845	3.95
389.21	4.29
389.575	4.29
389.94	4.08
390.306	4.15
390.671	4.13
391.036	4.17
391.401	4.2
391.766	3.95
392.131	3.88
392.496	4.17
392.861	4.17
393.226	4
393.591	4.16
393.956	4.26
394.32	3.99
394.685	4.14
395.05	4.16
395.414	4.05
395.779	4.19
396.143	4.09
396.508	4.29
396.872	4.14
397.236	4.29
397.601	4.19
397.965	4.12
398.329	4.02
398.694	4.29
399.058	4.1
399.422	4.29
399.786	4.25
400.15	4.07
400.514	4.14
400.878	3.93
401.242	4.16
401.605	4.2
401.969	4.28
402.333	4.19
402.697	4.14
403.06	4.48
403.424	4.11
403.787	4.08
404.151	4.35
404.514	4.36
404.878	4.1
405.241	4.19
405.604	4.29
405.968	4
406.331	4.22
406.694	4.2
407.057	4.13
407.42	4.12
407.783	4.12
408.146	4.3
408.509	4.14
408.872	4.28
409.235	4.09
409.598	4.22
409.961	4.42
410.323	4.32
410.686	4.23
411.049	4.03
411.411	3.96
411.774	4.08
412.136	4.41
412.499	4.43
412.861	4.24
413.223	4.2
413.586	3.93
413.948	4.18
414.31	4.39
414.672	4.41
415.035	4.27
415.397	4.01
415.759	4.21
416.121	4.11
416.483	4.19
416.845	4.12
417.206	3.92
417.568	4.34
417.93	4.35
418.292	4.17
418.653	4.3
419.015	4.18
419.377	4.18
419.738	4.16
420.1	4.42
420.461	4.14
420.822	4.11
421.184	4.17
421.545	4.2
421.906	4.15
422.267	4.07
422.629	4.24
422.99	4.11
423.351	4.03
423.712	4.15
424.073	4.19
424.434	4.08
424.795	4.25
425.155	4.21
425.516	4.16
425.877	4.16
426.238	4.1
426.598	4.16
426.959	3.99
427.32	4.11
427.68	4.19
428.041	4.11
428.401	4.17
428.761	4.26
429.122	4.16
429.482	4.17
429.842	3.99
430.202	4.4
430.563	4.14
430.923	4.31
431.283	4.17
431.643	4.39
432.003	4.33
432.363	4.47
432.722	4.21
433.082	4.25
433.442	4.29
433.802	4.17
434.161	4.2
434.521	4.15
434.881	4.2
435.24	4.07
435.6	4.23
435.959	4.15
436.319	4.2
436.678	4.18
437.037	4.27
437.396	4.4
437.756	4.37
438.115	4.04
438.474	4.18
438.833	4.38
439.192	4.29
439.551	4.3
439.91	4.31
440.269	4.27
440.628	4.4
440.987	4.23
441.345	4.27
441.704	4.16
442.063	4.14
442.421	4.25
442.78	4.17
443.138	4.25
443.497	4.12
443.855	4.18
444.214	4.46
444.572	4.17
444.93	4.18
445.288	4.37
445.647	4.29
446.005	4.23
446.363	4.26
446.721	4.28
447.079	4.09
447.437	4.13
447.795	4.12
448.153	4.19
448.51	4.23
448.868	4.23
449.226	4.12
449.584	4.26
449.941	4.04
450.299	4.25
450.656	4.25
451.014	4.31
451.371	4.38
451.729	4.32
452.086	4.26
452.443	4.26
452.801	4.46
453.158	4.34
453.515	4.49
453.872	4.22
454.229	4.45
454.586	4.29
454.943	4.28
455.3	4.25
455.657	4.2
456.014	4.22
456.371	4.32
456.727	4.35
457.084	4.47
457.441	4.3
457.797	4.26
458.154	4.31
458.51	4.49
458.867	4.22
459.223	4.39
459.58	4.54
459.936	4.23
460.292	4.14
460.648	4.29
461.005	4.2
461.361	4.2
461.717	4.19
462.073	4.33
462.429	4.36
462.785	4.27
463.141	4.31
463.496	4.19
463.852	4.28
464.208	4.27
464.564	4.07
464.919	4.38
465.275	4.45
465.631	4.42
465.986	4.46
466.342	4.22
466.697	4.39
467.052	4.34
467.408	4.21
467.763	4.45
468.118	4.53
468.473	4.46
468.829	4.14
469.184	4.34
469.539	4.19
469.894	4.41
470.249	4.35
470.603	4.46
470.958	4.26
471.313	4.38
471.668	4.24
472.023	4.18
472.377	4.44
472.732	4.18
473.086	4.31
473.441	4.32
473.795	4.34
474.15	4.38
474.504	4.36
474.859	4.14
475.213	4.39
475.567	4.32
475.921	4.13
476.275	4.39
476.63	4.37
476.984	4.36
477.338	4.4
477.692	4.39
478.045	4.33
478.399	4.21
478.753	4.33
479.107	4.31
479.461	4.35
479.814	4.46
480.168	4.4
480.521	4.31
480.875	4.34
481.228	4.4
481.582	4.4
481.935	4.37
482.289	4.18
482.642	4.41
482.995	4.33
483.348	4.24
483.701	4.35
484.055	4.25
484.408	4.3
484.761	4.31
485.114	4.16
485.466	4.05
485.819	4.1
486.172	4.06
486.525	4.11
486.878	4.21
487.23	4.19
487.583	4.18
487.936	4.29
488.288	4.29
488.641	4.22
488.993	4.23
489.345	4.15
489.698	4.15
490.05	4.16
490.402	4.17
490.754	4.27
491.107	4.25
491.459	4.29
491.811	4.24
492.163	4.36
492.515	4.45
492.866	4.28
493.218	4.23
493.57	4.16
493.922	4.24
494.274	4.18
494.625	4.26
494.977	4.29
495.328	4.32
495.68	4.36
496.031	4.38
496.383	4.46
496.734	4.32
497.086	4.49
497.437	4.43
497.788	4.39
498.139	4.45
498.49	4.4
498.842	4.45
499.193	4.4
499.544	4.5
499.894	4.36
500.245	4.44
500.596	4.42
500.947	4.37
501.298	4.41
501.648	4.46
501.999	4.56
502.35	4.49
502.7	4.31
503.051	4.48
503.401	4.61
503.752	4.6
504.102	4.5
504.452	4.56
504.803	4.43
505.153	4.55
505.503	4.46
505.853	4.57
506.203	4.46
506.553	4.52
506.903	4.49
507.253	4.48
507.603	4.58
507.953	4.58
508.303	4.65
508.652	4.34
509.002	4.62
509.352	4.55
509.701	4.51
510.051	4.51
510.4	4.52
510.75	4.37
511.099	4.45
511.449	4.37
511.798	4.45
512.147	4.55
512.496	4.49
512.846	4.42
513.195	4.51
513.544	4.46
513.893	4.53
514.242	4.48
514.591	4.46
514.939	4.51
515.288	4.5
515.637	4.52
515.986	4.67
516.334	4.47
516.683	4.61
517.032	4.61
517.38	4.78
517.729	4.64
518.077	4.49
518.426	4.52
518.774	4.61
519.122	4.57
519.47	4.56
519.819	4.52
520.167	4.56
520.515	4.47
520.863	4.5
521.211	4.47
521.559	4.61
521.907	4.47
522.255	4.65
522.602	4.7
522.95	4.58
523.298	4.75
523.645	4.64
523.993	4.73
524.341	4.6
524.688	4.67
525.036	4.7
525.383	4.7
525.73	4.67
526.078	4.73
526.425	4.73
526.772	4.63
527.119	4.67
527.466	4.63
527.814	4.62
528.161	4.61
528.508	4.66
528.854	4.59
529.201	4.66
529.548	4.61
529.895	4.59
530.242	4.52
530.588	4.52
530.935	4.54
531.282	4.57
531.628	4.5
531.975	4.58
532.321	4.68
532.667	4.7
533.014	4.75
533.36	4.73
533.706	4.88
534.052	4.71
534.399	4.79
534.745	4.76
535.091	4.67
535.437	4.7
535.783	4.67
536.129	4.81
536.474	4.75
536.82	4.75
537.166	4.74
537.512	4.82
537.857	4.81
538.203	4.81
538.549	4.88
538.894	4.87
539.239	4.92
539.585	4.9
539.93	4.9
540.276	4.94
540.621	4.91
540.966	5.05
541.311	4.85
541.656	4.96
542.001	5.07
542.346	4.95
542.691	4.95
543.036	4.77
543.381	4.88
543.726	4.86
544.071	4.91
544.415	4.9
544.76	4.97
545.105	4.92
545.449	5.03
545.794	4.99
546.138	4.92
546.483	5.21
546.827	5.11
547.171	5.08
547.516	5.18
547.86	5.03
548.204	5.15
548.548	5.03
548.892	5.09
549.236	5.13
549.58	5.13
549.924	5.12
550.268	5.27
550.612	5.16
550.956	5.12
551.3	5.25
551.643	5.31
551.987	5.27
552.33	5.29
552.674	5.26
553.017	5.42
553.361	5.41
553.704	5.33
554.048	5.31
554.391	5.21
554.734	5.52
555.077	5.37
555.42	5.4
555.764	5.57
556.107	5.49
556.45	5.5
556.793	5.4
557.135	5.51
557.478	5.46
557.821	5.58
558.164	5.59
558.507	5.53
558.849	5.65
559.192	5.44
559.534	5.44
559.877	5.63
560.219	5.57
560.562	5.62
560.904	5.78
561.246	5.61
561.589	5.61
561.931	5.56
562.273	5.68
562.615	5.41
562.957	5.63
563.299	5.65
563.641	5.85
563.983	5.7
564.325	5.88
564.667	5.79
565.008	5.52
565.35	5.77
565.692	5.93
566.033	5.97
566.375	5.75
566.716	5.86
567.058	5.96
567.399	5.96
567.741	5.89
568.082	6
568.423	5.9
568.764	5.84
569.105	5.93
569.447	5.89
569.788	5.94
570.129	6.01
570.47	6.13
570.811	6.04
571.151	5.99
571.492	6.07
571.833	5.91
572.174	6.18
572.514	6.15
572.855	5.93
573.195	6.12
573.536	6.01
573.876	5.98
574.217	6.17
574.557	6.14
574.898	6.26
575.238	6.21
575.578	6.33
575.918	6.27
576.258	6.19
576.598	6.36
576.938	6.46
577.278	6.08
577.618	6.22
577.958	6.27
578.298	6.23
578.638	6.37
578.977	6.55
579.317	6.55
579.657	6.31
579.996	6.37
580.336	6.46
580.675	6.34
581.014	6.65
581.354	6.65
581.693	6.76
582.032	6.36
582.372	6.67
582.711	6.77
583.05	6.6
583.389	6.59
583.728	6.69
584.067	6.93
584.406	6.52
584.745	6.77
585.083	6.92
585.422	6.95
585.761	6.89
586.1	6.67
586.438	6.59
586.777	6.93
587.115	6.66
587.454	7.13
587.792	6.85
588.13	7.01
588.469	7.01
588.807	7.14
589.145	6.98
589.483	6.7
589.821	7.12
590.159	6.94
590.497	7.53
590.835	7.03
591.173	6.88
591.511	7.19
591.849	7.21
592.187	7.12
592.524	7.46
592.862	7.21
593.2	7.36
593.537	7.22
593.875	7.34
594.212	7.21
594.55	7.1
594.887	7.35
595.224	7.39
595.561	7.04
595.899	7.46
596.236	7.53
596.573	7.33
596.91	7.45
597.247	7.63
597.584	7.28
597.921	7.58
598.258	7.55
598.594	7.25
598.931	7.58
599.268	7.7
599.604	7.46
599.941	7.7
600.277	7.51
600.614	7.99
600.95	7.9
601.287	7.57
601.623	7.69
601.959	8.01
602.296	8.03
602.632	7.76
602.968	7.91
603.304	7.72
603.64	7.99
603.976	7.57
604.312	8.03
604.648	7.65
604.984	7.92
605.319	8
605.655	7.81
605.991	8.14
606.326	8.1
606.662	7.95
606.998	7.92
607.333	7.95
607.668	8.27
608.004	8.18
608.339	8.18
608.674	8.29
609.01	8.37
609.345	8.34
609.68	8.29
610.015	8.29
610.35	8.13
610.685	8.41
611.02	8.26
611.355	8.57
611.689	8.6
612.024	8.45
612.359	8.43
612.694	8.48
613.028	8.51
613.363	8.92
613.697	8.36
614.032	8.44
614.366	8.28
614.7	8.77
615.035	8.81
615.369	8.59
615.703	9.08
616.037	8.73
616.371	8.95
616.705	8.77
617.039	8.92
617.373	9.01
617.707	9.06
618.041	9.01
618.375	9.2
618.709	9.23
619.042	9.07
619.376	9
619.71	9.12
620.043	9.42
620.377	9.23
620.71	9.4
621.043	9.16
621.377	9.42
621.71	9.44
622.043	9.44
622.376	9.33
622.709	9.39
623.043	9.33
623.376	9.87
623.709	9.34
624.041	9.67
624.374	9.13
624.707	9.17
625.04	9.34
625.373	9.76
625.705	9.43
626.038	9.44
626.37	9.7
626.703	9.41
627.035	9.81
627.368	9.53
627.7	9.61
628.032	9.75
628.365	9.91
628.697	9.71
629.029	9.79
629.361	9.91
629.693	9.75
630.025	9.85
630.357	9.94
630.689	10.09
631.021	9.7
631.353	9.94
631.684	9.95
632.016	10.09
632.348	9.97
632.679	10.01
633.011	10.32
633.342	10.06
633.674	10.12
634.005	10.26
634.336	10.55
634.668	10.58
634.999	10.54
635.33	10.26
635.661	10.34
635.992	10.69
636.323	10.56
636.654	10.2
636.985	10.33
637.316	10.35
637.647	10
637.977	10.29
638.308	10.69
638.639	10.82
638.969	10.21
639.3	10.66
639.63	10.82
639.961	11.05
640.291	10.89
640.622	11.31
640.952	10.79
641.282	10.34
641.612	10.86
641.943	10.77
642.273	10.74
642.603	10.89
642.933	11
643.263	10.7
643.592	11.03
643.922	11.35
644.252	11.39
644.582	11.27
644.911	11.15
645.241	11.22
645.571	11.02
645.9	10.97
646.23	11.23
646.559	11.6
646.888	11.68
647.218	11.75
647.547	11.28
647.876	11.7
648.205	11.23
648.534	11.74
648.863	11.35
649.192	11.57
649.521	11.82
649.85	11.57
650.179	11.47
650.508	11.98
650.837	11.98
651.165	12.09
651.494	11.89
651.822	11.68
652.151	11.97
652.479	11.68
652.808	11.56
653.136	11.85
653.465	11.99
653.793	12.31
654.121	11.76
654.449	11.76
654.777	11.79
655.105	12.29
655.433	12.05
655.761	11.71
656.089	11.87
656.417	12.09
656.745	11.68
657.073	11.8
657.4	12.34
657.728	12.52
658.056	12.03
658.383	12.53
658.711	12.02
659.038	12.58
659.365	12.4
659.693	12.72
660.02	12.78
660.347	12.12
660.674	12.35
661.001	12.38
661.329	12.75
661.656	13.09
661.982	12.57
662.309	12.64
662.636	12.67
662.963	12.64
663.29	12.46
663.616	12.66
663.943	12.82
664.27	13.29
664.596	12.93
664.923	12.95
665.249	13.29
665.576	13.03
665.902	12.75
666.228	12.35
666.554	14.01
666.881	12.76
667.207	13.79
667.533	13.01
667.859	13.53
668.185	13.3
668.511	13.21
668.837	12.67
669.162	13.56
669.488	12.38
669.814	13.59
670.139	13.09
670.465	13.86
670.791	13.11
671.116	13.36
671.442	13.28
671.767	13.5
672.092	13.52
672.418	13.68
672.743	13.63
673.068	13.31
673.393	13.08
673.718	13.73
674.043	14
674.368	13.28
674.693	14.1
675.018	13.74
675.343	13.53
675.667	14.37
675.992	14.08
676.317	14.59
676.641	14.39
676.966	13.48
677.29	13.84
677.615	14.64
677.939	14.21
678.264	14.02
678.588	14.32
678.912	14.76
679.236	14.11
679.56	13.62
679.885	13.86
680.209	14.43
680.532	14.6
680.856	14.16
681.18	14.34
681.504	14.49
681.828	14.48
682.152	15.15
682.475	14.86
682.799	14.83
683.122	14.61
683.446	14.59
683.769	14.32
684.093	14.81
684.416	13.72
684.739	14.8
685.062	15.46
685.386	15.23
685.709	14.91
686.032	14.94
686.355	15.48
686.678	14.72
687.001	15.22
687.324	15.35
687.646	14.92
687.969	15.48
688.292	15.08
