Data from 0045_crown_Reflection__1__157.txt Node

Date: Fri Nov 04 16:08:04 CDT 2022
User: ToomeyLab
Spectrometer: FLMS14357
Trigger mode: 0
Integration Time (sec): 1.000000E-2
Scans to average: 100
Electric dark correction enabled: true
Nonlinearity correction enabled: false
Boxcar width: 0
XAxis mode: Wavelengths
Number of Pixels in Spectrum: 2048
>>>>>Begin Spectral Data<<<<<
189.047	67.6
189.435	67.6
189.823	67.6
190.211	-156.89
190.599	-34.14
190.987	87.93
191.375	48.44
191.763	479.73
192.151	88.82
192.538	-23.44
192.926	234.26
193.314	27.65
193.702	50.29
194.089	120.4
194.477	90.98
194.864	293.65
195.252	347.88
195.639	-88.6
196.027	56.88
196.414	344.29
196.801	39.2
197.189	-292.83
197.576	115.97
197.963	101.46
198.351	-44.78
198.738	28.85
199.125	41.95
199.512	-102.77
199.899	-13.71
200.286	-3.63
200.673	-8.87
201.06	5.64
201.447	30.81
201.833	4.4
202.22	-4.25
202.607	-0.97
202.994	45.99
203.38	21.27
203.767	9.43
204.154	48.69
204.54	-84.95
204.927	-21.86
205.313	28.18
205.699	35.11
206.086	-9.84
206.472	13.21
206.858	11.62
207.245	1.47
207.631	-3.03
208.017	15.41
208.403	32.62
208.789	33.4
209.175	7.63
209.561	-92.14
209.947	-112.26
210.333	49.05
210.719	13.06
211.105	-63.34
211.491	-23.12
211.876	3.67
212.262	-23.6
212.648	-19.98
213.034	35.21
213.419	2.32
213.805	-3.02
214.19	-54.65
214.576	-14.61
214.961	48.06
215.346	-3.51
215.732	18.97
216.117	-5.74
216.502	16.61
216.888	-21.9
217.273	3.15
217.658	13.93
218.043	-11.54
218.428	2.18
218.813	-9.8
219.198	2.58
219.583	-2.13
219.968	24.42
220.353	-42.92
220.738	-37.5
221.122	0.36
221.507	4.85
221.892	-31.98
222.276	-10.19
222.661	6.56
223.046	5.4
223.43	-9.53
223.815	2.93
224.199	7.77
224.583	6.78
224.968	1.89
225.352	0.99
225.736	-5.52
226.121	-9.28
226.505	6.04
226.889	6.9
227.273	11.69
227.657	3.16
228.041	4.62
228.425	4.63
228.809	7
229.193	5.75
229.577	3.69
229.961	6.26
230.344	4.89
230.728	5.62
231.112	4.41
231.495	5.09
231.879	6.56
232.263	6.1
232.646	5.41
233.03	3.96
233.413	3.38
233.797	4.12
234.18	3.52
234.563	6.7
234.946	5.1
235.33	6.43
235.713	4.82
236.096	5.52
236.479	4.71
236.862	5.76
237.245	4.29
237.628	6.13
238.011	3.93
238.394	5.37
238.777	5.07
239.16	3.61
239.543	4.52
239.925	3.9
240.308	4.98
240.691	5.6
241.073	4.59
241.456	5.23
241.838	3.76
242.221	4.48
242.603	4.41
242.986	3.93
243.368	5.33
243.75	5.35
244.133	4.99
244.515	5.14
244.897	4.6
245.279	5.44
245.661	5.01
246.043	5.84
246.425	4.23
246.807	5.4
247.189	5.55
247.571	4.84
247.953	5.16
248.335	4.67
248.717	4.82
249.098	4.74
249.48	5.14
249.862	5.08
250.243	4.66
250.625	4.73
251.006	4.71
251.388	4.91
251.769	5.47
252.151	5.27
252.532	5.02
252.913	4.64
253.295	4.83
253.676	4.87
254.057	4.41
254.438	4.96
254.819	4.79
255.2	4.22
255.581	4.93
255.962	5.21
256.343	3.86
256.724	4.59
257.105	3.99
257.486	5.07
257.867	5.04
258.247	5.45
258.628	3.43
259.009	4.1
259.389	4.13
259.77	4.95
260.15	5.14
260.531	4.46
260.911	4.34
261.292	4.39
261.672	4.38
262.052	4.47
262.432	4.69
262.813	4.52
263.193	3.94
263.573	4.84
263.953	4.72
264.333	4.67
264.713	5.18
265.093	3.72
265.473	4.61
265.853	3.54
266.233	4.62
266.612	5.16
266.992	4.66
267.372	4.31
267.752	4.63
268.131	4.54
268.511	4.74
268.89	5.34
269.27	4.28
269.649	4.43
270.029	3.95
270.408	3.88
270.787	4.46
271.167	4.26
271.546	4.76
271.925	4.4
272.304	4.36
272.683	4.35
273.062	4.43
273.441	4.59
273.82	3.87
274.199	4.21
274.578	4.09
274.957	3.97
275.336	3.85
275.715	3.91
276.093	4.25
276.472	3.61
276.851	3.7
277.229	3.45
277.608	4.07
277.986	4.14
278.365	4.2
278.743	4.58
279.122	3.95
279.5	4.39
279.878	4.11
280.257	4.27
280.635	3.75
281.013	3.75
281.391	4.35
281.769	4.4
282.147	3.22
282.525	3.7
282.903	4.3
283.281	4.37
283.659	4.25
284.037	3.68
284.415	4.01
284.792	4.15
285.17	3.62
285.548	4.21
285.925	3.83
286.303	4.13
286.68	4.34
287.058	3.97
287.435	3.78
287.813	3.92
288.19	3.83
288.567	3.89
288.945	4.45
289.322	4.18
289.699	4.45
290.076	3.9
290.453	3.72
290.83	4.04
291.207	3.84
291.584	3.68
291.961	3.87
292.338	4.05
292.715	3.96
293.092	3.6
293.469	3.95
293.845	3.58
294.222	3.52
294.599	3.77
294.975	3.93
295.352	3.57
295.728	4.02
296.105	3.98
296.481	3.88
296.858	3.85
297.234	4.45
297.61	3.89
297.986	3.51
298.363	3.57
298.739	3.62
299.115	3.93
299.491	3.51
299.867	3.62
300.243	3.74
300.619	4.09
300.995	3.65
301.371	3.97
301.746	3.72
302.122	3.67
302.498	3.68
302.874	3.72
303.249	3.45
303.625	3.24
304	3.35
304.376	3.42
304.751	3.44
305.127	3.08
305.502	3.66
305.878	3.53
306.253	3.8
306.628	3.06
307.003	3.3
307.378	3.72
307.754	3.58
308.129	3.08
308.504	3.17
308.879	3.21
309.254	3.5
309.629	3.35
310.003	3.48
310.378	3.37
310.753	3.72
311.128	3.49
311.502	3
311.877	3.4
312.252	3.44
312.626	3.29
313.001	3.46
313.375	3.22
313.75	3.19
314.124	2.95
314.498	3.7
314.873	3.73
315.247	3.19
315.621	3.32
315.995	3.66
316.369	2.95
316.743	3.57
317.117	3.43
317.491	3.31
317.865	3.08
318.239	3.44
318.613	3.8
318.987	3.66
319.361	3.41
319.734	3.58
320.108	2.78
320.482	2.53
320.855	3.45
321.229	3.37
321.602	2.94
321.976	3.34
322.349	4.16
322.723	3.34
323.096	3.49
323.469	3.18
323.843	3.3
324.216	3.18
324.589	3.3
324.962	3.6
325.335	3.42
325.708	2.97
326.081	3.72
326.454	2.99
326.827	3.48
327.2	3.15
327.573	3.16
327.945	3.42
328.318	2.5
328.691	3.08
329.063	3.14
329.436	3.85
329.809	3.09
330.181	3.44
330.553	2.87
330.926	3.16
331.298	3.43
331.671	3.65
332.043	3.1
332.415	3.23
332.787	2.82
333.159	2.63
333.532	2.81
333.904	3.1
334.276	3.34
334.648	3.3
335.02	2.61
335.391	3.01
335.763	3.21
336.135	3.17
336.507	3.48
336.879	3.01
337.25	3.29
337.622	3.21
337.993	3.33
338.365	2.88
338.736	3.7
339.108	3.51
339.479	3.25
339.851	2.86
340.222	2.7
340.593	3.29
340.964	3.03
341.336	3.06
341.707	3.03
342.078	3.3
342.449	3.04
342.82	3.54
343.191	3.01
343.562	3.11
343.933	3.4
344.303	3.7
344.674	3.29
345.045	3.04
345.416	2.72
345.786	3.39
346.157	3.49
346.527	3.5
346.898	3.24
347.268	3
347.639	2.99
348.009	3.46
348.38	3.42
348.75	3.24
349.12	3.12
349.49	3.49
349.861	3.03
350.231	3.33
350.601	3.07
350.971	2.76
351.341	3.13
351.711	2.91
352.081	3.23
352.45	3.25
352.82	3
353.19	3.45
353.56	3.34
353.929	3.47
354.299	3.7
354.669	3.41
355.038	3.31
355.408	3.12
355.777	3.37
356.147	2.73
356.516	3.14
356.885	3.04
357.254	3.26
357.624	3.7
357.993	3.22
358.362	3.11
358.731	3.15
359.1	3.36
359.469	3.3
359.838	3.38
360.207	3.34
360.576	3.44
360.945	3.44
361.314	3.47
361.682	3.36
362.051	3.56
362.42	3.54
362.788	3.28
363.157	3.45
363.525	3.47
363.894	3.29
364.262	3.57
364.631	3.36
364.999	3.17
365.367	3.19
365.735	3.64
366.104	3.32
366.472	3.69
366.84	3.1
367.208	3.79
367.576	3.3
367.944	3.52
368.312	3.52
368.68	3.56
369.048	3.52
369.416	3.47
369.783	3.24
370.151	3.48
370.519	4.16
370.886	3.19
371.254	3.89
371.621	3.46
371.989	3.16
372.356	3.77
372.724	3.7
373.091	3.69
373.458	3.52
373.826	3.56
374.193	3.47
374.56	3.23
374.927	3.9
375.294	3.41
375.661	3.8
376.028	3.64
376.395	3.45
376.762	3.77
377.129	3.52
377.496	3.91
377.863	3.83
378.229	3.47
378.596	3.23
378.963	3.57
379.329	3.59
379.696	3.67
380.062	3.93
380.429	3.51
380.795	3.33
381.161	3.75
381.528	3.75
381.894	3.47
382.26	3.78
382.626	3.58
382.993	3.89
383.359	3.68
383.725	3.69
384.091	3.59
384.457	3.78
384.823	3.49
385.188	3.97
385.554	3.74
385.92	3.5
386.286	3.75
386.651	3.72
387.017	3.62
387.383	3.6
387.748	3.66
388.114	3.54
388.479	4.23
388.845	3.78
389.21	3.97
389.575	4.15
389.94	4.01
390.306	3.84
390.671	4.01
391.036	3.87
391.401	3.81
391.766	3.57
392.131	3.81
392.496	3.91
392.861	3.89
393.226	3.69
393.591	3.67
393.956	3.85
394.32	3.8
394.685	3.92
395.05	3.97
395.414	3.81
395.779	3.89
396.143	3.75
396.508	3.96
396.872	3.79
397.236	3.9
397.601	3.72
397.965	3.95
398.329	3.79
398.694	4.1
399.058	4.03
399.422	3.88
399.786	3.82
400.15	3.86
400.514	3.98
400.878	3.85
401.242	4.13
401.605	3.93
401.969	4
402.333	4.03
402.697	4.16
403.06	3.98
403.424	4.24
403.787	3.94
404.151	4.16
404.514	4.2
404.878	4.19
405.241	4.06
405.604	4.17
405.968	3.93
406.331	3.81
406.694	3.92
407.057	4.13
407.42	4.02
407.783	3.88
408.146	4.13
408.509	4.01
408.872	3.95
409.235	4.1
409.598	4.16
409.961	4.26
410.323	4.18
410.686	3.87
411.049	3.81
411.411	4.01
411.774	3.98
412.136	4.17
412.499	4.02
412.861	4.17
413.223	4.12
413.586	3.96
413.948	4.26
414.31	4.14
414.672	4.17
415.035	4.24
415.397	4.24
415.759	4.29
416.121	4.01
416.483	4.18
416.845	4.18
417.206	4.11
417.568	4.06
417.93	4.13
418.292	4.09
418.653	4.16
419.015	4.07
419.377	4.14
419.738	4.12
420.1	4.14
420.461	4.04
420.822	4.05
421.184	4.1
421.545	4.05
421.906	4.13
422.267	4.05
422.629	4.16
422.99	4
423.351	3.97
423.712	4.09
424.073	4.19
424.434	3.99
424.795	4.13
425.155	4.21
425.516	4.15
425.877	4.09
426.238	4.08
426.598	4.17
426.959	4.07
427.32	4.12
427.68	4.17
428.041	4.21
428.401	4.3
428.761	4.23
429.122	4.08
429.482	4.27
429.842	4.03
430.202	4.36
430.563	4.39
430.923	4.35
431.283	4.08
431.643	4.33
432.003	4.53
432.363	4.35
432.722	4.26
433.082	4.45
433.442	4.29
433.802	4.21
434.161	4.36
434.521	4.2
434.881	4.26
435.24	4.23
435.6	4.32
435.959	4.3
436.319	4.21
436.678	4.23
437.037	4.58
437.396	4.42
437.756	4.36
438.115	4.34
438.474	4.56
438.833	4.39
439.192	4.29
439.551	4.41
439.91	4.34
440.269	4.59
440.628	4.41
440.987	4.26
441.345	4.36
441.704	4.33
442.063	4.16
442.421	4.21
442.78	4.36
443.138	4.42
443.497	4.27
443.855	4.17
444.214	4.5
444.572	4.39
444.93	4.37
445.288	4.46
445.647	4.33
446.005	4.31
446.363	4.34
446.721	4.35
447.079	4.26
447.437	4.39
447.795	4.35
448.153	4.27
448.51	4.34
448.868	4.31
449.226	4.33
449.584	4.34
449.941	4.32
450.299	4.36
450.656	4.4
451.014	4.47
451.371	4.53
451.729	4.56
452.086	4.39
452.443	4.45
452.801	4.52
453.158	4.61
453.515	4.62
453.872	4.51
454.229	4.49
454.586	4.47
454.943	4.59
455.3	4.55
455.657	4.55
456.014	4.51
456.371	4.41
456.727	4.61
457.084	4.66
457.441	4.58
457.797	4.55
458.154	4.51
458.51	4.49
458.867	4.51
459.223	4.54
459.58	4.63
459.936	4.42
460.292	4.53
460.648	4.46
461.005	4.44
461.361	4.4
461.717	4.46
462.073	4.48
462.429	4.55
462.785	4.53
463.141	4.58
463.496	4.4
463.852	4.55
464.208	4.51
464.564	4.59
464.919	4.71
465.275	4.69
465.631	4.65
465.986	4.5
466.342	4.54
466.697	4.59
467.052	4.59
467.408	4.52
467.763	4.57
468.118	4.64
468.473	4.59
468.829	4.42
469.184	4.57
469.539	4.56
469.894	4.71
470.249	4.56
470.603	4.63
470.958	4.44
471.313	4.52
471.668	4.52
472.023	4.44
472.377	4.52
472.732	4.64
473.086	4.5
473.441	4.7
473.795	4.54
474.15	4.65
474.504	4.7
474.859	4.51
475.213	4.6
475.567	4.54
475.921	4.56
476.275	4.57
476.63	4.63
476.984	4.57
477.338	4.44
477.692	4.7
478.045	4.56
478.399	4.63
478.753	4.63
479.107	4.67
479.461	4.73
479.814	4.74
480.168	4.67
480.521	4.61
480.875	4.57
481.228	4.72
481.582	4.74
481.935	4.72
482.289	4.71
482.642	4.54
482.995	4.62
483.348	4.57
483.701	4.64
484.055	4.49
484.408	4.57
484.761	4.59
485.114	4.38
485.466	4.31
485.819	4.25
486.172	4.32
486.525	4.33
486.878	4.44
487.23	4.5
487.583	4.5
487.936	4.61
488.288	4.5
488.641	4.45
488.993	4.39
489.345	4.38
489.698	4.38
490.05	4.38
490.402	4.45
490.754	4.47
491.107	4.55
491.459	4.59
491.811	4.48
492.163	4.59
492.515	4.58
492.866	4.57
493.218	4.43
493.57	4.39
493.922	4.49
494.274	4.5
494.625	4.49
494.977	4.6
495.328	4.69
495.68	4.56
496.031	4.66
496.383	4.65
496.734	4.64
497.086	4.73
497.437	4.7
497.788	4.77
498.139	4.61
498.49	4.58
498.842	4.65
499.193	4.59
499.544	4.79
499.894	4.5
500.245	4.63
500.596	4.6
500.947	4.63
501.298	4.67
501.648	4.59
501.999	4.81
502.35	4.74
502.7	4.73
503.051	4.85
503.401	4.74
503.752	4.6
504.102	4.65
504.452	4.71
504.803	4.73
505.153	4.75
505.503	4.76
505.853	4.71
506.203	4.81
506.553	4.79
506.903	4.73
507.253	4.67
507.603	4.69
507.953	4.68
508.303	4.77
508.652	4.71
509.002	4.85
509.352	4.73
509.701	4.6
510.051	4.66
510.4	4.71
510.75	4.67
511.099	4.7
511.449	4.54
511.798	4.65
512.147	4.73
512.496	4.62
512.846	4.59
513.195	4.62
513.544	4.67
513.893	4.65
514.242	4.64
514.591	4.52
514.939	4.68
515.288	4.61
515.637	4.68
515.986	4.72
516.334	4.69
516.683	4.6
517.032	4.76
517.38	4.71
517.729	4.84
518.077	4.74
518.426	4.61
518.774	4.69
519.122	4.56
519.47	4.63
519.819	4.66
520.167	4.66
520.515	4.53
520.863	4.52
521.211	4.52
521.559	4.6
521.907	4.57
522.255	4.67
522.602	4.7
522.95	4.69
523.298	4.69
523.645	4.59
523.993	4.69
524.341	4.67
524.688	4.78
525.036	4.67
525.383	4.81
525.73	4.72
526.078	4.65
526.425	4.73
526.772	4.55
527.119	4.59
527.466	4.61
527.814	4.51
528.161	4.44
528.508	4.64
528.854	4.47
529.201	4.47
529.548	4.51
529.895	4.38
530.242	4.32
530.588	4.32
530.935	4.31
531.282	4.41
531.628	4.4
531.975	4.49
532.321	4.56
532.667	4.58
533.014	4.59
533.36	4.59
533.706	4.63
534.052	4.55
534.399	4.56
534.745	4.42
535.091	4.35
535.437	4.37
535.783	4.41
536.129	4.55
536.474	4.54
536.82	4.55
537.166	4.58
537.512	4.56
537.857	4.46
538.203	4.32
538.549	4.49
538.894	4.4
539.239	4.49
539.585	4.52
539.93	4.54
540.276	4.54
540.621	4.61
540.966	4.6
541.311	4.42
541.656	4.58
542.001	4.52
542.346	4.48
542.691	4.5
543.036	4.3
543.381	4.3
543.726	4.37
544.071	4.43
544.415	4.42
544.76	4.44
545.105	4.4
545.449	4.51
545.794	4.5
546.138	4.44
546.483	4.53
546.827	4.44
547.171	4.5
547.516	4.44
547.86	4.51
548.204	4.53
548.548	4.42
548.892	4.42
549.236	4.41
549.58	4.51
549.924	4.57
550.268	4.6
550.612	4.46
550.956	4.66
551.3	4.52
551.643	4.67
551.987	4.4
552.33	4.58
552.674	4.47
553.017	4.69
553.361	4.67
553.704	4.6
554.048	4.59
554.391	4.36
554.734	4.59
555.077	4.59
555.42	4.68
555.764	4.75
556.107	4.65
556.45	4.62
556.793	4.61
557.135	4.63
557.478	4.47
557.821	4.63
558.164	4.69
558.507	4.48
558.849	4.53
559.192	4.74
559.534	4.58
559.877	4.63
560.219	4.47
560.562	4.52
560.904	4.72
561.246	4.58
561.589	4.67
561.931	4.54
562.273	4.55
562.615	4.41
562.957	4.5
563.299	4.52
563.641	4.45
563.983	4.58
564.325	4.5
564.667	4.42
565.008	4.39
565.35	4.54
565.692	4.73
566.033	4.6
566.375	4.62
566.716	4.45
567.058	4.48
567.399	4.66
567.741	4.57
568.082	4.47
568.423	4.46
568.764	4.4
569.105	4.35
569.447	4.64
569.788	4.5
570.129	4.56
570.47	4.52
570.811	4.57
571.151	4.52
571.492	4.61
571.833	4.55
572.174	4.54
572.514	4.46
572.855	4.19
573.195	4.45
573.536	4.44
573.876	4.36
574.217	4.33
574.557	4.35
574.898	4.49
575.238	4.33
575.578	4.78
575.918	4.47
576.258	4.49
576.598	4.65
576.938	4.61
577.278	4.42
577.618	4.41
577.958	4.43
578.298	4.58
578.638	4.46
578.977	4.39
579.317	4.55
579.657	4.36
579.996	4.59
580.336	4.46
580.675	4.37
581.014	4.68
581.354	4.4
581.693	4.5
582.032	4.33
582.372	4.78
582.711	4.42
583.05	4.47
583.389	4.45
583.728	4.39
584.067	4.6
584.406	4.38
584.745	4.63
585.083	4.37
585.422	4.63
585.761	4.4
586.1	4.31
586.438	4.26
586.777	4.28
587.115	4.25
587.454	4.55
587.792	4.58
588.13	4.45
588.469	4.64
588.807	4.46
589.145	4.46
589.483	4.28
589.821	4.27
590.159	4.3
590.497	4.62
590.835	4.28
591.173	4.4
591.511	4.5
591.849	4.34
592.187	4.36
592.524	4.36
592.862	4.37
593.2	4.53
593.537	4.35
593.875	4.51
594.212	4.44
594.55	4.34
594.887	4.4
595.224	4.69
595.561	4.11
595.899	4.37
596.236	4.36
596.573	4.36
596.91	4.48
597.247	4.35
597.584	4.2
597.921	4.54
598.258	4.38
598.594	3.87
598.931	4.31
599.268	4.3
599.604	4.28
599.941	4.48
600.277	4.23
600.614	4.45
600.95	4.52
601.287	4.22
601.623	4.45
601.959	4.33
602.296	4.23
602.632	4.14
602.968	4.17
603.304	4.16
603.64	4.38
603.976	4.12
604.312	4.3
604.648	4.41
604.984	4.17
605.319	4.16
605.655	4.3
605.991	4.52
606.326	4.21
606.662	4.12
606.998	4.09
607.333	4.19
607.668	4.34
608.004	4.29
608.339	4.28
608.674	4.37
609.01	4.36
609.345	4.38
609.68	4.32
610.015	4.47
610.35	4.17
610.685	4.47
611.02	4.32
611.355	4.26
611.689	4.35
612.024	4.14
612.359	4.1
612.694	4.19
613.028	4.46
613.363	4.57
613.697	4.38
614.032	4.34
614.366	4.42
614.7	4.22
615.035	4.37
615.369	4.25
615.703	4.59
616.037	4.22
616.371	4.31
616.705	4.34
617.039	4.33
617.373	4.27
617.707	4.71
618.041	4.34
618.375	4.43
618.709	4.23
619.042	4.35
619.376	4.28
619.71	4.19
620.043	4.48
620.377	4.67
620.71	4.44
621.043	4.43
621.377	4.21
621.71	4.65
622.043	4.49
622.376	4.25
622.709	4.36
623.043	4.07
623.376	4.74
623.709	3.9
624.041	4.37
624.374	4.23
624.707	4.13
625.04	4.39
625.373	4.35
625.705	4.25
626.038	4.1
626.37	4.23
626.703	4.6
627.035	4.35
627.368	4.58
627.7	4.28
628.032	4.19
628.365	4.37
628.697	4.1
629.029	4.07
629.361	4.29
629.693	4.35
630.025	4.35
630.357	4.34
630.689	4.36
631.021	4.06
631.353	4.43
631.684	4.44
632.016	4.15
632.348	3.83
632.679	4.36
633.011	4.12
633.342	4.53
633.674	4.31
634.005	4.17
634.336	4.36
634.668	4.32
634.999	4.51
635.33	3.79
635.661	4.05
635.992	4.34
636.323	4.17
636.654	4.12
636.985	4.27
637.316	4.21
637.647	4.13
637.977	4.4
638.308	4.36
638.639	4.47
638.969	3.83
639.3	4.52
639.63	4.35
639.961	4.47
640.291	4.3
640.622	4.54
640.952	4.2
641.282	4.31
641.612	4.01
641.943	4.08
642.273	4.29
642.603	4.36
642.933	4.28
643.263	4.3
643.592	4.1
643.922	4.84
644.252	4.63
644.582	4.42
644.911	4.22
645.241	4.07
645.571	4.19
645.9	4.7
646.23	4.5
646.559	4.43
646.888	4.27
647.218	4.39
647.547	4.43
647.876	4.9
648.205	3.84
648.534	4.4
648.863	4.46
649.192	4.29
649.521	4.27
649.85	4.02
650.179	4.1
650.508	4.05
650.837	4.61
651.165	4.31
651.494	4.39
651.822	4.33
652.151	4.84
652.479	4.07
652.808	3.91
653.136	4.14
653.465	4.09
653.793	4.41
654.121	3.67
654.449	3.83
654.777	4.12
655.105	4.31
655.433	4.12
655.761	4.17
656.089	4.34
656.417	4.28
656.745	4.15
657.073	4.17
657.4	4.33
657.728	4.49
658.056	3.75
658.383	4.34
658.711	4.41
659.038	4.21
659.365	4.8
659.693	4.66
660.02	4.52
660.347	4.2
660.674	4.05
661.001	4.25
661.329	4.36
661.656	4.37
661.982	3.79
662.309	4.26
662.636	4.06
662.963	3.82
663.29	4.41
663.616	4.3
663.943	4.55
664.27	4.47
664.596	4.33
664.923	4.19
665.249	4.51
665.576	4.55
665.902	3.79
666.228	3.58
666.554	4.6
666.881	4.18
667.207	4.32
667.533	4.73
667.859	4.29
668.185	3.84
668.511	4.47
668.837	4.26
669.162	4.61
669.488	3.99
669.814	4.23
670.139	4.1
670.465	4.57
670.791	4.5
671.116	4.08
671.442	4.38
671.767	4.05
672.092	4.13
672.418	4.32
672.743	4.33
673.068	4.54
673.393	4.33
673.718	4.4
674.043	3.94
674.368	3.77
674.693	4.14
675.018	4.42
675.343	4.78
675.667	4.56
675.992	4.42
676.317	4.51
676.641	4.42
676.966	3.44
677.29	4.08
677.615	4.57
677.939	4.63
678.264	4.55
678.588	4.01
678.912	4.85
679.236	4.22
679.56	4.32
679.885	4.36
680.209	4.86
680.532	4.09
680.856	4.28
681.18	4.17
681.504	4.61
681.828	4.05
682.152	4.74
682.475	3.99
682.799	4.83
683.122	4.46
683.446	4.19
683.769	4.19
684.093	4.58
684.416	3.87
684.739	4.31
685.062	5.02
685.386	3.61
685.709	4.66
686.032	4.59
686.355	5.3
686.678	4.21
687.001	4.48
687.324	4.91
687.646	4.68
687.969	4.38
688.292	3.94
688.614	4.96
688.937	4.49
689.26	4.12
689.582	5.21
689.904	4.37
690.227	4.54
690.549	4.41
690.871	4.44
691.194	4.83
691.516	4.45
691.838	4.37
692.16	4.81
692.482	4.39
692.804	4.38
