Data from 0045_crown_Reflection__4__160.txt Node

Date: Fri Nov 04 16:08:39 CDT 2022
User: ToomeyLab
Spectrometer: FLMS14357
Trigger mode: 0
Integration Time (sec): 1.000000E-2
Scans to average: 100
Electric dark correction enabled: true
Nonlinearity correction enabled: false
Boxcar width: 0
XAxis mode: Wavelengths
Number of Pixels in Spectrum: 2048
>>>>>Begin Spectral Data<<<<<
189.047	-72.25
189.435	-72.25
189.823	-72.25
190.211	29.85
190.599	-14.02
190.987	1113.45
191.375	103.37
191.763	92.75
192.151	39.99
192.538	-50.13
192.926	372.5
193.314	134.73
193.702	91.19
194.089	160.38
194.477	43.53
194.864	80.95
195.252	450.21
195.639	-0.63
196.027	-24.15
196.414	194.24
196.801	85.31
197.189	-126.72
197.576	77.63
197.963	29.57
198.351	-22.43
198.738	3.28
199.125	29.56
199.512	-0.42
199.899	-0.18
200.286	-41.36
200.673	-14.59
201.06	-8.33
201.447	-13.03
201.833	11.96
202.22	-19.46
202.607	-22.31
202.994	38.79
203.38	15.31
203.767	-15.75
204.154	43.59
204.54	-79.77
204.927	-5.58
205.313	26.79
205.699	44.88
206.086	10.76
206.472	-23.09
206.858	-24.15
207.245	17.97
207.631	9.48
208.017	-4.23
208.403	12.4
208.789	38.62
209.175	-10.28
209.561	41.79
209.947	-110.32
210.333	1.64
210.719	-9.09
211.105	-69.34
211.491	25.33
211.876	20.24
212.262	22.02
212.648	-22.35
213.034	13.74
213.419	5.69
213.805	14.3
214.19	-18.37
214.576	-7.93
214.961	22.63
215.346	35.08
215.732	19.62
216.117	-25.41
216.502	-18.66
216.888	-29.58
217.273	14.24
217.658	55.28
218.043	4.04
218.428	23.44
218.813	14.17
219.198	8.46
219.583	-21.06
219.968	33.3
220.353	-22.63
220.738	-33.56
221.122	12.9
221.507	14.23
221.892	-40.23
222.276	-4.82
222.661	-0.65
223.046	5.5
223.43	10.61
223.815	0.69
224.199	10.29
224.583	7.28
224.968	-4.5
225.352	3.04
225.736	-2.54
226.121	-13.31
226.505	12.5
226.889	0.77
227.273	6.44
227.657	0.4
228.041	8.14
228.425	7.37
228.809	3.42
229.193	7.12
229.577	1.51
229.961	5.56
230.344	5.8
230.728	4.93
231.112	5.4
231.495	5.77
231.879	6.37
232.263	5.22
232.646	4.46
233.03	4.94
233.413	3.23
233.797	4.22
234.18	5.05
234.563	5.35
234.946	4.15
235.33	5.8
235.713	4.62
236.096	5.48
236.479	4.13
236.862	5.19
237.245	3.03
237.628	6.04
238.011	2.88
238.394	5.64
238.777	3.58
239.16	4.86
239.543	2.73
239.925	5.7
240.308	5.8
240.691	4.94
241.073	5.64
241.456	6.19
241.838	3.88
242.221	5.32
242.603	5.76
242.986	5.24
243.368	6
243.75	5.05
244.133	5.27
244.515	5.17
244.897	5.12
245.279	4.6
245.661	5.07
246.043	6.11
246.425	4.51
246.807	5.33
247.189	4.4
247.571	4.96
247.953	5.13
248.335	4.95
248.717	5.08
249.098	4.99
249.48	5.1
249.862	5.4
250.243	5.08
250.625	4.71
251.006	5.15
251.388	5.18
251.769	5.44
252.151	6.16
252.532	4.97
252.913	4.81
253.295	5.76
253.676	4.8
254.057	4.73
254.438	4.47
254.819	5.03
255.2	4.46
255.581	3.99
255.962	6.05
256.343	3.94
256.724	5.75
257.105	4.5
257.486	4.73
257.867	7.61
258.247	5.81
258.628	4.4
259.009	3.68
259.389	4.42
259.77	5.49
260.15	4.94
260.531	4.88
260.911	4.68
261.292	4.59
261.672	4.69
262.052	4.67
262.432	4.82
262.813	4.7
263.193	4.18
263.573	4.94
263.953	5.1
264.333	4.94
264.713	5.37
265.093	4.53
265.473	4.76
265.853	4.11
266.233	5.02
266.612	4.78
266.992	5.05
267.372	3.48
267.752	3.78
268.131	4.83
268.511	4.98
268.89	4.86
269.27	4.6
269.649	4.38
270.029	4.1
270.408	4.62
270.787	4.8
271.167	5.25
271.546	5.16
271.925	4.7
272.304	4.51
272.683	4.31
273.062	4.46
273.441	4.55
273.82	4.63
274.199	4.37
274.578	4.32
274.957	4.15
275.336	4.36
275.715	4.46
276.093	4.68
276.472	4.44
276.851	4.42
277.229	4.42
277.608	4.17
277.986	4.65
278.365	4.72
278.743	4.79
279.122	4.3
279.5	4.5
279.878	4.24
280.257	4.29
280.635	4.04
281.013	3.76
281.391	4.85
281.769	4.17
282.147	4
282.525	4.35
282.903	4.29
283.281	4.72
283.659	4.11
284.037	4.29
284.415	4.42
284.792	4.64
285.17	3.66
285.548	4.52
285.925	4.54
286.303	4.36
286.68	4.39
287.058	4.07
287.435	3.94
287.813	4.1
288.19	4.21
288.567	4.1
288.945	4.25
289.322	3.99
289.699	4.27
290.076	4.44
290.453	3.86
290.83	4.12
291.207	3.96
291.584	4.02
291.961	4.14
292.338	4.32
292.715	3.9
293.092	4.15
293.469	4.01
293.845	3.95
294.222	3.71
294.599	3.73
294.975	4.32
295.352	4.07
295.728	4.28
296.105	3.59
296.481	3.58
296.858	3.86
297.234	4.31
297.61	4.44
297.986	3.68
298.363	3.81
298.739	3.93
299.115	3.95
299.491	3.97
299.867	3.85
300.243	3.86
300.619	4.12
300.995	4.17
301.371	4.44
301.746	4.08
302.122	4.32
302.498	4.3
302.874	4.32
303.249	3.36
303.625	3.79
304	3.89
304.376	3.6
304.751	3.77
305.127	3.55
305.502	4.17
305.878	4.13
306.253	4.06
306.628	3.59
307.003	3.77
307.378	4.27
307.754	4.06
308.129	3.38
308.504	3.68
308.879	3.73
309.254	3.58
309.629	3.98
310.003	3.72
310.378	3.76
310.753	3.72
311.128	3.68
311.502	3.32
311.877	3.98
312.252	3.79
312.626	3.52
313.001	3.94
313.375	3.76
313.75	3.71
314.124	3.35
314.498	3.71
314.873	4.2
315.247	3.98
315.621	4.01
315.995	4.06
316.369	3.41
316.743	3.79
317.117	3.7
317.491	3.99
317.865	3.93
318.239	3.31
318.613	3.93
318.987	3.85
319.361	3.73
319.734	4.2
320.108	3.81
320.482	2.76
320.855	3.85
321.229	3.68
321.602	3.88
321.976	3.96
322.349	3.85
322.723	3.4
323.096	3.68
323.469	3.56
323.843	3.74
324.216	3.83
324.589	3.81
324.962	4.01
325.335	3.92
325.708	3.77
326.081	3.96
326.454	3.62
326.827	3.8
327.2	3.8
327.573	3.79
327.945	4.04
328.318	3.46
328.691	3.79
329.063	3.63
329.436	3.72
329.809	3.35
330.181	3.65
330.553	3.45
330.926	3.67
331.298	4.03
331.671	3.6
332.043	3.42
332.415	3.28
332.787	3.3
333.159	3.06
333.532	3.3
333.904	3.95
334.276	3.61
334.648	4.09
335.02	3.67
335.391	3.7
335.763	3.66
336.135	3.64
336.507	3.4
336.879	3.81
337.25	3.71
337.622	3.84
337.993	3.81
338.365	3.52
338.736	3.84
339.108	4.28
339.479	3.86
339.851	3.69
340.222	3.33
340.593	3.54
340.964	3.62
341.336	3.77
341.707	3.45
342.078	3.96
342.449	3.89
342.82	3.75
343.191	3.68
343.562	3.71
343.933	4.04
344.303	4.06
344.674	3.78
345.045	3.44
345.416	3.47
345.786	4.05
346.157	4.03
346.527	3.82
346.898	3.87
347.268	3.45
347.639	3.51
348.009	4.26
348.38	3.89
348.75	3.69
349.12	3.39
349.49	3.7
349.861	3.86
350.231	4.13
350.601	3.8
350.971	4.05
351.341	4.03
351.711	3.66
352.081	3.97
352.45	3.81
352.82	3.8
353.19	4.13
353.56	4.34
353.929	4.03
354.299	4.45
354.669	4.07
355.038	4.38
355.408	3.84
355.777	3.66
356.147	3.62
356.516	3.95
356.885	3.84
357.254	4.19
357.624	3.83
357.993	4.04
358.362	3.78
358.731	3.83
359.1	4.17
359.469	4.07
359.838	3.88
360.207	4.06
360.576	4.13
360.945	4.31
361.314	4.26
361.682	4.11
362.051	4.03
362.42	4.08
362.788	3.95
363.157	3.87
363.525	3.97
363.894	3.93
364.262	4.12
364.631	4.22
364.999	3.91
365.367	3.87
365.735	4.15
366.104	3.87
366.472	4.12
366.84	3.8
367.208	4.18
367.576	3.82
367.944	4.24
368.312	4.21
368.68	4.07
369.048	4.12
369.416	4.07
369.783	4.02
370.151	4.1
370.519	4.68
370.886	3.81
371.254	4.22
371.621	4.26
371.989	4.26
372.356	4.35
372.724	4.29
373.091	4.15
373.458	4.38
373.826	4.15
374.193	4.3
374.56	4.05
374.927	4.54
375.294	4.22
375.661	4.4
376.028	4.12
376.395	4.57
376.762	4.46
377.129	4.11
377.496	4.35
377.863	4.29
378.229	4.15
378.596	4.15
378.963	4.22
379.329	3.93
379.696	4.07
380.062	4.28
380.429	4.32
380.795	4.32
381.161	4.17
381.528	4.2
381.894	4.17
382.26	4.6
382.626	4.17
382.993	4.42
383.359	4.22
383.725	4.43
384.091	4.43
384.457	4.51
384.823	4.37
385.188	4.59
385.554	4.5
385.92	4.33
386.286	4.32
386.651	4.26
387.017	4.32
387.383	4.26
387.748	4.46
388.114	4.19
388.479	4.86
388.845	4.42
389.21	4.5
389.575	4.88
389.94	4.4
390.306	4.54
390.671	4.47
391.036	4.64
391.401	4.66
391.766	4.29
392.131	4.25
392.496	4.43
392.861	4.71
393.226	4.38
393.591	4.57
393.956	4.63
394.32	4.54
394.685	4.78
395.05	4.83
395.414	4.51
395.779	4.61
396.143	4.54
396.508	4.72
396.872	4.49
397.236	4.68
397.601	4.37
397.965	4.64
398.329	4.68
398.694	4.81
399.058	4.65
399.422	4.6
399.786	4.53
400.15	4.69
400.514	4.57
400.878	4.6
401.242	4.71
401.605	4.63
401.969	4.94
402.333	4.71
402.697	4.76
403.06	4.89
403.424	4.86
403.787	4.79
404.151	4.94
404.514	4.94
404.878	4.8
405.241	4.69
405.604	5.1
405.968	4.85
406.331	4.63
406.694	4.82
407.057	4.76
407.42	4.71
407.783	4.73
408.146	4.64
408.509	4.73
408.872	5.02
409.235	5
409.598	4.7
409.961	4.93
410.323	4.84
410.686	4.61
411.049	4.85
411.411	4.99
411.774	4.99
412.136	4.86
412.499	4.98
412.861	5.17
413.223	4.99
413.586	5.01
413.948	5.21
414.31	4.94
414.672	5.09
415.035	5.24
415.397	4.92
415.759	5.23
416.121	4.81
416.483	5.01
416.845	5.12
417.206	4.8
417.568	4.98
417.93	5.02
418.292	4.75
418.653	5.03
419.015	4.94
419.377	5.11
419.738	5.06
420.1	5.03
420.461	4.94
420.822	4.89
421.184	4.95
421.545	4.85
421.906	5
422.267	4.83
422.629	5.01
422.99	4.89
423.351	4.69
423.712	4.94
424.073	5.03
424.434	4.84
424.795	5.04
425.155	4.99
425.516	5.06
425.877	4.91
426.238	4.91
426.598	4.94
426.959	4.95
427.32	5.1
427.68	4.99
428.041	5.08
428.401	5.27
428.761	5.23
429.122	5.17
429.482	5.14
429.842	5.03
430.202	5.3
430.563	5.22
430.923	5.34
431.283	5.03
431.643	5.29
432.003	5.43
432.363	5.39
432.722	5.29
433.082	5.34
433.442	5.05
433.802	5.21
434.161	5.16
434.521	5.14
434.881	5.3
435.24	5.1
435.6	5.34
435.959	5.2
436.319	5.11
436.678	5.34
437.037	5.29
437.396	5.45
437.756	5.44
438.115	5.13
438.474	5.33
438.833	5.36
439.192	5.31
439.551	5.18
439.91	5.32
440.269	5.21
440.628	5.39
440.987	5.35
441.345	5.32
441.704	5.31
442.063	5.15
442.421	5.24
442.78	5.36
443.138	5.33
443.497	5.2
443.855	5.15
444.214	5.42
444.572	5.44
444.93	5.39
445.288	5.43
445.647	5.4
446.005	5.31
446.363	5.4
446.721	5.29
447.079	5.26
447.437	5.21
447.795	5.29
448.153	5.2
448.51	5.34
448.868	5.27
449.226	5.25
449.584	5.31
449.941	5.37
450.299	5.45
450.656	5.42
451.014	5.35
451.371	5.55
451.729	5.55
452.086	5.48
452.443	5.56
452.801	5.6
453.158	5.55
453.515	5.69
453.872	5.52
454.229	5.64
454.586	5.43
454.943	5.58
455.3	5.51
455.657	5.51
456.014	5.64
456.371	5.58
456.727	5.66
457.084	5.63
457.441	5.56
457.797	5.56
458.154	5.57
458.51	5.7
458.867	5.64
459.223	5.82
459.58	5.94
459.936	5.46
460.292	5.43
460.648	5.45
461.005	5.48
461.361	5.55
461.717	5.52
462.073	5.51
462.429	5.64
462.785	5.65
463.141	5.62
463.496	5.56
463.852	5.54
464.208	5.63
464.564	5.68
464.919	5.83
465.275	5.74
465.631	5.78
465.986	5.85
466.342	5.68
466.697	5.66
467.052	5.67
467.408	5.77
467.763	5.63
468.118	5.87
468.473	5.72
468.829	5.69
469.184	5.71
469.539	5.71
469.894	5.81
470.249	5.68
470.603	5.84
470.958	5.73
471.313	5.86
471.668	5.61
472.023	5.71
472.377	5.75
472.732	5.78
473.086	5.74
473.441	5.71
473.795	5.84
474.15	5.76
474.504	5.94
474.859	5.82
475.213	5.94
475.567	5.73
475.921	5.77
476.275	5.85
476.63	5.85
476.984	5.96
477.338	5.86
477.692	5.82
478.045	5.9
478.399	5.63
478.753	5.81
479.107	5.86
479.461	5.79
479.814	5.92
480.168	5.96
480.521	5.63
480.875	5.91
481.228	5.99
481.582	5.78
481.935	5.86
482.289	5.8
482.642	5.8
482.995	5.87
483.348	5.75
483.701	5.87
484.055	5.69
484.408	5.78
484.761	5.77
485.114	5.53
485.466	5.41
485.819	5.36
486.172	5.37
486.525	5.5
486.878	5.62
487.23	5.81
487.583	5.72
487.936	5.84
488.288	5.76
488.641	5.69
488.993	5.55
489.345	5.56
489.698	5.55
490.05	5.56
490.402	5.57
490.754	5.68
491.107	5.75
491.459	5.88
491.811	5.86
492.163	5.87
492.515	5.91
492.866	5.77
493.218	5.62
493.57	5.58
493.922	5.64
494.274	5.6
494.625	5.81
494.977	5.85
495.328	5.91
495.68	5.94
496.031	5.94
496.383	5.94
496.734	5.88
497.086	6.07
497.437	6.07
497.788	6.11
498.139	5.85
498.49	5.86
498.842	5.85
499.193	5.92
499.544	5.94
499.894	6
500.245	5.99
500.596	5.9
500.947	5.88
501.298	6.06
501.648	6.19
501.999	6.18
502.35	6.05
502.7	5.94
503.051	6.14
503.401	6.03
503.752	6.05
504.102	6.04
504.452	6.02
504.803	6.1
505.153	6.06
505.503	6.04
505.853	6.09
506.203	5.96
506.553	6.12
506.903	6
507.253	6.08
507.603	5.88
507.953	5.99
508.303	6.05
508.652	6.02
509.002	6.16
509.352	6.11
509.701	5.89
510.051	6.01
510.4	5.92
510.75	5.94
511.099	5.92
511.449	5.97
511.798	5.96
512.147	5.95
512.496	5.88
512.846	5.99
513.195	6.15
513.544	5.94
513.893	6.08
514.242	6.03
514.591	5.89
514.939	6.04
515.288	6
515.637	6.03
515.986	6.1
516.334	5.96
516.683	6.04
517.032	6.09
517.38	6.07
517.729	6.06
518.077	6.19
518.426	6.02
518.774	6.16
519.122	5.99
519.47	5.99
519.819	5.83
520.167	5.97
520.515	5.87
520.863	5.85
521.211	5.9
521.559	5.99
521.907	5.91
522.255	6.09
522.602	6.13
522.95	6.05
523.298	6.1
523.645	6.11
523.993	6.13
524.341	6.03
524.688	6.07
525.036	6.07
525.383	6.14
525.73	6.04
526.078	6
526.425	6.09
526.772	5.89
527.119	6
527.466	5.87
527.814	5.85
528.161	5.83
528.508	5.95
528.854	5.92
529.201	5.93
529.548	5.93
529.895	5.82
530.242	5.7
530.588	5.6
530.935	5.67
531.282	5.75
531.628	5.79
531.975	5.92
532.321	5.96
532.667	5.95
533.014	6.09
533.36	6.04
533.706	5.99
534.052	6.04
534.399	5.91
534.745	5.87
535.091	5.79
535.437	5.77
535.783	5.81
536.129	5.91
536.474	5.97
536.82	6.02
537.166	6.12
537.512	6.12
537.857	5.97
538.203	5.94
538.549	5.74
538.894	5.88
539.239	5.96
539.585	5.95
539.93	6.03
540.276	6.11
540.621	6.15
540.966	6.19
541.311	5.94
541.656	6.1
542.001	6.1
542.346	5.92
542.691	5.8
543.036	5.75
543.381	5.67
543.726	5.8
544.071	5.79
544.415	5.83
544.76	5.89
545.105	5.93
545.449	5.9
545.794	5.98
546.138	5.98
546.483	6.07
546.827	5.99
547.171	6.03
547.516	6.05
547.86	5.97
548.204	6.03
548.548	5.97
548.892	5.87
549.236	6.07
549.58	6.03
549.924	6.05
550.268	6.22
550.612	6.08
550.956	6.12
551.3	6.14
551.643	6.22
551.987	6
552.33	6.22
552.674	6.18
553.017	6.27
553.361	6.25
553.704	6.13
554.048	6.18
554.391	6
554.734	6.05
555.077	6.03
555.42	6.05
555.764	6.3
556.107	6.1
556.45	6.19
556.793	6.14
557.135	6.17
557.478	6.01
557.821	6.22
558.164	6.17
558.507	5.97
558.849	6.24
559.192	6.19
559.534	6.15
559.877	6.25
560.219	6.23
560.562	6.14
560.904	6.36
561.246	6.18
561.589	6.14
561.931	6.14
562.273	6.16
562.615	6.08
562.957	6.33
563.299	6.35
563.641	6.19
563.983	6.02
564.325	6.12
564.667	6.13
565.008	6.25
565.35	6.17
565.692	6.27
566.033	6.2
566.375	6.2
566.716	6.06
567.058	6.16
567.399	6.28
567.741	6.17
568.082	6.07
568.423	6.04
568.764	6.04
569.105	6.11
569.447	6.15
569.788	6.11
570.129	6.1
570.47	6.16
570.811	6.32
571.151	6.26
571.492	6.08
571.833	6.12
572.174	6.18
572.514	6.17
572.855	6.08
573.195	6.08
573.536	6.03
573.876	5.98
574.217	5.98
574.557	6.1
574.898	6.08
575.238	6.05
575.578	6.31
575.918	6.24
576.258	6.12
576.598	6.13
576.938	6.2
577.278	5.95
577.618	6.07
577.958	6.09
578.298	6.11
578.638	6.23
578.977	6.28
579.317	6.3
579.657	6.13
579.996	6.11
580.336	6.1
580.675	5.96
581.014	6.5
581.354	6.32
581.693	6.4
582.032	6.11
582.372	6.4
582.711	6.11
583.05	6.45
583.389	6.01
583.728	6.11
584.067	6.31
584.406	6.1
584.745	6.24
585.083	6.12
585.422	6.36
585.761	6.24
586.1	6.31
586.438	6.05
586.777	6.22
587.115	6.39
587.454	6.39
587.792	6.51
588.13	6.21
588.469	6.21
588.807	6.36
589.145	6.28
589.483	5.82
589.821	6.43
590.159	6.18
590.497	6.06
590.835	6.17
591.173	6.2
591.511	6.25
591.849	6.3
592.187	6.11
592.524	6.15
592.862	6.26
593.2	6.25
593.537	6.16
593.875	6.27
594.212	6.04
594.55	6.03
594.887	6.16
595.224	6.4
595.561	5.97
595.899	6.32
596.236	6.34
596.573	6.35
596.91	6.26
597.247	6.2
597.584	6.05
597.921	6.42
598.258	6.18
598.594	5.8
598.931	6.06
599.268	6.1
599.604	6.1
599.941	6.21
600.277	6.32
600.614	6.23
600.95	6.31
601.287	6.05
601.623	6.29
601.959	6.05
602.296	6.03
602.632	6.18
602.968	6.36
603.304	6.23
603.64	6.14
603.976	5.94
604.312	5.91
604.648	6.09
604.984	6.31
605.319	6.04
605.655	5.99
605.991	6.12
606.326	6.26
606.662	5.99
606.998	6.05
607.333	5.99
607.668	6.14
608.004	6.16
608.339	6.11
608.674	6.35
609.01	6.25
609.345	6.56
609.68	6.35
610.015	6.16
610.35	6
610.685	6.22
611.02	6.19
611.355	6.21
611.689	6.28
612.024	6.11
612.359	6.03
612.694	6.29
613.028	6.35
613.363	6.43
613.697	6.23
614.032	6.23
614.366	6.14
614.7	6.26
615.035	6.02
615.369	5.99
615.703	6.38
616.037	5.99
616.371	6.38
616.705	6.34
617.039	6.49
617.373	6.4
617.707	6.38
618.041	6.24
618.375	6.18
618.709	6.6
619.042	6.45
619.376	6.16
619.71	6.25
620.043	6.52
620.377	6.68
620.71	6.47
621.043	6.39
621.377	6.27
621.71	6.63
622.043	6.69
622.376	6.18
622.709	6.57
623.043	6.08
623.376	6.65
623.709	6.25
624.041	6.43
624.374	5.96
624.707	5.65
625.04	6.62
625.373	6.57
625.705	6.32
626.038	6.5
626.37	6.53
626.703	6.67
627.035	5.89
627.368	6.42
627.7	6.33
628.032	6.27
628.365	6.6
628.697	5.99
629.029	6.11
629.361	6.42
629.693	6.34
630.025	6.31
630.357	6.41
630.689	6.22
631.021	6.08
631.353	6.44
631.684	6.52
632.016	6.71
632.348	6.42
632.679	6.5
633.011	6.23
633.342	6.46
633.674	6.39
634.005	6.44
634.336	6.52
634.668	6.7
634.999	6.59
635.33	6.04
635.661	6.38
635.992	6.44
636.323	6.48
636.654	6.32
636.985	6.34
637.316	6.57
637.647	6.51
637.977	6.73
638.308	6.8
638.639	6.36
638.969	6.27
639.3	6.5
639.63	6.55
639.961	6.43
640.291	6.6
640.622	6.58
640.952	6.51
641.282	6.32
641.612	6.38
641.943	6.21
642.273	6.24
642.603	6.52
642.933	6.18
643.263	6.07
643.592	6.2
643.922	6.85
644.252	6.5
644.582	6.52
644.911	6.47
645.241	6.15
645.571	6.52
645.9	6.25
646.23	6.19
646.559	6.68
646.888	6.46
647.218	6.2
647.547	6.43
647.876	6.62
648.205	5.81
648.534	6.95
648.863	6.64
649.192	6.69
649.521	6.33
649.85	6.95
650.179	6.67
650.508	6.66
650.837	6.86
651.165	6.69
651.494	6.59
651.822	6.4
652.151	7.06
652.479	6.35
652.808	6.15
653.136	6.41
653.465	6.29
653.793	6.6
654.121	6.47
654.449	6.3
654.777	6.15
655.105	6.47
655.433	6.19
655.761	7
656.089	6.31
656.417	6.35
656.745	6.86
657.073	6.3
657.4	6.37
657.728	6.32
658.056	6.19
658.383	6.7
658.711	6.18
659.038	6.48
659.365	6.88
659.693	6.76
660.02	6.9
660.347	6.51
660.674	6.55
661.001	6.65
661.329	6.55
661.656	6.68
661.982	6.04
662.309	6.54
662.636	6.64
662.963	6.45
663.29	6.26
663.616	6.94
663.943	6.81
664.27	7.11
664.596	6.79
664.923	6.92
665.249	7.06
665.576	6.9
665.902	6.06
666.228	5.88
666.554	7.25
666.881	5.96
667.207	7.32
667.533	6.9
667.859	6.28
668.185	6.69
668.511	6.55
668.837	6.43
669.162	6.81
669.488	6.87
669.814	6.7
670.139	7.11
670.465	6.75
670.791	6.79
671.116	6.84
671.442	6.9
671.767	6.96
672.092	6.84
672.418	6.76
672.743	6.69
673.068	6.75
673.393	6.88
673.718	6.65
674.043	6.54
674.368	6.82
674.693	6.57
675.018	6.96
675.343	6.64
675.667	7.35
675.992	6.62
676.317	6.89
676.641	6.26
676.966	6.69
677.29	6.72
677.615	7.22
677.939	6.5
678.264	7.16
678.588	6.71
678.912	7.37
679.236	6.72
679.56	6.56
679.885	6.7
680.209	6.76
680.532	6.49
680.856	6.71
681.18	6.9
681.504	6.74
681.828	6.58
682.152	6.95
682.475	6.92
682.799	7
683.122	7.19
683.446	7.18
683.769	6.46
684.093	7.5
684.416	6.86
684.739	6.56
685.062	7.11
685.386	5.97
685.709	6.56
686.032	7.11
686.355	7.3
686.678	6.68
687.001	7.48
687.324	7.19
687.646	7.16
687.969	6.64
688.292	7.13
688.614	7.35
688.937	6.67
689.26	6.81
689.582	7.83
689.904	7.3
690.227	6.5
690.549	7.33
690.871	7.17
691.194	6.93
691.516	6.89
691.838	6.82
692.16	7.93
692.482	6.71
692.804	7.29
