Data from 0045_crown_Reflection__3__154.txt Node

Date: Fri Nov 04 16:05:56 CDT 2022
User: ToomeyLab
Spectrometer: FLMS14357
Trigger mode: 0
Integration Time (sec): 1.000000E-2
Scans to average: 100
Electric dark correction enabled: true
Nonlinearity correction enabled: false
Boxcar width: 0
XAxis mode: Wavelengths
Number of Pixels in Spectrum: 2048
>>>>>Begin Spectral Data<<<<<
189.047	98.78
189.435	98.78
189.823	98.78
190.211	48.41
190.599	285.41
190.987	-127.24
191.375	-51.61
191.763	401.11
192.151	-40.08
192.538	134.86
192.926	250.51
193.314	44.51
193.702	76.18
194.089	-24.82
194.477	116.01
194.864	175.4
195.252	398.68
195.639	62.33
196.027	-19.46
196.414	-18.39
196.801	48.15
197.189	-68.3
197.576	108.22
197.963	39.53
198.351	-50.87
198.738	3.64
199.125	-9.54
199.512	-27.28
199.899	6.53
200.286	-37.72
200.673	8.42
201.06	29.11
201.447	-39.4
201.833	6.46
202.22	12.88
202.607	-37.55
202.994	73.38
203.38	32.3
203.767	15.45
204.154	46.96
204.54	-52.61
204.927	-4.2
205.313	33.87
205.699	25.73
206.086	19.18
206.472	21.81
206.858	11.75
207.245	-1.49
207.631	-12.21
208.017	26.39
208.403	29.89
208.789	31.74
209.175	15.71
209.561	-65.69
209.947	-60.3
210.333	11.53
210.719	20.25
211.105	-4.39
211.491	29.32
211.876	27.24
212.262	-37.36
212.648	-23.31
213.034	37.19
213.419	-4.13
213.805	-52.76
214.19	-25.27
214.576	-11.97
214.961	15.03
215.346	9.19
215.732	9.77
216.117	-5.54
216.502	31.02
216.888	12.55
217.273	20.7
217.658	-14.16
218.043	-22.53
218.428	16.05
218.813	13.93
219.198	20.33
219.583	-16.95
219.968	2.89
220.353	-34.73
220.738	-40.56
221.122	-8.9
221.507	27.23
221.892	-9.91
222.276	-2.87
222.661	12.24
223.046	10.96
223.43	3.16
223.815	-3.59
224.199	13.41
224.583	7.08
224.968	-0.96
225.352	9.53
225.736	3.2
226.121	-4.02
226.505	3.37
226.889	5.4
227.273	4.61
227.657	1.6
228.041	9.26
228.425	5.9
228.809	7.64
229.193	4.76
229.577	2.51
229.961	5.91
230.344	5.71
230.728	5.04
231.112	4.54
231.495	5.18
231.879	6.07
232.263	5.79
232.646	5.32
233.03	3.7
233.413	4.21
233.797	4.29
234.18	3.5
234.563	4.28
234.946	3.01
235.33	5.97
235.713	4.21
236.096	5.05
236.479	4.35
236.862	3.83
237.245	2.76
237.628	5.56
238.011	2.35
238.394	5.13
238.777	5.85
239.16	6.81
239.543	3.49
239.925	3.98
240.308	4.89
240.691	4.13
241.073	4.63
241.456	4.93
241.838	4.38
242.221	4.2
242.603	4.49
242.986	4.09
243.368	4.75
243.75	4.66
244.133	4.95
244.515	4.85
244.897	5.06
245.279	4.7
245.661	5.16
246.043	4.85
246.425	4.56
246.807	5.43
247.189	4.99
247.571	5.55
247.953	5.26
248.335	4.54
248.717	4.64
249.098	4.58
249.48	4.7
249.862	4.83
250.243	4.68
250.625	4.41
251.006	4.62
251.388	4.74
251.769	4.57
252.151	4.52
252.532	5.21
252.913	3.69
253.295	5.16
253.676	4.44
254.057	4.27
254.438	4.67
254.819	4.29
255.2	4.31
255.581	4.19
255.962	4.77
256.343	4.42
256.724	4.5
257.105	3.19
257.486	4.93
257.867	6.17
258.247	5.1
258.628	3.96
259.009	4.06
259.389	5.04
259.77	4.94
260.15	4.48
260.531	4.43
260.911	4.35
261.292	4.31
261.672	4.27
262.052	4.36
262.432	4.32
262.813	4.24
263.193	3.72
263.573	4.28
263.953	3.9
264.333	3.85
264.713	4.66
265.093	4.21
265.473	4.12
265.853	3.81
266.233	3.21
266.612	5.58
266.992	4.86
267.372	3.71
267.752	4.15
268.131	4.64
268.511	4.33
268.89	4.23
269.27	4.25
269.649	4.37
270.029	4.38
270.408	4.11
270.787	4.93
271.167	4.22
271.546	4.71
271.925	4.28
272.304	4.15
272.683	3.76
273.062	4.21
273.441	4.83
273.82	4.01
274.199	4.39
274.578	4.2
274.957	4.18
275.336	3.76
275.715	4.11
276.093	4.42
276.472	4.07
276.851	3.79
277.229	4.11
277.608	3.72
277.986	3.74
278.365	4.46
278.743	4.55
279.122	4.15
279.5	4.01
279.878	3.98
280.257	4.03
280.635	3.42
281.013	3.9
281.391	3.88
281.769	4.03
282.147	3.3
282.525	4.5
282.903	3.91
283.281	4.48
283.659	3.68
284.037	3.88
284.415	4.01
284.792	3.8
285.17	3.87
285.548	4.29
285.925	4.25
286.303	4.17
286.68	4.38
287.058	3.94
287.435	3.6
287.813	3.79
288.19	3.85
288.567	4.07
288.945	3.9
289.322	4.23
289.699	3.99
290.076	4.07
290.453	3.79
290.83	4.1
291.207	3.83
291.584	4.11
291.961	4.14
292.338	4.05
292.715	4.19
293.092	4.03
293.469	3.9
293.845	3.92
294.222	4.04
294.599	3.77
294.975	3.65
295.352	3.86
295.728	4.24
296.105	3.96
296.481	4.13
296.858	4.03
297.234	4.25
297.61	4.53
297.986	4.04
298.363	3.54
298.739	3.86
299.115	3.9
299.491	3.85
299.867	3.9
300.243	3.76
300.619	3.86
300.995	4.09
301.371	4.71
301.746	4.24
302.122	4.3
302.498	3.85
302.874	4.07
303.249	3.74
303.625	3.97
304	4.19
304.376	3.71
304.751	4.19
305.127	3.83
305.502	4.06
305.878	4.05
306.253	4.13
306.628	3.62
307.003	3.89
307.378	3.89
307.754	4.18
308.129	3.65
308.504	3.61
308.879	3.88
309.254	4.44
309.629	3.95
310.003	3.84
310.378	4.18
310.753	4.35
311.128	3.69
311.502	3.54
311.877	4.13
312.252	3.55
312.626	3.72
313.001	3.78
313.375	4.01
313.75	3.77
314.124	3.94
314.498	4.16
314.873	4.06
315.247	3.82
315.621	4.15
315.995	4.18
316.369	3.91
316.743	4.09
317.117	3.82
317.491	3.64
317.865	3.58
318.239	3.81
318.613	4.33
318.987	3.8
319.361	4.16
319.734	4.3
320.108	4.23
320.482	3.43
320.855	3.72
321.229	4.62
321.602	3.9
321.976	3.27
322.349	4.9
322.723	3.95
323.096	3.72
323.469	3.88
323.843	3.81
324.216	4.32
324.589	4.04
324.962	4.1
325.335	3.98
325.708	3.61
326.081	4.07
326.454	3.87
326.827	4.16
327.2	3.83
327.573	3.78
327.945	4.47
328.318	3.87
328.691	3.78
329.063	3.48
329.436	3.94
329.809	3.57
330.181	3.81
330.553	3.82
330.926	4.17
331.298	4.18
331.671	3.44
332.043	3.68
332.415	3.8
332.787	3.42
333.159	3.41
333.532	3.67
333.904	4.72
334.276	4.01
334.648	3.95
335.02	3.47
335.391	4.37
335.763	4.26
336.135	3.6
336.507	3.98
336.879	3.42
337.25	4.25
337.622	4.18
337.993	3.56
338.365	3.84
338.736	4.01
339.108	3.87
339.479	3.84
339.851	3.56
340.222	3.65
340.593	4.17
340.964	3.95
341.336	3.81
341.707	3.69
342.078	4
342.449	3.35
342.82	3.98
343.191	3.65
343.562	4.05
343.933	4
344.303	4.17
344.674	4.44
345.045	3.52
345.416	3.39
345.786	3.96
346.157	4.07
346.527	4.18
346.898	4.03
347.268	3.9
347.639	3.94
348.009	4.36
348.38	3.78
348.75	3.83
349.12	3.87
349.49	3.89
349.861	4.05
350.231	4.39
350.601	3.83
350.971	3.82
351.341	4.46
351.711	3.92
352.081	3.91
352.45	4.06
352.82	4.09
353.19	4.36
353.56	3.96
353.929	3.81
354.299	4.23
354.669	4.05
355.038	4.63
355.408	3.84
355.777	3.93
356.147	3.59
356.516	3.82
356.885	4.2
357.254	4.1
357.624	4.08
357.993	4.04
358.362	3.78
358.731	4.14
359.1	4.25
359.469	4.11
359.838	4.19
360.207	3.88
360.576	4.23
360.945	4.32
361.314	3.96
361.682	4.15
362.051	4.2
362.42	4.02
362.788	3.95
363.157	4.06
363.525	3.95
363.894	4.08
364.262	4.11
364.631	4.03
364.999	4.1
365.367	3.94
365.735	4.33
366.104	4.01
366.472	4.24
366.84	3.64
367.208	4.02
367.576	3.84
367.944	4.09
368.312	3.97
368.68	3.71
369.048	3.98
369.416	3.96
369.783	3.46
370.151	3.74
370.519	4.79
370.886	3.89
371.254	4.31
371.621	4.1
371.989	4.09
372.356	4.21
372.724	4.06
373.091	4.01
373.458	4.18
373.826	4.13
374.193	3.95
374.56	3.78
374.927	4.19
375.294	3.82
375.661	4.12
376.028	3.99
376.395	4.24
376.762	4.36
377.129	4.26
377.496	4.18
377.863	4.04
378.229	3.97
378.596	4.21
378.963	4.02
379.329	3.92
379.696	3.99
380.062	4.19
380.429	4.21
380.795	4.08
381.161	3.95
381.528	4.19
381.894	3.95
382.26	4.24
382.626	3.94
382.993	4.12
383.359	4.05
383.725	3.97
384.091	4.32
384.457	4.3
384.823	4.13
385.188	4.5
385.554	4.11
385.92	4.05
386.286	3.82
386.651	4.18
387.017	4.05
387.383	4.19
387.748	3.84
388.114	4.04
388.479	4.8
388.845	3.97
389.21	4.26
389.575	4.44
389.94	4.33
390.306	4.17
390.671	4.18
391.036	4.1
391.401	4.52
391.766	3.95
392.131	3.92
392.496	4.08
392.861	4.19
393.226	4.3
393.591	4.36
393.956	4.33
394.32	4.16
394.685	4.47
395.05	4.36
395.414	3.89
395.779	4.03
396.143	3.97
396.508	4.32
396.872	4.25
397.236	4.15
397.601	3.98
397.965	4.04
398.329	4.1
398.694	4.29
399.058	4.09
399.422	4.23
399.786	4.23
400.15	4.13
400.514	4.17
400.878	4.17
401.242	4.24
401.605	4.22
401.969	4.26
402.333	4.15
402.697	4.21
403.06	4.47
403.424	4.29
403.787	4.26
404.151	4.38
404.514	4.34
404.878	4.28
405.241	4.05
405.604	4.4
405.968	4.12
406.331	4.09
406.694	3.98
407.057	4.2
407.42	4.38
407.783	4.06
408.146	4.15
408.509	4.52
408.872	4.18
409.235	4.07
409.598	4.17
409.961	4.38
410.323	4.06
410.686	4.23
411.049	4.14
411.411	4.01
411.774	4.38
412.136	4.35
412.499	4.37
412.861	4.2
413.223	4.2
413.586	4.18
413.948	4.43
414.31	4.21
414.672	4.24
415.035	4.37
415.397	4.15
415.759	4.46
416.121	4.1
416.483	4.44
416.845	4.17
417.206	4.13
417.568	4.2
417.93	4.34
418.292	4.25
418.653	4.41
419.015	4.09
419.377	4.29
419.738	4.16
420.1	4.37
420.461	4.2
420.822	4.21
421.184	4.28
421.545	4.13
421.906	4.16
422.267	4.12
422.629	4.28
422.99	4.14
423.351	4.07
423.712	4.12
424.073	4.29
424.434	4.11
424.795	4.27
425.155	4.33
425.516	4.19
425.877	4.17
426.238	4.21
426.598	4.33
426.959	4.1
427.32	4.14
427.68	4.17
428.041	4.18
428.401	4.24
428.761	4.28
429.122	4.16
429.482	4.41
429.842	4
430.202	4.38
430.563	4.34
430.923	4.36
431.283	4.25
431.643	4.36
432.003	4.44
432.363	4.35
432.722	4.37
433.082	4.47
433.442	4.2
433.802	4.29
434.161	4.33
434.521	4.19
434.881	4.23
435.24	4.23
435.6	4.36
435.959	4.26
436.319	4.39
436.678	4.45
437.037	4.3
437.396	4.41
437.756	4.35
438.115	4.18
438.474	4.32
438.833	4.45
439.192	4.37
439.551	4.36
439.91	4.4
440.269	4.33
440.628	4.41
440.987	4.4
441.345	4.29
441.704	4.43
442.063	4.21
442.421	4.27
442.78	4.29
443.138	4.34
443.497	4.32
443.855	4.35
444.214	4.43
444.572	4.39
444.93	4.36
445.288	4.39
445.647	4.36
446.005	4.36
446.363	4.33
446.721	4.31
447.079	4.2
447.437	4.3
447.795	4.28
448.153	4.21
448.51	4.32
448.868	4.25
449.226	4.33
449.584	4.37
449.941	4.33
450.299	4.28
450.656	4.26
451.014	4.37
451.371	4.51
451.729	4.3
452.086	4.37
452.443	4.4
452.801	4.41
453.158	4.37
453.515	4.3
453.872	4.25
454.229	4.35
454.586	4.38
454.943	4.45
455.3	4.32
455.657	4.3
456.014	4.32
456.371	4.37
456.727	4.48
457.084	4.48
457.441	4.41
457.797	4.51
458.154	4.43
458.51	4.56
458.867	4.28
459.223	4.42
459.58	4.58
459.936	4.31
460.292	4.4
460.648	4.5
461.005	4.27
461.361	4.35
461.717	4.34
462.073	4.36
462.429	4.41
462.785	4.28
463.141	4.43
463.496	4.31
463.852	4.48
464.208	4.45
464.564	4.35
464.919	4.41
465.275	4.53
465.631	4.54
465.986	4.37
466.342	4.31
466.697	4.41
467.052	4.54
467.408	4.49
467.763	4.42
468.118	4.63
468.473	4.43
468.829	4.41
469.184	4.47
469.539	4.38
469.894	4.48
470.249	4.42
470.603	4.48
470.958	4.38
471.313	4.34
471.668	4.34
472.023	4.32
472.377	4.38
472.732	4.43
473.086	4.41
473.441	4.57
473.795	4.44
474.15	4.52
474.504	4.51
474.859	4.39
475.213	4.52
475.567	4.43
475.921	4.48
476.275	4.48
476.63	4.44
476.984	4.45
477.338	4.54
477.692	4.45
478.045	4.56
478.399	4.31
478.753	4.51
479.107	4.59
479.461	4.71
479.814	4.64
480.168	4.55
480.521	4.39
480.875	4.54
481.228	4.5
481.582	4.45
481.935	4.54
482.289	4.39
482.642	4.53
482.995	4.51
483.348	4.47
483.701	4.39
484.055	4.38
484.408	4.4
484.761	4.44
485.114	4.3
485.466	4.26
485.819	4.2
486.172	4.25
486.525	4.22
486.878	4.36
487.23	4.35
487.583	4.35
487.936	4.39
488.288	4.43
488.641	4.38
488.993	4.35
489.345	4.32
489.698	4.36
490.05	4.37
490.402	4.3
490.754	4.39
491.107	4.46
491.459	4.52
491.811	4.43
492.163	4.48
492.515	4.57
492.866	4.49
493.218	4.41
493.57	4.37
493.922	4.43
494.274	4.34
494.625	4.52
494.977	4.53
495.328	4.49
495.68	4.44
496.031	4.65
496.383	4.6
496.734	4.42
497.086	4.71
497.437	4.7
497.788	4.74
498.139	4.39
498.49	4.45
498.842	4.72
499.193	4.58
499.544	4.73
499.894	4.57
500.245	4.58
500.596	4.58
500.947	4.57
501.298	4.54
501.648	4.66
501.999	4.66
502.35	4.67
502.7	4.58
503.051	4.63
503.401	4.65
503.752	4.57
504.102	4.75
504.452	4.64
504.803	4.74
505.153	4.68
505.503	4.74
505.853	4.74
506.203	4.7
506.553	4.67
506.903	4.79
507.253	4.76
507.603	4.63
507.953	4.72
508.303	4.7
508.652	4.8
509.002	4.8
509.352	4.74
509.701	4.72
510.051	4.74
510.4	4.79
510.75	4.63
511.099	4.65
511.449	4.61
511.798	4.69
512.147	4.75
512.496	4.68
512.846	4.64
513.195	4.78
513.544	4.69
513.893	4.69
514.242	4.69
514.591	4.76
514.939	4.82
515.288	4.77
515.637	4.79
515.986	4.84
516.334	4.77
516.683	4.83
517.032	4.82
517.38	5.03
517.729	4.89
518.077	4.81
518.426	4.81
518.774	4.93
519.122	4.78
519.47	4.82
519.819	4.77
520.167	4.71
520.515	4.82
520.863	4.7
521.211	4.76
521.559	4.86
521.907	4.82
522.255	4.92
522.602	4.85
522.95	4.85
523.298	5.09
523.645	4.91
523.993	4.92
524.341	4.89
524.688	5
525.036	4.94
525.383	4.97
525.73	5.03
526.078	5.01
526.425	4.96
526.772	4.89
527.119	4.83
527.466	4.9
527.814	4.81
528.161	4.86
528.508	4.85
528.854	4.92
529.201	4.86
529.548	4.89
529.895	4.79
530.242	4.74
530.588	4.75
530.935	4.76
531.282	4.86
531.628	4.78
531.975	4.9
532.321	4.95
532.667	5
533.014	5
533.36	5.09
533.706	5.04
534.052	5.02
534.399	5
534.745	5.05
535.091	4.92
535.437	4.97
535.783	4.94
536.129	5.09
536.474	5.06
536.82	5.03
537.166	5.1
537.512	5.13
537.857	5.09
538.203	5.02
538.549	5.03
538.894	5.12
539.239	5.21
539.585	5.11
539.93	5.16
540.276	5.13
540.621	5.34
540.966	5.22
541.311	5.19
541.656	5.31
542.001	5.31
542.346	5.2
542.691	5.2
543.036	5.08
543.381	5.13
543.726	5.16
544.071	5.17
544.415	5.24
544.76	5.21
545.105	5.22
545.449	5.29
545.794	5.37
546.138	5.37
546.483	5.37
546.827	5.34
547.171	5.48
547.516	5.35
547.86	5.41
548.204	5.49
548.548	5.45
548.892	5.41
549.236	5.41
549.58	5.5
549.924	5.53
550.268	5.57
550.612	5.43
550.956	5.6
551.3	5.4
551.643	5.58
551.987	5.43
552.33	5.65
552.674	5.59
553.017	5.72
553.361	5.85
553.704	5.54
554.048	5.74
554.391	5.6
554.734	5.81
555.077	5.67
555.42	5.8
555.764	5.88
556.107	5.76
556.45	5.81
556.793	5.86
557.135	5.86
557.478	5.79
557.821	5.81
558.164	5.91
558.507	5.77
558.849	6.03
559.192	5.87
559.534	5.95
559.877	5.8
560.219	5.93
560.562	6.12
560.904	6.15
561.246	5.79
561.589	5.97
561.931	5.91
562.273	6.13
562.615	5.92
562.957	6.27
563.299	6.15
563.641	6.13
563.983	5.96
564.325	5.99
564.667	6.15
565.008	6.05
565.35	6.23
565.692	6.33
566.033	6.28
566.375	6.29
566.716	6.21
567.058	6.32
567.399	6.27
567.741	6.39
568.082	6.37
568.423	6.35
568.764	6.25
569.105	6.38
569.447	6.33
569.788	6.3
570.129	6.33
570.47	6.52
570.811	6.52
571.151	6.55
571.492	6.69
571.833	6.47
572.174	6.68
572.514	6.4
572.855	6.27
573.195	6.5
573.536	6.7
573.876	6.51
574.217	6.59
574.557	6.5
574.898	6.73
575.238	6.62
575.578	6.86
575.918	6.7
576.258	6.73
576.598	6.8
576.938	6.73
577.278	6.76
577.618	6.74
577.958	6.78
578.298	6.82
578.638	7.01
578.977	7.08
579.317	7.02
579.657	6.94
579.996	7.08
580.336	7.06
580.675	6.98
581.014	7.17
581.354	7
581.693	7.26
582.032	7.17
582.372	7.29
582.711	6.96
583.05	7.29
583.389	7.19
583.728	7.32
584.067	7.54
584.406	7.23
584.745	7.32
585.083	7.31
585.422	7.29
585.761	7.24
586.1	7.59
586.438	7.22
586.777	7.59
587.115	7.45
587.454	7.88
587.792	7.65
588.13	7.7
588.469	7.9
588.807	7.73
589.145	7.65
589.483	7.3
589.821	7.64
590.159	7.63
590.497	7.79
590.835	7.59
591.173	7.65
591.511	7.88
591.849	7.82
592.187	7.83
592.524	7.98
592.862	8.01
593.2	7.74
593.537	7.9
593.875	8.11
594.212	7.79
594.55	8
594.887	8.22
595.224	8.09
595.561	7.83
595.899	7.98
596.236	8.25
596.573	8.07
596.91	8.23
597.247	8.15
597.584	8.18
597.921	8.6
598.258	8.22
598.594	7.91
598.931	8.11
599.268	8.4
599.604	8.22
599.941	8.42
600.277	8.45
600.614	8.51
600.95	8.68
601.287	8.3
601.623	8.4
601.959	8.7
602.296	8.71
602.632	8.45
602.968	8.78
603.304	8.65
603.64	8.55
603.976	8.58
604.312	8.68
604.648	8.77
604.984	8.8
605.319	8.92
605.655	8.73
605.991	8.99
606.326	8.76
606.662	8.8
606.998	8.64
607.333	8.76
607.668	9.05
608.004	9.11
608.339	8.83
608.674	9.19
609.01	9.1
609.345	8.98
609.68	9.16
610.015	9.33
610.35	9.18
610.685	9.22
611.02	9.38
611.355	9.22
611.689	9.27
612.024	9.19
612.359	9.1
612.694	9.4
613.028	9.71
613.363	9.55
613.697	9.53
614.032	9.44
614.366	9.47
614.7	9.64
615.035	9.76
615.369	9.62
615.703	9.89
616.037	9.57
616.371	9.83
616.705	9.5
617.039	9.95
617.373	10.11
617.707	10.11
618.041	10.2
618.375	9.86
618.709	10.25
619.042	9.99
619.376	10.07
619.71	10.05
620.043	10.48
620.377	10.27
620.71	10.27
621.043	10.03
621.377	10.31
621.71	10.43
622.043	10.63
622.376	10.31
622.709	10.53
623.043	10.49
623.376	10.74
623.709	10.44
624.041	10.72
624.374	10.2
624.707	10.36
625.04	11.03
625.373	10.99
625.705	10.36
626.038	10.69
626.37	10.58
626.703	10.81
627.035	10.66
627.368	10.59
627.7	10.59
628.032	10.69
628.365	11.13
628.697	10.54
629.029	10.67
629.361	10.8
629.693	11.1
630.025	11.1
630.357	10.74
630.689	11
631.021	10.97
631.353	11.14
631.684	11.26
632.016	11.33
632.348	11.12
632.679	11.22
633.011	11.52
633.342	11.04
633.674	11.32
634.005	11.46
634.336	11.58
634.668	11.61
634.999	11.55
635.33	11.18
635.661	11.77
635.992	11.44
636.323	11.81
636.654	11.15
636.985	11.68
637.316	11.68
637.647	11.38
637.977	11.95
638.308	12.04
638.639	11.82
638.969	11.66
639.3	12.32
639.63	12.22
639.961	11.88
640.291	12.31
640.622	11.99
640.952	12.03
641.282	12.06
641.612	12.13
641.943	12.09
642.273	12.26
642.603	12.21
642.933	12.17
643.263	11.96
643.592	12.11
643.922	12.66
644.252	12.34
644.582	12.53
644.911	12.73
645.241	12.19
645.571	12.43
645.9	12.84
646.23	12.69
646.559	13.16
646.888	12.69
647.218	12.82
647.547	12.87
647.876	12.85
648.205	12.58
648.534	12.91
648.863	13.31
649.192	13.31
649.521	12.99
649.85	13.2
650.179	13.01
650.508	13.29
650.837	13.1
651.165	13.54
651.494	12.83
651.822	13.22
652.151	13.6
652.479	12.94
652.808	12.6
653.136	13.06
653.465	13.34
653.793	13.62
654.121	13.04
654.449	12.9
654.777	13.01
655.105	13.46
655.433	13.77
655.761	13.78
656.089	13.87
656.417	13.63
656.745	13.63
657.073	13.85
657.4	13.79
657.728	13.87
658.056	13.9
658.383	13.94
658.711	13.77
659.038	13.85
659.365	14.46
659.693	14.58
660.02	14.4
660.347	14.17
660.674	14.18
661.001	14.17
661.329	14.19
661.656	14.08
661.982	13.75
662.309	14.24
662.636	14.36
662.963	14.04
663.29	14.24
663.616	14.76
663.943	14.69
664.27	14.71
664.596	14.36
664.923	14.76
665.249	15.19
665.576	14.87
665.902	13.67
666.228	14.26
666.554	15.11
666.881	15.02
667.207	15.45
667.533	14.66
667.859	14.56
668.185	15.08
668.511	15.14
668.837	15.06
669.162	15.06
669.488	14.25
669.814	14.9
670.139	15.38
670.465	14.97
670.791	14.91
671.116	14.98
671.442	15.04
671.767	15.44
672.092	14.88
672.418	15.48
672.743	15.13
673.068	15.46
673.393	15.52
673.718	15.35
674.043	15.58
674.368	15.03
674.693	16.14
675.018	16.01
675.343	16.02
675.667	15.88
675.992	15.88
676.317	15.54
676.641	15.27
676.966	15.21
677.29	15.6
677.615	16.55
677.939	15.93
678.264	16.54
678.588	16.18
678.912	16.53
679.236	16.35
679.56	16.19
679.885	16.52
680.209	16.55
680.532	16.15
680.856	16.23
681.18	16.47
681.504	16.51
681.828	15.91
682.152	16.65
682.475	16.75
682.799	16.85
683.122	16.95
683.446	16.72
683.769	17.03
684.093	16.68
684.416	16.56
684.739	16.59
685.062	17.76
685.386	17.16
685.709	17
686.032	16.26
686.355	17.97
686.678	17.49
687.001	17.3
687.324	17.02
687.646	17.44
