Data from 0045_forehead_Reflection__4__165.txt Node

Date: Fri Nov 04 16:10:16 CDT 2022
User: ToomeyLab
Spectrometer: FLMS14357
Trigger mode: 0
Integration Time (sec): 1.000000E-2
Scans to average: 100
Electric dark correction enabled: true
Nonlinearity correction enabled: false
Boxcar width: 0
XAxis mode: Wavelengths
Number of Pixels in Spectrum: 2048
>>>>>Begin Spectral Data<<<<<
189.047	-50.3
189.435	-50.3
189.823	-50.3
190.211	235.74
190.599	188.39
190.987	442.07
191.375	103.69
191.763	245.45
192.151	106.74
192.538	161.62
192.926	699.66
193.314	-48.08
193.702	87.81
194.089	7.77
194.477	165.9
194.864	229.33
195.252	350.58
195.639	-0.04
196.027	91.21
196.414	-15.04
196.801	50.62
197.189	35.14
197.576	79.06
197.963	62
198.351	46.75
198.738	20.86
199.125	46.5
199.512	4.59
199.899	14.93
200.286	-13.12
200.673	51.07
201.06	31.46
201.447	-16.5
201.833	33.62
202.22	66.26
202.607	64.11
202.994	68.5
203.38	8.5
203.767	18.21
204.154	50.73
204.54	-3.23
204.927	19.02
205.313	42.25
205.699	36.6
206.086	27.74
206.472	-1.85
206.858	-11.49
207.245	11.02
207.631	48.17
208.017	48.72
208.403	50.51
208.789	54
209.175	41.06
209.561	-40.94
209.947	-102.8
210.333	25.27
210.719	1.43
211.105	-30.25
211.491	8.87
211.876	42.54
212.262	1.42
212.648	21.46
213.034	36.57
213.419	-11.2
213.805	-20.96
214.19	-50.77
214.576	7.21
214.961	41.01
215.346	11.51
215.732	7.55
216.117	12.07
216.502	25.33
216.888	21.3
217.273	9.39
217.658	14.83
218.043	6.14
218.428	30.4
218.813	49.33
219.198	31.48
219.583	-11.39
219.968	10.17
220.353	7.49
220.738	-33.78
221.122	13.65
221.507	28.03
221.892	-11.06
222.276	13
222.661	6.13
223.046	24.04
223.43	8.96
223.815	7.35
224.199	13.25
224.583	6.31
224.968	1.04
225.352	7.85
225.736	3.85
226.121	-0.52
226.505	3.79
226.889	4.66
227.273	8.41
227.657	-1.18
228.041	3.48
228.425	3.16
228.809	8.99
229.193	4.88
229.577	3.58
229.961	5.38
230.344	5.56
230.728	4.02
231.112	4.01
231.495	3.89
231.879	4.98
232.263	4.25
232.646	2.96
233.03	3.6
233.413	3.49
233.797	3.47
234.18	3.13
234.563	4.45
234.946	2.33
235.33	5.56
235.713	3.84
236.096	5.44
236.479	3.43
236.862	3.43
237.245	5.15
237.628	5.5
238.011	2.27
238.394	4.45
238.777	5.01
239.16	4.19
239.543	5.12
239.925	5.91
240.308	5.21
240.691	4.73
241.073	4.68
241.456	4.08
241.838	3.79
242.221	4.57
242.603	4
242.986	3.4
243.368	4.51
243.75	4.14
244.133	4.61
244.515	4.3
244.897	4.13
245.279	4.09
245.661	4.13
246.043	4.76
246.425	4.14
246.807	5.09
247.189	4.75
247.571	4.64
247.953	4.35
248.335	3.97
248.717	4.3
249.098	4.08
249.48	4.23
249.862	4.52
250.243	4.11
250.625	3.92
251.006	4.57
251.388	4.38
251.769	5.23
252.151	3.84
252.532	4.65
252.913	4.28
253.295	4.88
253.676	4.16
254.057	4.23
254.438	4.45
254.819	4.38
255.2	4.84
255.581	4.82
255.962	4.75
256.343	4.65
256.724	5.05
257.105	3.66
257.486	5.59
257.867	5.34
258.247	5.66
258.628	4.88
259.009	4.19
259.389	4.81
259.77	5.22
260.15	4.58
260.531	4.59
260.911	4.26
261.292	4.27
261.672	3.96
262.052	4.13
262.432	4.16
262.813	4.1
263.193	4.02
263.573	4.49
263.953	4.08
264.333	4.95
264.713	4.53
265.093	4.38
265.473	4.8
265.853	4.23
266.233	4.4
266.612	4.68
266.992	5.04
267.372	3.44
267.752	4.68
268.131	4.68
268.511	4.7
268.89	4.68
269.27	4.39
269.649	4.41
270.029	4.19
270.408	4.58
270.787	3.93
271.167	4.36
271.546	4.86
271.925	4.19
272.304	4.09
272.683	4.13
273.062	4.55
273.441	4.67
273.82	4.03
274.199	4.34
274.578	4.06
274.957	4.17
275.336	3.79
275.715	4.3
276.093	4.48
276.472	4.38
276.851	3.91
277.229	4.22
277.608	4.42
277.986	4.52
278.365	4.83
278.743	4.6
279.122	4.22
279.5	4.34
279.878	4.53
280.257	4.3
280.635	4.06
281.013	4.28
281.391	4.07
281.769	4.29
282.147	4.25
282.525	4.34
282.903	4.64
283.281	4.96
283.659	4.19
284.037	4.19
284.415	4.46
284.792	4.74
285.17	3.99
285.548	4.53
285.925	4.25
286.303	4.54
286.68	4.6
287.058	4.25
287.435	4.49
287.813	4.3
288.19	4.27
288.567	4.48
288.945	4.35
289.322	4.87
289.699	4.78
290.076	4.72
290.453	4.11
290.83	4.27
291.207	4.19
291.584	4.62
291.961	5.04
292.338	4.76
292.715	4.8
293.092	4.92
293.469	4.56
293.845	4.69
294.222	4.99
294.599	4.22
294.975	4.48
295.352	5.31
295.728	5.29
296.105	5.03
296.481	4.66
296.858	5.04
297.234	5.59
297.61	5.49
297.986	5.01
298.363	4.88
298.739	5.03
299.115	5.27
299.491	5.05
299.867	5.27
300.243	5.03
300.619	5.29
300.995	5.34
301.371	5.96
301.746	5.5
302.122	5.61
302.498	5.5
302.874	5.26
303.249	4.81
303.625	5.03
304	5.87
304.376	5.32
304.751	5.87
305.127	5.37
305.502	5.97
305.878	5.97
306.253	5.7
306.628	5.36
307.003	5.76
307.378	6.27
307.754	5.51
308.129	5.77
308.504	5.74
308.879	6.1
309.254	5.88
309.629	5.97
310.003	6
310.378	5.97
310.753	6.33
311.128	6.01
311.502	5.72
311.877	6.22
312.252	5.99
312.626	6.43
313.001	6.65
313.375	5.98
313.75	6.1
314.124	6.37
314.498	6.35
314.873	6.67
315.247	6.37
315.621	6.49
315.995	6.73
316.369	6.67
316.743	6.9
317.117	6.98
317.491	6.37
317.865	6.64
318.239	6.81
318.613	7.36
318.987	7.03
319.361	6.72
319.734	6.97
320.108	6.92
320.482	6.21
320.855	6.93
321.229	6.92
321.602	6.64
321.976	7.02
322.349	7.35
322.723	7.14
323.096	7.14
323.469	7.07
323.843	6.89
324.216	7.29
324.589	7.29
324.962	7.91
325.335	7.29
325.708	7.01
326.081	7.27
326.454	7.21
326.827	7.08
327.2	7.13
327.573	7.39
327.945	7.57
328.318	7.16
328.691	7.27
329.063	7.58
329.436	7.67
329.809	7.23
330.181	7.61
330.553	8.06
330.926	7.64
331.298	8.21
331.671	7.78
332.043	8.11
332.415	8
332.787	7.84
333.159	7.7
333.532	7.6
333.904	8.4
334.276	7.96
334.648	8.07
335.02	7.56
335.391	8.12
335.763	8.08
336.135	8.03
336.507	8.38
336.879	8.04
337.25	8.13
337.622	8.04
337.993	8.28
338.365	8.52
338.736	8.56
339.108	8.99
339.479	8.65
339.851	7.89
340.222	8.1
340.593	8.7
340.964	8.64
341.336	8.62
341.707	8.19
342.078	8.47
342.449	8.52
342.82	8.93
343.191	8.67
343.562	9.05
343.933	8.64
344.303	8.89
344.674	8.98
345.045	8.35
345.416	8.58
345.786	8.85
346.157	8.79
346.527	9.2
346.898	9.37
347.268	8.88
347.639	8.92
348.009	9.48
348.38	9.11
348.75	8.92
349.12	8.84
349.49	9.22
349.861	8.98
350.231	9.29
350.601	9.15
350.971	8.93
351.341	9.55
351.711	9.4
352.081	9.64
352.45	9.47
352.82	9.52
353.19	9.8
353.56	9.96
353.929	9.48
354.299	10.16
354.669	10
355.038	9.97
355.408	9.32
355.777	9.74
356.147	10.1
356.516	9.6
356.885	9.9
357.254	9.8
357.624	9.8
357.993	10.1
358.362	9.53
358.731	10.18
359.1	10.05
359.469	9.9
359.838	10.19
360.207	9.79
360.576	10.41
360.945	10.12
361.314	10.39
361.682	10.14
362.051	10.28
362.42	10.21
362.788	10.51
363.157	10.31
363.525	10.27
363.894	10.13
364.262	10.47
364.631	10.53
364.999	10.75
365.367	10.39
365.735	10.59
366.104	10.42
366.472	10.86
366.84	10.48
367.208	10.94
367.576	10.81
367.944	10.78
368.312	10.76
368.68	10.61
369.048	10.69
369.416	10.93
369.783	10.73
370.151	11.02
370.519	11.49
370.886	11.02
371.254	10.95
371.621	11.02
371.989	11.04
372.356	11.12
372.724	11.11
373.091	11.2
373.458	11.33
373.826	11.47
374.193	11.44
374.56	11
374.927	12.07
375.294	11.15
375.661	11.83
376.028	11.26
376.395	11.43
376.762	11.9
377.129	11.68
377.496	11.79
377.863	11.9
378.229	11.68
378.596	11.5
378.963	11.66
379.329	11.42
379.696	11.95
380.062	12.16
380.429	12.04
380.795	11.97
381.161	11.66
381.528	12.24
381.894	12.06
382.26	12.19
382.626	11.91
382.993	12.27
383.359	12.34
383.725	12.24
384.091	12.37
384.457	12.33
384.823	12.38
385.188	12.64
385.554	12.53
385.92	12.66
386.286	12.58
386.651	12.42
387.017	12.42
387.383	12.53
387.748	12.54
388.114	12.68
388.479	12.82
388.845	12.75
389.21	12.95
389.575	12.93
389.94	12.77
390.306	13.23
390.671	12.93
391.036	12.92
391.401	13.16
391.766	13.16
392.131	12.92
392.496	13.15
392.861	13.1
393.226	12.93
393.591	13.22
393.956	13.21
394.32	13.29
394.685	13.3
395.05	13.37
395.414	13.63
395.779	13.32
396.143	13.36
396.508	13.66
396.872	13.3
397.236	13.54
397.601	13.5
397.965	13.78
398.329	13.7
398.694	13.76
399.058	13.94
399.422	13.74
399.786	13.75
400.15	13.57
400.514	13.8
400.878	14.05
401.242	14.25
401.605	14
401.969	14.14
402.333	14.06
402.697	14.14
403.06	14.14
403.424	14.31
403.787	13.87
404.151	14.36
404.514	14.38
404.878	14.15
405.241	14.33
405.604	14.41
405.968	14.37
406.331	14.28
406.694	14.24
407.057	14.53
407.42	14.48
407.783	14.27
408.146	14.6
408.509	14.68
408.872	14.79
409.235	14.76
409.598	14.66
409.961	14.92
410.323	14.95
410.686	14.92
411.049	14.64
411.411	14.76
411.774	15.01
412.136	15.2
412.499	15.03
412.861	15.11
413.223	15.15
413.586	14.88
413.948	15.03
414.31	15.06
414.672	15.07
415.035	15.46
415.397	15.04
415.759	15.35
416.121	15.3
416.483	15.34
416.845	15.41
417.206	15.38
417.568	15.26
417.93	15.5
418.292	15.41
418.653	15.43
419.015	15.45
419.377	15.44
419.738	15.42
420.1	15.44
420.461	15.33
420.822	15.28
421.184	15.5
421.545	15.43
421.906	15.52
422.267	15.37
422.629	15.58
422.99	15.4
423.351	15.27
423.712	15.53
424.073	15.62
424.434	15.66
424.795	15.79
425.155	15.85
425.516	15.79
425.877	15.77
426.238	15.74
426.598	15.74
426.959	15.68
427.32	15.83
427.68	15.82
428.041	16.04
428.401	16.08
428.761	16.35
429.122	16.38
429.482	16.36
429.842	16.27
430.202	16.51
430.563	16.57
430.923	16.74
431.283	16.45
431.643	16.62
432.003	16.83
432.363	16.68
432.722	16.78
433.082	16.75
433.442	16.7
433.802	16.8
434.161	16.83
434.521	16.85
434.881	16.85
435.24	16.71
435.6	16.99
435.959	16.93
436.319	17.05
436.678	17.1
437.037	16.95
437.396	17.27
437.756	17.16
438.115	17.1
438.474	17.38
438.833	17.38
439.192	17.21
439.551	17.3
439.91	17.24
440.269	17.25
440.628	17.36
440.987	17.55
441.345	17.31
441.704	17.42
442.063	17.31
442.421	17.34
442.78	17.5
443.138	17.41
443.497	17.5
443.855	17.52
444.214	17.59
444.572	17.63
444.93	17.82
445.288	17.81
445.647	17.82
446.005	17.75
446.363	17.84
446.721	17.88
447.079	17.87
447.437	17.74
447.795	17.57
448.153	17.69
448.51	17.75
448.868	17.78
449.226	17.76
449.584	17.95
449.941	17.84
450.299	18.12
450.656	18.23
451.014	18.34
451.371	18.47
451.729	18.44
452.086	18.55
452.443	18.56
452.801	18.54
453.158	18.72
453.515	18.55
453.872	18.57
454.229	18.63
454.586	18.51
454.943	18.77
455.3	18.7
455.657	18.74
456.014	18.8
456.371	18.98
456.727	19.03
457.084	18.96
457.441	19
457.797	18.96
458.154	19.16
458.51	19.24
458.867	19.01
459.223	19.18
459.58	19.35
459.936	19.06
460.292	19.08
460.648	19.1
461.005	18.88
461.361	19
461.717	18.88
462.073	19.02
462.429	19.21
462.785	19.21
463.141	19.32
463.496	19.4
463.852	19.73
464.208	19.7
464.564	19.58
464.919	19.89
465.275	19.83
465.631	19.88
465.986	20.01
466.342	19.71
466.697	19.81
467.052	19.8
467.408	19.92
467.763	19.99
468.118	20.16
468.473	20.15
468.829	19.9
469.184	20.12
469.539	20.01
469.894	20.21
470.249	20.23
470.603	20.32
470.958	20.25
471.313	20.29
471.668	20.06
472.023	20.48
472.377	20.37
472.732	20.38
473.086	20.28
473.441	20.49
473.795	20.58
474.15	20.64
474.504	20.69
474.859	20.61
475.213	20.67
475.567	20.68
475.921	20.82
476.275	21.04
476.63	20.92
476.984	21.04
477.338	21.12
477.692	20.73
478.045	20.93
478.399	20.7
478.753	20.77
479.107	21.07
479.461	21.15
479.814	21.11
480.168	21.2
480.521	21.1
480.875	21.2
481.228	21.22
481.582	21.17
481.935	21.35
482.289	21.16
482.642	21.17
482.995	21.42
483.348	21.07
483.701	21.17
484.055	21.14
484.408	21.07
484.761	20.97
485.114	20.68
485.466	20.41
485.819	20.39
486.172	20.48
486.525	20.64
486.878	20.87
487.23	20.94
487.583	21.05
487.936	21.3
488.288	21.28
488.641	21.15
488.993	21.02
489.345	20.88
489.698	20.91
490.05	21.06
490.402	21.11
490.754	21.26
491.107	21.42
491.459	21.57
491.811	21.71
492.163	21.88
492.515	21.96
492.866	21.69
493.218	21.43
493.57	21.39
493.922	21.53
494.274	21.53
494.625	21.83
494.977	22.02
495.328	22.28
495.68	22.3
496.031	22.6
496.383	22.63
496.734	22.52
497.086	22.67
497.437	22.83
497.788	22.76
498.139	22.54
498.49	22.49
498.842	22.54
499.193	22.61
499.544	22.76
499.894	22.67
500.245	22.88
500.596	22.86
500.947	22.95
501.298	23.07
501.648	23.04
501.999	23.29
502.35	23.08
502.7	23.11
503.051	23.36
503.401	23.33
503.752	23.42
504.102	23.52
504.452	23.43
504.803	23.49
505.153	23.45
505.503	23.6
505.853	23.67
506.203	23.59
506.553	23.65
506.903	23.72
507.253	23.68
507.603	23.9
507.953	23.76
508.303	23.83
508.652	23.85
509.002	23.99
509.352	23.77
509.701	23.81
510.051	23.9
510.4	23.85
510.75	23.83
511.099	23.84
511.449	23.92
511.798	23.87
512.147	24.06
512.496	23.99
512.846	23.99
513.195	24.2
513.544	24.22
513.893	24.23
514.242	24.22
514.591	24.21
514.939	24.39
515.288	24.47
515.637	24.58
515.986	24.52
516.334	24.62
516.683	24.65
517.032	24.59
517.38	24.67
517.729	24.73
518.077	24.89
518.426	24.8
518.774	24.96
519.122	24.66
519.47	24.78
519.819	24.52
520.167	24.59
520.515	24.56
520.863	24.54
521.211	24.66
521.559	24.75
521.907	24.86
522.255	24.95
522.602	24.9
522.95	25.18
523.298	25.16
523.645	25.27
523.993	25.36
524.341	25.33
524.688	25.49
525.036	25.44
525.383	25.61
525.73	25.52
526.078	25.64
526.425	25.5
526.772	25.44
527.119	25.28
527.466	25.17
527.814	25.2
528.161	25.23
528.508	25.34
528.854	25.29
529.201	25.36
529.548	25.27
529.895	24.97
530.242	24.86
530.588	24.8
530.935	24.95
531.282	25.15
531.628	25.32
531.975	25.41
532.321	25.6
532.667	25.71
533.014	25.84
533.36	25.88
533.706	26.03
534.052	26.07
534.399	25.89
534.745	25.8
535.091	25.49
535.437	25.67
535.783	25.73
536.129	25.98
536.474	26.11
536.82	26.24
537.166	26.3
537.512	26.57
537.857	26.43
538.203	26.36
538.549	26.22
538.894	26.33
539.239	26.49
539.585	26.6
539.93	26.63
540.276	27.02
540.621	26.94
540.966	27.18
541.311	26.97
541.656	27.12
542.001	27.12
542.346	26.78
542.691	26.74
543.036	26.37
543.381	26.24
543.726	26.49
544.071	26.7
544.415	26.67
544.76	26.76
545.105	26.93
545.449	27.1
545.794	27.25
546.138	27.34
546.483	27.52
546.827	27.53
547.171	27.62
547.516	27.57
547.86	27.55
548.204	27.57
548.548	27.56
548.892	27.59
549.236	27.54
549.58	27.77
549.924	28.08
550.268	28.17
550.612	28.07
550.956	28.08
551.3	28.23
551.643	28.51
551.987	28.42
552.33	28.54
552.674	28.66
553.017	28.47
553.361	28.59
553.704	28.68
554.048	28.84
554.391	28.25
554.734	28.53
555.077	28.63
555.42	28.6
555.764	28.87
556.107	28.95
556.45	28.77
556.793	29.04
557.135	28.79
557.478	28.76
557.821	29.52
558.164	29.28
558.507	29.17
558.849	29.25
559.192	29.37
559.534	29.35
559.877	29.32
560.219	29.28
560.562	29.65
560.904	29.45
561.246	29.63
561.589	29.39
561.931	29.5
562.273	29.64
562.615	29.43
562.957	29.56
563.299	29.49
563.641	29.67
563.983	29.88
564.325	29.78
564.667	29.96
565.008	29.94
565.35	30.02
565.692	30.28
566.033	30.06
566.375	29.97
566.716	30.15
567.058	30.14
567.399	30.2
567.741	30.14
568.082	29.88
568.423	30.03
568.764	29.92
569.105	30.04
569.447	30.38
569.788	30.36
570.129	30.48
570.47	30.27
570.811	30.63
571.151	30.54
571.492	30.61
571.833	30.51
572.174	30.74
572.514	30.47
572.855	30.62
573.195	30.43
573.536	30.55
573.876	30.3
574.217	30.66
574.557	30.52
574.898	30.77
575.238	30.64
575.578	30.84
575.918	30.74
576.258	31.1
576.598	30.84
576.938	31.12
577.278	31.02
577.618	30.98
577.958	31.04
578.298	31.41
578.638	31.3
578.977	31.28
579.317	31.43
579.657	31.46
579.996	31.25
580.336	31.35
580.675	31.5
581.014	31.82
581.354	31.81
581.693	32.08
582.032	31.76
582.372	31.88
582.711	31.7
583.05	31.96
583.389	31.78
583.728	32.11
584.067	32.13
584.406	31.92
584.745	32.34
585.083	32.03
585.422	32.4
585.761	32.13
586.1	32.38
586.438	32.43
586.777	32.47
587.115	32.24
587.454	32.63
587.792	32.58
588.13	32.58
588.469	32.78
588.807	32.77
589.145	32.36
589.483	32.51
589.821	32.63
590.159	32.79
590.497	32.58
590.835	32.86
591.173	32.57
591.511	32.75
591.849	32.64
592.187	32.52
592.524	32.85
592.862	33.14
593.2	32.93
593.537	32.88
593.875	33.21
594.212	33.13
594.55	33.1
594.887	33.36
595.224	33.16
595.561	32.87
595.899	33.14
596.236	33.42
596.573	33.23
596.91	33.23
597.247	33.37
597.584	33.26
597.921	33.39
598.258	33.27
598.594	33.08
598.931	33.28
599.268	33.43
599.604	33.24
599.941	33.32
600.277	33.53
600.614	33.5
600.95	33.7
601.287	33.64
601.623	33.89
601.959	33.91
602.296	33.84
602.632	33.85
602.968	33.89
603.304	33.79
603.64	34.01
603.976	33.92
604.312	34.2
604.648	34.06
604.984	33.64
605.319	34.03
605.655	33.7
605.991	33.97
606.326	33.73
606.662	33.66
606.998	34.04
607.333	34.12
607.668	34.15
608.004	34.2
608.339	34.23
608.674	34.41
609.01	34.47
609.345	34.45
609.68	34.78
610.015	34.62
610.35	34.25
610.685	34.47
611.02	34.52
611.355	34.54
611.689	34.37
612.024	34.52
612.359	34.43
612.694	34.79
613.028	34.86
613.363	35.09
613.697	34.81
614.032	35.11
614.366	34.89
614.7	35.06
615.035	35.61
615.369	35.18
615.703	35.15
616.037	35.05
616.371	35.52
616.705	35.38
617.039	35.56
617.373	35.72
617.707	35.43
618.041	35.73
618.375	35.4
618.709	35.47
619.042	35.18
619.376	35.78
619.71	35.68
620.043	35.64
620.377	36.23
620.71	35.77
621.043	35.15
621.377	35.86
621.71	36.21
622.043	36.34
622.376	36.13
622.709	35.97
623.043	35.93
623.376	36.1
623.709	35.97
624.041	36.25
624.374	36.18
624.707	36.22
625.04	36.69
625.373	36.74
625.705	36.05
626.038	36.28
626.37	36.53
626.703	35.78
627.035	35.91
627.368	36.4
627.7	36.29
628.032	36.49
628.365	36.52
628.697	36.76
629.029	36.34
629.361	36.4
629.693	36.45
630.025	36.66
630.357	36.54
630.689	36.89
631.021	36.26
631.353	36.75
631.684	36.78
632.016	36.89
632.348	36.74
632.679	37.04
633.011	36.38
633.342	36.78
633.674	36.86
634.005	36.98
634.336	37.11
634.668	37.23
634.999	36.99
635.33	36.46
635.661	37.3
635.992	37.1
636.323	37.27
636.654	37
636.985	37.58
637.316	37.11
637.647	37.32
637.977	37.58
638.308	38.02
638.639	37.08
638.969	37.3
639.3	37.47
639.63	37.47
639.961	37.84
640.291	38.1
640.622	37.77
640.952	37.92
641.282	37.58
641.612	37.99
641.943	37.37
642.273	37.61
642.603	37.53
642.933	37.66
643.263	37.64
643.592	37.78
643.922	37.93
644.252	38.09
644.582	38.36
644.911	37.96
645.241	38.1
645.571	37.54
645.9	38.73
646.23	37.98
646.559	38.25
646.888	38.48
647.218	38.41
647.547	38.44
647.876	38.35
648.205	38.12
648.534	38.16
648.863	38.31
649.192	38.36
649.521	38.4
649.85	38.66
650.179	38.91
650.508	38.66
650.837	38.59
651.165	38.75
651.494	38.75
651.822	38.22
652.151	38.86
652.479	38.94
652.808	38.56
653.136	38.5
653.465	38.5
653.793	38.73
654.121	38.77
654.449	38.26
654.777	38.52
655.105	38.94
655.433	39.08
655.761	38.94
656.089	39.45
656.417	38.61
656.745	39.03
657.073	38.87
657.4	39.22
657.728	39.21
658.056	38.99
658.383	39.55
658.711	39.31
659.038	39.06
659.365	39.45
659.693	38.77
660.02	39.28
660.347	39.32
660.674	39.58
661.001	39.08
661.329	38.98
661.656	39.53
661.982	39.17
662.309	39.27
662.636	39.43
662.963	38.85
663.29	39.7
663.616	40.22
663.943	39.58
664.27	39.53
664.596	39.89
664.923	39.28
665.249	39.55
665.576	40.3
665.902	39.52
666.228	39.31
666.554	40.09
666.881	39.53
667.207	39.96
667.533	40.06
667.859	39.92
668.185	40.05
668.511	40.47
668.837	40.04
669.162	40.1
669.488	39.26
669.814	39.59
670.139	39.65
670.465	40.2
670.791	40.29
671.116	39.92
671.442	41.04
671.767	40.56
