Data from 0045_forehead_Reflection__1__162.txt Node

Date: Fri Nov 04 16:09:30 CDT 2022
User: ToomeyLab
Spectrometer: FLMS14357
Trigger mode: 0
Integration Time (sec): 1.000000E-2
Scans to average: 100
Electric dark correction enabled: true
Nonlinearity correction enabled: false
Boxcar width: 0
XAxis mode: Wavelengths
Number of Pixels in Spectrum: 2048
>>>>>Begin Spectral Data<<<<<
189.047	61.99
189.435	61.99
189.823	61.99
190.211	-4.14
190.599	-106.8
190.987	-204.83
191.375	101.04
191.763	666.58
192.151	155.03
192.538	84.86
192.926	-175.8
193.314	40.86
193.702	84.32
194.089	160.34
194.477	15.12
194.864	-427.02
195.252	482.43
195.639	100.09
196.027	33.72
196.414	-184.3
196.801	38.58
197.189	41.37
197.576	76.44
197.963	86.86
198.351	-21.33
198.738	9.76
199.125	24.56
199.512	-94.41
199.899	26
200.286	-48.58
200.673	30.98
201.06	17.04
201.447	-23.16
201.833	27.25
202.22	35.84
202.607	16.76
202.994	14.02
203.38	46.39
203.767	-1.11
204.154	35.72
204.54	-35.65
204.927	49.24
205.313	27.17
205.699	34.61
206.086	69.41
206.472	35.64
206.858	26.47
207.245	12.15
207.631	14.13
208.017	20.89
208.403	34.02
208.789	39.97
209.175	28.37
209.561	-12.24
209.947	-50.45
210.333	44.47
210.719	33.9
211.105	-12.97
211.491	7.73
211.876	11.59
212.262	-5.49
212.648	-7.46
213.034	36.71
213.419	19.67
213.805	8.4
214.19	-19.83
214.576	-11.98
214.961	36.06
215.346	2.99
215.732	32.13
216.117	-7.32
216.502	16.27
216.888	6.56
217.273	0.22
217.658	26.97
218.043	-21.81
218.428	37.24
218.813	12.07
219.198	-6.55
219.583	-14.6
219.968	19.84
220.353	-30.91
220.738	-25.65
221.122	7.94
221.507	18.69
221.892	-17.99
222.276	-10.08
222.661	13.8
223.046	6.35
223.43	-2.98
223.815	2.28
224.199	14.51
224.583	-5.86
224.968	5.02
225.352	8.4
225.736	-1.86
226.121	-3.17
226.505	12.4
226.889	7.3
227.273	6.35
227.657	4.11
228.041	6.6
228.425	6.06
228.809	7.48
229.193	6.4
229.577	4.87
229.961	5.62
230.344	4.76
230.728	4.76
231.112	4.63
231.495	4.72
231.879	5.66
232.263	5.1
232.646	4.91
233.03	3.64
233.413	3.78
233.797	5.12
234.18	3
234.563	5.03
234.946	4.2
235.33	6.36
235.713	4.89
236.096	4.46
236.479	4.71
236.862	4.49
237.245	4.84
237.628	5.07
238.011	4.89
238.394	6.1
238.777	7.05
239.16	5.39
239.543	5.6
239.925	5.49
240.308	5.48
240.691	5.87
241.073	4.64
241.456	3.9
241.838	3.91
242.221	4.95
242.603	4.06
242.986	4.35
243.368	5.07
243.75	5.06
244.133	4.77
244.515	5.22
244.897	4.41
245.279	4.72
245.661	5.08
246.043	5.92
246.425	4.82
246.807	5.38
247.189	4.8
247.571	4.6
247.953	4.91
248.335	4.91
248.717	4.77
249.098	4.85
249.48	4.92
249.862	5.2
250.243	5.08
250.625	4.45
251.006	4.95
251.388	5.26
251.769	5.36
252.151	5.89
252.532	5.16
252.913	4.35
253.295	5.21
253.676	5
254.057	4.87
254.438	4.9
254.819	4.59
255.2	5.07
255.581	4.36
255.962	5.65
256.343	4.88
256.724	5.53
257.105	4.16
257.486	6
257.867	7.17
258.247	5.32
258.628	4.54
259.009	3.96
259.389	5.39
259.77	5.58
260.15	5.19
260.531	5.07
260.911	4.82
261.292	4.62
261.672	4.76
262.052	4.82
262.432	5.07
262.813	4.75
263.193	4.51
263.573	5.42
263.953	4.92
264.333	5.22
264.713	4.98
265.093	4.7
265.473	5.3
265.853	4.49
266.233	4.8
266.612	5.12
266.992	5.52
267.372	4.35
267.752	5.14
268.131	5.37
268.511	4.76
268.89	5.19
269.27	5.21
269.649	4.52
270.029	4.82
270.408	4.88
270.787	5.45
271.167	5.42
271.546	5.61
271.925	5.41
272.304	4.59
272.683	4.35
273.062	4.66
273.441	4.76
273.82	4.89
274.199	5.04
274.578	4.7
274.957	5.03
275.336	4.44
275.715	5.12
276.093	5.01
276.472	4.65
276.851	4.56
277.229	4.76
277.608	4.84
277.986	5.23
278.365	5.03
278.743	5.12
279.122	5.21
279.5	5.11
279.878	5.02
280.257	4.71
280.635	4.27
281.013	4.79
281.391	5.5
281.769	5.23
282.147	4.7
282.525	5
282.903	4.85
283.281	5.49
283.659	4.97
284.037	4.98
284.415	5.05
284.792	5.16
285.17	4.8
285.548	5.29
285.925	5.09
286.303	5.28
286.68	5.05
287.058	5.13
287.435	4.94
287.813	4.56
288.19	4.85
288.567	4.91
288.945	4.88
289.322	4.96
289.699	5.1
290.076	5.49
290.453	4.61
290.83	4.92
291.207	5.29
291.584	5.02
291.961	5.14
292.338	5.5
292.715	5.69
293.092	5.71
293.469	5.32
293.845	5.03
294.222	5.82
294.599	5.48
294.975	5.85
295.352	5.44
295.728	5.76
296.105	5.8
296.481	5.72
296.858	5.86
297.234	6.06
297.61	6.15
297.986	5.6
298.363	5.45
298.739	5.59
299.115	5.95
299.491	5.72
299.867	5.76
300.243	5.98
300.619	6.1
300.995	6.31
301.371	6.34
301.746	6.23
302.122	6.02
302.498	6.37
302.874	6.74
303.249	5.74
303.625	6.01
304	6.54
304.376	6.13
304.751	6.27
305.127	6.04
305.502	6.2
305.878	6.39
306.253	6.71
306.628	6.21
307.003	6.73
307.378	6.55
307.754	6.82
308.129	6.17
308.504	6.68
308.879	6.84
309.254	6.58
309.629	6.79
310.003	6.86
310.378	7.03
310.753	7.27
311.128	6.85
311.502	6.41
311.877	6.74
312.252	6.69
312.626	7.15
313.001	7.16
313.375	7.14
313.75	7.17
314.124	6.92
314.498	7.14
314.873	6.99
315.247	7.5
315.621	7.58
315.995	7.89
316.369	7.46
316.743	7.68
317.117	7.84
317.491	7.44
317.865	7.72
318.239	7.77
318.613	8.15
318.987	8.16
319.361	8.09
319.734	8.14
320.108	8.08
320.482	7.14
320.855	7.7
321.229	7.99
321.602	7.98
321.976	7.94
322.349	8.11
322.723	8.04
323.096	8.19
323.469	8.14
323.843	8.36
324.216	8.44
324.589	8.69
324.962	8.89
325.335	8.18
325.708	8.01
326.081	9.05
326.454	8.48
326.827	8.15
327.2	8.71
327.573	8.5
327.945	8.81
328.318	8.07
328.691	8.34
329.063	8.56
329.436	9.21
329.809	8.75
330.181	8.37
330.553	8.79
330.926	9.06
331.298	9.17
331.671	8.71
332.043	8.76
332.415	9
332.787	8.73
333.159	8.42
333.532	8.6
333.904	9.15
334.276	8.98
334.648	9.49
335.02	9.04
335.391	9.33
335.763	9.65
336.135	9.26
336.507	9.72
336.879	9.25
337.25	9.83
337.622	9.86
337.993	9.69
338.365	9.26
338.736	9.57
339.108	10.08
339.479	9.66
339.851	9.56
340.222	9.34
340.593	9.91
340.964	9.78
341.336	9.92
341.707	9.23
342.078	10.04
342.449	10.23
342.82	9.87
343.191	9.87
343.562	9.67
343.933	9.75
344.303	10.13
344.674	10.11
345.045	9.68
345.416	9.65
345.786	10.02
346.157	10.35
346.527	10.38
346.898	10.55
347.268	10.4
347.639	10.09
348.009	10.68
348.38	10.18
348.75	10.49
349.12	10.16
349.49	10.37
349.861	9.99
350.231	10.93
350.601	10.61
350.971	10.59
351.341	10.88
351.711	10.8
352.081	10.59
352.45	11.03
352.82	10.97
353.19	10.77
353.56	11.08
353.929	10.82
354.299	11.33
354.669	10.88
355.038	11.25
355.408	10.82
355.777	11.17
356.147	10.95
356.516	10.9
356.885	10.99
357.254	11.31
357.624	11.56
357.993	11.49
358.362	11.24
358.731	11.14
359.1	11.41
359.469	11.36
359.838	11.45
360.207	11.49
360.576	11.55
360.945	12.05
361.314	11.81
361.682	11.45
362.051	11.71
362.42	11.66
362.788	11.66
363.157	11.87
363.525	11.83
363.894	11.81
364.262	12.01
364.631	11.8
364.999	11.96
365.367	11.91
365.735	12.4
366.104	11.85
366.472	12.13
366.84	11.7
367.208	12.62
367.576	11.97
367.944	12.34
368.312	12.15
368.68	12.42
369.048	12.19
369.416	12
369.783	12.29
370.151	12.09
370.519	12.81
370.886	12.69
371.254	12.87
371.621	12.89
371.989	12.74
372.356	12.89
372.724	12.95
373.091	12.69
373.458	12.87
373.826	12.92
374.193	12.86
374.56	12.73
374.927	12.85
375.294	12.93
375.661	13.08
376.028	13.12
376.395	13.31
376.762	13.29
377.129	12.96
377.496	13.46
377.863	13.04
378.229	13.16
378.596	13.3
378.963	13.37
379.329	13.22
379.696	13.26
380.062	13.51
380.429	13.39
380.795	13.55
381.161	13.58
381.528	13.68
381.894	13.28
382.26	13.94
382.626	13.75
382.993	14.12
383.359	13.96
383.725	13.96
384.091	13.99
384.457	14.06
384.823	14.1
385.188	14.26
385.554	14.19
385.92	13.83
386.286	14.02
386.651	13.91
387.017	14.23
387.383	14.4
387.748	14.33
388.114	14.44
388.479	14.63
388.845	14.29
389.21	14.6
389.575	14.65
389.94	14.58
390.306	14.61
390.671	14.69
391.036	14.49
391.401	14.89
391.766	14.82
392.131	14.57
392.496	14.82
392.861	15.07
393.226	14.75
393.591	14.79
393.956	14.85
394.32	14.9
394.685	14.93
395.05	15.25
395.414	15.11
395.779	14.96
396.143	15.2
396.508	15.39
396.872	15.21
397.236	15.17
397.601	15.34
397.965	15.51
398.329	15.35
398.694	15.68
399.058	15.42
399.422	15.45
399.786	15.42
400.15	15.48
400.514	15.53
400.878	15.57
401.242	15.78
401.605	15.67
401.969	15.94
402.333	15.93
402.697	16.04
403.06	15.88
403.424	15.96
403.787	15.78
404.151	16
404.514	16.3
404.878	16.08
405.241	16.11
405.604	16.32
405.968	15.9
406.331	16.25
406.694	16.04
407.057	16.23
407.42	16.33
407.783	16.22
408.146	16.38
408.509	16.42
408.872	16.63
409.235	16.6
409.598	16.59
409.961	16.68
410.323	16.71
410.686	16.56
411.049	16.71
411.411	16.47
411.774	16.81
412.136	16.94
412.499	16.85
412.861	16.9
413.223	16.79
413.586	16.93
413.948	17.16
414.31	16.89
414.672	17.21
415.035	17.45
415.397	17.39
415.759	17.09
416.121	17.29
416.483	17.31
416.845	17.22
417.206	17.11
417.568	17.36
417.93	17.39
418.292	17.25
418.653	17.54
419.015	17.38
419.377	17.33
419.738	17.21
420.1	17.37
420.461	17.38
420.822	17.38
421.184	17.46
421.545	17.36
421.906	17.48
422.267	17.34
422.629	17.37
422.99	17.32
423.351	17.25
423.712	17.45
424.073	17.5
424.434	17.56
424.795	17.62
425.155	17.81
425.516	17.7
425.877	17.55
426.238	17.69
426.598	17.71
426.959	17.6
427.32	17.76
427.68	17.89
428.041	18.07
428.401	18.13
428.761	18.19
429.122	18.12
429.482	18.3
429.842	18.3
430.202	18.45
430.563	18.52
430.923	18.67
431.283	18.51
431.643	18.95
432.003	18.82
432.363	18.71
432.722	18.66
433.082	18.81
433.442	18.62
433.802	18.63
434.161	18.8
434.521	18.76
434.881	18.78
435.24	18.76
435.6	18.95
435.959	19.02
436.319	18.95
436.678	18.97
437.037	19.13
437.396	19.38
437.756	19.22
438.115	19
438.474	19.41
438.833	19.28
439.192	19.27
439.551	19.31
439.91	19.51
440.269	19.5
440.628	19.41
440.987	19.33
441.345	19.36
441.704	19.38
442.063	19.3
442.421	19.42
442.78	19.32
443.138	19.59
443.497	19.47
443.855	19.44
444.214	19.58
444.572	19.74
444.93	19.94
445.288	19.64
445.647	19.72
446.005	19.77
446.363	19.79
446.721	19.84
447.079	19.83
447.437	19.85
447.795	19.77
448.153	19.74
448.51	19.67
448.868	19.73
449.226	19.73
449.584	19.93
449.941	19.88
450.299	20.1
450.656	20.27
451.014	20.25
451.371	20.34
451.729	20.58
452.086	20.55
452.443	20.67
452.801	20.52
453.158	20.73
453.515	20.86
453.872	20.59
454.229	20.71
454.586	20.71
454.943	20.87
455.3	20.81
455.657	20.84
456.014	20.83
456.371	20.8
456.727	20.85
457.084	20.95
457.441	21.05
457.797	21.03
458.154	21.14
458.51	21.33
458.867	21.22
459.223	21.67
459.58	21.47
459.936	21.34
460.292	21.08
460.648	21.24
461.005	21.17
461.361	21.26
461.717	21.14
462.073	21.14
462.429	21.23
462.785	21.2
463.141	21.4
463.496	21.44
463.852	21.8
464.208	21.59
464.564	21.78
464.919	21.76
465.275	21.97
465.631	21.91
465.986	21.99
466.342	21.87
466.697	22.01
467.052	22.03
467.408	21.95
467.763	22.03
468.118	22.39
468.473	22.29
468.829	22.18
469.184	22.29
469.539	22.07
469.894	22.29
470.249	22.13
470.603	22.47
470.958	22.32
471.313	22.39
471.668	22.41
472.023	22.34
472.377	22.77
472.732	22.63
473.086	22.55
473.441	22.76
473.795	22.73
474.15	22.67
474.504	22.67
474.859	22.68
475.213	22.85
475.567	22.66
475.921	23.1
476.275	22.89
476.63	23
476.984	23.2
477.338	23.08
477.692	23.18
478.045	22.92
478.399	23.1
478.753	23.02
479.107	23.14
479.461	23.18
479.814	23.18
480.168	23.45
480.521	23.25
480.875	23.42
481.228	23.43
481.582	23.35
481.935	23.47
482.289	23.26
482.642	23.34
482.995	23.52
483.348	23.34
483.701	23.33
484.055	23.29
484.408	23.23
484.761	23.23
485.114	22.79
485.466	22.75
485.819	22.67
486.172	22.79
486.525	22.82
486.878	22.92
487.23	22.91
487.583	23.11
487.936	23.2
488.288	23.39
488.641	23.21
488.993	23.23
489.345	23.18
489.698	23.2
490.05	23.25
490.402	23.25
490.754	23.34
491.107	23.47
491.459	23.7
491.811	23.67
492.163	23.98
492.515	23.99
492.866	23.79
493.218	23.64
493.57	23.75
493.922	23.76
494.274	23.71
494.625	23.87
494.977	24.08
495.328	24.2
495.68	24.44
496.031	24.65
496.383	24.72
496.734	24.98
497.086	24.89
497.437	25.04
497.788	24.79
498.139	24.91
498.49	24.83
498.842	24.88
499.193	24.8
499.544	25
499.894	24.85
500.245	24.96
500.596	25
500.947	25.13
501.298	25.16
501.648	25.29
501.999	25.4
502.35	25.23
502.7	25.46
503.051	25.6
503.401	25.54
503.752	25.71
504.102	25.83
504.452	25.55
504.803	25.8
505.153	25.71
505.503	25.84
505.853	25.9
506.203	25.7
506.553	25.75
506.903	25.85
507.253	25.87
507.603	25.84
507.953	26.01
508.303	25.99
508.652	25.96
509.002	26.27
509.352	26.14
509.701	26.02
510.051	26.25
510.4	26.15
510.75	26
511.099	26.17
511.449	26.03
511.798	26.06
512.147	26.3
512.496	26.29
512.846	26.21
513.195	26.36
513.544	26.45
513.893	26.31
514.242	26.54
514.591	26.41
514.939	26.58
515.288	26.56
515.637	26.57
515.986	26.67
516.334	26.71
516.683	26.86
517.032	26.8
517.38	26.96
517.729	26.82
518.077	26.87
518.426	26.89
518.774	26.95
519.122	26.99
519.47	26.93
519.819	26.7
520.167	26.63
520.515	26.62
520.863	26.79
521.211	26.8
521.559	26.99
521.907	26.96
522.255	27.21
522.602	27.1
522.95	27.23
523.298	27.41
523.645	27.49
523.993	27.56
524.341	27.5
524.688	27.65
525.036	27.66
525.383	27.59
525.73	27.76
526.078	27.62
526.425	27.66
526.772	27.61
527.119	27.52
527.466	27.33
527.814	27.47
528.161	27.36
528.508	27.56
528.854	27.38
529.201	27.52
529.548	27.42
529.895	27.27
530.242	27.16
530.588	27.26
530.935	27.33
531.282	27.39
531.628	27.2
531.975	27.34
532.321	27.55
532.667	27.64
533.014	27.86
533.36	27.84
533.706	28.05
534.052	27.95
534.399	28.02
534.745	27.87
535.091	27.74
535.437	27.96
535.783	27.93
536.129	28.02
536.474	28.02
536.82	28.26
537.166	28.37
537.512	28.45
537.857	28.41
538.203	28.52
538.549	28.51
538.894	28.54
539.239	28.67
539.585	28.72
539.93	28.71
540.276	28.79
540.621	28.93
540.966	29.12
541.311	29.21
541.656	29.36
542.001	29.31
542.346	29.04
542.691	28.91
543.036	28.62
543.381	28.66
543.726	28.81
544.071	28.8
544.415	28.81
544.76	28.84
545.105	29.01
545.449	29.25
545.794	29.3
546.138	29.34
546.483	29.58
546.827	29.53
547.171	29.67
547.516	29.65
547.86	29.78
548.204	29.76
548.548	29.63
548.892	29.71
549.236	29.8
549.58	29.8
549.924	30.07
550.268	30.14
550.612	30.24
550.956	30.17
551.3	30.43
551.643	30.47
551.987	30.46
552.33	30.54
552.674	30.67
553.017	30.98
553.361	30.72
553.704	30.6
554.048	30.71
554.391	30.67
554.734	30.85
555.077	30.75
555.42	30.83
555.764	31.02
556.107	30.93
556.45	30.85
556.793	31.13
557.135	31.18
557.478	31.1
557.821	31.26
558.164	31.39
558.507	31.12
558.849	31.32
559.192	31.57
559.534	31.39
559.877	31.59
560.219	31.36
560.562	31.56
560.904	31.56
561.246	31.41
561.589	31.41
561.931	31.38
562.273	31.69
562.615	31.86
562.957	31.65
563.299	31.76
563.641	31.75
563.983	32.02
564.325	32.07
564.667	31.96
565.008	32.01
565.35	31.89
565.692	32.23
566.033	32.21
566.375	32.09
566.716	32.04
567.058	32.21
567.399	32.25
567.741	32.25
568.082	32.18
568.423	32.07
568.764	32.11
569.105	32.23
569.447	32.39
569.788	32.33
570.129	32.47
570.47	32.52
570.811	32.37
571.151	32.66
571.492	32.79
571.833	32.57
572.174	32.64
572.514	32.47
572.855	32.41
573.195	32.58
573.536	32.62
573.876	32.56
574.217	32.73
574.557	32.55
574.898	32.57
575.238	32.69
575.578	32.79
575.918	32.63
576.258	32.95
576.598	32.84
576.938	32.94
577.278	32.93
577.618	33.26
577.958	32.96
578.298	32.97
578.638	33.05
578.977	33.13
579.317	33.4
579.657	33.42
579.996	33.24
580.336	33.53
580.675	33.61
581.014	33.98
581.354	33.73
581.693	33.6
582.032	33.76
582.372	33.7
582.711	34.1
583.05	33.8
583.389	33.79
583.728	33.99
584.067	34.09
584.406	34.14
584.745	34.27
585.083	34.08
585.422	34.25
585.761	34.5
586.1	34
586.438	33.78
586.777	34.43
587.115	34.39
587.454	34.22
587.792	34.66
588.13	34.52
588.469	34.72
588.807	34.65
589.145	34.25
589.483	34.49
589.821	34.72
590.159	34.72
590.497	34.85
590.835	34.57
591.173	34.49
591.511	34.9
591.849	34.71
592.187	34.93
592.524	34.92
592.862	35.06
593.2	35.06
593.537	34.89
593.875	35.08
594.212	35.29
594.55	35.04
594.887	35.23
595.224	34.95
595.561	35.09
595.899	35.37
596.236	35.34
596.573	34.86
596.91	35.1
597.247	35.45
597.584	35.4
597.921	35.4
598.258	35.4
598.594	35.16
598.931	35.21
599.268	35.31
599.604	35.36
599.941	35.24
600.277	35.34
600.614	35.39
600.95	35.42
601.287	35.58
601.623	35.72
601.959	35.79
602.296	35.96
602.632	35.52
602.968	35.74
603.304	35.99
603.64	36
603.976	35.66
604.312	36.2
604.648	36.14
604.984	35.88
605.319	35.65
605.655	35.88
605.991	35.99
606.326	35.93
606.662	35.6
606.998	35.7
607.333	35.76
607.668	35.98
608.004	35.9
608.339	36.13
608.674	36.17
609.01	36.23
609.345	36.19
609.68	36.49
610.015	36.51
610.35	36.61
610.685	36.76
611.02	36.49
611.355	36.44
611.689	36.62
612.024	36.48
612.359	36.49
612.694	36.72
613.028	36.65
613.363	36.54
613.697	36.46
614.032	36.9
614.366	36.69
614.7	37.01
615.035	37.16
615.369	37.14
615.703	37.54
616.037	37.11
616.371	37.36
616.705	37.01
617.039	37.61
617.373	37.31
617.707	37.19
618.041	37.52
618.375	37.36
618.709	37.53
619.042	37.52
619.376	37.38
619.71	37.29
620.043	37.8
620.377	37.67
620.71	38.24
621.043	37.56
621.377	37.71
621.71	38.02
622.043	38.01
622.376	37.44
622.709	38
623.043	37.8
623.376	37.67
623.709	38.09
624.041	38.21
624.374	37.95
624.707	37.95
625.04	38.29
625.373	38.05
625.705	38.04
626.038	38.15
626.37	38.45
626.703	37.71
627.035	37.62
627.368	37.81
627.7	38.4
628.032	38.24
628.365	38.51
628.697	38.08
629.029	38.31
629.361	38.32
629.693	38.33
630.025	38.48
630.357	38.51
630.689	38.53
631.021	37.97
631.353	38.55
631.684	38.51
632.016	38.73
632.348	38.66
632.679	38.69
633.011	38.77
633.342	38.66
633.674	39.17
634.005	38.79
634.336	38.94
634.668	38.76
634.999	39.21
635.33	38.84
635.661	39.3
635.992	39.15
636.323	39.53
636.654	39.04
636.985	39.39
637.316	38.88
637.647	39.11
637.977	39.57
638.308	39.11
638.639	39.13
638.969	39.4
639.3	39.39
639.63	39.41
639.961	39.72
640.291	39.47
640.622	39.5
640.952	39.36
641.282	39.67
641.612	39.6
641.943	39.68
642.273	39.99
642.603	39.84
642.933	39.09
643.263	39.29
643.592	39.57
643.922	40.17
644.252	39.66
644.582	39.85
644.911	39.88
645.241	39.89
645.571	40.12
645.9	40.38
646.23	40
646.559	40.12
646.888	39.81
647.218	40.33
647.547	40.16
647.876	40.26
648.205	39.82
648.534	40.16
648.863	40.14
649.192	40.73
649.521	40.04
649.85	40.48
650.179	40.51
650.508	40.41
650.837	40.46
651.165	40.73
651.494	40.1
651.822	39.82
652.151	40.41
652.479	40.28
652.808	40.35
653.136	40.88
653.465	41.06
653.793	40.92
654.121	40.69
654.449	40.23
654.777	40.46
655.105	40.44
655.433	40.63
655.761	40.76
656.089	40.71
656.417	40.61
656.745	40.62
657.073	40.96
657.4	40.68
657.728	41.12
658.056	40.61
658.383	41.84
658.711	40.92
659.038	41.18
659.365	41.74
659.693	41.71
660.02	41.29
660.347	41.09
660.674	41.2
661.001	41.18
661.329	41.43
661.656	41.16
661.982	40.84
662.309	40.94
662.636	41.27
662.963	40.79
663.29	40.8
663.616	41.02
663.943	41.26
664.27	41.73
664.596	41.37
664.923	41.37
665.249	41.69
665.576	41.33
665.902	41.45
666.228	41.62
666.554	42.09
666.881	41.71
667.207	41.95
667.533	41.18
667.859	41.76
668.185	41.59
668.511	41.91
668.837	42.07
669.162	42.32
669.488	42.11
669.814	41.72
670.139	42.07
670.465	41.75
670.791	41.8
671.116	41.97
