Data from 0045_crown_Reflection__3__159.txt Node

Date: Fri Nov 04 16:08:28 CDT 2022
User: ToomeyLab
Spectrometer: FLMS14357
Trigger mode: 0
Integration Time (sec): 1.000000E-2
Scans to average: 100
Electric dark correction enabled: true
Nonlinearity correction enabled: false
Boxcar width: 0
XAxis mode: Wavelengths
Number of Pixels in Spectrum: 2048
>>>>>Begin Spectral Data<<<<<
189.047	49.95
189.435	49.95
189.823	49.95
190.211	176.72
190.599	-154.82
190.987	732.07
191.375	131.1
191.763	256.14
192.151	98.24
192.538	19.85
192.926	91.12
193.314	69.04
193.702	119.41
194.089	203.64
194.477	-47.29
194.864	370.79
195.252	129.26
195.639	-12.01
196.027	-22.35
196.414	93.36
196.801	93.41
197.189	-140.23
197.576	121.89
197.963	-56.9
198.351	-42.88
198.738	16.45
199.125	-44.52
199.512	-142.35
199.899	-8.42
200.286	-13.96
200.673	61.94
201.06	-20.41
201.447	-24.22
201.833	-31.17
202.22	-0.06
202.607	-35.11
202.994	48.02
203.38	10.3
203.767	21.98
204.154	13.9
204.54	-10.56
204.927	-17.57
205.313	9.52
205.699	10.58
206.086	-18.4
206.472	-30.46
206.858	-5.24
207.245	-36.11
207.631	-12.13
208.017	-2.72
208.403	28.65
208.789	33.23
209.175	-20.34
209.561	-143.64
209.947	-86.45
210.333	-15.93
210.719	-6.99
211.105	-112.78
211.491	2
211.876	-3.95
212.262	-8.89
212.648	-42.83
213.034	1.01
213.419	-32.83
213.805	-54.3
214.19	-31.15
214.576	-20.72
214.961	12.06
215.346	15.17
215.732	-12.53
216.117	-4.67
216.502	-4.42
216.888	8.83
217.273	-6.55
217.658	-23.26
218.043	-21.38
218.428	-1.35
218.813	-18.44
219.198	-3.9
219.583	-13.93
219.968	6.44
220.353	-38.22
220.738	-69.67
221.122	-3.09
221.507	-5.16
221.892	-23.17
222.276	-3.11
222.661	-8.83
223.046	-3.87
223.43	-8.35
223.815	-15.88
224.199	7.04
224.583	0.64
224.968	-9.17
225.352	6.01
225.736	-3.7
226.121	-14.42
226.505	1.03
226.889	-10.99
227.273	1.12
227.657	0.54
228.041	1.77
228.425	5.62
228.809	-0.2
229.193	4.21
229.577	1.43
229.961	2.6
230.344	2.39
230.728	2.6
231.112	2.63
231.495	2.32
231.879	3.26
232.263	1.49
232.646	2.49
233.03	1.51
233.413	1.08
233.797	1.56
234.18	-0.75
234.563	0.82
234.946	0.89
235.33	4.17
235.713	1.33
236.096	3.36
236.479	1.64
236.862	0.58
237.245	1.34
237.628	1.04
238.011	0.68
238.394	2.78
238.777	3.37
239.16	2.41
239.543	2.21
239.925	2.45
240.308	3.26
240.691	3.33
241.073	1.26
241.456	2.87
241.838	2.49
242.221	3.05
242.603	2.53
242.986	2.11
243.368	2.25
243.75	2.59
244.133	3.2
244.515	2.71
244.897	2.69
245.279	2.59
245.661	3.53
246.043	3.28
246.425	2.2
246.807	2.97
247.189	1.62
247.571	3.09
247.953	3.08
248.335	2.77
248.717	2.71
249.098	2.82
249.48	2.67
249.862	3
250.243	2.46
250.625	2.02
251.006	2.56
251.388	2.76
251.769	2.81
252.151	2.35
252.532	2.83
252.913	1.86
253.295	2.61
253.676	2.45
254.057	2.19
254.438	2.42
254.819	2.12
255.2	2.1
255.581	2.99
255.962	3.02
256.343	2.13
256.724	1.87
257.105	2.39
257.486	2.19
257.867	2.53
258.247	2.82
258.628	2.05
259.009	1.41
259.389	2.6
259.77	2.65
260.15	2.15
260.531	2.33
260.911	2.44
261.292	2.41
261.672	2.7
262.052	2.54
262.432	2.7
262.813	2.33
263.193	1.9
263.573	2.39
263.953	2.54
264.333	2.85
264.713	2.92
265.093	2.32
265.473	2.7
265.853	1.5
266.233	2.03
266.612	1.96
266.992	2.83
267.372	1.47
267.752	2.08
268.131	2.65
268.511	2.6
268.89	2.32
269.27	2.14
269.649	2.85
270.029	2.11
270.408	2.78
270.787	2.84
271.167	2.3
271.546	2.8
271.925	2.89
272.304	2.24
272.683	2.12
273.062	2.09
273.441	2.57
273.82	2.28
274.199	2.73
274.578	2.31
274.957	2.26
275.336	1.75
275.715	2.05
276.093	2.76
276.472	1.84
276.851	2.1
277.229	2.63
277.608	2.3
277.986	2.57
278.365	2.56
278.743	2.79
279.122	2.25
279.5	2.42
279.878	2.11
280.257	2.21
280.635	2.22
281.013	2.09
281.391	2.19
281.769	2.24
282.147	1.84
282.525	2.45
282.903	2.59
283.281	2.64
283.659	2.01
284.037	2.03
284.415	2.2
284.792	2.74
285.17	2.01
285.548	2.53
285.925	2.45
286.303	2.56
286.68	2.29
287.058	2.33
287.435	2.42
287.813	2.26
288.19	2.21
288.567	1.95
288.945	2.28
289.322	2.48
289.699	2.45
290.076	2.17
290.453	1.79
290.83	1.91
291.207	1.81
291.584	2.35
291.961	1.97
292.338	2.61
292.715	2.35
293.092	2.32
293.469	1.9
293.845	2.1
294.222	2.02
294.599	1.56
294.975	2.08
295.352	1.86
295.728	2.47
296.105	2.22
296.481	2.14
296.858	2.14
297.234	2.64
297.61	2.77
297.986	1.82
298.363	1.89
298.739	1.91
299.115	2.26
299.491	2.3
299.867	2.28
300.243	2
300.619	2.29
300.995	2.52
301.371	2.39
301.746	2.11
302.122	1.91
302.498	2.02
302.874	2.1
303.249	1.83
303.625	1.93
304	1.99
304.376	1.69
304.751	1.86
305.127	1.5
305.502	2.35
305.878	2.35
306.253	2.04
306.628	1.65
307.003	1.97
307.378	2.3
307.754	1.57
308.129	1.24
308.504	1.88
308.879	1.97
309.254	2.38
309.629	2.13
310.003	2.23
310.378	1.87
310.753	2.26
311.128	1.7
311.502	1.85
311.877	2.17
312.252	1.76
312.626	2.04
313.001	1.96
313.375	1.74
313.75	1.84
314.124	1.7
314.498	1.85
314.873	2.05
315.247	2.24
315.621	1.84
315.995	2.19
316.369	1.93
316.743	2.53
317.117	1.91
317.491	2.09
317.865	1.7
318.239	2.05
318.613	2.63
318.987	1.77
319.361	2.23
319.734	2.51
320.108	1.83
320.482	1.06
320.855	2.37
321.229	2.17
321.602	2.12
321.976	1.61
322.349	2.71
322.723	1.97
323.096	1.88
323.469	1.68
323.843	1.82
324.216	1.9
324.589	2.04
324.962	2.19
325.335	1.62
325.708	1.59
326.081	1.91
326.454	1.84
326.827	2.35
327.2	1.82
327.573	1.9
327.945	2.23
328.318	1.67
328.691	1.75
329.063	1.92
329.436	2.24
329.809	1.51
330.181	1.62
330.553	1.44
330.926	1.5
331.298	2.24
331.671	2.24
332.043	2.04
332.415	1.57
332.787	1.62
333.159	1.5
333.532	1.67
333.904	2.07
334.276	2.06
334.648	2.4
335.02	1.53
335.391	1.96
335.763	1.65
336.135	1.9
336.507	2.07
336.879	1.73
337.25	2.27
337.622	1.99
337.993	2.31
338.365	1.94
338.736	2.54
339.108	2.18
339.479	1.96
339.851	1.84
340.222	2.04
340.593	1.99
340.964	2.23
341.336	1.62
341.707	1.71
342.078	1.98
342.449	1.87
342.82	1.79
343.191	1.7
343.562	1.96
343.933	2.11
344.303	2.17
344.674	1.96
345.045	1.58
345.416	1.6
345.786	1.99
346.157	2.02
346.527	2.22
346.898	2.15
347.268	2.01
347.639	1.98
348.009	2.17
348.38	1.73
348.75	1.74
349.12	2
349.49	1.98
349.861	1.79
350.231	2.24
350.601	1.84
350.971	1.98
351.341	1.85
351.711	1.73
352.081	1.96
352.45	1.9
352.82	1.91
353.19	2.19
353.56	2.2
353.929	2
354.299	2.6
354.669	2.03
355.038	2.26
355.408	1.75
355.777	1.76
356.147	1.86
356.516	1.75
356.885	1.82
357.254	2.16
357.624	2.17
357.993	2.03
358.362	1.97
358.731	1.84
359.1	2.01
359.469	2.13
359.838	2.14
360.207	2.38
360.576	2.13
360.945	2.06
361.314	2.3
361.682	2.22
362.051	1.99
362.42	2.19
362.788	2.07
363.157	2.09
363.525	2.13
363.894	1.95
364.262	2.2
364.631	2.37
364.999	1.96
365.367	2.03
365.735	2.38
366.104	1.89
366.472	2.16
366.84	1.76
367.208	2.17
367.576	1.93
367.944	2.23
368.312	2.17
368.68	1.82
369.048	1.98
369.416	1.99
369.783	1.64
370.151	2.05
370.519	2.32
370.886	2
371.254	2.48
371.621	2.22
371.989	2.14
372.356	2.33
372.724	2.4
373.091	2.1
373.458	2.39
373.826	2.34
374.193	1.89
374.56	1.83
374.927	2.25
375.294	2.08
375.661	2.31
376.028	2.06
376.395	2.02
376.762	2.22
377.129	1.95
377.496	2.47
377.863	2.26
378.229	2.08
378.596	1.98
378.963	2.15
379.329	1.97
379.696	2.12
380.062	2.39
380.429	2.21
380.795	2.23
381.161	2.12
381.528	2.32
381.894	2.11
382.26	2.24
382.626	2.13
382.993	2.32
383.359	2.51
383.725	2.17
384.091	2.11
384.457	2.14
384.823	1.99
385.188	2.27
385.554	1.88
385.92	1.9
386.286	2.21
386.651	2.11
387.017	1.97
387.383	2.27
387.748	1.78
388.114	2.08
388.479	2.67
388.845	2.12
389.21	2.58
389.575	2.36
389.94	2.36
390.306	2.23
390.671	2.34
391.036	2.3
391.401	2.55
391.766	1.94
392.131	2.28
392.496	2.23
392.861	2.57
393.226	2.05
393.591	2.19
393.956	2.48
394.32	2.19
394.685	2.52
395.05	2.58
395.414	2.32
395.779	2.23
396.143	2.29
396.508	2.35
396.872	2.24
397.236	2.61
397.601	2.36
397.965	2.46
398.329	2.26
398.694	2.53
399.058	2.54
399.422	2.35
399.786	2.24
400.15	2.25
400.514	2.48
400.878	2.12
401.242	2.25
401.605	2.05
401.969	2.54
402.333	2.46
402.697	2.29
403.06	2.6
403.424	2.53
403.787	2.64
404.151	2.65
404.514	2.59
404.878	2.23
405.241	2.36
405.604	2.47
405.968	2.13
406.331	2.24
406.694	2.39
407.057	2.42
407.42	2.35
407.783	2.36
408.146	2.42
408.509	2.48
408.872	2.56
409.235	2.6
409.598	2.4
409.961	2.49
410.323	2.37
410.686	2.36
411.049	2.34
411.411	2.27
411.774	2.51
412.136	2.59
412.499	2.57
412.861	2.6
413.223	2.46
413.586	2.39
413.948	2.56
414.31	2.26
414.672	2.6
415.035	2.73
415.397	2.43
415.759	2.66
416.121	2.45
416.483	2.39
416.845	2.56
417.206	2.36
417.568	2.52
417.93	2.42
418.292	2.53
418.653	2.48
419.015	2.44
419.377	2.51
419.738	2.51
420.1	2.5
420.461	2.54
420.822	2.49
421.184	2.43
421.545	2.37
421.906	2.5
422.267	2.49
422.629	2.57
422.99	2.43
423.351	2.37
423.712	2.41
424.073	2.57
424.434	2.47
424.795	2.55
425.155	2.63
425.516	2.62
425.877	2.5
426.238	2.4
426.598	2.51
426.959	2.43
427.32	2.5
427.68	2.49
428.041	2.53
428.401	2.63
428.761	2.61
429.122	2.63
429.482	2.58
429.842	2.42
430.202	2.6
430.563	2.58
430.923	2.62
431.283	2.39
431.643	2.75
432.003	2.85
432.363	2.64
432.722	2.69
433.082	2.79
433.442	2.6
433.802	2.52
434.161	2.57
434.521	2.48
434.881	2.59
435.24	2.51
435.6	2.64
435.959	2.67
436.319	2.6
436.678	2.71
437.037	2.68
437.396	2.86
437.756	2.58
438.115	2.47
438.474	2.71
438.833	2.78
439.192	2.7
439.551	2.53
439.91	2.8
440.269	2.64
440.628	2.63
440.987	2.67
441.345	2.53
441.704	2.65
442.063	2.65
442.421	2.66
442.78	2.65
443.138	2.67
443.497	2.66
443.855	2.63
444.214	2.79
444.572	2.75
444.93	2.66
445.288	2.67
445.647	2.56
446.005	2.64
446.363	2.77
446.721	2.72
447.079	2.57
447.437	2.69
447.795	2.59
448.153	2.57
448.51	2.64
448.868	2.51
449.226	2.58
449.584	2.69
449.941	2.64
450.299	2.72
450.656	2.81
451.014	2.8
451.371	2.85
451.729	2.84
452.086	2.74
452.443	2.84
452.801	2.71
453.158	2.73
453.515	2.65
453.872	2.49
454.229	2.82
454.586	2.71
454.943	2.84
455.3	2.83
455.657	2.72
456.014	2.71
456.371	2.67
456.727	2.8
457.084	2.89
457.441	2.79
457.797	2.78
458.154	2.73
458.51	2.85
458.867	2.66
459.223	2.96
459.58	2.89
459.936	2.7
460.292	2.83
460.648	2.83
461.005	2.61
461.361	2.8
461.717	2.8
462.073	2.83
462.429	2.86
462.785	2.8
463.141	2.92
463.496	2.63
463.852	2.91
464.208	2.69
464.564	2.77
464.919	3.02
465.275	2.93
465.631	2.98
465.986	2.9
466.342	2.7
466.697	2.9
467.052	2.85
467.408	2.9
467.763	2.88
468.118	3
468.473	2.9
468.829	2.63
469.184	2.85
469.539	2.78
469.894	2.92
470.249	2.95
470.603	2.82
470.958	2.75
471.313	2.9
471.668	2.93
472.023	2.69
472.377	3.01
472.732	2.95
473.086	2.86
473.441	2.89
473.795	2.77
474.15	2.93
474.504	2.82
474.859	2.84
475.213	2.91
475.567	2.92
475.921	2.82
476.275	2.88
476.63	2.84
476.984	2.89
477.338	3.03
477.692	3.08
478.045	2.79
478.399	2.81
478.753	2.95
479.107	2.84
479.461	3.05
479.814	2.93
480.168	3.07
480.521	2.87
480.875	2.95
481.228	3.08
481.582	2.92
481.935	2.95
482.289	2.92
482.642	3.12
482.995	3.04
483.348	2.85
483.701	2.9
484.055	2.84
484.408	2.9
484.761	2.83
485.114	2.78
485.466	2.73
485.819	2.69
486.172	2.72
486.525	2.75
486.878	2.9
487.23	2.92
487.583	2.92
487.936	2.97
488.288	2.95
488.641	2.85
488.993	2.82
489.345	2.78
489.698	2.78
490.05	2.86
490.402	2.84
490.754	2.89
491.107	2.97
491.459	2.97
491.811	2.95
492.163	3.04
492.515	2.99
492.866	2.83
493.218	2.78
493.57	2.78
493.922	2.85
494.274	2.9
494.625	2.97
494.977	3.04
495.328	3.06
495.68	2.96
496.031	3.04
496.383	3.09
496.734	3.01
497.086	3.19
497.437	3.2
497.788	3.14
498.139	2.95
498.49	2.89
498.842	3.06
499.193	3.01
499.544	3.11
499.894	2.95
500.245	3.04
500.596	3.03
500.947	3.05
501.298	3.01
501.648	3.09
501.999	3.14
502.35	3.09
502.7	3.05
503.051	3.12
503.401	3.04
503.752	3.15
504.102	2.97
504.452	2.95
504.803	3.09
505.153	3.03
505.503	3.15
505.853	3.15
506.203	3.03
506.553	3.13
506.903	3.12
507.253	3.02
507.603	3.17
507.953	3.05
508.303	3.13
508.652	3.09
509.002	3.17
509.352	3.14
509.701	3.1
510.051	3.05
510.4	3.07
510.75	3.07
511.099	3.07
511.449	2.94
511.798	3.04
512.147	3.04
512.496	3.08
512.846	3.01
513.195	3.14
513.544	3.07
513.893	3.12
514.242	3.03
514.591	2.94
514.939	3.25
515.288	3.12
515.637	3.13
515.986	3.12
516.334	3.05
516.683	3.05
517.032	3.19
517.38	3.16
517.729	3.2
518.077	3.17
518.426	3.24
518.774	3.21
519.122	3.03
519.47	3.04
519.819	2.99
520.167	3.12
520.515	3.03
520.863	3
521.211	2.98
521.559	3.08
521.907	3.07
522.255	3.17
522.602	3.12
522.95	3.11
523.298	3.26
523.645	3.12
523.993	3.09
524.341	3.2
524.688	3.18
525.036	3.09
525.383	3.27
525.73	3.19
526.078	3.1
526.425	3.22
526.772	3.03
527.119	2.96
527.466	3
527.814	3.01
528.161	2.93
528.508	3.08
528.854	3.02
529.201	3.01
529.548	3.04
529.895	2.93
530.242	2.92
530.588	2.86
530.935	2.91
531.282	2.96
531.628	3
531.975	3.11
532.321	3.14
532.667	3.13
533.014	3.13
533.36	3.09
533.706	3.18
534.052	3.1
534.399	3
534.745	3.06
535.091	2.94
535.437	2.95
535.783	2.95
536.129	3.09
536.474	3.13
536.82	3.1
537.166	3.17
537.512	3.13
537.857	3.03
538.203	3.07
538.549	3.04
538.894	3.08
539.239	3.15
539.585	3.08
539.93	3.17
540.276	3.14
540.621	3.16
540.966	3.17
541.311	3.09
541.656	3.2
542.001	3.24
542.346	3.08
542.691	3.14
543.036	2.92
543.381	2.98
543.726	2.98
544.071	3.01
544.415	3.07
544.76	3.13
545.105	3.1
545.449	3.15
545.794	3.14
546.138	3.17
546.483	3.11
546.827	3.15
547.171	3.18
547.516	3.22
547.86	3.16
548.204	3.21
548.548	3.07
548.892	3.11
549.236	3.15
549.58	3.24
549.924	3.27
550.268	3.26
550.612	3.07
550.956	3.19
551.3	3.08
551.643	3.28
551.987	3.13
552.33	3.07
552.674	3.23
553.017	3.26
553.361	3.37
553.704	3.14
554.048	3.16
554.391	2.99
554.734	3.15
555.077	3.1
555.42	3.16
555.764	3.41
556.107	3.25
556.45	3.33
556.793	3.27
557.135	3.25
557.478	3.24
557.821	3.37
558.164	3.23
558.507	3.12
558.849	3.22
559.192	3.24
559.534	3.11
559.877	3.25
560.219	3.14
560.562	3.35
560.904	3.33
561.246	3.2
561.589	3.19
561.931	3.21
562.273	3.26
562.615	3.18
562.957	3.25
563.299	3.02
563.641	3.18
563.983	3.26
564.325	3.16
564.667	3.24
565.008	3.05
565.35	3.11
565.692	3.37
566.033	3.39
566.375	3.11
566.716	3.22
567.058	3.21
567.399	3.14
567.741	3.17
568.082	3.27
568.423	3.11
568.764	3.06
569.105	3.16
569.447	3.21
569.788	3.18
570.129	3.11
570.47	3.32
570.811	3.3
571.151	3.12
571.492	3.26
571.833	3.29
572.174	3.33
572.514	3.27
572.855	2.98
573.195	3.06
573.536	3
573.876	3.21
574.217	3.02
574.557	3.09
574.898	3.16
575.238	3.13
575.578	3.29
575.918	3.26
576.258	3.23
576.598	3.17
576.938	3.23
577.278	3.08
577.618	3.11
577.958	3.05
578.298	3.14
578.638	3.15
578.977	3.25
579.317	3.35
579.657	3.18
579.996	3.14
580.336	3.08
580.675	3.07
581.014	3.43
581.354	3.3
581.693	3.57
582.032	3.14
582.372	3.26
582.711	3.19
583.05	3.09
583.389	3.2
583.728	3.34
584.067	3.36
584.406	2.94
584.745	3.23
585.083	3.06
585.422	3.12
585.761	3.2
586.1	3.09
586.438	2.89
586.777	3.38
587.115	3.13
587.454	3.38
587.792	3.4
588.13	3.33
588.469	3.27
588.807	3.3
589.145	3.18
589.483	3.02
589.821	3.22
590.159	2.91
590.497	3.4
590.835	3.22
591.173	3.01
591.511	3.2
591.849	3.4
592.187	3.19
592.524	3.27
592.862	3.18
593.2	3.28
593.537	3.33
593.875	3.3
594.212	3.05
594.55	3.25
594.887	3.12
595.224	3.33
595.561	3.03
595.899	3.28
596.236	3.22
596.573	3.11
596.91	3.23
597.247	3.19
597.584	3.03
597.921	3.44
598.258	3.25
598.594	2.86
598.931	3.23
599.268	3.3
599.604	3.12
599.941	3.26
600.277	3.18
600.614	3.28
600.95	3.36
601.287	3.32
601.623	3.23
601.959	3.41
602.296	3.47
602.632	3.34
602.968	3.4
603.304	3.17
603.64	3.39
603.976	2.93
604.312	3.15
604.648	3.04
604.984	3.17
605.319	3.03
605.655	3.06
605.991	3.31
606.326	3.15
606.662	3.02
606.998	3.09
607.333	3.19
607.668	3.44
608.004	3.25
608.339	3.18
608.674	3.32
609.01	3.22
609.345	3.19
609.68	3.3
610.015	3.25
610.35	3.29
610.685	3.39
611.02	3.2
611.355	3.13
611.689	3.19
612.024	3.16
612.359	3.32
612.694	3.27
613.028	3.37
613.363	3.35
613.697	3.13
614.032	3.28
614.366	3.36
614.7	3.12
615.035	3.51
615.369	3.11
615.703	3.43
616.037	3.29
616.371	3.36
616.705	3.37
617.039	3.24
617.373	3.29
617.707	3.38
618.041	3.25
618.375	3.44
618.709	3.23
619.042	3.44
619.376	3.1
619.71	3.15
620.043	3.61
620.377	3.51
620.71	3.12
621.043	3.11
621.377	3.41
621.71	3.49
622.043	3.54
622.376	3.5
622.709	3.33
623.043	3.13
623.376	3.58
623.709	3.12
624.041	3.18
624.374	3.15
624.707	2.92
625.04	3.74
625.373	3.48
625.705	3.42
626.038	3.18
626.37	3.53
626.703	3.63
627.035	3.15
627.368	3.27
627.7	3.18
628.032	3.14
628.365	3.65
628.697	3.21
629.029	3.23
629.361	3.06
629.693	3.37
630.025	3.4
630.357	3.21
630.689	3.46
631.021	3.19
631.353	3.2
631.684	3.33
632.016	3.47
632.348	3.46
632.679	3.29
633.011	3.44
633.342	3.45
633.674	2.93
634.005	3.2
634.336	3.51
634.668	3.32
634.999	3.65
635.33	3.07
635.661	3.3
635.992	3.54
636.323	3.28
636.654	3.01
636.985	3.64
637.316	3.36
637.647	3.24
637.977	3.47
638.308	3.68
638.639	3.47
638.969	3.05
639.3	3.81
639.63	3.37
639.961	3.68
640.291	3.6
640.622	3.4
640.952	3.29
641.282	3.19
641.612	3.6
641.943	3.23
642.273	3.14
642.603	3.44
642.933	3.09
643.263	2.83
643.592	3.51
643.922	3.82
644.252	3.63
644.582	3.2
644.911	3.44
645.241	3.2
645.571	3.1
645.9	3.51
646.23	3.32
646.559	3.59
646.888	3.06
647.218	3.56
647.547	3.42
647.876	3.85
648.205	3.04
648.534	3.37
648.863	3.29
649.192	3.34
649.521	3.55
649.85	3.69
650.179	3.05
650.508	3.67
650.837	3.88
651.165	3.39
651.494	3.7
651.822	3.69
652.151	3.3
652.479	3.51
652.808	3.07
653.136	3.37
653.465	3.46
653.793	3.47
654.121	3.2
654.449	3.26
654.777	3.31
655.105	3.46
655.433	3.2
655.761	3.39
656.089	3.01
656.417	3.16
656.745	2.86
657.073	3.25
657.4	3.47
657.728	3.37
658.056	2.85
658.383	3.47
658.711	3.77
659.038	3.02
659.365	4.16
659.693	3.81
660.02	3.84
660.347	3.54
660.674	3.49
661.001	3.48
661.329	3.63
661.656	3.53
661.982	3.38
662.309	3.24
662.636	3.43
662.963	3.22
663.29	3.19
663.616	3.67
663.943	3.8
664.27	3.6
664.596	3.37
664.923	2.88
665.249	3.67
665.576	3.53
665.902	2.6
666.228	3.12
666.554	3.84
666.881	3.33
667.207	3.36
667.533	3.21
667.859	3.63
668.185	3.52
668.511	3.49
668.837	3.25
669.162	3.41
669.488	3.12
669.814	3.45
670.139	3.46
670.465	3.42
670.791	3.54
671.116	2.96
671.442	3.25
671.767	3.24
672.092	3.43
672.418	3.52
672.743	3.82
673.068	3.71
673.393	4.3
673.718	3.64
674.043	3.37
674.368	2.9
674.693	3.58
675.018	3.29
675.343	3.44
675.667	3.94
675.992	3.26
676.317	3.73
676.641	3.34
676.966	2.85
677.29	3.59
677.615	3.67
677.939	3.39
678.264	4.04
678.588	3.62
678.912	3.93
679.236	3.56
679.56	3.17
679.885	3.43
680.209	3.16
680.532	3.84
680.856	3.6
681.18	3.33
681.504	3.89
681.828	3.16
682.152	3.9
682.475	4.15
682.799	3.65
683.122	3.69
683.446	3.39
683.769	3.26
684.093	3.71
684.416	2.98
684.739	3.39
685.062	4.02
685.386	2.8
685.709	3.89
686.032	3.81
686.355	4.99
686.678	3.67
687.001	3.79
687.324	3.64
687.646	3.78
687.969	3.63
688.292	3.78
688.614	4.4
688.937	3.76
689.26	3.03
689.582	3.71
689.904	3.93
690.227	3.63
690.549	4.42
690.871	3.81
691.194	4.08
691.516	3.34
691.838	3.3
692.16	4.38
