Data from 0045_forehead_Reflection__0__161.txt Node

Date: Fri Nov 04 16:09:16 CDT 2022
User: ToomeyLab
Spectrometer: FLMS14357
Trigger mode: 0
Integration Time (sec): 1.000000E-2
Scans to average: 100
Electric dark correction enabled: true
Nonlinearity correction enabled: false
Boxcar width: 0
XAxis mode: Wavelengths
Number of Pixels in Spectrum: 2048
>>>>>Begin Spectral Data<<<<<
189.047	106.63
189.435	106.63
189.823	106.63
190.211	-55.83
190.599	-34.42
190.987	-1087.93
191.375	86.31
191.763	196.93
192.151	107.81
192.538	-139.38
192.926	337.31
193.314	63.09
193.702	25.44
194.089	102.17
194.477	22.68
194.864	23.67
195.252	459.52
195.639	-52.55
196.027	-65.79
196.414	102.03
196.801	65.6
197.189	-344.59
197.576	72.98
197.963	110.77
198.351	-21.99
198.738	68.87
199.125	28.39
199.512	-103.52
199.899	29.8
200.286	-29.74
200.673	31.18
201.06	35.52
201.447	24.68
201.833	46.25
202.22	-0.74
202.607	14.28
202.994	55.56
203.38	42.19
203.767	29.52
204.154	54.54
204.54	-20.97
204.927	29.11
205.313	50.11
205.699	25.15
206.086	51.27
206.472	23.54
206.858	22.13
207.245	27.28
207.631	34.96
208.017	3.25
208.403	41.19
208.789	37.75
209.175	15.37
209.561	14.48
209.947	-50.25
210.333	14.64
210.719	44.02
211.105	-0.63
211.491	38.88
211.876	17.63
212.262	16.68
212.648	0.57
213.034	48.23
213.419	-0.97
213.805	4.37
214.19	7.55
214.576	8.5
214.961	58.88
215.346	27.98
215.732	27.49
216.117	20.93
216.502	56.17
216.888	19.72
217.273	31.94
217.658	5.51
218.043	27.46
218.428	34.51
218.813	-2.46
219.198	22.82
219.583	0.06
219.968	14.79
220.353	17.26
220.738	12.09
221.122	19.17
221.507	17.67
221.892	6.23
222.276	7.09
222.661	22.66
223.046	8.9
223.43	17.21
223.815	8.07
224.199	15.57
224.583	4.12
224.968	6.51
225.352	4.49
225.736	-5.23
226.121	-1.35
226.505	9.31
226.889	10.1
227.273	6.22
227.657	3.98
228.041	9.32
228.425	9.66
228.809	8.3
229.193	4.76
229.577	3.83
229.961	6.14
230.344	5.41
230.728	5.47
231.112	4.59
231.495	5.08
231.879	5.31
232.263	4.98
232.646	4.78
233.03	5.29
233.413	5.04
233.797	5.64
234.18	4.8
234.563	5.85
234.946	7
235.33	6.53
235.713	5.42
236.096	5.98
236.479	5.32
236.862	5.66
237.245	4.26
237.628	5.04
238.011	4.71
238.394	6.41
238.777	6.71
239.16	6.01
239.543	5.25
239.925	6.25
240.308	5.76
240.691	4.61
241.073	5.41
241.456	5.7
241.838	4.49
242.221	5.88
242.603	4.99
242.986	5
243.368	4.24
243.75	5.47
244.133	4.97
244.515	5.16
244.897	5.36
245.279	5.25
245.661	5.78
246.043	6.35
246.425	5.35
246.807	5.99
247.189	5.23
247.571	5.52
247.953	4.87
248.335	4.85
248.717	4.85
249.098	4.92
249.48	4.95
249.862	5.31
250.243	5.01
250.625	4.97
251.006	4.8
251.388	5.24
251.769	5.77
252.151	6.1
252.532	5.08
252.913	5.59
253.295	5.62
253.676	5.07
254.057	4.65
254.438	4.74
254.819	4.84
255.2	4.79
255.581	6.92
255.962	5.44
256.343	5.04
256.724	6.23
257.105	4.7
257.486	7.13
257.867	7.53
258.247	4.86
258.628	5.13
259.009	4.4
259.389	5.29
259.77	6.25
260.15	5.92
260.531	5.45
260.911	5
261.292	4.74
261.672	4.94
262.052	4.95
262.432	4.81
262.813	4.72
263.193	4.57
263.573	4.86
263.953	5.24
264.333	5.25
264.713	5.64
265.093	4.84
265.473	5.15
265.853	4.53
266.233	5.17
266.612	5.18
266.992	6.08
267.372	5.02
267.752	5.11
268.131	5.16
268.511	4.82
268.89	5.88
269.27	4.97
269.649	5.39
270.029	5.15
270.408	5.53
270.787	5.97
271.167	5.34
271.546	5.69
271.925	5.32
272.304	4.91
272.683	5.16
273.062	5.28
273.441	5.37
273.82	5.11
274.199	4.94
274.578	4.92
274.957	5.19
275.336	5.12
275.715	4.83
276.093	5.49
276.472	4.63
276.851	4.37
277.229	4.73
277.608	5.3
277.986	5.77
278.365	5.6
278.743	5.42
279.122	5.27
279.5	5.17
279.878	5.42
280.257	5.41
280.635	5.31
281.013	5.32
281.391	5.37
281.769	4.91
282.147	4.69
282.525	5.39
282.903	5.27
283.281	5.09
283.659	5.05
284.037	4.92
284.415	5.23
284.792	5.46
285.17	4.89
285.548	5.5
285.925	5.33
286.303	5.39
286.68	5.44
287.058	4.96
287.435	5.05
287.813	5.39
288.19	5.28
288.567	5.38
288.945	5.68
289.322	5.4
289.699	5.68
290.076	5.44
290.453	5.36
290.83	5.12
291.207	5.5
291.584	5.82
291.961	5.53
292.338	5.56
292.715	5.68
293.092	5.97
293.469	5.46
293.845	5.31
294.222	4.96
294.599	5.31
294.975	6.08
295.352	5.73
295.728	6.4
296.105	5.85
296.481	5.95
296.858	6.16
297.234	6.4
297.61	6.21
297.986	5.67
298.363	5.89
298.739	6.19
299.115	6.5
299.491	6.18
299.867	6.19
300.243	6.11
300.619	6.63
300.995	6.57
301.371	6.91
301.746	6.56
302.122	6.42
302.498	6.28
302.874	6.33
303.249	6.26
303.625	6.63
304	6.84
304.376	6.78
304.751	6.74
305.127	6.15
305.502	6.94
305.878	7.38
306.253	7.33
306.628	7.05
307.003	7.02
307.378	6.93
307.754	6.91
308.129	6.53
308.504	7.48
308.879	7.61
309.254	7.48
309.629	7.47
310.003	7.83
310.378	7.73
310.753	7.29
311.128	7.19
311.502	7.1
311.877	7.77
312.252	7.58
312.626	7.52
313.001	7.51
313.375	7.91
313.75	7.79
314.124	7.46
314.498	7.68
314.873	8.04
315.247	7.84
315.621	8.44
315.995	8.62
316.369	8.23
316.743	8.82
317.117	8.39
317.491	8.57
317.865	8.63
318.239	8.7
318.613	9.31
318.987	9.06
319.361	8.27
319.734	9.22
320.108	8.5
320.482	8.06
320.855	8.86
321.229	8.89
321.602	8.75
321.976	8.78
322.349	9.64
322.723	8.43
323.096	9.01
323.469	8.87
323.843	9.16
324.216	9.27
324.589	9
324.962	9.9
325.335	9.29
325.708	8.94
326.081	9.66
326.454	9.49
326.827	9.55
327.2	9.53
327.573	9.31
327.945	9.4
328.318	9.41
328.691	9.43
329.063	9.55
329.436	9.91
329.809	9.77
330.181	9.78
330.553	9.79
330.926	10.29
331.298	10.44
331.671	10.11
332.043	10.4
332.415	9.96
332.787	9.69
333.159	10.13
333.532	9.72
333.904	10.52
334.276	9.91
334.648	10.22
335.02	9.89
335.391	10.58
335.763	10.37
336.135	10.57
336.507	10.73
336.879	10.34
337.25	10.43
337.622	10.33
337.993	11.01
338.365	10.93
338.736	10.74
339.108	11.31
339.479	11.25
339.851	10.41
340.222	10.94
340.593	11.31
340.964	11.1
341.336	11.07
341.707	10.76
342.078	11.21
342.449	11.28
342.82	11.23
343.191	11.13
343.562	10.97
343.933	11.16
344.303	11.52
344.674	11.56
345.045	11.24
345.416	11.1
345.786	11.86
346.157	11.42
346.527	11.78
346.898	12.07
347.268	11.6
347.639	11.77
348.009	12.23
348.38	11.84
348.75	11.82
349.12	11.52
349.49	12.14
349.861	12.14
350.231	12.34
350.601	12.04
350.971	12.21
351.341	12.48
351.711	12.14
352.081	12.8
352.45	12.38
352.82	12.45
353.19	12.85
353.56	12.49
353.929	12.52
354.299	12.9
354.669	12.72
355.038	13.08
355.408	12.61
355.777	12.31
356.147	12.59
356.516	12.75
356.885	12.5
357.254	12.92
357.624	13.15
357.993	12.96
358.362	12.94
358.731	12.97
359.1	13.04
359.469	12.99
359.838	13.13
360.207	13.17
360.576	13.32
360.945	13.08
361.314	13.45
361.682	13.3
362.051	13.26
362.42	13.58
362.788	13.23
363.157	13.6
363.525	13.63
363.894	13.5
364.262	13.62
364.631	13.84
364.999	13.91
365.367	13.67
365.735	14.06
366.104	13.96
366.472	13.93
366.84	13.79
367.208	14.07
367.576	14.21
367.944	14.35
368.312	13.98
368.68	14.18
369.048	14.44
369.416	14.6
369.783	13.76
370.151	14.38
370.519	14.95
370.886	14.63
371.254	14.69
371.621	14.58
371.989	14.63
372.356	14.47
372.724	14.89
373.091	14.67
373.458	14.81
373.826	15.26
374.193	14.9
374.56	14.68
374.927	15.01
375.294	15.03
375.661	15.26
376.028	15.42
376.395	15.62
376.762	15.31
377.129	15.21
377.496	15.31
377.863	15.32
378.229	15.24
378.596	15.43
378.963	15.6
379.329	15.3
379.696	15.48
380.062	15.67
380.429	15.64
380.795	15.6
381.161	15.79
381.528	16.06
381.894	15.71
382.26	15.96
382.626	15.76
382.993	16.23
383.359	16.04
383.725	16.22
384.091	16.34
384.457	16.46
384.823	16.54
385.188	16.41
385.554	16.27
385.92	16.38
386.286	16.57
386.651	16.6
387.017	16.63
387.383	16.45
387.748	16.64
388.114	16.37
388.479	17.28
388.845	16.97
389.21	17.16
389.575	16.91
389.94	17.08
390.306	17.13
390.671	17.07
391.036	17
391.401	17.17
391.766	17.02
392.131	16.97
392.496	17.29
392.861	17.38
393.226	17.26
393.591	17.13
393.956	17.47
394.32	17.34
394.685	17.4
395.05	17.55
395.414	17.67
395.779	17.59
396.143	17.74
396.508	17.65
396.872	17.79
397.236	17.84
397.601	17.82
397.965	17.98
398.329	17.93
398.694	18.18
399.058	17.77
399.422	18.18
399.786	17.98
400.15	18.1
400.514	18.14
400.878	18.28
401.242	18.19
401.605	18.42
401.969	18.7
402.333	18.66
402.697	18.37
403.06	18.68
403.424	18.49
403.787	18.71
404.151	19.07
404.514	18.92
404.878	18.7
405.241	18.92
405.604	18.89
405.968	18.85
406.331	18.8
406.694	18.93
407.057	19.04
407.42	19.09
407.783	19.1
408.146	19.1
408.509	19.3
408.872	19.33
409.235	19.45
409.598	19.4
409.961	19.63
410.323	19.54
410.686	19.34
411.049	19.54
411.411	19.54
411.774	19.69
412.136	19.82
412.499	19.74
412.861	19.68
413.223	19.88
413.586	19.68
413.948	20.05
414.31	19.87
414.672	19.9
415.035	20.2
415.397	19.9
415.759	20.27
416.121	20.09
416.483	20.16
416.845	20.43
417.206	20.28
417.568	20.29
417.93	20.36
418.292	20.17
418.653	20.33
419.015	20.24
419.377	20.29
419.738	20.34
420.1	20.5
420.461	20.4
420.822	20.24
421.184	20.53
421.545	20.44
421.906	20.53
422.267	20.24
422.629	20.29
422.99	20.23
423.351	20.21
423.712	20.34
424.073	20.68
424.434	20.58
424.795	20.77
425.155	20.75
425.516	20.72
425.877	20.7
426.238	20.71
426.598	20.74
426.959	20.74
427.32	20.73
427.68	20.89
428.041	21.18
428.401	21.36
428.761	21.35
429.122	21.31
429.482	21.49
429.842	21.52
430.202	21.74
430.563	21.71
430.923	21.9
431.283	21.81
431.643	22.02
432.003	22.16
432.363	21.88
432.722	21.97
433.082	22.06
433.442	22.07
433.802	21.91
434.161	22.29
434.521	22.12
434.881	22.27
435.24	22.03
435.6	22.32
435.959	22.24
436.319	22.26
436.678	22.37
437.037	22.43
437.396	22.54
437.756	22.39
438.115	22.55
438.474	22.65
438.833	22.69
439.192	22.8
439.551	22.62
439.91	22.77
440.269	22.72
440.628	22.88
440.987	22.73
441.345	22.61
441.704	22.78
442.063	22.7
442.421	22.66
442.78	22.86
443.138	23.04
443.497	23.01
443.855	23.01
444.214	23.23
444.572	23.41
444.93	23.19
445.288	23.31
445.647	23.34
446.005	23.3
446.363	23.4
446.721	23.37
447.079	23.31
447.437	23.34
447.795	23.3
448.153	23.23
448.51	23.32
448.868	23.4
449.226	23.32
449.584	23.52
449.941	23.6
450.299	23.74
450.656	23.7
451.014	23.87
451.371	24.07
451.729	24.09
452.086	24.17
452.443	24.09
452.801	24.38
453.158	24.5
453.515	24.43
453.872	24.38
454.229	24.3
454.586	24.39
454.943	24.45
455.3	24.45
455.657	24.49
456.014	24.66
456.371	24.81
456.727	24.77
457.084	24.71
457.441	25.05
457.797	24.93
458.154	24.85
458.51	25.06
458.867	24.9
459.223	25.17
459.58	25.26
459.936	24.87
460.292	24.95
460.648	25.09
461.005	24.86
461.361	24.89
461.717	24.81
462.073	24.87
462.429	25.03
462.785	25.07
463.141	25.39
463.496	25.25
463.852	25.44
464.208	25.76
464.564	25.79
464.919	25.84
465.275	25.89
465.631	25.86
465.986	25.84
466.342	25.85
466.697	26.1
467.052	26.11
467.408	26.05
467.763	25.84
468.118	26.32
468.473	26.23
468.829	26.08
469.184	26.27
469.539	26.11
469.894	26.37
470.249	26.26
470.603	26.37
470.958	26.52
471.313	26.39
471.668	26.5
472.023	26.42
472.377	26.87
472.732	26.8
473.086	26.61
473.441	26.75
473.795	26.86
474.15	26.9
474.504	26.79
474.859	26.87
475.213	27.05
475.567	26.75
475.921	26.89
476.275	27.11
476.63	27.17
476.984	27.11
477.338	27.21
477.692	27.29
478.045	27.24
478.399	27.42
478.753	27.23
479.107	27.42
479.461	27.25
479.814	27.42
480.168	27.44
480.521	27.34
480.875	27.39
481.228	27.6
481.582	27.51
481.935	27.71
482.289	27.4
482.642	27.64
482.995	27.64
483.348	27.6
483.701	27.54
484.055	27.35
484.408	27.37
484.761	27.38
485.114	26.91
485.466	26.87
485.819	26.94
486.172	26.95
486.525	27.11
486.878	27.25
487.23	27.25
487.583	27.4
487.936	27.55
488.288	27.64
488.641	27.41
488.993	27.57
489.345	27.43
489.698	27.43
490.05	27.51
490.402	27.65
490.754	27.67
491.107	27.93
491.459	28.13
491.811	28.22
492.163	28.32
492.515	28.49
492.866	28.24
493.218	28.01
493.57	27.99
493.922	28.1
494.274	28.16
494.625	28.34
494.977	28.59
495.328	28.77
495.68	28.98
496.031	29.12
496.383	29.37
496.734	29.32
497.086	29.5
497.437	29.58
497.788	29.33
498.139	29.37
498.49	29.23
498.842	29.45
499.193	29.37
499.544	29.48
499.894	29.45
500.245	29.63
500.596	29.62
500.947	29.72
501.298	29.8
501.648	29.85
501.999	30.19
502.35	30.14
502.7	30.1
503.051	30.23
503.401	30.19
503.752	30.2
504.102	30.45
504.452	30.51
504.803	30.43
505.153	30.47
505.503	30.29
505.853	30.45
506.203	30.53
506.553	30.58
506.903	30.61
507.253	30.57
507.603	30.6
507.953	30.73
508.303	30.6
508.652	30.71
509.002	30.97
509.352	30.98
509.701	30.7
510.051	30.88
510.4	30.85
510.75	30.71
511.099	30.89
511.449	30.91
511.798	30.86
512.147	30.95
512.496	31.05
512.846	31.13
513.195	31.18
513.544	31.12
513.893	31.38
514.242	31.25
514.591	31.26
514.939	31.25
515.288	31.44
515.637	31.43
515.986	31.51
516.334	31.72
516.683	31.87
517.032	31.8
517.38	31.65
517.729	31.85
518.077	31.9
518.426	31.94
518.774	32.06
519.122	31.81
519.47	31.98
519.819	31.75
520.167	31.72
520.515	31.62
520.863	31.71
521.211	31.85
521.559	31.81
521.907	32.04
522.255	32.12
522.602	32.17
522.95	32.36
523.298	32.52
523.645	32.46
523.993	32.68
524.341	32.5
524.688	32.74
525.036	32.67
525.383	32.82
525.73	32.71
526.078	32.76
526.425	32.73
526.772	32.64
527.119	32.58
527.466	32.55
527.814	32.47
528.161	32.43
528.508	32.58
528.854	32.58
529.201	32.66
529.548	32.56
529.895	32.34
530.242	32.22
530.588	32.38
530.935	32.33
531.282	32.51
531.628	32.39
531.975	32.6
532.321	32.71
532.667	33.02
533.014	33.09
533.36	33.12
533.706	33.4
534.052	33.43
534.399	33.41
534.745	33.09
535.091	32.99
535.437	33.15
535.783	33.11
536.129	33.4
536.474	33.36
536.82	33.43
537.166	33.59
537.512	33.84
537.857	33.85
538.203	33.89
538.549	33.72
538.894	33.84
539.239	33.89
539.585	33.95
539.93	34.08
540.276	34.33
540.621	34.36
540.966	34.63
541.311	34.49
541.656	34.68
542.001	34.75
542.346	34.53
542.691	34.36
543.036	33.96
543.381	33.87
543.726	34.04
544.071	34.17
544.415	34.23
544.76	34.32
545.105	34.5
545.449	34.7
545.794	34.67
546.138	34.85
546.483	35.15
546.827	35
547.171	35.16
547.516	35.23
547.86	35.4
548.204	35.22
548.548	35.26
548.892	35.16
549.236	35.46
549.58	35.53
549.924	35.76
550.268	35.76
550.612	35.73
550.956	36.01
551.3	36.02
551.643	36.35
551.987	36.17
552.33	36.46
552.674	36.48
553.017	36.63
553.361	36.56
553.704	36.35
554.048	36.76
554.391	36.15
554.734	36.49
555.077	36.58
555.42	36.52
555.764	36.74
556.107	36.83
556.45	36.96
556.793	36.75
557.135	36.9
557.478	37.06
557.821	37.32
558.164	37.19
558.507	37.02
558.849	37.36
559.192	37.19
559.534	37.37
559.877	37.33
560.219	37.47
560.562	37.46
560.904	37.65
561.246	37.55
561.589	37.59
561.931	37.32
562.273	37.74
562.615	37.65
562.957	37.73
563.299	37.72
563.641	37.6
563.983	37.72
564.325	37.87
564.667	38.02
565.008	38.03
565.35	38.12
565.692	38.35
566.033	38.42
566.375	38.1
566.716	38.25
567.058	38.41
567.399	38.39
567.741	38.43
568.082	38.35
568.423	38.39
568.764	38.19
569.105	38.2
569.447	38.53
569.788	38.54
570.129	38.61
570.47	38.59
570.811	38.55
571.151	38.75
571.492	38.73
571.833	38.74
572.174	38.99
572.514	38.84
572.855	38.84
573.195	38.66
573.536	38.77
573.876	38.88
574.217	39.17
574.557	38.94
574.898	39.09
575.238	38.89
575.578	39.27
575.918	39.14
576.258	39.37
576.598	39.04
576.938	39.51
577.278	39.35
577.618	39.59
577.958	39.32
578.298	39.55
578.638	39.41
578.977	39.58
579.317	39.88
579.657	40.01
579.996	39.95
580.336	39.98
580.675	40.19
581.014	40.44
581.354	40.19
581.693	40.47
582.032	40.39
582.372	40.76
582.711	40.5
583.05	40.48
583.389	40.34
583.728	40.41
584.067	40.67
584.406	40.67
584.745	40.65
585.083	40.82
585.422	40.72
585.761	40.69
586.1	40.95
586.438	40.68
586.777	40.94
587.115	40.95
587.454	40.9
587.792	41.2
588.13	41.07
588.469	41.38
588.807	41.47
589.145	41.05
589.483	41.18
589.821	41.36
590.159	41.32
590.497	41.54
590.835	41.51
591.173	41.57
591.511	41.51
591.849	41.29
592.187	41.47
592.524	41.4
592.862	41.51
593.2	41.67
593.537	41.91
593.875	41.9
594.212	41.51
594.55	41.76
594.887	41.91
595.224	41.97
595.561	41.94
595.899	42.35
596.236	41.89
596.573	41.89
596.91	41.83
597.247	42.05
597.584	42.26
597.921	42.02
598.258	42.05
598.594	41.62
598.931	41.84
599.268	42.06
599.604	41.98
599.941	42.28
600.277	42.1
600.614	42.03
600.95	42.41
601.287	42.43
601.623	43
601.959	42.26
602.296	42.79
602.632	42.81
602.968	42.91
603.304	42.84
603.64	42.88
603.976	42.79
604.312	43.14
604.648	43.21
604.984	42.57
605.319	42.72
605.655	42.97
605.991	43.04
606.326	42.92
606.662	42.79
606.998	42.94
607.333	43.09
607.668	43.04
608.004	43.1
608.339	42.84
608.674	43.17
609.01	43.37
609.345	43.29
609.68	43.44
610.015	43.9
610.35	43.51
610.685	44.05
611.02	43.45
611.355	43.61
611.689	43.72
612.024	43.24
612.359	43.42
612.694	44.03
613.028	43.94
613.363	43.9
613.697	43.91
614.032	44.24
614.366	44.22
614.7	44.32
615.035	44.68
615.369	44.4
615.703	44.59
616.037	44.25
616.371	44.4
616.705	44.76
617.039	44.75
617.373	44.85
617.707	44.5
618.041	44.93
618.375	44.74
618.709	44.87
619.042	44.54
619.376	44.87
619.71	45.12
620.043	45.34
620.377	45.22
620.71	45.14
621.043	45.06
621.377	45.23
621.71	45.6
622.043	45.63
622.376	45.23
622.709	45.38
623.043	45.15
623.376	45.43
623.709	45.2
624.041	45.69
624.374	45.3
624.707	45.87
625.04	45.65
625.373	46.04
625.705	45.51
626.038	45.82
626.37	45.88
626.703	45.71
627.035	45.55
627.368	45.65
627.7	45.73
628.032	45.5
628.365	45.79
628.697	45.77
629.029	46.01
629.361	45.93
629.693	45.94
630.025	46.16
630.357	45.96
630.689	46.03
631.021	45.91
631.353	45.97
631.684	45.86
632.016	46.21
632.348	45.8
632.679	46.39
633.011	46.5
633.342	46.43
633.674	46.7
634.005	46.78
634.336	46.78
634.668	46.68
634.999	46.67
635.33	46.34
635.661	47
635.992	47.08
636.323	47.18
636.654	46.69
636.985	47.12
637.316	46.73
637.647	46.96
637.977	47.4
638.308	47.16
638.639	46.81
638.969	47.03
639.3	47.39
639.63	47.04
639.961	47.53
640.291	47.85
640.622	47.53
640.952	47.31
641.282	47.27
641.612	47.47
641.943	47.43
642.273	47.59
642.603	47.75
642.933	47.12
643.263	47.06
643.592	47.37
643.922	47.91
644.252	47.8
644.582	48.57
644.911	47.68
645.241	47.32
645.571	47.75
645.9	47.87
646.23	47.84
646.559	48.49
646.888	48.21
647.218	48.54
647.547	48.56
647.876	48.53
648.205	47.7
648.534	48.57
648.863	48.36
649.192	48.62
649.521	48.25
649.85	48.7
650.179	48.46
650.508	48
650.837	48.08
651.165	48.78
651.494	48.58
651.822	48.67
652.151	48.82
652.479	48.9
652.808	48.11
653.136	48.89
653.465	48.92
653.793	48.82
654.121	49.04
654.449	48.39
654.777	49.27
655.105	48.71
655.433	49
655.761	49.22
656.089	48.77
656.417	49.73
656.745	49.03
657.073	48.86
657.4	48.95
657.728	48.12
658.056	49.28
658.383	49.25
658.711	49.39
659.038	49.4
659.365	49.87
659.693	49.61
660.02	49.29
660.347	49.13
660.674	49.53
661.001	49.5
661.329	49.44
661.656	49.54
661.982	49.26
662.309	49.38
662.636	49.81
662.963	49.04
663.29	49.62
663.616	49.8
663.943	50.01
664.27	50.09
664.596	49.9
664.923	50.05
665.249	50.2
665.576	50.2
665.902	49.42
666.228	49.79
666.554	50.13
666.881	50.24
667.207	49.99
667.533	49.61
667.859	50.14
668.185	50.21
668.511	50.52
668.837	50.13
669.162	50.92
669.488	50.34
669.814	50.26
670.139	50.29
