Data from 0045_crown_Reflection__0__151.txt Node

Date: Fri Nov 04 16:05:13 CDT 2022
User: ToomeyLab
Spectrometer: FLMS14357
Trigger mode: 0
Integration Time (sec): 1.000000E-2
Scans to average: 100
Electric dark correction enabled: true
Nonlinearity correction enabled: false
Boxcar width: 0
XAxis mode: Wavelengths
Number of Pixels in Spectrum: 2048
>>>>>Begin Spectral Data<<<<<
189.047	26.26
189.435	26.26
189.823	26.26
190.211	-20.68
190.599	-264.31
190.987	-1393.79
191.375	43.17
191.763	669.53
192.151	25.14
192.538	229.88
192.926	400.17
193.314	3.84
193.702	57.79
194.089	190.76
194.477	46.4
194.864	-128.64
195.252	288.99
195.639	56.3
196.027	219.03
196.414	-162.79
196.801	102.29
197.189	-265.49
197.576	62.68
197.963	81.39
198.351	12.03
198.738	16.06
199.125	39.52
199.512	-116.6
199.899	-37.53
200.286	-6.97
200.673	-57.92
201.06	-11.14
201.447	-37.66
201.833	36.41
202.22	16.14
202.607	-14.11
202.994	51.52
203.38	40.75
203.767	4.43
204.154	49.21
204.54	-10.33
204.927	38.19
205.313	33.36
205.699	18.78
206.086	7.15
206.472	-2.95
206.858	-25.2
207.245	2.26
207.631	1.66
208.017	47
208.403	18.42
208.789	25.68
209.175	-21.35
209.561	-13.55
209.947	-68.32
210.333	9.39
210.719	-8.32
211.105	-66.84
211.491	-4.03
211.876	-8.37
212.262	-24.94
212.648	-12.5
213.034	15.45
213.419	-10.54
213.805	-35.88
214.19	-21.36
214.576	-10.1
214.961	8.81
215.346	4.14
215.732	10.47
216.117	-18.34
216.502	20.63
216.888	-29.65
217.273	-3.12
217.658	14.09
218.043	-3.57
218.428	13.36
218.813	0.62
219.198	-22.49
219.583	-22.69
219.968	17.45
220.353	-24.99
220.738	-68.69
221.122	4.18
221.507	-0.09
221.892	-35.35
222.276	-9.42
222.661	4.92
223.046	7.68
223.43	-5.66
223.815	0.95
224.199	11.94
224.583	2.36
224.968	3.26
225.352	-8.62
225.736	-8.1
226.121	-9.24
226.505	1.07
226.889	-3.79
227.273	4.66
227.657	-0.9
228.041	7.03
228.425	2.74
228.809	1.53
229.193	3.91
229.577	-0.9
229.961	3.46
230.344	2.5
230.728	2.08
231.112	1.64
231.495	1.78
231.879	1.91
232.263	1.64
232.646	0.74
233.03	0.86
233.413	0.06
233.797	0.79
234.18	1.41
234.563	0.42
234.946	0.26
235.33	3.82
235.713	0.98
236.096	2.65
236.479	1.41
236.862	0.84
237.245	1.82
237.628	2.88
238.011	0.63
238.394	1.79
238.777	3.06
239.16	2.16
239.543	1.22
239.925	2.78
240.308	3.12
240.691	1.8
241.073	0.31
241.456	1.49
241.838	0.09
242.221	1.92
242.603	1.19
242.986	1.14
243.368	2.3
243.75	2.07
244.133	1.99
244.515	1.98
244.897	1.81
245.279	1.7
245.661	2.22
246.043	2.87
246.425	1.59
246.807	1.8
247.189	2.09
247.571	2.08
247.953	1.89
248.335	1.6
248.717	1.86
249.098	1.75
249.48	1.74
249.862	2.17
250.243	2
250.625	1.5
251.006	1.6
251.388	2.25
251.769	2.87
252.151	2.13
252.532	0.69
252.913	1.15
253.295	1.94
253.676	1.53
254.057	1.67
254.438	1.94
254.819	2.32
255.2	0.93
255.581	2.96
255.962	2.15
256.343	0.98
256.724	2.15
257.105	2.12
257.486	1.64
257.867	3.26
258.247	3.14
258.628	1.85
259.009	1.82
259.389	2.04
259.77	1.57
260.15	1.93
260.531	1.63
260.911	1.41
261.292	1.82
261.672	1.84
262.052	1.72
262.432	1.8
262.813	1.89
263.193	1.44
263.573	1.63
263.953	1.45
264.333	1.95
264.713	2.22
265.093	1.58
265.473	1.98
265.853	1.23
266.233	1.29
266.612	2.21
266.992	1.77
267.372	0.7
267.752	1.66
268.131	1.78
268.511	1.58
268.89	1.92
269.27	1.43
269.649	1.57
270.029	1.35
270.408	1.81
270.787	2.12
271.167	1.37
271.546	2.19
271.925	1.86
272.304	1.25
272.683	1.68
273.062	1.75
273.441	2.13
273.82	1.63
274.199	1.73
274.578	1.56
274.957	1.69
275.336	1.49
275.715	1.73
276.093	1.95
276.472	1.66
276.851	1.19
277.229	1.79
277.608	1.26
277.986	2.15
278.365	2.31
278.743	1.89
279.122	1.91
279.5	1.34
279.878	1.81
280.257	1.77
280.635	1.33
281.013	1.64
281.391	1.81
281.769	1.7
282.147	1.76
282.525	1.7
282.903	1.91
283.281	2.01
283.659	1.48
284.037	1.48
284.415	1.35
284.792	1.49
285.17	1.66
285.548	1.68
285.925	1.9
286.303	1.91
286.68	2.05
287.058	1.77
287.435	1.93
287.813	1.74
288.19	1.71
288.567	1.56
288.945	1.65
289.322	1.79
289.699	2
290.076	2.22
290.453	1.43
290.83	1.65
291.207	1.67
291.584	2.1
291.961	1.87
292.338	2.07
292.715	1.77
293.092	1.65
293.469	1.67
293.845	1.7
294.222	1.34
294.599	1.36
294.975	1.88
295.352	1.75
295.728	1.96
296.105	1.94
296.481	1.5
296.858	1.76
297.234	2
297.61	2.17
297.986	1.82
298.363	1.49
298.739	1.79
299.115	2.03
299.491	1.96
299.867	1.64
300.243	1.78
300.619	1.85
300.995	2.04
301.371	2
301.746	1.56
302.122	1.93
302.498	1.86
302.874	2.34
303.249	1.76
303.625	1.4
304	1.9
304.376	1.82
304.751	1.76
305.127	1.36
305.502	1.65
305.878	1.98
306.253	1.67
306.628	1.8
307.003	2.16
307.378	2.11
307.754	1.96
308.129	1.33
308.504	1.81
308.879	2
309.254	2.06
309.629	2.42
310.003	2.4
310.378	2.39
310.753	2.18
311.128	1.68
311.502	1.44
311.877	1.97
312.252	1.68
312.626	1.87
313.001	1.88
313.375	1.82
313.75	1.89
314.124	1.63
314.498	2.06
314.873	1.97
315.247	1.64
315.621	1.97
315.995	2.29
316.369	1.96
316.743	2.15
317.117	1.93
317.491	2.06
317.865	1.78
318.239	1.84
318.613	2.67
318.987	2.18
319.361	2.07
319.734	2.12
320.108	1.67
320.482	1.11
320.855	1.88
321.229	2.05
321.602	1.52
321.976	1.68
322.349	2.68
322.723	2
323.096	1.98
323.469	1.17
323.843	1.75
324.216	2.36
324.589	1.77
324.962	2.33
325.335	2.1
325.708	1.76
326.081	2.09
326.454	2.36
326.827	1.85
327.2	1.84
327.573	1.78
327.945	2.15
328.318	1.71
328.691	1.49
329.063	1.62
329.436	2.47
329.809	1.93
330.181	1.74
330.553	1.78
330.926	1.62
331.298	2.02
331.671	1.41
332.043	2.28
332.415	1.63
332.787	1.48
333.159	1.6
333.532	1.79
333.904	2.62
334.276	1.92
334.648	2.19
335.02	1.25
335.391	1.85
335.763	2.27
336.135	1.87
336.507	2.47
336.879	1.6
337.25	2.25
337.622	2.18
337.993	2.5
338.365	1.96
338.736	2.53
339.108	2.49
339.479	2.44
339.851	1.51
340.222	2.08
340.593	1.8
340.964	1.9
341.336	2.03
341.707	1.85
342.078	1.72
342.449	1.94
342.82	2.04
343.191	1.61
343.562	2.06
343.933	2.2
344.303	2.14
344.674	2.13
345.045	1.6
345.416	1.41
345.786	2.23
346.157	2.02
346.527	2.41
346.898	2.1
347.268	1.72
347.639	1.66
348.009	2.13
348.38	2.01
348.75	1.84
349.12	1.91
349.49	2.04
349.861	2.12
350.231	1.93
350.601	2.04
350.971	1.62
351.341	2.05
351.711	1.42
352.081	1.97
352.45	2.04
352.82	1.81
353.19	2.2
353.56	2.04
353.929	1.75
354.299	2.35
354.669	2.2
355.038	2.18
355.408	1.86
355.777	2.06
356.147	1.67
356.516	1.77
356.885	2.03
357.254	2.1
357.624	2.06
357.993	2.16
358.362	1.8
358.731	1.69
359.1	1.9
359.469	1.79
359.838	1.94
360.207	1.84
360.576	1.95
360.945	2.17
361.314	1.96
361.682	2.17
362.051	2
362.42	2.09
362.788	1.99
363.157	2.04
363.525	1.93
363.894	1.98
364.262	2.03
364.631	2.14
364.999	2.12
365.367	1.78
365.735	2.16
366.104	1.99
366.472	2.31
366.84	1.65
367.208	2.02
367.576	2.14
367.944	1.86
368.312	2.08
368.68	1.98
369.048	2.08
369.416	1.95
369.783	1.63
370.151	1.86
370.519	2.42
370.886	1.93
371.254	1.95
371.621	1.98
371.989	1.9
372.356	2.02
372.724	1.87
373.091	2.08
373.458	2.14
373.826	2.08
374.193	2.02
374.56	1.68
374.927	2.4
375.294	1.79
375.661	2.22
376.028	2.11
376.395	2.05
376.762	2.16
377.129	1.88
377.496	2.17
377.863	2.08
378.229	2
378.596	1.86
378.963	2.1
379.329	2.16
379.696	2.07
380.062	2.3
380.429	2.13
380.795	2.01
381.161	2.07
381.528	1.96
381.894	1.75
382.26	1.9
382.626	1.84
382.993	2.06
383.359	2.15
383.725	1.96
384.091	2.11
384.457	2.08
384.823	2.26
385.188	2.05
385.554	1.94
385.92	1.95
386.286	1.92
386.651	2
387.017	2
387.383	2
387.748	1.96
388.114	1.93
388.479	2.69
388.845	1.98
389.21	2.26
389.575	2.36
389.94	1.98
390.306	2.11
390.671	1.96
391.036	2.1
391.401	2.13
391.766	1.94
392.131	2.13
392.496	2.15
392.861	2.31
393.226	2.2
393.591	2.25
393.956	2.19
394.32	2.04
394.685	2.17
395.05	2.27
395.414	2.22
395.779	2.08
396.143	1.92
396.508	2.16
396.872	2.02
397.236	2.23
397.601	1.89
397.965	2.02
398.329	2.02
398.694	2.38
399.058	2.15
399.422	2.05
399.786	1.94
400.15	2.17
400.514	2.03
400.878	2.13
401.242	2.2
401.605	2.07
401.969	2.12
402.333	2.37
402.697	2.08
403.06	2.5
403.424	2.2
403.787	2.08
404.151	2.07
404.514	2.22
404.878	2.03
405.241	2.03
405.604	2.15
405.968	2.14
406.331	2.04
406.694	1.92
407.057	2.14
407.42	2.06
407.783	1.97
408.146	2.07
408.509	2.25
408.872	2.14
409.235	2.31
409.598	2.27
409.961	2.37
410.323	2.12
410.686	2.11
411.049	2.17
411.411	1.93
411.774	2.2
412.136	2.3
412.499	2.4
412.861	2.22
413.223	2.2
413.586	2.12
413.948	2.47
414.31	2.18
414.672	2.35
415.035	2.34
415.397	2.05
415.759	2.33
416.121	2.11
416.483	2.22
416.845	2.3
417.206	2.08
417.568	2.33
417.93	2.23
418.292	2.1
418.653	2.33
419.015	2.05
419.377	2.1
419.738	2.25
420.1	2.3
420.461	2.29
420.822	2.03
421.184	2.18
421.545	2.08
421.906	2.21
422.267	2.08
422.629	2.19
422.99	2.11
423.351	2.08
423.712	2.17
424.073	2.19
424.434	2.19
424.795	2.18
425.155	2.2
425.516	2.2
425.877	2.09
426.238	2.11
426.598	2.1
426.959	2.07
427.32	2.11
427.68	2.16
428.041	2.07
428.401	2.13
428.761	2.19
429.122	2.2
429.482	2.3
429.842	2.08
430.202	2.47
430.563	2.18
430.923	2.43
431.283	2.23
431.643	2.35
432.003	2.47
432.363	2.36
432.722	2.17
433.082	2.33
433.442	2.12
433.802	2.07
434.161	2.22
434.521	2.23
434.881	2.26
435.24	2.29
435.6	2.29
435.959	2.26
436.319	2.29
436.678	2.18
437.037	2.24
437.396	2.33
437.756	2.44
438.115	2.06
438.474	2.25
438.833	2.42
439.192	2.19
439.551	2.28
439.91	2.35
440.269	2.24
440.628	2.33
440.987	2.37
441.345	2.33
441.704	2.32
442.063	2.09
442.421	2.3
442.78	2.33
443.138	2.3
443.497	2.28
443.855	2.25
444.214	2.32
444.572	2.37
444.93	2.26
445.288	2.24
445.647	2.23
446.005	2.25
446.363	2.35
446.721	2.33
447.079	2.25
447.437	2.19
447.795	2.22
448.153	2.24
448.51	2.35
448.868	2.29
449.226	2.22
449.584	2.3
449.941	2.22
450.299	2.19
450.656	2.26
451.014	2.38
451.371	2.4
451.729	2.31
452.086	2.21
452.443	2.32
452.801	2.28
453.158	2.36
453.515	2.33
453.872	2.22
454.229	2.37
454.586	2.27
454.943	2.36
455.3	2.31
455.657	2.28
456.014	2.4
456.371	2.38
456.727	2.48
457.084	2.42
457.441	2.46
457.797	2.46
458.154	2.47
458.51	2.36
458.867	2.18
459.223	2.46
459.58	2.5
459.936	2.19
460.292	2.27
460.648	2.19
461.005	2.22
461.361	2.4
461.717	2.29
462.073	2.4
462.429	2.38
462.785	2.31
463.141	2.27
463.496	2.32
463.852	2.47
464.208	2.35
464.564	2.34
464.919	2.43
465.275	2.49
465.631	2.39
465.986	2.5
466.342	2.42
466.697	2.37
467.052	2.34
467.408	2.46
467.763	2.4
468.118	2.65
468.473	2.35
468.829	2.26
469.184	2.38
469.539	2.38
469.894	2.5
470.249	2.4
470.603	2.4
470.958	2.22
471.313	2.36
471.668	2.25
472.023	2.36
472.377	2.36
472.732	2.36
473.086	2.34
473.441	2.41
473.795	2.5
474.15	2.43
474.504	2.45
474.859	2.33
475.213	2.49
475.567	2.32
475.921	2.37
476.275	2.47
476.63	2.43
476.984	2.38
477.338	2.5
477.692	2.49
478.045	2.43
478.399	2.35
478.753	2.45
479.107	2.34
479.461	2.52
479.814	2.56
480.168	2.58
480.521	2.49
480.875	2.49
481.228	2.55
481.582	2.49
481.935	2.3
482.289	2.48
482.642	2.52
482.995	2.47
483.348	2.45
483.701	2.51
484.055	2.36
484.408	2.43
484.761	2.47
485.114	2.36
485.466	2.34
485.819	2.28
486.172	2.31
486.525	2.31
486.878	2.45
487.23	2.41
487.583	2.41
487.936	2.5
488.288	2.47
488.641	2.4
488.993	2.39
489.345	2.35
489.698	2.38
490.05	2.42
490.402	2.37
490.754	2.45
491.107	2.46
491.459	2.51
491.811	2.47
492.163	2.58
492.515	2.53
492.866	2.43
493.218	2.44
493.57	2.4
493.922	2.47
494.274	2.45
494.625	2.54
494.977	2.57
495.328	2.58
495.68	2.53
496.031	2.59
496.383	2.61
496.734	2.52
497.086	2.72
497.437	2.73
497.788	2.7
498.139	2.54
498.49	2.52
498.842	2.68
499.193	2.56
499.544	2.65
499.894	2.57
500.245	2.7
500.596	2.59
500.947	2.58
501.298	2.68
501.648	2.69
501.999	2.62
502.35	2.68
502.7	2.63
503.051	2.64
503.401	2.67
503.752	2.72
504.102	2.66
504.452	2.71
504.803	2.69
505.153	2.67
505.503	2.78
505.853	2.79
506.203	2.66
506.553	2.79
506.903	2.78
507.253	2.75
507.603	2.68
507.953	2.58
508.303	2.82
508.652	2.59
509.002	2.86
509.352	2.87
509.701	2.68
510.051	2.68
510.4	2.78
510.75	2.7
511.099	2.78
511.449	2.65
511.798	2.69
512.147	2.75
512.496	2.77
512.846	2.62
513.195	2.82
513.544	2.79
513.893	2.84
514.242	2.79
514.591	2.73
514.939	2.91
515.288	2.84
515.637	2.88
515.986	2.82
516.334	2.84
516.683	2.93
517.032	2.95
517.38	2.87
517.729	2.86
518.077	2.82
518.426	2.86
518.774	2.89
519.122	2.88
519.47	2.8
519.819	2.85
520.167	2.86
520.515	2.77
520.863	2.75
521.211	2.79
521.559	2.94
521.907	2.86
522.255	2.93
522.602	2.96
522.95	2.99
523.298	2.97
523.645	2.91
523.993	2.99
524.341	2.97
524.688	3.01
525.036	2.99
525.383	3.1
525.73	2.92
526.078	3.05
526.425	3.02
526.772	2.89
527.119	2.92
527.466	3
527.814	2.94
528.161	2.95
528.508	2.9
528.854	3
529.201	2.96
529.548	2.94
529.895	2.95
530.242	2.88
530.588	2.83
530.935	2.82
531.282	2.93
531.628	2.89
531.975	2.98
532.321	3.05
532.667	3.05
533.014	3.07
533.36	3.08
533.706	3.17
534.052	3.02
534.399	2.98
534.745	3
535.091	2.98
535.437	2.99
535.783	3.02
536.129	3.19
536.474	3.08
536.82	3.08
537.166	3.09
537.512	3.24
537.857	3.16
538.203	3.02
538.549	3.12
538.894	3.18
539.239	3.28
539.585	3.24
539.93	3.18
540.276	3.26
540.621	3.25
540.966	3.32
541.311	3.19
541.656	3.28
542.001	3.32
542.346	3.26
542.691	3.26
543.036	3.09
543.381	3.13
543.726	3.17
544.071	3.24
544.415	3.35
544.76	3.28
545.105	3.31
545.449	3.3
545.794	3.33
546.138	3.32
546.483	3.31
546.827	3.4
547.171	3.39
547.516	3.41
547.86	3.43
548.204	3.53
548.548	3.36
548.892	3.47
549.236	3.45
549.58	3.51
549.924	3.47
550.268	3.51
550.612	3.47
550.956	3.51
551.3	3.62
551.643	3.57
551.987	3.55
552.33	3.55
552.674	3.58
553.017	3.88
553.361	3.7
553.704	3.67
554.048	3.69
554.391	3.6
554.734	3.67
555.077	3.69
555.42	3.72
555.764	3.93
556.107	3.79
556.45	3.66
556.793	3.81
557.135	3.75
557.478	3.65
557.821	3.94
558.164	4
558.507	3.76
558.849	3.98
559.192	4.03
559.534	3.83
559.877	3.87
560.219	3.91
560.562	4.15
560.904	4.02
561.246	3.83
561.589	3.98
561.931	3.95
562.273	3.96
562.615	3.84
562.957	4.04
563.299	3.85
563.641	3.96
563.983	4.19
564.325	4.02
564.667	4.12
565.008	4.07
565.35	4.1
565.692	4.34
566.033	4.21
566.375	4.17
566.716	4.1
567.058	4.13
567.399	4.2
567.741	4.23
568.082	4.23
568.423	4.17
568.764	4.08
569.105	4.3
569.447	4.25
569.788	4.35
570.129	4.4
570.47	4.43
570.811	4.34
571.151	4.2
571.492	4.41
571.833	4.35
572.174	4.54
572.514	4.29
572.855	4.18
573.195	4.4
573.536	4.56
573.876	4.4
574.217	4.33
574.557	4.42
574.898	4.61
575.238	4.35
575.578	4.84
575.918	4.62
576.258	4.58
576.598	4.66
576.938	4.56
577.278	4.45
577.618	4.51
577.958	4.5
578.298	4.64
578.638	4.79
578.977	4.9
579.317	4.72
579.657	4.82
579.996	4.94
580.336	4.68
580.675	4.65
581.014	5
581.354	4.81
581.693	5.02
582.032	4.87
582.372	5.05
582.711	4.96
583.05	5.01
583.389	4.98
583.728	5.03
584.067	4.93
584.406	5.02
584.745	5.11
585.083	5.04
585.422	5.18
585.761	5.09
586.1	5.13
586.438	5.1
586.777	5.23
587.115	5.3
587.454	5.45
587.792	5.46
588.13	5.36
588.469	5.34
588.807	5.33
589.145	5.21
589.483	5.16
589.821	5.32
590.159	5.15
590.497	5.42
590.835	5.42
591.173	5.31
591.511	5.53
591.849	5.49
592.187	5.45
592.524	5.52
592.862	5.37
593.2	5.53
593.537	5.45
593.875	5.67
594.212	5.73
594.55	5.55
594.887	5.56
595.224	5.69
595.561	5.28
595.899	5.67
596.236	5.72
596.573	5.94
596.91	5.79
597.247	5.95
597.584	5.69
597.921	5.99
598.258	5.81
598.594	5.39
598.931	5.91
599.268	5.8
599.604	5.91
599.941	5.98
600.277	5.92
600.614	6.1
600.95	6.04
601.287	5.97
601.623	6.14
601.959	6
602.296	6.31
602.632	6.21
602.968	6.19
603.304	6.18
603.64	6.05
603.976	6
604.312	6.31
604.648	6.22
604.984	6.33
605.319	6.18
605.655	6.19
605.991	6.36
606.326	6.08
606.662	6.23
606.998	6.14
607.333	6.31
607.668	6.33
608.004	6.41
608.339	6.32
608.674	6.67
609.01	6.53
609.345	6.61
609.68	6.54
610.015	6.31
610.35	6.59
610.685	6.84
611.02	6.55
611.355	6.6
611.689	6.65
612.024	6.7
612.359	6.58
612.694	6.75
613.028	6.96
613.363	7.03
613.697	6.64
614.032	6.64
614.366	6.84
614.7	6.78
615.035	7.14
615.369	6.85
615.703	7.28
616.037	7
616.371	7.33
616.705	7.01
617.039	7.49
617.373	7.36
617.707	7.62
618.041	7.26
618.375	7.29
618.709	7.45
619.042	7.45
619.376	7.42
619.71	7.3
620.043	7.73
620.377	7.76
620.71	7.66
621.043	7.47
621.377	7.45
621.71	7.71
622.043	7.69
622.376	7.63
622.709	7.52
623.043	7.89
623.376	8.08
623.709	7.21
624.041	7.67
624.374	7.61
624.707	7.96
625.04	7.9
625.373	7.99
625.705	7.8
626.038	7.66
626.37	7.72
626.703	8.13
627.035	8.04
627.368	8.11
627.7	7.8
628.032	7.83
628.365	8.26
628.697	7.92
629.029	7.95
629.361	8.07
629.693	8.16
630.025	8.35
630.357	8.04
630.689	8.36
631.021	7.98
631.353	8.05
631.684	8.32
632.016	8.37
632.348	8.54
632.679	8.33
633.011	8.5
633.342	8.42
633.674	8.58
634.005	8.45
634.336	8.47
634.668	8.17
634.999	8.49
635.33	8.27
635.661	8.81
635.992	8.54
636.323	8.68
636.654	8.72
636.985	8.75
637.316	8.76
637.647	8.32
637.977	8.78
638.308	9.05
638.639	8.73
638.969	8.48
639.3	9.08
639.63	8.83
639.961	9.36
640.291	8.89
640.622	9.16
640.952	9.25
641.282	8.85
641.612	9.18
641.943	9.39
642.273	9.03
642.603	9.28
642.933	9.21
643.263	8.98
643.592	9.11
643.922	9.68
644.252	9.65
644.582	9.45
644.911	9.31
645.241	9.22
645.571	9.14
645.9	9.52
646.23	9.22
646.559	9.64
646.888	9.86
647.218	9.61
647.547	10.08
647.876	9.79
648.205	9.29
648.534	9.83
648.863	9.45
649.192	9.83
649.521	9.55
649.85	9.89
650.179	9.62
650.508	9.41
650.837	10.05
651.165	10.23
651.494	10.06
651.822	9.8
652.151	9.96
652.479	10.07
652.808	9.82
653.136	10.04
653.465	10.31
653.793	10.53
654.121	10.68
654.449	9.65
654.777	9.93
655.105	10.01
655.433	10.2
655.761	10.64
656.089	10.44
656.417	10.05
656.745	10.04
657.073	10.07
657.4	10.08
657.728	10.51
658.056	10.52
658.383	10.74
658.711	10.3
659.038	10.36
659.365	11.21
659.693	10.98
660.02	10.8
660.347	10.35
660.674	10.49
661.001	10.75
661.329	10.87
661.656	10.7
661.982	10.19
662.309	10.94
662.636	10.87
662.963	10.75
663.29	10.55
663.616	11
663.943	11.35
664.27	11.57
664.596	10.94
664.923	10.46
665.249	11.5
665.576	11.34
665.902	10.82
666.228	10.72
666.554	11.96
666.881	11.6
667.207	11.62
667.533	11.29
667.859	11.32
668.185	11.76
668.511	11.32
668.837	11.15
669.162	11.88
669.488	11.64
669.814	11.57
670.139	11.7
670.465	11.8
670.791	11.5
671.116	11.45
671.442	11.74
671.767	11.74
672.092	11.56
672.418	11.88
672.743	11.89
673.068	12.47
673.393	12.45
673.718	12.18
674.043	11.74
674.368	11.23
674.693	11.92
675.018	12.33
675.343	12.17
675.667	12.4
675.992	12.15
676.317	12.37
676.641	12.09
676.966	12.29
677.29	12.27
677.615	12.41
677.939	12.49
678.264	12.86
678.588	12.22
678.912	13.03
679.236	12.84
679.56	12.73
679.885	12.79
680.209	12.46
680.532	12.65
680.856	12.31
681.18	12.39
681.504	13.05
681.828	12.82
682.152	13.23
682.475	12.55
682.799	13.49
683.122	13.02
683.446	12.88
683.769	12.97
684.093	12.59
684.416	12.96
684.739	12.63
685.062	13.51
685.386	13.02
685.709	12.92
686.032	13.66
686.355	14.18
686.678	12.96
687.001	13.07
687.324	13.26
687.646	13.94
687.969	13.53
688.292	13.44
688.614	13.54
688.937	13.33
689.26	12.87
689.582	13.78
689.904	13.18
690.227	12.75
