Data from 0045_forehead_Reflection__2__163.txt Node

Date: Fri Nov 04 16:09:47 CDT 2022
User: ToomeyLab
Spectrometer: FLMS14357
Trigger mode: 0
Integration Time (sec): 1.000000E-2
Scans to average: 100
Electric dark correction enabled: true
Nonlinearity correction enabled: false
Boxcar width: 0
XAxis mode: Wavelengths
Number of Pixels in Spectrum: 2048
>>>>>Begin Spectral Data<<<<<
189.047	-0.19
189.435	-0.19
189.823	-0.19
190.211	-12.25
190.599	32.72
190.987	272.76
191.375	199.45
191.763	252.7
192.151	2.55
192.538	97.14
192.926	145.6
193.314	46.01
193.702	80.63
194.089	100.45
194.477	-12.04
194.864	507.04
195.252	426.19
195.639	-6.73
196.027	16.86
196.414	-89.96
196.801	-7.02
197.189	414.86
197.576	97.94
197.963	-86.69
198.351	-50.76
198.738	50.93
199.125	43.38
199.512	68.65
199.899	39.18
200.286	60.45
200.673	-50.74
201.06	10.9
201.447	5.65
201.833	10.8
202.22	65.26
202.607	5.01
202.994	45.71
203.38	60.98
203.767	54.36
204.154	28.95
204.54	42.61
204.927	41.16
205.313	38.6
205.699	36.79
206.086	20.78
206.472	5.54
206.858	-9.72
207.245	50.94
207.631	8.25
208.017	38.6
208.403	30.44
208.789	44.69
209.175	2.12
209.561	-82.69
209.947	7.99
210.333	35.28
210.719	24.9
211.105	-27.6
211.491	16.54
211.876	57.51
212.262	28.01
212.648	-14.16
213.034	21.97
213.419	1.74
213.805	-14.14
214.19	-11.24
214.576	15.66
214.961	16.87
215.346	14.64
215.732	-1.45
216.117	20.59
216.502	19.5
216.888	-21.98
217.273	28.69
217.658	57.01
218.043	8.51
218.428	36.35
218.813	18.11
219.198	3.91
219.583	-1.26
219.968	34.01
220.353	7.34
220.738	17.66
221.122	27.82
221.507	21.44
221.892	17.1
222.276	17.31
222.661	14.96
223.046	-4.58
223.43	3.76
223.815	9.28
224.199	17.33
224.583	12.42
224.968	8.25
225.352	7.63
225.736	-3.06
226.121	4.79
226.505	9.66
226.889	5.66
227.273	8.2
227.657	5.32
228.041	9.06
228.425	8.48
228.809	8.98
229.193	5.27
229.577	5.1
229.961	7.56
230.344	6.09
230.728	6.27
231.112	5.42
231.495	5.12
231.879	6.12
232.263	5.31
232.646	6.15
233.03	3.32
233.413	5.72
233.797	4.38
234.18	6.58
234.563	6.93
234.946	5.96
235.33	5.63
235.713	5.31
236.096	6.24
236.479	4.82
236.862	3.92
237.245	5.95
237.628	5.7
238.011	3.89
238.394	6.21
238.777	8
239.16	6.86
239.543	7.06
239.925	6.85
240.308	7.01
240.691	6.65
241.073	5.9
241.456	6.74
241.838	4.83
242.221	5.49
242.603	5.51
242.986	5.17
243.368	5.74
243.75	5.97
244.133	5.82
244.515	5.66
244.897	5.76
245.279	5.37
245.661	5.54
246.043	5.94
246.425	4.75
246.807	6.11
247.189	5.9
247.571	5.8
247.953	5.24
248.335	5.42
248.717	5.65
249.098	5.4
249.48	5.32
249.862	5.61
250.243	5.56
250.625	5.25
251.006	5.71
251.388	5.75
251.769	6.15
252.151	6.26
252.532	6.69
252.913	5.62
253.295	6.34
253.676	5.11
254.057	5.55
254.438	5.62
254.819	6.14
255.2	5.37
255.581	6.54
255.962	6.39
256.343	5.35
256.724	5.89
257.105	5.54
257.486	6.44
257.867	7.25
258.247	6.49
258.628	4.83
259.009	5.95
259.389	5.8
259.77	5.56
260.15	5.71
260.531	5.83
260.911	5.5
261.292	5.34
261.672	5.26
262.052	5.25
262.432	5.73
262.813	5.34
263.193	5.16
263.573	5.45
263.953	5.72
264.333	5.93
264.713	5.86
265.093	5.68
265.473	6.24
265.853	4.95
266.233	5.53
266.612	6.04
266.992	6.25
267.372	4.8
267.752	5.45
268.131	5.87
268.511	5.67
268.89	5.99
269.27	5.26
269.649	5.56
270.029	5.44
270.408	5.77
270.787	5.64
271.167	5.74
271.546	5.85
271.925	6.17
272.304	5.51
272.683	5.66
273.062	5.69
273.441	5.68
273.82	5.42
274.199	5.55
274.578	5.77
274.957	5.8
275.336	4.99
275.715	5.45
276.093	5.43
276.472	5.17
276.851	5.11
277.229	5.61
277.608	5.75
277.986	5.78
278.365	5.64
278.743	6.3
279.122	5.48
279.5	5.55
279.878	5.59
280.257	5.57
280.635	5.39
281.013	5.47
281.391	5.92
281.769	5.54
282.147	5.47
282.525	5.88
282.903	5.75
283.281	6.28
283.659	5.54
284.037	5.67
284.415	5.55
284.792	5.69
285.17	5.54
285.548	6.13
285.925	5.89
286.303	5.65
286.68	6.01
287.058	5.65
287.435	5.48
287.813	5.54
288.19	6.22
288.567	5.65
288.945	5.71
289.322	6.06
289.699	5.73
290.076	6.23
290.453	5.7
290.83	5.74
291.207	6.05
291.584	6.34
291.961	5.98
292.338	6.2
292.715	6.21
293.092	6.11
293.469	6.3
293.845	6.12
294.222	6.03
294.599	5.8
294.975	6.75
295.352	6.32
295.728	6.67
296.105	6.52
296.481	6.41
296.858	6.26
297.234	6.81
297.61	7.25
297.986	6.29
298.363	6.38
298.739	6.48
299.115	6.73
299.491	6.52
299.867	6.64
300.243	6.77
300.619	6.55
300.995	7.15
301.371	7.59
301.746	7.18
302.122	7.17
302.498	6.7
302.874	7.3
303.249	6.87
303.625	7.06
304	7.15
304.376	7.08
304.751	7.91
305.127	6.82
305.502	7.23
305.878	7.74
306.253	7.65
306.628	6.87
307.003	7.5
307.378	7.8
307.754	8.13
308.129	6.85
308.504	7.74
308.879	8.22
309.254	8.05
309.629	7.98
310.003	8.18
310.378	8.57
310.753	8.12
311.128	7.99
311.502	7.83
311.877	8.12
312.252	8.05
312.626	8.37
313.001	8.61
313.375	8.38
313.75	8.5
314.124	8.17
314.498	8.86
314.873	8.78
315.247	8.78
315.621	8.71
315.995	9.16
316.369	8.76
316.743	9.4
317.117	9.58
317.491	9.18
317.865	8.88
318.239	9.33
318.613	9.63
318.987	9.59
319.361	9.4
319.734	9.52
320.108	9.02
320.482	9.05
320.855	9.22
321.229	9.78
321.602	9.34
321.976	9.36
322.349	10.19
322.723	9.66
323.096	10.05
323.469	9.68
323.843	10.11
324.216	10.02
324.589	10.14
324.962	10.6
325.335	9.93
325.708	10.08
326.081	9.98
326.454	10.19
326.827	10.3
327.2	10.3
327.573	10.09
327.945	10.71
328.318	10.17
328.691	10.28
329.063	10.47
329.436	10.76
329.809	10.98
330.181	10.75
330.553	10.49
330.926	10.69
331.298	10.99
331.671	10.97
332.043	11.02
332.415	10.51
332.787	10.81
333.159	11.09
333.532	10.31
333.904	11.2
334.276	10.76
334.648	11.39
335.02	10.94
335.391	11.59
335.763	10.91
336.135	11.41
336.507	11.4
336.879	11.29
337.25	11.59
337.622	11.76
337.993	11.86
338.365	11.58
338.736	11.82
339.108	11.87
339.479	11.97
339.851	11.32
340.222	11.63
340.593	12.28
340.964	11.97
341.336	11.62
341.707	11.51
342.078	12.13
342.449	11.91
342.82	12.38
343.191	11.85
343.562	12.28
343.933	12.24
344.303	12.39
344.674	12.49
345.045	12.16
345.416	12.08
345.786	12.89
346.157	12.56
346.527	12.87
346.898	13.04
347.268	12.68
347.639	12.79
348.009	12.93
348.38	12.79
348.75	12.97
349.12	12.95
349.49	13
349.861	13.06
350.231	13.63
350.601	13.22
350.971	13.14
351.341	13.4
351.711	13.13
352.081	13.19
352.45	13.66
352.82	13.44
353.19	13.61
353.56	13.7
353.929	13.41
354.299	14.06
354.669	13.95
355.038	14.08
355.408	13.57
355.777	13.97
356.147	13.61
356.516	13.83
356.885	13.84
357.254	14.14
357.624	14.05
357.993	14.19
358.362	13.9
358.731	13.93
359.1	14.05
359.469	14.3
359.838	14.49
360.207	14.4
360.576	14.39
360.945	14.48
361.314	14.56
361.682	14.47
362.051	14.68
362.42	14.86
362.788	14.52
363.157	14.82
363.525	14.82
363.894	14.82
364.262	14.91
364.631	15.09
364.999	14.79
365.367	14.7
365.735	15.52
366.104	14.87
366.472	15.31
366.84	14.91
367.208	15.41
367.576	15.36
367.944	15.6
368.312	15.75
368.68	15.34
369.048	15.27
369.416	15.39
369.783	15.85
370.151	15.78
370.519	16.04
370.886	15.86
371.254	15.89
371.621	15.88
371.989	16.14
372.356	16.01
372.724	16.02
373.091	16.32
373.458	16.15
373.826	16.6
374.193	15.8
374.56	16.16
374.927	16.27
375.294	16.01
375.661	16.51
376.028	16.28
376.395	16.65
376.762	16.79
377.129	16.58
377.496	16.99
377.863	16.49
378.229	16.87
378.596	16.86
378.963	16.7
379.329	16.79
379.696	16.92
380.062	17.04
380.429	17.03
380.795	17.31
381.161	17.14
381.528	17.4
381.894	16.87
382.26	17.33
382.626	17.45
382.993	17.53
383.359	17.28
383.725	17.39
384.091	17.51
384.457	17.88
384.823	17.76
385.188	17.94
385.554	17.66
385.92	17.69
386.286	17.83
386.651	17.68
387.017	17.94
387.383	18.22
387.748	17.84
388.114	18
388.479	18.4
388.845	18.29
389.21	18.67
389.575	18.68
389.94	18.43
390.306	18.55
390.671	18.35
391.036	18.52
391.401	18.98
391.766	18.6
392.131	18.56
392.496	18.82
392.861	18.67
393.226	18.95
393.591	18.61
393.956	18.91
394.32	19.03
394.685	18.88
395.05	19.19
395.414	19.27
395.779	19.17
396.143	18.94
396.508	19.14
396.872	19.26
397.236	19.48
397.601	19.64
397.965	19.39
398.329	19.58
398.694	19.58
399.058	19.73
399.422	19.78
399.786	19.53
400.15	19.75
400.514	20.16
400.878	19.64
401.242	20.17
401.605	19.85
401.969	19.97
402.333	20.28
402.697	20.09
403.06	20.22
403.424	20.23
403.787	20.29
404.151	20.33
404.514	20.83
404.878	20.47
405.241	20.29
405.604	20.39
405.968	20.46
406.331	20.41
406.694	20.36
407.057	20.69
407.42	20.49
407.783	20.7
408.146	20.98
408.509	20.82
408.872	20.94
409.235	20.84
409.598	20.98
409.961	21.32
410.323	21
410.686	21.17
411.049	21.34
411.411	21.13
411.774	21.23
412.136	21.15
412.499	21.64
412.861	21.5
413.223	21.41
413.586	21.48
413.948	21.8
414.31	21.58
414.672	21.89
415.035	21.85
415.397	21.83
415.759	21.84
416.121	21.55
416.483	21.96
416.845	22.05
417.206	21.87
417.568	22.16
417.93	22.26
418.292	22.16
418.653	22.12
419.015	22.16
419.377	22.07
419.738	22.15
420.1	22.22
420.461	21.97
420.822	22.14
421.184	22.2
421.545	22.26
421.906	22.36
422.267	22.16
422.629	22.26
422.99	22.12
423.351	22.1
423.712	22.36
424.073	22.46
424.434	22.47
424.795	22.56
425.155	22.66
425.516	22.67
425.877	22.65
426.238	22.51
426.598	22.58
426.959	22.59
427.32	22.73
427.68	22.86
428.041	22.91
428.401	23.06
428.761	23.32
429.122	23.23
429.482	23.27
429.842	23.54
430.202	23.53
430.563	23.48
430.923	23.91
431.283	23.72
431.643	23.84
432.003	24.04
432.363	23.71
432.722	23.97
433.082	24.02
433.442	23.87
433.802	23.93
434.161	23.91
434.521	24.1
434.881	24.15
435.24	24.21
435.6	24.15
435.959	24.11
436.319	24.13
436.678	24.27
437.037	24.3
437.396	24.51
437.756	24.47
438.115	24.31
438.474	24.68
438.833	24.59
439.192	24.69
439.551	24.68
439.91	24.91
440.269	24.68
440.628	24.84
440.987	24.75
441.345	24.61
441.704	24.78
442.063	24.67
442.421	24.85
442.78	24.88
443.138	25.02
443.497	25
443.855	24.94
444.214	25.26
444.572	25.22
444.93	25.42
445.288	25.41
445.647	25.26
446.005	25.28
446.363	25.51
446.721	25.49
447.079	25.47
447.437	25.31
447.795	25.33
448.153	25.38
448.51	25.36
448.868	25.53
449.226	25.47
449.584	25.53
449.941	25.63
450.299	25.77
450.656	25.91
451.014	26.19
451.371	26.18
451.729	26.22
452.086	26.3
452.443	26.35
452.801	26.37
453.158	26.63
453.515	26.57
453.872	26.33
454.229	26.68
454.586	26.62
454.943	26.57
455.3	26.8
455.657	26.89
456.014	26.66
456.371	26.76
456.727	27.23
457.084	27.02
457.441	26.84
457.797	27.05
458.154	27.23
458.51	27.13
458.867	26.99
459.223	27.3
459.58	27.41
459.936	27.33
460.292	27.29
460.648	27.19
461.005	27.16
461.361	27.25
461.717	27.02
462.073	27.03
462.429	27.17
462.785	27.37
463.141	27.42
463.496	27.41
463.852	27.58
464.208	27.8
464.564	27.89
464.919	28.12
465.275	28.12
465.631	28.02
465.986	28.3
466.342	28.13
466.697	28.15
467.052	28.16
467.408	28.27
467.763	28.35
468.118	28.34
468.473	28.3
468.829	28.37
469.184	28.53
469.539	28.43
469.894	28.57
470.249	28.62
470.603	28.64
470.958	28.55
471.313	28.69
471.668	28.84
472.023	28.74
472.377	28.98
472.732	28.99
473.086	29.1
473.441	29.01
473.795	29.05
474.15	29.07
474.504	29.08
474.859	29.17
475.213	29.3
475.567	29.08
475.921	29.3
476.275	29.4
476.63	29.28
476.984	29.45
477.338	29.57
477.692	29.49
478.045	29.72
478.399	29.75
478.753	29.51
479.107	29.72
479.461	29.85
479.814	29.82
480.168	29.85
480.521	29.78
480.875	29.91
481.228	29.96
481.582	30.02
481.935	29.91
482.289	29.85
482.642	30.04
482.995	30.17
483.348	29.93
483.701	29.96
484.055	29.85
484.408	29.7
484.761	29.79
485.114	29.52
485.466	29.19
485.819	29.43
486.172	29.64
486.525	29.57
486.878	29.66
487.23	29.6
487.583	29.75
487.936	29.94
488.288	29.97
488.641	29.98
488.993	30.03
489.345	29.93
489.698	29.91
490.05	30
490.402	30.14
490.754	30.2
491.107	30.21
491.459	30.44
491.811	30.34
492.163	30.75
492.515	30.94
492.866	30.6
493.218	30.54
493.57	30.56
493.922	30.73
494.274	30.57
494.625	30.83
494.977	30.78
495.328	31.03
495.68	31.2
496.031	31.41
496.383	31.56
496.734	31.69
497.086	31.97
497.437	31.88
497.788	31.99
498.139	31.84
498.49	31.76
498.842	31.93
499.193	31.77
499.544	31.86
499.894	31.8
500.245	32.07
500.596	31.99
500.947	32.13
501.298	32.2
501.648	32.4
501.999	32.47
502.35	32.45
502.7	32.62
503.051	32.75
503.401	32.64
503.752	32.77
504.102	32.94
504.452	32.73
504.803	32.87
505.153	32.73
505.503	32.96
505.853	33.07
506.203	33.07
506.553	33.06
506.903	33.07
507.253	32.91
507.603	33.08
507.953	33.39
508.303	33.26
508.652	33.36
509.002	33.55
509.352	33.09
509.701	33.21
510.051	33.43
510.4	33.36
510.75	33.4
511.099	33.54
511.449	33.44
511.798	33.48
512.147	33.34
512.496	33.61
512.846	33.54
513.195	33.71
513.544	33.81
513.893	33.71
514.242	33.94
514.591	33.75
514.939	33.99
515.288	34.01
515.637	34.01
515.986	34.08
516.334	34.13
516.683	34.18
517.032	34.29
517.38	34.49
517.729	34.41
518.077	34.61
518.426	34.62
518.774	34.53
519.122	34.61
519.47	34.51
519.819	34.25
520.167	34.26
520.515	34.3
520.863	34.31
521.211	34.32
521.559	34.45
521.907	34.43
522.255	34.51
522.602	34.78
522.95	34.8
523.298	34.99
523.645	35.05
523.993	35.28
524.341	34.85
524.688	35.23
525.036	35.23
525.383	35.59
525.73	35.51
526.078	35.49
526.425	35.39
526.772	35.28
527.119	35.12
527.466	35.05
527.814	35.2
528.161	35.12
528.508	35.17
528.854	35.07
529.201	35.17
529.548	35.33
529.895	35.09
530.242	34.91
530.588	35.09
530.935	35.27
531.282	35.18
531.628	34.99
531.975	35.2
532.321	35.26
532.667	35.49
533.014	35.67
533.36	35.56
533.706	36.05
534.052	36.03
534.399	35.99
534.745	35.83
535.091	35.69
535.437	35.79
535.783	35.84
536.129	36
536.474	36.08
536.82	36.12
537.166	36.03
537.512	36.36
537.857	36.4
538.203	36.46
538.549	36.56
538.894	36.47
539.239	36.51
539.585	36.46
539.93	36.59
540.276	36.8
540.621	36.75
540.966	37.15
541.311	37.17
541.656	37.29
542.001	37.15
542.346	37.06
542.691	36.9
543.036	36.66
543.381	36.66
543.726	36.73
544.071	36.89
544.415	36.96
544.76	36.87
545.105	37.06
545.449	37.2
545.794	37.24
546.138	37.4
546.483	37.77
546.827	37.41
547.171	37.76
547.516	37.96
547.86	38.1
548.204	37.84
548.548	37.97
548.892	37.83
549.236	38.02
549.58	37.97
549.924	38.28
550.268	38.31
550.612	38.23
550.956	38.44
551.3	38.56
551.643	38.83
551.987	38.78
552.33	38.66
552.674	38.93
553.017	38.96
553.361	39.12
553.704	38.98
554.048	39.29
554.391	38.94
554.734	39.24
555.077	39.28
555.42	39.07
555.764	39.39
556.107	39.25
556.45	39.43
556.793	39.31
557.135	39.3
557.478	39.53
557.821	39.85
558.164	39.96
558.507	39.7
558.849	39.8
559.192	39.89
559.534	39.78
559.877	39.91
560.219	39.9
560.562	40.04
560.904	40.14
561.246	40.07
561.589	39.87
561.931	40.01
562.273	40.22
562.615	40.08
562.957	40.37
563.299	40.27
563.641	40.42
563.983	40.38
564.325	40.29
564.667	40.35
565.008	40.52
565.35	40.67
565.692	40.48
566.033	40.66
566.375	40.45
566.716	40.52
567.058	40.58
567.399	40.69
567.741	40.7
568.082	40.81
568.423	40.68
568.764	41
569.105	40.85
569.447	40.86
569.788	40.94
570.129	40.94
570.47	40.9
570.811	41.3
571.151	41.41
571.492	41.22
571.833	41.29
572.174	41.57
572.514	41.2
572.855	41.07
573.195	41.38
573.536	41.25
573.876	41.31
574.217	41.59
574.557	41.4
574.898	41.38
575.238	41.31
575.578	41.65
575.918	41.41
576.258	41.78
576.598	41.57
576.938	41.86
577.278	41.71
577.618	41.94
577.958	41.91
578.298	41.99
578.638	42.01
578.977	42.11
579.317	42.25
579.657	42.29
579.996	42.18
580.336	42.3
580.675	42.13
581.014	42.66
581.354	42.34
581.693	42.88
582.032	42.73
582.372	42.83
582.711	42.74
583.05	42.81
583.389	42.63
583.728	42.7
584.067	43.2
584.406	42.92
584.745	43.1
585.083	42.69
585.422	42.99
585.761	43.1
586.1	43.31
586.438	42.87
586.777	43.5
587.115	43.19
587.454	43.15
587.792	43.41
588.13	43.38
588.469	43.52
588.807	43.43
589.145	43.54
589.483	43.67
589.821	43.42
590.159	43.65
590.497	43.61
590.835	43.51
591.173	43.49
591.511	43.73
591.849	43.49
592.187	44
592.524	44.09
592.862	44.15
593.2	44.06
593.537	43.94
593.875	44.13
594.212	44.11
594.55	43.95
594.887	44
595.224	44.29
595.561	44.32
595.899	44.43
596.236	44.28
596.573	44.27
596.91	44.43
597.247	44.27
597.584	44.31
597.921	44.75
598.258	44.5
598.594	44.21
598.931	44.45
599.268	44.57
599.604	44.3
599.941	44.53
600.277	44.51
600.614	44.43
600.95	44.63
601.287	44.55
601.623	45.14
601.959	44.79
602.296	44.96
602.632	44.77
602.968	45.05
603.304	45.42
603.64	45.22
603.976	45.3
604.312	45.15
604.648	45.2
604.984	45.1
605.319	45.29
605.655	45.18
605.991	45.44
606.326	45.25
606.662	45.1
606.998	45.06
607.333	45.28
607.668	45.08
608.004	45.21
608.339	45.39
608.674	45.54
609.01	45.75
609.345	45.79
609.68	45.97
610.015	45.91
610.35	45.77
610.685	46.1
611.02	45.8
611.355	45.88
611.689	45.8
612.024	45.93
612.359	45.75
612.694	46.18
613.028	46.04
613.363	45.98
613.697	46.23
614.032	46.35
614.366	46.07
614.7	46.06
615.035	46.64
615.369	46.67
615.703	46.57
616.037	46.6
616.371	46.84
616.705	46.58
617.039	46.52
617.373	46.75
617.707	46.63
618.041	46.96
618.375	46.77
618.709	46.97
619.042	46.93
619.376	46.98
619.71	46.63
620.043	47.39
620.377	47.38
620.71	47.56
621.043	47.38
621.377	47.3
621.71	48.14
622.043	47.41
622.376	47.48
622.709	47.21
623.043	47.56
623.376	47.43
623.709	47.95
624.041	47.74
624.374	47.36
624.707	47.54
625.04	47.97
625.373	48.19
625.705	47.71
626.038	47.91
626.37	48.36
626.703	47.64
627.035	47.05
627.368	47.91
627.7	48.21
628.032	47.53
628.365	47.84
628.697	47.9
629.029	47.97
629.361	47.85
629.693	48.04
630.025	48
630.357	47.98
630.689	48.01
631.021	47.72
631.353	48.18
631.684	48.31
632.016	48.25
632.348	48.14
632.679	48.5
633.011	48.28
633.342	48.51
633.674	48.48
634.005	48.54
634.336	48.69
634.668	48.63
634.999	48.6
635.33	48.36
635.661	48.57
635.992	48.9
636.323	49.02
636.654	48.9
636.985	48.92
637.316	48.87
637.647	48.65
637.977	49.32
638.308	49.34
638.639	48.82
638.969	49.11
639.3	49.4
639.63	49.28
639.961	49.66
640.291	49.43
640.622	49.52
640.952	49.94
641.282	49.34
641.612	50.02
641.943	49.23
642.273	49.19
642.603	49.62
642.933	49.26
643.263	49.18
643.592	49.87
643.922	50.27
644.252	49.64
644.582	49.74
644.911	49.82
645.241	49.81
645.571	49.36
645.9	50.24
646.23	50.35
646.559	50.42
646.888	50.06
647.218	49.92
647.547	50.45
647.876	50.25
648.205	49.79
648.534	49.95
648.863	49.64
649.192	50.26
649.521	50.15
649.85	50.17
650.179	50.19
650.508	50.5
650.837	49.84
651.165	50.38
651.494	50.39
651.822	50.39
652.151	50.8
652.479	50.78
652.808	50.53
653.136	50.67
653.465	50.51
653.793	50.59
654.121	50.3
654.449	50.18
654.777	51.18
655.105	50.49
655.433	50.64
655.761	51.08
656.089	50.84
656.417	51.39
656.745	51.28
657.073	50.67
657.4	50.4
657.728	50.48
658.056	50.65
658.383	50.86
658.711	51.44
659.038	50.75
659.365	51.25
659.693	51.48
660.02	51.04
660.347	51.38
660.674	51.14
661.001	50.94
661.329	51.23
661.656	51.64
661.982	51.17
662.309	51.07
662.636	51.49
662.963	50.67
663.29	50.99
663.616	51.61
663.943	51.63
664.27	51.54
664.596	51.03
664.923	51.55
665.249	51.46
665.576	51.8
665.902	51.55
666.228	51.18
666.554	52.14
666.881	51.96
667.207	51.78
667.533	51.47
667.859	51.23
668.185	51.91
668.511	51.69
668.837	51.88
669.162	52.07
669.488	52.02
669.814	51.9
