Data from 0045_crown_Reflection__4__155.txt Node

Date: Fri Nov 04 16:06:12 CDT 2022
User: ToomeyLab
Spectrometer: FLMS14357
Trigger mode: 0
Integration Time (sec): 1.000000E-2
Scans to average: 100
Electric dark correction enabled: true
Nonlinearity correction enabled: false
Boxcar width: 0
XAxis mode: Wavelengths
Number of Pixels in Spectrum: 2048
>>>>>Begin Spectral Data<<<<<
189.047	55.68
189.435	55.68
189.823	55.68
190.211	38.65
190.599	481.44
190.987	-626.55
191.375	26.08
191.763	-232.8
192.151	64.82
192.538	189.58
192.926	507.02
193.314	-13.58
193.702	124.8
194.089	307.15
194.477	-58.76
194.864	313.05
195.252	393.17
195.639	55.24
196.027	58.5
196.414	11.03
196.801	83.2
197.189	265.18
197.576	72.35
197.963	85.07
198.351	29
198.738	57.76
199.125	69.29
199.512	-52.62
199.899	1.89
200.286	-7.72
200.673	-27.33
201.06	-9.03
201.447	-31.15
201.833	8.19
202.22	-27.66
202.607	-0.21
202.994	26.3
203.38	27.36
203.767	43.69
204.154	18
204.54	100.1
204.927	17.09
205.313	27.22
205.699	28.98
206.086	-6.46
206.472	2.17
206.858	11.31
207.245	4.07
207.631	7.82
208.017	19.09
208.403	3.78
208.789	20.14
209.175	0.27
209.561	-146.04
209.947	-35.42
210.333	13.77
210.719	13.01
211.105	-33.57
211.491	34.87
211.876	11.9
212.262	24.21
212.648	-10.14
213.034	21.26
213.419	-1.43
213.805	3.82
214.19	-40.49
214.576	-41.33
214.961	37.99
215.346	-2.36
215.732	22.24
216.117	-9.84
216.502	6.31
216.888	-4.53
217.273	11.21
217.658	30.8
218.043	30.94
218.428	19.44
218.813	11.1
219.198	12.46
219.583	-4.37
219.968	24.59
220.353	-12.69
220.738	-18.05
221.122	-2.23
221.507	9.63
221.892	-27.19
222.276	-3.58
222.661	16.82
223.046	-10.24
223.43	-1.87
223.815	-17.52
224.199	5.4
224.583	5.36
224.968	0.8
225.352	-0.48
225.736	-3.06
226.121	-8.55
226.505	2.61
226.889	5.44
227.273	5.83
227.657	1.39
228.041	6.09
228.425	4.17
228.809	4.78
229.193	3.43
229.577	0.52
229.961	3.18
230.344	3.74
230.728	2.65
231.112	2.26
231.495	2.78
231.879	4.38
232.263	1.55
232.646	3.1
233.03	1.92
233.413	2.23
233.797	2.82
234.18	2.75
234.563	3.19
234.946	2.32
235.33	1.79
235.713	2.86
236.096	2.43
236.479	1.83
236.862	2.52
237.245	4.13
237.628	3.3
238.011	1.77
238.394	3.36
238.777	4.81
239.16	3
239.543	1.49
239.925	3.39
240.308	5.11
240.691	1.69
241.073	2.33
241.456	4.06
241.838	2.51
242.221	3.02
242.603	3.1
242.986	2.82
243.368	2.61
243.75	3.06
244.133	3.41
244.515	3.24
244.897	3.38
245.279	2.8
245.661	3.09
246.043	3.86
246.425	3.13
246.807	5.07
247.189	3.25
247.571	3.68
247.953	3.49
248.335	3.46
248.717	3.3
249.098	3.13
249.48	3.38
249.862	3.63
250.243	3.1
250.625	3.03
251.006	2.99
251.388	3.19
251.769	3.16
252.151	4.14
252.532	3.08
252.913	1.99
253.295	3.32
253.676	3.24
254.057	2.98
254.438	3.24
254.819	3.25
255.2	2.16
255.581	3.97
255.962	4.19
256.343	3.33
256.724	3.04
257.105	2.61
257.486	3.97
257.867	4.72
258.247	3.27
258.628	2.38
259.009	2.47
259.389	3.29
259.77	3.15
260.15	2.84
260.531	3.33
260.911	2.82
261.292	3.06
261.672	3.06
262.052	3.09
262.432	3.12
262.813	2.85
263.193	2.6
263.573	3.16
263.953	2.68
264.333	3.35
264.713	3.94
265.093	3.03
265.473	3.47
265.853	2.15
266.233	3.43
266.612	2.91
266.992	3.66
267.372	2.56
267.752	3.09
268.131	3.57
268.511	3.21
268.89	3.1
269.27	2.89
269.649	2.65
270.029	2.54
270.408	3.78
270.787	3.23
271.167	3.05
271.546	3.98
271.925	3
272.304	2.67
272.683	2.61
273.062	2.91
273.441	2.96
273.82	2.8
274.199	3.15
274.578	2.73
274.957	2.54
275.336	2.97
275.715	2.75
276.093	2.82
276.472	2.78
276.851	2.55
277.229	3.18
277.608	2.75
277.986	3.31
278.365	2.98
278.743	3.06
279.122	2.68
279.5	3.11
279.878	2.87
280.257	3.05
280.635	2.98
281.013	2.75
281.391	3.11
281.769	3.1
282.147	2.55
282.525	3.18
282.903	3.19
283.281	3.18
283.659	2.95
284.037	3.1
284.415	3.12
284.792	3.39
285.17	2.44
285.548	3.27
285.925	3.07
286.303	2.83
286.68	3.11
287.058	2.83
287.435	3.03
287.813	2.89
288.19	3.11
288.567	2.94
288.945	3.12
289.322	3.13
289.699	3.32
290.076	3.3
290.453	2.61
290.83	2.86
291.207	2.85
291.584	3.07
291.961	3.12
292.338	3.11
292.715	3.3
293.092	3.29
293.469	2.94
293.845	3.3
294.222	2.64
294.599	2.7
294.975	2.65
295.352	3.37
295.728	3.36
296.105	2.64
296.481	3.01
296.858	3.04
297.234	3.59
297.61	3.33
297.986	2.89
298.363	2.65
298.739	2.98
299.115	3.17
299.491	2.99
299.867	2.87
300.243	3.13
300.619	3.12
300.995	3.5
301.371	3.65
301.746	3.28
302.122	3.52
302.498	3.11
302.874	3.22
303.249	3.31
303.625	3
304	3.15
304.376	3.26
304.751	3.67
305.127	2.87
305.502	3.06
305.878	3.45
306.253	3.49
306.628	2.94
307.003	3.42
307.378	3.01
307.754	3.56
308.129	2.84
308.504	2.92
308.879	3.53
309.254	3.24
309.629	3.09
310.003	3.49
310.378	3.37
310.753	3.5
311.128	2.76
311.502	2.74
311.877	3.31
312.252	3.01
312.626	3.3
313.001	3.03
313.375	3.13
313.75	3.2
314.124	3.05
314.498	3.08
314.873	3.52
315.247	3.18
315.621	3.4
315.995	3.58
316.369	2.9
316.743	3.75
317.117	3.66
317.491	3.46
317.865	2.76
318.239	3.09
318.613	3.67
318.987	3.31
319.361	3.62
319.734	3.3
320.108	3.31
320.482	2.6
320.855	3.61
321.229	3.74
321.602	2.98
321.976	3.05
322.349	3.98
322.723	3.69
323.096	3.87
323.469	2.84
323.843	3.23
324.216	3.7
324.589	3.55
324.962	3.63
325.335	2.77
325.708	3.39
326.081	3.73
326.454	3.67
326.827	3.49
327.2	3.21
327.573	2.92
327.945	3.85
328.318	2.96
328.691	3.18
329.063	3.14
329.436	3.54
329.809	3.22
330.181	3.46
330.553	3.3
330.926	3.22
331.298	3.57
331.671	3.34
332.043	3.16
332.415	3.31
332.787	3.1
333.159	2.93
333.532	2.65
333.904	3.53
334.276	3
334.648	3.72
335.02	2.82
335.391	3.33
335.763	3.46
336.135	3.44
336.507	3.8
336.879	3.35
337.25	3.95
337.622	3.37
337.993	3.22
338.365	3.26
338.736	3.67
339.108	3.65
339.479	3.67
339.851	3.36
340.222	3.45
340.593	3.45
340.964	3.6
341.336	3.54
341.707	2.86
342.078	3.4
342.449	3.27
342.82	3.49
343.191	3.3
343.562	3.07
343.933	3.45
344.303	3.66
344.674	3.6
345.045	3.18
345.416	2.82
345.786	3.42
346.157	3.54
346.527	3.33
346.898	4.07
347.268	3.27
347.639	3.56
348.009	3.46
348.38	3.26
348.75	3
349.12	3.12
349.49	3.58
349.861	3.01
350.231	3.68
350.601	3.31
350.971	3.35
351.341	3.77
351.711	3.31
352.081	3.53
352.45	3.7
352.82	3.72
353.19	3.64
353.56	3.64
353.929	3.64
354.299	3.83
354.669	3.54
355.038	3.88
355.408	3.37
355.777	3.28
356.147	3.25
356.516	3.25
356.885	3.34
357.254	3.52
357.624	3.26
357.993	3.41
358.362	3.46
358.731	3.79
359.1	3.34
359.469	3.38
359.838	3.55
360.207	3.18
360.576	3.6
360.945	3.49
361.314	3.71
361.682	3.37
362.051	3.67
362.42	3.45
362.788	3.52
363.157	3.31
363.525	3.53
363.894	3.26
364.262	3.47
364.631	3.76
364.999	3.32
365.367	3.32
365.735	3.7
366.104	3.35
366.472	3.78
366.84	3.25
367.208	3.43
367.576	3.57
367.944	3.74
368.312	3.4
368.68	3.44
369.048	3.23
369.416	3.51
369.783	3.31
370.151	3.33
370.519	4.18
370.886	3.33
371.254	3.26
371.621	3.6
371.989	3.72
372.356	3.52
372.724	3.62
373.091	3.64
373.458	3.63
373.826	3.77
374.193	3.47
374.56	3.28
374.927	3.85
375.294	3.26
375.661	3.53
376.028	3.27
376.395	3.65
376.762	3.93
377.129	3.68
377.496	3.41
377.863	3.42
378.229	3.53
378.596	3.68
378.963	3.43
379.329	3.65
379.696	3.33
380.062	3.73
380.429	3.57
380.795	3.4
381.161	3.62
381.528	3.52
381.894	3.29
382.26	3.89
382.626	3.36
382.993	3.94
383.359	3.6
383.725	3.56
384.091	3.54
384.457	3.57
384.823	3.88
385.188	3.96
385.554	3.48
385.92	3.35
386.286	3.65
386.651	3.46
387.017	3.54
387.383	3.68
387.748	3.54
388.114	3.51
388.479	4.2
388.845	3.63
389.21	3.83
389.575	3.66
389.94	3.57
390.306	3.64
390.671	3.63
391.036	3.52
391.401	3.87
391.766	3.45
392.131	3.63
392.496	3.59
392.861	3.86
393.226	3.65
393.591	3.64
393.956	3.85
394.32	3.7
394.685	3.72
395.05	3.72
395.414	3.53
395.779	3.62
396.143	3.45
396.508	3.79
396.872	3.51
397.236	3.62
397.601	3.57
397.965	3.69
398.329	3.94
398.694	3.88
399.058	3.62
399.422	3.79
399.786	3.65
400.15	3.62
400.514	3.62
400.878	3.72
401.242	3.82
401.605	3.66
401.969	3.83
402.333	3.81
402.697	3.79
403.06	3.8
403.424	3.82
403.787	3.56
404.151	3.73
404.514	3.7
404.878	3.66
405.241	3.83
405.604	3.72
405.968	3.55
406.331	3.65
406.694	3.65
407.057	3.63
407.42	3.76
407.783	3.54
408.146	3.92
408.509	3.65
408.872	3.77
409.235	4.02
409.598	3.69
409.961	3.75
410.323	3.96
410.686	3.72
411.049	3.67
411.411	3.73
411.774	3.88
412.136	3.91
412.499	3.68
412.861	3.78
413.223	3.74
413.586	3.41
413.948	3.87
414.31	3.63
414.672	3.75
415.035	3.88
415.397	3.68
415.759	3.99
416.121	3.66
416.483	3.89
416.845	3.76
417.206	3.77
417.568	3.84
417.93	3.77
418.292	3.86
418.653	3.98
419.015	3.8
419.377	3.78
419.738	3.7
420.1	3.72
420.461	3.77
420.822	3.63
421.184	3.75
421.545	3.64
421.906	3.73
422.267	3.6
422.629	3.78
422.99	3.59
423.351	3.67
423.712	3.72
424.073	3.76
424.434	3.63
424.795	3.75
425.155	3.83
425.516	3.81
425.877	3.72
426.238	3.75
426.598	3.72
426.959	3.64
427.32	3.68
427.68	3.7
428.041	3.67
428.401	3.78
428.761	3.85
429.122	3.78
429.482	3.8
429.842	3.65
430.202	3.9
430.563	3.7
430.923	4.07
431.283	3.78
431.643	3.94
432.003	4.13
432.363	3.88
432.722	3.85
433.082	4
433.442	3.93
433.802	3.86
434.161	3.78
434.521	3.87
434.881	3.91
435.24	3.74
435.6	3.92
435.959	3.83
436.319	3.82
436.678	3.92
437.037	3.95
437.396	4.09
437.756	3.9
438.115	3.77
438.474	4.01
438.833	4.02
439.192	3.83
439.551	3.95
439.91	3.95
440.269	3.88
440.628	4.08
440.987	3.94
441.345	3.87
441.704	3.88
442.063	3.83
442.421	3.94
442.78	3.95
443.138	3.94
443.497	3.86
443.855	3.91
444.214	4
444.572	3.81
444.93	3.86
445.288	3.83
445.647	3.79
446.005	3.86
446.363	3.78
446.721	3.9
447.079	3.84
447.437	3.84
447.795	3.94
448.153	3.82
448.51	3.9
448.868	3.87
449.226	3.83
449.584	3.87
449.941	3.85
450.299	3.89
450.656	3.83
451.014	3.99
451.371	4.05
451.729	4.06
452.086	3.94
452.443	4.01
452.801	4.03
453.158	4.04
453.515	3.96
453.872	4.01
454.229	4.02
454.586	3.9
454.943	4.04
455.3	4.02
455.657	3.85
456.014	4.07
456.371	3.95
456.727	4.18
457.084	4.06
457.441	3.93
457.797	3.98
458.154	4.04
458.51	4.14
458.867	3.94
459.223	4.09
459.58	4.02
459.936	3.93
460.292	3.97
460.648	3.93
461.005	3.97
461.361	4
461.717	3.97
462.073	4
462.429	4.03
462.785	4.01
463.141	4.07
463.496	3.96
463.852	4.1
464.208	4.13
464.564	3.91
464.919	4.17
465.275	4.2
465.631	4.15
465.986	4.17
466.342	4.11
466.697	4.06
467.052	4.04
467.408	4.14
467.763	4.15
468.118	4.26
468.473	4.26
468.829	3.95
469.184	4.13
469.539	4.04
469.894	4.09
470.249	4.12
470.603	4.14
470.958	3.99
471.313	4.1
471.668	4.04
472.023	4.09
472.377	3.98
472.732	4.07
473.086	4.07
473.441	4.2
473.795	4.13
474.15	4.16
474.504	4.05
474.859	4.08
475.213	4.25
475.567	4.07
475.921	4.1
476.275	4.19
476.63	4.2
476.984	4.27
477.338	4.25
477.692	4.27
478.045	4.19
478.399	4.21
478.753	4.19
479.107	4.23
479.461	4.3
479.814	4.34
480.168	4.28
480.521	4.13
480.875	4.22
481.228	4.32
481.582	4.22
481.935	4.2
482.289	4.26
482.642	4.28
482.995	4.19
483.348	4.17
483.701	4.2
484.055	4.15
484.408	4.14
484.761	4.18
485.114	4.07
485.466	4
485.819	3.94
486.172	3.97
486.525	4.03
486.878	4.1
487.23	4.14
487.583	4.16
487.936	4.18
488.288	4.22
488.641	4.15
488.993	4.15
489.345	4.04
489.698	4.1
490.05	4.11
490.402	4.12
490.754	4.17
491.107	4.2
491.459	4.27
491.811	4.26
492.163	4.33
492.515	4.27
492.866	4.22
493.218	4.21
493.57	4.11
493.922	4.2
494.274	4.18
494.625	4.29
494.977	4.34
495.328	4.29
495.68	4.3
496.031	4.32
496.383	4.48
496.734	4.4
497.086	4.47
497.437	4.48
497.788	4.45
498.139	4.31
498.49	4.34
498.842	4.41
499.193	4.45
499.544	4.47
499.894	4.41
500.245	4.43
500.596	4.33
500.947	4.44
501.298	4.45
501.648	4.48
501.999	4.56
502.35	4.48
502.7	4.48
503.051	4.57
503.401	4.48
503.752	4.73
504.102	4.69
504.452	4.49
504.803	4.56
505.153	4.55
505.503	4.59
505.853	4.53
506.203	4.64
506.553	4.46
506.903	4.43
507.253	4.6
507.603	4.53
507.953	4.51
508.303	4.64
508.652	4.54
509.002	4.72
509.352	4.7
509.701	4.69
510.051	4.63
510.4	4.7
510.75	4.63
511.099	4.59
511.449	4.61
511.798	4.59
512.147	4.6
512.496	4.67
512.846	4.6
513.195	4.74
513.544	4.58
513.893	4.76
514.242	4.64
514.591	4.68
514.939	4.76
515.288	4.73
515.637	4.72
515.986	4.73
516.334	4.74
516.683	4.74
517.032	4.82
517.38	4.91
517.729	4.82
518.077	4.74
518.426	4.87
518.774	4.79
519.122	4.71
519.47	4.79
519.819	4.73
520.167	4.75
520.515	4.69
520.863	4.77
521.211	4.8
521.559	4.81
521.907	4.83
522.255	4.91
522.602	4.9
522.95	4.84
523.298	4.94
523.645	4.72
523.993	4.9
524.341	4.98
524.688	5
525.036	4.88
525.383	5.04
525.73	5.11
526.078	5.11
526.425	5.01
526.772	4.89
527.119	4.89
527.466	4.93
527.814	4.85
528.161	4.9
528.508	4.92
528.854	4.93
529.201	4.9
529.548	4.9
529.895	4.9
530.242	4.78
530.588	4.78
530.935	4.83
531.282	4.89
531.628	4.84
531.975	4.95
532.321	5.04
532.667	4.99
533.014	5.04
533.36	5.13
533.706	5.12
534.052	5.11
534.399	5.11
534.745	5.09
535.091	5
535.437	4.99
535.783	5.02
536.129	5.12
536.474	5.2
536.82	5.18
537.166	5.17
537.512	5.25
537.857	5.22
538.203	5.18
538.549	5.22
538.894	5.27
539.239	5.23
539.585	5.25
539.93	5.24
540.276	5.37
540.621	5.44
540.966	5.43
541.311	5.22
541.656	5.41
542.001	5.41
542.346	5.32
542.691	5.31
543.036	5.22
543.381	5.23
543.726	5.25
544.071	5.26
544.415	5.4
544.76	5.4
545.105	5.43
545.449	5.45
545.794	5.43
546.138	5.44
546.483	5.57
546.827	5.58
547.171	5.55
547.516	5.58
547.86	5.55
548.204	5.71
548.548	5.6
548.892	5.65
549.236	5.6
549.58	5.5
549.924	5.77
550.268	5.76
550.612	5.65
550.956	5.8
551.3	5.76
551.643	5.77
551.987	5.74
552.33	5.86
552.674	5.95
553.017	6.04
553.361	6.02
553.704	5.89
554.048	5.81
554.391	5.87
554.734	5.96
555.077	5.94
555.42	5.97
555.764	6.25
556.107	6.1
556.45	6.13
556.793	6.2
557.135	6.09
557.478	6
557.821	6.25
558.164	6.34
558.507	6.21
558.849	6.41
559.192	6.25
559.534	6.23
559.877	6.23
560.219	6.36
560.562	6.38
560.904	6.53
561.246	6.41
561.589	6.38
561.931	6.27
562.273	6.51
562.615	6.35
562.957	6.46
563.299	6.42
563.641	6.37
563.983	6.52
564.325	6.48
564.667	6.36
565.008	6.45
565.35	6.5
565.692	6.57
566.033	6.65
566.375	6.53
566.716	6.69
567.058	6.66
567.399	6.57
567.741	6.72
568.082	6.61
568.423	6.73
568.764	6.51
569.105	6.71
569.447	6.81
569.788	6.69
570.129	6.81
570.47	6.64
570.811	6.97
571.151	6.87
571.492	6.97
571.833	6.94
572.174	7.02
572.514	6.95
572.855	6.9
573.195	6.87
573.536	6.91
573.876	6.83
574.217	7.09
574.557	6.83
574.898	7
575.238	7.02
575.578	7.35
575.918	6.92
576.258	7.13
576.598	7.18
576.938	7.13
577.278	7.06
577.618	7.14
577.958	7.15
578.298	7.23
578.638	7.47
578.977	7.4
579.317	7.49
579.657	7.27
579.996	7.67
580.336	7.48
580.675	7.3
581.014	7.74
581.354	7.54
581.693	7.72
582.032	7.53
582.372	7.71
582.711	7.66
583.05	7.62
583.389	7.71
583.728	7.59
584.067	7.7
584.406	7.69
584.745	7.98
585.083	7.66
585.422	7.91
585.761	7.97
586.1	7.73
586.438	7.77
586.777	7.96
587.115	7.81
587.454	8.03
587.792	8.37
588.13	7.9
588.469	7.93
588.807	8.13
589.145	7.98
589.483	7.72
589.821	7.91
590.159	7.96
590.497	8.55
590.835	8.01
591.173	8.07
591.511	8.24
591.849	8.43
592.187	8.24
592.524	8.35
592.862	8.3
593.2	8.47
593.537	8.27
593.875	8.49
594.212	8.45
594.55	8.23
594.887	8.37
595.224	8.28
595.561	8.22
595.899	8.47
596.236	8.77
596.573	8.57
596.91	8.68
597.247	8.44
597.584	8.55
597.921	9.04
598.258	8.71
598.594	8.46
598.931	8.6
599.268	8.78
599.604	8.68
599.941	8.95
600.277	8.83
600.614	8.82
600.95	8.77
601.287	8.7
601.623	9.12
601.959	8.93
602.296	9.04
602.632	9.1
602.968	9.28
603.304	9.18
603.64	9.27
603.976	9.01
604.312	9.22
604.648	9.2
604.984	9.12
605.319	9.23
605.655	9.17
605.991	9.29
606.326	9.27
606.662	9.28
606.998	9.18
607.333	9.22
607.668	9.51
608.004	9.47
608.339	9.48
608.674	9.59
609.01	9.53
609.345	9.66
609.68	9.72
610.015	9.52
610.35	9.59
610.685	9.77
611.02	9.67
611.355	9.76
611.689	9.62
612.024	9.63
612.359	9.62
612.694	9.71
613.028	9.94
613.363	9.99
613.697	9.83
614.032	9.8
614.366	9.82
614.7	9.87
615.035	10.55
615.369	9.84
615.703	10.4
616.037	10.27
616.371	10.4
616.705	10.3
617.039	10.52
617.373	10.31
617.707	10.66
618.041	10.71
618.375	10.53
618.709	10.84
619.042	10.61
619.376	10.42
619.71	10.66
620.043	10.81
620.377	10.55
620.71	10.72
621.043	10.69
621.377	10.79
621.71	10.69
622.043	11.09
622.376	10.88
622.709	11.07
623.043	10.94
623.376	10.74
623.709	10.82
624.041	10.97
624.374	10.77
624.707	10.7
625.04	11.11
625.373	11.33
625.705	10.79
626.038	10.99
626.37	11.22
626.703	11.2
627.035	11.16
627.368	11.34
627.7	11.36
628.032	11.27
628.365	11.45
628.697	11.29
629.029	11.2
629.361	11.12
629.693	11.41
630.025	11.44
630.357	11.37
630.689	11.48
631.021	11.48
631.353	11.28
631.684	11.31
632.016	11.73
632.348	11.61
632.679	11.47
633.011	11.61
633.342	12.05
633.674	11.75
634.005	12.15
634.336	12.14
634.668	11.76
634.999	12.12
635.33	11.77
635.661	12.02
635.992	12.21
636.323	12.1
636.654	11.81
636.985	12.02
637.316	12.13
637.647	12.22
637.977	12.65
638.308	12.76
638.639	12.34
638.969	11.96
639.3	12.46
639.63	12.51
639.961	12.62
640.291	12.77
640.622	12.49
640.952	12.73
641.282	12.71
641.612	12.87
641.943	12.41
642.273	12.67
642.603	12.71
642.933	12.75
643.263	12.51
643.592	12.99
643.922	13.43
644.252	13.22
644.582	12.81
644.911	13.06
645.241	12.47
645.571	12.77
645.9	13.14
646.23	12.95
646.559	13.21
646.888	13.03
647.218	13.52
647.547	13.06
647.876	13.27
648.205	12.74
648.534	13.5
648.863	13.26
649.192	13.64
649.521	13.07
649.85	13.67
650.179	13.36
650.508	13.65
650.837	13.31
651.165	13.54
651.494	13.87
651.822	13.6
652.151	13.94
652.479	13.32
652.808	13.23
653.136	13.97
653.465	13.75
653.793	13.66
654.121	13.61
654.449	13.48
654.777	13.57
655.105	13.58
655.433	13.44
655.761	13.85
656.089	13.67
656.417	14.05
656.745	13.35
657.073	14.03
657.4	13.47
657.728	13.98
658.056	13.85
658.383	14.63
658.711	13.91
659.038	14.68
659.365	14.89
659.693	14.65
660.02	14.5
660.347	14.52
660.674	14.62
661.001	14.27
661.329	14.58
661.656	14.44
661.982	14.37
662.309	14.6
662.636	14.39
662.963	14.03
663.29	14.12
663.616	14.73
663.943	14.64
664.27	15.15
664.596	14.85
664.923	14.56
665.249	14.82
665.576	15.14
665.902	14.51
666.228	14.93
666.554	15.45
666.881	14.99
667.207	15.48
667.533	14.97
667.859	15.24
668.185	15.58
668.511	15.87
668.837	15.16
669.162	15.72
669.488	14.77
669.814	14.9
670.139	15.47
670.465	15.11
670.791	15.38
671.116	15.33
671.442	15.46
671.767	15.3
672.092	15.73
672.418	15.45
672.743	15.88
673.068	16.03
673.393	16.25
673.718	16.19
674.043	16.23
674.368	15.21
674.693	16.09
675.018	15.01
675.343	15.89
675.667	16.45
675.992	16.22
676.317	15.63
676.641	15.87
676.966	15.9
677.29	16.19
677.615	16.15
677.939	16.47
678.264	16.77
678.588	16.01
678.912	16.33
679.236	16.33
679.56	16.28
679.885	15.69
680.209	17.01
680.532	16.79
680.856	15.99
681.18	15.91
681.504	17.18
681.828	16.71
682.152	16.96
682.475	17.07
682.799	16.77
683.122	16.79
683.446	16.66
683.769	16.71
684.093	17.11
684.416	16.62
684.739	16.68
685.062	17.71
685.386	16.97
685.709	17.03
686.032	17.09
686.355	17.85
686.678	16.93
687.001	17.51
687.324	17.25
687.646	17.56
687.969	16.19
