Data from 0045_crown_Reflection__0__156.txt Node

Date: Fri Nov 04 16:07:54 CDT 2022
User: ToomeyLab
Spectrometer: FLMS14357
Trigger mode: 0
Integration Time (sec): 1.000000E-2
Scans to average: 100
Electric dark correction enabled: true
Nonlinearity correction enabled: false
Boxcar width: 0
XAxis mode: Wavelengths
Number of Pixels in Spectrum: 2048
>>>>>Begin Spectral Data<<<<<
189.047	98.35
189.435	98.35
189.823	98.35
190.211	-74.6
190.599	-56.8
190.987	628.62
191.375	155.42
191.763	-182.68
192.151	49.55
192.538	-155.18
192.926	165.23
193.314	170.92
193.702	25.15
194.089	119.09
194.477	102.66
194.864	25.75
195.252	254.76
195.639	-5.52
196.027	-69.43
196.414	-35.95
196.801	34.94
197.189	-33.37
197.576	129.54
197.963	57.22
198.351	-3.27
198.738	72.77
199.125	14.2
199.512	-100.68
199.899	-30.14
200.286	-73.33
200.673	-13.09
201.06	-15.51
201.447	-32.77
201.833	11.84
202.22	14.12
202.607	-4.82
202.994	39.48
203.38	18.91
203.767	-6.57
204.154	52.63
204.54	-9.49
204.927	-7.54
205.313	7.8
205.699	31.82
206.086	22.74
206.472	5.85
206.858	2.47
207.245	4.54
207.631	1.72
208.017	2.56
208.403	24.94
208.789	23.35
209.175	9.71
209.561	-145.02
209.947	-76.75
210.333	3.42
210.719	1.99
211.105	-14.35
211.491	14.55
211.876	18.35
212.262	22.46
212.648	1.27
213.034	22.73
213.419	-14.61
213.805	-45.23
214.19	-32.05
214.576	0.4
214.961	23.72
215.346	10.39
215.732	-2.49
216.117	3.35
216.502	-8.55
216.888	0.45
217.273	0.3
217.658	-23.9
218.043	-8.38
218.428	7.48
218.813	-0.93
219.198	1.04
219.583	-20.44
219.968	5.58
220.353	-16.3
220.738	-21.56
221.122	-13.79
221.507	16.83
221.892	-24.57
222.276	16.94
222.661	8.91
223.046	-4.86
223.43	3.39
223.815	0.57
224.199	15.45
224.583	13.63
224.968	10.76
225.352	2.51
225.736	-2.66
226.121	-1.9
226.505	8.64
226.889	8.43
227.273	7.99
227.657	3.07
228.041	7.19
228.425	6.55
228.809	8.05
229.193	6.72
229.577	4.24
229.961	5.68
230.344	7.42
230.728	6.03
231.112	5.85
231.495	5.24
231.879	7.03
232.263	6.04
232.646	4.99
233.03	5.58
233.413	5.06
233.797	4.62
234.18	5.58
234.563	4.83
234.946	3.97
235.33	6.12
235.713	5.65
236.096	5.68
236.479	4.8
236.862	5.55
237.245	4.93
237.628	5.11
238.011	6.15
238.394	6.01
238.777	6.35
239.16	6.6
239.543	5.5
239.925	5.61
240.308	6.8
240.691	6.2
241.073	6.51
241.456	5.34
241.838	5.23
242.221	6.57
242.603	5.58
242.986	4.88
243.368	6.12
243.75	5.7
244.133	5.83
244.515	5.43
244.897	5.49
245.279	5.71
245.661	5.57
246.043	5.96
246.425	5.52
246.807	5.71
247.189	5.19
247.571	5.53
247.953	5.71
248.335	5.52
248.717	5.71
249.098	5.55
249.48	5.7
249.862	5.76
250.243	5.57
250.625	5.69
251.006	5.71
251.388	5.42
251.769	5.23
252.151	6.15
252.532	5.25
252.913	4.54
253.295	5.22
253.676	5.09
254.057	5.05
254.438	5.49
254.819	5.26
255.2	4.69
255.581	6.3
255.962	5.33
256.343	4.77
256.724	5.57
257.105	5.18
257.486	5.85
257.867	6.87
258.247	4.93
258.628	5.17
259.009	5
259.389	5.01
259.77	5.75
260.15	5.58
260.531	5.31
260.911	4.74
261.292	4.98
261.672	4.89
262.052	5.11
262.432	5.21
262.813	4.98
263.193	4.6
263.573	5.21
263.953	5.04
264.333	5.28
264.713	5.08
265.093	5.15
265.473	5.55
265.853	4.17
266.233	5.68
266.612	5.35
266.992	5.36
267.372	4.08
267.752	5.05
268.131	5.19
268.511	5.01
268.89	5.61
269.27	4.81
269.649	5.16
270.029	5.02
270.408	4.99
270.787	5.08
271.167	4.81
271.546	5.79
271.925	4.66
272.304	4.59
272.683	4.77
273.062	4.85
273.441	4.81
273.82	4.69
274.199	4.66
274.578	4.48
274.957	4.52
275.336	4.34
275.715	4.83
276.093	5.27
276.472	4.73
276.851	4.65
277.229	4.58
277.608	4.25
277.986	4.81
278.365	4.92
278.743	5.36
279.122	4.34
279.5	4.52
279.878	4
280.257	5.12
280.635	4.6
281.013	4.6
281.391	4.46
281.769	4.89
282.147	4.17
282.525	4.32
282.903	4.67
283.281	5.08
283.659	4.42
284.037	4.52
284.415	4
284.792	4.19
285.17	4
285.548	4.69
285.925	4.58
286.303	4.68
286.68	4.65
287.058	4.08
287.435	4.45
287.813	4.19
288.19	4.15
288.567	4.1
288.945	4.18
289.322	4.44
289.699	4.14
290.076	4.5
290.453	3.92
290.83	3.76
291.207	3.84
291.584	4.25
291.961	4.37
292.338	4.45
292.715	3.94
293.092	4.27
293.469	4.07
293.845	4.08
294.222	4.16
294.599	4.03
294.975	4.19
295.352	4.13
295.728	4.27
296.105	3.98
296.481	3.78
296.858	4.11
297.234	4.54
297.61	4.29
297.986	3.75
298.363	3.73
298.739	3.75
299.115	4.23
299.491	3.82
299.867	3.99
300.243	3.95
300.619	4.07
300.995	4.25
301.371	4.05
301.746	4.08
302.122	3.94
302.498	3.93
302.874	4.29
303.249	3.66
303.625	3.46
304	3.86
304.376	3.59
304.751	3.79
305.127	3.61
305.502	3.78
305.878	3.83
306.253	4.1
306.628	3.84
307.003	3.88
307.378	4.23
307.754	3.72
308.129	3.07
308.504	3.89
308.879	3.67
309.254	4.21
309.629	3.75
310.003	3.83
310.378	4.12
310.753	4
311.128	3.47
311.502	3.43
311.877	3.91
312.252	3.69
312.626	3.89
313.001	3.76
313.375	3.68
313.75	3.42
314.124	3.35
314.498	3.64
314.873	4.13
315.247	3.71
315.621	3.56
315.995	4.23
316.369	3.75
316.743	4.12
317.117	4.23
317.491	3.47
317.865	3.27
318.239	3.67
318.613	4.15
318.987	3.58
319.361	3.67
319.734	3.74
320.108	3.86
320.482	2.84
320.855	3.87
321.229	4
321.602	3.65
321.976	3.82
322.349	3.67
322.723	3.78
323.096	3.6
323.469	3.64
323.843	3.66
324.216	3.66
324.589	3.71
324.962	3.93
325.335	4.06
325.708	3.64
326.081	3.41
326.454	3.7
326.827	4.01
327.2	3.66
327.573	3.07
327.945	3.62
328.318	3.25
328.691	3.45
329.063	3.4
329.436	3.6
329.809	3.33
330.181	3.74
330.553	3.22
330.926	3.79
331.298	3.95
331.671	3.52
332.043	3.84
332.415	3.56
332.787	3.37
333.159	3.3
333.532	2.89
333.904	3.65
334.276	3.57
334.648	4
335.02	3.43
335.391	3.81
335.763	3.46
336.135	3.83
336.507	3.57
336.879	3.87
337.25	3.59
337.622	3.38
337.993	3.56
338.365	3.64
338.736	3.96
339.108	4.13
339.479	3.62
339.851	3.35
340.222	3.25
340.593	4
340.964	4.11
341.336	3.48
341.707	3.46
342.078	3.62
342.449	3.38
342.82	3.73
343.191	3.58
343.562	3.84
343.933	3.73
344.303	3.74
344.674	3.58
345.045	3.61
345.416	3.7
345.786	3.94
346.157	3.93
346.527	4.01
346.898	3.96
347.268	3.78
347.639	3.82
348.009	4.02
348.38	3.64
348.75	3.53
349.12	3.69
349.49	3.93
349.861	3.53
350.231	4.07
350.601	3.82
350.971	3.64
351.341	3.89
351.711	3.47
352.081	3.92
352.45	3.96
352.82	3.66
353.19	3.48
353.56	3.98
353.929	3.73
354.299	3.98
354.669	3.88
355.038	4.03
355.408	3.61
355.777	4.04
356.147	3.39
356.516	3.73
356.885	4.26
357.254	4.1
357.624	3.95
357.993	3.91
358.362	3.91
358.731	3.87
359.1	3.75
359.469	4.05
359.838	3.91
360.207	3.7
360.576	3.9
360.945	3.95
361.314	4.33
361.682	3.9
362.051	3.98
362.42	3.94
362.788	3.92
363.157	3.83
363.525	3.97
363.894	3.82
364.262	4.14
364.631	4.08
364.999	3.99
365.367	4.04
365.735	4.03
366.104	3.87
366.472	4.06
366.84	3.86
367.208	4.14
367.576	3.91
367.944	4.13
368.312	3.7
368.68	3.97
369.048	4.17
369.416	3.92
369.783	3.79
370.151	4.03
370.519	4.78
370.886	4
371.254	4.09
371.621	4.1
371.989	3.91
372.356	3.93
372.724	4.17
373.091	4.38
373.458	4.07
373.826	4.32
374.193	3.93
374.56	3.87
374.927	4.22
375.294	3.95
375.661	3.87
376.028	4.24
376.395	4.12
376.762	4.43
377.129	4.51
377.496	4.35
377.863	4.22
378.229	4.15
378.596	3.92
378.963	4.24
379.329	3.92
379.696	4.07
380.062	4.17
380.429	4.18
380.795	4.18
381.161	3.94
381.528	4.44
381.894	4.05
382.26	4.28
382.626	3.96
382.993	4.33
383.359	4.56
383.725	4.2
384.091	4.16
384.457	4.08
384.823	4.38
385.188	4.24
385.554	4.38
385.92	3.93
386.286	4.34
386.651	4.41
387.017	4.18
387.383	4.28
387.748	4.07
388.114	4.19
388.479	4.8
388.845	4.39
389.21	4.74
389.575	4.71
389.94	4.23
390.306	4.23
390.671	4.42
391.036	4.16
391.401	4.61
391.766	4.35
392.131	4.19
392.496	4.45
392.861	4.47
393.226	4.19
393.591	4.58
393.956	4.7
394.32	4.46
394.685	4.67
395.05	4.55
395.414	4.51
395.779	4.48
396.143	4.46
396.508	4.56
396.872	4.48
397.236	4.36
397.601	4.55
397.965	4.53
398.329	4.43
398.694	4.71
399.058	4.73
399.422	4.54
399.786	4.46
400.15	4.59
400.514	4.33
400.878	4.55
401.242	4.64
401.605	4.53
401.969	4.79
402.333	4.59
402.697	4.4
403.06	4.66
403.424	4.58
403.787	4.56
404.151	4.68
404.514	4.68
404.878	4.65
405.241	4.67
405.604	4.7
405.968	4.45
406.331	4.47
406.694	4.56
407.057	4.64
407.42	4.71
407.783	4.5
408.146	4.75
408.509	4.7
408.872	4.72
409.235	4.67
409.598	4.57
409.961	5.08
410.323	4.77
410.686	4.46
411.049	4.69
411.411	4.58
411.774	4.74
412.136	5.06
412.499	4.74
412.861	4.93
413.223	4.66
413.586	4.7
413.948	4.9
414.31	4.62
414.672	4.64
415.035	5.05
415.397	4.64
415.759	5.08
416.121	4.79
416.483	4.77
416.845	4.77
417.206	4.81
417.568	4.9
417.93	4.84
418.292	4.76
418.653	4.82
419.015	4.55
419.377	4.74
419.738	4.8
420.1	4.84
420.461	4.78
420.822	4.77
421.184	4.83
421.545	4.63
421.906	4.72
422.267	4.61
422.629	4.76
422.99	4.66
423.351	4.59
423.712	4.66
424.073	4.76
424.434	4.66
424.795	4.8
425.155	4.79
425.516	4.78
425.877	4.72
426.238	4.72
426.598	4.75
426.959	4.65
427.32	4.75
427.68	4.84
428.041	4.66
428.401	4.9
428.761	4.92
429.122	4.78
429.482	4.98
429.842	4.62
430.202	4.85
430.563	4.93
430.923	5.04
431.283	4.82
431.643	5.05
432.003	5.13
432.363	5
432.722	4.95
433.082	5.08
433.442	4.94
433.802	4.9
434.161	4.86
434.521	4.82
434.881	4.86
435.24	4.79
435.6	4.96
435.959	4.88
436.319	4.83
436.678	4.9
437.037	4.98
437.396	5.08
437.756	5.09
438.115	4.87
438.474	4.97
438.833	4.97
439.192	4.95
439.551	4.92
439.91	5.08
440.269	5.03
440.628	5.05
440.987	4.98
441.345	4.9
441.704	5.01
442.063	4.89
442.421	4.88
442.78	4.98
443.138	5.07
443.497	4.89
443.855	4.9
444.214	5.09
444.572	5.02
444.93	4.94
445.288	4.98
445.647	4.92
446.005	4.92
446.363	4.9
446.721	4.92
447.079	4.95
447.437	4.95
447.795	4.82
448.153	4.85
448.51	4.92
448.868	4.92
449.226	4.89
449.584	4.96
449.941	4.92
450.299	4.93
450.656	4.99
451.014	5.19
451.371	5.23
451.729	5.15
452.086	5
452.443	5.08
452.801	5.21
453.158	5.17
453.515	5.19
453.872	4.99
454.229	5.16
454.586	5.07
454.943	5.22
455.3	5.17
455.657	5.04
456.014	4.97
456.371	5.14
456.727	5.29
457.084	5.08
457.441	5.15
457.797	5.02
458.154	5.11
458.51	5.35
458.867	5.11
459.223	5.16
459.58	5.34
459.936	5.02
460.292	4.92
460.648	5.17
461.005	4.98
461.361	5.06
461.717	5.07
462.073	5.11
462.429	5.14
462.785	4.96
463.141	5.16
463.496	5.13
463.852	5.17
464.208	5.17
464.564	5.03
464.919	5.38
465.275	5.36
465.631	5.22
465.986	5.17
466.342	5.04
466.697	5.2
467.052	5.18
467.408	5.19
467.763	5.32
468.118	5.39
468.473	5.36
468.829	5.06
469.184	5.19
469.539	5.01
469.894	5.3
470.249	5.22
470.603	5.24
470.958	5.07
471.313	5.09
471.668	5.08
472.023	5.04
472.377	5.5
472.732	5.14
473.086	5.16
473.441	5.24
473.795	5.25
474.15	5.37
474.504	5.13
474.859	5.14
475.213	5.09
475.567	5.13
475.921	5.18
476.275	5.26
476.63	5.18
476.984	5.11
477.338	5.28
477.692	5.2
478.045	5.22
478.399	5.15
478.753	5.18
479.107	5.1
479.461	5.26
479.814	5.21
480.168	5.19
480.521	5.01
480.875	5.13
481.228	5.2
481.582	5.2
481.935	5.12
482.289	5.12
482.642	5.23
482.995	5.13
483.348	5.11
483.701	5.15
484.055	5.12
484.408	5.13
484.761	5.14
485.114	4.95
485.466	4.9
485.819	4.84
486.172	4.83
486.525	4.89
486.878	4.97
487.23	5.04
487.583	5
487.936	5.08
488.288	5.07
488.641	5.03
488.993	4.97
489.345	4.9
489.698	4.86
490.05	4.99
490.402	4.98
490.754	5.06
491.107	5.05
491.459	5.11
491.811	5.08
492.163	5.17
492.515	5.26
492.866	5.01
493.218	5.01
493.57	5.04
493.922	5.04
494.274	4.92
494.625	5.09
494.977	5.09
495.328	5.17
495.68	5.08
496.031	5.21
496.383	5.21
496.734	5.22
497.086	5.27
497.437	5.35
497.788	5.23
498.139	5.13
498.49	5.15
498.842	5.23
499.193	5.2
499.544	5.17
499.894	5.07
500.245	5.16
500.596	5.14
500.947	5.05
501.298	5.24
501.648	5.35
501.999	5.27
502.35	5.14
502.7	5.12
503.051	5.17
503.401	5.12
503.752	5.29
504.102	5.26
504.452	5.17
504.803	5.23
505.153	5.23
505.503	5.22
505.853	5.22
506.203	5.18
506.553	5.2
506.903	5.23
507.253	5.28
507.603	5.11
507.953	5.24
508.303	5.22
508.652	5.18
509.002	5.31
509.352	5.17
509.701	5.11
510.051	5.17
510.4	5.22
510.75	5.17
511.099	5.15
511.449	5.08
511.798	5.06
512.147	5.26
512.496	5.1
512.846	4.98
513.195	5.14
513.544	5.13
513.893	5.15
514.242	5.02
514.591	5.11
514.939	5.31
515.288	5.1
515.637	5.13
515.986	5.21
516.334	5.14
516.683	5.24
517.032	5.1
517.38	5.24
517.729	5.17
518.077	5.28
518.426	5.14
518.774	5.15
519.122	5.14
519.47	5.03
519.819	5.1
520.167	5.06
520.515	5.02
520.863	5.01
521.211	4.99
521.559	5.17
521.907	5.1
522.255	5.07
522.602	5.14
522.95	5.14
523.298	5.09
523.645	5.16
523.993	5.11
524.341	5.19
524.688	5.31
525.036	5.18
525.383	5.07
525.73	5.16
526.078	5.09
526.425	5.06
526.772	5.09
527.119	4.98
527.466	4.95
527.814	4.94
528.161	4.93
528.508	4.97
528.854	5
529.201	4.91
529.548	4.9
529.895	4.84
530.242	4.79
530.588	4.79
530.935	4.75
531.282	4.84
531.628	4.81
531.975	4.86
532.321	4.96
532.667	4.95
533.014	5.04
533.36	4.99
533.706	5.1
534.052	5.02
534.399	4.9
534.745	4.9
535.091	4.82
535.437	4.78
535.783	4.87
536.129	4.95
536.474	4.91
536.82	4.92
537.166	4.95
537.512	5.02
537.857	4.92
538.203	4.83
538.549	4.81
538.894	4.93
539.239	4.98
539.585	4.89
539.93	4.88
540.276	4.96
540.621	4.91
540.966	5.03
541.311	4.86
541.656	4.97
542.001	5.01
542.346	4.95
542.691	4.85
543.036	4.71
543.381	4.75
543.726	4.8
544.071	4.78
544.415	4.83
544.76	4.88
545.105	4.77
545.449	4.9
545.794	4.92
546.138	4.87
546.483	4.93
546.827	4.85
547.171	4.87
547.516	5.02
547.86	4.89
548.204	4.96
548.548	4.8
548.892	4.72
549.236	4.93
549.58	4.93
549.924	5
550.268	5.02
550.612	4.83
550.956	5.05
551.3	4.92
551.643	5.05
551.987	4.95
552.33	4.91
552.674	4.87
553.017	4.94
553.361	5.09
553.704	4.87
554.048	4.98
554.391	4.88
554.734	5.02
555.077	4.85
555.42	4.84
555.764	5.15
556.107	4.9
556.45	4.96
556.793	4.99
557.135	4.91
557.478	4.76
557.821	5.05
558.164	4.98
558.507	4.86
558.849	5.03
559.192	5.12
559.534	4.91
559.877	4.81
560.219	4.78
560.562	5.06
560.904	5.06
561.246	4.87
561.589	4.99
561.931	4.83
562.273	4.92
562.615	4.65
562.957	4.92
563.299	4.78
563.641	4.8
563.983	4.91
564.325	4.84
564.667	4.98
565.008	4.71
565.35	4.92
565.692	4.96
566.033	5.03
566.375	4.79
566.716	4.88
567.058	4.94
567.399	4.88
567.741	4.88
568.082	4.88
568.423	4.74
568.764	4.54
569.105	4.72
569.447	4.82
569.788	4.85
570.129	4.88
570.47	4.92
570.811	4.87
571.151	4.93
571.492	5.01
571.833	4.75
572.174	4.85
572.514	4.79
572.855	4.62
573.195	4.59
573.536	4.56
573.876	4.67
574.217	4.75
574.557	4.6
574.898	4.79
575.238	4.62
575.578	4.7
575.918	4.82
576.258	4.82
576.598	4.81
576.938	4.88
577.278	4.68
577.618	4.75
577.958	4.69
578.298	4.8
578.638	4.63
578.977	4.77
579.317	4.76
579.657	4.81
579.996	4.87
580.336	4.71
580.675	4.5
581.014	4.96
581.354	4.72
581.693	4.73
582.032	4.63
582.372	4.91
582.711	4.74
583.05	4.89
583.389	4.68
583.728	4.72
584.067	4.71
584.406	4.53
584.745	4.97
585.083	4.7
585.422	4.83
585.761	4.58
586.1	4.52
586.438	4.52
586.777	4.77
587.115	4.54
587.454	4.71
587.792	4.99
588.13	4.8
588.469	4.87
588.807	4.74
589.145	4.8
589.483	4.55
589.821	4.76
590.159	4.57
590.497	4.78
590.835	4.74
591.173	4.56
591.511	4.78
591.849	4.77
592.187	4.5
592.524	4.73
592.862	4.69
593.2	4.69
593.537	4.71
593.875	4.39
594.212	4.75
594.55	4.58
594.887	4.72
595.224	4.87
595.561	4.44
595.899	4.67
596.236	4.89
596.573	4.73
596.91	4.63
597.247	4.51
597.584	4.39
597.921	4.64
598.258	4.61
598.594	4.33
598.931	4.83
599.268	4.67
599.604	4.56
599.941	4.69
600.277	4.58
600.614	4.66
600.95	4.72
601.287	4.52
601.623	4.52
601.959	4.56
602.296	4.71
602.632	4.66
602.968	4.73
603.304	4.69
603.64	4.68
603.976	4.26
604.312	4.57
604.648	4.56
604.984	4.69
605.319	4.59
605.655	4.55
605.991	4.77
606.326	4.56
606.662	4.42
606.998	4.47
607.333	4.28
607.668	4.64
608.004	4.47
608.339	4.4
608.674	4.64
609.01	4.66
609.345	4.44
609.68	4.54
610.015	4.78
610.35	4.71
610.685	4.6
611.02	4.75
611.355	4.6
611.689	4.49
612.024	4.54
612.359	4.51
612.694	4.29
613.028	4.47
613.363	4.79
613.697	4.39
614.032	4.58
614.366	4.39
614.7	4.51
615.035	4.42
615.369	4.45
615.703	4.97
616.037	4.66
616.371	4.49
616.705	4.59
617.039	4.66
617.373	4.9
617.707	4.58
618.041	4.52
618.375	4.41
618.709	4.54
619.042	4.45
619.376	4.43
619.71	4.43
620.043	5.02
620.377	4.59
620.71	4.58
621.043	4.24
621.377	4.7
621.71	4.6
622.043	4.54
622.376	4.7
622.709	4.72
623.043	4.57
623.376	4.91
623.709	4.51
624.041	4.57
624.374	4.36
624.707	4.27
625.04	4.64
625.373	4.67
625.705	4.57
626.038	4.51
626.37	4.76
626.703	4.66
627.035	4.24
627.368	4.58
627.7	4.35
628.032	4.45
628.365	4.93
628.697	4.51
629.029	4.38
629.361	4.59
629.693	4.6
630.025	4.46
630.357	4.12
630.689	4.51
631.021	4.64
631.353	4.61
631.684	4.69
632.016	4.53
632.348	4.5
632.679	4.48
633.011	4.32
633.342	4.41
633.674	4.28
634.005	4.77
634.336	4.59
634.668	4.42
634.999	4.79
635.33	4.23
635.661	4.46
635.992	4.62
636.323	4.34
636.654	4.09
636.985	4.59
637.316	4.52
637.647	4.37
637.977	4.62
638.308	4.98
638.639	4.73
638.969	4.26
639.3	4.8
639.63	4.36
639.961	4.75
640.291	4.82
640.622	4.73
640.952	4.38
641.282	4.21
641.612	4.67
641.943	4.36
642.273	4.44
642.603	4.63
642.933	4.61
643.263	4.22
643.592	4.42
643.922	5.11
644.252	4.44
644.582	4.52
644.911	4.5
645.241	4.32
645.571	4.25
645.9	4.55
646.23	4.43
646.559	4.69
646.888	4.32
647.218	4.66
647.547	4.66
647.876	4.73
648.205	3.95
648.534	4.63
648.863	4.52
649.192	4.63
649.521	4.29
649.85	4.38
650.179	4.53
650.508	4.62
650.837	4.4
651.165	4.62
651.494	4.26
651.822	4.38
652.151	4.58
652.479	4.14
652.808	4
653.136	4.58
653.465	4.65
653.793	4.68
654.121	4.11
654.449	4.25
654.777	4.01
655.105	4.69
655.433	4.68
655.761	4.36
656.089	4.09
656.417	4.2
656.745	4.52
657.073	4.28
657.4	4.5
657.728	4.79
658.056	4.07
658.383	4.48
658.711	4.24
659.038	4.38
659.365	5.28
659.693	4.76
660.02	5.04
660.347	4.52
660.674	4.72
661.001	4.6
661.329	4.44
661.656	4.76
661.982	4.42
662.309	4.77
662.636	4.58
662.963	4.18
663.29	4.36
663.616	4.69
663.943	4.81
664.27	4.96
664.596	4.6
664.923	4.34
665.249	4.63
665.576	4.22
665.902	4.5
666.228	3.91
666.554	4.93
666.881	4.32
667.207	5.27
667.533	4.3
667.859	5.1
668.185	4.64
668.511	4.82
668.837	3.86
669.162	4.57
669.488	4.23
669.814	4.41
670.139	4.64
670.465	4.54
670.791	4.54
671.116	4.48
671.442	4.59
671.767	4.46
672.092	4.77
672.418	5.01
672.743	4.91
673.068	4.55
673.393	4.65
673.718	4.72
674.043	4.29
674.368	3.83
674.693	4.4
675.018	4.19
675.343	4.56
675.667	5.14
675.992	5.03
676.317	5.15
676.641	4.55
676.966	4.45
677.29	4.98
677.615	4.63
677.939	4.34
678.264	5.32
678.588	4.58
678.912	4.6
679.236	4.84
679.56	5.02
679.885	4.38
680.209	4.62
680.532	4.49
680.856	4.27
681.18	4.2
681.504	5.14
681.828	4.85
682.152	5.4
682.475	4.46
682.799	4.82
683.122	4.74
683.446	4.83
683.769	4.56
684.093	4.47
684.416	3.94
684.739	3.96
685.062	5.42
685.386	4.82
685.709	4.88
686.032	5.3
686.355	6.19
686.678	4.65
687.001	4.56
687.324	4.44
687.646	4.93
687.969	4.56
688.292	4.19
688.614	5.2
688.937	4.73
689.26	4.56
689.582	6.01
689.904	4.67
690.227	4.35
690.549	4.46
690.871	4.49
691.194	4.67
691.516	4.43
691.838	4.13
692.16	4.87
692.482	4.34
