Data from 0419_chest_Reflection__2__02.txt Node

Date: Fri Dec 15 16:29:21 CST 2023
User: ToomeyLab
Spectrometer: FLMS14357
Trigger mode: 0
Integration Time (sec): 1.000000E-2
Scans to average: 100
Electric dark correction enabled: true
Nonlinearity correction enabled: false
Boxcar width: 0
XAxis mode: Wavelengths
Number of Pixels in Spectrum: 2048
>>>>>Begin Spectral Data<<<<<
189.047	33.06
189.435	33.06
189.823	33.06
190.211	58.18
190.599	-109.31
190.987	90.87
191.375	-148.31
191.763	-55.88
192.151	119.58
192.538	44.66
192.926	255.51
193.314	894.9
193.702	90.39
194.089	-254.81
194.477	-45.47
194.864	281.14
195.252	153.53
195.639	63.99
196.027	106.59
196.414	86.63
196.801	-7
197.189	-13.75
197.576	242.4
197.963	31.75
198.351	-15.16
198.738	-13.52
199.125	31.79
199.512	18.94
199.899	72.46
200.286	23.93
200.673	46.95
201.06	-7.43
201.447	19.51
201.833	0.73
202.22	37.52
202.607	29.94
202.994	13.11
203.38	14.54
203.767	42.24
204.154	39.6
204.54	23.75
204.927	6.72
205.313	-4.31
205.699	17.72
206.086	44.6
206.472	35.54
206.858	36.91
207.245	-0.24
207.631	35.57
208.017	18.09
208.403	19.06
208.789	25.23
209.175	11.11
209.561	-19.82
209.947	-1.72
210.333	-9.49
210.719	28.39
211.105	41.65
211.491	25.27
211.876	31.79
212.262	48.86
212.648	23.19
213.034	34.12
213.419	25.33
213.805	31.41
214.19	10.49
214.576	5.79
214.961	23.88
215.346	-27.74
215.732	9.03
216.117	33.64
216.502	8.63
216.888	8.33
217.273	36.85
217.658	15.94
218.043	14.85
218.428	17.05
218.813	7.31
219.198	4.55
219.583	22
219.968	23.5
220.353	1.37
220.738	26.79
221.122	12.88
221.507	2.53
221.892	-17.02
222.276	-1.12
222.661	-13.44
223.046	6.88
223.43	16.76
223.815	11.42
224.199	-5.21
224.583	5.18
224.968	2.59
225.352	1.76
225.736	-2.93
226.121	6.44
226.505	7.02
226.889	6.74
227.273	0.31
227.657	5.93
228.041	3.1
228.425	3.49
228.809	6.93
229.193	5.2
229.577	-0.24
229.961	1.21
230.344	2.56
230.728	0.91
231.112	1.27
231.495	2.03
231.879	2.34
232.263	2.04
232.646	3
233.03	1.26
233.413	-0.79
233.797	1.37
234.18	0.69
234.563	0.89
234.946	2.66
235.33	2.75
235.713	1.75
236.096	2.52
236.479	2.96
236.862	1.86
237.245	2.71
237.628	1.58
238.011	1.8
238.394	2.56
238.777	3.86
239.16	-0.72
239.543	3.76
239.925	0.25
240.308	2.25
240.691	3.5
241.073	1.97
241.456	2.15
241.838	0.86
242.221	0.59
242.603	1.8
242.986	1.6
243.368	1.67
243.75	2.27
244.133	1.27
244.515	1.41
244.897	1.31
245.279	1.5
245.661	0.96
246.043	0.47
246.425	1.38
246.807	2.14
247.189	2.37
247.571	1.88
247.953	1.97
248.335	1.07
248.717	1.21
249.098	1
249.48	1.36
249.862	1.34
250.243	1.28
250.625	1.17
251.006	1.61
251.388	1.09
251.769	1.39
252.151	1.51
252.532	0.85
252.913	0.29
253.295	0.96
253.676	1.58
254.057	1.35
254.438	1.78
254.819	0.87
255.2	1.65
255.581	2.09
255.962	0.96
256.343	0.64
256.724	0.79
257.105	1.21
257.486	1.61
257.867	2.82
258.247	2.14
258.628	2.23
259.009	1.73
259.389	1.46
259.77	1.44
260.15	0.75
260.531	0.67
260.911	1.48
261.292	1.11
261.672	1.3
262.052	1.43
262.432	1.34
262.813	1.61
263.193	1.1
263.573	1.24
263.953	1
264.333	1.59
264.713	1.77
265.093	1.39
265.473	0.85
265.853	1.14
266.233	1.56
266.612	0.25
266.992	1.02
267.372	1.35
267.752	1.69
268.131	1.15
268.511	2.17
268.89	1.8
269.27	1
269.649	1.4
270.029	1.03
270.408	2.91
270.787	1.87
271.167	1.53
271.546	2.11
271.925	0.98
272.304	1.9
272.683	1.51
273.062	0.69
273.441	1.52
273.82	1.05
274.199	0.93
274.578	1.52
274.957	1.28
275.336	1.46
275.715	1.07
276.093	1.15
276.472	1.47
276.851	1.32
277.229	1.19
277.608	0.78
277.986	1.51
278.365	1.2
278.743	1.28
279.122	0.88
279.5	1.48
279.878	1.17
280.257	1.35
280.635	0.25
281.013	1.26
281.391	1.97
281.769	1.86
282.147	1.47
282.525	2.15
282.903	1.03
283.281	1.95
283.659	1.78
284.037	1.3
284.415	1.7
284.792	1.52
285.17	0.26
285.548	1.15
285.925	1.41
286.303	1.26
286.68	1.02
287.058	1.02
287.435	1.15
287.813	1.16
288.19	1.15
288.567	1.25
288.945	1.88
289.322	1.41
289.699	1.52
290.076	1.33
290.453	0.8
290.83	1.32
291.207	1.13
291.584	1.56
291.961	1.37
292.338	1.41
292.715	1.53
293.092	1.11
293.469	1.51
293.845	1.6
294.222	1.6
294.599	1
294.975	1.27
295.352	1.93
295.728	1.11
296.105	1.49
296.481	1.29
296.858	1.21
297.234	1.41
297.61	0.98
297.986	1.24
298.363	1.53
298.739	1.3
299.115	1.36
299.491	1.24
299.867	1.42
300.243	1.73
300.619	1.34
300.995	1.33
301.371	1.38
301.746	1.16
302.122	1.49
302.498	1.58
302.874	1.89
303.249	1.33
303.625	1.9
304	1.49
304.376	1.74
304.751	1.04
305.127	1.8
305.502	0.67
305.878	0.76
306.253	0.81
306.628	2.17
307.003	1.88
307.378	1.82
307.754	1.85
308.129	0.77
308.504	1.53
308.879	1.22
309.254	2.24
309.629	1.72
310.003	1.7
310.378	1.93
310.753	2.5
311.128	1.84
311.502	1.87
311.877	1.97
312.252	1.45
312.626	1.37
313.001	1.37
313.375	1.87
313.75	1.25
314.124	1.71
314.498	1.73
314.873	1.65
315.247	1.61
315.621	1.97
315.995	0.98
316.369	1.79
316.743	1.27
317.117	1.93
317.491	2.3
317.865	1.68
318.239	1.94
318.613	2.23
318.987	2.18
319.361	1.18
319.734	1.53
320.108	2.05
320.482	2.16
320.855	2.48
321.229	1.92
321.602	1.24
321.976	2.62
322.349	2.05
322.723	1.95
323.096	1.7
323.469	1.2
323.843	2.06
324.216	2.24
324.589	1.64
324.962	2.03
325.335	1.53
325.708	1.81
326.081	1.25
326.454	1.83
326.827	1.87
327.2	1.96
327.573	2
327.945	1.79
328.318	1.11
328.691	1.49
329.063	1.59
329.436	1.44
329.809	2.51
330.181	1.54
330.553	1.66
330.926	2.21
331.298	1.71
331.671	1.45
332.043	2.34
332.415	2.08
332.787	1.94
333.159	1.98
333.532	2.53
333.904	1.9
334.276	2.12
334.648	2.09
335.02	2.04
335.391	1.63
335.763	1.61
336.135	2.22
336.507	2.32
336.879	1.81
337.25	1.83
337.622	1.91
337.993	1.66
338.365	1.95
338.736	2.21
339.108	2.34
339.479	1.48
339.851	1.73
340.222	1.64
340.593	2.04
340.964	1.29
341.336	2.42
341.707	1.78
342.078	2.6
342.449	2.16
342.82	2.16
343.191	1.99
343.562	2.12
343.933	2.31
344.303	1.87
344.674	2.06
345.045	2.43
345.416	2.28
345.786	1.81
346.157	2.45
346.527	1.81
346.898	1.66
347.268	2.35
347.639	1.88
348.009	2.11
348.38	1.79
348.75	1.75
349.12	1.83
349.49	2.42
349.861	2.38
350.231	1.89
350.601	1.6
350.971	2.04
351.341	2.15
351.711	1.94
352.081	2.47
352.45	1.7
352.82	2.25
353.19	1.53
353.56	1.46
353.929	1.77
354.299	1.89
354.669	1.78
355.038	2.34
355.408	1.81
355.777	1.83
356.147	1.69
356.516	1.79
356.885	2.28
357.254	2
357.624	2.29
357.993	2.03
358.362	1.99
358.731	1.63
359.1	1.96
359.469	2.03
359.838	2.28
360.207	2.1
360.576	1.74
360.945	1.87
361.314	2.47
361.682	1.76
362.051	1.99
362.42	2.32
362.788	1.96
363.157	1.86
363.525	2.22
363.894	2.08
364.262	2.16
364.631	2.04
364.999	2.05
365.367	1.5
365.735	2.55
366.104	2.07
366.472	2.06
366.84	1.98
367.208	2.03
367.576	2.23
367.944	1.76
368.312	1.74
368.68	1.84
369.048	2.05
369.416	2.04
369.783	1.64
370.151	2.07
370.519	2.11
370.886	2.41
371.254	1.9
371.621	2.2
371.989	2.41
372.356	1.82
372.724	2.23
373.091	2
373.458	1.94
373.826	1.86
374.193	1.69
374.56	2.41
374.927	2.42
375.294	1.73
375.661	1.92
376.028	1.67
376.395	1.87
376.762	2.3
377.129	1.88
377.496	1.72
377.863	1.96
378.229	1.65
378.596	2.18
378.963	2.09
379.329	1.9
379.696	1.95
380.062	2.18
380.429	2.24
380.795	2.1
381.161	2.27
381.528	2.3
381.894	1.76
382.26	2.13
382.626	2.15
382.993	1.53
383.359	2.48
383.725	1.81
384.091	2.16
384.457	2.32
384.823	2.23
385.188	2.07
385.554	1.94
385.92	2.05
386.286	2.13
386.651	2.18
387.017	2.43
387.383	2.13
387.748	2.06
388.114	2.37
388.479	1.79
388.845	2.21
389.21	2.07
389.575	2.08
389.94	2.01
390.306	2
390.671	2.28
391.036	2.09
391.401	1.93
391.766	2.04
392.131	1.8
392.496	2.21
392.861	1.93
393.226	2.07
393.591	2.1
393.956	1.96
394.32	1.81
394.685	1.9
395.05	1.96
395.414	2.18
395.779	1.88
396.143	2.05
396.508	2.12
396.872	2.1
397.236	2.34
397.601	2.08
397.965	2.24
398.329	2.23
398.694	2.31
399.058	2.17
399.422	2.04
399.786	2.4
400.15	2.27
400.514	2
400.878	2.17
401.242	2.59
401.605	2.19
401.969	2.31
402.333	2.15
402.697	2.16
403.06	2.31
403.424	2.08
403.787	1.95
404.151	2.3
404.514	2.15
404.878	1.72
405.241	2.36
405.604	2.19
405.968	2.11
406.331	2.11
406.694	2.17
407.057	2.19
407.42	2.22
407.783	2.02
408.146	2.19
408.509	2.11
408.872	2.23
409.235	2.28
409.598	2.26
409.961	2.11
410.323	2.34
410.686	2.14
411.049	1.92
411.411	2.17
411.774	2.23
412.136	2.27
412.499	2.02
412.861	2.26
413.223	2.2
413.586	2.16
413.948	2.18
414.31	2.36
414.672	1.95
415.035	2.12
415.397	2.27
415.759	1.81
416.121	2.29
416.483	2.2
416.845	2.11
417.206	2.12
417.568	2.36
417.93	1.96
418.292	2.25
418.653	2.11
419.015	2.31
419.377	2.14
419.738	2.25
420.1	2.23
420.461	2.23
420.822	2.22
421.184	2.13
421.545	2.11
421.906	2.05
422.267	2.12
422.629	2.07
422.99	2.2
423.351	2.05
423.712	2.16
424.073	2.21
424.434	2.2
424.795	2.23
425.155	2.13
425.516	1.99
425.877	2.13
426.238	2.11
426.598	2.24
426.959	2.12
427.32	2.07
427.68	2.16
428.041	2.16
428.401	2.25
428.761	2.3
429.122	2.29
429.482	2.06
429.842	2.28
430.202	2.25
430.563	2.34
430.923	2.06
431.283	2.38
431.643	2.21
432.003	2.33
432.363	2.3
432.722	2.16
433.082	2.33
433.442	2.22
433.802	2.09
434.161	2.38
434.521	2.41
434.881	2.33
435.24	2.27
435.6	2.28
435.959	2.23
436.319	2.3
436.678	2.33
437.037	2.44
437.396	2.38
437.756	2.42
438.115	2.38
438.474	2.49
438.833	2.16
439.192	2.29
439.551	2.42
439.91	2.21
440.269	2.41
440.628	2.37
440.987	2.27
441.345	2.27
441.704	2.29
442.063	2.19
442.421	2.16
442.78	2.23
443.138	2.24
443.497	2.42
443.855	2.38
444.214	2.4
444.572	2.49
444.93	2.42
445.288	2.43
445.647	2.4
446.005	2.45
446.363	2.34
446.721	2.41
447.079	2.25
447.437	2.34
447.795	2.3
448.153	2.23
448.51	2.21
448.868	2.3
449.226	2.33
449.584	2.29
449.941	2.37
450.299	2.51
450.656	2.49
451.014	2.47
451.371	2.32
451.729	2.36
452.086	2.49
452.443	2.41
452.801	2.51
453.158	2.32
453.515	2.31
453.872	2.4
454.229	2.31
454.586	2.38
454.943	2.36
455.3	2.48
455.657	2.24
456.014	2.26
456.371	2.41
456.727	2.4
457.084	2.6
457.441	2.51
457.797	2.43
458.154	2.6
458.51	2.6
458.867	2.52
459.223	2.52
459.58	2.44
459.936	2.58
460.292	2.42
460.648	2.4
461.005	2.37
461.361	2.4
461.717	2.37
462.073	2.35
462.429	2.38
462.785	2.43
463.141	2.39
463.496	2.37
463.852	2.5
464.208	2.6
464.564	2.7
464.919	2.54
465.275	2.6
465.631	2.67
465.986	2.48
466.342	2.32
466.697	2.34
467.052	2.52
467.408	2.65
467.763	2.42
468.118	2.47
468.473	2.36
468.829	2.43
469.184	2.39
469.539	2.42
469.894	2.21
470.249	2.4
470.603	2.54
470.958	2.72
471.313	2.8
471.668	2.55
472.023	2.4
472.377	2.5
472.732	2.59
473.086	2.53
473.441	2.45
473.795	2.53
474.15	2.48
474.504	2.53
474.859	2.57
475.213	2.39
475.567	2.4
475.921	2.65
476.275	2.57
476.63	2.58
476.984	2.67
477.338	2.6
477.692	2.41
478.045	2.45
478.399	2.52
478.753	2.78
479.107	2.62
479.461	2.68
479.814	2.61
480.168	2.56
480.521	2.55
480.875	2.46
481.228	2.48
481.582	2.57
481.935	2.56
482.289	2.63
482.642	2.53
482.995	2.41
483.348	2.47
483.701	2.48
484.055	2.65
484.408	2.64
484.761	2.43
485.114	2.4
485.466	2.28
485.819	2.35
486.172	2.37
486.525	2.44
486.878	2.49
487.23	2.5
487.583	2.55
487.936	2.51
488.288	2.49
488.641	2.52
488.993	2.42
489.345	2.42
489.698	2.43
490.05	2.43
490.402	2.55
490.754	2.53
491.107	2.62
491.459	2.58
491.811	2.56
492.163	2.51
492.515	2.6
492.866	2.54
493.218	2.46
493.57	2.48
493.922	2.51
494.274	2.61
494.625	2.62
494.977	2.77
495.328	2.83
495.68	2.69
496.031	2.82
496.383	2.8
496.734	2.9
497.086	2.83
497.437	2.8
497.788	2.75
498.139	2.6
498.49	2.79
498.842	2.64
499.193	2.6
499.544	2.81
499.894	2.73
500.245	2.72
500.596	2.73
500.947	2.7
501.298	2.6
501.648	2.86
501.999	2.9
502.35	2.75
502.7	2.91
503.051	2.61
503.401	2.65
503.752	2.78
504.102	2.66
504.452	2.95
504.803	2.75
505.153	2.67
505.503	2.71
505.853	2.77
506.203	2.84
506.553	2.76
506.903	2.85
507.253	2.81
507.603	2.78
507.953	2.77
508.303	2.94
508.652	2.79
509.002	2.86
509.352	2.94
509.701	2.76
510.051	2.69
510.4	2.77
510.75	2.76
511.099	2.82
511.449	2.81
511.798	2.85
512.147	2.82
512.496	2.77
512.846	2.89
513.195	2.83
513.544	2.82
513.893	3.07
514.242	2.81
514.591	3.08
514.939	2.83
515.288	2.83
515.637	2.95
515.986	2.9
516.334	3
516.683	2.99
517.032	2.91
517.38	3.11
517.729	2.99
518.077	2.95
518.426	3.09
518.774	3.01
519.122	2.83
519.47	2.88
519.819	2.84
520.167	2.86
520.515	2.92
520.863	3.01
521.211	3.03
521.559	2.98
521.907	3.03
522.255	3.03
522.602	3.02
522.95	2.99
523.298	3.04
523.645	3.13
523.993	3.02
524.341	3.08
524.688	3.14
525.036	3.06
525.383	3.17
525.73	3.28
526.078	3.07
526.425	2.97
526.772	3.11
527.119	3
527.466	2.96
527.814	3
528.161	3.06
528.508	3.1
528.854	3.04
529.201	3.01
529.548	2.97
529.895	2.92
530.242	2.85
530.588	2.87
530.935	2.95
531.282	3.03
531.628	3.06
531.975	3.08
532.321	3.11
532.667	3.12
533.014	3.25
533.36	3.14
533.706	3.15
534.052	3.13
534.399	3.14
534.745	3.08
535.091	3.04
535.437	3.12
535.783	3.18
536.129	3.19
536.474	3.2
536.82	3.28
537.166	3.39
537.512	3.32
537.857	3.24
538.203	3.18
538.549	3.17
538.894	3.28
539.239	3.24
539.585	3.31
539.93	3.22
540.276	3.31
540.621	3.43
540.966	3.34
541.311	3.19
541.656	3.27
542.001	3.28
542.346	3.22
542.691	3.22
543.036	3.12
543.381	3.14
543.726	3.26
544.071	3.35
544.415	3.34
544.76	3.26
545.105	3.32
545.449	3.39
545.794	3.42
546.138	3.52
546.483	3.47
546.827	3.46
547.171	3.55
547.516	3.47
547.86	3.43
548.204	3.37
548.548	3.41
548.892	3.56
549.236	3.49
549.58	3.54
549.924	3.56
550.268	3.66
550.612	3.6
550.956	3.79
551.3	3.68
551.643	3.6
551.987	3.83
552.33	3.64
552.674	3.7
553.017	3.7
553.361	3.57
553.704	3.9
554.048	3.58
554.391	3.64
554.734	3.59
555.077	3.69
555.42	3.63
555.764	3.73
556.107	3.63
556.45	3.54
556.793	3.84
557.135	3.73
557.478	3.91
557.821	3.94
558.164	3.74
558.507	3.73
558.849	3.71
559.192	3.93
559.534	3.72
559.877	3.97
560.219	3.83
560.562	4.15
560.904	4.04
561.246	3.94
561.589	4.07
561.931	3.87
562.273	3.75
562.615	3.78
562.957	3.86
563.299	3.68
563.641	3.99
563.983	4.01
564.325	3.85
564.667	3.93
565.008	4.02
565.35	3.93
565.692	3.83
566.033	4.17
566.375	4.17
566.716	4.16
567.058	3.92
567.399	4.09
567.741	4
568.082	4.22
568.423	4.12
568.764	3.96
569.105	4.23
569.447	4.37
569.788	4.08
570.129	4.3
570.47	4.22
570.811	4.16
571.151	4.23
571.492	4.25
571.833	4.23
572.174	4.3
572.514	4.38
572.855	4.31
573.195	4.21
573.536	4.23
573.876	4.08
574.217	4.17
574.557	4.28
574.898	4.39
575.238	4.53
575.578	4.36
575.918	4.66
576.258	4.46
576.598	4.35
576.938	4.34
577.278	4.27
577.618	4.55
577.958	4.52
578.298	4.56
578.638	4.66
578.977	4.38
579.317	4.22
579.657	4.6
579.996	4.41
580.336	4.63
580.675	4.66
581.014	4.66
581.354	4.51
581.693	4.66
582.032	4.61
582.372	4.39
582.711	4.58
583.05	4.49
583.389	4.69
583.728	4.53
584.067	4.84
584.406	4.89
584.745	4.71
585.083	5.14
585.422	5.05
585.761	5.16
586.1	4.87
586.438	4.69
586.777	4.98
587.115	5.13
587.454	4.65
587.792	4.72
588.13	4.71
588.469	4.63
588.807	4.78
589.145	4.95
589.483	5.01
589.821	4.91
590.159	4.96
590.497	5.32
590.835	5.19
591.173	5.26
591.511	5.03
591.849	5.2
592.187	5.02
592.524	5.02
592.862	5.27
593.2	5.09
593.537	5.31
593.875	4.9
594.212	5.28
594.55	5.08
594.887	5.43
595.224	5.16
595.561	5.28
595.899	5.25
596.236	5.15
596.573	5.24
596.91	4.84
597.247	5.25
597.584	5.49
597.921	5.3
598.258	5.11
598.594	5.4
598.931	5.44
599.268	5.3
599.604	5.37
599.941	5.52
600.277	5.29
600.614	5.44
600.95	5.12
601.287	5.69
601.623	5.45
601.959	5.3
602.296	5.56
602.632	5.4
602.968	5.64
603.304	5.6
603.64	5.53
603.976	5.74
604.312	5.64
604.648	5.47
604.984	5.8
605.319	5.65
605.655	5.72
605.991	5.54
606.326	5.69
606.662	5.86
606.998	5.45
607.333	5.81
607.668	5.61
608.004	5.83
608.339	6.15
608.674	6
609.01	5.99
609.345	5.88
609.68	6.28
610.015	6.13
610.35	5.83
610.685	5.96
611.02	5.83
611.355	5.89
611.689	5.89
612.024	5.76
612.359	6.07
612.694	6.13
613.028	6.01
613.363	6.54
613.697	6.4
614.032	6.22
614.366	6.07
614.7	6.42
615.035	6.26
615.369	5.98
615.703	6.21
616.037	6.14
616.371	5.88
616.705	6.35
617.039	5.92
617.373	6.03
617.707	6.42
618.041	6.4
618.375	6.46
618.709	6.57
619.042	6.45
619.376	6.82
619.71	6.6
620.043	6.66
620.377	6.55
620.71	6.21
621.043	6.49
621.377	6.41
621.71	6.49
622.043	6.36
622.376	6.48
622.709	6.17
623.043	6.58
623.376	6.67
623.709	6.32
624.041	7.03
624.374	6.81
624.707	6.53
625.04	7.11
625.373	6.51
625.705	6.66
626.038	6.73
626.37	6.57
626.703	6.91
627.035	6.99
627.368	7.25
627.7	6.93
628.032	6.91
628.365	7.3
628.697	7.15
629.029	6.74
629.361	6.86
629.693	6.92
630.025	7.01
630.357	7.08
630.689	7.28
631.021	7.14
631.353	7.32
631.684	7.1
632.016	6.91
632.348	7.54
632.679	6.9
633.011	7.71
633.342	7.44
633.674	7.46
634.005	7.43
634.336	7.4
634.668	7.68
634.999	7.14
635.33	7.48
635.661	7.45
635.992	7.09
636.323	7.31
636.654	7.49
636.985	7.61
637.316	7.47
637.647	7.2
637.977	7.49
638.308	7.85
638.639	7.09
638.969	7.28
639.3	7.22
639.63	7.23
639.961	7.45
640.291	7.49
640.622	8.16
640.952	7.62
641.282	8.15
641.612	7.66
641.943	7.6
642.273	7.85
642.603	8.12
642.933	8.11
643.263	7.86
643.592	7.81
643.922	7.77
644.252	7.64
644.582	7.96
644.911	7.52
645.241	7.9
645.571	8.14
645.9	7.3
646.23	7.85
646.559	8.15
646.888	7.62
647.218	8.11
647.547	8.21
647.876	8
648.205	8.12
648.534	7.72
648.863	7.83
649.192	8.52
649.521	7.66
649.85	8.21
650.179	8.14
650.508	7.85
650.837	8.01
651.165	7.97
651.494	8.33
651.822	8.43
652.151	7.52
652.479	8.31
652.808	8.12
653.136	8.87
653.465	8.03
653.793	8.29
654.121	8.22
654.449	8.61
654.777	8.48
655.105	8.46
655.433	8.43
655.761	8.68
656.089	8.82
656.417	8.9
656.745	8.42
657.073	8.42
657.4	9.01
657.728	8.77
658.056	8.75
658.383	8.79
658.711	8.76
659.038	9.15
659.365	8.52
659.693	9.02
660.02	8.59
660.347	9
660.674	9.08
661.001	8.9
661.329	8.33
661.656	9
661.982	9.57
662.309	9
662.636	9.14
662.963	9.72
663.29	9.24
663.616	9.37
663.943	8.71
664.27	9.15
664.596	8.77
664.923	9.4
665.249	9.66
665.576	9.23
665.902	10.29
666.228	9.44
666.554	9.51
666.881	8.98
667.207	9.65
667.533	9.11
667.859	9.17
668.185	10
668.511	8.73
668.837	9.4
669.162	9.23
669.488	8.94
669.814	10.06
670.139	10.3
670.465	9.59
670.791	9.85
671.116	10.51
671.442	8.9
671.767	9.78
672.092	9.88
672.418	10.08
672.743	9.91
673.068	9.45
673.393	10.22
673.718	9.45
674.043	10.62
674.368	9.61
674.693	10.46
675.018	9.97
675.343	10.4
675.667	9.57
675.992	10.63
676.317	10.26
676.641	10.48
676.966	10.3
677.29	9.98
677.615	10.67
677.939	10.25
678.264	10.57
678.588	10.29
678.912	10.47
679.236	10.43
679.56	9.61
679.885	10.48
680.209	10.3
680.532	10.35
680.856	10.84
681.18	10.41
681.504	10.1
681.828	10.79
682.152	9.91
682.475	10.46
682.799	10.31
683.122	10.44
683.446	10.4
683.769	10.47
684.093	10.4
684.416	11.04
684.739	10.55
685.062	10.76
685.386	10.98
685.709	10.37
686.032	11.09
686.355	11.28
686.678	11.2
687.001	10.96
687.324	11.2
687.646	10.38
687.969	10.2
688.292	11.41
688.614	10.87
688.937	11.62
689.26	10.46
689.582	10.97
689.904	10.74
690.227	10.73
690.549	10.75
690.871	11.93
691.194	10.62
691.516	11.36
691.838	11.26
692.16	11.63
692.482	10.84
