Data from 0419_forehead_Reflection__2__12.txt Node

Date: Fri Dec 15 16:32:19 CST 2023
User: ToomeyLab
Spectrometer: FLMS14357
Trigger mode: 0
Integration Time (sec): 1.000000E-2
Scans to average: 100
Electric dark correction enabled: true
Nonlinearity correction enabled: false
Boxcar width: 0
XAxis mode: Wavelengths
Number of Pixels in Spectrum: 2048
>>>>>Begin Spectral Data<<<<<
189.047	-83.61
189.435	-83.61
189.823	-83.61
190.211	123.83
190.599	-36.92
190.987	44.37
191.375	81.59
191.763	51.81
192.151	355.01
192.538	283.83
192.926	41.74
193.314	1484.01
193.702	85.4
194.089	24.33
194.477	134.99
194.864	231.02
195.252	289.5
195.639	107.8
196.027	101.07
196.414	46.51
196.801	389.45
197.189	185.52
197.576	321.5
197.963	87.9
198.351	9
198.738	1.25
199.125	37.74
199.512	57.64
199.899	69.8
200.286	51.72
200.673	73.06
201.06	30.35
201.447	64.42
201.833	-5.79
202.22	93.61
202.607	34.6
202.994	36.71
203.38	34.97
203.767	50.64
204.154	59.98
204.54	54.94
204.927	27.56
205.313	35.86
205.699	16.77
206.086	63.48
206.472	60.5
206.858	72.8
207.245	18.14
207.631	51.04
208.017	34.83
208.403	38.78
208.789	40.63
209.175	30.14
209.561	18.89
209.947	61.43
210.333	40.1
210.719	58.94
211.105	60.08
211.491	33.53
211.876	66.51
212.262	39.37
212.648	48.3
213.034	42.58
213.419	27.57
213.805	28.33
214.19	38.52
214.576	60.5
214.961	12.96
215.346	44.75
215.732	6.47
216.117	22.15
216.502	15.26
216.888	21.48
217.273	34.51
217.658	5.63
218.043	49.65
218.428	-2.1
218.813	26.85
219.198	-0.49
219.583	34.19
219.968	29.82
220.353	14.19
220.738	44.96
221.122	24.43
221.507	10.3
221.892	-0.71
222.276	2.16
222.661	11.64
223.046	14.05
223.43	20.32
223.815	16.58
224.199	13.02
224.583	13.65
224.968	5.38
225.352	17.01
225.736	4.35
226.121	4.74
226.505	8.92
226.889	13.87
227.273	5.89
227.657	16.14
228.041	7.04
228.425	3.34
228.809	8.58
229.193	9.32
229.577	5.84
229.961	5.74
230.344	3.91
230.728	4.26
231.112	4.67
231.495	5.01
231.879	3.94
232.263	5.04
232.646	7.03
233.03	3.61
233.413	4.77
233.797	7.81
234.18	6.33
234.563	8.6
234.946	3.74
235.33	6.82
235.713	6.16
236.096	4.36
236.479	5.87
236.862	4.75
237.245	6.59
237.628	4.81
238.011	6.94
238.394	6.08
238.777	4.68
239.16	4.66
239.543	5.09
239.925	6.25
240.308	6.15
240.691	6.95
241.073	7.02
241.456	6.71
241.838	4.89
242.221	3.63
242.603	4.73
242.986	4.6
243.368	4.38
243.75	4.52
244.133	4.37
244.515	4.43
244.897	4.22
245.279	5.53
245.661	4.58
246.043	3.47
246.425	3.22
246.807	5.68
247.189	4.12
247.571	4.51
247.953	4.63
248.335	3.65
248.717	3.91
249.098	3.79
249.48	4.07
249.862	4.22
250.243	4.53
250.625	3.92
251.006	4.21
251.388	4.1
251.769	4.06
252.151	5.33
252.532	4.77
252.913	3.81
253.295	3.18
253.676	3.93
254.057	4.29
254.438	4.16
254.819	4.45
255.2	3.24
255.581	4.81
255.962	4.8
256.343	5.19
256.724	3.87
257.105	4
257.486	3.94
257.867	5.02
258.247	4.3
258.628	5
259.009	3.95
259.389	4.29
259.77	4.28
260.15	4.09
260.531	4.26
260.911	4.08
261.292	3.27
261.672	3.78
262.052	3.92
262.432	4.36
262.813	4.25
263.193	4.2
263.573	3.89
263.953	3.65
264.333	4.82
264.713	4.18
265.093	4.38
265.473	4.1
265.853	3.57
266.233	4.56
266.612	3.36
266.992	3.04
267.372	5.19
267.752	3.95
268.131	3.94
268.511	4.12
268.89	3.91
269.27	3.84
269.649	3.98
270.029	4.66
270.408	5.17
270.787	4.94
271.167	4.38
271.546	4.65
271.925	3.68
272.304	4.03
272.683	3.83
273.062	4.03
273.441	3.59
273.82	3.45
274.199	4.14
274.578	4.48
274.957	3.48
275.336	3.61
275.715	3.36
276.093	3.84
276.472	3.97
276.851	3.77
277.229	3.43
277.608	3.13
277.986	3.74
278.365	4.21
278.743	3.42
279.122	3.53
279.5	4.23
279.878	4.25
280.257	4.01
280.635	4.04
281.013	3.34
281.391	4.69
281.769	3.97
282.147	3.47
282.525	4.64
282.903	3.66
283.281	4.56
283.659	4.19
284.037	3.9
284.415	4.07
284.792	3.71
285.17	2.61
285.548	3.61
285.925	3.77
286.303	3.42
286.68	3.6
287.058	3.74
287.435	3.28
287.813	3.56
288.19	3.41
288.567	3.97
288.945	4.48
289.322	4.07
289.699	4.28
290.076	4.18
290.453	3.59
290.83	3.61
291.207	4.01
291.584	4.23
291.961	4.39
292.338	4
292.715	4.55
293.092	3.92
293.469	4.14
293.845	4.37
294.222	4.21
294.599	4.48
294.975	3.67
295.352	4.57
295.728	3.86
296.105	4.31
296.481	4.4
296.858	4.21
297.234	4.08
297.61	4.02
297.986	4.09
298.363	4.16
298.739	4.25
299.115	4.07
299.491	3.88
299.867	4.38
300.243	4.49
300.619	4.14
300.995	4.22
301.371	4.32
301.746	4.46
302.122	5.2
302.498	4.28
302.874	4.51
303.249	4.58
303.625	4.79
304	4.82
304.376	4.29
304.751	4.06
305.127	5.15
305.502	4.66
305.878	4.23
306.253	4.42
306.628	5.22
307.003	4.78
307.378	5.55
307.754	5.41
308.129	4.37
308.504	4.86
308.879	5.13
309.254	5.97
309.629	5.33
310.003	4.82
310.378	5.23
310.753	5.31
311.128	5.22
311.502	5.28
311.877	5.76
312.252	4.9
312.626	5.17
313.001	4.95
313.375	5.5
313.75	4.93
314.124	5.22
314.498	5.7
314.873	5.24
315.247	5.62
315.621	5.51
315.995	5.25
316.369	5.24
316.743	5.36
317.117	6.11
317.491	5.21
317.865	5.51
318.239	5.29
318.613	5.96
318.987	6.1
319.361	5.58
319.734	5.85
320.108	5.7
320.482	5.82
320.855	6
321.229	6.43
321.602	5.75
321.976	6.59
322.349	5.75
322.723	6.16
323.096	6.77
323.469	5.59
323.843	5.67
324.216	6.59
324.589	6.35
324.962	6.48
325.335	6.1
325.708	6.07
326.081	6.39
326.454	6.43
326.827	6.52
327.2	6.36
327.573	6.23
327.945	6.35
328.318	6.15
328.691	6.3
329.063	6.57
329.436	6.39
329.809	6.51
330.181	6.73
330.553	7.06
330.926	6.52
331.298	6.81
331.671	6.51
332.043	6.88
332.415	6.7
332.787	6.51
333.159	7.39
333.532	7.47
333.904	6.59
334.276	7.42
334.648	6.95
335.02	6.7
335.391	7.26
335.763	6.9
336.135	7.06
336.507	7.87
336.879	7.2
337.25	7.53
337.622	7.55
337.993	7.18
338.365	7.35
338.736	7.03
339.108	6.99
339.479	7.58
339.851	7.73
340.222	7.37
340.593	7.33
340.964	6.95
341.336	8
341.707	7.31
342.078	7.6
342.449	7.77
342.82	7.82
343.191	7.8
343.562	7.64
343.933	7.75
344.303	8.2
344.674	7.96
345.045	7.97
345.416	7.94
345.786	7.06
346.157	7.99
346.527	7.44
346.898	7.63
347.268	7.89
347.639	7.81
348.009	7.91
348.38	7.31
348.75	7.63
349.12	7.8
349.49	8.36
349.861	8
350.231	7.42
350.601	8.26
350.971	8.18
351.341	8.42
351.711	8.1
352.081	8.43
352.45	8.15
352.82	8.67
353.19	8.36
353.56	8.28
353.929	8.36
354.299	8.16
354.669	7.83
355.038	8.5
355.408	7.99
355.777	8.64
356.147	8.13
356.516	8.54
356.885	8.04
357.254	8.87
357.624	8.82
357.993	8.34
358.362	8.25
358.731	8.44
359.1	8.5
359.469	8.5
359.838	8.33
360.207	8.59
360.576	8.76
360.945	8.87
361.314	9.07
361.682	8.52
362.051	8.68
362.42	8.54
362.788	8.46
363.157	8.73
363.525	8.95
363.894	8.88
364.262	8.97
364.631	9.16
364.999	9.08
365.367	8.79
365.735	9.69
366.104	9.15
366.472	9.2
366.84	8.96
367.208	9.11
367.576	9.48
367.944	9.45
368.312	9.02
368.68	8.94
369.048	9.4
369.416	9.57
369.783	8.98
370.151	9.4
370.519	9.74
370.886	9.95
371.254	9.29
371.621	9.42
371.989	9.77
372.356	9.51
372.724	9.74
373.091	9.13
373.458	9.37
373.826	9.72
374.193	9.69
374.56	9.91
374.927	9.78
375.294	9.69
375.661	9.55
376.028	9.91
376.395	9.69
376.762	9.82
377.129	9.48
377.496	10.1
377.863	10
378.229	9.74
378.596	10.03
378.963	9.98
379.329	9.5
379.696	10.14
380.062	10.16
380.429	10.14
380.795	10.1
381.161	10.1
381.528	10.35
381.894	10.17
382.26	9.82
382.626	10.39
382.993	9.85
383.359	10.72
383.725	10.13
384.091	10.48
384.457	10.61
384.823	10.21
385.188	10.44
385.554	10.19
385.92	10.82
386.286	10.76
386.651	10.6
387.017	10.62
387.383	10.88
387.748	10.3
388.114	10.9
388.479	10.27
388.845	10.99
389.21	10.89
389.575	10.97
389.94	10.89
390.306	10.93
390.671	11.32
391.036	10.88
391.401	10.54
391.766	11.22
392.131	10.63
392.496	10.87
392.861	10.58
393.226	10.85
393.591	10.97
393.956	10.68
394.32	11.18
394.685	10.9
395.05	10.83
395.414	10.93
395.779	10.95
396.143	10.93
396.508	11.09
396.872	11.1
397.236	11.08
397.601	10.93
397.965	11.07
398.329	11.41
398.694	11.39
399.058	11.1
399.422	11.05
399.786	11.46
400.15	11.33
400.514	11.47
400.878	11.28
401.242	11.4
401.605	11.64
401.969	11.39
402.333	11.42
402.697	11.41
403.06	11.37
403.424	11.51
403.787	11.31
404.151	11.3
404.514	11.46
404.878	11.11
405.241	11.32
405.604	11.34
405.968	11.48
406.331	11.42
406.694	11.46
407.057	11.39
407.42	11.48
407.783	11.22
408.146	11.59
408.509	11.38
408.872	11.62
409.235	11.45
409.598	11.78
409.961	11.51
410.323	11.81
410.686	11.56
411.049	11.52
411.411	11.72
411.774	11.68
412.136	11.52
412.499	11.43
412.861	11.78
413.223	11.62
413.586	11.91
413.948	11.81
414.31	11.6
414.672	11.69
415.035	11.62
415.397	11.9
415.759	11.6
416.121	12.12
416.483	11.97
416.845	12.06
417.206	11.9
417.568	11.87
417.93	11.53
418.292	11.88
418.653	11.98
419.015	11.98
419.377	12.04
419.738	12.09
420.1	11.94
420.461	11.93
420.822	12.04
421.184	11.97
421.545	12.07
421.906	12.02
422.267	11.97
422.629	12.05
422.99	12.04
423.351	12.14
423.712	12.4
424.073	12.39
424.434	12.42
424.795	12.32
425.155	12.58
425.516	12.23
425.877	12.46
426.238	12.37
426.598	12.6
426.959	12.81
427.32	12.76
427.68	12.89
428.041	12.99
428.401	13.16
428.761	13.12
429.122	13.1
429.482	13.26
429.842	13.27
430.202	13.36
430.563	13.42
430.923	13.07
431.283	13.56
431.643	13.42
432.003	13.65
432.363	13.78
432.722	13.53
433.082	13.73
433.442	13.47
433.802	13.58
434.161	13.61
434.521	13.94
434.881	13.8
435.24	13.76
435.6	13.9
435.959	13.82
436.319	14.1
436.678	14.28
437.037	14.41
437.396	14.4
437.756	14.47
438.115	14.43
438.474	14.64
438.833	14.27
439.192	14.3
439.551	14.25
439.91	14.46
440.269	14.41
440.628	14.48
440.987	14.46
441.345	14.51
441.704	14.44
442.063	14.63
442.421	14.55
442.78	14.56
443.138	14.79
443.497	14.97
443.855	15.24
444.214	15.16
444.572	15.19
444.93	15.2
445.288	15.18
445.647	15.2
446.005	15.06
446.363	15.05
446.721	15.2
447.079	14.92
447.437	15.06
447.795	15.15
448.153	15.02
448.51	15.06
448.868	15.36
449.226	15.37
449.584	15.5
449.941	15.73
450.299	15.89
450.656	15.75
451.014	15.94
451.371	15.77
451.729	15.92
452.086	16.24
452.443	16.12
452.801	16.24
453.158	16.16
453.515	16.05
453.872	16.43
454.229	16.17
454.586	16.17
454.943	16.32
455.3	16.46
455.657	16.52
456.014	16.47
456.371	16.44
456.727	16.7
457.084	16.85
457.441	16.62
457.797	16.81
458.154	16.74
458.51	16.87
458.867	16.99
459.223	16.86
459.58	16.94
459.936	16.76
460.292	16.73
460.648	16.67
461.005	16.65
461.361	16.62
461.717	16.59
462.073	16.83
462.429	16.99
462.785	17.36
463.141	17.27
463.496	17.35
463.852	17.64
464.208	17.63
464.564	17.63
464.919	17.57
465.275	17.72
465.631	17.68
465.986	17.57
466.342	17.65
466.697	17.49
467.052	17.92
467.408	17.74
467.763	17.9
468.118	17.94
468.473	17.91
468.829	17.92
469.184	17.85
469.539	18.12
469.894	18.12
470.249	18.16
470.603	18.19
470.958	18.5
471.313	18.26
471.668	18.38
472.023	18.21
472.377	18.41
472.732	18.5
473.086	18.45
473.441	18.09
473.795	18.51
474.15	18.54
474.504	18.6
474.859	18.68
475.213	18.62
475.567	18.61
475.921	18.79
476.275	18.8
476.63	18.83
476.984	18.99
477.338	19.1
477.692	18.92
478.045	18.96
478.399	18.83
478.753	19.16
479.107	19.05
479.461	19
479.814	18.98
480.168	19.19
480.521	19.17
480.875	19.22
481.228	19.23
481.582	19.61
481.935	19.27
482.289	19.28
482.642	19.18
482.995	19.15
483.348	19.3
483.701	19.34
484.055	19.17
484.408	19.01
484.761	18.71
485.114	18.31
485.466	17.94
485.819	18.25
486.172	18.74
486.525	19.13
486.878	19.39
487.23	19.52
487.583	19.68
487.936	19.6
488.288	19.45
488.641	19.13
488.993	18.96
489.345	19
489.698	19.13
490.05	19.28
490.402	19.61
490.754	19.9
491.107	20.11
491.459	20.13
491.811	20.24
492.163	20.28
492.515	20.04
492.866	19.57
493.218	19.32
493.57	19.53
493.922	19.78
494.274	20.3
494.625	20.61
494.977	20.69
495.328	20.88
495.68	21.01
496.031	21.01
496.383	21.01
496.734	21
497.086	21.03
497.437	21.13
497.788	20.96
498.139	20.73
498.49	20.95
498.842	20.86
499.193	21.18
499.544	21.24
499.894	21.18
500.245	21.04
500.596	21.2
500.947	21.55
501.298	21.5
501.648	21.47
501.999	21.62
502.35	21.68
502.7	21.57
503.051	21.65
503.401	21.52
503.752	21.85
504.102	21.81
504.452	21.81
504.803	21.77
505.153	21.8
505.503	21.78
505.853	21.9
506.203	21.84
506.553	21.98
506.903	21.88
507.253	22.03
507.603	21.87
507.953	22.24
508.303	22.42
508.652	22.19
509.002	22.23
509.352	22.04
509.701	22.05
510.051	22.07
510.4	21.97
510.75	22.08
511.099	22.16
511.449	22.14
511.798	22.4
512.147	22.42
512.496	22.32
512.846	22.39
513.195	22.48
513.544	22.43
513.893	22.38
514.242	22.43
514.591	22.59
514.939	22.51
515.288	22.7
515.637	22.81
515.986	22.75
516.334	22.84
516.683	22.89
517.032	23.09
517.38	22.97
517.729	22.93
518.077	22.92
518.426	22.99
518.774	23.12
519.122	22.7
519.47	22.81
519.819	22.58
520.167	22.48
520.515	22.73
520.863	22.87
521.211	22.86
521.559	23.14
521.907	23.14
522.255	23.29
522.602	23.47
522.95	23.44
523.298	23.38
523.645	23.39
523.993	23.41
524.341	23.63
524.688	23.8
525.036	23.52
525.383	23.57
525.73	23.78
526.078	23.53
526.425	23.31
526.772	23.26
527.119	23.05
527.466	22.95
527.814	23.19
528.161	23.34
528.508	23.51
528.854	23.43
529.201	23.36
529.548	22.99
529.895	22.49
530.242	22.07
530.588	22.57
530.935	23.11
531.282	23.28
531.628	23.37
531.975	23.81
532.321	23.79
532.667	23.88
533.014	24.09
533.36	23.89
533.706	23.97
534.052	23.84
534.399	23.64
534.745	23.26
535.091	23.06
535.437	23.57
535.783	23.87
536.129	24.1
536.474	24.3
536.82	24.44
537.166	24.63
537.512	24.42
537.857	24.29
538.203	24
538.549	24
538.894	24.37
539.239	24.54
539.585	24.63
539.93	24.79
540.276	25.02
540.621	25.1
540.966	24.85
541.311	24.8
541.656	24.88
542.001	24.74
542.346	24.32
542.691	23.8
543.036	23.55
543.381	23.92
543.726	24.42
544.071	24.63
544.415	24.88
544.76	24.83
545.105	24.87
545.449	24.99
545.794	25.22
546.138	25.4
546.483	25.58
546.827	25.39
547.171	25.37
547.516	25.46
547.86	25.26
548.204	25.33
548.548	25.08
548.892	25.34
549.236	25.6
549.58	25.82
549.924	25.85
550.268	25.94
550.612	26.2
550.956	26.37
551.3	26.17
551.643	26.5
551.987	26.24
552.33	26.41
552.674	26.29
553.017	26.39
553.361	26.07
553.704	26.31
554.048	26.04
554.391	26.09
554.734	26.04
555.077	26.29
555.42	26.35
555.764	26.55
556.107	26.54
556.45	26.51
556.793	26.57
557.135	26.68
557.478	26.7
557.821	26.68
558.164	27.03
558.507	26.92
558.849	26.94
559.192	26.96
559.534	26.92
559.877	27.01
560.219	27.11
560.562	27.34
560.904	27.36
561.246	27.16
561.589	27.23
561.931	27.26
562.273	27.28
562.615	26.95
562.957	26.81
563.299	26.91
563.641	27.07
563.983	27.13
564.325	27.4
564.667	27.29
565.008	27.1
565.35	27.28
565.692	27.39
566.033	27.44
566.375	27.52
566.716	27.46
567.058	27.24
567.399	27.26
567.741	27.3
568.082	27.36
568.423	27.52
568.764	27.66
569.105	27.71
569.447	27.93
569.788	27.94
570.129	28.16
570.47	27.8
570.811	27.96
571.151	27.72
571.492	28.09
571.833	28.15
572.174	28.18
572.514	28.15
572.855	27.79
573.195	27.9
573.536	27.87
573.876	27.58
574.217	28.05
574.557	28.15
574.898	28.16
575.238	28.48
575.578	28.3
575.918	28.67
576.258	28.3
576.598	28.23
576.938	28.12
577.278	28.34
577.618	28.5
577.958	28.57
578.298	28.76
578.638	28.65
578.977	28.95
579.317	28.67
579.657	28.86
579.996	29
580.336	29
580.675	29.24
581.014	29.08
581.354	29.14
581.693	29.05
582.032	29.13
582.372	29.1
582.711	29.2
583.05	29.11
583.389	29.41
583.728	29.37
584.067	29.52
584.406	29.35
584.745	29.34
585.083	29.47
585.422	29.54
585.761	29.34
586.1	29.79
586.438	29.69
586.777	29.36
587.115	29.5
587.454	29.78
587.792	29.52
588.13	29.84
588.469	29.61
588.807	29.95
589.145	29.65
589.483	29.78
589.821	29.62
590.159	29.78
590.497	30.1
590.835	30.31
591.173	29.96
591.511	30.25
591.849	29.75
592.187	29.92
592.524	30.35
592.862	30.01
593.2	30.35
593.537	30.57
593.875	30.25
594.212	30.12
594.55	30.44
594.887	30.49
595.224	30.52
595.561	30.51
595.899	30.33
596.236	30.14
596.573	30.41
596.91	30.1
597.247	30
597.584	30.76
597.921	30.37
598.258	30.38
598.594	29.84
598.931	29.92
599.268	30.27
599.604	30.64
599.941	30.97
600.277	30.66
600.614	31.08
600.95	30.96
601.287	31.35
601.623	31.41
601.959	31.07
602.296	31.09
602.632	31.1
602.968	31.19
603.304	30.9
603.64	31.21
603.976	30.95
604.312	30.96
604.648	30.96
604.984	30.57
605.319	30.83
605.655	31.02
605.991	30.79
606.326	30.73
606.662	30.7
606.998	31.23
607.333	31.43
607.668	31.14
608.004	31.54
608.339	31.72
608.674	31.97
609.01	31.88
609.345	31.89
609.68	31.83
610.015	32
610.35	31.45
610.685	31.68
611.02	31.23
611.355	31.2
611.689	31.8
612.024	31.93
612.359	31.86
612.694	32.09
613.028	31.96
613.363	32.22
613.697	32.59
614.032	32.49
614.366	32.56
614.7	32.47
615.035	32.22
615.369	32.55
615.703	32.3
616.037	32.48
616.371	32.36
616.705	32.3
617.039	32.53
617.373	32.67
617.707	32.71
618.041	32.73
618.375	32.39
618.709	32.24
619.042	32.49
619.376	32.7
619.71	32.75
620.043	32.79
620.377	32.75
620.71	32.88
621.043	33.08
621.377	32.68
621.71	32.87
622.043	33.1
622.376	33.16
622.709	32.93
623.043	33.12
623.376	33.11
623.709	33.02
624.041	33.24
624.374	33.31
624.707	33.13
625.04	33.49
625.373	32.64
625.705	32.72
626.038	33.11
626.37	33.21
626.703	33.38
627.035	33.66
627.368	33.46
627.7	33.61
628.032	33.2
628.365	33.21
628.697	33.1
629.029	32.87
629.361	33.54
629.693	33.61
630.025	33.61
630.357	33.79
630.689	33.7
631.021	33.38
631.353	33.56
631.684	33.78
632.016	33.48
632.348	34.15
632.679	33.99
633.011	33.94
633.342	34.07
633.674	34.01
634.005	34.33
634.336	33.88
634.668	34.3
634.999	33.97
635.33	34.3
635.661	33.94
635.992	33.74
636.323	34.21
636.654	33.99
636.985	34.31
637.316	34.11
637.647	34.12
637.977	35.04
638.308	34.62
638.639	34.32
638.969	34.21
639.3	34.58
639.63	34.37
639.961	34.67
640.291	34.63
640.622	35.08
640.952	34.66
641.282	34.37
641.612	34.77
641.943	34.36
642.273	34.79
642.603	35.01
642.933	34.89
643.263	35.04
643.592	34.64
643.922	34.03
644.252	35.03
644.582	34.65
644.911	34.95
645.241	34.71
645.571	35.06
645.9	34.69
646.23	35.19
646.559	35.4
646.888	34.9
647.218	34.94
647.547	35.51
647.876	35.42
648.205	35.54
648.534	35.1
648.863	35.47
649.192	36.07
649.521	35.25
649.85	35.65
650.179	35.59
650.508	35.15
650.837	35.06
651.165	35.25
651.494	35.5
651.822	35.8
652.151	35.36
652.479	35.72
652.808	35.45
653.136	35.82
653.465	35.21
653.793	35.74
654.121	35.7
654.449	36.28
654.777	36.05
655.105	36.19
655.433	36.3
655.761	36.17
656.089	36.47
656.417	36.18
656.745	36.48
657.073	35.91
657.4	36.32
657.728	35.89
658.056	36.19
658.383	36.08
658.711	36.27
659.038	36.76
659.365	36.64
659.693	36.21
660.02	36.34
660.347	36.3
660.674	35.85
661.001	35.95
661.329	35.83
661.656	36.08
661.982	36.59
662.309	36.49
662.636	36.5
662.963	36.77
663.29	36.99
663.616	36.89
663.943	36.33
664.27	37.24
664.596	36.87
664.923	37.41
665.249	36.83
665.576	37.04
665.902	37.55
666.228	36.52
666.554	37.14
666.881	37.07
667.207	37.07
667.533	36.69
667.859	36.7
668.185	37.19
668.511	37.03
668.837	36.89
669.162	37.05
669.488	36.39
669.814	37.33
670.139	37.27
670.465	36.83
670.791	37.27
671.116	37.28
671.442	37.41
671.767	37.27
672.092	37.51
672.418	37.76
672.743	37.64
673.068	36.63
673.393	37.48
673.718	37.8
