Data from 0419_forehead_Reflection__4__14.txt Node

Date: Fri Dec 15 16:32:38 CST 2023
User: ToomeyLab
Spectrometer: FLMS14357
Trigger mode: 0
Integration Time (sec): 1.000000E-2
Scans to average: 100
Electric dark correction enabled: true
Nonlinearity correction enabled: false
Boxcar width: 0
XAxis mode: Wavelengths
Number of Pixels in Spectrum: 2048
>>>>>Begin Spectral Data<<<<<
189.047	12.62
189.435	12.62
189.823	12.62
190.211	44.15
190.599	52.6
190.987	72.5
191.375	-10.16
191.763	148.42
192.151	12.32
192.538	421.76
192.926	19.28
193.314	1289.8
193.702	135.8
194.089	-568.98
194.477	58.39
194.864	-278.35
195.252	161.33
195.639	40.2
196.027	-197.75
196.414	74.02
196.801	15.46
197.189	257.92
197.576	-288.77
197.963	-60.74
198.351	45.33
198.738	-11.64
199.125	33.05
199.512	-0.57
199.899	56.26
200.286	1.94
200.673	39.65
201.06	27.99
201.447	28.64
201.833	-39.22
202.22	40.26
202.607	74.7
202.994	31.23
203.38	51.67
203.767	29.38
204.154	30.59
204.54	45.1
204.927	15.35
205.313	-8.22
205.699	25.53
206.086	43.46
206.472	59.41
206.858	16.62
207.245	16.94
207.631	37.9
208.017	45.01
208.403	-1.9
208.789	61.8
209.175	17.91
209.561	-4.14
209.947	-13.38
210.333	-13.84
210.719	35.56
211.105	56.39
211.491	-15.41
211.876	43.77
212.262	46.58
212.648	20.7
213.034	28.43
213.419	-13.57
213.805	1.21
214.19	23.82
214.576	20.63
214.961	19.03
215.346	5.56
215.732	29.73
216.117	10.3
216.502	18.82
216.888	24.57
217.273	-1.83
217.658	6.56
218.043	43.05
218.428	-25.93
218.813	-5.95
219.198	9.29
219.583	28.78
219.968	30.2
220.353	19.95
220.738	32.97
221.122	6.63
221.507	-0.51
221.892	2.52
222.276	-13.29
222.661	14.95
223.046	13.27
223.43	8.78
223.815	15.1
224.199	1.66
224.583	-7.14
224.968	0.62
225.352	16.29
225.736	6.23
226.121	4.22
226.505	6.82
226.889	13.12
227.273	6.67
227.657	10.91
228.041	7.47
228.425	9.27
228.809	11.75
229.193	8.73
229.577	3.04
229.961	5.5
230.344	4.58
230.728	4.33
231.112	5.03
231.495	4.47
231.879	4.35
232.263	4.8
232.646	5.66
233.03	5.22
233.413	3.85
233.797	7.34
234.18	5.44
234.563	6.56
234.946	6.64
235.33	7.1
235.713	4.98
236.096	5.33
236.479	5.53
236.862	4.2
237.245	8.24
237.628	5.61
238.011	5.65
238.394	7.26
238.777	7.49
239.16	4.33
239.543	4.97
239.925	6.15
240.308	5.89
240.691	7.3
241.073	6.55
241.456	5.2
241.838	4.36
242.221	3.7
242.603	4.83
242.986	4.65
243.368	4.33
243.75	4.98
244.133	3.98
244.515	4.71
244.897	4.35
245.279	4.94
245.661	4.41
246.043	5
246.425	4.38
246.807	4.72
247.189	5.33
247.571	4.88
247.953	4.93
248.335	4.51
248.717	4.45
249.098	4.23
249.48	4.19
249.862	4.47
250.243	4.41
250.625	4.14
251.006	5.03
251.388	3.79
251.769	5.68
252.151	5.63
252.532	4.36
252.913	3.83
253.295	3.5
253.676	4.12
254.057	4.37
254.438	5.08
254.819	3.92
255.2	3.92
255.581	3.8
255.962	4.46
256.343	5.81
256.724	4.21
257.105	4.28
257.486	4.03
257.867	5.1
258.247	4.74
258.628	4.36
259.009	3.81
259.389	4.85
259.77	4.25
260.15	3.52
260.531	3.68
260.911	4.46
261.292	4.25
261.672	4.14
262.052	4.06
262.432	4.22
262.813	4.13
263.193	4.93
263.573	3.98
263.953	4.88
264.333	5.06
264.713	4.49
265.093	3.94
265.473	4.49
265.853	3.09
266.233	4.63
266.612	2.7
266.992	3.14
267.372	4.85
267.752	3.85
268.131	4.22
268.511	4.49
268.89	4.65
269.27	3.9
269.649	4.3
270.029	3.94
270.408	5.09
270.787	5
271.167	4.98
271.546	4.87
271.925	3.97
272.304	4.34
272.683	4.69
273.062	3.92
273.441	4.05
273.82	3.72
274.199	4.01
274.578	4.27
274.957	3.85
275.336	4.3
275.715	4.32
276.093	3.36
276.472	4.15
276.851	3.56
277.229	3.5
277.608	3.87
277.986	3.54
278.365	4.31
278.743	3.21
279.122	3.6
279.5	4.08
279.878	4.72
280.257	3.45
280.635	3.5
281.013	3.44
281.391	4.63
281.769	3.77
282.147	4.33
282.525	5.09
282.903	3.74
283.281	4.14
283.659	4.15
284.037	4.6
284.415	4.46
284.792	4.32
285.17	3.58
285.548	4.15
285.925	4.15
286.303	4.43
286.68	3.8
287.058	4.18
287.435	3.91
287.813	4.2
288.19	4.27
288.567	3.95
288.945	4.87
289.322	4.3
289.699	4.03
290.076	4.46
290.453	4.52
290.83	4.17
291.207	3.66
291.584	4.52
291.961	4.7
292.338	4.39
292.715	4.9
293.092	4.17
293.469	4.96
293.845	4.61
294.222	4.52
294.599	4.62
294.975	4.59
295.352	5.16
295.728	4.3
296.105	4.12
296.481	5
296.858	4.39
297.234	4.45
297.61	4.66
297.986	4.14
298.363	4.66
298.739	4.43
299.115	3.96
299.491	4.32
299.867	4.79
300.243	5.05
300.619	4.48
300.995	4.78
301.371	4.63
301.746	4.64
302.122	5.58
302.498	4.82
302.874	5.17
303.249	5.23
303.625	5.07
304	5.02
304.376	4.72
304.751	4.8
305.127	5.05
305.502	4.4
305.878	4.63
306.253	4.73
306.628	4.83
307.003	4.87
307.378	5.94
307.754	5.05
308.129	4.49
308.504	5.11
308.879	4.73
309.254	6.17
309.629	5.75
310.003	5.61
310.378	5.92
310.753	5.67
311.128	5.36
311.502	5.1
311.877	6.29
312.252	4.9
312.626	5.61
313.001	5.38
313.375	5.95
313.75	5.35
314.124	5.61
314.498	5.17
314.873	5.43
315.247	4.96
315.621	5.71
315.995	5.33
316.369	5.5
316.743	6.03
317.117	5.99
317.491	5.8
317.865	6.03
318.239	5.37
318.613	6.05
318.987	6.41
319.361	5.35
319.734	6.46
320.108	6.29
320.482	5.7
320.855	6.3
321.229	6.39
321.602	5.84
321.976	6.45
322.349	6.34
322.723	6.22
323.096	6.25
323.469	5.66
323.843	6.03
324.216	6.9
324.589	6.2
324.962	6.5
325.335	6.01
325.708	6.23
326.081	6.79
326.454	6.65
326.827	6.3
327.2	6.78
327.573	6.51
327.945	6.67
328.318	6.43
328.691	6.28
329.063	6.64
329.436	6.49
329.809	7.04
330.181	6.31
330.553	7.05
330.926	7.6
331.298	6.76
331.671	6.76
332.043	7.28
332.415	7.5
332.787	7.06
333.159	7.58
333.532	6.47
333.904	6.97
334.276	6.44
334.648	6.82
335.02	6.92
335.391	6.51
335.763	7.13
336.135	6.79
336.507	7.34
336.879	6.96
337.25	6.72
337.622	6.65
337.993	6.91
338.365	7.43
338.736	6.95
339.108	7.56
339.479	7.15
339.851	6.84
340.222	7.5
340.593	7.22
340.964	7.06
341.336	8.18
341.707	7.57
342.078	7.31
342.449	7.19
342.82	7.62
343.191	7.12
343.562	7.14
343.933	7.27
344.303	7.53
344.674	7.43
345.045	7.2
345.416	7.9
345.786	7.04
346.157	7.71
346.527	7.31
346.898	7.56
347.268	7.58
347.639	7.82
348.009	7.63
348.38	7.74
348.75	7.68
349.12	7.41
349.49	8.14
349.861	8.18
350.231	7.52
350.601	7.61
350.971	8.11
351.341	8.25
351.711	7.71
352.081	7.83
352.45	7.67
352.82	8.26
353.19	7.9
353.56	8.01
353.929	8.16
354.299	7.94
354.669	8.03
355.038	8.05
355.408	8.04
355.777	7.8
356.147	7.69
356.516	7.94
356.885	8.49
357.254	8.12
357.624	8.43
357.993	8.34
358.362	8.29
358.731	8.09
359.1	8.26
359.469	8.7
359.838	8.16
360.207	8.56
360.576	7.97
360.945	8.37
361.314	8.33
361.682	8.13
362.051	8.33
362.42	8.63
362.788	8.17
363.157	8.38
363.525	8.62
363.894	8.55
364.262	8.49
364.631	8.63
364.999	8.89
365.367	8.44
365.735	9.35
366.104	8.84
366.472	8.75
366.84	8.48
367.208	8.56
367.576	9.09
367.944	9.23
368.312	8.51
368.68	8.52
369.048	8.9
369.416	9.17
369.783	8.84
370.151	8.71
370.519	9.71
370.886	9.33
371.254	8.97
371.621	9.52
371.989	9.16
372.356	8.88
372.724	9.38
373.091	8.79
373.458	9.06
373.826	9.18
374.193	9.05
374.56	9.77
374.927	8.99
375.294	9.4
375.661	9.15
376.028	9.54
376.395	8.76
376.762	9.48
377.129	9.44
377.496	8.83
377.863	9.43
378.229	9.06
378.596	9.27
378.963	9.52
379.329	9.31
379.696	9.61
380.062	9.3
380.429	9.34
380.795	9.77
381.161	9.55
381.528	9.54
381.894	9.64
382.26	9.49
382.626	9.95
382.993	9.32
383.359	9.84
383.725	9.66
384.091	9.56
384.457	10.12
384.823	9.99
385.188	10.13
385.554	9.65
385.92	9.93
386.286	10.15
386.651	9.63
387.017	10
387.383	10
387.748	9.54
388.114	10.2
388.479	10.13
388.845	10.04
389.21	10.2
389.575	10.03
389.94	10.12
390.306	10.29
390.671	10.16
391.036	9.98
391.401	9.67
391.766	10.32
392.131	10.1
392.496	10.3
392.861	9.94
393.226	10.29
393.591	9.99
393.956	10.33
394.32	10.22
394.685	10.09
395.05	10.16
395.414	10.08
395.779	9.94
396.143	10.38
396.508	10.52
396.872	10.5
397.236	10.46
397.601	10.18
397.965	10.3
398.329	10.74
398.694	10.58
399.058	10.62
399.422	10.48
399.786	10.44
400.15	10.56
400.514	10.49
400.878	10.39
401.242	10.59
401.605	10.55
401.969	10.77
402.333	10.87
402.697	10.69
403.06	10.43
403.424	10.61
403.787	10.57
404.151	10.73
404.514	10.43
404.878	10.46
405.241	10.68
405.604	10.49
405.968	10.63
406.331	10.62
406.694	10.85
407.057	10.69
407.42	10.9
407.783	10.68
408.146	10.52
408.509	10.77
408.872	10.59
409.235	10.54
409.598	10.94
409.961	10.94
410.323	10.88
410.686	10.8
411.049	10.5
411.411	10.67
411.774	10.68
412.136	10.8
412.499	10.87
412.861	10.92
413.223	10.86
413.586	10.83
413.948	10.92
414.31	10.92
414.672	10.59
415.035	10.97
415.397	11.28
415.759	10.79
416.121	11.09
416.483	10.92
416.845	11.01
417.206	10.97
417.568	10.99
417.93	10.96
418.292	10.99
418.653	10.98
419.015	11.05
419.377	11.01
419.738	11.08
420.1	10.99
420.461	11.09
420.822	11.02
421.184	11.12
421.545	11.14
421.906	11.16
422.267	10.99
422.629	11.1
422.99	11.15
423.351	11.2
423.712	11.33
424.073	11.37
424.434	11.52
424.795	11.38
425.155	11.4
425.516	11.39
425.877	11.38
426.238	11.46
426.598	11.63
426.959	11.59
427.32	11.73
427.68	11.91
428.041	11.91
428.401	12.17
428.761	12.21
429.122	12.34
429.482	12.08
429.842	12.36
430.202	12.4
430.563	12.48
430.923	12.17
431.283	12.4
431.643	12.22
432.003	12.18
432.363	12.55
432.722	12.54
433.082	12.65
433.442	12.43
433.802	12.35
434.161	12.47
434.521	12.89
434.881	12.56
435.24	12.58
435.6	12.63
435.959	12.72
436.319	12.65
436.678	13.03
437.037	12.97
437.396	13.13
437.756	13.27
438.115	12.88
438.474	13.34
438.833	13.34
439.192	13.12
439.551	13.15
439.91	13.23
440.269	13.24
440.628	13.12
440.987	13.12
441.345	13.11
441.704	13.29
442.063	13.3
442.421	13.34
442.78	13.36
443.138	13.35
443.497	13.7
443.855	13.69
444.214	13.85
444.572	13.88
444.93	13.77
445.288	13.77
445.647	13.97
446.005	13.74
446.363	13.75
446.721	13.78
447.079	13.53
447.437	13.73
447.795	13.75
448.153	13.61
448.51	13.8
448.868	13.99
449.226	14.01
449.584	14.12
449.941	14.24
450.299	14.4
450.656	14.38
451.014	14.4
451.371	14.3
451.729	14.33
452.086	14.76
452.443	14.6
452.801	14.6
453.158	14.69
453.515	14.4
453.872	14.57
454.229	14.5
454.586	14.64
454.943	14.58
455.3	14.81
455.657	14.9
456.014	14.83
456.371	14.77
456.727	15.12
457.084	15.22
457.441	15.06
457.797	15.27
458.154	15.27
458.51	15.11
458.867	15.32
459.223	15.17
459.58	15.09
459.936	15.17
460.292	15.1
460.648	15.02
461.005	15.01
461.361	15.07
461.717	14.98
462.073	15.09
462.429	15.44
462.785	15.47
463.141	15.48
463.496	15.7
463.852	15.86
464.208	15.81
464.564	15.85
464.919	15.91
465.275	15.77
465.631	15.88
465.986	15.85
466.342	15.79
466.697	15.87
467.052	15.99
467.408	16.13
467.763	15.99
468.118	16.18
468.473	15.95
468.829	16
469.184	15.97
469.539	16.19
469.894	16.25
470.249	16.42
470.603	16.29
470.958	16.41
471.313	16.37
471.668	16.41
472.023	16.38
472.377	16.46
472.732	16.64
473.086	16.45
473.441	16.51
473.795	16.82
474.15	16.66
474.504	16.47
474.859	16.61
475.213	16.81
475.567	16.72
475.921	16.83
476.275	16.83
476.63	17.03
476.984	17.15
477.338	17.2
477.692	16.83
478.045	16.85
478.399	16.97
478.753	17.08
479.107	17.2
479.461	17.01
479.814	17.13
480.168	16.96
480.521	17.06
480.875	17.24
481.228	17.11
481.582	17.32
481.935	17.23
482.289	17.2
482.642	17.09
482.995	17.15
483.348	17.21
483.701	17.21
484.055	17.17
484.408	16.96
484.761	16.76
485.114	16.35
485.466	16.03
485.819	16.4
486.172	16.8
486.525	16.97
486.878	17.25
487.23	17.37
487.583	17.51
487.936	17.47
488.288	17.3
488.641	17.07
488.993	17.03
489.345	17.05
489.698	17.09
490.05	17.31
490.402	17.56
490.754	17.67
491.107	17.84
491.459	18.05
491.811	17.94
492.163	17.94
492.515	17.83
492.866	17.59
493.218	17.29
493.57	17.38
493.922	17.6
494.274	17.99
494.625	18.28
494.977	18.43
495.328	18.51
495.68	18.64
496.031	18.66
496.383	18.56
496.734	18.83
497.086	18.76
497.437	18.77
497.788	18.58
498.139	18.38
498.49	18.58
498.842	18.62
499.193	18.71
499.544	18.68
499.894	18.9
500.245	18.91
500.596	18.92
500.947	19.07
501.298	18.95
501.648	19.12
501.999	19.22
502.35	19.2
502.7	19.34
503.051	19.11
503.401	19.09
503.752	19.31
504.102	19.25
504.452	19.51
504.803	19.3
505.153	19.32
505.503	19.35
505.853	19.4
506.203	19.56
506.553	19.34
506.903	19.45
507.253	19.57
507.603	19.44
507.953	19.64
508.303	19.82
508.652	19.72
509.002	19.5
509.352	19.66
509.701	19.43
510.051	19.61
510.4	19.63
510.75	19.69
511.099	19.64
511.449	19.8
511.798	19.86
512.147	19.85
512.496	19.83
512.846	19.88
513.195	19.94
513.544	19.88
513.893	19.9
514.242	19.79
514.591	20.02
514.939	20.06
515.288	20.06
515.637	20.23
515.986	20.32
516.334	20.34
516.683	20.34
517.032	20.37
517.38	20.49
517.729	20.51
518.077	20.26
518.426	20.52
518.774	20.38
519.122	20.2
519.47	20.14
519.819	20.01
520.167	20.08
520.515	20.04
520.863	20.27
521.211	20.23
521.559	20.48
521.907	20.59
522.255	20.7
522.602	20.83
522.95	20.82
523.298	20.87
523.645	20.86
523.993	20.71
524.341	20.71
524.688	20.83
525.036	20.75
525.383	20.79
525.73	20.97
526.078	20.88
526.425	20.85
526.772	20.74
527.119	20.58
527.466	20.52
527.814	20.72
528.161	20.79
528.508	20.8
528.854	20.67
529.201	20.73
529.548	20.37
529.895	19.96
530.242	19.54
530.588	20.03
530.935	20.45
531.282	20.55
531.628	20.71
531.975	20.99
532.321	21.06
532.667	21.25
533.014	21.22
533.36	21.22
533.706	21.13
534.052	21.08
534.399	20.88
534.745	20.61
535.091	20.53
535.437	20.93
535.783	21.18
536.129	21.35
536.474	21.5
536.82	21.7
537.166	21.62
537.512	21.75
537.857	21.48
538.203	21.23
538.549	21.26
538.894	21.6
539.239	21.6
539.585	21.74
539.93	21.92
540.276	22.13
540.621	22.03
540.966	22.11
541.311	22.02
541.656	21.87
542.001	21.82
542.346	21.55
542.691	21.16
543.036	20.88
543.381	21.27
543.726	21.49
544.071	21.85
544.415	21.94
544.76	21.95
545.105	22
545.449	22.19
545.794	22.35
546.138	22.4
546.483	22.49
546.827	22.38
547.171	22.3
547.516	22.52
547.86	22.3
548.204	22.24
548.548	22.15
548.892	22.35
549.236	22.66
549.58	22.62
549.924	22.94
550.268	23.08
550.612	23.05
550.956	23.19
551.3	23.29
551.643	23.15
551.987	23.17
552.33	23.06
552.674	23.2
553.017	23.25
553.361	23.33
553.704	23.18
554.048	23.02
554.391	22.9
554.734	23
555.077	23.32
555.42	23.26
555.764	23.32
556.107	23.42
556.45	23.28
556.793	23.52
557.135	23.46
557.478	23.57
557.821	23.87
558.164	23.57
558.507	23.51
558.849	23.77
559.192	23.72
559.534	23.5
559.877	23.73
560.219	23.69
560.562	24.07
560.904	23.66
561.246	23.8
561.589	23.83
561.931	23.91
562.273	23.87
562.615	24.08
562.957	23.92
563.299	23.87
563.641	23.96
563.983	23.94
564.325	24.12
564.667	23.99
565.008	23.95
565.35	24.12
565.692	23.96
566.033	24.17
566.375	24.2
566.716	24.46
567.058	24.19
567.399	23.87
567.741	23.89
568.082	24.07
568.423	24.04
568.764	24.35
569.105	24.31
569.447	24.48
569.788	24.51
570.129	24.65
570.47	24.55
570.811	24.57
571.151	24.55
571.492	24.87
571.833	24.61
572.174	24.84
572.514	24.42
572.855	24.58
573.195	24.61
573.536	24.63
573.876	24.22
574.217	24.77
574.557	24.72
574.898	24.75
575.238	25.1
575.578	24.91
575.918	25.11
576.258	24.95
576.598	24.71
576.938	24.71
577.278	24.84
577.618	25.09
577.958	24.99
578.298	25.48
578.638	25.18
578.977	25.17
579.317	25.15
579.657	25.17
579.996	25.36
580.336	25.53
580.675	25.61
581.014	25.62
581.354	25.57
581.693	25.67
582.032	25.52
582.372	25.8
582.711	25.61
583.05	25.79
583.389	25.67
583.728	25.72
584.067	25.79
584.406	25.7
584.745	25.74
585.083	26.12
585.422	25.78
585.761	25.82
586.1	25.95
586.438	26.15
586.777	26.23
587.115	26.11
587.454	25.97
587.792	26.18
588.13	26.21
588.469	25.75
588.807	26.25
589.145	25.98
589.483	26.12
589.821	25.97
590.159	26.37
590.497	26.5
590.835	26.6
591.173	26.38
591.511	26.26
591.849	26.45
592.187	26.11
592.524	26.46
592.862	26.45
593.2	26.63
593.537	26.6
593.875	26.79
594.212	26.5
594.55	26.5
594.887	26.72
595.224	26.42
595.561	26.63
595.899	26.82
596.236	26.58
596.573	26.83
596.91	26.5
597.247	26.61
597.584	26.93
597.921	26.57
598.258	26.59
598.594	26.53
598.931	26.34
599.268	26.71
599.604	26.77
599.941	27.01
600.277	26.97
600.614	27.13
600.95	27.34
601.287	27.49
601.623	27.26
601.959	27.34
602.296	27.11
602.632	27.16
602.968	27.44
603.304	27.17
603.64	27.34
603.976	27.42
604.312	27.44
604.648	27.11
604.984	27.15
605.319	27.4
605.655	27.05
605.991	26.85
606.326	26.98
606.662	26.84
606.998	27.12
607.333	27.58
607.668	27.46
608.004	27.65
608.339	27.9
608.674	27.75
609.01	27.82
609.345	27.75
609.68	27.93
610.015	27.34
610.35	27.65
610.685	27.5
611.02	27.27
611.355	27.45
611.689	27.92
612.024	27.85
612.359	27.79
612.694	28.11
613.028	28.08
613.363	28.17
613.697	28.25
614.032	28.15
614.366	28.51
614.7	28.16
615.035	28.31
615.369	28.22
615.703	28.18
616.037	28.57
616.371	28.26
616.705	28.11
617.039	28.74
617.373	28.59
617.707	28.49
618.041	28.51
618.375	28.53
618.709	28.22
619.042	28.31
619.376	28.64
619.71	28.52
620.043	28.52
620.377	28.57
620.71	28.86
621.043	28.64
621.377	28.83
621.71	28.49
622.043	28.88
622.376	28.49
622.709	28.73
623.043	29.06
623.376	28.85
623.709	28.97
624.041	28.96
624.374	28.74
624.707	28.8
625.04	29.18
625.373	28.88
625.705	29.07
626.038	29.18
626.37	29.15
626.703	28.78
627.035	29.16
627.368	29.27
627.7	29.06
628.032	28.69
628.365	29.23
628.697	28.96
629.029	28.69
629.361	29.21
629.693	29.33
630.025	28.97
630.357	29.47
630.689	29.57
631.021	29.16
631.353	29.4
631.684	29.33
632.016	29.44
632.348	29.84
632.679	29.64
633.011	29.85
633.342	29.84
633.674	29.42
634.005	30.06
634.336	29.67
634.668	29.96
634.999	29.38
635.33	29.62
635.661	29.86
635.992	29.49
636.323	29.59
636.654	29.97
636.985	29.68
637.316	29.94
637.647	29.74
637.977	30.19
638.308	30.1
638.639	30.08
638.969	29.84
639.3	29.83
639.63	30
639.961	30.03
640.291	29.95
640.622	30.47
640.952	30.24
641.282	30.21
641.612	30.2
641.943	30.48
642.273	29.79
642.603	30.67
642.933	30.72
643.263	30.78
643.592	30.12
643.922	30.25
644.252	29.71
644.582	30.53
644.911	30.23
645.241	30.43
645.571	30.63
645.9	30.13
646.23	30.44
646.559	31.19
646.888	30.77
647.218	30.37
647.547	31.29
647.876	31.21
648.205	30.58
648.534	30.74
648.863	31.07
649.192	31.35
649.521	30.83
649.85	30.72
650.179	31.12
650.508	30.82
650.837	30.81
651.165	30.64
651.494	31.23
651.822	31.24
652.151	30.3
652.479	31.31
652.808	29.9
653.136	31.17
653.465	30.06
653.793	30.95
654.121	30.97
654.449	30.89
654.777	31.17
655.105	31.3
655.433	30.99
655.761	31.21
656.089	31.47
656.417	31.96
656.745	31.52
657.073	31.84
657.4	31.95
657.728	31.4
658.056	31.5
658.383	31.53
658.711	32.26
659.038	31.2
659.365	31.99
659.693	31.16
660.02	31.35
660.347	31.55
660.674	31.06
661.001	31.11
661.329	31
661.656	31.56
661.982	31.92
662.309	31.89
662.636	31.25
662.963	31.87
663.29	31.82
663.616	32.83
663.943	31.69
664.27	31.61
664.596	31.9
664.923	32.07
665.249	32.45
665.576	32.3
665.902	32.14
666.228	32.6
666.554	32.56
666.881	32.19
667.207	32.21
667.533	32.1
667.859	32.28
668.185	32.62
668.511	32.16
668.837	31.19
669.162	32.34
669.488	32.08
669.814	32.06
670.139	32.15
670.465	32.29
670.791	32.56
671.116	32.51
671.442	32.47
671.767	32.24
672.092	32.6
672.418	32.61
672.743	32.5
673.068	32.82
673.393	32.98
673.718	32.25
