Data from 0419_crown_Reflection__4__09.txt Node

Date: Fri Dec 15 16:31:32 CST 2023
User: ToomeyLab
Spectrometer: FLMS14357
Trigger mode: 0
Integration Time (sec): 1.000000E-2
Scans to average: 100
Electric dark correction enabled: true
Nonlinearity correction enabled: false
Boxcar width: 0
XAxis mode: Wavelengths
Number of Pixels in Spectrum: 2048
>>>>>Begin Spectral Data<<<<<
189.047	22.67
189.435	22.67
189.823	22.67
190.211	35.11
190.599	100.14
190.987	58.7
191.375	-221.3
191.763	-170.59
192.151	211.68
192.538	208.21
192.926	-77.28
193.314	1290.48
193.702	0.72
194.089	1249.73
194.477	-120.95
194.864	268.86
195.252	137.34
195.639	74.58
196.027	-191.93
196.414	139.82
196.801	82.29
197.189	238.8
197.576	-374.27
197.963	-146.85
198.351	-37.47
198.738	17.08
199.125	50.24
199.512	25.85
199.899	10.01
200.286	21.53
200.673	61.22
201.06	14.86
201.447	-31.01
201.833	22.5
202.22	32.45
202.607	16.94
202.994	48.56
203.38	26.21
203.767	24.76
204.154	2.19
204.54	58.72
204.927	-48.15
205.313	-29.78
205.699	8.22
206.086	38.68
206.472	19.33
206.858	8.26
207.245	-2.93
207.631	-6.43
208.017	35.38
208.403	-13.1
208.789	19.04
209.175	23.08
209.561	-29.68
209.947	10.32
210.333	0.71
210.719	9.59
211.105	45.34
211.491	-33.37
211.876	6.29
212.262	17.63
212.648	63.69
213.034	47.42
213.419	-11.71
213.805	1.48
214.19	-16.19
214.576	3.12
214.961	0.42
215.346	-19.6
215.732	22.53
216.117	11.95
216.502	10.96
216.888	13.29
217.273	34.53
217.658	-5.12
218.043	4.45
218.428	-20.75
218.813	-0.16
219.198	-13.78
219.583	-1.84
219.968	6.88
220.353	-4.86
220.738	24.96
221.122	21.6
221.507	4.4
221.892	-4.84
222.276	-9.05
222.661	-8.83
223.046	15.55
223.43	19.76
223.815	14.77
224.199	-0.37
224.583	9.83
224.968	10.78
225.352	10.82
225.736	-4.42
226.121	-0.24
226.505	4.45
226.889	6.86
227.273	7.88
227.657	10.34
228.041	7.57
228.425	8.08
228.809	13.6
229.193	8.01
229.577	7.71
229.961	8.04
230.344	8.24
230.728	7.23
231.112	7.99
231.495	7.91
231.879	8.24
232.263	7.97
232.646	10.45
233.03	7.57
233.413	7.8
233.797	7.8
234.18	2.99
234.563	8.98
234.946	8.71
235.33	8.84
235.713	8.26
236.096	8.14
236.479	7.25
236.862	6.03
237.245	9.69
237.628	7.88
238.011	6.8
238.394	10.37
238.777	9.36
239.16	4.25
239.543	7.35
239.925	7.86
240.308	5.15
240.691	9.35
241.073	6.75
241.456	6.65
241.838	6.88
242.221	5.98
242.603	7.95
242.986	7.64
243.368	7.32
243.75	7.73
244.133	7.04
244.515	7.63
244.897	7.43
245.279	7.24
245.661	7.1
246.043	6.68
246.425	6.09
246.807	8.41
247.189	7.28
247.571	6.46
247.953	7.41
248.335	6.54
248.717	6.74
249.098	6.73
249.48	6.98
249.862	7.36
250.243	6.42
250.625	6.53
251.006	7.43
251.388	5.9
251.769	7.05
252.151	6.71
252.532	6.47
252.913	6.38
253.295	5.51
253.676	6.57
254.057	7.12
254.438	6.58
254.819	6.8
255.2	5.42
255.581	6.44
255.962	5.46
256.343	6.09
256.724	5.14
257.105	6.28
257.486	7.34
257.867	7.06
258.247	6.81
258.628	6.99
259.009	5.51
259.389	6.78
259.77	6.92
260.15	5.38
260.531	5.19
260.911	6.37
261.292	6.09
261.672	6.32
262.052	6.25
262.432	6.51
262.813	6.29
263.193	6.15
263.573	6.34
263.953	6.59
264.333	7.09
264.713	5.99
265.093	5.14
265.473	5.77
265.853	4.64
266.233	6.5
266.612	5.73
266.992	4.69
267.372	6.75
267.752	5.92
268.131	6.53
268.511	6.3
268.89	6.64
269.27	5.96
269.649	5.41
270.029	5.81
270.408	7.63
270.787	6.4
271.167	6.47
271.546	6.18
271.925	5.15
272.304	6.48
272.683	6.04
273.062	5.42
273.441	6.22
273.82	5.94
274.199	6.25
274.578	5.78
274.957	5.58
275.336	5.8
275.715	5.84
276.093	5.95
276.472	5.83
276.851	5.99
277.229	5.44
277.608	5.25
277.986	5.95
278.365	5.79
278.743	4.75
279.122	5.4
279.5	5.38
279.878	5.63
280.257	5.94
280.635	5.12
281.013	5.11
281.391	5.49
281.769	5.73
282.147	6.22
282.525	6.24
282.903	5.05
283.281	5.86
283.659	5.89
284.037	6.08
284.415	5.66
284.792	6.18
285.17	5.02
285.548	5.47
285.925	5.39
286.303	5.87
286.68	5.42
287.058	5.53
287.435	5.6
287.813	5.6
288.19	5.48
288.567	5.42
288.945	5.85
289.322	5.71
289.699	5.51
290.076	5.75
290.453	5.33
290.83	5.07
291.207	5.61
291.584	5.76
291.961	5.58
292.338	5.21
292.715	5.9
293.092	5.6
293.469	5.58
293.845	5.77
294.222	4.95
294.599	5.45
294.975	5.19
295.352	5.4
295.728	4.67
296.105	4.94
296.481	5.62
296.858	5.61
297.234	4.9
297.61	4.95
297.986	5.46
298.363	5.73
298.739	5.15
299.115	4.9
299.491	4.98
299.867	5.35
300.243	5.53
300.619	4.59
300.995	5.3
301.371	5.37
301.746	4.77
302.122	5.28
302.498	5.01
302.874	5.22
303.249	5.03
303.625	5.02
304	5.3
304.376	5.24
304.751	4.45
305.127	5.76
305.502	4.91
305.878	4.4
306.253	4.77
306.628	5.25
307.003	4.87
307.378	5.44
307.754	4.65
308.129	4.53
308.504	4.84
308.879	4.31
309.254	5.46
309.629	5.16
310.003	4.95
310.378	5.19
310.753	5.1
311.128	5.05
311.502	5.13
311.877	5.41
312.252	4.5
312.626	5.22
313.001	4.78
313.375	5.16
313.75	4.75
314.124	5.16
314.498	4.8
314.873	4.99
315.247	4.75
315.621	5.15
315.995	4.35
316.369	5.1
316.743	4.43
317.117	5.45
317.491	4.7
317.865	5.02
318.239	4.93
318.613	4.62
318.987	4.91
319.361	4.46
319.734	4.72
320.108	4.98
320.482	4.92
320.855	4.85
321.229	4.86
321.602	4.35
321.976	4.94
322.349	4.51
322.723	4.34
323.096	5.23
323.469	3.97
323.843	4.74
324.216	4.82
324.589	4.17
324.962	4.54
325.335	5.09
325.708	4.75
326.081	4.76
326.454	4.72
326.827	4.47
327.2	4.74
327.573	4.95
327.945	4.82
328.318	4.41
328.691	4.05
329.063	4.5
329.436	4.26
329.809	5.22
330.181	4.03
330.553	4.56
330.926	4.77
331.298	4.8
331.671	4.62
332.043	4.97
332.415	4.61
332.787	5.25
333.159	5.09
333.532	4.42
333.904	5.08
334.276	4.8
334.648	4.7
335.02	5.03
335.391	4.45
335.763	4.68
336.135	4.77
336.507	4.88
336.879	4.42
337.25	4.47
337.622	4.72
337.993	4.36
338.365	4.8
338.736	5.07
339.108	4.5
339.479	4.96
339.851	4.85
340.222	4.23
340.593	4.75
340.964	4.85
341.336	5.37
341.707	4.44
342.078	5.13
342.449	5.02
342.82	4.65
343.191	4.94
343.562	4.87
343.933	4.91
344.303	4.52
344.674	5.14
345.045	5
345.416	5.03
345.786	4.2
346.157	4.8
346.527	4.36
346.898	4.37
347.268	4.83
347.639	4.38
348.009	5.08
348.38	4.28
348.75	4.2
349.12	4.45
349.49	5.16
349.861	4.94
350.231	4.93
350.601	4.64
350.971	5.07
351.341	4.81
351.711	4.88
352.081	4.63
352.45	4.86
352.82	5.13
353.19	4.88
353.56	4.06
353.929	5.21
354.299	4.97
354.669	4.48
355.038	4.96
355.408	4.79
355.777	4.9
356.147	4.21
356.516	4.89
356.885	4.97
357.254	4.71
357.624	4.9
357.993	4.86
358.362	4.37
358.731	4.4
359.1	4.72
359.469	4.58
359.838	5.03
360.207	4.89
360.576	4.72
360.945	4.68
361.314	5.06
361.682	4.78
362.051	4.39
362.42	4.98
362.788	4.72
363.157	4.94
363.525	4.88
363.894	4.86
364.262	4.83
364.631	4.63
364.999	4.92
365.367	4.57
365.735	5.21
366.104	4.74
366.472	4.93
366.84	4.8
367.208	4.75
367.576	5.24
367.944	5.11
368.312	4.36
368.68	4.46
369.048	4.83
369.416	4.55
369.783	4.76
370.151	5.11
370.519	5.63
370.886	5.03
371.254	4.92
371.621	5.07
371.989	5.01
372.356	4.43
372.724	4.82
373.091	4.77
373.458	4.82
373.826	4.95
374.193	4.84
374.56	5.41
374.927	5.18
375.294	4.69
375.661	4.94
376.028	4.82
376.395	4.7
376.762	5.19
377.129	4.82
377.496	4.72
377.863	4.95
378.229	4.66
378.596	5.13
378.963	4.9
379.329	4.92
379.696	5.15
380.062	5
380.429	5.11
380.795	5.04
381.161	5.15
381.528	5.21
381.894	5
382.26	4.77
382.626	5.14
382.993	5.08
383.359	5.57
383.725	4.65
384.091	4.79
384.457	5.22
384.823	4.86
385.188	5
385.554	4.93
385.92	5.15
386.286	5.02
386.651	5.16
387.017	5.29
387.383	5.14
387.748	4.82
388.114	5.49
388.479	4.97
388.845	5.27
389.21	5.16
389.575	5.4
389.94	5.07
390.306	5.35
390.671	5.55
391.036	4.65
391.401	4.84
391.766	5.16
392.131	5.12
392.496	5.2
392.861	4.98
393.226	5.17
393.591	5.16
393.956	4.99
394.32	5.24
394.685	5.08
395.05	4.85
395.414	5.2
395.779	5.1
396.143	5.08
396.508	5.02
396.872	5.22
397.236	5.44
397.601	4.92
397.965	5.39
398.329	5.22
398.694	5.25
399.058	5.17
399.422	4.81
399.786	5.47
400.15	5.31
400.514	5.25
400.878	5.4
401.242	5.33
401.605	5.14
401.969	5.15
402.333	5.44
402.697	5.28
403.06	5.27
403.424	5.51
403.787	5.13
404.151	5.31
404.514	5.28
404.878	5.1
405.241	5.5
405.604	5.3
405.968	5.11
406.331	5.39
406.694	5.5
407.057	5.12
407.42	5.48
407.783	5
408.146	5.27
408.509	5.23
408.872	5.44
409.235	5.21
409.598	5.49
409.961	5.36
410.323	5.23
410.686	5.18
411.049	5.4
411.411	5.18
411.774	5.2
412.136	5.29
412.499	5.16
412.861	5.35
413.223	5.27
413.586	5.26
413.948	5.52
414.31	5.44
414.672	5.37
415.035	5.21
415.397	5.83
415.759	5.16
416.121	5.56
416.483	5.17
416.845	5.32
417.206	5.2
417.568	5.42
417.93	5.26
418.292	5.11
418.653	5.27
419.015	5.39
419.377	5.34
419.738	5.21
420.1	5.4
420.461	5.42
420.822	5.31
421.184	5.22
421.545	5.34
421.906	5.13
422.267	5.19
422.629	5.23
422.99	5.26
423.351	5.28
423.712	5.26
424.073	5.34
424.434	5.29
424.795	5.31
425.155	5.29
425.516	5.11
425.877	5.24
426.238	5.15
426.598	5.41
426.959	5.24
427.32	5.32
427.68	5.27
428.041	5.24
428.401	5.46
428.761	5.44
429.122	5.42
429.482	5.29
429.842	5.54
430.202	5.52
430.563	5.36
430.923	5.33
431.283	5.42
431.643	5.42
432.003	5.55
432.363	5.47
432.722	5.37
433.082	5.46
433.442	5.38
433.802	5.22
434.161	5.43
434.521	5.49
434.881	5.43
435.24	5.22
435.6	5.27
435.959	5.33
436.319	5.3
436.678	5.5
437.037	5.63
437.396	5.43
437.756	5.49
438.115	5.44
438.474	5.63
438.833	5.35
439.192	5.44
439.551	5.4
439.91	5.38
440.269	5.38
440.628	5.4
440.987	5.37
441.345	5.26
441.704	5.31
442.063	5.27
442.421	5.3
442.78	5.33
443.138	5.35
443.497	5.38
443.855	5.44
444.214	5.45
444.572	5.58
444.93	5.32
445.288	5.45
445.647	5.49
446.005	5.34
446.363	5.46
446.721	5.45
447.079	5.18
447.437	5.28
447.795	5.26
448.153	5.2
448.51	5.19
448.868	5.36
449.226	5.41
449.584	5.34
449.941	5.46
450.299	5.39
450.656	5.45
451.014	5.56
451.371	5.38
451.729	5.43
452.086	5.57
452.443	5.36
452.801	5.59
453.158	5.54
453.515	5.41
453.872	5.55
454.229	5.32
454.586	5.22
454.943	5.4
455.3	5.5
455.657	5.48
456.014	5.28
456.371	5.38
456.727	5.47
457.084	5.6
457.441	5.4
457.797	5.52
458.154	5.74
458.51	5.54
458.867	5.53
459.223	5.54
459.58	5.49
459.936	5.44
460.292	5.45
460.648	5.3
461.005	5.27
461.361	5.34
461.717	5.3
462.073	5.3
462.429	5.41
462.785	5.46
463.141	5.42
463.496	5.47
463.852	5.57
464.208	5.5
464.564	5.59
464.919	5.58
465.275	5.33
465.631	5.5
465.986	5.35
466.342	5.4
466.697	5.34
467.052	5.32
467.408	5.44
467.763	5.3
468.118	5.36
468.473	5.33
468.829	5.37
469.184	5.29
469.539	5.52
469.894	5.35
470.249	5.44
470.603	5.53
470.958	5.55
471.313	5.54
471.668	5.67
472.023	5.56
472.377	5.23
472.732	5.55
473.086	5.32
473.441	5.16
473.795	5.52
474.15	5.67
474.504	5.6
474.859	5.45
475.213	5.38
475.567	5.4
475.921	5.4
476.275	5.4
476.63	5.58
476.984	5.7
477.338	5.59
477.692	5.41
478.045	5.3
478.399	5.36
478.753	5.5
479.107	5.54
479.461	5.51
479.814	5.41
480.168	5.44
480.521	5.49
480.875	5.49
481.228	5.48
481.582	5.46
481.935	5.38
482.289	5.34
482.642	5.4
482.995	5.37
483.348	5.46
483.701	5.42
484.055	5.47
484.408	5.4
484.761	5.26
485.114	5.14
485.466	5
485.819	5.08
486.172	5.16
486.525	5.24
486.878	5.29
487.23	5.34
487.583	5.41
487.936	5.39
488.288	5.33
488.641	5.29
488.993	5.16
489.345	5.21
489.698	5.24
490.05	5.2
490.402	5.31
490.754	5.32
491.107	5.37
491.459	5.49
491.811	5.43
492.163	5.49
492.515	5.37
492.866	5.35
493.218	5.29
493.57	5.21
493.922	5.34
494.274	5.39
494.625	5.54
494.977	5.59
495.328	5.52
495.68	5.64
496.031	5.59
496.383	5.5
496.734	5.63
497.086	5.54
497.437	5.58
497.788	5.62
498.139	5.35
498.49	5.48
498.842	5.43
499.193	5.49
499.544	5.53
499.894	5.5
500.245	5.52
500.596	5.5
500.947	5.55
501.298	5.48
501.648	5.5
501.999	5.64
502.35	5.54
502.7	5.52
503.051	5.33
503.401	5.44
503.752	5.53
504.102	5.53
504.452	5.61
504.803	5.43
505.153	5.44
505.503	5.46
505.853	5.5
506.203	5.48
506.553	5.51
506.903	5.5
507.253	5.48
507.603	5.42
507.953	5.66
508.303	5.66
508.652	5.58
509.002	5.68
509.352	5.61
509.701	5.47
510.051	5.31
510.4	5.47
510.75	5.54
511.099	5.44
511.449	5.56
511.798	5.49
512.147	5.54
512.496	5.58
512.846	5.58
513.195	5.57
513.544	5.55
513.893	5.45
514.242	5.43
514.591	5.63
514.939	5.49
515.288	5.47
515.637	5.62
515.986	5.65
516.334	5.62
516.683	5.62
517.032	5.62
517.38	5.62
517.729	5.56
518.077	5.53
518.426	5.44
518.774	5.68
519.122	5.46
519.47	5.44
519.819	5.44
520.167	5.49
520.515	5.54
520.863	5.51
521.211	5.53
521.559	5.49
521.907	5.48
522.255	5.53
522.602	5.64
522.95	5.52
523.298	5.47
523.645	5.71
523.993	5.53
524.341	5.58
524.688	5.67
525.036	5.53
525.383	5.46
525.73	5.7
526.078	5.63
526.425	5.41
526.772	5.58
527.119	5.4
527.466	5.35
527.814	5.4
528.161	5.52
528.508	5.57
528.854	5.49
529.201	5.5
529.548	5.52
529.895	5.33
530.242	5.18
530.588	5.25
530.935	5.35
531.282	5.44
531.628	5.41
531.975	5.47
532.321	5.62
532.667	5.65
533.014	5.6
533.36	5.61
533.706	5.53
534.052	5.5
534.399	5.4
534.745	5.29
535.091	5.38
535.437	5.42
535.783	5.5
536.129	5.54
536.474	5.56
536.82	5.55
537.166	5.57
537.512	5.64
537.857	5.6
538.203	5.47
538.549	5.47
538.894	5.52
539.239	5.63
539.585	5.6
539.93	5.53
540.276	5.69
540.621	5.75
540.966	5.83
541.311	5.57
541.656	5.59
542.001	5.63
542.346	5.61
542.691	5.44
543.036	5.24
543.381	5.29
543.726	5.38
544.071	5.53
544.415	5.58
544.76	5.44
545.105	5.54
545.449	5.67
545.794	5.61
546.138	5.55
546.483	5.68
546.827	5.67
547.171	5.44
547.516	5.71
547.86	5.58
548.204	5.45
548.548	5.5
548.892	5.65
549.236	5.62
549.58	5.64
549.924	5.57
550.268	5.73
550.612	5.85
550.956	5.83
551.3	5.74
551.643	5.83
551.987	5.77
552.33	5.67
552.674	5.65
553.017	5.64
553.361	5.64
553.704	5.79
554.048	5.52
554.391	5.53
554.734	5.56
555.077	5.69
555.42	5.5
555.764	5.52
556.107	5.5
556.45	5.51
556.793	5.62
557.135	5.66
557.478	5.92
557.821	5.45
558.164	5.55
558.507	5.48
558.849	5.57
559.192	5.64
559.534	5.64
559.877	5.72
560.219	5.65
560.562	5.78
560.904	5.52
561.246	5.76
561.589	5.53
561.931	5.71
562.273	5.63
562.615	5.69
562.957	5.58
563.299	5.31
563.641	5.52
563.983	5.64
564.325	5.56
564.667	5.53
565.008	5.6
565.35	5.44
565.692	5.38
566.033	5.6
566.375	5.81
566.716	6.03
567.058	5.59
567.399	5.56
567.741	5.59
568.082	5.5
568.423	5.57
568.764	5.58
569.105	5.68
569.447	5.73
569.788	5.64
570.129	5.66
570.47	5.47
570.811	5.79
571.151	5.36
571.492	5.61
571.833	5.69
572.174	5.65
572.514	5.73
572.855	5.65
573.195	5.47
573.536	5.59
573.876	5.3
574.217	5.51
574.557	5.72
574.898	5.52
575.238	5.71
575.578	5.49
575.918	5.67
576.258	5.67
576.598	5.47
576.938	5.54
577.278	5.42
577.618	5.65
577.958	5.52
578.298	5.51
578.638	5.45
578.977	5.38
579.317	5.44
579.657	5.74
579.996	5.76
580.336	5.69
580.675	5.4
581.014	5.45
581.354	5.52
581.693	5.76
582.032	5.4
582.372	5.47
582.711	5.75
583.05	5.41
583.389	5.63
583.728	5.6
584.067	5.85
584.406	5.45
584.745	5.45
585.083	5.38
585.422	5.65
585.761	5.64
586.1	5.46
586.438	5.58
586.777	5.76
587.115	5.66
587.454	5.76
587.792	5.48
588.13	5.84
588.469	5.48
588.807	5.49
589.145	5.32
589.483	5.64
589.821	5.48
590.159	5.58
590.497	5.66
590.835	5.97
591.173	5.33
591.511	5.65
591.849	5.65
592.187	5.73
592.524	5.61
592.862	5.45
593.2	5.6
593.537	5.63
593.875	5.34
594.212	5.37
594.55	5.78
594.887	5.84
595.224	5.7
595.561	5.67
595.899	5.48
596.236	5.35
596.573	5.65
596.91	5.26
597.247	5.52
597.584	5.77
597.921	5.46
598.258	5.23
598.594	5.38
598.931	5.4
599.268	5.64
599.604	5.51
599.941	5.82
600.277	5.43
600.614	5.45
600.95	5.57
601.287	5.63
601.623	5.48
601.959	5.27
602.296	5.44
602.632	5.58
602.968	5.54
603.304	5.49
603.64	5.76
603.976	5.86
604.312	5.45
604.648	5.57
604.984	5.74
605.319	5.63
605.655	5.69
605.991	5.53
606.326	5.33
606.662	5.44
606.998	5.42
607.333	5.72
607.668	5.55
608.004	5.76
608.339	5.59
608.674	5.52
609.01	5.44
609.345	5.39
609.68	5.81
610.015	5.4
610.35	5.53
610.685	5.5
611.02	5.45
611.355	5.32
611.689	5.29
612.024	5.47
612.359	5.5
612.694	5.64
613.028	5.36
613.363	5.6
613.697	5.67
614.032	5.66
614.366	5.58
614.7	5.8
615.035	5.83
615.369	5.29
615.703	5.55
616.037	5.74
616.371	5.41
616.705	5.38
617.039	5.17
617.373	5.18
617.707	5.62
618.041	5.67
618.375	5.71
618.709	5.6
619.042	5.03
619.376	5.55
619.71	5.49
620.043	5.64
620.377	5.31
620.71	5.41
621.043	5.48
621.377	5.52
621.71	5.53
622.043	5.36
622.376	5.44
622.709	5.42
623.043	5.6
623.376	5.8
623.709	5.39
624.041	6.12
624.374	5.43
624.707	5.05
625.04	5.52
625.373	5.19
625.705	5.08
626.038	5.25
626.37	5.07
626.703	5.48
627.035	5.55
627.368	5.85
627.7	5.78
628.032	5.45
628.365	5.81
628.697	5.65
629.029	5.19
629.361	5.41
629.693	5.48
630.025	5.65
630.357	5.64
630.689	5.67
631.021	5.7
631.353	5.36
631.684	5.18
632.016	5.2
632.348	5.53
632.679	5.43
633.011	5.53
633.342	5.84
633.674	5.21
634.005	6.05
634.336	5.17
634.668	5.91
634.999	5.31
635.33	5.66
635.661	5.85
635.992	5.53
636.323	5.64
636.654	5.72
636.985	5.42
637.316	5.41
637.647	5.4
637.977	5.77
638.308	5.81
638.639	5.33
638.969	5.37
639.3	5.47
639.63	5.16
639.961	5.26
640.291	5.34
640.622	5.82
640.952	4.99
641.282	5.71
641.612	5.59
641.943	5.48
642.273	5.61
642.603	5.67
642.933	5.71
643.263	5.68
643.592	5.54
643.922	5.15
644.252	5.4
644.582	5.51
644.911	5.36
645.241	4.94
645.571	5.32
645.9	5.4
646.23	5.23
646.559	6.07
646.888	5.37
647.218	4.88
647.547	5.88
647.876	5.46
648.205	5.36
648.534	5.23
648.863	5.05
649.192	5.65
649.521	5.76
649.85	5.26
650.179	5.37
650.508	5.34
650.837	5.38
651.165	5.08
651.494	5.08
651.822	5.35
652.151	5.13
652.479	5.66
652.808	5.29
653.136	5.79
653.465	5.17
653.793	5.27
654.121	4.9
654.449	5.7
654.777	5.56
655.105	5.53
655.433	4.94
655.761	5.53
656.089	5.5
656.417	5.67
656.745	5.4
657.073	5.53
657.4	5.81
657.728	5.2
658.056	4.87
658.383	4.74
658.711	5.07
659.038	5.48
659.365	5.76
659.693	5.35
660.02	5.46
660.347	5.39
660.674	5.75
661.001	5.67
661.329	5.09
661.656	5.66
661.982	5.52
662.309	5.4
662.636	5.34
662.963	5.42
663.29	5.68
663.616	5.21
663.943	5.6
664.27	5.57
664.596	6.15
664.923	5.72
665.249	5.5
665.576	5.25
665.902	6.34
666.228	5.42
666.554	5.52
666.881	5.09
667.207	5.58
667.533	5.61
667.859	5.66
668.185	5.51
668.511	4.55
668.837	4.76
669.162	5.41
669.488	4.83
669.814	5.89
670.139	5.61
670.465	5.78
670.791	5.78
671.116	6.26
671.442	5.31
671.767	5.79
672.092	5.95
672.418	5.26
672.743	5.28
673.068	5.39
673.393	5.66
673.718	5.82
674.043	5.34
674.368	5.54
674.693	5.86
675.018	5.52
675.343	5.94
675.667	5.35
675.992	5.47
676.317	5.47
676.641	5.87
676.966	6.09
677.29	5.57
677.615	5.58
677.939	5.51
678.264	6.19
678.588	5.87
678.912	5.82
679.236	6.35
679.56	4.73
679.885	5.78
680.209	5.31
680.532	5.68
680.856	6.28
681.18	5.54
681.504	5.55
681.828	6.06
682.152	5.45
682.475	5.08
682.799	5.54
683.122	5.39
683.446	5.42
683.769	6.07
684.093	5.15
684.416	6.43
684.739	5.54
685.062	5.08
685.386	6.28
685.709	5.07
686.032	5.61
686.355	5.95
686.678	5.23
687.001	5.82
687.324	5.95
687.646	6.04
687.969	5.26
688.292	5.53
688.614	4.51
688.937	6.39
689.26	5.72
689.582	5.38
689.904	5.08
690.227	5.49
690.549	6.18
690.871	6.54
691.194	5.38
691.516	5.76
691.838	5.66
692.16	4.78
692.482	5.1
