Data from 0419_crown_Reflection__2__07.txt Node

Date: Fri Dec 15 16:31:14 CST 2023
User: ToomeyLab
Spectrometer: FLMS14357
Trigger mode: 0
Integration Time (sec): 1.000000E-2
Scans to average: 100
Electric dark correction enabled: true
Nonlinearity correction enabled: false
Boxcar width: 0
XAxis mode: Wavelengths
Number of Pixels in Spectrum: 2048
>>>>>Begin Spectral Data<<<<<
189.047	83.77
189.435	83.77
189.823	83.77
190.211	-66.27
190.599	-21.56
190.987	44.21
191.375	-56.35
191.763	1495.25
192.151	-95.57
192.538	296.69
192.926	-616.78
193.314	815.99
193.702	97.79
194.089	-85.83
194.477	39.99
194.864	256.81
195.252	111.12
195.639	126.12
196.027	-29.47
196.414	68.28
196.801	-2.5
197.189	507.19
197.576	-143.78
197.963	97.91
198.351	2.87
198.738	0.9
199.125	10.34
199.512	12.06
199.899	53.81
200.286	31.74
200.673	-21.11
201.06	46.93
201.447	-7.22
201.833	41.34
202.22	85.26
202.607	49.57
202.994	53.88
203.38	24.5
203.767	15.47
204.154	24.56
204.54	35.87
204.927	-58.59
205.313	-34.98
205.699	36.03
206.086	22.16
206.472	36.49
206.858	21.61
207.245	-14
207.631	24.82
208.017	4.61
208.403	34.85
208.789	47.19
209.175	24.42
209.561	-2.73
209.947	33.39
210.333	-44.72
210.719	18.07
211.105	32.3
211.491	-9.83
211.876	-6.92
212.262	24.13
212.648	29.33
213.034	29.1
213.419	16.42
213.805	32.23
214.19	-9.22
214.576	1.55
214.961	19.54
215.346	-26.42
215.732	5.6
216.117	24.58
216.502	18.54
216.888	27.41
217.273	32.63
217.658	6.25
218.043	12.16
218.428	-12.97
218.813	-20.26
219.198	29.7
219.583	5.75
219.968	15.95
220.353	21.67
220.738	27.88
221.122	16.28
221.507	13.68
221.892	-15.33
222.276	8.82
222.661	7.71
223.046	23.67
223.43	0.54
223.815	16.33
224.199	7.01
224.583	10.33
224.968	9.16
225.352	11.04
225.736	11.69
226.121	1.01
226.505	7.49
226.889	17.47
227.273	3.35
227.657	11.27
228.041	5.86
228.425	5.01
228.809	4.19
229.193	3.06
229.577	4.2
229.961	4.95
230.344	4.08
230.728	5.27
231.112	5.8
231.495	6.3
231.879	5.29
232.263	7.7
232.646	6.76
233.03	6.39
233.413	3.96
233.797	5.39
234.18	5.2
234.563	5.41
234.946	4.63
235.33	5.28
235.713	7
236.096	5.37
236.479	6.55
236.862	4.91
237.245	7.09
237.628	5.46
238.011	5.47
238.394	6.12
238.777	7.38
239.16	4.31
239.543	5.59
239.925	5.53
240.308	5.05
240.691	8.39
241.073	5.68
241.456	5.74
241.838	4.58
242.221	3.77
242.603	6.26
242.986	5.4
243.368	5.22
243.75	5.04
244.133	4.82
244.515	4.84
244.897	5.47
245.279	5.08
245.661	4.43
246.043	3.76
246.425	4.02
246.807	6.06
247.189	5.59
247.571	5.33
247.953	4.95
248.335	4.59
248.717	4.66
249.098	4.65
249.48	4.95
249.862	4.66
250.243	5.06
250.625	4.99
251.006	5.72
251.388	3.82
251.769	4.27
252.151	5.58
252.532	4.42
252.913	3.94
253.295	4.12
253.676	4.84
254.057	4.25
254.438	5.23
254.819	4.79
255.2	5.05
255.581	4.21
255.962	4.7
256.343	4.45
256.724	4.39
257.105	3.97
257.486	5.52
257.867	4.59
258.247	4.93
258.628	4.23
259.009	4.94
259.389	4.9
259.77	4.3
260.15	4.34
260.531	4
260.911	4.67
261.292	4.02
261.672	4.24
262.052	4.27
262.432	4.88
262.813	5.27
263.193	4.65
263.573	4.16
263.953	4.34
264.333	4.14
264.713	4.98
265.093	3.94
265.473	3.95
265.853	3.83
266.233	4.02
266.612	2.71
266.992	3.9
267.372	4.69
267.752	4.32
268.131	4.13
268.511	4.5
268.89	4.1
269.27	3.93
269.649	4.1
270.029	4
270.408	5.63
270.787	4.54
271.167	4.86
271.546	4.95
271.925	4.12
272.304	4.21
272.683	4
273.062	4.22
273.441	4.56
273.82	3.81
274.199	4.11
274.578	4.26
274.957	4.23
275.336	4.06
275.715	3.68
276.093	4.19
276.472	4.13
276.851	3.66
277.229	3.79
277.608	3.66
277.986	4.57
278.365	4.57
278.743	4.1
279.122	4.04
279.5	4.5
279.878	5.05
280.257	4.36
280.635	3.43
281.013	4.09
281.391	4.68
281.769	4.59
282.147	4.76
282.525	4.83
282.903	3.54
283.281	4.18
283.659	4.3
284.037	4.43
284.415	4.25
284.792	4.42
285.17	3.79
285.548	3.16
285.925	4.46
286.303	4.17
286.68	3.57
287.058	4.24
287.435	3.94
287.813	4.12
288.19	3.64
288.567	3.96
288.945	4.47
289.322	4.18
289.699	3.87
290.076	3.61
290.453	4.13
290.83	4.04
291.207	3.8
291.584	4.08
291.961	4.37
292.338	3.61
292.715	4.07
293.092	3.49
293.469	3.55
293.845	4.11
294.222	4.07
294.599	3.78
294.975	3.29
295.352	4.48
295.728	3.36
296.105	3.76
296.481	4.05
296.858	3.66
297.234	3.31
297.61	3.97
297.986	3.58
298.363	3.83
298.739	4.07
299.115	3.41
299.491	3.8
299.867	3.71
300.243	3.85
300.619	3.59
300.995	3.66
301.371	4.1
301.746	3.37
302.122	3.8
302.498	3.45
302.874	3.32
303.249	3.58
303.625	3.46
304	4.08
304.376	3.58
304.751	3.61
305.127	4.92
305.502	3.34
305.878	3.35
306.253	3.83
306.628	4.06
307.003	3.75
307.378	4.23
307.754	3.38
308.129	3.2
308.504	4.45
308.879	3.34
309.254	4.46
309.629	4.05
310.003	3.49
310.378	4.04
310.753	3.59
311.128	3.45
311.502	3.47
311.877	3.89
312.252	3.32
312.626	3.42
313.001	3.59
313.375	3.76
313.75	3.31
314.124	3.44
314.498	3.46
314.873	4
315.247	3
315.621	3.31
315.995	2.99
316.369	3.17
316.743	3.54
317.117	3.67
317.491	3.36
317.865	3.29
318.239	3.73
318.613	3.99
318.987	3.93
319.361	3.13
319.734	3.84
320.108	3.9
320.482	3.78
320.855	3.77
321.229	3.29
321.602	3.73
321.976	3.79
322.349	3.41
322.723	3.81
323.096	3.94
323.469	2.97
323.843	3.69
324.216	3.58
324.589	3.54
324.962	3.35
325.335	3.86
325.708	3.36
326.081	3.49
326.454	3.29
326.827	3.34
327.2	3.12
327.573	3.98
327.945	3.55
328.318	3.37
328.691	2.67
329.063	3.7
329.436	3.48
329.809	4.12
330.181	3
330.553	3.5
330.926	3.6
331.298	3.89
331.671	2.69
332.043	3.55
332.415	3.81
332.787	3.42
333.159	4.14
333.532	3.76
333.904	3.29
334.276	3.44
334.648	3.4
335.02	3.42
335.391	3.32
335.763	3.9
336.135	2.83
336.507	3.26
336.879	3.59
337.25	2.94
337.622	2.94
337.993	3.79
338.365	3.36
338.736	3.66
339.108	3.83
339.479	3.44
339.851	3.67
340.222	3.52
340.593	3.14
340.964	3.52
341.336	4.28
341.707	3.13
342.078	3.98
342.449	3.59
342.82	3.27
343.191	3.84
343.562	3.85
343.933	3.59
344.303	3.56
344.674	3.64
345.045	3.67
345.416	3.94
345.786	3.39
346.157	3.63
346.527	3.03
346.898	3.32
347.268	3.94
347.639	3.37
348.009	3.73
348.38	3.02
348.75	3.04
349.12	3.66
349.49	3.65
349.861	3.88
350.231	3.58
350.601	3.31
350.971	3.58
351.341	3.2
351.711	3.65
352.081	3.47
352.45	3.11
352.82	3.48
353.19	3.25
353.56	3.57
353.929	3.86
354.299	3.33
354.669	3.24
355.038	3.75
355.408	2.95
355.777	3.65
356.147	3.48
356.516	3.69
356.885	3.7
357.254	3.35
357.624	3.86
357.993	3.79
358.362	3.27
358.731	3.24
359.1	3.64
359.469	3.62
359.838	3.64
360.207	3.63
360.576	3.05
360.945	3.5
361.314	3.82
361.682	3.15
362.051	3.5
362.42	3.6
362.788	3.39
363.157	3.74
363.525	3.79
363.894	3.63
364.262	3.65
364.631	3.66
364.999	3.99
365.367	3.34
365.735	4.4
366.104	3.56
366.472	3.67
366.84	3.19
367.208	3.28
367.576	3.91
367.944	3.71
368.312	3.42
368.68	3.28
369.048	3.8
369.416	3.61
369.783	3.38
370.151	3.64
370.519	4.24
370.886	3.68
371.254	3.64
371.621	3.6
371.989	3.91
372.356	3.22
372.724	3.63
373.091	3.49
373.458	3.83
373.826	3.27
374.193	3.63
374.56	3.57
374.927	3.58
375.294	3.75
375.661	3.35
376.028	3.73
376.395	3.33
376.762	3.77
377.129	3.46
377.496	3.45
377.863	3.63
378.229	3.46
378.596	3.61
378.963	3.43
379.329	3.19
379.696	3.67
380.062	3.82
380.429	3.59
380.795	3.59
381.161	3.62
381.528	4.07
381.894	3.81
382.26	3.52
382.626	3.83
382.993	3.47
383.359	4
383.725	3.41
384.091	3.69
384.457	3.8
384.823	3.65
385.188	4.1
385.554	3.55
385.92	3.76
386.286	3.91
386.651	3.67
387.017	3.89
387.383	3.83
387.748	3.38
388.114	4.01
388.479	3.54
388.845	3.95
389.21	3.88
389.575	3.86
389.94	3.9
390.306	3.81
390.671	3.78
391.036	3.28
391.401	3.51
391.766	3.86
392.131	3.73
392.496	3.7
392.861	3.3
393.226	3.82
393.591	3.95
393.956	3.56
394.32	3.84
394.685	3.59
395.05	3.52
395.414	3.93
395.779	3.38
396.143	3.82
396.508	3.79
396.872	3.96
397.236	3.87
397.601	3.73
397.965	3.86
398.329	3.94
398.694	3.88
399.058	3.72
399.422	3.66
399.786	3.96
400.15	3.86
400.514	3.86
400.878	3.9
401.242	3.94
401.605	3.92
401.969	3.83
402.333	4.1
402.697	3.83
403.06	3.97
403.424	4.2
403.787	3.67
404.151	4.21
404.514	3.72
404.878	3.74
405.241	3.94
405.604	3.78
405.968	4.01
406.331	3.93
406.694	4.05
407.057	4.08
407.42	3.9
407.783	3.69
408.146	3.78
408.509	3.76
408.872	3.72
409.235	3.75
409.598	4.23
409.961	3.83
410.323	3.94
410.686	3.83
411.049	3.9
411.411	3.74
411.774	3.8
412.136	3.8
412.499	3.62
412.861	3.92
413.223	3.86
413.586	3.71
413.948	3.79
414.31	4
414.672	3.6
415.035	3.81
415.397	3.89
415.759	3.7
416.121	3.96
416.483	3.77
416.845	3.65
417.206	3.71
417.568	4.03
417.93	3.63
418.292	3.7
418.653	3.76
419.015	3.77
419.377	3.84
419.738	3.82
420.1	3.66
420.461	3.87
420.822	3.75
421.184	3.76
421.545	3.69
421.906	3.67
422.267	3.72
422.629	3.73
422.99	3.69
423.351	3.81
423.712	3.84
424.073	3.89
424.434	3.86
424.795	3.89
425.155	3.78
425.516	3.73
425.877	3.82
426.238	3.72
426.598	3.87
426.959	3.93
427.32	3.77
427.68	3.88
428.041	3.77
428.401	3.96
428.761	3.9
429.122	3.93
429.482	3.88
429.842	4.04
430.202	3.9
430.563	3.76
430.923	3.57
431.283	4.01
431.643	3.9
432.003	4.03
432.363	3.93
432.722	3.82
433.082	3.9
433.442	3.86
433.802	3.76
434.161	3.66
434.521	3.98
434.881	3.86
435.24	3.72
435.6	3.82
435.959	3.84
436.319	3.96
436.678	3.87
437.037	3.92
437.396	4.13
437.756	3.94
438.115	3.91
438.474	4.04
438.833	3.66
439.192	3.81
439.551	3.92
439.91	3.92
440.269	3.87
440.628	3.89
440.987	3.82
441.345	3.78
441.704	3.79
442.063	3.75
442.421	3.83
442.78	3.73
443.138	3.87
443.497	3.93
443.855	3.98
444.214	3.95
444.572	4.03
444.93	4.1
445.288	3.93
445.647	3.95
446.005	3.82
446.363	3.92
446.721	3.86
447.079	3.75
447.437	3.72
447.795	3.86
448.153	3.62
448.51	3.79
448.868	3.87
449.226	3.9
449.584	3.88
449.941	4.01
450.299	3.92
450.656	3.97
451.014	3.98
451.371	3.87
451.729	3.87
452.086	4.18
452.443	3.81
452.801	4.05
453.158	3.87
453.515	3.82
453.872	4.05
454.229	3.83
454.586	3.94
454.943	3.95
455.3	4.03
455.657	3.96
456.014	4.01
456.371	3.81
456.727	3.92
457.084	4.16
457.441	3.97
457.797	3.86
458.154	4.05
458.51	3.99
458.867	4.13
459.223	4.05
459.58	3.88
459.936	3.93
460.292	3.92
460.648	3.75
461.005	3.71
461.361	3.76
461.717	3.75
462.073	3.83
462.429	3.96
462.785	4.01
463.141	3.94
463.496	4.01
463.852	4.05
464.208	4.08
464.564	4
464.919	4.16
465.275	4.01
465.631	4.11
465.986	4.08
466.342	3.87
466.697	3.86
467.052	4.08
467.408	4.06
467.763	3.99
468.118	3.96
468.473	3.83
468.829	3.95
469.184	3.87
469.539	4.04
469.894	4.01
470.249	4.2
470.603	4.03
470.958	4.05
471.313	3.93
471.668	4.14
472.023	4.06
472.377	3.93
472.732	4
473.086	3.81
473.441	3.84
473.795	4.09
474.15	3.96
474.504	3.8
474.859	4
475.213	3.9
475.567	3.97
475.921	4.13
476.275	4.02
476.63	4.03
476.984	4.11
477.338	4.05
477.692	3.81
478.045	3.85
478.399	4.1
478.753	4.12
479.107	4.04
479.461	4.06
479.814	3.97
480.168	3.92
480.521	3.97
480.875	3.91
481.228	3.95
481.582	3.96
481.935	3.92
482.289	4.01
482.642	3.86
482.995	3.97
483.348	3.82
483.701	3.85
484.055	3.91
484.408	3.8
484.761	3.66
485.114	3.54
485.466	3.39
485.819	3.48
486.172	3.65
486.525	3.85
486.878	3.95
487.23	3.98
487.583	4.02
487.936	3.97
488.288	3.81
488.641	3.75
488.993	3.65
489.345	3.64
489.698	3.71
490.05	3.76
490.402	3.84
490.754	3.92
491.107	3.93
491.459	4
491.811	4.02
492.163	3.89
492.515	3.81
492.866	3.78
493.218	3.66
493.57	3.69
493.922	3.8
494.274	3.97
494.625	4.03
494.977	4.11
495.328	4.18
495.68	4.15
496.031	4.14
496.383	4.02
496.734	4.19
497.086	3.97
497.437	4.03
497.788	4.01
498.139	3.9
498.49	3.88
498.842	3.8
499.193	3.97
499.544	3.96
499.894	4.01
500.245	3.99
500.596	3.92
500.947	4.13
501.298	3.96
501.648	4.13
501.999	4.18
502.35	4.04
502.7	3.99
503.051	4.01
503.401	3.91
503.752	4.08
504.102	4.09
504.452	4.08
504.803	3.96
505.153	4.05
505.503	4.1
505.853	4.03
506.203	3.93
506.553	3.91
506.903	4.06
507.253	4.02
507.603	4.06
507.953	4.22
508.303	4.11
508.652	3.89
509.002	3.92
509.352	4.05
509.701	3.88
510.051	3.89
510.4	3.93
510.75	3.95
511.099	3.97
511.449	3.95
511.798	3.99
512.147	4.01
512.496	3.87
512.846	4.03
513.195	4.02
513.544	3.97
513.893	4.02
514.242	3.79
514.591	4.12
514.939	4.01
515.288	4.06
515.637	4.1
515.986	4.08
516.334	4.07
516.683	4.03
517.032	4.03
517.38	4.1
517.729	4.16
518.077	3.89
518.426	4.02
518.774	4.09
519.122	3.94
519.47	3.91
519.819	3.72
520.167	3.86
520.515	3.88
520.863	3.94
521.211	4.08
521.559	4.14
521.907	3.97
522.255	3.95
522.602	4.03
522.95	4.05
523.298	3.92
523.645	4.11
523.993	4.04
524.341	4.1
524.688	4.15
525.036	4.01
525.383	3.98
525.73	4.05
526.078	4
526.425	3.94
526.772	3.94
527.119	3.87
527.466	3.72
527.814	3.85
528.161	3.99
528.508	3.92
528.854	3.96
529.201	3.82
529.548	3.81
529.895	3.71
530.242	3.49
530.588	3.62
530.935	3.79
531.282	3.82
531.628	3.97
531.975	4.05
532.321	4.09
532.667	4.09
533.014	3.98
533.36	3.93
533.706	3.95
534.052	3.95
534.399	3.77
534.745	3.72
535.091	3.69
535.437	3.86
535.783	3.95
536.129	4.08
536.474	4.04
536.82	4.07
537.166	4.13
537.512	4.03
537.857	4
538.203	3.85
538.549	3.85
538.894	3.91
539.239	4.04
539.585	3.98
539.93	3.94
540.276	4.13
540.621	4.14
540.966	4.15
541.311	3.94
541.656	3.97
542.001	4.03
542.346	3.94
542.691	3.68
543.036	3.59
543.381	3.63
543.726	3.83
544.071	3.99
544.415	4.05
544.76	4.02
545.105	4
545.449	4.06
545.794	4.07
546.138	4.05
546.483	4.15
546.827	4.02
547.171	3.93
547.516	4.2
547.86	3.96
548.204	3.91
548.548	3.9
548.892	3.94
549.236	4.03
549.58	4
549.924	4.03
550.268	4.25
550.612	4.25
550.956	4.25
551.3	4.04
551.643	4.32
551.987	4.22
552.33	4.08
552.674	4.14
553.017	4.1
553.361	3.99
553.704	4.18
554.048	3.96
554.391	3.96
554.734	4.02
555.077	4.04
555.42	3.93
555.764	3.99
556.107	4
556.45	3.93
556.793	4
557.135	4.09
557.478	4.2
557.821	4.01
558.164	4.04
558.507	4.12
558.849	3.96
559.192	4.03
559.534	4.13
559.877	4.23
560.219	3.99
560.562	4.3
560.904	3.99
561.246	4.12
561.589	4.05
561.931	4.01
562.273	3.97
562.615	4.16
562.957	3.97
563.299	3.84
563.641	3.88
563.983	4.04
564.325	3.92
564.667	3.9
565.008	4.17
565.35	4.11
565.692	3.84
566.033	3.83
566.375	4.15
566.716	4.21
567.058	3.97
567.399	3.78
567.741	3.81
568.082	3.84
568.423	4
568.764	4.01
569.105	4.03
569.447	4.09
569.788	4.06
570.129	4.19
570.47	3.98
570.811	3.98
571.151	4.11
571.492	3.82
571.833	3.96
572.174	3.89
572.514	4.07
572.855	4.16
573.195	4.07
573.536	4.02
573.876	3.86
574.217	3.97
574.557	4.06
574.898	4.05
575.238	4.09
575.578	3.97
575.918	4.08
576.258	4.14
576.598	4.04
576.938	3.88
577.278	3.98
577.618	3.94
577.958	4.2
578.298	4.09
578.638	3.92
578.977	3.94
579.317	3.89
579.657	4.06
579.996	4.06
580.336	4.11
580.675	3.96
581.014	4.11
581.354	4
581.693	4.18
582.032	3.67
582.372	3.88
582.711	3.96
583.05	3.84
583.389	4.23
583.728	3.87
584.067	4.2
584.406	4.38
584.745	3.91
585.083	4.38
585.422	3.97
585.761	4.16
586.1	4.07
586.438	4.02
586.777	3.97
587.115	4.28
587.454	3.91
587.792	4.09
588.13	4.14
588.469	3.73
588.807	3.91
589.145	3.96
589.483	4.14
589.821	3.99
590.159	3.98
590.497	4.37
590.835	4.21
591.173	4.05
591.511	4.07
591.849	4.1
592.187	4.12
592.524	3.95
592.862	3.98
593.2	4.25
593.537	4.02
593.875	4.11
594.212	4
594.55	4.05
594.887	4.4
595.224	4.08
595.561	4.35
595.899	4.05
596.236	4.22
596.573	4.06
596.91	3.72
597.247	4.01
597.584	4.33
597.921	3.94
598.258	3.69
598.594	3.74
598.931	3.91
599.268	3.99
599.604	3.89
599.941	4.31
600.277	3.97
600.614	3.93
600.95	4.02
601.287	4.25
601.623	3.87
601.959	3.79
602.296	4.19
602.632	3.84
602.968	3.96
603.304	4.05
603.64	3.86
603.976	3.83
604.312	3.76
604.648	3.83
604.984	3.94
605.319	3.82
605.655	3.88
605.991	3.84
606.326	3.9
606.662	3.84
606.998	3.74
607.333	4.08
607.668	4.03
608.004	4.13
608.339	4.2
608.674	4.15
609.01	4.04
609.345	3.91
609.68	4.1
610.015	3.83
610.35	3.91
610.685	3.93
611.02	3.82
611.355	4.01
611.689	3.91
612.024	4.15
612.359	3.93
612.694	3.99
613.028	3.82
613.363	4.3
613.697	4.24
614.032	4.21
614.366	4.07
614.7	4.03
615.035	4.21
615.369	4
615.703	4.22
616.037	3.85
616.371	3.74
616.705	3.64
617.039	4.05
617.373	3.98
617.707	3.59
618.041	4.04
618.375	3.99
618.709	4.27
619.042	3.92
619.376	4.05
619.71	4.32
620.043	4.26
620.377	3.8
620.71	4.13
621.043	3.76
621.377	3.67
621.71	4.19
622.043	3.87
622.376	3.89
622.709	3.92
623.043	4.06
623.376	4.3
623.709	4.06
624.041	4.18
624.374	4.16
624.707	4.03
625.04	4.3
625.373	3.43
625.705	4.14
626.038	4.08
626.37	3.92
626.703	3.76
627.035	4.54
627.368	4.43
627.7	4.05
628.032	3.9
628.365	4.21
628.697	4.01
629.029	3.83
629.361	4.07
629.693	4.26
630.025	4.23
630.357	4.32
630.689	3.99
631.021	4.13
631.353	3.95
631.684	3.88
632.016	3.83
632.348	4.1
632.679	4.17
633.011	4.31
633.342	4.46
633.674	3.54
634.005	4.13
634.336	4.16
634.668	4.44
634.999	3.32
635.33	3.88
635.661	4.12
635.992	3.97
636.323	3.96
636.654	4.13
636.985	3.79
637.316	3.92
637.647	3.78
637.977	4.29
638.308	4.33
638.639	3.49
638.969	3.89
639.3	3.76
639.63	3.66
639.961	4.16
640.291	4.17
640.622	3.85
640.952	3.98
641.282	4.13
641.612	4.01
641.943	3.88
642.273	4.09
642.603	4.44
642.933	4.12
643.263	4.43
643.592	3.53
643.922	4.02
644.252	3.92
644.582	3.76
644.911	3.7
645.241	4.08
645.571	3.65
645.9	3.5
646.23	3.9
646.559	3.76
646.888	3.75
647.218	3.77
647.547	4.22
647.876	3.28
648.205	3.94
648.534	4.28
648.863	3.46
649.192	4.12
649.521	4.1
649.85	3.91
650.179	3.95
650.508	3.7
650.837	3.54
651.165	3.67
651.494	4.01
651.822	3.81
652.151	3.87
652.479	4.15
652.808	3.72
653.136	4.02
653.465	3.13
653.793	3.7
654.121	3.95
654.449	4.12
654.777	4.25
655.105	3.95
655.433	3.5
655.761	3.92
656.089	4.08
656.417	4.27
656.745	3.64
657.073	3.64
657.4	4.45
657.728	4.26
658.056	3.84
658.383	3.69
658.711	3.9
659.038	4.2
659.365	4.01
659.693	3.81
660.02	3.59
660.347	3.92
660.674	3.91
661.001	4.32
661.329	3.11
661.656	3.9
661.982	4.3
662.309	4.04
662.636	3.33
662.963	4.07
663.29	4.45
663.616	4.2
663.943	3.67
664.27	4.04
664.596	3.93
664.923	4.25
665.249	3.94
665.576	3.96
665.902	4.82
666.228	4.31
666.554	3.81
666.881	3.64
667.207	4.29
667.533	4.17
667.859	4.5
668.185	4.59
668.511	3.51
668.837	3.19
669.162	4.14
669.488	3.45
669.814	4.87
670.139	4.37
670.465	4.43
670.791	4.17
671.116	4.65
671.442	4.22
671.767	3.93
672.092	4.4
672.418	4.15
672.743	4.51
673.068	3.37
673.393	4.38
673.718	3.95
674.043	4.5
674.368	3.59
674.693	4.59
675.018	4.27
675.343	4.28
675.667	4.27
675.992	4.31
676.317	4.24
676.641	3.87
676.966	4.98
677.29	3.97
677.615	4.69
677.939	4.79
678.264	4.36
678.588	4.44
678.912	4.53
679.236	5.23
679.56	3.51
679.885	3.8
680.209	3.82
680.532	4.01
680.856	5.17
681.18	4.2
681.504	4.32
681.828	4.52
682.152	3.72
682.475	4.02
682.799	4.13
683.122	4.24
683.446	3.75
683.769	4.52
684.093	3.57
684.416	4.61
684.739	4.09
685.062	4.17
685.386	4.75
685.709	4.25
686.032	4.5
686.355	4.9
686.678	4.05
687.001	3.83
687.324	4.63
687.646	4.37
687.969	3.45
688.292	4.15
688.614	4.58
688.937	5.01
689.26	3.89
689.582	4.67
689.904	4.11
690.227	4.59
690.549	4.1
690.871	4.12
691.194	3.77
691.516	4.38
691.838	4.39
692.16	4.24
692.482	3.7
692.804	3.97
693.126	4.14
693.448	4.18
