Data from 0419_crown_Reflection__3__08.txt Node

Date: Fri Dec 15 16:31:23 CST 2023
User: ToomeyLab
Spectrometer: FLMS14357
Trigger mode: 0
Integration Time (sec): 1.000000E-2
Scans to average: 100
Electric dark correction enabled: true
Nonlinearity correction enabled: false
Boxcar width: 0
XAxis mode: Wavelengths
Number of Pixels in Spectrum: 2048
>>>>>Begin Spectral Data<<<<<
189.047	-104.73
189.435	-104.73
189.823	-104.73
190.211	75.26
190.599	-63.04
190.987	76.51
191.375	221.3
191.763	547.06
192.151	-56.61
192.538	314.84
192.926	-206.37
193.314	750.34
193.702	143.44
194.089	-261.5
194.477	12.18
194.864	151.58
195.252	98.5
195.639	89.62
196.027	-6.64
196.414	44.63
196.801	149.6
197.189	-256.28
197.576	-89.98
197.963	33.84
198.351	47.57
198.738	-21.61
199.125	6.32
199.512	35.99
199.899	52.27
200.286	17.2
200.673	-5.14
201.06	21.89
201.447	22.4
201.833	28.21
202.22	40.24
202.607	60.27
202.994	8.72
203.38	21.71
203.767	31.73
204.154	58.09
204.54	79.54
204.927	-91.2
205.313	22.52
205.699	16.49
206.086	56.03
206.472	-4.62
206.858	57.71
207.245	42.1
207.631	22.16
208.017	14.65
208.403	27.59
208.789	37.09
209.175	29.73
209.561	-13.5
209.947	-10.79
210.333	1.78
210.719	35.75
211.105	36.9
211.491	-15.24
211.876	35.95
212.262	21.77
212.648	17.27
213.034	29.35
213.419	10.05
213.805	16.1
214.19	5.76
214.576	8.39
214.961	-3.9
215.346	14.81
215.732	15.03
216.117	29.27
216.502	-2.18
216.888	27.63
217.273	6.77
217.658	15.22
218.043	39.06
218.428	12.58
218.813	-12.41
219.198	-13.71
219.583	20.7
219.968	16.88
220.353	19.31
220.738	33.67
221.122	8.05
221.507	6.95
221.892	-12.33
222.276	-8.49
222.661	2.55
223.046	17.35
223.43	16.17
223.815	9.49
224.199	3.9
224.583	6.7
224.968	5.04
225.352	13.68
225.736	9.71
226.121	3.1
226.505	2.07
226.889	16.2
227.273	6.56
227.657	7.71
228.041	4.57
228.425	5.59
228.809	4.69
229.193	3.02
229.577	1.35
229.961	5.59
230.344	2.83
230.728	3.12
231.112	3.86
231.495	3.24
231.879	2.86
232.263	5.35
232.646	4.36
233.03	2.96
233.413	3.44
233.797	3.24
234.18	3.96
234.563	5.1
234.946	3.79
235.33	6.09
235.713	3.96
236.096	3.21
236.479	6.11
236.862	2.92
237.245	5.64
237.628	3.98
238.011	2.74
238.394	3.98
238.777	1.97
239.16	3.49
239.543	5.08
239.925	5.65
240.308	3.61
240.691	3.58
241.073	3.53
241.456	3.77
241.838	2.77
242.221	3.33
242.603	3.87
242.986	2.85
243.368	3.9
243.75	3.11
244.133	2.96
244.515	3.19
244.897	2.76
245.279	3.02
245.661	3.35
246.043	2.78
246.425	2.06
246.807	3.36
247.189	3.05
247.571	3.2
247.953	3.11
248.335	2.62
248.717	2.89
249.098	2.62
249.48	2.75
249.862	2.66
250.243	3.11
250.625	2.73
251.006	3.04
251.388	1.49
251.769	2.75
252.151	2.57
252.532	2.91
252.913	2.11
253.295	2.08
253.676	2.12
254.057	2.89
254.438	2.44
254.819	2.62
255.2	2.39
255.581	2.2
255.962	1.93
256.343	3.35
256.724	2.4
257.105	2.15
257.486	2.64
257.867	3.58
258.247	1.16
258.628	2.47
259.009	2.72
259.389	3.46
259.77	2.39
260.15	2.41
260.531	1.84
260.911	2.64
261.292	2.2
261.672	2.47
262.052	2.35
262.432	2.65
262.813	2.85
263.193	2.12
263.573	2.37
263.953	2.59
264.333	3.07
264.713	2.64
265.093	2.17
265.473	1.67
265.853	1.82
266.233	2.5
266.612	0.18
266.992	1.95
267.372	2.75
267.752	2.49
268.131	2.42
268.511	3.66
268.89	2.82
269.27	2.61
269.649	1.56
270.029	1.78
270.408	4.64
270.787	2.9
271.167	2.87
271.546	3.08
271.925	2.06
272.304	2.69
272.683	2.66
273.062	2.1
273.441	2.73
273.82	1.83
274.199	2.16
274.578	2.54
274.957	2.51
275.336	2.6
275.715	2.14
276.093	2.58
276.472	3.06
276.851	2.08
277.229	2.1
277.608	1.51
277.986	2.76
278.365	2.94
278.743	2.26
279.122	2.05
279.5	2.65
279.878	3.03
280.257	2.81
280.635	2.06
281.013	2.54
281.391	2.88
281.769	2.91
282.147	2.83
282.525	2.46
282.903	1.91
283.281	2.8
283.659	2.61
284.037	2.66
284.415	2.65
284.792	2.5
285.17	1.4
285.548	1.86
285.925	2.09
286.303	2.41
286.68	2.11
287.058	2.33
287.435	2.51
287.813	2.19
288.19	2.42
288.567	2.08
288.945	2.74
289.322	2.3
289.699	2.38
290.076	2
290.453	1.84
290.83	2.14
291.207	2.21
291.584	2.47
291.961	2.55
292.338	2.07
292.715	2.47
293.092	2.31
293.469	2.61
293.845	2.69
294.222	1.86
294.599	2.85
294.975	2.39
295.352	2.88
295.728	1.63
296.105	2.12
296.481	2.62
296.858	2.25
297.234	1.78
297.61	2.06
297.986	2.09
298.363	2.27
298.739	2.21
299.115	2.02
299.491	1.93
299.867	1.86
300.243	2.47
300.619	2.24
300.995	2
301.371	2.34
301.746	1.64
302.122	2.77
302.498	1.89
302.874	2.31
303.249	2.23
303.625	1.96
304	2.25
304.376	2.18
304.751	1.82
305.127	2.85
305.502	2.04
305.878	1.68
306.253	1.88
306.628	2.98
307.003	2.17
307.378	2.5
307.754	2.11
308.129	1.32
308.504	1.84
308.879	2.12
309.254	2.81
309.629	2.62
310.003	1.63
310.378	2.3
310.753	2.45
311.128	2.79
311.502	2.27
311.877	2.75
312.252	1.68
312.626	2.45
313.001	2.26
313.375	2.25
313.75	1.76
314.124	2.51
314.498	2.19
314.873	2.06
315.247	2.03
315.621	2.39
315.995	1.53
316.369	1.83
316.743	2.32
317.117	2.99
317.491	2.56
317.865	2.17
318.239	1.97
318.613	2.53
318.987	2.54
319.361	2.26
319.734	2.71
320.108	1.83
320.482	2.4
320.855	2.63
321.229	1.22
321.602	2.45
321.976	3.02
322.349	2
322.723	1.58
323.096	2.74
323.469	1.86
323.843	2.11
324.216	2.87
324.589	2.21
324.962	1.82
325.335	1.75
325.708	1.3
326.081	1.67
326.454	2.12
326.827	2.36
327.2	2.3
327.573	2.27
327.945	2.23
328.318	2.21
328.691	1.79
329.063	2.13
329.436	2.28
329.809	3
330.181	1.67
330.553	2.17
330.926	2.55
331.298	2.05
331.671	1.62
332.043	3.31
332.415	2.07
332.787	2.03
333.159	2.52
333.532	2.56
333.904	2.15
334.276	2.28
334.648	2.15
335.02	2.32
335.391	1.75
335.763	2.28
336.135	2.29
336.507	2.96
336.879	1.84
337.25	2.44
337.622	2.09
337.993	1.84
338.365	2.45
338.736	2.56
339.108	2.39
339.479	1.96
339.851	2.19
340.222	2.36
340.593	1.79
340.964	1.97
341.336	2.78
341.707	1.91
342.078	2.38
342.449	2.62
342.82	1.97
343.191	2.72
343.562	2.23
343.933	2.5
344.303	1.92
344.674	2.12
345.045	2.11
345.416	2.84
345.786	1.96
346.157	2.56
346.527	2.13
346.898	1.96
347.268	2.43
347.639	2.15
348.009	2.27
348.38	2.05
348.75	2
349.12	2
349.49	2.73
349.861	2.42
350.231	1.98
350.601	2.82
350.971	2.15
351.341	2.17
351.711	2.51
352.081	2.44
352.45	1.79
352.82	2.34
353.19	2.15
353.56	2.25
353.929	2.11
354.299	2.59
354.669	2.2
355.038	2.77
355.408	2.39
355.777	2.17
356.147	2.32
356.516	2.26
356.885	2.42
357.254	2.47
357.624	2.55
357.993	2.44
358.362	2.14
358.731	1.9
359.1	2.35
359.469	2.02
359.838	2.12
360.207	2.08
360.576	1.97
360.945	2.07
361.314	2.7
361.682	2.14
362.051	1.93
362.42	2.38
362.788	1.82
363.157	1.98
363.525	2.21
363.894	2.29
364.262	2.25
364.631	2.39
364.999	2.14
365.367	2.15
365.735	2.89
366.104	2.31
366.472	2.64
366.84	2.15
367.208	2.29
367.576	2.62
367.944	2.42
368.312	2.12
368.68	1.7
369.048	2.26
369.416	2.2
369.783	1.93
370.151	2.38
370.519	2.78
370.886	2.25
371.254	2.25
371.621	2.5
371.989	2.55
372.356	2.07
372.724	2.43
373.091	2.19
373.458	2.15
373.826	2.34
374.193	2.3
374.56	2.28
374.927	2.27
375.294	2.42
375.661	2.07
376.028	1.92
376.395	2.12
376.762	2.16
377.129	2.53
377.496	1.99
377.863	2.59
378.229	1.69
378.596	2.32
378.963	1.99
379.329	2.07
379.696	2.63
380.062	2.48
380.429	2.41
380.795	2.4
381.161	2.27
381.528	2.51
381.894	2.34
382.26	2.03
382.626	2.63
382.993	2.04
383.359	2.48
383.725	2.38
384.091	2.23
384.457	2.7
384.823	2.22
385.188	2.49
385.554	2.45
385.92	2.44
386.286	2.43
386.651	2.52
387.017	2.69
387.383	2.29
387.748	2.2
388.114	2.57
388.479	2.13
388.845	2.53
389.21	2.18
389.575	2.07
389.94	2.35
390.306	2.11
390.671	2.66
391.036	2.1
391.401	2.21
391.766	2.31
392.131	2.27
392.496	2.57
392.861	2.1
393.226	2.46
393.591	2.27
393.956	2.06
394.32	2.29
394.685	2.32
395.05	2.29
395.414	2.41
395.779	1.95
396.143	2.41
396.508	2.27
396.872	2.39
397.236	2.6
397.601	2.18
397.965	2.22
398.329	2.55
398.694	2.29
399.058	2.32
399.422	2.35
399.786	2.48
400.15	2.29
400.514	2.47
400.878	2.36
401.242	2.61
401.605	2.54
401.969	2.36
402.333	2.44
402.697	2.17
403.06	2.42
403.424	2.45
403.787	2.45
404.151	2.47
404.514	2.38
404.878	2.3
405.241	2.39
405.604	2.33
405.968	2.27
406.331	2.34
406.694	2.48
407.057	2.25
407.42	2.62
407.783	2.14
408.146	2.52
408.509	2.27
408.872	2.06
409.235	2.21
409.598	2.6
409.961	2.22
410.323	2.51
410.686	2.26
411.049	2.14
411.411	2.31
411.774	2.27
412.136	2.33
412.499	2.29
412.861	2.27
413.223	2.18
413.586	2.72
413.948	2.38
414.31	2.63
414.672	2.31
415.035	1.95
415.397	2.57
415.759	1.85
416.121	2.53
416.483	2.26
416.845	2.45
417.206	2.46
417.568	2.38
417.93	2.19
418.292	2.35
418.653	2.2
419.015	2.48
419.377	2.32
419.738	2.41
420.1	2.27
420.461	2.38
420.822	2.33
421.184	2.29
421.545	2.36
421.906	2.05
422.267	2.21
422.629	2.22
422.99	2.22
423.351	2.22
423.712	2.25
424.073	2.39
424.434	2.14
424.795	2.26
425.155	2.25
425.516	2.29
425.877	2.2
426.238	2.18
426.598	2.24
426.959	2.28
427.32	2.17
427.68	2.3
428.041	2.32
428.401	2.41
428.761	2.34
429.122	2.36
429.482	2.28
429.842	2.49
430.202	2.29
430.563	2.32
430.923	2.35
431.283	2.31
431.643	2.32
432.003	2.13
432.363	2.44
432.722	2.19
433.082	2.32
433.442	2.32
433.802	2.24
434.161	2.14
434.521	2.39
434.881	2.37
435.24	2.31
435.6	2.26
435.959	2.2
436.319	2.22
436.678	2.3
437.037	2.24
437.396	2.42
437.756	2.46
438.115	2.25
438.474	2.52
438.833	2.35
439.192	2.24
439.551	2.31
439.91	2.43
440.269	2.23
440.628	2.22
440.987	2.28
441.345	2.19
441.704	2.28
442.063	2.17
442.421	2.23
442.78	2.28
443.138	2.27
443.497	2.32
443.855	2.41
444.214	2.33
444.572	2.56
444.93	2.49
445.288	2.42
445.647	2.48
446.005	2.32
446.363	2.49
446.721	2.39
447.079	2.26
447.437	2.31
447.795	2.28
448.153	2.18
448.51	2.25
448.868	2.25
449.226	2.3
449.584	2.36
449.941	2.45
450.299	2.29
450.656	2.43
451.014	2.4
451.371	2.28
451.729	2.34
452.086	2.56
452.443	2.37
452.801	2.44
453.158	2.52
453.515	2.34
453.872	2.41
454.229	2.29
454.586	2.29
454.943	2.47
455.3	2.5
455.657	2.28
456.014	2.39
456.371	2.43
456.727	2.33
457.084	2.56
457.441	2.48
457.797	2.27
458.154	2.51
458.51	2.49
458.867	2.51
459.223	2.54
459.58	2.29
459.936	2.41
460.292	2.34
460.648	2.38
461.005	2.38
461.361	2.29
461.717	2.24
462.073	2.21
462.429	2.34
462.785	2.37
463.141	2.28
463.496	2.41
463.852	2.37
464.208	2.34
464.564	2.53
464.919	2.43
465.275	2.46
465.631	2.39
465.986	2.37
466.342	2.17
466.697	2.3
467.052	2.38
467.408	2.44
467.763	2.51
468.118	2.29
468.473	2.36
468.829	2.44
469.184	2.29
469.539	2.38
469.894	2.34
470.249	2.64
470.603	2.58
470.958	2.46
471.313	2.45
471.668	2.58
472.023	2.46
472.377	2.35
472.732	2.35
473.086	2.52
473.441	2.29
473.795	2.45
474.15	2.49
474.504	2.19
474.859	2.34
475.213	2.36
475.567	2.38
475.921	2.33
476.275	2.4
476.63	2.37
476.984	2.39
477.338	2.37
477.692	2.21
478.045	2.32
478.399	2.22
478.753	2.39
479.107	2.37
479.461	2.41
479.814	2.48
480.168	2.37
480.521	2.29
480.875	2.41
481.228	2.3
481.582	2.28
481.935	2.31
482.289	2.27
482.642	2.34
482.995	2.33
483.348	2.26
483.701	2.34
484.055	2.35
484.408	2.43
484.761	2.14
485.114	2.15
485.466	2.04
485.819	2.09
486.172	2.16
486.525	2.26
486.878	2.32
487.23	2.33
487.583	2.39
487.936	2.36
488.288	2.27
488.641	2.29
488.993	2.13
489.345	2.16
489.698	2.18
490.05	2.2
490.402	2.31
490.754	2.37
491.107	2.38
491.459	2.39
491.811	2.45
492.163	2.35
492.515	2.2
492.866	2.29
493.218	2.26
493.57	2.2
493.922	2.27
494.274	2.38
494.625	2.45
494.977	2.43
495.328	2.47
495.68	2.49
496.031	2.61
496.383	2.37
496.734	2.54
497.086	2.49
497.437	2.37
497.788	2.31
498.139	2.34
498.49	2.39
498.842	2.24
499.193	2.38
499.544	2.42
499.894	2.35
500.245	2.48
500.596	2.36
500.947	2.45
501.298	2.32
501.648	2.5
501.999	2.52
502.35	2.37
502.7	2.42
503.051	2.24
503.401	2.32
503.752	2.35
504.102	2.48
504.452	2.34
504.803	2.38
505.153	2.44
505.503	2.42
505.853	2.39
506.203	2.34
506.553	2.42
506.903	2.26
507.253	2.31
507.603	2.41
507.953	2.47
508.303	2.47
508.652	2.36
509.002	2.44
509.352	2.5
509.701	2.35
510.051	2.33
510.4	2.25
510.75	2.43
511.099	2.44
511.449	2.37
511.798	2.38
512.147	2.42
512.496	2.24
512.846	2.35
513.195	2.43
513.544	2.39
513.893	2.36
514.242	2.33
514.591	2.51
514.939	2.33
515.288	2.33
515.637	2.54
515.986	2.46
516.334	2.49
516.683	2.5
517.032	2.47
517.38	2.44
517.729	2.53
518.077	2.22
518.426	2.48
518.774	2.45
519.122	2.32
519.47	2.38
519.819	2.22
520.167	2.32
520.515	2.35
520.863	2.37
521.211	2.39
521.559	2.52
521.907	2.37
522.255	2.42
522.602	2.48
522.95	2.46
523.298	2.39
523.645	2.53
523.993	2.35
524.341	2.51
524.688	2.48
525.036	2.34
525.383	2.39
525.73	2.53
526.078	2.4
526.425	2.4
526.772	2.45
527.119	2.34
527.466	2.31
527.814	2.37
528.161	2.39
528.508	2.5
528.854	2.4
529.201	2.32
529.548	2.29
529.895	2.2
530.242	2.07
530.588	2.15
530.935	2.27
531.282	2.35
531.628	2.37
531.975	2.48
532.321	2.46
532.667	2.44
533.014	2.46
533.36	2.36
533.706	2.45
534.052	2.37
534.399	2.31
534.745	2.21
535.091	2.27
535.437	2.31
535.783	2.37
536.129	2.41
536.474	2.42
536.82	2.47
537.166	2.42
537.512	2.48
537.857	2.4
538.203	2.32
538.549	2.33
538.894	2.38
539.239	2.48
539.585	2.52
539.93	2.39
540.276	2.57
540.621	2.54
540.966	2.45
541.311	2.36
541.656	2.34
542.001	2.38
542.346	2.49
542.691	2.23
543.036	2.21
543.381	2.23
543.726	2.35
544.071	2.41
544.415	2.51
544.76	2.38
545.105	2.43
545.449	2.5
545.794	2.54
546.138	2.47
546.483	2.47
546.827	2.5
547.171	2.48
547.516	2.54
547.86	2.39
548.204	2.4
548.548	2.4
548.892	2.48
549.236	2.48
549.58	2.36
549.924	2.59
550.268	2.58
550.612	2.63
550.956	2.56
551.3	2.58
551.643	2.61
551.987	2.62
552.33	2.5
552.674	2.56
553.017	2.46
553.361	2.37
553.704	2.72
554.048	2.44
554.391	2.42
554.734	2.42
555.077	2.57
555.42	2.43
555.764	2.49
556.107	2.42
556.45	2.46
556.793	2.34
557.135	2.55
557.478	2.76
557.821	2.58
558.164	2.57
558.507	2.52
558.849	2.4
559.192	2.59
559.534	2.48
559.877	2.59
560.219	2.38
560.562	2.55
560.904	2.43
561.246	2.51
561.589	2.48
561.931	2.31
562.273	2.45
562.615	2.57
562.957	2.62
563.299	2.34
563.641	2.48
563.983	2.6
564.325	2.32
564.667	2.47
565.008	2.52
565.35	2.6
565.692	2.36
566.033	2.4
566.375	2.62
566.716	2.7
567.058	2.39
567.399	2.42
567.741	2.33
568.082	2.4
568.423	2.45
568.764	2.46
569.105	2.55
569.447	2.66
569.788	2.66
570.129	2.62
570.47	2.5
570.811	2.7
571.151	2.58
571.492	2.54
571.833	2.45
572.174	2.6
572.514	2.62
572.855	2.55
573.195	2.63
573.536	2.46
573.876	2.27
574.217	2.43
574.557	2.51
574.898	2.6
575.238	2.59
575.578	2.44
575.918	2.66
576.258	2.67
576.598	2.61
576.938	2.35
577.278	2.57
577.618	2.55
577.958	2.4
578.298	2.56
578.638	2.6
578.977	2.51
579.317	2.37
579.657	2.59
579.996	2.55
580.336	2.65
580.675	2.6
581.014	2.66
581.354	2.63
581.693	2.7
582.032	2.4
582.372	2.51
582.711	2.72
583.05	2.4
583.389	2.67
583.728	2.49
584.067	2.79
584.406	2.73
584.745	2.72
585.083	2.86
585.422	2.7
585.761	2.77
586.1	2.63
586.438	2.39
586.777	2.56
587.115	2.65
587.454	2.46
587.792	2.31
588.13	2.67
588.469	2.57
588.807	2.63
589.145	2.42
589.483	2.58
589.821	2.58
590.159	2.72
590.497	2.85
590.835	2.88
591.173	2.49
591.511	2.64
591.849	2.59
592.187	2.46
592.524	2.73
592.862	2.53
593.2	2.68
593.537	2.49
593.875	2.53
594.212	2.57
594.55	2.55
594.887	2.86
595.224	2.45
595.561	2.79
595.899	2.68
596.236	2.36
596.573	2.66
596.91	2.32
597.247	2.51
597.584	2.83
597.921	2.46
598.258	2.25
598.594	2.46
598.931	2.3
599.268	2.68
599.604	2.5
599.941	2.73
600.277	2.48
600.614	2.48
600.95	2.33
601.287	2.99
601.623	2.59
601.959	2.38
602.296	2.56
602.632	2.53
602.968	2.69
603.304	2.6
603.64	2.56
603.976	2.58
604.312	2.58
604.648	2.38
604.984	2.57
605.319	2.66
605.655	2.43
605.991	2.62
606.326	2.64
606.662	2.61
606.998	2.44
607.333	2.63
607.668	2.5
608.004	2.61
608.339	2.95
608.674	2.64
609.01	2.37
609.345	2.38
609.68	2.69
610.015	2.52
610.35	2.34
610.685	2.52
611.02	2.47
611.355	2.53
611.689	2.57
612.024	2.6
612.359	2.55
612.694	2.58
613.028	2.42
613.363	2.6
613.697	2.64
614.032	2.81
614.366	2.8
614.7	2.71
615.035	2.65
615.369	2.56
615.703	2.46
616.037	2.6
616.371	2.34
616.705	2.3
617.039	2.7
617.373	2.52
617.707	2.46
618.041	2.62
618.375	2.55
618.709	2.87
619.042	2.85
619.376	2.81
619.71	2.77
620.043	2.86
620.377	2.96
620.71	2.6
621.043	2.65
621.377	2.5
621.71	2.83
622.043	2.47
622.376	2.46
622.709	2.9
623.043	2.64
623.376	2.74
623.709	2.55
624.041	2.82
624.374	2.87
624.707	2.51
625.04	2.64
625.373	2
625.705	2.53
626.038	2.73
626.37	2.37
626.703	2.54
627.035	2.84
627.368	2.99
627.7	3.02
628.032	2.71
628.365	2.92
628.697	2.85
629.029	2.62
629.361	2.57
629.693	2.43
630.025	2.61
630.357	2.71
630.689	2.74
631.021	2.71
631.353	2.72
631.684	2.4
632.016	2.59
632.348	2.91
632.679	2.47
633.011	3.19
633.342	2.99
633.674	2.58
634.005	3.14
634.336	2.5
634.668	3.04
634.999	2.52
635.33	2.87
635.661	3.1
635.992	2.51
636.323	2.87
636.654	2.76
636.985	2.79
637.316	3.04
637.647	2.48
637.977	3.03
638.308	2.78
638.639	2.27
638.969	2.34
639.3	2.53
639.63	2.26
639.961	2.81
640.291	2.88
640.622	2.77
640.952	2.89
641.282	3.1
641.612	3.18
641.943	2.46
642.273	2.88
642.603	2.91
642.933	3.18
643.263	3.07
643.592	2.5
643.922	2.23
644.252	2.76
644.582	2.45
644.911	2.78
645.241	2.91
645.571	2.97
645.9	2.33
646.23	3.27
646.559	2.88
646.888	2.26
647.218	2.54
647.547	2.6
647.876	2.13
648.205	2.62
648.534	2.93
648.863	2.51
649.192	3.17
649.521	3.24
649.85	2.23
650.179	2.68
650.508	2.73
650.837	2.25
651.165	2.55
651.494	2.73
651.822	2.64
652.151	2.47
652.479	2.89
652.808	2.32
653.136	3.05
653.465	2.04
653.793	2.51
654.121	2.46
654.449	2.75
654.777	2.85
655.105	2.84
655.433	2.9
655.761	2.97
656.089	2.93
656.417	2.52
656.745	2.47
657.073	2.77
657.4	3.76
657.728	2.93
658.056	2.7
658.383	2.77
658.711	3.16
659.038	3.01
659.365	2.95
659.693	2.61
660.02	2.47
660.347	2.57
660.674	2.92
661.001	2.97
661.329	2
661.656	2.38
661.982	2.66
662.309	2.79
662.636	2.59
662.963	3.32
663.29	3.23
663.616	3.01
663.943	2.37
664.27	2.96
664.596	3.27
664.923	2.49
665.249	2.89
665.576	2.72
665.902	3.91
666.228	3.08
666.554	3.05
666.881	2.86
667.207	3.02
667.533	2.89
667.859	3.03
668.185	3.21
668.511	2.38
668.837	2.48
669.162	3.08
669.488	2.27
669.814	3.72
670.139	2.86
670.465	2.83
670.791	3.29
671.116	3.49
671.442	2.85
671.767	3.22
672.092	2.94
672.418	2.92
672.743	3.06
673.068	2.35
673.393	3.27
673.718	2.97
674.043	2.37
674.368	2.94
674.693	3.51
675.018	2.91
675.343	2.61
675.667	3.09
675.992	3.5
676.317	3.44
676.641	2.86
676.966	3.5
677.29	3.13
677.615	3.31
677.939	3.68
678.264	3.45
678.588	3.22
678.912	3.4
679.236	3.66
679.56	2.41
679.885	3.8
680.209	2.7
680.532	2.59
680.856	2.93
681.18	2.4
681.504	2.91
681.828	3.09
682.152	2.37
682.475	2.92
682.799	3.1
683.122	3.12
683.446	2.36
683.769	3.76
684.093	2.81
684.416	3.42
684.739	2.95
685.062	2.69
685.386	3.29
685.709	2.73
686.032	2.84
686.355	3.23
686.678	2.87
687.001	3.4
687.324	3.61
687.646	3.29
687.969	2.61
688.292	3.58
688.614	3.07
688.937	3.37
689.26	3.24
689.582	3.78
689.904	3.43
690.227	2.43
690.549	3.51
690.871	3.63
691.194	3.04
691.516	2.58
691.838	3.38
692.16	2.86
692.482	2.98
