Data from 0419_forehead_Reflection__1__11.txt Node

Date: Fri Dec 15 16:32:10 CST 2023
User: ToomeyLab
Spectrometer: FLMS14357
Trigger mode: 0
Integration Time (sec): 1.000000E-2
Scans to average: 100
Electric dark correction enabled: true
Nonlinearity correction enabled: false
Boxcar width: 0
XAxis mode: Wavelengths
Number of Pixels in Spectrum: 2048
>>>>>Begin Spectral Data<<<<<
189.047	-49.42
189.435	-49.42
189.823	-49.42
190.211	52.09
190.599	-64.46
190.987	60.05
191.375	-179.9
191.763	-497.51
192.151	-41.66
192.538	471.17
192.926	40.71
193.314	1901.7
193.702	-27.39
194.089	331.28
194.477	-1.21
194.864	24.21
195.252	164.18
195.639	153.32
196.027	-96.07
196.414	39.61
196.801	223.59
197.189	-3.55
197.576	-336.53
197.963	70.84
198.351	-7.33
198.738	5.1
199.125	30.28
199.512	32.7
199.899	81.43
200.286	69.66
200.673	44.84
201.06	45.58
201.447	66.37
201.833	14.51
202.22	42.84
202.607	29.28
202.994	46.83
203.38	49.19
203.767	60.87
204.154	19.64
204.54	37.79
204.927	29.16
205.313	51.67
205.699	23.71
206.086	80.44
206.472	57.78
206.858	35.79
207.245	3.02
207.631	55.66
208.017	22.09
208.403	50.47
208.789	30.8
209.175	46.18
209.561	27.14
209.947	43.16
210.333	34.81
210.719	30.47
211.105	56.05
211.491	42.19
211.876	74.67
212.262	71.56
212.648	38.65
213.034	33.19
213.419	28.84
213.805	-2.29
214.19	41.31
214.576	31.26
214.961	26.44
215.346	19.84
215.732	27.28
216.117	29.38
216.502	33.42
216.888	29.59
217.273	28.83
217.658	8.4
218.043	22.88
218.428	6.05
218.813	20.46
219.198	2.71
219.583	19.08
219.968	9.98
220.353	-5.07
220.738	41.38
221.122	16.08
221.507	9.71
221.892	-10.62
222.276	-8.91
222.661	7.21
223.046	27.14
223.43	23.77
223.815	23.56
224.199	-4.13
224.583	8.66
224.968	11.92
225.352	16.02
225.736	5.91
226.121	-1.73
226.505	11.59
226.889	17.9
227.273	6.6
227.657	13.98
228.041	10.6
228.425	8.93
228.809	13.19
229.193	9.11
229.577	3.71
229.961	5.58
230.344	5.36
230.728	5.9
231.112	5.15
231.495	4.23
231.879	5.63
232.263	6.76
232.646	6.11
233.03	5.34
233.413	6.82
233.797	4.37
234.18	4.9
234.563	5.18
234.946	5.31
235.33	7.05
235.713	7.08
236.096	5.76
236.479	6.83
236.862	5.64
237.245	5.72
237.628	7
238.011	5.8
238.394	7.96
238.777	5.47
239.16	3.99
239.543	8.65
239.925	8.78
240.308	6.28
240.691	7.94
241.073	7.1
241.456	7.03
241.838	5.18
242.221	5.28
242.603	5.88
242.986	5.25
243.368	5.44
243.75	5.17
244.133	4.74
244.515	4.82
244.897	4.84
245.279	5.26
245.661	5.4
246.043	4.62
246.425	4.24
246.807	6.16
247.189	6.2
247.571	5.87
247.953	4.93
248.335	4.56
248.717	4.89
249.098	4.58
249.48	5.05
249.862	4.75
250.243	4.56
250.625	4.84
251.006	5.36
251.388	3.98
251.769	4.51
252.151	7.33
252.532	5.16
252.913	3.92
253.295	4.37
253.676	4.61
254.057	5.24
254.438	4.59
254.819	5.11
255.2	4.58
255.581	5.4
255.962	5.52
256.343	5.3
256.724	3.99
257.105	5.61
257.486	4.26
257.867	4.57
258.247	5.46
258.628	5.5
259.009	4.74
259.389	5.14
259.77	5.33
260.15	4.43
260.531	3.68
260.911	5.11
261.292	4.4
261.672	4.72
262.052	4.56
262.432	5.14
262.813	4.56
263.193	5.11
263.573	5.35
263.953	4.86
264.333	4.82
264.713	4.62
265.093	5.26
265.473	4.7
265.853	4.45
266.233	5.44
266.612	3.37
266.992	4.57
267.372	6.08
267.752	4.51
268.131	5.07
268.511	4.88
268.89	4.78
269.27	4.65
269.649	4.44
270.029	4.61
270.408	5.73
270.787	5.06
271.167	5.17
271.546	5.52
271.925	4.21
272.304	4.52
272.683	4.41
273.062	4.4
273.441	4.58
273.82	3.76
274.199	4.38
274.578	4.34
274.957	4.73
275.336	4.94
275.715	4.1
276.093	4.42
276.472	4.69
276.851	4.18
277.229	4
277.608	3.88
277.986	4.74
278.365	5.44
278.743	4.4
279.122	4.29
279.5	4.58
279.878	4.9
280.257	4.65
280.635	4.18
281.013	4.22
281.391	5.22
281.769	5.04
282.147	4.76
282.525	4.98
282.903	4.25
283.281	4.56
283.659	5.03
284.037	4.85
284.415	4.78
284.792	5.29
285.17	4.19
285.548	4.17
285.925	4.65
286.303	4.9
286.68	4.35
287.058	4.47
287.435	4.35
287.813	4.68
288.19	4.44
288.567	4.81
288.945	4.82
289.322	4.51
289.699	5.04
290.076	4.59
290.453	5.36
290.83	4.6
291.207	4.38
291.584	5.26
291.961	4.57
292.338	4.52
292.715	5.15
293.092	5.04
293.469	4.95
293.845	5.27
294.222	4.37
294.599	4.85
294.975	4.32
295.352	4.36
295.728	4.78
296.105	5.29
296.481	5.1
296.858	4.79
297.234	4.84
297.61	4.83
297.986	5.13
298.363	5.15
298.739	5.18
299.115	4.62
299.491	4.44
299.867	5.21
300.243	5.1
300.619	4.9
300.995	5.25
301.371	5.9
301.746	5.18
302.122	5.86
302.498	5.55
302.874	5.41
303.249	5.21
303.625	5.64
304	5.95
304.376	5.64
304.751	5.33
305.127	6.41
305.502	5.69
305.878	5.22
306.253	5.83
306.628	6.9
307.003	5.1
307.378	6.31
307.754	5.62
308.129	5.17
308.504	6.07
308.879	5.72
309.254	6.6
309.629	6.8
310.003	6.07
310.378	6.82
310.753	6.2
311.128	6.9
311.502	6.01
311.877	6.12
312.252	6.43
312.626	6.38
313.001	6.15
313.375	6.6
313.75	5.88
314.124	6.8
314.498	6.52
314.873	7.05
315.247	6.63
315.621	6.94
315.995	6.1
316.369	6.8
316.743	6.27
317.117	7.24
317.491	7.71
317.865	6.67
318.239	7.13
318.613	7.21
318.987	7.05
319.361	6.85
319.734	7.9
320.108	6.72
320.482	7.45
320.855	6.92
321.229	7.06
321.602	7.68
321.976	7.59
322.349	7.48
322.723	7.31
323.096	8.01
323.469	7.6
323.843	7.72
324.216	8.31
324.589	7.36
324.962	7.82
325.335	7.2
325.708	7.33
326.081	7.51
326.454	7.88
326.827	8.06
327.2	8.24
327.573	8.78
327.945	7.97
328.318	7.78
328.691	7.48
329.063	8.43
329.436	8.7
329.809	8.44
330.181	8.29
330.553	8.21
330.926	8.15
331.298	8.93
331.671	8.15
332.043	8.7
332.415	8.62
332.787	8.43
333.159	9.26
333.532	8.86
333.904	8.57
334.276	8.68
334.648	8.82
335.02	8.74
335.391	9.15
335.763	8.69
336.135	8.65
336.507	8.76
336.879	9.44
337.25	8.7
337.622	8.53
337.993	9.09
338.365	9.07
338.736	9.35
339.108	9.71
339.479	8.94
339.851	9.09
340.222	8.98
340.593	9.17
340.964	9.41
341.336	9.58
341.707	9.13
342.078	9.8
342.449	9.7
342.82	9.24
343.191	9.87
343.562	9.56
343.933	10.03
344.303	9.63
344.674	9.93
345.045	9.85
345.416	9.66
345.786	9.51
346.157	9.91
346.527	9.14
346.898	9.67
347.268	9.83
347.639	9.93
348.009	9.83
348.38	10.03
348.75	9.54
349.12	10.38
349.49	10.48
349.861	10.23
350.231	9.87
350.601	10.28
350.971	10.48
351.341	10.16
351.711	10.17
352.081	10.24
352.45	10.32
352.82	10.33
353.19	10.14
353.56	10.62
353.929	10.62
354.299	10.79
354.669	9.99
355.038	10.72
355.408	10.62
355.777	10.78
356.147	10.06
356.516	10.51
356.885	10.83
357.254	10.62
357.624	11.04
357.993	10.59
358.362	10.52
358.731	10.6
359.1	10.75
359.469	10.87
359.838	11.15
360.207	11.02
360.576	10.86
360.945	11.06
361.314	10.94
361.682	10.68
362.051	10.75
362.42	11.06
362.788	10.82
363.157	11.41
363.525	11.09
363.894	11.3
364.262	11.32
364.631	11.26
364.999	11.38
365.367	11.22
365.735	12.01
366.104	11.38
366.472	11.77
366.84	11.38
367.208	11.42
367.576	11.71
367.944	11.92
368.312	11.8
368.68	11.52
369.048	11.86
369.416	11.95
369.783	11.48
370.151	11.98
370.519	12.23
370.886	12.49
371.254	11.94
371.621	12.56
371.989	12.36
372.356	11.55
372.724	12.07
373.091	11.71
373.458	12.45
373.826	12.31
374.193	12.08
374.56	12.31
374.927	12.81
375.294	12.54
375.661	12.4
376.028	12.46
376.395	12.1
376.762	12.48
377.129	12.6
377.496	12.41
377.863	12.54
378.229	12.12
378.596	12.75
378.963	12.52
379.329	12.61
379.696	12.97
380.062	13
380.429	12.75
380.795	12.94
381.161	13.02
381.528	13.31
381.894	13.01
382.26	13.04
382.626	12.91
382.993	12.85
383.359	13.16
383.725	12.97
384.091	12.88
384.457	13.24
384.823	12.97
385.188	13.16
385.554	13.17
385.92	13.18
386.286	13.5
386.651	13.43
387.017	13.74
387.383	13.6
387.748	13.28
388.114	13.69
388.479	13.24
388.845	13.81
389.21	13.52
389.575	13.57
389.94	13.79
390.306	13.63
390.671	14.08
391.036	13.47
391.401	13.38
391.766	13.64
392.131	13.92
392.496	13.68
392.861	13.62
393.226	13.83
393.591	13.48
393.956	13.8
394.32	13.96
394.685	13.74
395.05	14.07
395.414	14.18
395.779	13.78
396.143	14.11
396.508	14.26
396.872	14.33
397.236	14.32
397.601	14.22
397.965	14.04
398.329	14.1
398.694	14.26
399.058	14.26
399.422	14.03
399.786	14.41
400.15	14.29
400.514	14.37
400.878	14.54
401.242	14.78
401.605	14.86
401.969	14.41
402.333	14.62
402.697	14.54
403.06	14.52
403.424	14.55
403.787	14.64
404.151	14.71
404.514	14.58
404.878	14.45
405.241	14.82
405.604	14.44
405.968	14.85
406.331	14.66
406.694	14.96
407.057	14.79
407.42	14.96
407.783	14.65
408.146	14.74
408.509	14.82
408.872	14.55
409.235	14.87
409.598	15.02
409.961	14.97
410.323	14.81
410.686	15.14
411.049	14.68
411.411	14.81
411.774	14.79
412.136	15.01
412.499	14.8
412.861	15.12
413.223	15.36
413.586	15.06
413.948	15.17
414.31	14.95
414.672	14.87
415.035	15.13
415.397	15.46
415.759	15.15
416.121	15.42
416.483	15.14
416.845	15.31
417.206	15.17
417.568	15.28
417.93	15.01
418.292	15.16
418.653	15.35
419.015	15.43
419.377	15.31
419.738	15.33
420.1	15.29
420.461	15.33
420.822	15.76
421.184	15.46
421.545	15.63
421.906	15.57
422.267	15.52
422.629	15.58
422.99	15.53
423.351	15.64
423.712	15.92
424.073	16.02
424.434	16.07
424.795	16.11
425.155	15.96
425.516	15.77
425.877	15.99
426.238	16.03
426.598	16.3
426.959	16.5
427.32	16.55
427.68	16.6
428.041	16.88
428.401	16.83
428.761	16.82
429.122	17.16
429.482	16.96
429.842	17.08
430.202	17.15
430.563	17.26
430.923	16.99
431.283	17.08
431.643	17.26
432.003	17.31
432.363	17.58
432.722	17.48
433.082	17.48
433.442	17.36
433.802	17.53
434.161	17.63
434.521	17.82
434.881	17.68
435.24	17.51
435.6	17.65
435.959	17.95
436.319	17.97
436.678	18.08
437.037	18.15
437.396	18.6
437.756	18.53
438.115	18.26
438.474	18.58
438.833	18.19
439.192	18.44
439.551	18.67
439.91	18.33
440.269	18.56
440.628	18.42
440.987	18.36
441.345	18.42
441.704	18.61
442.063	18.52
442.421	18.6
442.78	18.75
443.138	18.84
443.497	19.14
443.855	19.28
444.214	19.22
444.572	19.39
444.93	19.27
445.288	19.33
445.647	19.3
446.005	19.31
446.363	19.21
446.721	19.4
447.079	19.19
447.437	19.23
447.795	19.26
448.153	19.12
448.51	19.36
448.868	19.42
449.226	19.58
449.584	19.86
449.941	19.99
450.299	20.07
450.656	20.27
451.014	19.98
451.371	20.22
451.729	20.28
452.086	20.67
452.443	20.41
452.801	20.69
453.158	20.34
453.515	20.32
453.872	20.61
454.229	20.46
454.586	20.48
454.943	20.73
455.3	20.81
455.657	20.58
456.014	20.9
456.371	21.06
456.727	21.08
457.084	21.4
457.441	20.87
457.797	21.07
458.154	21.45
458.51	21.38
458.867	21.32
459.223	21.29
459.58	21.2
459.936	21.21
460.292	21.3
460.648	21.2
461.005	21.14
461.361	20.91
461.717	20.97
462.073	21.16
462.429	21.55
462.785	21.87
463.141	21.84
463.496	22.19
463.852	22.06
464.208	22.23
464.564	22.31
464.919	22.11
465.275	22.43
465.631	22.32
465.986	22.3
466.342	22.38
466.697	22.37
467.052	22.52
467.408	22.67
467.763	22.55
468.118	22.67
468.473	22.48
468.829	22.54
469.184	22.45
469.539	22.69
469.894	22.81
470.249	23.18
470.603	22.73
470.958	23.46
471.313	23.24
471.668	23.16
472.023	23.31
472.377	23.13
472.732	23.16
473.086	23.06
473.441	23.1
473.795	23.4
474.15	23.46
474.504	23.33
474.859	23.53
475.213	23.49
475.567	23.45
475.921	23.67
476.275	23.75
476.63	23.93
476.984	23.85
477.338	24.15
477.692	23.88
478.045	23.74
478.399	23.7
478.753	23.98
479.107	24.08
479.461	23.88
479.814	23.82
480.168	24.02
480.521	24.26
480.875	24.2
481.228	24.42
481.582	24.36
481.935	24.22
482.289	24.42
482.642	24.14
482.995	24.32
483.348	24.21
483.701	24.17
484.055	24.21
484.408	23.96
484.761	23.67
485.114	23.09
485.466	22.83
485.819	23.2
486.172	23.8
486.525	24.1
486.878	24.56
487.23	24.61
487.583	24.7
487.936	24.64
488.288	24.46
488.641	24.19
488.993	23.95
489.345	24.09
489.698	24.19
490.05	24.47
490.402	24.75
490.754	24.93
491.107	25.24
491.459	25.44
491.811	25.35
492.163	25.38
492.515	25.22
492.866	24.64
493.218	24.51
493.57	24.67
493.922	25.06
494.274	25.49
494.625	25.89
494.977	26.05
495.328	26.21
495.68	26.43
496.031	26.35
496.383	26.48
496.734	26.43
497.086	26.4
497.437	26.4
497.788	26.48
498.139	26.07
498.49	26.38
498.842	26.3
499.193	26.43
499.544	26.53
499.894	26.64
500.245	26.77
500.596	26.7
500.947	26.7
501.298	26.59
501.648	26.98
501.999	27
502.35	27.07
502.7	27.06
503.051	26.96
503.401	27.33
503.752	27.49
504.102	27.55
504.452	27.49
504.803	27.23
505.153	27.43
505.503	27.33
505.853	27.45
506.203	27.4
506.553	27.41
506.903	27.56
507.253	27.6
507.603	27.46
507.953	27.86
508.303	28.02
508.652	27.82
509.002	27.79
509.352	27.76
509.701	27.56
510.051	27.63
510.4	27.56
510.75	27.81
511.099	27.73
511.449	27.88
511.798	28.17
512.147	28
512.496	28.17
512.846	28.33
513.195	28.26
513.544	28.24
513.893	28.09
514.242	28.24
514.591	28.58
514.939	28.41
515.288	28.61
515.637	28.75
515.986	28.63
516.334	28.71
516.683	28.89
517.032	28.9
517.38	28.81
517.729	28.86
518.077	28.84
518.426	28.77
518.774	28.79
519.122	28.61
519.47	28.65
519.819	28.45
520.167	28.3
520.515	28.45
520.863	28.75
521.211	28.75
521.559	28.89
521.907	29.09
522.255	29.16
522.602	29.49
522.95	29.23
523.298	29.55
523.645	29.53
523.993	29.49
524.341	29.61
524.688	29.69
525.036	29.49
525.383	29.76
525.73	29.83
526.078	29.61
526.425	29.39
526.772	29.28
527.119	29.06
527.466	28.98
527.814	29.39
528.161	29.5
528.508	29.59
528.854	29.47
529.201	29.43
529.548	28.98
529.895	28.39
530.242	28.08
530.588	28.6
530.935	29.3
531.282	29.45
531.628	29.59
531.975	29.9
532.321	30.01
532.667	30.27
533.014	30.19
533.36	30.4
533.706	30.15
534.052	30.02
534.399	29.8
534.745	29.23
535.091	29.13
535.437	29.83
535.783	30.15
536.129	30.34
536.474	30.59
536.82	30.66
537.166	30.8
537.512	30.67
537.857	30.6
538.203	30.16
538.549	30.34
538.894	30.69
539.239	30.9
539.585	30.93
539.93	31.18
540.276	31.47
540.621	31.42
540.966	31.42
541.311	31.29
541.656	31.19
542.001	31.03
542.346	30.72
542.691	30.12
543.036	29.83
543.381	30.37
543.726	30.98
544.071	31.01
544.415	31.33
544.76	31.27
545.105	31.45
545.449	31.62
545.794	31.8
546.138	31.85
546.483	32.05
546.827	32.09
547.171	31.9
547.516	31.92
547.86	31.73
548.204	31.86
548.548	31.72
548.892	31.97
549.236	32.35
549.58	32.31
549.924	32.5
550.268	32.75
550.612	32.91
550.956	32.94
551.3	33.06
551.643	32.95
551.987	33.04
552.33	32.97
552.674	32.95
553.017	32.91
553.361	33.06
553.704	33.11
554.048	32.78
554.391	32.6
554.734	32.85
555.077	33.21
555.42	33.03
555.764	33.47
556.107	33.48
556.45	33.32
556.793	33.64
557.135	33.59
557.478	33.67
557.821	33.64
558.164	33.73
558.507	33.41
558.849	33.75
559.192	33.64
559.534	33.8
559.877	33.9
560.219	33.83
560.562	33.85
560.904	34.04
561.246	33.98
561.589	34.4
561.931	34.18
562.273	34.14
562.615	34.12
562.957	34.02
563.299	34.08
563.641	34.44
563.983	34.36
564.325	34.68
564.667	34.31
565.008	34.35
565.35	34.37
565.692	34.37
566.033	34.36
566.375	34.38
566.716	34.53
567.058	34.42
567.399	34.24
567.741	34.48
568.082	34.5
568.423	34.53
568.764	34.7
569.105	35.04
569.447	35.12
569.788	35.04
570.129	35.34
570.47	34.99
570.811	35.19
571.151	35.13
571.492	35.08
571.833	35.44
572.174	35.31
572.514	35.17
572.855	35.35
573.195	34.85
573.536	35.05
573.876	34.75
574.217	35.24
574.557	35.43
574.898	35.61
575.238	35.87
575.578	35.63
575.918	35.92
576.258	35.85
576.598	35.24
576.938	35.48
577.278	35.51
577.618	35.7
577.958	35.76
578.298	36.08
578.638	36.04
578.977	36.18
579.317	36.1
579.657	36.24
579.996	36.3
580.336	36.39
580.675	36.41
581.014	36.52
581.354	36.54
581.693	36.59
582.032	36.48
582.372	36.75
582.711	37.07
583.05	36.55
583.389	37.08
583.728	36.5
584.067	36.99
584.406	37.02
584.745	36.76
585.083	37.11
585.422	37.47
585.761	37.14
586.1	37.36
586.438	37.24
586.777	37.34
587.115	37.49
587.454	37.18
587.792	37.09
588.13	37.39
588.469	37.25
588.807	37.98
589.145	37.56
589.483	37.57
589.821	37.47
590.159	37.57
590.497	38.09
590.835	37.99
591.173	37.97
591.511	38.11
591.849	37.67
592.187	37.82
592.524	38.07
592.862	38.17
593.2	38.21
593.537	38.38
593.875	38.3
594.212	38.04
594.55	38.27
594.887	38.82
595.224	38.32
595.561	38.17
595.899	38.42
596.236	38.19
596.573	38.21
596.91	38.28
597.247	38.27
597.584	38.71
597.921	38.16
598.258	38.33
598.594	37.89
598.931	38.15
599.268	38.5
599.604	38.66
599.941	38.96
600.277	38.83
600.614	39.02
600.95	39.21
601.287	39.56
601.623	39.31
601.959	39.26
602.296	39.09
602.632	39.04
602.968	39.34
603.304	39.32
603.64	39.25
603.976	39.09
604.312	39.31
604.648	39.18
604.984	39
605.319	39.46
605.655	39.46
605.991	39.25
606.326	39.01
606.662	39.13
606.998	39.47
607.333	39.84
607.668	39.89
608.004	40.14
608.339	40.31
608.674	40.11
609.01	40.03
609.345	40.22
609.68	40
610.015	40.08
610.35	39.95
610.685	39.68
611.02	39.7
611.355	39.68
611.689	39.99
612.024	40.25
612.359	40.41
612.694	40.52
613.028	40.61
613.363	40.9
613.697	40.72
614.032	41.15
614.366	41.08
614.7	40.98
615.035	41.25
615.369	41.08
615.703	41.04
616.037	40.73
616.371	40.77
616.705	41.54
617.039	41.2
617.373	41.51
617.707	41.21
618.041	41.33
618.375	41.28
618.709	41.63
619.042	40.89
619.376	41.71
619.71	41.89
620.043	41.71
620.377	41.53
620.71	41.64
621.043	41.86
621.377	41.7
621.71	41.7
622.043	41.81
622.376	41.69
622.709	41.96
623.043	41.99
623.376	41.63
623.709	41.81
624.041	42.52
624.374	41.97
624.707	42.18
625.04	42.25
625.373	41.93
625.705	41.96
626.038	41.71
626.37	42.15
626.703	42.38
627.035	42.08
627.368	42.57
627.7	42.65
628.032	42.34
628.365	42.3
628.697	42.27
629.029	42.34
629.361	42.49
629.693	42.56
630.025	42.42
630.357	42.79
630.689	43.25
631.021	42.88
631.353	43.22
631.684	42.75
632.016	42.79
632.348	42.93
632.679	43.14
633.011	43.13
633.342	43.33
633.674	42.98
634.005	43.99
634.336	43.35
634.668	43.25
634.999	43.05
635.33	43.31
635.661	43.44
635.992	42.91
636.323	43.89
636.654	43.95
636.985	43.71
637.316	43.73
637.647	43.24
637.977	44.22
638.308	44.2
638.639	43.55
638.969	43.89
639.3	43.6
639.63	44.04
639.961	44.16
640.291	44.16
640.622	44.52
640.952	44.46
641.282	44.2
641.612	44.51
641.943	44.13
642.273	44.04
642.603	44.71
642.933	44.39
643.263	44.01
643.592	44.88
643.922	44.47
644.252	44.2
644.582	44.86
644.911	44.72
645.241	44.74
645.571	44.35
645.9	44.5
646.23	45.1
646.559	44.61
646.888	44.99
647.218	44.63
647.547	44.95
647.876	45.45
648.205	44.73
648.534	45.4
648.863	45.17
649.192	45.26
649.521	45.1
649.85	45.08
650.179	45.08
650.508	45.17
650.837	44.77
651.165	45.35
651.494	45.42
651.822	45.41
652.151	45.34
652.479	45.8
652.808	45.83
653.136	45.39
653.465	45.48
653.793	45.93
654.121	45.54
654.449	45.55
654.777	46.21
655.105	45.99
655.433	45.99
655.761	45.47
656.089	46
656.417	46.53
656.745	46.28
657.073	46.47
657.4	46.46
657.728	46.02
658.056	46.37
658.383	46.16
658.711	45.83
659.038	46.1
659.365	46.15
659.693	46.61
660.02	46.25
660.347	46.39
660.674	45.9
661.001	46.22
661.329	46.06
661.656	46.68
661.982	47.24
662.309	47.18
662.636	46.65
662.963	47.38
663.29	47.28
663.616	47.37
663.943	47.3
664.27	47.71
664.596	47.3
664.923	48
665.249	47.58
665.576	47.7
665.902	47.35
666.228	46.85
666.554	48.22
666.881	46.67
667.207	47.42
667.533	47.36
667.859	47.44
668.185	47.55
668.511	47.81
668.837	47.5
669.162	47.47
669.488	47.21
669.814	47.71
670.139	47.3
670.465	47.7
670.791	48.21
671.116	47.8
