Data from 0419_chest_Reflection__1__01.txt Node

Date: Fri Dec 15 16:29:09 CST 2023
User: ToomeyLab
Spectrometer: FLMS14357
Trigger mode: 0
Integration Time (sec): 1.000000E-2
Scans to average: 100
Electric dark correction enabled: true
Nonlinearity correction enabled: false
Boxcar width: 0
XAxis mode: Wavelengths
Number of Pixels in Spectrum: 2048
>>>>>Begin Spectral Data<<<<<
189.047	63.07
189.435	63.07
189.823	63.07
190.211	-28.83
190.599	-31.63
190.987	92.51
191.375	5.5
191.763	709.05
192.151	228.11
192.538	93.47
192.926	-235.63
193.314	2651.02
193.702	16.17
194.089	-799.47
194.477	-4.18
194.864	62.53
195.252	172.27
195.639	49.62
196.027	-145.35
196.414	-0.34
196.801	271.66
197.189	53.73
197.576	30.57
197.963	2.88
198.351	-73.73
198.738	-10.97
199.125	38.39
199.512	60.92
199.899	27.18
200.286	28.2
200.673	29.26
201.06	43.28
201.447	-0.38
201.833	-22.95
202.22	56.21
202.607	10.2
202.994	-10.86
203.38	41.54
203.767	55.81
204.154	19.34
204.54	38.53
204.927	-44.85
205.313	-30.74
205.699	23.1
206.086	32.55
206.472	22.48
206.858	-9.23
207.245	-26.09
207.631	19.06
208.017	23.18
208.403	-9.3
208.789	70.66
209.175	32.63
209.561	3.21
209.947	32.58
210.333	-16.46
210.719	18.88
211.105	23.12
211.491	8.16
211.876	20.11
212.262	-0.24
212.648	55.41
213.034	39.83
213.419	8.04
213.805	-3.01
214.19	8.86
214.576	7.41
214.961	16.59
215.346	-10.64
215.732	35.53
216.117	11.09
216.502	4.08
216.888	-5.9
217.273	18.21
217.658	11.09
218.043	32.92
218.428	-14.74
218.813	-7.27
219.198	-8.36
219.583	-1.45
219.968	-11.01
220.353	-1.17
220.738	8.38
221.122	8.01
221.507	2.97
221.892	-4.64
222.276	-1.88
222.661	8.04
223.046	13.44
223.43	30.34
223.815	13.01
224.199	7.44
224.583	0.11
224.968	-0.03
225.352	11.55
225.736	8.31
226.121	-1.01
226.505	6.71
226.889	6.91
227.273	-2.84
227.657	3.96
228.041	1.69
228.425	-1.18
228.809	4.17
229.193	3.83
229.577	0.5
229.961	2.9
230.344	2.51
230.728	1.29
231.112	2.6
231.495	1.51
231.879	1.98
232.263	2.72
232.646	3.4
233.03	3.89
233.413	1.64
233.797	4.05
234.18	2.29
234.563	5.5
234.946	2.23
235.33	3.53
235.713	1.69
236.096	2.17
236.479	3.75
236.862	1.63
237.245	2.67
237.628	2.41
238.011	3.66
238.394	3.29
238.777	-0.36
239.16	2.83
239.543	2.99
239.925	2.56
240.308	4.9
240.691	4.14
241.073	2.43
241.456	1.51
241.838	3.4
242.221	1.81
242.603	2.97
242.986	2.05
243.368	2.19
243.75	2.88
244.133	1.89
244.515	2.43
244.897	2.4
245.279	3.1
245.661	2.66
246.043	1.9
246.425	1.35
246.807	3.17
247.189	2.54
247.571	2.15
247.953	2.3
248.335	1.99
248.717	2.05
249.098	1.91
249.48	2.16
249.862	1.98
250.243	2.18
250.625	2.41
251.006	2.34
251.388	0.63
251.769	2.48
252.151	2.86
252.532	2.22
252.913	1.04
253.295	0.96
253.676	2.05
254.057	1.73
254.438	2.09
254.819	2.35
255.2	1.76
255.581	2.59
255.962	1.51
256.343	3.03
256.724	2.6
257.105	2.22
257.486	1.35
257.867	3.58
258.247	2.63
258.628	2.27
259.009	1.16
259.389	2.99
259.77	1.58
260.15	1.73
260.531	1.31
260.911	2.31
261.292	1.97
261.672	2.18
262.052	2.03
262.432	2.31
262.813	2.3
263.193	2.09
263.573	1.63
263.953	1.74
264.333	2.59
264.713	2.5
265.093	1.75
265.473	3.07
265.853	1.28
266.233	2.47
266.612	0.83
266.992	0.72
267.372	2.26
267.752	2.48
268.131	1.9
268.511	2.5
268.89	2.88
269.27	2.3
269.649	1.52
270.029	1.87
270.408	3.12
270.787	2.18
271.167	2.44
271.546	1.92
271.925	1.23
272.304	2.31
272.683	2.42
273.062	2.11
273.441	2.27
273.82	1.33
274.199	1.9
274.578	1.95
274.957	2.06
275.336	2.01
275.715	2.04
276.093	2.11
276.472	2.42
276.851	1.69
277.229	1.71
277.608	1.64
277.986	1.84
278.365	1.97
278.743	1.34
279.122	2.65
279.5	2.07
279.878	2.2
280.257	1.66
280.635	1.87
281.013	1.74
281.391	1.75
281.769	2.55
282.147	1.85
282.525	2.39
282.903	2.22
283.281	1.86
283.659	1.7
284.037	2.02
284.415	2.01
284.792	2.39
285.17	1.34
285.548	1.55
285.925	2.09
286.303	2.31
286.68	2.03
287.058	2
287.435	2.35
287.813	2.15
288.19	1.95
288.567	2
288.945	2.45
289.322	2.32
289.699	2.08
290.076	2.2
290.453	2.13
290.83	1.86
291.207	1.38
291.584	2.33
291.961	2.52
292.338	1.88
292.715	2.46
293.092	1.96
293.469	2.26
293.845	2.86
294.222	1.68
294.599	2.53
294.975	2.22
295.352	2.6
295.728	2.03
296.105	2.27
296.481	1.96
296.858	2.29
297.234	2.05
297.61	2.26
297.986	2.37
298.363	2.31
298.739	2.52
299.115	2.14
299.491	1.8
299.867	2.05
300.243	2.35
300.619	2.01
300.995	2.61
301.371	2.28
301.746	1.89
302.122	2.33
302.498	2.35
302.874	2.66
303.249	2.6
303.625	2.55
304	3.21
304.376	2.83
304.751	1.71
305.127	3.46
305.502	2.48
305.878	1.83
306.253	1.93
306.628	3.53
307.003	2.3
307.378	2.89
307.754	2.24
308.129	1.77
308.504	2.91
308.879	2.47
309.254	3.23
309.629	2.74
310.003	2.91
310.378	2.98
310.753	2.82
311.128	2.79
311.502	2.39
311.877	3.43
312.252	2.04
312.626	2.8
313.001	2.52
313.375	2.78
313.75	2.23
314.124	3.09
314.498	2.31
314.873	2.46
315.247	2.86
315.621	2.58
315.995	2.56
316.369	2.8
316.743	2.52
317.117	3.02
317.491	3.22
317.865	2.89
318.239	2.71
318.613	2.84
318.987	2.5
319.361	2.66
319.734	2.8
320.108	3.2
320.482	2.46
320.855	2.57
321.229	2.44
321.602	2.03
321.976	3.05
322.349	3.15
322.723	2.59
323.096	3.06
323.469	2.85
323.843	2.58
324.216	2.77
324.589	2.37
324.962	2.61
325.335	2.67
325.708	2.98
326.081	2.97
326.454	2.32
326.827	2.94
327.2	2.79
327.573	3.02
327.945	2.68
328.318	2.27
328.691	2.43
329.063	2.7
329.436	2.34
329.809	3.35
330.181	2.87
330.553	2.7
330.926	2.99
331.298	2.67
331.671	2.6
332.043	3.15
332.415	3.37
332.787	2.78
333.159	3.16
333.532	3.48
333.904	2.95
334.276	2.91
334.648	2.96
335.02	3.08
335.391	2.36
335.763	2.38
336.135	2.9
336.507	2.97
336.879	2.84
337.25	2.91
337.622	2.79
337.993	2.87
338.365	2.75
338.736	3.37
339.108	2.91
339.479	2.79
339.851	2.81
340.222	2.84
340.593	3.05
340.964	2.8
341.336	3.86
341.707	2.34
342.078	3.6
342.449	3.21
342.82	3.13
343.191	3.02
343.562	3.02
343.933	3.15
344.303	2.87
344.674	2.79
345.045	3.12
345.416	3.12
345.786	2.21
346.157	2.3
346.527	2.08
346.898	2.62
347.268	2.65
347.639	2.61
348.009	2.85
348.38	2.59
348.75	2.64
349.12	2.89
349.49	3.35
349.861	3.08
350.231	2.81
350.601	2.98
350.971	3.08
351.341	2.7
351.711	2.67
352.081	2.89
352.45	2.66
352.82	3.37
353.19	2.73
353.56	3.14
353.929	3.23
354.299	2.4
354.669	2.76
355.038	2.9
355.408	2.91
355.777	3.27
356.147	2.8
356.516	3.23
356.885	2.91
357.254	3.11
357.624	2.83
357.993	3.04
358.362	2.75
358.731	2.58
359.1	2.93
359.469	2.93
359.838	2.89
360.207	3.03
360.576	2.84
360.945	2.84
361.314	3.19
361.682	2.67
362.051	2.85
362.42	2.91
362.788	2.77
363.157	3.08
363.525	3.25
363.894	3
364.262	3.1
364.631	2.95
364.999	3.02
365.367	2.69
365.735	3.51
366.104	3.13
366.472	3.43
366.84	2.81
367.208	2.82
367.576	3.15
367.944	3
368.312	2.84
368.68	2.87
369.048	2.89
369.416	3.07
369.783	2.34
370.151	2.95
370.519	3.4
370.886	3.34
371.254	3.09
371.621	2.84
371.989	3.04
372.356	2.6
372.724	2.99
373.091	2.72
373.458	2.82
373.826	3.01
374.193	2.84
374.56	3.33
374.927	3.5
375.294	3.01
375.661	2.96
376.028	2.72
376.395	2.92
376.762	2.79
377.129	3.11
377.496	3.08
377.863	3.55
378.229	2.61
378.596	2.93
378.963	2.83
379.329	2.72
379.696	3.17
380.062	3.11
380.429	3.26
380.795	3.07
381.161	3.38
381.528	3.11
381.894	3.02
382.26	3.01
382.626	2.93
382.993	2.7
383.359	3.29
383.725	2.7
384.091	2.88
384.457	3.38
384.823	3.45
385.188	3.09
385.554	2.95
385.92	3.18
386.286	3.08
386.651	3.29
387.017	3
387.383	2.99
387.748	3.13
388.114	3.33
388.479	3.09
388.845	3.11
389.21	3.28
389.575	3.32
389.94	3.11
390.306	2.97
390.671	3.26
391.036	2.94
391.401	2.57
391.766	3.22
392.131	3
392.496	3
392.861	2.89
393.226	3.36
393.591	2.99
393.956	2.98
394.32	3.21
394.685	2.87
395.05	2.9
395.414	3.07
395.779	2.93
396.143	2.97
396.508	3.06
396.872	3.14
397.236	3.21
397.601	2.82
397.965	3.16
398.329	3.09
398.694	3.13
399.058	2.93
399.422	2.86
399.786	3.4
400.15	3.05
400.514	3.28
400.878	3.13
401.242	3.3
401.605	3.4
401.969	3.3
402.333	3.18
402.697	3.07
403.06	3.17
403.424	3.19
403.787	3.13
404.151	3.33
404.514	3.17
404.878	2.96
405.241	3.22
405.604	3.11
405.968	3.13
406.331	3.31
406.694	3.35
407.057	3.34
407.42	3.33
407.783	3.13
408.146	3.24
408.509	3.25
408.872	2.98
409.235	2.86
409.598	3.51
409.961	3.2
410.323	3.36
410.686	3.13
411.049	2.99
411.411	3.09
411.774	3.34
412.136	2.98
412.499	3.07
412.861	3.27
413.223	3.21
413.586	3.21
413.948	3.31
414.31	3.16
414.672	3.11
415.035	3.23
415.397	3.53
415.759	3.13
416.121	3.27
416.483	3.18
416.845	3.21
417.206	3.09
417.568	3.37
417.93	3.02
418.292	3.31
418.653	3.12
419.015	3.17
419.377	2.99
419.738	3.21
420.1	3.22
420.461	3.12
420.822	3.14
421.184	3.18
421.545	3.19
421.906	3.06
422.267	3.1
422.629	3.11
422.99	3.05
423.351	3.16
423.712	3.17
424.073	3.15
424.434	3.02
424.795	3.1
425.155	2.99
425.516	3.07
425.877	3.15
426.238	3.13
426.598	3.18
426.959	3.11
427.32	3.15
427.68	3.14
428.041	3.07
428.401	3.44
428.761	3.21
429.122	3.33
429.482	3.19
429.842	3.41
430.202	3.2
430.563	3.36
430.923	3.06
431.283	3.36
431.643	3.36
432.003	3.23
432.363	3.41
432.722	3.19
433.082	3.39
433.442	3.2
433.802	3.14
434.161	3.2
434.521	3.44
434.881	3.27
435.24	3.26
435.6	3.34
435.959	3.25
436.319	3.18
436.678	3.32
437.037	3.3
437.396	3.51
437.756	3.31
438.115	3.29
438.474	3.47
438.833	3.16
439.192	3.16
439.551	3.42
439.91	3.31
440.269	3.37
440.628	3.16
440.987	3.3
441.345	3.18
441.704	3.3
442.063	3.14
442.421	3.25
442.78	3.28
443.138	3.27
443.497	3.2
443.855	3.33
444.214	3.42
444.572	3.49
444.93	3.42
445.288	3.39
445.647	3.44
446.005	3.16
446.363	3.31
446.721	3.4
447.079	3.1
447.437	3.19
447.795	3.26
448.153	3.17
448.51	3.25
448.868	3.2
449.226	3.37
449.584	3.31
449.941	3.46
450.299	3.49
450.656	3.3
451.014	3.33
451.371	3.27
451.729	3.25
452.086	3.54
452.443	3.51
452.801	3.6
453.158	3.42
453.515	3.39
453.872	3.58
454.229	3.39
454.586	3.39
454.943	3.55
455.3	3.61
455.657	3.4
456.014	3.35
456.371	3.49
456.727	3.57
457.084	3.59
457.441	3.41
457.797	3.47
458.154	3.69
458.51	3.48
458.867	3.51
459.223	3.59
459.58	3.58
459.936	3.53
460.292	3.39
460.648	3.37
461.005	3.35
461.361	3.42
461.717	3.32
462.073	3.31
462.429	3.43
462.785	3.45
463.141	3.46
463.496	3.44
463.852	3.56
464.208	3.57
464.564	3.56
464.919	3.63
465.275	3.49
465.631	3.73
465.986	3.51
466.342	3.5
466.697	3.44
467.052	3.65
467.408	3.52
467.763	3.63
468.118	3.49
468.473	3.55
468.829	3.49
469.184	3.5
469.539	3.75
469.894	3.36
470.249	3.69
470.603	3.42
470.958	3.66
471.313	3.69
471.668	3.8
472.023	3.57
472.377	3.58
472.732	3.52
473.086	3.56
473.441	3.49
473.795	3.68
474.15	3.64
474.504	3.52
474.859	3.73
475.213	3.43
475.567	3.52
475.921	3.52
476.275	3.65
476.63	3.7
476.984	3.64
477.338	3.69
477.692	3.49
478.045	3.57
478.399	3.59
478.753	3.53
479.107	3.64
479.461	3.49
479.814	3.6
480.168	3.69
480.521	3.44
480.875	3.61
481.228	3.61
481.582	3.73
481.935	3.64
482.289	3.61
482.642	3.71
482.995	3.51
483.348	3.63
483.701	3.54
484.055	3.59
484.408	3.58
484.761	3.5
485.114	3.35
485.466	3.26
485.819	3.35
486.172	3.41
486.525	3.43
486.878	3.52
487.23	3.53
487.583	3.6
487.936	3.59
488.288	3.5
488.641	3.58
488.993	3.51
489.345	3.4
489.698	3.45
490.05	3.44
490.402	3.55
490.754	3.59
491.107	3.68
491.459	3.6
491.811	3.65
492.163	3.72
492.515	3.64
492.866	3.68
493.218	3.53
493.57	3.54
493.922	3.53
494.274	3.65
494.625	3.71
494.977	3.78
495.328	3.85
495.68	3.88
496.031	3.87
496.383	3.84
496.734	3.98
497.086	3.99
497.437	3.96
497.788	3.8
498.139	3.65
498.49	3.78
498.842	3.67
499.193	3.77
499.544	3.83
499.894	3.89
500.245	3.83
500.596	3.89
500.947	3.88
501.298	3.77
501.648	3.86
501.999	3.91
502.35	3.82
502.7	3.94
503.051	3.64
503.401	3.82
503.752	3.95
504.102	3.9
504.452	3.94
504.803	3.72
505.153	3.9
505.503	3.91
505.853	3.83
506.203	3.87
506.553	3.82
506.903	3.97
507.253	3.98
507.603	3.89
507.953	3.94
508.303	4.01
508.652	3.82
509.002	3.99
509.352	4.21
509.701	4
510.051	3.84
510.4	3.92
510.75	4.02
511.099	4.07
511.449	3.97
511.798	3.96
512.147	3.94
512.496	3.93
512.846	4.01
513.195	3.93
513.544	4
513.893	4.04
514.242	3.97
514.591	4.19
514.939	3.98
515.288	3.94
515.637	4.14
515.986	4.16
516.334	4.03
516.683	4.13
517.032	4.14
517.38	4.14
517.729	4.13
518.077	4.04
518.426	4.18
518.774	4.13
519.122	4.06
519.47	4.03
519.819	3.94
520.167	4.07
520.515	4.05
520.863	4.05
521.211	4.09
521.559	4.23
521.907	4.07
522.255	4.13
522.602	4.15
522.95	4.18
523.298	4.31
523.645	4.23
523.993	4.19
524.341	4.36
524.688	4.22
525.036	4.24
525.383	4.25
525.73	4.47
526.078	4.23
526.425	4.23
526.772	4.33
527.119	4.24
527.466	4.11
527.814	4.14
528.161	4.25
528.508	4.28
528.854	4.22
529.201	4.17
529.548	4.1
529.895	4.07
530.242	3.93
530.588	3.97
530.935	4.12
531.282	4.17
531.628	4.2
531.975	4.19
532.321	4.29
532.667	4.32
533.014	4.37
533.36	4.31
533.706	4.36
534.052	4.34
534.399	4.16
534.745	4.13
535.091	4.14
535.437	4.24
535.783	4.3
536.129	4.34
536.474	4.36
536.82	4.37
537.166	4.54
537.512	4.45
537.857	4.47
538.203	4.39
538.549	4.3
538.894	4.45
539.239	4.55
539.585	4.44
539.93	4.54
540.276	4.6
540.621	4.75
540.966	4.57
541.311	4.59
541.656	4.54
542.001	4.49
542.346	4.58
542.691	4.38
543.036	4.29
543.381	4.34
543.726	4.4
544.071	4.51
544.415	4.6
544.76	4.53
545.105	4.6
545.449	4.63
545.794	4.74
546.138	4.7
546.483	4.79
546.827	4.8
547.171	4.75
547.516	4.92
547.86	4.63
548.204	4.63
548.548	4.63
548.892	4.76
549.236	4.69
549.58	4.81
549.924	4.87
550.268	4.98
550.612	4.97
550.956	5.02
551.3	5.03
551.643	5.14
551.987	5.18
552.33	5
552.674	5.14
553.017	5.07
553.361	4.99
553.704	5.24
554.048	5.07
554.391	5.03
554.734	4.96
555.077	5.09
555.42	5.02
555.764	5.2
556.107	5.04
556.45	5.13
556.793	5.02
557.135	5.16
557.478	5.38
557.821	5.32
558.164	5.13
558.507	5.3
558.849	5.09
559.192	5.41
559.534	5.15
559.877	5.27
560.219	5.12
560.562	5.58
560.904	5.37
561.246	5.32
561.589	5.52
561.931	5.16
562.273	5.27
562.615	5.43
562.957	5.45
563.299	5.21
563.641	5.33
563.983	5.5
564.325	5.22
564.667	5.33
565.008	5.44
565.35	5.47
565.692	5.44
566.033	5.53
566.375	5.59
566.716	5.68
567.058	5.61
567.399	5.47
567.741	5.47
568.082	5.4
568.423	5.6
568.764	5.48
569.105	5.74
569.447	5.7
569.788	5.78
570.129	5.84
570.47	5.74
570.811	5.84
571.151	5.74
571.492	5.96
571.833	5.73
572.174	5.71
572.514	5.97
572.855	5.9
573.195	5.81
573.536	5.72
573.876	5.76
574.217	5.81
574.557	5.98
574.898	5.97
575.238	6.08
575.578	5.83
575.918	6
576.258	6.01
576.598	6.06
576.938	5.83
577.278	5.87
577.618	6.03
577.958	6.01
578.298	6.11
578.638	6.09
578.977	6.22
579.317	6.11
579.657	6.21
579.996	6.24
580.336	6.16
580.675	6.35
581.014	6.1
581.354	6.25
581.693	6.32
582.032	6.4
582.372	6.4
582.711	6.33
583.05	6.12
583.389	6.32
583.728	6.2
584.067	6.55
584.406	6.5
584.745	6.5
585.083	6.53
585.422	6.63
585.761	6.79
586.1	6.74
586.438	6.73
586.777	6.87
587.115	6.71
587.454	6.68
587.792	6.74
588.13	6.83
588.469	6.77
588.807	6.88
589.145	6.61
589.483	6.99
589.821	6.86
590.159	6.79
590.497	7.35
590.835	7.23
591.173	6.96
591.511	7.07
591.849	6.83
592.187	7.09
592.524	7.07
592.862	6.89
593.2	7.15
593.537	6.89
593.875	7.04
594.212	6.87
594.55	7.05
594.887	7.35
595.224	7.17
595.561	7.28
595.899	7.22
596.236	7.21
596.573	7.37
596.91	6.93
597.247	6.88
597.584	7.56
597.921	7.15
598.258	7.18
598.594	7.21
598.931	7.2
599.268	7.31
599.604	7.16
599.941	7.54
600.277	7.51
600.614	7.39
600.95	7.47
601.287	7.81
601.623	7.62
601.959	7.57
602.296	7.32
602.632	7.56
602.968	7.66
603.304	7.53
603.64	7.92
603.976	7.57
604.312	7.41
604.648	7.35
604.984	7.64
605.319	7.61
605.655	7.81
605.991	7.68
606.326	7.71
606.662	7.71
606.998	7.65
607.333	7.7
607.668	7.8
608.004	8.11
608.339	8.33
608.674	8.14
609.01	7.97
609.345	8.01
609.68	8.27
610.015	8.13
610.35	7.97
610.685	7.86
611.02	7.95
611.355	7.95
611.689	8.1
612.024	8.08
612.359	8.18
612.694	8.31
613.028	8.24
613.363	8.39
613.697	8.45
614.032	8.56
614.366	8.37
614.7	8.67
615.035	8.53
615.369	8.24
615.703	8.37
616.037	8.9
616.371	8.44
616.705	8.38
617.039	8.8
617.373	8.53
617.707	8.48
618.041	8.71
618.375	8.43
618.709	8.72
619.042	8.57
619.376	9.11
619.71	8.86
620.043	9.15
620.377	8.75
620.71	8.82
621.043	9
621.377	8.85
621.71	9.12
622.043	8.82
622.376	8.8
622.709	9.34
623.043	9.1
623.376	9.46
623.709	8.89
624.041	9.51
624.374	9.24
624.707	8.89
625.04	9.11
625.373	8.74
625.705	9.36
626.038	8.87
626.37	9.33
626.703	9.32
627.035	9.71
627.368	9.54
627.7	9.14
628.032	9.32
628.365	9.59
628.697	9.33
629.029	9.24
629.361	9.35
629.693	9.86
630.025	9.8
630.357	9.86
630.689	9.72
631.021	9.69
631.353	9.8
631.684	9.78
632.016	9.6
632.348	10.08
632.679	9.93
633.011	9.67
633.342	9.93
633.674	9.75
634.005	10.46
634.336	9.87
634.668	10.17
634.999	9.73
635.33	10.01
635.661	10.15
635.992	10.01
636.323	10.07
636.654	10.2
636.985	9.95
637.316	10.03
637.647	9.8
637.977	10.29
638.308	10.7
638.639	10.3
638.969	10.32
639.3	10.19
639.63	10.11
639.961	10.59
640.291	10.56
640.622	10.55
640.952	10.64
641.282	10.6
641.612	10.41
641.943	10.46
642.273	10.85
642.603	11.1
642.933	10.79
643.263	11.12
643.592	10.76
643.922	10.55
644.252	10.67
644.582	10.74
644.911	10.67
645.241	10.89
645.571	10.71
645.9	11.14
646.23	11.15
646.559	11.05
646.888	11.25
647.218	11.2
647.547	11.2
647.876	11.12
648.205	11
648.534	10.83
648.863	10.91
649.192	11.42
649.521	11.19
649.85	10.97
650.179	11.48
650.508	10.79
650.837	11.58
651.165	11.07
651.494	11.49
651.822	11.48
652.151	11.02
652.479	11.65
652.808	11.06
653.136	11.36
653.465	11.11
653.793	11.29
654.121	11.21
654.449	11.74
654.777	12.26
655.105	12
655.433	11.49
655.761	11.63
656.089	12.13
656.417	12.1
656.745	11.9
657.073	11.72
657.4	12.32
657.728	11.95
658.056	12.17
658.383	11.73
658.711	12.21
659.038	12.05
659.365	12.5
659.693	12
660.02	11.56
660.347	12.33
660.674	11.94
661.001	12.2
661.329	11.33
661.656	12.41
661.982	12.26
662.309	12.03
662.636	12.05
662.963	12.79
663.29	12.96
663.616	13.06
663.943	12.48
664.27	12.56
664.596	12.53
664.923	12.55
665.249	12.05
665.576	13.06
665.902	13.79
666.228	12.8
666.554	12.89
666.881	12.66
667.207	12.51
667.533	12.91
667.859	12.81
668.185	13.08
668.511	12.73
668.837	12.7
669.162	12.78
669.488	12.14
669.814	13.39
670.139	13.87
670.465	13.43
670.791	12.85
671.116	13.57
671.442	12.9
671.767	13.74
672.092	13.48
672.418	13.12
672.743	13.81
673.068	13.08
673.393	13.37
673.718	13.86
674.043	14.12
674.368	13.12
674.693	14.27
675.018	13.74
675.343	13.54
675.667	13.45
675.992	13.68
676.317	13.65
676.641	14.26
676.966	14.89
677.29	14.01
677.615	14.08
677.939	13.99
678.264	14.84
678.588	14.04
678.912	14.09
679.236	14.33
679.56	13.38
679.885	14.39
680.209	13.95
680.532	13.95
680.856	14.7
681.18	14.41
681.504	14.12
681.828	14.32
682.152	14
682.475	14.09
682.799	14.26
683.122	14.63
683.446	14.27
683.769	14.48
684.093	14.06
684.416	14.63
684.739	14.63
685.062	14.77
685.386	14.57
685.709	14.12
686.032	14.61
686.355	15.25
686.678	14.47
687.001	15.22
687.324	15.18
687.646	14.68
687.969	14.04
688.292	14.31
688.614	14.86
688.937	15.82
689.26	14.61
689.582	15.32
