Data from 0419_crown_Reflection__1__06.txt Node

Date: Fri Dec 15 16:31:06 CST 2023
User: ToomeyLab
Spectrometer: FLMS14357
Trigger mode: 0
Integration Time (sec): 1.000000E-2
Scans to average: 100
Electric dark correction enabled: true
Nonlinearity correction enabled: false
Boxcar width: 0
XAxis mode: Wavelengths
Number of Pixels in Spectrum: 2048
>>>>>Begin Spectral Data<<<<<
189.047	-91.32
189.435	-91.32
189.823	-91.32
190.211	15.98
190.599	-64.78
190.987	11.91
191.375	-240.34
191.763	-586.43
192.151	56.48
192.538	219.98
192.926	-326.33
193.314	-81.63
193.702	125.5
194.089	-663.1
194.477	9.89
194.864	420.44
195.252	165.32
195.639	146.86
196.027	103.78
196.414	79.79
196.801	91.47
197.189	155.92
197.576	-323.32
197.963	88.52
198.351	-53.15
198.738	-5.3
199.125	15.97
199.512	25.08
199.899	40.88
200.286	40.03
200.673	-1.21
201.06	14.7
201.447	4.41
201.833	16.9
202.22	22.37
202.607	70.2
202.994	-15.53
203.38	18.35
203.767	54.12
204.154	-20.09
204.54	26.33
204.927	-8.27
205.313	-30.76
205.699	8.36
206.086	35.21
206.472	37.96
206.858	26.49
207.245	4.66
207.631	7.01
208.017	-6.56
208.403	40.22
208.789	7.88
209.175	14.37
209.561	5.44
209.947	6.28
210.333	17.44
210.719	11.56
211.105	49.35
211.491	-20.45
211.876	11.13
212.262	20.75
212.648	32.75
213.034	30.96
213.419	10.8
213.805	8.7
214.19	-34.63
214.576	-10.77
214.961	-2.25
215.346	-14.52
215.732	2.58
216.117	23.23
216.502	10.4
216.888	7.52
217.273	26.81
217.658	7.31
218.043	24.64
218.428	-1.13
218.813	-21.75
219.198	-0.18
219.583	-7.81
219.968	27.19
220.353	-0.55
220.738	26.59
221.122	12.17
221.507	5.64
221.892	-2.62
222.276	-3.84
222.661	12.66
223.046	12.97
223.43	13.48
223.815	11.25
224.199	-13.87
224.583	6.03
224.968	8.51
225.352	8.91
225.736	-2.58
226.121	-2.13
226.505	10.21
226.889	8.28
227.273	3.19
227.657	8.2
228.041	2.09
228.425	5.81
228.809	10.1
229.193	3.28
229.577	1.84
229.961	3.84
230.344	2.44
230.728	2.9
231.112	4.34
231.495	3.46
231.879	3.09
232.263	5.07
232.646	4.36
233.03	3.13
233.413	2.04
233.797	4.99
234.18	3.11
234.563	6.04
234.946	2.72
235.33	6.39
235.713	4.08
236.096	3.99
236.479	4.36
236.862	1.61
237.245	4.92
237.628	3.91
238.011	3.91
238.394	5.53
238.777	3.23
239.16	0.82
239.543	3.58
239.925	5.73
240.308	3.03
240.691	5.4
241.073	3.97
241.456	3.73
241.838	3.34
242.221	2.4
242.603	3.56
242.986	3.14
243.368	3.39
243.75	3
244.133	2.49
244.515	3.58
244.897	3.48
245.279	3.91
245.661	2.77
246.043	2.78
246.425	3.04
246.807	4.05
247.189	3.01
247.571	3.99
247.953	3.27
248.335	2.63
248.717	3.12
249.098	2.85
249.48	3.39
249.862	2.86
250.243	3.09
250.625	2.96
251.006	3.52
251.388	3.31
251.769	2.94
252.151	3.86
252.532	3.23
252.913	2.15
253.295	2.56
253.676	2.47
254.057	2.46
254.438	3.13
254.819	3.47
255.2	2.37
255.581	3.5
255.962	1.52
256.343	2.73
256.724	3.32
257.105	3.24
257.486	2.13
257.867	3.52
258.247	2.36
258.628	3.24
259.009	2.88
259.389	3.74
259.77	3.18
260.15	2.52
260.531	2.08
260.911	3.21
261.292	2.66
261.672	2.84
262.052	2.86
262.432	3.49
262.813	2.76
263.193	3.09
263.573	2.14
263.953	1.86
264.333	2.69
264.713	2.84
265.093	2.79
265.473	2.78
265.853	1.93
266.233	3.01
266.612	1.5
266.992	2.37
267.372	2.87
267.752	2.81
268.131	3.05
268.511	3.62
268.89	3.49
269.27	2.44
269.649	2.14
270.029	2.54
270.408	3.65
270.787	3.69
271.167	3.54
271.546	3.42
271.925	2.66
272.304	2.67
272.683	2.66
273.062	2.18
273.441	2.62
273.82	2.54
274.199	2.25
274.578	2.55
274.957	2.39
275.336	2.7
275.715	2.83
276.093	2.55
276.472	2.9
276.851	2.55
277.229	2.69
277.608	2.04
277.986	3.5
278.365	3.09
278.743	2.86
279.122	2.69
279.5	2.81
279.878	3.14
280.257	2.75
280.635	1.86
281.013	2.16
281.391	3.05
281.769	2.65
282.147	2.76
282.525	3.62
282.903	2.22
283.281	3
283.659	2.66
284.037	2.67
284.415	3.11
284.792	2.76
285.17	1.91
285.548	2.24
285.925	2.89
286.303	2.22
286.68	2.41
287.058	2.24
287.435	2.59
287.813	2.47
288.19	2.4
288.567	2.75
288.945	2.87
289.322	2.91
289.699	2.57
290.076	2.71
290.453	2.29
290.83	1.96
291.207	2.12
291.584	3.02
291.961	2.86
292.338	2.34
292.715	2.85
293.092	2.12
293.469	2.7
293.845	2.68
294.222	1.66
294.599	2.27
294.975	1.96
295.352	2.72
295.728	2.26
296.105	2.33
296.481	2.65
296.858	2.72
297.234	2.59
297.61	1.98
297.986	2.27
298.363	2.39
298.739	2.87
299.115	2.17
299.491	2.09
299.867	2.15
300.243	2.58
300.619	2.37
300.995	2.53
301.371	2.35
301.746	2.06
302.122	3
302.498	2.7
302.874	2.66
303.249	2.11
303.625	2.6
304	2.81
304.376	2.51
304.751	1.66
305.127	2.75
305.502	1.86
305.878	1.94
306.253	2.37
306.628	2.54
307.003	2.16
307.378	2.33
307.754	1.93
308.129	2.07
308.504	2.38
308.879	2.01
309.254	2.77
309.629	2.55
310.003	2.51
310.378	2.8
310.753	2.64
311.128	2.41
311.502	2.68
311.877	2.96
312.252	2.01
312.626	2.51
313.001	1.86
313.375	2.74
313.75	2.12
314.124	2.37
314.498	2.21
314.873	2.18
315.247	2.25
315.621	2.35
315.995	1.99
316.369	2.37
316.743	2.3
317.117	2.03
317.491	2.44
317.865	2.72
318.239	2.45
318.613	2.82
318.987	1.9
319.361	1.78
319.734	2.72
320.108	2.58
320.482	2.11
320.855	2.89
321.229	2.41
321.602	1.9
321.976	2.26
322.349	2.61
322.723	2.29
323.096	2.91
323.469	1.51
323.843	2.51
324.216	2.78
324.589	1.86
324.962	2.18
325.335	1.67
325.708	2.09
326.081	2.16
326.454	2.68
326.827	2.54
327.2	2.54
327.573	2.57
327.945	2.29
328.318	1.96
328.691	1.59
329.063	2.55
329.436	2.21
329.809	2.36
330.181	2.45
330.553	2.29
330.926	2.78
331.298	1.84
331.671	2.27
332.043	3.01
332.415	2.85
332.787	2.77
333.159	2.68
333.532	2.34
333.904	2.31
334.276	2.31
334.648	2.52
335.02	2.2
335.391	2.81
335.763	2.34
336.135	2.61
336.507	2.55
336.879	1.87
337.25	2.39
337.622	2.24
337.993	2.35
338.365	2.07
338.736	2.69
339.108	2.79
339.479	1.84
339.851	2.54
340.222	2.44
340.593	2.46
340.964	1.9
341.336	2.88
341.707	1.97
342.078	2.36
342.449	2.77
342.82	2.29
343.191	2.4
343.562	2.22
343.933	2.64
344.303	2.55
344.674	2.73
345.045	2.55
345.416	2.22
345.786	1.72
346.157	2.28
346.527	1.66
346.898	1.98
347.268	2.41
347.639	2.36
348.009	2.41
348.38	2.24
348.75	1.89
349.12	2.04
349.49	2.46
349.861	2.1
350.231	2.08
350.601	2.22
350.971	2.28
351.341	1.98
351.711	1.95
352.081	2.41
352.45	2.35
352.82	2.75
353.19	2.37
353.56	2.04
353.929	2.31
354.299	2.19
354.669	2.01
355.038	2.73
355.408	2.28
355.777	2.51
356.147	2.26
356.516	2.34
356.885	2.14
357.254	2.33
357.624	2.6
357.993	2.29
358.362	2.39
358.731	2.29
359.1	2.37
359.469	2.21
359.838	2.53
360.207	2.02
360.576	2.35
360.945	2.36
361.314	2.69
361.682	2.19
362.051	2.27
362.42	2.84
362.788	2.41
363.157	2.18
363.525	2.32
363.894	2.37
364.262	2.28
364.631	2.4
364.999	2.57
365.367	1.94
365.735	2.71
366.104	2.59
366.472	2.85
366.84	2.27
367.208	2.14
367.576	2.67
367.944	2.52
368.312	2.49
368.68	2.05
369.048	2.56
369.416	2.46
369.783	2.12
370.151	2.53
370.519	3.09
370.886	2.77
371.254	2.46
371.621	2.38
371.989	2.84
372.356	2.02
372.724	2.44
373.091	2.21
373.458	2.36
373.826	2.19
374.193	2.53
374.56	2.69
374.927	2.51
375.294	2.26
375.661	2.7
376.028	2.28
376.395	2.27
376.762	2.48
377.129	2.5
377.496	2.02
377.863	2.56
378.229	2.02
378.596	2.48
378.963	2.09
379.329	2.51
379.696	2.67
380.062	2.63
380.429	2.28
380.795	2.27
381.161	2.54
381.528	2.91
381.894	2.29
382.26	2.06
382.626	2.73
382.993	2.37
383.359	2.73
383.725	2.37
384.091	2.77
384.457	2.76
384.823	2.58
385.188	2.39
385.554	2.31
385.92	2.67
386.286	2.72
386.651	2.55
387.017	2.7
387.383	2.53
387.748	2.55
388.114	2.85
388.479	2.5
388.845	2.75
389.21	2.67
389.575	2.78
389.94	2.49
390.306	2.51
390.671	2.62
391.036	2.47
391.401	2.51
391.766	2.64
392.131	2.34
392.496	2.28
392.861	2.35
393.226	2.76
393.591	2.55
393.956	2.37
394.32	2.64
394.685	2.45
395.05	2.48
395.414	2.56
395.779	2.5
396.143	2.5
396.508	2.57
396.872	2.81
397.236	2.75
397.601	2.4
397.965	2.49
398.329	2.42
398.694	2.56
399.058	2.58
399.422	2.41
399.786	2.77
400.15	2.43
400.514	2.42
400.878	2.75
401.242	2.78
401.605	2.65
401.969	2.47
402.333	2.45
402.697	2.61
403.06	2.69
403.424	2.58
403.787	2.54
404.151	2.62
404.514	2.51
404.878	2.41
405.241	2.66
405.604	2.52
405.968	2.81
406.331	2.52
406.694	2.86
407.057	2.53
407.42	2.65
407.783	2.49
408.146	2.53
408.509	2.76
408.872	2.57
409.235	2.85
409.598	2.74
409.961	2.44
410.323	2.83
410.686	2.69
411.049	2.51
411.411	2.63
411.774	2.6
412.136	2.63
412.499	2.67
412.861	2.52
413.223	2.69
413.586	2.7
413.948	2.67
414.31	2.8
414.672	2.54
415.035	2.56
415.397	2.94
415.759	2.54
416.121	2.69
416.483	2.52
416.845	2.7
417.206	2.71
417.568	2.86
417.93	2.37
418.292	2.51
418.653	2.48
419.015	2.64
419.377	2.58
419.738	2.6
420.1	2.67
420.461	2.57
420.822	2.63
421.184	2.51
421.545	2.65
421.906	2.6
422.267	2.54
422.629	2.62
422.99	2.56
423.351	2.48
423.712	2.55
424.073	2.55
424.434	2.71
424.795	2.73
425.155	2.58
425.516	2.43
425.877	2.45
426.238	2.5
426.598	2.63
426.959	2.69
427.32	2.58
427.68	2.55
428.041	2.62
428.401	2.68
428.761	2.76
429.122	2.76
429.482	2.43
429.842	2.67
430.202	2.74
430.563	2.66
430.923	2.51
431.283	2.81
431.643	2.73
432.003	2.8
432.363	2.75
432.722	2.58
433.082	2.52
433.442	2.66
433.802	2.57
434.161	2.69
434.521	2.73
434.881	2.72
435.24	2.47
435.6	2.69
435.959	2.75
436.319	2.65
436.678	2.59
437.037	2.7
437.396	2.69
437.756	2.83
438.115	2.43
438.474	2.68
438.833	2.66
439.192	2.61
439.551	2.74
439.91	2.58
440.269	2.55
440.628	2.56
440.987	2.65
441.345	2.48
441.704	2.61
442.063	2.61
442.421	2.56
442.78	2.56
443.138	2.62
443.497	2.63
443.855	2.64
444.214	2.69
444.572	2.7
444.93	2.66
445.288	2.73
445.647	2.87
446.005	2.66
446.363	2.73
446.721	2.79
447.079	2.41
447.437	2.47
447.795	2.55
448.153	2.49
448.51	2.56
448.868	2.6
449.226	2.65
449.584	2.66
449.941	2.7
450.299	2.67
450.656	2.74
451.014	2.68
451.371	2.72
451.729	2.59
452.086	2.94
452.443	2.62
452.801	2.82
453.158	2.7
453.515	2.5
453.872	2.76
454.229	2.54
454.586	2.61
454.943	2.67
455.3	2.79
455.657	2.65
456.014	2.68
456.371	2.64
456.727	2.61
457.084	2.82
457.441	2.71
457.797	2.64
458.154	3
458.51	2.89
458.867	2.9
459.223	2.73
459.58	2.62
459.936	2.71
460.292	2.7
460.648	2.74
461.005	2.62
461.361	2.64
461.717	2.65
462.073	2.57
462.429	2.68
462.785	2.82
463.141	2.72
463.496	2.84
463.852	2.87
464.208	2.63
464.564	2.8
464.919	2.7
465.275	2.68
465.631	2.93
465.986	2.73
466.342	2.72
466.697	2.65
467.052	2.74
467.408	2.88
467.763	2.84
468.118	2.63
468.473	2.63
468.829	2.7
469.184	2.52
469.539	2.85
469.894	2.63
470.249	2.73
470.603	2.98
470.958	2.93
471.313	2.75
471.668	2.74
472.023	2.71
472.377	2.64
472.732	2.61
473.086	2.74
473.441	2.62
473.795	2.81
474.15	2.71
474.504	2.66
474.859	2.67
475.213	2.52
475.567	2.68
475.921	2.72
476.275	2.89
476.63	2.83
476.984	2.96
477.338	2.95
477.692	2.53
478.045	2.64
478.399	2.68
478.753	2.83
479.107	2.66
479.461	2.68
479.814	2.8
480.168	2.69
480.521	2.61
480.875	2.51
481.228	2.81
481.582	2.75
481.935	2.68
482.289	2.72
482.642	2.67
482.995	2.55
483.348	2.53
483.701	2.6
484.055	2.62
484.408	2.74
484.761	2.49
485.114	2.44
485.466	2.33
485.819	2.36
486.172	2.5
486.525	2.58
486.878	2.67
487.23	2.71
487.583	2.68
487.936	2.67
488.288	2.63
488.641	2.63
488.993	2.44
489.345	2.46
489.698	2.52
490.05	2.53
490.402	2.63
490.754	2.73
491.107	2.74
491.459	2.82
491.811	2.75
492.163	2.68
492.515	2.61
492.866	2.6
493.218	2.54
493.57	2.5
493.922	2.54
494.274	2.67
494.625	2.83
494.977	2.74
495.328	2.9
495.68	2.85
496.031	2.82
496.383	2.77
496.734	2.91
497.086	2.8
497.437	2.73
497.788	2.8
498.139	2.66
498.49	2.84
498.842	2.75
499.193	2.72
499.544	2.78
499.894	2.7
500.245	2.78
500.596	2.73
500.947	2.69
501.298	2.71
501.648	2.82
501.999	2.77
502.35	2.78
502.7	2.71
503.051	2.69
503.401	2.64
503.752	2.82
504.102	2.77
504.452	2.69
504.803	2.76
505.153	2.74
505.503	2.73
505.853	2.64
506.203	2.74
506.553	2.64
506.903	2.68
507.253	2.72
507.603	2.66
507.953	2.77
508.303	2.92
508.652	2.7
509.002	2.71
509.352	2.65
509.701	2.63
510.051	2.68
510.4	2.73
510.75	2.7
511.099	2.72
511.449	2.73
511.798	2.67
512.147	2.68
512.496	2.81
512.846	2.75
513.195	2.7
513.544	2.7
513.893	2.71
514.242	2.73
514.591	2.93
514.939	2.78
515.288	2.7
515.637	2.82
515.986	2.79
516.334	2.95
516.683	2.77
517.032	2.8
517.38	2.75
517.729	2.79
518.077	2.53
518.426	2.76
518.774	2.77
519.122	2.67
519.47	2.68
519.819	2.56
520.167	2.6
520.515	2.64
520.863	2.74
521.211	2.68
521.559	2.85
521.907	2.71
522.255	2.77
522.602	2.83
522.95	2.73
523.298	2.7
523.645	2.87
523.993	2.63
524.341	2.83
524.688	2.89
525.036	2.77
525.383	2.76
525.73	2.92
526.078	2.84
526.425	2.73
526.772	2.8
527.119	2.58
527.466	2.63
527.814	2.74
528.161	2.71
528.508	2.75
528.854	2.74
529.201	2.69
529.548	2.54
529.895	2.52
530.242	2.42
530.588	2.48
530.935	2.59
531.282	2.67
531.628	2.69
531.975	2.74
532.321	2.78
532.667	2.79
533.014	2.78
533.36	2.75
533.706	2.63
534.052	2.77
534.399	2.59
534.745	2.52
535.091	2.54
535.437	2.65
535.783	2.75
536.129	2.74
536.474	2.82
536.82	2.72
537.166	2.88
537.512	2.8
537.857	2.78
538.203	2.75
538.549	2.59
538.894	2.66
539.239	2.78
539.585	2.78
539.93	2.76
540.276	2.88
540.621	2.86
540.966	2.79
541.311	2.73
541.656	2.65
542.001	2.69
542.346	2.74
542.691	2.53
543.036	2.58
543.381	2.46
543.726	2.62
544.071	2.68
544.415	2.74
544.76	2.73
545.105	2.66
545.449	2.73
545.794	2.84
546.138	2.72
546.483	2.86
546.827	2.83
547.171	2.7
547.516	2.74
547.86	2.58
548.204	2.68
548.548	2.53
548.892	2.72
549.236	2.76
549.58	2.72
549.924	2.92
550.268	2.9
550.612	2.91
550.956	3
551.3	2.87
551.643	2.82
551.987	2.81
552.33	2.82
552.674	2.82
553.017	2.67
553.361	2.69
553.704	3.03
554.048	2.8
554.391	2.73
554.734	2.76
555.077	2.85
555.42	2.81
555.764	2.74
556.107	2.69
556.45	2.69
556.793	2.78
557.135	2.77
557.478	3.01
557.821	2.9
558.164	2.68
558.507	2.78
558.849	2.62
559.192	2.83
559.534	2.98
559.877	2.92
560.219	2.91
560.562	3.06
560.904	2.86
561.246	2.96
561.589	2.92
561.931	2.89
562.273	2.61
562.615	2.74
562.957	2.84
563.299	2.62
563.641	2.77
563.983	2.88
564.325	2.88
564.667	2.58
565.008	2.78
565.35	2.83
565.692	2.51
566.033	2.86
566.375	2.89
566.716	2.92
567.058	2.71
567.399	2.74
567.741	2.55
568.082	2.69
568.423	2.77
568.764	2.64
569.105	2.82
569.447	2.9
569.788	2.78
570.129	2.99
570.47	2.64
570.811	2.87
571.151	2.85
571.492	2.83
571.833	2.74
572.174	2.88
572.514	2.8
572.855	2.92
573.195	2.72
573.536	2.74
573.876	2.67
574.217	2.51
574.557	2.84
574.898	2.91
575.238	2.81
575.578	2.73
575.918	2.9
576.258	2.86
576.598	2.85
576.938	2.68
577.278	2.78
577.618	2.58
577.958	2.65
578.298	2.92
578.638	2.86
578.977	2.87
579.317	2.68
579.657	2.94
579.996	2.51
580.336	2.84
580.675	2.8
581.014	2.77
581.354	2.87
581.693	2.8
582.032	2.71
582.372	2.7
582.711	2.8
583.05	2.68
583.389	2.78
583.728	2.85
584.067	3.11
584.406	2.91
584.745	2.83
585.083	2.85
585.422	3.08
585.761	2.76
586.1	2.76
586.438	2.85
586.777	2.97
587.115	3.08
587.454	2.89
587.792	2.59
588.13	3
588.469	2.88
588.807	2.9
589.145	2.56
589.483	2.74
589.821	2.8
590.159	2.82
590.497	3.22
590.835	3.14
591.173	2.74
591.511	2.95
591.849	2.82
592.187	2.76
592.524	2.81
592.862	2.86
593.2	2.87
593.537	2.82
593.875	2.81
594.212	2.51
594.55	2.67
594.887	2.76
595.224	2.75
595.561	2.8
595.899	2.92
596.236	2.92
596.573	2.95
596.91	2.49
597.247	2.45
597.584	3.1
597.921	2.77
598.258	2.45
598.594	2.61
598.931	2.7
599.268	2.69
599.604	2.58
599.941	2.95
600.277	2.75
600.614	2.79
600.95	2.86
601.287	3.01
601.623	2.63
601.959	2.75
602.296	2.75
602.632	2.84
602.968	2.78
603.304	2.77
603.64	2.87
603.976	3.14
604.312	2.82
604.648	2.65
604.984	2.74
605.319	2.85
605.655	2.74
605.991	2.9
606.326	2.88
606.662	2.75
606.998	2.61
607.333	2.82
607.668	2.83
608.004	2.92
608.339	3.04
608.674	3.04
609.01	2.52
609.345	2.55
609.68	3.03
610.015	2.84
610.35	2.75
610.685	2.57
611.02	2.82
611.355	2.76
611.689	2.66
612.024	2.63
612.359	2.76
612.694	2.81
613.028	2.79
613.363	2.98
613.697	3.09
614.032	3.04
614.366	2.79
614.7	2.81
615.035	2.91
615.369	2.69
615.703	2.84
616.037	2.68
616.371	2.48
616.705	2.6
617.039	2.77
617.373	2.7
617.707	2.58
618.041	2.82
618.375	2.59
618.709	2.94
619.042	2.4
619.376	3.37
619.71	2.87
620.043	2.68
620.377	2.85
620.71	2.98
621.043	2.6
621.377	2.91
621.71	2.65
622.043	2.5
622.376	2.55
622.709	2.92
623.043	2.89
623.376	2.98
623.709	3.06
624.041	3.07
624.374	2.75
624.707	2.71
625.04	2.84
625.373	2.21
625.705	2.77
626.038	2.88
626.37	2.8
626.703	2.71
627.035	2.56
627.368	3.04
627.7	3.09
628.032	2.41
628.365	3.03
628.697	3.08
629.029	2.73
629.361	2.87
629.693	2.92
630.025	2.72
630.357	3.05
630.689	2.86
631.021	2.74
631.353	2.83
631.684	2.42
632.016	2.75
632.348	2.87
632.679	2.9
633.011	2.84
633.342	3.35
633.674	2.99
634.005	3.38
634.336	2.91
634.668	3.37
634.999	2.48
635.33	2.92
635.661	2.98
635.992	2.56
636.323	3.05
636.654	2.92
636.985	3
637.316	2.68
637.647	2.5
637.977	3.13
638.308	3.16
638.639	2.32
638.969	2.7
639.3	2.48
639.63	2.71
639.961	2.89
640.291	3.01
640.622	3
640.952	2.53
641.282	3.02
641.612	2.88
641.943	2.93
642.273	2.71
642.603	2.82
642.933	2.76
643.263	3.08
643.592	2.88
643.922	2.81
644.252	2.83
644.582	2.79
644.911	2.62
645.241	2.49
645.571	2.81
645.9	2.32
646.23	2.73
646.559	3
646.888	2.83
647.218	2.85
647.547	3.16
647.876	2.49
648.205	2.62
648.534	3.01
648.863	2.28
649.192	3.03
649.521	2.62
649.85	2.91
650.179	2.96
650.508	2.67
650.837	2.79
651.165	2.83
651.494	2.89
651.822	2.71
652.151	2.67
652.479	3
652.808	2.64
653.136	2.79
653.465	2.35
653.793	2.65
654.121	2.7
654.449	2.79
654.777	2.94
655.105	3.22
655.433	2.58
655.761	3.08
656.089	2.81
656.417	3.15
656.745	2.92
657.073	2.65
657.4	3.44
657.728	3.21
658.056	2.91
658.383	3.08
658.711	3.22
659.038	3.03
659.365	3.35
659.693	2.97
660.02	2.39
660.347	2.86
660.674	2.68
661.001	2.79
661.329	2.08
661.656	2.96
661.982	2.84
662.309	2.71
662.636	2.42
662.963	3.01
663.29	3.16
663.616	3.09
663.943	2.69
664.27	2.9
664.596	3
664.923	2.8
665.249	3.01
665.576	2.81
665.902	3.61
666.228	3.3
666.554	3.29
666.881	2.78
667.207	3.27
667.533	3.57
667.859	3.02
668.185	3.17
668.511	2.23
668.837	1.99
669.162	3.3
669.488	2.67
669.814	3.63
670.139	3.24
670.465	3.72
670.791	2.44
671.116	3.54
671.442	2.76
671.767	3.19
672.092	3.51
672.418	3.13
672.743	3.29
673.068	3.07
673.393	3.33
673.718	2.8
674.043	3.1
674.368	3.19
674.693	3.47
675.018	2.67
675.343	2.62
675.667	2.96
675.992	3.27
676.317	2.83
676.641	2.87
676.966	3.53
677.29	2.98
677.615	3.21
677.939	3.77
678.264	2.65
678.588	3.08
678.912	3.37
679.236	4.44
679.56	2.76
679.885	3.22
680.209	2.91
680.532	2.66
680.856	3.41
681.18	3.22
681.504	2.51
681.828	3.46
682.152	2.71
682.475	3.04
682.799	3.19
683.122	3.53
683.446	2.6
683.769	3.85
684.093	2.77
684.416	3.24
684.739	2.96
685.062	3.04
685.386	3.18
685.709	2.4
686.032	3.11
686.355	3.19
686.678	2.86
687.001	2.75
687.324	3.4
687.646	2.66
687.969	3.26
688.292	3.15
688.614	2.98
688.937	4.11
689.26	3.01
689.582	3.67
689.904	2.52
690.227	2.76
690.549	3.18
690.871	3.61
691.194	3.19
691.516	3.29
691.838	3
692.16	3.34
692.482	2.74
