Data from 0419_chest_Reflection__4__04.txt Node

Date: Fri Dec 15 16:29:42 CST 2023
User: ToomeyLab
Spectrometer: FLMS14357
Trigger mode: 0
Integration Time (sec): 1.000000E-2
Scans to average: 100
Electric dark correction enabled: true
Nonlinearity correction enabled: false
Boxcar width: 0
XAxis mode: Wavelengths
Number of Pixels in Spectrum: 2048
>>>>>Begin Spectral Data<<<<<
189.047	89.79
189.435	89.79
189.823	89.79
190.211	-128.16
190.599	31.21
190.987	74.12
191.375	19.61
191.763	-237.56
192.151	54.04
192.538	233.14
192.926	-186.75
193.314	1663.27
193.702	28.08
194.089	-1178.07
194.477	48.32
194.864	-290.75
195.252	157.8
195.639	101.77
196.027	23.39
196.414	-43.57
196.801	280.03
197.189	238.07
197.576	112.78
197.963	-71.28
198.351	-64.56
198.738	-22.94
199.125	14.73
199.512	-18.55
199.899	52.62
200.286	21.05
200.673	6.88
201.06	-11.36
201.447	-0.48
201.833	-19.26
202.22	40.91
202.607	45.3
202.994	25.81
203.38	36.53
203.767	37.52
204.154	6.35
204.54	50.43
204.927	-26.54
205.313	-5.42
205.699	5.3
206.086	46.34
206.472	17.93
206.858	14.7
207.245	-34.41
207.631	21.95
208.017	22
208.403	-16.29
208.789	34.28
209.175	6.22
209.561	11.19
209.947	-8.1
210.333	-19.02
210.719	23.18
211.105	39.03
211.491	-23.23
211.876	26.06
212.262	32.05
212.648	13.47
213.034	29.75
213.419	13.9
213.805	4.28
214.19	-11.34
214.576	16.22
214.961	-3.31
215.346	-34.35
215.732	0.77
216.117	7.36
216.502	5.12
216.888	14.33
217.273	3.57
217.658	-4.93
218.043	12.84
218.428	-28.31
218.813	-18.14
219.198	-14.38
219.583	7.58
219.968	8.35
220.353	-15.66
220.738	27.21
221.122	7.92
221.507	3.11
221.892	-20.88
222.276	-9.25
222.661	14.19
223.046	16.11
223.43	7.45
223.815	9.63
224.199	6.34
224.583	1.13
224.968	1.81
225.352	15
225.736	-0.38
226.121	1.31
226.505	2.97
226.889	8.43
227.273	4.33
227.657	11.05
228.041	5.89
228.425	1.27
228.809	7.02
229.193	3.45
229.577	1.08
229.961	3.65
230.344	1.8
230.728	2.12
231.112	3.39
231.495	3.39
231.879	3.14
232.263	3.3
232.646	2.36
233.03	3.23
233.413	1.54
233.797	2.77
234.18	3.67
234.563	1.27
234.946	1.15
235.33	2.1
235.713	4.73
236.096	1.94
236.479	6
236.862	1.19
237.245	4.27
237.628	2.63
238.011	3.14
238.394	5.43
238.777	3.12
239.16	3.1
239.543	3.82
239.925	3.79
240.308	2.67
240.691	3.89
241.073	3.14
241.456	3.84
241.838	2.74
242.221	2.57
242.603	2.73
242.986	3.43
243.368	3.72
243.75	3.5
244.133	2.8
244.515	2.99
244.897	3.34
245.279	2.73
245.661	2.93
246.043	1.77
246.425	1.58
246.807	3.49
247.189	3.47
247.571	4.22
247.953	3.17
248.335	3.02
248.717	3.21
249.098	3.12
249.48	3.24
249.862	3.19
250.243	3.17
250.625	3.27
251.006	3.56
251.388	2.01
251.769	3.4
252.151	2.8
252.532	4.35
252.913	2.12
253.295	2.67
253.676	2.61
254.057	2.66
254.438	2.78
254.819	2.54
255.2	2.99
255.581	2.18
255.962	2.63
256.343	3.32
256.724	2.99
257.105	2.24
257.486	2.64
257.867	3.47
258.247	3.36
258.628	2.51
259.009	2.37
259.389	2.93
259.77	3.16
260.15	2.07
260.531	2.35
260.911	3.37
261.292	3.09
261.672	2.85
262.052	3.05
262.432	3.44
262.813	3.29
263.193	2.86
263.573	2.75
263.953	2.69
264.333	4.11
264.713	2.78
265.093	1.81
265.473	3.48
265.853	1.46
266.233	3.98
266.612	1.47
266.992	1.46
267.372	3.09
267.752	2.3
268.131	2.82
268.511	3.09
268.89	3.15
269.27	2.78
269.649	2.75
270.029	2.51
270.408	4.37
270.787	3.16
271.167	3.46
271.546	3.44
271.925	2.5
272.304	2.84
272.683	2.83
273.062	2.48
273.441	3.22
273.82	2.63
274.199	3
274.578	3.15
274.957	2.82
275.336	3.28
275.715	2.78
276.093	2.72
276.472	2.82
276.851	3.22
277.229	2.25
277.608	2.21
277.986	2.77
278.365	3.45
278.743	2.24
279.122	2.86
279.5	2.91
279.878	2.98
280.257	2.52
280.635	2.24
281.013	2.83
281.391	3.37
281.769	3.23
282.147	3.1
282.525	3.38
282.903	2.61
283.281	3.38
283.659	3.25
284.037	2.91
284.415	2.62
284.792	2.8
285.17	2.95
285.548	3.05
285.925	2.87
286.303	2.8
286.68	2.63
287.058	2.54
287.435	3.2
287.813	3.02
288.19	2.53
288.567	2.68
288.945	3.26
289.322	3.25
289.699	3.21
290.076	2.2
290.453	2.94
290.83	3.03
291.207	2.6
291.584	3.4
291.961	3.31
292.338	3.11
292.715	3.42
293.092	3.27
293.469	3.26
293.845	3.36
294.222	2.64
294.599	3.08
294.975	2.92
295.352	3.02
295.728	2.88
296.105	3.44
296.481	3.39
296.858	3.46
297.234	3.17
297.61	3.64
297.986	3.55
298.363	3.81
298.739	3.19
299.115	3.53
299.491	3.33
299.867	3.32
300.243	3.88
300.619	3.6
300.995	3.89
301.371	3.97
301.746	4.06
302.122	4.05
302.498	3.45
302.874	4.15
303.249	3.75
303.625	4.04
304	3.97
304.376	3.72
304.751	3.26
305.127	4.86
305.502	3.05
305.878	3.61
306.253	3.79
306.628	4.17
307.003	4.33
307.378	4.25
307.754	3.09
308.129	3.18
308.504	4.2
308.879	3.94
309.254	5.38
309.629	4.33
310.003	4.09
310.378	4.74
310.753	4.53
311.128	4.18
311.502	4.17
311.877	4.18
312.252	3.52
312.626	3.83
313.001	3.63
313.375	3.64
313.75	3.89
314.124	4.08
314.498	3.85
314.873	4.34
315.247	4.02
315.621	3.63
315.995	3.23
316.369	4.1
316.743	4.18
317.117	4.86
317.491	4.41
317.865	4.05
318.239	3.43
318.613	3.77
318.987	4.79
319.361	4.2
319.734	4.72
320.108	4.08
320.482	4.21
320.855	4.78
321.229	3.39
321.602	4.19
321.976	3.77
322.349	3.92
322.723	3.65
323.096	5.07
323.469	3.79
323.843	4.58
324.216	5.49
324.589	4.58
324.962	4.63
325.335	4.32
325.708	4.59
326.081	4.27
326.454	4.06
326.827	4.94
327.2	3.74
327.573	4.75
327.945	4.28
328.318	4.33
328.691	3.54
329.063	4.29
329.436	4.55
329.809	4.89
330.181	3.94
330.553	4.25
330.926	4.59
331.298	4.52
331.671	4.34
332.043	4.56
332.415	4.79
332.787	4.3
333.159	4.99
333.532	4.45
333.904	4.61
334.276	4.45
334.648	4.73
335.02	4.6
335.391	4.33
335.763	4.07
336.135	4.74
336.507	4.15
336.879	4.45
337.25	4.48
337.622	4.23
337.993	4.24
338.365	4.45
338.736	4.46
339.108	4.25
339.479	5.1
339.851	4.47
340.222	3.86
340.593	4.31
340.964	3.72
341.336	4.98
341.707	4.31
342.078	5.02
342.449	4.95
342.82	4.52
343.191	4.73
343.562	4.82
343.933	4.77
344.303	4.73
344.674	4.52
345.045	4.69
345.416	5.14
345.786	4.25
346.157	4.48
346.527	4.23
346.898	4.13
347.268	4.42
347.639	4.19
348.009	4.47
348.38	4.26
348.75	4.63
349.12	4.24
349.49	5
349.861	4.51
350.231	3.94
350.601	4.43
350.971	4.98
351.341	5.12
351.711	4.48
352.081	4.53
352.45	4.16
352.82	4.41
353.19	4.41
353.56	4.24
353.929	4.58
354.299	4.56
354.669	4.06
355.038	4.91
355.408	4.14
355.777	4.87
356.147	4.85
356.516	4.32
356.885	4.45
357.254	4.56
357.624	4.79
357.993	4.5
358.362	4.47
358.731	4.24
359.1	4.08
359.469	4.89
359.838	4.92
360.207	4.33
360.576	4.51
360.945	4.15
361.314	4.55
361.682	4.31
362.051	4.24
362.42	4.74
362.788	4.29
363.157	4.62
363.525	4.69
363.894	4.53
364.262	4.44
364.631	4.57
364.999	4.78
365.367	4.34
365.735	5.45
366.104	4.74
366.472	4.9
366.84	4.28
367.208	4.5
367.576	4.75
367.944	4.95
368.312	4.21
368.68	4.21
369.048	4.64
369.416	4.86
369.783	4.55
370.151	4.64
370.519	5.19
370.886	4.77
371.254	4.27
371.621	4.62
371.989	4.72
372.356	4.43
372.724	4.58
373.091	4.45
373.458	4.85
373.826	4.61
374.193	4.46
374.56	4.85
374.927	4.34
375.294	4.56
375.661	4.48
376.028	4.5
376.395	4.58
376.762	4.45
377.129	4.67
377.496	4.47
377.863	4.5
378.229	4.18
378.596	4.62
378.963	4.47
379.329	4.64
379.696	5.08
380.062	4.7
380.429	4.61
380.795	4.63
381.161	4.54
381.528	4.92
381.894	4.46
382.26	4.59
382.626	4.79
382.993	4.56
383.359	4.86
383.725	4.26
384.091	4.5
384.457	4.85
384.823	4.41
385.188	4.43
385.554	4.62
385.92	5.12
386.286	5.03
386.651	4.9
387.017	5.08
387.383	4.53
387.748	4.52
388.114	4.87
388.479	4.65
388.845	4.85
389.21	5.03
389.575	4.71
389.94	4.73
390.306	4.96
390.671	5.06
391.036	4.45
391.401	4.56
391.766	4.74
392.131	4.5
392.496	4.96
392.861	4.67
393.226	4.9
393.591	4.74
393.956	4.78
394.32	4.68
394.685	4.63
395.05	4.75
395.414	5.01
395.779	4.6
396.143	4.91
396.508	4.87
396.872	5.06
397.236	4.92
397.601	4.78
397.965	4.85
398.329	4.95
398.694	5.01
399.058	5.1
399.422	4.57
399.786	5.21
400.15	5.16
400.514	4.96
400.878	4.82
401.242	5.17
401.605	4.92
401.969	5.02
402.333	5.01
402.697	5.04
403.06	5.05
403.424	5.06
403.787	4.71
404.151	5.01
404.514	4.71
404.878	4.79
405.241	5.05
405.604	4.88
405.968	5.06
406.331	4.88
406.694	5.22
407.057	5.1
407.42	5.16
407.783	4.77
408.146	5.01
408.509	4.88
408.872	4.85
409.235	5.13
409.598	5.11
409.961	5.17
410.323	5.35
410.686	5.03
411.049	4.85
411.411	5.06
411.774	5.13
412.136	5.02
412.499	4.94
412.861	4.97
413.223	4.87
413.586	5
413.948	4.93
414.31	5.04
414.672	4.79
415.035	5.09
415.397	5.33
415.759	5.07
416.121	5.33
416.483	4.85
416.845	5.23
417.206	5.01
417.568	5.31
417.93	4.77
418.292	4.99
418.653	4.97
419.015	4.95
419.377	4.88
419.738	5.04
420.1	5.01
420.461	5.06
420.822	5.14
421.184	4.91
421.545	5.13
421.906	5
422.267	5.01
422.629	4.93
422.99	4.94
423.351	4.94
423.712	5
424.073	5.06
424.434	4.97
424.795	5.09
425.155	5.07
425.516	4.89
425.877	4.88
426.238	4.86
426.598	5.11
426.959	5.13
427.32	5.13
427.68	5.05
428.041	5.08
428.401	5.35
428.761	5.13
429.122	5.4
429.482	4.93
429.842	5.4
430.202	5.24
430.563	5.18
430.923	5.03
431.283	5.3
431.643	5.14
432.003	5.09
432.363	5.24
432.722	5.08
433.082	5.18
433.442	5.22
433.802	5.04
434.161	5.03
434.521	5.27
434.881	5.17
435.24	4.98
435.6	5.18
435.959	5.08
436.319	5.14
436.678	5.18
437.037	5.37
437.396	5.23
437.756	5.38
438.115	5.31
438.474	5.53
438.833	5.07
439.192	5.32
439.551	5.24
439.91	5.2
440.269	5.29
440.628	5.16
440.987	5.23
441.345	5.03
441.704	5.3
442.063	5.22
442.421	5.16
442.78	5.26
443.138	5.13
443.497	5.32
443.855	5.29
444.214	5.42
444.572	5.39
444.93	5.29
445.288	5.34
445.647	5.4
446.005	5.4
446.363	5.37
446.721	5.3
447.079	5.19
447.437	5.22
447.795	5.18
448.153	5.11
448.51	5.25
448.868	5.33
449.226	5.32
449.584	5.29
449.941	5.44
450.299	5.35
450.656	5.45
451.014	5.38
451.371	5.3
451.729	5.32
452.086	5.61
452.443	5.46
452.801	5.52
453.158	5.29
453.515	5.32
453.872	5.67
454.229	5.34
454.586	5.42
454.943	5.28
455.3	5.47
455.657	5.5
456.014	5.37
456.371	5.33
456.727	5.63
457.084	5.65
457.441	5.49
457.797	5.65
458.154	5.54
458.51	5.56
458.867	5.63
459.223	5.7
459.58	5.48
459.936	5.46
460.292	5.55
460.648	5.41
461.005	5.35
461.361	5.24
461.717	5.39
462.073	5.38
462.429	5.49
462.785	5.51
463.141	5.41
463.496	5.63
463.852	5.7
464.208	5.47
464.564	5.73
464.919	5.53
465.275	5.61
465.631	5.55
465.986	5.44
466.342	5.55
466.697	5.55
467.052	5.6
467.408	5.6
467.763	5.48
468.118	5.47
468.473	5.44
468.829	5.59
469.184	5.38
469.539	5.69
469.894	5.66
470.249	5.7
470.603	5.65
470.958	5.84
471.313	5.69
471.668	5.9
472.023	5.66
472.377	5.72
472.732	5.6
473.086	5.65
473.441	5.47
473.795	5.99
474.15	5.72
474.504	5.68
474.859	5.77
475.213	5.8
475.567	5.62
475.921	5.61
476.275	5.78
476.63	5.86
476.984	5.94
477.338	5.78
477.692	5.87
478.045	5.7
478.399	5.68
478.753	5.8
479.107	5.71
479.461	5.73
479.814	5.74
480.168	5.69
480.521	5.76
480.875	5.71
481.228	5.8
481.582	5.82
481.935	5.69
482.289	5.77
482.642	5.75
482.995	5.75
483.348	5.71
483.701	5.73
484.055	5.76
484.408	5.73
484.761	5.55
485.114	5.45
485.466	5.35
485.819	5.37
486.172	5.46
486.525	5.55
486.878	5.63
487.23	5.7
487.583	5.75
487.936	5.74
488.288	5.73
488.641	5.6
488.993	5.54
489.345	5.53
489.698	5.59
490.05	5.64
490.402	5.7
490.754	5.73
491.107	5.9
491.459	5.83
491.811	5.86
492.163	5.93
492.515	5.89
492.866	5.7
493.218	5.68
493.57	5.67
493.922	5.74
494.274	5.87
494.625	5.87
494.977	5.93
495.328	6.04
495.68	6.17
496.031	6.14
496.383	5.94
496.734	6.1
497.086	6.05
497.437	6
497.788	6
498.139	6
498.49	6.11
498.842	5.98
499.193	6.07
499.544	6.05
499.894	6.05
500.245	6.03
500.596	6.11
500.947	6.09
501.298	6.1
501.648	6.18
501.999	6.33
502.35	6.17
502.7	6.28
503.051	6.03
503.401	6.18
503.752	6.32
504.102	6.2
504.452	6.19
504.803	6.07
505.153	6.12
505.503	6.21
505.853	6.24
506.203	6.12
506.553	6.12
506.903	6.11
507.253	6.21
507.603	6.18
507.953	6.34
508.303	6.4
508.652	6.15
509.002	6.27
509.352	6.26
509.701	6.16
510.051	6.31
510.4	6.19
510.75	6.29
511.099	6.29
511.449	6.23
511.798	6.32
512.147	6.28
512.496	6.35
512.846	6.34
513.195	6.37
513.544	6.31
513.893	6.41
514.242	6.28
514.591	6.64
514.939	6.4
515.288	6.32
515.637	6.58
515.986	6.42
516.334	6.66
516.683	6.57
517.032	6.52
517.38	6.67
517.729	6.52
518.077	6.41
518.426	6.61
518.774	6.58
519.122	6.45
519.47	6.42
519.819	6.34
520.167	6.41
520.515	6.46
520.863	6.58
521.211	6.47
521.559	6.61
521.907	6.64
522.255	6.65
522.602	6.63
522.95	6.57
523.298	6.62
523.645	6.71
523.993	6.68
524.341	6.82
524.688	6.84
525.036	6.57
525.383	6.79
525.73	6.77
526.078	6.73
526.425	6.71
526.772	6.66
527.119	6.61
527.466	6.6
527.814	6.69
528.161	6.72
528.508	6.8
528.854	6.68
529.201	6.71
529.548	6.59
529.895	6.43
530.242	6.35
530.588	6.46
530.935	6.61
531.282	6.67
531.628	6.68
531.975	6.77
532.321	6.82
532.667	6.91
533.014	6.93
533.36	6.99
533.706	6.84
534.052	6.86
534.399	6.84
534.745	6.68
535.091	6.7
535.437	6.81
535.783	6.9
536.129	6.94
536.474	6.99
536.82	7.08
537.166	7.13
537.512	7.05
537.857	6.93
538.203	7.03
538.549	7.01
538.894	7.11
539.239	7.11
539.585	7.08
539.93	7.04
540.276	7.34
540.621	7.28
540.966	7.23
541.311	7.17
541.656	7.17
542.001	7.18
542.346	7.21
542.691	6.94
543.036	6.96
543.381	6.97
543.726	7.09
544.071	7.2
544.415	7.17
544.76	7.21
545.105	7.29
545.449	7.26
545.794	7.42
546.138	7.38
546.483	7.4
546.827	7.52
547.171	7.32
547.516	7.59
547.86	7.42
548.204	7.37
548.548	7.36
548.892	7.44
549.236	7.47
549.58	7.59
549.924	7.65
550.268	7.87
550.612	7.74
550.956	7.89
551.3	7.67
551.643	7.88
551.987	7.76
552.33	7.71
552.674	7.87
553.017	7.79
553.361	7.78
553.704	7.91
554.048	7.66
554.391	7.72
554.734	7.75
555.077	7.84
555.42	7.75
555.764	7.76
556.107	7.86
556.45	7.79
556.793	7.88
557.135	7.9
557.478	8.08
557.821	8
558.164	7.99
558.507	8.02
558.849	8.01
559.192	8.01
559.534	7.9
559.877	8.02
560.219	8.06
560.562	8.4
560.904	8.21
561.246	8.09
561.589	8.13
561.931	8.19
562.273	8.13
562.615	8.46
562.957	8.29
563.299	8
563.641	8.29
563.983	8.23
564.325	8.2
564.667	8.17
565.008	8.28
565.35	8.37
565.692	8.16
566.033	8.42
566.375	8.51
566.716	8.54
567.058	8.38
567.399	8.37
567.741	8.33
568.082	8.37
568.423	8.46
568.764	8.57
569.105	8.65
569.447	8.64
569.788	8.6
570.129	8.56
570.47	8.58
570.811	8.74
571.151	8.65
571.492	8.59
571.833	8.72
572.174	8.8
572.514	8.66
572.855	8.66
573.195	8.7
573.536	8.75
573.876	8.55
574.217	8.84
574.557	9.05
574.898	8.84
575.238	8.87
575.578	8.7
575.918	8.94
576.258	9.01
576.598	8.94
576.938	8.82
577.278	8.94
577.618	9.05
577.958	9.03
578.298	9.12
578.638	8.99
578.977	8.95
579.317	8.89
579.657	9.16
579.996	9.33
580.336	9.21
580.675	9.02
581.014	9.27
581.354	9.37
581.693	9.43
582.032	9.32
582.372	9.14
582.711	9.34
583.05	9.08
583.389	9.53
583.728	9.26
584.067	9.36
584.406	9.5
584.745	9.44
585.083	9.62
585.422	9.65
585.761	9.66
586.1	9.59
586.438	9.43
586.777	10.05
587.115	9.55
587.454	9.49
587.792	9.6
588.13	9.54
588.469	9.55
588.807	9.66
589.145	9.72
589.483	9.69
589.821	9.81
590.159	9.8
590.497	10.2
590.835	10.08
591.173	9.71
591.511	9.89
591.849	10.1
592.187	9.94
592.524	9.83
592.862	10.11
593.2	10.18
593.537	10.18
593.875	9.92
594.212	9.93
594.55	10.09
594.887	10.18
595.224	10.37
595.561	10.24
595.899	10
596.236	10.12
596.573	10.41
596.91	10.09
597.247	10.19
597.584	10.6
597.921	10.22
598.258	10.04
598.594	10.2
598.931	10.23
599.268	10.4
599.604	10.41
599.941	10.48
600.277	10.25
600.614	10.32
600.95	10.49
601.287	10.65
601.623	10.66
601.959	10.62
602.296	10.58
602.632	10.5
602.968	10.67
603.304	10.73
603.64	10.54
603.976	10.79
604.312	10.58
604.648	10.46
604.984	10.67
605.319	10.75
605.655	10.55
605.991	10.56
606.326	10.74
606.662	10.78
606.998	10.67
607.333	11.05
607.668	10.8
608.004	11.04
608.339	11.15
608.674	11.33
609.01	10.98
609.345	11.25
609.68	11.11
610.015	11.07
610.35	10.99
610.685	10.93
611.02	10.96
611.355	10.95
611.689	11.19
612.024	11.2
612.359	11.28
612.694	11.21
613.028	11.11
613.363	11.43
613.697	11.37
614.032	11.53
614.366	11.47
614.7	11.56
615.035	11.31
615.369	11.25
615.703	11.5
616.037	11.57
616.371	11.29
616.705	11.5
617.039	11.56
617.373	11.3
617.707	11.89
618.041	11.49
618.375	11.6
618.709	11.8
619.042	11.33
619.376	11.88
619.71	12.04
620.043	11.62
620.377	11.78
620.71	11.69
621.043	11.99
621.377	12.06
621.71	12.06
622.043	11.45
622.376	11.6
622.709	11.95
623.043	12.06
623.376	11.85
623.709	11.74
624.041	12.3
624.374	11.97
624.707	11.97
625.04	12.56
625.373	11.59
625.705	12.27
626.038	11.93
626.37	11.83
626.703	12
627.035	12.27
627.368	12.69
627.7	12.44
628.032	12.03
628.365	12.42
628.697	12.01
629.029	12.06
629.361	12.26
629.693	12.6
630.025	12.39
630.357	12.41
630.689	12.4
631.021	12.54
631.353	12.62
631.684	12.29
632.016	12.46
632.348	12.75
632.679	12.56
633.011	12.74
633.342	12.79
633.674	12.33
634.005	12.77
634.336	12.61
634.668	13
634.999	12.66
635.33	12.79
635.661	12.84
635.992	12.52
636.323	13.23
636.654	12.89
636.985	12.99
637.316	12.91
637.647	12.72
637.977	12.97
638.308	13.17
638.639	12.73
638.969	12.76
639.3	13.11
639.63	13
639.961	13.47
640.291	13.26
640.622	13.36
640.952	12.87
641.282	13.6
641.612	13.35
641.943	12.84
642.273	13.35
642.603	13.98
642.933	13.42
643.263	13.29
643.592	13.04
643.922	13.42
644.252	13.21
644.582	13.15
644.911	13.06
645.241	13.58
645.571	13.52
645.9	12.92
646.23	13.51
646.559	13.99
646.888	14.01
647.218	13.68
647.547	13.69
647.876	13.21
648.205	13.9
648.534	13.7
648.863	13.52
649.192	13.92
649.521	13.57
649.85	13.37
650.179	14.1
650.508	13.54
650.837	13.53
651.165	13.75
651.494	14.31
651.822	13.91
652.151	13.33
652.479	14.07
652.808	13.84
653.136	13.98
653.465	13.83
653.793	13.75
654.121	13.63
654.449	13.89
654.777	14.27
655.105	14.25
655.433	14.09
655.761	14.11
656.089	13.84
656.417	13.9
656.745	14.37
657.073	14.02
657.4	15.07
657.728	14.05
658.056	14.2
658.383	14.29
658.711	15.08
659.038	14.27
659.365	14.91
659.693	14.26
660.02	14.14
660.347	14.23
660.674	14.5
661.001	14.33
661.329	13.46
661.656	14.59
661.982	14.8
662.309	14.5
662.636	14.59
662.963	14.88
663.29	14.99
663.616	14.78
663.943	13.98
664.27	14.67
664.596	14.98
664.923	15.24
665.249	15.08
665.576	14.55
665.902	14.92
666.228	14.7
666.554	15.08
666.881	14.92
667.207	15.2
667.533	14.88
667.859	15.29
668.185	14.78
668.511	14.24
668.837	14.46
669.162	14.65
669.488	14.56
669.814	14.86
670.139	15.01
670.465	15.1
670.791	15.1
671.116	16.09
671.442	14.79
671.767	15.26
672.092	16.26
672.418	15.54
672.743	15.19
673.068	14.67
673.393	15.47
673.718	15.48
674.043	15.49
674.368	15.36
674.693	15.82
675.018	15.53
675.343	16.12
675.667	15.23
675.992	15.33
676.317	15.7
676.641	15.15
676.966	15.64
677.29	15.48
677.615	15.64
677.939	15.72
678.264	16.33
678.588	15.55
678.912	15.74
679.236	16.25
679.56	15.14
679.885	16.05
680.209	15.87
680.532	15.49
680.856	16.05
681.18	15.45
681.504	15.93
681.828	15.78
682.152	15.73
682.475	16.14
682.799	16.27
683.122	16.12
683.446	15.84
683.769	15.58
684.093	15.57
684.416	16.47
684.739	16.49
685.062	15.89
685.386	16.6
685.709	15.8
686.032	15.56
686.355	16.47
