Data from 0419_forehead_Reflection__3__13.txt Node

Date: Fri Dec 15 16:32:29 CST 2023
User: ToomeyLab
Spectrometer: FLMS14357
Trigger mode: 0
Integration Time (sec): 1.000000E-2
Scans to average: 100
Electric dark correction enabled: true
Nonlinearity correction enabled: false
Boxcar width: 0
XAxis mode: Wavelengths
Number of Pixels in Spectrum: 2048
>>>>>Begin Spectral Data<<<<<
189.047	6.92
189.435	6.92
189.823	6.92
190.211	-55.14
190.599	35.12
190.987	22.44
191.375	117.84
191.763	-12.9
192.151	58.09
192.538	334.37
192.926	-11.79
193.314	324.15
193.702	29.32
194.089	554.28
194.477	-57.65
194.864	-53.41
195.252	26.09
195.639	120.97
196.027	7.81
196.414	18.34
196.801	-16.18
197.189	284.79
197.576	372.45
197.963	100.56
198.351	-29.35
198.738	-35.49
199.125	14.02
199.512	-0.46
199.899	28.65
200.286	37.29
200.673	29.33
201.06	13.93
201.447	7.72
201.833	32.91
202.22	24.4
202.607	46.35
202.994	2.06
203.38	68.15
203.767	17.7
204.154	27.33
204.54	45.27
204.927	6.98
205.313	5.08
205.699	27.87
206.086	44.45
206.472	42.97
206.858	38.3
207.245	17.34
207.631	52.07
208.017	52.86
208.403	19.95
208.789	23.7
209.175	44.83
209.561	24.43
209.947	22.69
210.333	21.81
210.719	38.48
211.105	19.73
211.491	11.91
211.876	54.46
212.262	12.86
212.648	42.31
213.034	19.37
213.419	4.39
213.805	-5.47
214.19	-8.16
214.576	23.51
214.961	14.28
215.346	-3.77
215.732	27.02
216.117	37.7
216.502	-3.93
216.888	14.86
217.273	24.31
217.658	3.21
218.043	40.91
218.428	-12.54
218.813	-8.06
219.198	19.36
219.583	6.85
219.968	19.36
220.353	12.37
220.738	22.29
221.122	-1.22
221.507	-3.79
221.892	6.26
222.276	3.58
222.661	9.02
223.046	18.51
223.43	15.42
223.815	12.39
224.199	6.63
224.583	9.63
224.968	14.36
225.352	18.63
225.736	6.95
226.121	-2.88
226.505	16.16
226.889	15.1
227.273	2.56
227.657	13.81
228.041	5.1
228.425	0.08
228.809	6.25
229.193	6.45
229.577	0.88
229.961	3.86
230.344	3.09
230.728	4.06
231.112	4.21
231.495	4.19
231.879	4.33
232.263	5.42
232.646	4.49
233.03	5.54
233.413	5.87
233.797	4.5
234.18	3.91
234.563	4.86
234.946	3.52
235.33	7.26
235.713	5.26
236.096	5.48
236.479	4.8
236.862	4.4
237.245	7.38
237.628	3.66
238.011	4.46
238.394	5.31
238.777	3.81
239.16	3.18
239.543	3.07
239.925	5.87
240.308	5.12
240.691	7.53
241.073	5.8
241.456	5.33
241.838	3.45
242.221	2.46
242.603	4.01
242.986	4.24
243.368	3.41
243.75	3.92
244.133	3.09
244.515	3.55
244.897	4.19
245.279	3.76
245.661	3.78
246.043	3.03
246.425	3.27
246.807	4.41
247.189	4.05
247.571	4.25
247.953	4.24
248.335	3.29
248.717	3.58
249.098	3.65
249.48	3.75
249.862	3.6
250.243	3.68
250.625	3.9
251.006	4.24
251.388	3.02
251.769	4.54
252.151	5
252.532	3.83
252.913	2.93
253.295	2.72
253.676	3.41
254.057	3.86
254.438	3.65
254.819	3.76
255.2	4.16
255.581	3.84
255.962	2.89
256.343	2.82
256.724	2.97
257.105	3.25
257.486	2.38
257.867	4.74
258.247	3.71
258.628	3.47
259.009	4.42
259.389	3.36
259.77	4.1
260.15	2.97
260.531	3.03
260.911	4.19
261.292	3.33
261.672	3.52
262.052	3.27
262.432	3.65
262.813	3.64
263.193	3.62
263.573	3.79
263.953	3.86
264.333	3.8
264.713	4.34
265.093	2.98
265.473	4.25
265.853	2.89
266.233	4.2
266.612	1.87
266.992	2.33
267.372	4.45
267.752	3.85
268.131	3.39
268.511	4.11
268.89	3.65
269.27	3.31
269.649	2.87
270.029	2.75
270.408	4.57
270.787	3.66
271.167	4.81
271.546	4.12
271.925	3.11
272.304	3.2
272.683	4.06
273.062	3.3
273.441	3.47
273.82	3.09
274.199	3.62
274.578	3.94
274.957	3.36
275.336	3.25
275.715	3.39
276.093	3
276.472	3.87
276.851	3.19
277.229	3.8
277.608	2.74
277.986	3.72
278.365	4
278.743	2.76
279.122	4
279.5	4.17
279.878	4.35
280.257	2.9
280.635	3.56
281.013	3.22
281.391	3.83
281.769	3.82
282.147	3.71
282.525	4.26
282.903	3.92
283.281	3.84
283.659	3.56
284.037	2.78
284.415	3.73
284.792	3.69
285.17	3
285.548	2.98
285.925	3.92
286.303	3.63
286.68	3.14
287.058	3.22
287.435	3.12
287.813	3.06
288.19	3.44
288.567	3.27
288.945	3.65
289.322	3.6
289.699	3.2
290.076	3.61
290.453	3.31
290.83	3.28
291.207	3.45
291.584	3.83
291.961	3.64
292.338	3.47
292.715	3.82
293.092	3.47
293.469	4.01
293.845	4.16
294.222	3.89
294.599	3.12
294.975	3.37
295.352	3.89
295.728	3.43
296.105	3.62
296.481	4.1
296.858	4.33
297.234	3.93
297.61	3.62
297.986	3.38
298.363	3.75
298.739	3.82
299.115	3.6
299.491	3.35
299.867	3.68
300.243	4.29
300.619	3.74
300.995	3.97
301.371	4.29
301.746	4.28
302.122	4.5
302.498	3.98
302.874	4.16
303.249	3.86
303.625	3.69
304	4.62
304.376	4.37
304.751	3.64
305.127	4.96
305.502	3.2
305.878	3.32
306.253	4.12
306.628	4.73
307.003	4.74
307.378	4.58
307.754	4.51
308.129	3.93
308.504	4.16
308.879	4.75
309.254	6.03
309.629	4.83
310.003	4.42
310.378	4.88
310.753	4.39
311.128	4.75
311.502	4.68
311.877	4.78
312.252	4.03
312.626	4.21
313.001	4.25
313.375	4.77
313.75	4.57
314.124	4.83
314.498	5.04
314.873	4.52
315.247	4.47
315.621	4.45
315.995	4.43
316.369	4.57
316.743	4.83
317.117	4.86
317.491	4.47
317.865	4.71
318.239	4.63
318.613	5.38
318.987	5.18
319.361	4.52
319.734	5.39
320.108	5.62
320.482	5.23
320.855	5.59
321.229	5.11
321.602	4.97
321.976	5.29
322.349	5.25
322.723	5.07
323.096	5.7
323.469	4.32
323.843	4.9
324.216	5.52
324.589	4.98
324.962	5.45
325.335	5.17
325.708	5.52
326.081	5.27
326.454	5.22
326.827	5.01
327.2	5.15
327.573	5.8
327.945	5.66
328.318	4.97
328.691	5.23
329.063	5.87
329.436	5.53
329.809	6.66
330.181	5.4
330.553	5.61
330.926	5.75
331.298	5.66
331.671	5.48
332.043	6.66
332.415	6.46
332.787	5.84
333.159	6.12
333.532	6.33
333.904	5.28
334.276	5.76
334.648	5.49
335.02	5.88
335.391	5.87
335.763	5.69
336.135	6.22
336.507	6.53
336.879	5.61
337.25	5.63
337.622	5.82
337.993	5.64
338.365	6.86
338.736	6.19
339.108	6.33
339.479	6.03
339.851	6.18
340.222	5.74
340.593	5.93
340.964	6.04
341.336	6.58
341.707	5.65
342.078	6.28
342.449	6.4
342.82	6.44
343.191	6.43
343.562	6.46
343.933	6.5
344.303	6.62
344.674	6.76
345.045	6.15
345.416	6.23
345.786	6.12
346.157	6.64
346.527	5.8
346.898	6.55
347.268	6.99
347.639	6.19
348.009	6.26
348.38	5.99
348.75	6.28
349.12	6.34
349.49	7.22
349.861	7.08
350.231	6.27
350.601	6.85
350.971	6.9
351.341	6.71
351.711	6.27
352.081	7.3
352.45	6.95
352.82	7.25
353.19	6.49
353.56	6.76
353.929	7.1
354.299	6.52
354.669	6.55
355.038	7.29
355.408	6.86
355.777	6.78
356.147	6.69
356.516	7.04
356.885	6.86
357.254	7.12
357.624	7.74
357.993	7.53
358.362	6.7
358.731	7.15
359.1	7.39
359.469	7.11
359.838	7.65
360.207	6.94
360.576	7.26
360.945	7.44
361.314	7.62
361.682	6.94
362.051	7.03
362.42	7.02
362.788	7.43
363.157	7.4
363.525	7.35
363.894	7.52
364.262	7.62
364.631	7.59
364.999	7.82
365.367	7.33
365.735	8.17
366.104	7.42
366.472	7.71
366.84	7.68
367.208	7.59
367.576	7.94
367.944	7.74
368.312	7.52
368.68	7.42
369.048	7.82
369.416	7.59
369.783	7.66
370.151	8.01
370.519	8.31
370.886	8.05
371.254	7.77
371.621	8.27
371.989	8.01
372.356	7.88
372.724	8
373.091	7.73
373.458	7.86
373.826	8.39
374.193	8.17
374.56	8.08
374.927	8.58
375.294	8.17
375.661	8.3
376.028	8.17
376.395	8.21
376.762	8.47
377.129	7.96
377.496	8.08
377.863	8.64
378.229	8.07
378.596	8.26
378.963	8.3
379.329	8.19
379.696	8.63
380.062	8.75
380.429	8.53
380.795	8.17
381.161	8.7
381.528	8.72
381.894	8.35
382.26	8.47
382.626	8.81
382.993	8.42
383.359	8.93
383.725	8.38
384.091	8.75
384.457	8.64
384.823	8.71
385.188	8.67
385.554	8.86
385.92	8.81
386.286	9.11
386.651	8.83
387.017	9.16
387.383	8.68
387.748	8.67
388.114	9.02
388.479	8.95
388.845	9.34
389.21	9.11
389.575	9.02
389.94	8.84
390.306	9.07
390.671	9.33
391.036	9.06
391.401	8.47
391.766	9.11
392.131	9.19
392.496	9.31
392.861	9.25
393.226	9.25
393.591	9.29
393.956	9.04
394.32	9.39
394.685	9.21
395.05	9.37
395.414	9.33
395.779	8.93
396.143	9.17
396.508	9.29
396.872	9.29
397.236	9.62
397.601	9.17
397.965	9.19
398.329	9.63
398.694	9.44
399.058	9.75
399.422	9.36
399.786	9.73
400.15	9.61
400.514	9.47
400.878	9.61
401.242	9.77
401.605	9.74
401.969	9.46
402.333	9.91
402.697	9.44
403.06	9.68
403.424	9.56
403.787	9.6
404.151	9.44
404.514	9.57
404.878	9.59
405.241	9.66
405.604	9.47
405.968	9.55
406.331	9.75
406.694	9.66
407.057	9.86
407.42	9.96
407.783	9.66
408.146	9.78
408.509	9.54
408.872	9.73
409.235	9.95
409.598	10.14
409.961	9.67
410.323	9.85
410.686	9.57
411.049	9.54
411.411	10.12
411.774	9.65
412.136	9.93
412.499	9.84
412.861	10
413.223	9.93
413.586	10.17
413.948	9.86
414.31	10.08
414.672	10.04
415.035	9.8
415.397	10.18
415.759	10.05
416.121	10.09
416.483	9.88
416.845	9.97
417.206	9.99
417.568	10.11
417.93	10.02
418.292	10.07
418.653	10.08
419.015	10.07
419.377	10.13
419.738	10.17
420.1	10.01
420.461	10.28
420.822	10.18
421.184	10.1
421.545	10.25
421.906	10.23
422.267	10.15
422.629	10.14
422.99	10.17
423.351	10.34
423.712	10.42
424.073	10.49
424.434	10.53
424.795	10.68
425.155	10.55
425.516	10.39
425.877	10.44
426.238	10.56
426.598	10.79
426.959	10.85
427.32	10.98
427.68	11.03
428.041	10.93
428.401	11.18
428.761	11.36
429.122	11.46
429.482	11.34
429.842	11.4
430.202	11.43
430.563	11.39
430.923	11.21
431.283	11.45
431.643	11.5
432.003	11.77
432.363	11.81
432.722	11.54
433.082	11.67
433.442	11.59
433.802	11.61
434.161	11.57
434.521	11.93
434.881	11.84
435.24	11.61
435.6	11.91
435.959	11.94
436.319	11.99
436.678	12.34
437.037	12.15
437.396	12.35
437.756	12.43
438.115	12.27
438.474	12.26
438.833	12.01
439.192	12.51
439.551	12.26
439.91	12.37
440.269	12.38
440.628	12.29
440.987	12.41
441.345	12.33
441.704	12.39
442.063	12.56
442.421	12.59
442.78	12.67
443.138	12.81
443.497	12.86
443.855	12.83
444.214	12.96
444.572	13.25
444.93	13.11
445.288	13.13
445.647	13.1
446.005	13.08
446.363	13
446.721	12.95
447.079	12.73
447.437	13.05
447.795	13
448.153	12.9
448.51	13.06
448.868	13.17
449.226	13.22
449.584	13.33
449.941	13.53
450.299	13.69
450.656	13.71
451.014	13.66
451.371	13.78
451.729	13.62
452.086	13.95
452.443	13.82
452.801	13.9
453.158	13.84
453.515	13.85
453.872	13.97
454.229	13.78
454.586	13.89
454.943	13.83
455.3	14.17
455.657	14.17
456.014	14.08
456.371	14.14
456.727	14.07
457.084	14.38
457.441	14.31
457.797	14.4
458.154	14.5
458.51	14.51
458.867	14.62
459.223	14.64
459.58	14.62
459.936	14.32
460.292	14.33
460.648	14.36
461.005	14.38
461.361	14.29
461.717	14.3
462.073	14.42
462.429	14.67
462.785	14.95
463.141	14.93
463.496	14.96
463.852	15.18
464.208	15.08
464.564	15.21
464.919	15.2
465.275	15.13
465.631	15.07
465.986	15.36
466.342	15.13
466.697	15.34
467.052	15.26
467.408	15.38
467.763	15.29
468.118	15.44
468.473	15.33
468.829	15.32
469.184	15.45
469.539	15.54
469.894	15.41
470.249	15.77
470.603	15.82
470.958	15.79
471.313	15.86
471.668	15.83
472.023	15.89
472.377	15.82
472.732	16.11
473.086	15.87
473.441	15.88
473.795	16.02
474.15	16.09
474.504	15.96
474.859	15.97
475.213	15.95
475.567	16.1
475.921	16.2
476.275	16.48
476.63	16.21
476.984	16.49
477.338	16.45
477.692	16.17
478.045	16.29
478.399	16.11
478.753	16.56
479.107	16.39
479.461	16.29
479.814	16.49
480.168	16.46
480.521	16.47
480.875	16.8
481.228	16.6
481.582	16.62
481.935	16.61
482.289	16.77
482.642	16.55
482.995	16.63
483.348	16.53
483.701	16.58
484.055	16.53
484.408	16.48
484.761	16.11
485.114	15.76
485.466	15.36
485.819	15.75
486.172	16.15
486.525	16.44
486.878	16.67
487.23	16.91
487.583	17.09
487.936	16.92
488.288	16.84
488.641	16.65
488.993	16.37
489.345	16.4
489.698	16.59
490.05	16.64
490.402	16.97
490.754	17.18
491.107	17.39
491.459	17.47
491.811	17.59
492.163	17.54
492.515	17.36
492.866	16.94
493.218	16.72
493.57	16.91
493.922	17.12
494.274	17.49
494.625	17.77
494.977	17.81
495.328	18.02
495.68	18.13
496.031	18.28
496.383	18.24
496.734	18.31
497.086	18.08
497.437	18.37
497.788	18.07
498.139	17.88
498.49	17.91
498.842	18.1
499.193	18.18
499.544	18.33
499.894	18.31
500.245	18.41
500.596	18.38
500.947	18.51
501.298	18.48
501.648	18.64
501.999	18.63
502.35	18.84
502.7	18.78
503.051	18.7
503.401	18.9
503.752	18.96
504.102	18.91
504.452	18.98
504.803	18.8
505.153	18.76
505.503	18.98
505.853	18.93
506.203	18.89
506.553	19.02
506.903	18.99
507.253	19.17
507.603	19.02
507.953	19.2
508.303	19.29
508.652	19.19
509.002	19.36
509.352	19.19
509.701	18.92
510.051	18.93
510.4	19.08
510.75	19.26
511.099	19.01
511.449	19.3
511.798	19.35
512.147	19.36
512.496	19.5
512.846	19.64
513.195	19.5
513.544	19.47
513.893	19.49
514.242	19.4
514.591	19.85
514.939	19.59
515.288	19.67
515.637	19.81
515.986	19.81
516.334	19.82
516.683	20.03
517.032	19.93
517.38	19.86
517.729	20.07
518.077	19.9
518.426	20.02
518.774	19.92
519.122	19.69
519.47	19.85
519.819	19.66
520.167	19.47
520.515	19.69
520.863	19.76
521.211	19.82
521.559	19.96
521.907	20.12
522.255	20.28
522.602	20.35
522.95	20.32
523.298	20.37
523.645	20.44
523.993	20.35
524.341	20.51
524.688	20.47
525.036	20.49
525.383	20.49
525.73	20.75
526.078	20.41
526.425	20.39
526.772	20.32
527.119	20
527.466	20.02
527.814	20.19
528.161	20.27
528.508	20.46
528.854	20.43
529.201	20.35
529.548	20.02
529.895	19.57
530.242	19.16
530.588	19.49
530.935	20.07
531.282	20.18
531.628	20.35
531.975	20.62
532.321	20.75
532.667	20.91
533.014	21.02
533.36	20.93
533.706	20.81
534.052	20.77
534.399	20.54
534.745	20.15
535.091	20.11
535.437	20.54
535.783	20.84
536.129	20.96
536.474	21.15
536.82	21.29
537.166	21.47
537.512	21.29
537.857	21.12
538.203	20.89
538.549	20.88
538.894	21.1
539.239	21.42
539.585	21.47
539.93	21.69
540.276	21.81
540.621	21.79
540.966	21.89
541.311	21.53
541.656	21.52
542.001	21.58
542.346	21.28
542.691	20.73
543.036	20.45
543.381	20.74
543.726	21.23
544.071	21.43
544.415	21.58
544.76	21.73
545.105	21.71
545.449	21.88
545.794	22.09
546.138	22.08
546.483	22.2
546.827	22.36
547.171	22.08
547.516	22.25
547.86	21.95
548.204	21.97
548.548	21.69
548.892	21.95
549.236	22.33
549.58	22.38
549.924	22.51
550.268	22.7
550.612	22.7
550.956	22.94
551.3	22.72
551.643	22.78
551.987	22.79
552.33	22.85
552.674	23.07
553.017	22.72
553.361	22.87
553.704	22.95
554.048	22.83
554.391	22.51
554.734	22.85
555.077	23.03
555.42	22.91
555.764	23.2
556.107	23.18
556.45	23.06
556.793	23.32
557.135	23.33
557.478	23.5
557.821	23.32
558.164	23.36
558.507	23.22
558.849	23.4
559.192	23.17
559.534	23.34
559.877	23.7
560.219	23.47
560.562	23.68
560.904	23.58
561.246	23.65
561.589	23.62
561.931	23.48
562.273	23.65
562.615	23.73
562.957	23.45
563.299	23.37
563.641	23.81
563.983	23.85
564.325	23.96
564.667	23.87
565.008	23.71
565.35	23.84
565.692	23.73
566.033	23.69
566.375	23.91
566.716	24.05
567.058	24.01
567.399	23.77
567.741	24.08
568.082	23.79
568.423	23.83
568.764	23.97
569.105	24.27
569.447	24.34
569.788	24.35
570.129	24.48
570.47	24.27
570.811	24.36
571.151	24.18
571.492	24.35
571.833	24.33
572.174	24.36
572.514	24.49
572.855	24.19
573.195	24.24
573.536	24.17
573.876	24.09
574.217	24.25
574.557	24.51
574.898	24.54
575.238	24.67
575.578	24.49
575.918	24.86
576.258	24.87
576.598	24.56
576.938	24.48
577.278	24.49
577.618	24.72
577.958	24.93
578.298	24.85
578.638	24.82
578.977	25.02
579.317	25.1
579.657	25.1
579.996	25.28
580.336	25.14
580.675	25.36
581.014	25.35
581.354	25.25
581.693	25.19
582.032	25.12
582.372	25.14
582.711	25.35
583.05	25.26
583.389	25.42
583.728	25.11
584.067	25.52
584.406	25.36
584.745	25.55
585.083	25.41
585.422	25.9
585.761	25.72
586.1	25.59
586.438	25.91
586.777	25.66
587.115	25.95
587.454	25.72
587.792	25.48
588.13	25.79
588.469	25.79
588.807	25.73
589.145	25.99
589.483	25.76
589.821	25.83
590.159	26.04
590.497	26.47
590.835	26.23
591.173	25.74
591.511	26.28
591.849	26
592.187	26.07
592.524	26.17
592.862	26.06
593.2	26.14
593.537	26.25
593.875	26.23
594.212	26.17
594.55	26.66
594.887	26.41
595.224	26.18
595.561	26.23
595.899	26.47
596.236	26.17
596.573	26.69
596.91	26.15
597.247	26.18
597.584	26.75
597.921	26.45
598.258	26.3
598.594	26.09
598.931	26.28
599.268	26.61
599.604	26.7
599.941	27
600.277	26.94
600.614	26.99
600.95	26.81
601.287	27
601.623	26.92
601.959	26.99
602.296	26.91
602.632	26.85
602.968	27.4
603.304	27.33
603.64	26.98
603.976	27.22
604.312	26.81
604.648	26.92
604.984	26.85
605.319	26.71
605.655	27.23
605.991	26.98
606.326	26.64
606.662	26.67
606.998	27.17
607.333	27.42
607.668	27.46
608.004	27.74
608.339	27.49
608.674	27.66
609.01	27.7
609.345	27.89
609.68	27.88
610.015	27.5
610.35	27.61
610.685	27.24
611.02	27.11
611.355	27.19
611.689	27.8
612.024	27.77
612.359	27.74
612.694	28.18
613.028	27.82
613.363	28.22
613.697	28.19
614.032	28.31
614.366	27.97
614.7	28.06
615.035	28.27
615.369	28.06
615.703	28.3
616.037	28.31
616.371	27.85
616.705	27.99
617.039	28.39
617.373	27.92
617.707	28.16
618.041	28.46
618.375	28.66
618.709	28.28
619.042	28.13
619.376	28.77
619.71	28.34
620.043	28.49
620.377	28.6
620.71	28.42
621.043	28.51
621.377	28.7
621.71	28.44
622.043	28.26
622.376	28.49
622.709	28.58
623.043	28.23
623.376	28.87
623.709	28.59
624.041	28.98
624.374	28.85
624.707	28.76
625.04	28.66
625.373	28.22
625.705	28.94
626.038	28.64
626.37	28.74
626.703	29.02
627.035	28.7
627.368	29.46
627.7	28.92
628.032	28.92
628.365	29.21
628.697	28.91
629.029	28.4
629.361	28.92
629.693	29.01
630.025	29.16
630.357	29.3
630.689	29.41
631.021	29.15
631.353	29.58
631.684	28.91
632.016	29.23
632.348	29.61
632.679	29.87
633.011	29.97
633.342	29.36
633.674	29.12
634.005	29.94
634.336	29.35
634.668	29.67
634.999	29.39
635.33	29.71
635.661	29.48
635.992	29.49
636.323	29.58
636.654	29.82
636.985	29.95
637.316	29.78
637.647	29.91
637.977	30.06
638.308	29.96
638.639	29.83
638.969	29.71
639.3	29.38
639.63	29.82
639.961	30.13
640.291	30.5
640.622	30.48
640.952	29.92
641.282	29.84
641.612	30.61
641.943	29.94
642.273	29.94
642.603	30.48
642.933	30.42
643.263	30.68
643.592	30.41
643.922	30.35
644.252	30.48
644.582	30.39
644.911	30.37
645.241	30.56
645.571	30.33
645.9	30.05
646.23	30.25
646.559	30.34
646.888	30.78
647.218	30.32
647.547	31.08
647.876	30.94
648.205	30.76
648.534	30.5
648.863	30.72
649.192	30.75
649.521	31.1
649.85	30.62
650.179	31.01
650.508	30.17
650.837	30.59
651.165	30.77
651.494	30.86
651.822	31.02
652.151	30.86
652.479	30.71
652.808	31.1
653.136	30.46
653.465	30.59
653.793	31.07
654.121	30.7
654.449	31.37
654.777	31.12
655.105	31.56
655.433	31.31
655.761	31.51
656.089	31.19
656.417	31.67
656.745	31.24
657.073	31.42
657.4	31.67
657.728	31.24
658.056	31.79
658.383	31.93
658.711	31.32
659.038	31.4
659.365	31.81
659.693	31.34
660.02	31.04
660.347	31.41
660.674	30.99
661.001	31.36
661.329	31.13
661.656	31.51
661.982	31.91
662.309	31.63
662.636	31.31
662.963	32.28
663.29	31.93
663.616	32.43
663.943	31.53
664.27	31.8
664.596	31.9
664.923	32.1
665.249	32.56
665.576	31.79
665.902	32.58
666.228	32.32
666.554	32.81
666.881	31.77
667.207	32.41
667.533	31.12
667.859	31.95
668.185	32.06
668.511	31.8
668.837	31.72
669.162	31.86
669.488	31.77
669.814	32.47
670.139	32.03
670.465	32.01
670.791	32.53
671.116	32.41
671.442	31.72
671.767	32.71
672.092	32.61
672.418	32.81
672.743	32.69
673.068	32.68
673.393	32.71
673.718	32.45
674.043	33.07
674.368	31.94
674.693	33.9
675.018	32.52
