Data from 0419_chest_Reflection__3__03.txt Node

Date: Fri Dec 15 16:29:32 CST 2023
User: ToomeyLab
Spectrometer: FLMS14357
Trigger mode: 0
Integration Time (sec): 1.000000E-2
Scans to average: 100
Electric dark correction enabled: true
Nonlinearity correction enabled: false
Boxcar width: 0
XAxis mode: Wavelengths
Number of Pixels in Spectrum: 2048
>>>>>Begin Spectral Data<<<<<
189.047	96.66
189.435	96.66
189.823	96.66
190.211	99.95
190.599	33.6
190.987	43.44
191.375	100.07
191.763	-247.29
192.151	174.9
192.538	248.71
192.926	-164.29
193.314	1922.79
193.702	-35.84
194.089	35.56
194.477	75.01
194.864	391.85
195.252	184.51
195.639	81.1
196.027	63.18
196.414	72.72
196.801	552.25
197.189	129.23
197.576	-166.75
197.963	80.67
198.351	-38.26
198.738	7.8
199.125	27.36
199.512	11.56
199.899	62.45
200.286	48.02
200.673	17.68
201.06	-5.05
201.447	-21.56
201.833	75.21
202.22	36.53
202.607	41.56
202.994	5.94
203.38	27.56
203.767	36.31
204.154	39.33
204.54	46.89
204.927	-16.93
205.313	31.59
205.699	26.88
206.086	50.48
206.472	49.79
206.858	34.77
207.245	7.2
207.631	29.21
208.017	23.82
208.403	-8.92
208.789	63.18
209.175	27.32
209.561	28.43
209.947	15.31
210.333	-14.91
210.719	44.28
211.105	9.14
211.491	8.88
211.876	38.69
212.262	40.88
212.648	36.93
213.034	20.61
213.419	19.69
213.805	-0.4
214.19	-3.52
214.576	16
214.961	-12.76
215.346	-57.72
215.732	15.07
216.117	26.45
216.502	21.11
216.888	31.27
217.273	31.48
217.658	20.23
218.043	36.13
218.428	-9.46
218.813	-9.4
219.198	-5.4
219.583	23.77
219.968	17.84
220.353	12.83
220.738	19.05
221.122	29.95
221.507	3.95
221.892	-15.97
222.276	-7.72
222.661	-1.26
223.046	26.5
223.43	21.69
223.815	3.97
224.199	-2.85
224.583	5.82
224.968	4.33
225.352	13.98
225.736	1.45
226.121	-1.39
226.505	12.04
226.889	8.14
227.273	1
227.657	11.98
228.041	3.2
228.425	6.14
228.809	9.34
229.193	5.71
229.577	4.06
229.961	4.8
230.344	4.94
230.728	3.67
231.112	3.8
231.495	4.25
231.879	2.71
232.263	4.04
232.646	3.57
233.03	4.39
233.413	2.86
233.797	6.33
234.18	2.77
234.563	2.65
234.946	3.81
235.33	5.75
235.713	6.91
236.096	2.97
236.479	4.62
236.862	4.08
237.245	6.02
237.628	2.71
238.011	3.15
238.394	7.03
238.777	4.69
239.16	3.71
239.543	3.49
239.925	5.75
240.308	6.06
240.691	5.87
241.073	5.23
241.456	4.38
241.838	1.75
242.221	2.82
242.603	4.85
242.986	3.9
243.368	4.32
243.75	4.17
244.133	3.55
244.515	4.1
244.897	3.77
245.279	3.54
245.661	3.57
246.043	3.86
246.425	2.23
246.807	5.19
247.189	4.54
247.571	4.81
247.953	4.07
248.335	3.31
248.717	3.79
249.098	3.55
249.48	3.73
249.862	3.75
250.243	3.66
250.625	4.01
251.006	3.76
251.388	3.25
251.769	4.18
252.151	5.76
252.532	3.98
252.913	3.82
253.295	4.07
253.676	3.15
254.057	3.91
254.438	4.01
254.819	3.81
255.2	3.87
255.581	4.87
255.962	5
256.343	4.45
256.724	2.68
257.105	3.62
257.486	3.9
257.867	3.91
258.247	4.14
258.628	3.98
259.009	3.87
259.389	4.13
259.77	3.64
260.15	3.52
260.531	2.69
260.911	3.96
261.292	3.32
261.672	3.61
262.052	3.26
262.432	3.84
262.813	3.73
263.193	3.45
263.573	3.7
263.953	3.24
264.333	4.29
264.713	3.99
265.093	2.73
265.473	3.93
265.853	3.48
266.233	3.47
266.612	2.2
266.992	2.67
267.372	3.47
267.752	2.92
268.131	3.39
268.511	3.57
268.89	3.87
269.27	3.2
269.649	3.18
270.029	3.03
270.408	4.35
270.787	4.07
271.167	4.27
271.546	4.11
271.925	2.71
272.304	3.52
272.683	3.56
273.062	2.75
273.441	3.36
273.82	2.72
274.199	3.48
274.578	3.69
274.957	3.35
275.336	3.58
275.715	2.84
276.093	3.05
276.472	3.48
276.851	2.72
277.229	2.84
277.608	2.47
277.986	3.06
278.365	3.71
278.743	3.34
279.122	3.39
279.5	4.06
279.878	3.57
280.257	3.07
280.635	3
281.013	2.82
281.391	4.04
281.769	3.34
282.147	3.6
282.525	4.28
282.903	3.23
283.281	3.55
283.659	3.54
284.037	3.39
284.415	3.58
284.792	3.78
285.17	2.84
285.548	2.99
285.925	3.44
286.303	3.23
286.68	3.29
287.058	2.87
287.435	3.63
287.813	3.36
288.19	2.67
288.567	3.11
288.945	3.75
289.322	3.01
289.699	3.51
290.076	3.03
290.453	3.49
290.83	3.57
291.207	3.17
291.584	3.66
291.961	3.56
292.338	3.61
292.715	4.17
293.092	3.34
293.469	3.33
293.845	3.66
294.222	2.99
294.599	3.51
294.975	3.1
295.352	3.75
295.728	3.85
296.105	3.41
296.481	3.44
296.858	3.48
297.234	3.44
297.61	3.64
297.986	3.87
298.363	3.87
298.739	3.85
299.115	3.27
299.491	3.48
299.867	3.75
300.243	4.09
300.619	3.95
300.995	3.95
301.371	4.13
301.746	3.52
302.122	4.25
302.498	3.64
302.874	3.79
303.249	3.7
303.625	4.17
304	4.17
304.376	3.77
304.751	3.65
305.127	4.71
305.502	2.99
305.878	3.03
306.253	3.54
306.628	4.12
307.003	3.43
307.378	4.11
307.754	3.82
308.129	3.42
308.504	3.69
308.879	3.08
309.254	4.81
309.629	4.01
310.003	3.35
310.378	4.15
310.753	3.98
311.128	4.11
311.502	3.53
311.877	4.3
312.252	3.85
312.626	4.11
313.001	4.24
313.375	4.37
313.75	3.71
314.124	4.36
314.498	3.61
314.873	4.34
315.247	3.38
315.621	3.77
315.995	2.76
316.369	3.46
316.743	3.94
317.117	4.49
317.491	3.8
317.865	4.27
318.239	3.99
318.613	4.27
318.987	4.67
319.361	3.32
319.734	3.66
320.108	4.52
320.482	3.93
320.855	3.78
321.229	4.3
321.602	3.6
321.976	4.25
322.349	4.19
322.723	3.86
323.096	4.3
323.469	3.38
323.843	3.88
324.216	4.56
324.589	4.09
324.962	3.93
325.335	3.51
325.708	3.75
326.081	3.68
326.454	4.3
326.827	3.82
327.2	4.32
327.573	3.9
327.945	4.04
328.318	3.54
328.691	3.06
329.063	3.88
329.436	3.42
329.809	3.85
330.181	3.59
330.553	4.04
330.926	4.07
331.298	4.32
331.671	4.06
332.043	4.37
332.415	4.08
332.787	3.61
333.159	4.56
333.532	3.82
333.904	3.75
334.276	3.96
334.648	4.1
335.02	4.02
335.391	3.44
335.763	3.83
336.135	4.62
336.507	4.51
336.879	4.13
337.25	3.69
337.622	3.64
337.993	3.66
338.365	4.15
338.736	4.12
339.108	3.73
339.479	4.05
339.851	4.5
340.222	3.85
340.593	3.62
340.964	4.12
341.336	4.41
341.707	3.9
342.078	3.95
342.449	4.1
342.82	4.09
343.191	4.57
343.562	4.11
343.933	4.51
344.303	4.23
344.674	4.2
345.045	4.15
345.416	4.25
345.786	3.58
346.157	4.21
346.527	3.39
346.898	3.24
347.268	3.91
347.639	4.18
348.009	4.36
348.38	3.75
348.75	4.15
349.12	3.85
349.49	4.62
349.861	3.77
350.231	3.84
350.601	3.79
350.971	4.11
351.341	4.31
351.711	4.14
352.081	4.01
352.45	3.66
352.82	4.75
353.19	4.21
353.56	3.89
353.929	4.08
354.299	3.85
354.669	3.56
355.038	3.82
355.408	3.96
355.777	4.34
356.147	3.98
356.516	4.13
356.885	3.95
357.254	3.86
357.624	4.22
357.993	4.26
358.362	3.73
358.731	3.61
359.1	4.03
359.469	3.97
359.838	4.1
360.207	3.67
360.576	3.48
360.945	3.9
361.314	4.4
361.682	3.8
362.051	3.64
362.42	4.33
362.788	3.81
363.157	4.01
363.525	4.06
363.894	3.8
364.262	4.11
364.631	4.2
364.999	4.12
365.367	3.7
365.735	4.65
366.104	3.93
366.472	4.27
366.84	3.86
367.208	3.89
367.576	3.87
367.944	4.27
368.312	4.01
368.68	3.91
369.048	4
369.416	4.02
369.783	4.08
370.151	3.89
370.519	4.16
370.886	4.26
371.254	3.67
371.621	4.24
371.989	4.28
372.356	3.67
372.724	4.12
373.091	3.95
373.458	3.91
373.826	3.77
374.193	3.89
374.56	3.87
374.927	4.32
375.294	4.04
375.661	3.92
376.028	3.82
376.395	3.91
376.762	3.86
377.129	3.97
377.496	4.09
377.863	3.96
378.229	3.69
378.596	3.97
378.963	3.88
379.329	3.78
379.696	4.06
380.062	4.21
380.429	3.88
380.795	3.79
381.161	3.96
381.528	4.31
381.894	4.03
382.26	4.01
382.626	4.28
382.993	3.76
383.359	4.44
383.725	3.89
384.091	4.05
384.457	4.21
384.823	3.92
385.188	4.08
385.554	3.96
385.92	4.29
386.286	4.18
386.651	4.41
387.017	4.57
387.383	4.27
387.748	3.94
388.114	4.24
388.479	3.97
388.845	4.16
389.21	4.39
389.575	4.27
389.94	4.1
390.306	4.11
390.671	4.1
391.036	3.89
391.401	3.77
391.766	4.12
392.131	3.93
392.496	4.29
392.861	4
393.226	4.33
393.591	4.25
393.956	4.15
394.32	4.21
394.685	4.09
395.05	3.92
395.414	4.28
395.779	3.85
396.143	4.2
396.508	4.04
396.872	3.98
397.236	4.41
397.601	4.09
397.965	4.19
398.329	4.14
398.694	4.25
399.058	4.16
399.422	3.89
399.786	4.11
400.15	4.41
400.514	4.32
400.878	4.47
401.242	4.65
401.605	4.37
401.969	4.33
402.333	4.2
402.697	4.07
403.06	4.42
403.424	4.18
403.787	4.18
404.151	4.31
404.514	4.25
404.878	4.38
405.241	4.55
405.604	4.2
405.968	4.24
406.331	4.25
406.694	4.46
407.057	4.14
407.42	4.32
407.783	4.15
408.146	4.23
408.509	4.19
408.872	4.21
409.235	4.41
409.598	4.53
409.961	4.35
410.323	4.28
410.686	4.21
411.049	4.23
411.411	4.13
411.774	4.2
412.136	4.37
412.499	4.25
412.861	4.39
413.223	4.21
413.586	4.38
413.948	4.39
414.31	4.1
414.672	4.01
415.035	4.11
415.397	4.62
415.759	4.37
416.121	4.4
416.483	4.12
416.845	4.29
417.206	4.14
417.568	4.26
417.93	3.88
418.292	4.2
418.653	4.11
419.015	4.19
419.377	4.18
419.738	4.31
420.1	4.24
420.461	4.26
420.822	4.37
421.184	4.13
421.545	4.21
421.906	4.07
422.267	4.28
422.629	4.26
422.99	4.17
423.351	4.11
423.712	4.29
424.073	4.32
424.434	4.37
424.795	4.3
425.155	4.28
425.516	4.2
425.877	4.09
426.238	4.14
426.598	4.26
426.959	4.27
427.32	4.19
427.68	4.3
428.041	4.29
428.401	4.43
428.761	4.33
429.122	4.38
429.482	4.28
429.842	4.59
430.202	4.4
430.563	4.22
430.923	4.21
431.283	4.61
431.643	4.37
432.003	4.4
432.363	4.45
432.722	4.24
433.082	4.26
433.442	4.32
433.802	4.23
434.161	4.41
434.521	4.6
434.881	4.32
435.24	4.24
435.6	4.3
435.959	4.4
436.319	4.28
436.678	4.55
437.037	4.32
437.396	4.47
437.756	4.43
438.115	4.29
438.474	4.72
438.833	4.19
439.192	4.37
439.551	4.38
439.91	4.41
440.269	4.38
440.628	4.31
440.987	4.53
441.345	4.23
441.704	4.39
442.063	4.33
442.421	4.42
442.78	4.35
443.138	4.29
443.497	4.49
443.855	4.42
444.214	4.45
444.572	4.56
444.93	4.62
445.288	4.5
445.647	4.57
446.005	4.45
446.363	4.42
446.721	4.48
447.079	4.39
447.437	4.28
447.795	4.36
448.153	4.27
448.51	4.42
448.868	4.39
449.226	4.43
449.584	4.5
449.941	4.55
450.299	4.59
450.656	4.6
451.014	4.57
451.371	4.52
451.729	4.58
452.086	4.66
452.443	4.45
452.801	4.72
453.158	4.7
453.515	4.46
453.872	4.7
454.229	4.47
454.586	4.41
454.943	4.61
455.3	4.61
455.657	4.54
456.014	4.68
456.371	4.53
456.727	4.55
457.084	4.57
457.441	4.58
457.797	4.48
458.154	4.84
458.51	4.67
458.867	4.78
459.223	4.76
459.58	4.7
459.936	4.64
460.292	4.55
460.648	4.5
461.005	4.42
461.361	4.58
461.717	4.54
462.073	4.52
462.429	4.53
462.785	4.72
463.141	4.69
463.496	4.51
463.852	4.72
464.208	4.66
464.564	4.72
464.919	4.82
465.275	4.65
465.631	5
465.986	4.72
466.342	4.77
466.697	4.59
467.052	4.73
467.408	4.76
467.763	4.58
468.118	4.69
468.473	4.56
468.829	4.86
469.184	4.58
469.539	4.62
469.894	4.61
470.249	4.91
470.603	4.81
470.958	4.82
471.313	4.97
471.668	4.86
472.023	4.83
472.377	4.67
472.732	4.82
473.086	4.67
473.441	4.52
473.795	4.89
474.15	4.76
474.504	4.72
474.859	4.9
475.213	4.67
475.567	4.84
475.921	4.8
476.275	4.81
476.63	4.72
476.984	5.02
477.338	4.95
477.692	4.87
478.045	4.75
478.399	4.81
478.753	4.98
479.107	4.75
479.461	4.83
479.814	4.84
480.168	4.75
480.521	4.77
480.875	4.78
481.228	4.85
481.582	4.86
481.935	4.85
482.289	4.8
482.642	4.81
482.995	4.73
483.348	4.7
483.701	4.73
484.055	4.85
484.408	4.82
484.761	4.65
485.114	4.62
485.466	4.47
485.819	4.5
486.172	4.6
486.525	4.67
486.878	4.76
487.23	4.8
487.583	4.83
487.936	4.86
488.288	4.78
488.641	4.73
488.993	4.66
489.345	4.64
489.698	4.7
490.05	4.69
490.402	4.83
490.754	4.81
491.107	4.93
491.459	4.97
491.811	4.93
492.163	4.91
492.515	4.95
492.866	4.97
493.218	4.81
493.57	4.71
493.922	4.78
494.274	4.96
494.625	5
494.977	5.04
495.328	5.1
495.68	5.07
496.031	5.21
496.383	5.04
496.734	5.27
497.086	5.22
497.437	5.12
497.788	5.08
498.139	4.96
498.49	5.16
498.842	4.98
499.193	5.04
499.544	5.15
499.894	5.14
500.245	5.06
500.596	5
500.947	5.23
501.298	5.13
501.648	5.22
501.999	5.25
502.35	5.21
502.7	5.31
503.051	5.02
503.401	5.08
503.752	5.31
504.102	5.32
504.452	5.38
504.803	5.25
505.153	5.05
505.503	5.27
505.853	5.23
506.203	5.19
506.553	5.23
506.903	5.15
507.253	5.26
507.603	5.38
507.953	5.47
508.303	5.5
508.652	5.34
509.002	5.37
509.352	5.4
509.701	5.18
510.051	5.18
510.4	5.39
510.75	5.35
511.099	5.42
511.449	5.37
511.798	5.34
512.147	5.48
512.496	5.44
512.846	5.47
513.195	5.47
513.544	5.46
513.893	5.41
514.242	5.42
514.591	5.49
514.939	5.45
515.288	5.5
515.637	5.59
515.986	5.5
516.334	5.5
516.683	5.62
517.032	5.62
517.38	5.71
517.729	5.67
518.077	5.48
518.426	5.7
518.774	5.6
519.122	5.53
519.47	5.57
519.819	5.54
520.167	5.56
520.515	5.57
520.863	5.57
521.211	5.65
521.559	5.66
521.907	5.65
522.255	5.66
522.602	5.85
522.95	5.64
523.298	5.69
523.645	5.88
523.993	5.76
524.341	5.84
524.688	5.87
525.036	5.77
525.383	5.92
525.73	5.94
526.078	5.89
526.425	5.76
526.772	5.78
527.119	5.82
527.466	5.76
527.814	5.86
528.161	5.9
528.508	5.85
528.854	5.87
529.201	5.85
529.548	5.74
529.895	5.63
530.242	5.54
530.588	5.58
530.935	5.71
531.282	5.84
531.628	5.84
531.975	5.89
532.321	6.08
532.667	5.99
533.014	6.12
533.36	6.06
533.706	5.99
534.052	6.02
534.399	5.91
534.745	5.81
535.091	5.87
535.437	6.05
535.783	6.08
536.129	6.07
536.474	6.16
536.82	6.23
537.166	6.25
537.512	6.22
537.857	6.14
538.203	6.19
538.549	6.17
538.894	6.21
539.239	6.26
539.585	6.35
539.93	6.27
540.276	6.57
540.621	6.42
540.966	6.52
541.311	6.27
541.656	6.36
542.001	6.38
542.346	6.41
542.691	6.22
543.036	6.15
543.381	6.23
543.726	6.34
544.071	6.4
544.415	6.51
544.76	6.42
545.105	6.59
545.449	6.58
545.794	6.77
546.138	6.73
546.483	6.83
546.827	6.67
547.171	6.65
547.516	6.79
547.86	6.67
548.204	6.59
548.548	6.62
548.892	6.77
549.236	6.82
549.58	6.74
549.924	6.92
550.268	6.93
550.612	7.07
550.956	7.23
551.3	7.03
551.643	7.2
551.987	7.14
552.33	7.07
552.674	7.09
553.017	7.08
553.361	7.09
553.704	7.27
554.048	7.12
554.391	6.95
554.734	7.09
555.077	7.21
555.42	6.98
555.764	7.13
556.107	7.19
556.45	7.04
556.793	7.31
557.135	7.21
557.478	7.48
557.821	7.45
558.164	7.35
558.507	7.36
558.849	7.23
559.192	7.58
559.534	7.56
559.877	7.58
560.219	7.46
560.562	7.76
560.904	7.53
561.246	7.53
561.589	7.53
561.931	7.63
562.273	7.42
562.615	7.63
562.957	7.62
563.299	7.47
563.641	7.62
563.983	7.89
564.325	7.66
564.667	7.72
565.008	7.84
565.35	7.75
565.692	7.71
566.033	7.97
566.375	7.9
566.716	7.97
567.058	7.91
567.399	7.77
567.741	7.92
568.082	7.83
568.423	7.79
568.764	7.95
569.105	8.24
569.447	8.27
569.788	8.13
570.129	8.24
570.47	8
570.811	8.2
571.151	8.27
571.492	8.24
571.833	8.24
572.174	8.25
572.514	8.32
572.855	8.22
573.195	8.22
573.536	8.23
573.876	8.24
574.217	8.49
574.557	8.47
574.898	8.55
575.238	8.62
575.578	8.57
575.918	8.75
576.258	8.65
576.598	8.5
576.938	8.54
577.278	8.72
577.618	8.48
577.958	8.64
578.298	8.66
578.638	8.79
578.977	8.78
579.317	8.85
579.657	8.95
579.996	8.96
580.336	8.86
580.675	9.08
581.014	8.77
581.354	9.02
581.693	9.25
582.032	9
582.372	9.07
582.711	9.13
583.05	9.11
583.389	9.13
583.728	9.1
584.067	9.43
584.406	9.3
584.745	9.35
585.083	9.59
585.422	9.42
585.761	9.17
586.1	9.6
586.438	9.55
586.777	9.74
587.115	9.75
587.454	9.51
587.792	9.38
588.13	9.66
588.469	9.63
588.807	9.47
589.145	9.5
589.483	9.72
589.821	9.66
590.159	9.93
590.497	10.09
590.835	10
591.173	9.83
591.511	10.08
591.849	9.98
592.187	9.9
592.524	10.06
592.862	10.15
593.2	9.99
593.537	10.14
593.875	10.03
594.212	10.21
594.55	10.08
594.887	10.14
595.224	9.93
595.561	10.21
595.899	10.04
596.236	10.21
596.573	10.36
596.91	9.99
597.247	10.1
597.584	10.67
597.921	10.55
598.258	10.32
598.594	10.3
598.931	10.33
599.268	10.43
599.604	10.57
599.941	10.6
600.277	10.68
600.614	10.69
600.95	10.9
601.287	10.78
601.623	10.87
601.959	10.67
602.296	10.81
602.632	10.63
602.968	10.93
603.304	11.06
603.64	11.08
603.976	10.94
604.312	10.93
604.648	11.03
604.984	11.15
605.319	11.1
605.655	10.97
605.991	10.96
606.326	11.15
606.662	11.05
606.998	10.87
607.333	11.26
607.668	11.32
608.004	11.49
608.339	11.51
608.674	11.62
609.01	11.57
609.345	11.45
609.68	11.55
610.015	11.4
610.35	11.59
610.685	11.61
611.02	11.62
611.355	11.6
611.689	11.59
612.024	11.62
612.359	11.87
612.694	11.86
613.028	11.72
613.363	12.12
613.697	12.11
614.032	12.09
614.366	12.03
614.7	12.3
615.035	12.01
615.369	11.78
615.703	12
616.037	12.03
616.371	12.02
616.705	12.15
617.039	12.37
617.373	12.31
617.707	12.12
618.041	12.31
618.375	12.25
618.709	12.52
619.042	12.34
619.376	12.64
619.71	12.83
620.043	12.71
620.377	12.34
620.71	12.44
621.043	12.8
621.377	12.73
621.71	12.61
622.043	12.19
622.376	12.35
622.709	13.01
623.043	13.01
623.376	12.72
623.709	13.05
624.041	13.22
624.374	12.99
624.707	12.54
625.04	12.93
625.373	12.42
625.705	13.07
626.038	12.8
626.37	12.95
626.703	13.34
627.035	13.47
627.368	13.46
627.7	13.21
628.032	12.93
628.365	13.37
628.697	13.13
629.029	12.95
629.361	13.43
629.693	13.58
630.025	13.42
630.357	13.91
630.689	13.65
631.021	13.29
631.353	13.59
631.684	13.36
632.016	13.35
632.348	13.83
632.679	13.89
633.011	13.61
633.342	14
633.674	13.53
634.005	14.1
634.336	14.13
634.668	14.65
634.999	14.02
635.33	14.2
635.661	14.09
635.992	13.85
636.323	13.82
636.654	14.34
636.985	14.12
637.316	14.3
637.647	14.13
637.977	14.47
638.308	14.59
638.639	14.27
638.969	14.29
639.3	14.32
639.63	14.1
639.961	14.21
640.291	14.51
640.622	14.82
640.952	14.67
641.282	14.88
641.612	14.19
641.943	14.27
642.273	14.72
642.603	15.44
642.933	14.82
643.263	14.89
643.592	14.91
643.922	14.76
644.252	14.49
644.582	15.14
644.911	15.18
645.241	14.88
645.571	14.9
645.9	14.96
646.23	15.11
646.559	15.13
646.888	14.87
647.218	15.54
647.547	15.58
647.876	14.93
648.205	15
648.534	15.49
648.863	15.22
649.192	15.53
649.521	15.37
649.85	15.15
650.179	15.35
650.508	15.2
650.837	15.31
651.165	15.24
651.494	15.74
651.822	15.77
652.151	15.43
652.479	15.42
652.808	15.55
653.136	15.4
653.465	14.97
653.793	15.58
654.121	15.46
654.449	15.67
654.777	16.41
655.105	15.87
655.433	16.12
655.761	15.54
656.089	16.15
656.417	16.05
656.745	15.72
657.073	15.95
657.4	16.84
657.728	16.28
658.056	16.4
658.383	16.08
658.711	15.97
659.038	16.4
659.365	16.32
659.693	16.4
660.02	15.85
660.347	16.36
660.674	16.25
661.001	16.32
661.329	15.89
661.656	16.4
661.982	16.99
662.309	16.7
662.636	16
662.963	17.07
663.29	17.03
663.616	17.22
663.943	16.49
664.27	16.73
664.596	17.06
664.923	16.85
665.249	17.17
665.576	16.78
665.902	17.43
666.228	16.59
666.554	17.36
666.881	16.78
667.207	17.25
667.533	17.31
667.859	16.57
668.185	17.05
668.511	17.34
668.837	16.66
669.162	17.03
669.488	17.18
669.814	17.79
670.139	17.87
670.465	17.7
670.791	17.32
671.116	18.29
671.442	17.34
671.767	17.63
672.092	17.64
672.418	17.28
672.743	17.87
673.068	17.39
673.393	17.81
673.718	17.42
674.043	17.64
674.368	17.81
674.693	18.43
675.018	17.4
675.343	17.99
675.667	17.95
675.992	17.94
676.317	18.2
676.641	17.82
676.966	18.16
677.29	18.08
677.615	18.3
677.939	18.48
678.264	18.75
678.588	18.49
678.912	18.56
679.236	18.34
679.56	18.11
679.885	18.91
680.209	18.48
680.532	18.03
680.856	18.49
681.18	18.72
681.504	18.47
681.828	18.37
682.152	18.31
682.475	18.87
682.799	18.98
683.122	18.93
683.446	18.48
683.769	19.29
684.093	18.34
684.416	19.52
684.739	18.48
685.062	18.76
685.386	19.53
685.709	18.49
686.032	18.82
686.355	20.19
