Data from 0065_chest_Reflection__3__242.txt Node

Date: Fri Dec 16 15:50:06 CST 2022
User: ToomeyLab
Spectrometer: FLMS14357
Trigger mode: 0
Integration Time (sec): 1.000000E-2
Scans to average: 100
Electric dark correction enabled: true
Nonlinearity correction enabled: false
Boxcar width: 0
XAxis mode: Wavelengths
Number of Pixels in Spectrum: 2048
>>>>>Begin Spectral Data<<<<<
189.047	310.39
189.435	310.39
189.823	310.39
190.211	37.67
190.599	152.12
190.987	57.77
191.375	-95.79
191.763	161.03
192.151	-87.05
192.538	81.32
192.926	-129.83
193.314	129.9
193.702	-0.88
194.089	55.94
194.477	131.74
194.864	23.72
195.252	-48.94
195.639	70.45
196.027	15.53
196.414	-461.4
196.801	308.7
197.189	176.67
197.576	59.99
197.963	473.75
198.351	2.31
198.738	-83.37
199.125	25.9
199.512	-14.27
199.899	-34.38
200.286	-77.52
200.673	34.06
201.06	38.67
201.447	19.26
201.833	20.56
202.22	16.28
202.607	-12.35
202.994	18.58
203.38	-5.19
203.767	9.76
204.154	-77.12
204.54	24.82
204.927	-2.24
205.313	0.4
205.699	-34.88
206.086	7.93
206.472	-33.81
206.858	30.81
207.245	-23.72
207.631	-25.11
208.017	7.78
208.403	49.06
208.789	-17.63
209.175	16.89
209.561	-19.32
209.947	-2.64
210.333	-24.35
210.719	-26.73
211.105	-76.63
211.491	-14.24
211.876	-15.64
212.262	-6.96
212.648	-17.37
213.034	-17.79
213.419	11.41
213.805	-5.18
214.19	14.51
214.576	-45.9
214.961	-14.87
215.346	-49.94
215.732	-30.96
216.117	-4.15
216.502	-25.23
216.888	-51.53
217.273	25.76
217.658	3.24
218.043	7.95
218.428	-11.44
218.813	-15.58
219.198	-60.01
219.583	-16.23
219.968	10.85
220.353	5.98
220.738	-2.65
221.122	-8.54
221.507	-3.15
221.892	1.63
222.276	14.74
222.661	-9.35
223.046	12.27
223.43	-5.74
223.815	-8.39
224.199	-2.34
224.583	3.18
224.968	9.79
225.352	-0.02
225.736	5.01
226.121	-5.95
226.505	-0.43
226.889	5.15
227.273	2.49
227.657	3.75
228.041	0.68
228.425	3.22
228.809	1.8
229.193	-0.36
229.577	2.83
229.961	3.07
230.344	3.09
230.728	3.53
231.112	3.06
231.495	1.2
231.879	1.96
232.263	1.49
232.646	2.87
233.03	-0.1
233.413	1.35
233.797	6.77
234.18	1.7
234.563	2.09
234.946	3.9
235.33	3.2
235.713	1.96
236.096	1.72
236.479	2.3
236.862	2.28
237.245	4.93
237.628	2.73
238.011	1.1
238.394	3.65
238.777	2.44
239.16	0.86
239.543	1.81
239.925	3.08
240.308	2.1
240.691	3.45
241.073	2.37
241.456	2.43
241.838	2.26
242.221	3.25
242.603	2.97
242.986	4.16
243.368	3.61
243.75	3.08
244.133	3.47
244.515	2.75
244.897	3.1
245.279	3.15
245.661	3.6
246.043	2.81
246.425	1.88
246.807	2.54
247.189	3.52
247.571	3.35
247.953	3.47
248.335	3.59
248.717	3.44
249.098	3.35
249.48	3.1
249.862	3.17
250.243	3.38
250.625	3.21
251.006	3.59
251.388	3.68
251.769	2.19
252.151	3.96
252.532	3.26
252.913	3.43
253.295	3.52
253.676	3.43
254.057	2.83
254.438	2.75
254.819	3.12
255.2	3.12
255.581	3.38
255.962	3.5
256.343	4.38
256.724	2.74
257.105	3.16
257.486	4.08
257.867	1.59
258.247	2.84
258.628	3.82
259.009	2.88
259.389	3.54
259.77	3.1
260.15	3.93
260.531	3.59
260.911	3.46
261.292	3.38
261.672	2.96
262.052	3.24
262.432	3.07
262.813	3.4
263.193	3.37
263.573	3.27
263.953	3.24
264.333	2.96
264.713	2.4
265.093	2.71
265.473	3.37
265.853	3.4
266.233	2.59
266.612	3.24
266.992	2.47
267.372	3.12
267.752	2.88
268.131	3.36
268.511	3.12
268.89	3.74
269.27	3.35
269.649	3.23
270.029	3.51
270.408	2.92
270.787	2.88
271.167	3.13
271.546	2.13
271.925	3.27
272.304	3.23
272.683	2.8
273.062	3.08
273.441	3.18
273.82	3.94
274.199	2.88
274.578	3.32
274.957	2.86
275.336	3.34
275.715	2.71
276.093	3.38
276.472	3.41
276.851	2.65
277.229	2.92
277.608	3.31
277.986	3
278.365	3.34
278.743	3.25
279.122	2.8
279.5	3.04
279.878	2.27
280.257	3.35
280.635	3
281.013	3.07
281.391	2.74
281.769	2.96
282.147	3.39
282.525	2.88
282.903	3.36
283.281	2.97
283.659	3.13
284.037	2.86
284.415	2.84
284.792	2.79
285.17	2.55
285.548	2.7
285.925	2.86
286.303	2.86
286.68	3.33
287.058	3.09
287.435	3.1
287.813	3.1
288.19	3.78
288.567	2.63
288.945	3.46
289.322	3.37
289.699	2.85
290.076	3.65
290.453	3.22
290.83	2.84
291.207	3.3
291.584	2.97
291.961	3.29
292.338	3.16
292.715	3.65
293.092	2.97
293.469	3.31
293.845	4.07
294.222	3.38
294.599	3.98
294.975	3.35
295.352	3.23
295.728	3.75
296.105	3.69
296.481	3.88
296.858	3.55
297.234	3.43
297.61	3.52
297.986	3.7
298.363	3.23
298.739	3.47
299.115	3.48
299.491	3.58
299.867	3.6
300.243	3.6
300.619	3.43
300.995	3.67
301.371	4.18
301.746	3.62
302.122	3.51
302.498	3.67
302.874	3.86
303.249	3.64
303.625	3.96
304	3.53
304.376	3.41
304.751	3.71
305.127	3.89
305.502	3.86
305.878	3.73
306.253	3.48
306.628	4.04
307.003	3.89
307.378	3.51
307.754	3.16
308.129	3.83
308.504	3.29
308.879	3.98
309.254	4.34
309.629	4.04
310.003	3.97
310.378	4.33
310.753	3.98
311.128	4.1
311.502	3.72
311.877	4.17
312.252	3.65
312.626	3.72
313.001	3.9
313.375	3.87
313.75	3.68
314.124	4.35
314.498	3.83
314.873	3.62
315.247	3.65
315.621	4.39
315.995	4.23
316.369	4.12
316.743	3.75
317.117	4.81
317.491	3.95
317.865	3.57
318.239	4.37
318.613	4.09
318.987	4
319.361	3.82
319.734	3.65
320.108	3.94
320.482	4.33
320.855	3.92
321.229	4.47
321.602	3.84
321.976	3.54
322.349	4.06
322.723	3.93
323.096	3.68
323.469	3.41
323.843	4
324.216	3.56
324.589	4.96
324.962	4.48
325.335	4.02
325.708	4.39
326.081	4.65
326.454	4.5
326.827	4.54
327.2	4.61
327.573	4.3
327.945	4.33
328.318	4.47
328.691	4.41
329.063	4.28
329.436	4.21
329.809	4
330.181	4.16
330.553	4.64
330.926	4.29
331.298	3.05
331.671	3.76
332.043	4.2
332.415	4.26
332.787	4.55
333.159	4.48
333.532	4.44
333.904	4.39
334.276	4.16
334.648	4.13
335.02	4.39
335.391	4.51
335.763	4.43
336.135	4.47
336.507	5.07
336.879	4.95
337.25	4.35
337.622	4.2
337.993	4.8
338.365	4.71
338.736	4.81
339.108	4.69
339.479	4.43
339.851	4.61
340.222	4.32
340.593	3.76
340.964	4.6
341.336	3.96
341.707	4.7
342.078	3.99
342.449	4.5
342.82	4.49
343.191	4.03
343.562	4.52
343.933	4.17
344.303	4.7
344.674	4.33
345.045	4.65
345.416	4.55
345.786	4.03
346.157	4.69
346.527	4.7
346.898	4.55
347.268	4.26
347.639	4.51
348.009	4.76
348.38	4.36
348.75	4.6
349.12	4.72
349.49	4.12
349.861	4.89
350.231	4.57
350.601	4.37
350.971	4.39
351.341	4.55
351.711	4.55
352.081	4.64
352.45	4.87
352.82	4.86
353.19	4.48
353.56	4.29
353.929	4.76
354.299	4.35
354.669	4.93
355.038	4.6
355.408	5.11
355.777	4.38
356.147	4.79
356.516	4.66
356.885	4.62
357.254	4.61
357.624	4.56
357.993	4.52
358.362	4.58
358.731	4.69
359.1	4.85
359.469	5
359.838	4.61
360.207	4.43
360.576	4.78
360.945	4.47
361.314	4.92
361.682	4.29
362.051	4.58
362.42	5.08
362.788	4.72
363.157	4.38
363.525	4.48
363.894	4.47
364.262	4.49
364.631	5.23
364.999	4.33
365.367	5.04
365.735	4.46
366.104	4.42
366.472	4.68
366.84	4.62
367.208	4.33
367.576	4.59
367.944	5.13
368.312	4.21
368.68	4.83
369.048	4.83
369.416	4.51
369.783	4.53
370.151	4.84
370.519	4.24
370.886	4.59
371.254	4.21
371.621	4.97
371.989	5.13
372.356	4.75
372.724	5
373.091	4.74
373.458	4.76
373.826	4.32
374.193	4.93
374.56	4.85
374.927	4.87
375.294	5.18
375.661	4.66
376.028	4.63
376.395	4.73
376.762	5.07
377.129	4.86
377.496	4.94
377.863	4.91
378.229	4.81
378.596	4.79
378.963	4.55
379.329	4.56
379.696	4.72
380.062	4.97
380.429	4.93
380.795	4.75
381.161	4.46
381.528	4.49
381.894	5.12
382.26	4.84
382.626	4.96
382.993	4.65
383.359	4.68
383.725	5.15
384.091	4.69
384.457	4.95
384.823	5.14
385.188	5.1
385.554	4.99
385.92	5.39
386.286	5.05
386.651	4.65
387.017	5.09
387.383	4.97
387.748	4.77
388.114	5.04
388.479	5.12
388.845	5.12
389.21	4.84
389.575	5.19
389.94	5.03
390.306	4.74
390.671	4.89
391.036	5.17
391.401	5.11
391.766	5.23
392.131	4.93
392.496	4.68
392.861	4.88
393.226	4.94
393.591	4.96
393.956	5.03
394.32	4.8
394.685	5.06
395.05	4.94
395.414	5.16
395.779	4.8
396.143	5.09
396.508	5.08
396.872	5.18
397.236	4.92
397.601	5.32
397.965	4.99
398.329	5.29
398.694	4.93
399.058	5.22
399.422	5.14
399.786	5.06
400.15	5.17
400.514	5.1
400.878	5.02
401.242	5.34
401.605	5.25
401.969	5.17
402.333	5.12
402.697	5.29
403.06	5.35
403.424	5.31
403.787	5.3
404.151	4.93
404.514	4.95
404.878	5.14
405.241	5.42
405.604	5.34
405.968	5.42
406.331	5.23
406.694	5.23
407.057	5.35
407.42	5.29
407.783	5.07
408.146	5.24
408.509	5.12
408.872	5.16
409.235	5.32
409.598	5.31
409.961	5.34
410.323	5.24
410.686	5.26
411.049	5.22
411.411	5.49
411.774	5.19
412.136	5.41
412.499	5.39
412.861	4.97
413.223	5.3
413.586	5.06
413.948	5.49
414.31	5.28
414.672	5.16
415.035	5.65
415.397	5.38
415.759	5.3
416.121	5.63
416.483	5.64
416.845	5.39
417.206	5.66
417.568	5.44
417.93	5.2
418.292	5.33
418.653	5.6
419.015	5.38
419.377	5.5
419.738	5.39
420.1	5.35
420.461	5.36
420.822	5.54
421.184	5.35
421.545	5.43
421.906	5.46
422.267	5.34
422.629	5.42
422.99	5.32
423.351	5.43
423.712	5.29
424.073	5.47
424.434	5.45
424.795	5.5
425.155	5.41
425.516	5.37
425.877	5.41
426.238	5.44
426.598	5.42
426.959	5.29
427.32	5.5
427.68	5.45
428.041	5.44
428.401	5.29
428.761	5.44
429.122	5.49
429.482	5.48
429.842	5.69
430.202	5.44
430.563	5.63
430.923	5.65
431.283	5.77
431.643	5.67
432.003	5.52
432.363	5.62
432.722	5.37
433.082	5.77
433.442	5.69
433.802	5.71
434.161	5.58
434.521	5.87
434.881	5.74
435.24	5.58
435.6	5.65
435.959	5.71
436.319	5.64
436.678	5.7
437.037	5.83
437.396	5.69
437.756	5.81
438.115	5.83
438.474	5.76
438.833	5.68
439.192	5.79
439.551	5.89
439.91	5.91
440.269	6
440.628	5.93
440.987	5.88
441.345	5.75
441.704	5.83
442.063	5.74
442.421	5.79
442.78	5.82
443.138	5.64
443.497	5.51
443.855	5.64
444.214	5.83
444.572	5.68
444.93	5.91
445.288	5.94
445.647	5.9
446.005	5.85
446.363	5.77
446.721	5.63
447.079	5.94
447.437	5.84
447.795	5.77
448.153	5.77
448.51	5.81
448.868	5.85
449.226	5.87
449.584	5.92
449.941	5.95
450.299	5.91
450.656	6.01
451.014	5.91
451.371	6.02
451.729	5.94
452.086	5.85
452.443	5.86
452.801	6.13
453.158	5.94
453.515	6.08
453.872	6.06
454.229	5.86
454.586	5.96
454.943	5.99
455.3	6.26
455.657	5.95
456.014	6.15
456.371	5.97
456.727	5.96
457.084	6.1
457.441	6.07
457.797	6.21
458.154	6.07
458.51	5.93
458.867	6.07
459.223	6.13
459.58	5.99
459.936	6.12
460.292	6.13
460.648	6.16
461.005	6.1
461.361	6.12
461.717	6.09
462.073	6
462.429	6.08
462.785	6.19
463.141	6.17
463.496	6.08
463.852	6.38
464.208	6.38
464.564	6.08
464.919	6.32
465.275	6.44
465.631	6.29
465.986	6.29
466.342	6.42
466.697	6.2
467.052	6.37
467.408	6.33
467.763	6.3
468.118	6.42
468.473	6.54
468.829	6.35
469.184	6.25
469.539	6.11
469.894	6.23
470.249	6.39
470.603	6.44
470.958	6.5
471.313	6.3
471.668	6.45
472.023	6.46
472.377	6.37
472.732	6.47
473.086	6.32
473.441	6.4
473.795	6.5
474.15	6.52
474.504	6.52
474.859	6.49
475.213	6.41
475.567	6.36
475.921	6.49
476.275	6.56
476.63	6.48
476.984	6.73
477.338	6.72
477.692	6.62
478.045	6.63
478.399	6.5
478.753	6.48
479.107	6.6
479.461	6.77
479.814	6.62
480.168	6.69
480.521	6.45
480.875	6.7
481.228	6.61
481.582	6.53
481.935	6.71
482.289	6.68
482.642	6.72
482.995	6.78
483.348	6.64
483.701	6.7
484.055	6.61
484.408	6.72
484.761	6.61
485.114	6.62
485.466	6.49
485.819	6.3
486.172	6.25
486.525	6.28
486.878	6.34
487.23	6.48
487.583	6.56
487.936	6.66
488.288	6.71
488.641	6.71
488.993	6.57
489.345	6.57
489.698	6.57
490.05	6.51
490.402	6.59
490.754	6.63
491.107	6.68
491.459	6.76
491.811	6.86
492.163	6.89
492.515	6.98
492.866	6.75
493.218	6.8
493.57	6.73
493.922	6.59
494.274	6.71
494.625	6.61
494.977	6.76
495.328	6.97
495.68	7.12
496.031	6.97
496.383	7
496.734	7.11
497.086	7.09
497.437	7.11
497.788	7.06
498.139	7.08
498.49	7.15
498.842	7.07
499.193	6.96
499.544	7.17
499.894	7.13
500.245	7
500.596	7.11
500.947	7.11
501.298	7.07
501.648	7.09
501.999	7.23
502.35	7.37
502.7	7.28
503.051	7.31
503.401	7.34
503.752	7.3
504.102	7.26
504.452	7.12
504.803	7.12
505.153	7.34
505.503	7.36
505.853	7.27
506.203	7.37
506.553	7.34
506.903	7.3
507.253	7.37
507.603	7.37
507.953	7.47
508.303	7.43
508.652	7.3
509.002	7.49
509.352	7.47
509.701	7.44
510.051	7.45
510.4	7.47
510.75	7.44
511.099	7.49
511.449	7.47
511.798	7.56
512.147	7.45
512.496	7.57
512.846	7.31
513.195	7.54
513.544	7.54
513.893	7.47
514.242	7.59
514.591	7.59
514.939	7.58
515.288	7.62
515.637	7.67
515.986	7.58
516.334	7.7
516.683	7.63
517.032	7.57
517.38	7.83
517.729	7.7
518.077	7.71
518.426	7.65
518.774	7.88
519.122	7.74
519.47	7.74
519.819	7.72
520.167	7.67
520.515	7.65
520.863	7.62
521.211	7.67
521.559	7.72
521.907	7.86
522.255	7.83
522.602	7.96
522.95	7.88
523.298	7.94
523.645	7.9
523.993	7.9
524.341	7.98
524.688	7.93
525.036	8.06
525.383	8.01
525.73	8.06
526.078	8.09
526.425	8.06
526.772	7.99
527.119	8.06
527.466	8.04
527.814	7.96
528.161	8.02
528.508	7.96
528.854	7.96
529.201	8.12
529.548	8.07
529.895	8.12
530.242	7.97
530.588	7.86
530.935	7.77
531.282	7.78
531.628	7.92
531.975	7.95
532.321	8.06
532.667	8.12
533.014	8.16
533.36	8.22
533.706	8.34
534.052	8.26
534.399	8.34
534.745	8.28
535.091	8.23
535.437	8.12
535.783	8.17
536.129	8.19
536.474	8.24
536.82	8.26
537.166	8.43
537.512	8.49
537.857	8.52
538.203	8.48
538.549	8.51
538.894	8.41
539.239	8.53
539.585	8.59
539.93	8.54
540.276	8.58
540.621	8.64
540.966	8.68
541.311	8.86
541.656	8.76
542.001	8.95
542.346	8.84
542.691	8.74
543.036	8.63
543.381	8.53
543.726	8.55
544.071	8.56
544.415	8.61
544.76	8.67
545.105	8.74
545.449	8.65
545.794	8.77
546.138	8.83
546.483	8.8
546.827	8.92
547.171	8.95
547.516	9.07
547.86	9.05
548.204	9.05
548.548	9.15
548.892	9.19
549.236	9.07
549.58	9.08
549.924	9.18
550.268	9.28
550.612	9.15
550.956	9.19
551.3	9.25
551.643	9.28
551.987	9.39
552.33	9.42
552.674	9.42
553.017	9.39
553.361	9.52
553.704	9.48
554.048	9.64
554.391	9.48
554.734	9.49
555.077	9.46
555.42	9.35
555.764	9.42
556.107	9.51
556.45	9.57
556.793	9.75
557.135	9.72
557.478	9.68
557.821	9.66
558.164	9.75
558.507	9.62
558.849	9.61
559.192	9.68
559.534	9.63
559.877	9.93
560.219	10.03
560.562	9.94
560.904	9.91
561.246	10.06
561.589	9.84
561.931	10.02
562.273	9.9
562.615	9.91
562.957	10.14
563.299	10.03
563.641	9.99
563.983	10.2
564.325	9.92
564.667	9.9
565.008	10.11
565.35	10.33
565.692	10.4
566.033	10.39
566.375	10.12
566.716	10.39
567.058	10.47
567.399	10.28
567.741	10.44
568.082	10.24
568.423	10.35
568.764	10.49
569.105	10.37
569.447	10.41
569.788	10.56
570.129	10.44
570.47	10.39
570.811	10.64
571.151	10.69
571.492	10.6
571.833	10.65
572.174	10.46
572.514	10.61
572.855	10.79
573.195	10.84
573.536	10.78
573.876	10.75
574.217	10.68
574.557	10.73
574.898	10.62
575.238	10.68
575.578	10.94
575.918	10.87
576.258	10.9
576.598	10.85
576.938	11.18
577.278	10.86
577.618	10.85
577.958	10.95
578.298	11.07
578.638	11.02
578.977	10.98
579.317	11
579.657	11.13
579.996	11.18
580.336	11.12
580.675	11.31
581.014	11.25
581.354	11.32
581.693	11.44
582.032	11.54
582.372	11.51
582.711	11.17
583.05	11.34
583.389	11.46
583.728	11.46
584.067	11.47
584.406	11.75
584.745	11.44
585.083	11.62
585.422	11.58
585.761	11.67
586.1	11.7
586.438	11.69
586.777	11.62
587.115	12.03
587.454	11.69
587.792	11.54
588.13	11.94
588.469	11.85
588.807	12.26
589.145	12.07
589.483	11.6
589.821	12.02
590.159	12.09
590.497	12.04
590.835	11.83
591.173	11.94
591.511	12.13
591.849	12.09
592.187	12.21
592.524	11.92
592.862	12.12
593.2	12.2
593.537	12.03
593.875	12.25
594.212	12.4
594.55	12.09
594.887	12.46
595.224	12.4
595.561	12.4
595.899	12.48
596.236	12.35
596.573	12.16
596.91	12.87
597.247	12.45
597.584	12.64
597.921	12.72
598.258	12.89
598.594	12.51
598.931	12.4
599.268	12.43
599.604	12.69
599.941	12.52
600.277	12.59
600.614	12.56
600.95	12.84
601.287	12.72
601.623	12.91
601.959	12.8
602.296	13.16
602.632	13.12
602.968	13.01
603.304	13.07
603.64	13.28
603.976	13.17
604.312	13.33
604.648	13.12
604.984	13.06
605.319	12.95
605.655	13.19
605.991	13.14
606.326	13.29
606.662	13.06
606.998	13.2
607.333	13.03
607.668	13.14
608.004	13.11
608.339	13.17
608.674	13.47
609.01	13.48
609.345	13.5
609.68	13.16
610.015	13.52
610.35	13.69
610.685	13.75
611.02	13.67
611.355	13.7
611.689	13.35
612.024	13.87
612.359	13.49
612.694	13.64
613.028	13.77
613.363	13.57
613.697	13.74
614.032	13.89
614.366	13.73
614.7	14.09
615.035	13.73
615.369	13.88
615.703	14.45
616.037	13.85
616.371	13.82
616.705	13.88
617.039	14.25
617.373	14.19
617.707	14.04
618.041	13.96
618.375	14.11
618.709	13.97
619.042	14.02
619.376	14.28
619.71	14.3
620.043	14.16
620.377	14.29
620.71	14.18
621.043	14.25
621.377	14.44
621.71	14.6
622.043	14.42
622.376	14.43
622.709	14.72
623.043	14.19
623.376	14.66
623.709	14.83
624.041	14.55
624.374	14.91
624.707	14.39
625.04	14.74
625.373	14.59
625.705	14.92
626.038	15.03
626.37	14.83
626.703	14.96
627.035	14.99
627.368	15.16
627.7	15.07
628.032	15.31
628.365	15.14
628.697	15
629.029	15.28
629.361	15.01
629.693	15.21
630.025	14.82
630.357	15.1
630.689	15.44
631.021	15.32
631.353	15.18
631.684	15.45
632.016	15.27
632.348	15.44
632.679	15.2
633.011	15.12
633.342	15.26
633.674	15.64
634.005	15.25
634.336	15.37
634.668	15.04
634.999	15.76
635.33	15.31
635.661	15.83
635.992	15.66
636.323	15.3
636.654	15.76
636.985	15.58
637.316	15.7
637.647	15.7
637.977	15.33
638.308	15.58
638.639	15.8
638.969	15.57
639.3	16.05
639.63	15.69
639.961	15.73
640.291	16.2
640.622	16.29
640.952	16.08
641.282	15.55
641.612	16.03
641.943	16.31
642.273	16.19
642.603	16.2
642.933	16.07
643.263	16.28
643.592	16.52
643.922	16.79
644.252	16.58
644.582	15.87
644.911	15.8
645.241	16.01
645.571	16.3
645.9	16.58
646.23	16.26
646.559	16.22
646.888	16.31
647.218	16.93
647.547	16.5
647.876	16.81
648.205	16.22
648.534	16.6
648.863	16.72
649.192	16.74
649.521	16.58
649.85	17.19
650.179	16.5
650.508	16.67
650.837	16.9
651.165	16.67
651.494	16.97
651.822	16.73
652.151	17.59
652.479	17.06
652.808	16.67
653.136	17.01
653.465	17.07
653.793	17.32
654.121	17.29
654.449	17.03
654.777	17.22
655.105	17.18
655.433	16.82
655.761	17.2
656.089	17.22
656.417	16.8
656.745	17.8
657.073	17.77
657.4	17.52
657.728	17.26
658.056	17.23
658.383	17.63
658.711	17.39
659.038	17.78
659.365	17.76
659.693	17.6
660.02	17.83
660.347	18.11
660.674	17.65
661.001	17.36
661.329	17.71
661.656	17.69
661.982	17.88
662.309	17.53
662.636	17.82
662.963	18.18
663.29	17.85
663.616	18.18
663.943	17.77
664.27	17.99
664.596	17.75
664.923	18.35
665.249	17.79
665.576	18.02
665.902	17.9
666.228	18.11
666.554	17.89
666.881	18.82
667.207	17.55
667.533	18.63
667.859	18.12
668.185	18.6
668.511	17.74
668.837	18.05
669.162	18.13
669.488	18.35
669.814	18.79
670.139	18.81
670.465	18.41
670.791	18.63
671.116	18.01
671.442	18.17
671.767	18.42
672.092	18.57
672.418	18.3
672.743	18.55
673.068	18.55
673.393	18.71
673.718	18.69
674.043	19.11
674.368	19.18
674.693	18.84
675.018	18.71
675.343	19.38
675.667	19.42
675.992	18.15
676.317	18.98
676.641	18.69
676.966	18.61
677.29	19.53
677.615	18.98
677.939	18.25
678.264	19.24
678.588	18.85
678.912	19.33
679.236	19.49
679.56	19.19
679.885	19.47
680.209	19.17
680.532	19.24
680.856	19.51
681.18	19.38
681.504	19.33
681.828	19.32
682.152	19.16
682.475	19.59
682.799	19.42
683.122	19.1
683.446	18.98
683.769	19.42
