Data from 0065_forehead_Reflection__4__253.txt Node

Date: Fri Dec 16 15:53:30 CST 2022
User: ToomeyLab
Spectrometer: FLMS14357
Trigger mode: 0
Integration Time (sec): 1.000000E-2
Scans to average: 100
Electric dark correction enabled: true
Nonlinearity correction enabled: false
Boxcar width: 0
XAxis mode: Wavelengths
Number of Pixels in Spectrum: 2048
>>>>>Begin Spectral Data<<<<<
189.047	79.12
189.435	79.12
189.823	79.12
190.211	97.1
190.599	51.14
190.987	40.08
191.375	-26.18
191.763	42.27
192.151	-278.67
192.538	127.64
192.926	384.97
193.314	200.61
193.702	-71.03
194.089	71.54
194.477	53.68
194.864	-87.72
195.252	14.85
195.639	110.42
196.027	32.8
196.414	-5901.75
196.801	1014.49
197.189	173.86
197.576	-34.68
197.963	57.74
198.351	15.57
198.738	2.55
199.125	14.93
199.512	62.93
199.899	15.47
200.286	6.1
200.673	57.99
201.06	51.94
201.447	35.63
201.833	-1.85
202.22	22.51
202.607	-46.16
202.994	37
203.38	-41.76
203.767	7.41
204.154	-72.73
204.54	54.92
204.927	54.49
205.313	34.14
205.699	32.93
206.086	-13.26
206.472	-0.83
206.858	74.38
207.245	37.66
207.631	12.08
208.017	-39.91
208.403	-24.95
208.789	3.56
209.175	55.42
209.561	10.35
209.947	-4.93
210.333	-14.79
210.719	-18.88
211.105	53.75
211.491	3.61
211.876	26.27
212.262	22.44
212.648	8.9
213.034	19.74
213.419	20.72
213.805	12.45
214.19	-3.2
214.576	-33.7
214.961	-16.46
215.346	-10.32
215.732	-0.82
216.117	23.43
216.502	-21.69
216.888	13.78
217.273	32.48
217.658	-30.21
218.043	20.55
218.428	17.02
218.813	6.78
219.198	-20.14
219.583	29.82
219.968	29.04
220.353	14.04
220.738	3.98
221.122	7.71
221.507	7.28
221.892	-1.14
222.276	8.29
222.661	-0.46
223.046	22.75
223.43	8.95
223.815	15.04
224.199	-3.24
224.583	-2.08
224.968	10.72
225.352	5.09
225.736	10.9
226.121	-6.81
226.505	10.45
226.889	6.73
227.273	7.53
227.657	2.32
228.041	3.15
228.425	2.92
228.809	4.94
229.193	1.92
229.577	1.25
229.961	2.95
230.344	3.67
230.728	3.53
231.112	3.39
231.495	4.16
231.879	2.37
232.263	1.65
232.646	1.74
233.03	1.53
233.413	2.49
233.797	4.76
234.18	1.45
234.563	3.54
234.946	3.37
235.33	4.09
235.713	2.38
236.096	2.4
236.479	4.63
236.862	4.32
237.245	2.86
237.628	4.02
238.011	5.33
238.394	4.44
238.777	4.93
239.16	2.26
239.543	3.45
239.925	5.58
240.308	4.34
240.691	4.6
241.073	3.89
241.456	3.17
241.838	3.43
242.221	4.54
242.603	3.94
242.986	3.94
243.368	3.61
243.75	3.47
244.133	3.73
244.515	3.7
244.897	3.44
245.279	3.17
245.661	4.14
246.043	4.1
246.425	4.06
246.807	3.91
247.189	3.41
247.571	4.35
247.953	3.67
248.335	3.99
248.717	3.95
249.098	4.12
249.48	3.28
249.862	3.74
250.243	3.78
250.625	4.31
251.006	3.67
251.388	4.3
251.769	4.63
252.151	4.14
252.532	4.27
252.913	4.4
253.295	3.87
253.676	4.41
254.057	3.84
254.438	3.45
254.819	4.5
255.2	4.08
255.581	4.51
255.962	4.76
256.343	4.18
256.724	5.03
257.105	4.5
257.486	4.42
257.867	2.84
258.247	4.86
258.628	4.04
259.009	4.68
259.389	5
259.77	4.02
260.15	4.85
260.531	4.01
260.911	3.81
261.292	4.07
261.672	3.89
262.052	4.17
262.432	3.64
262.813	3.7
263.193	3.52
263.573	4.04
263.953	3.64
264.333	3.95
264.713	3.92
265.093	3.72
265.473	5.07
265.853	3.63
266.233	4.14
266.612	4.35
266.992	4.01
267.372	3.74
267.752	3.77
268.131	4.25
268.511	3.74
268.89	4.03
269.27	3.94
269.649	3.79
270.029	4.19
270.408	3.79
270.787	3.79
271.167	3.51
271.546	3.19
271.925	3.74
272.304	3.93
272.683	3.43
273.062	3.88
273.441	3.72
273.82	4.42
274.199	3.85
274.578	3.93
274.957	3.35
275.336	3.73
275.715	4.15
276.093	4.36
276.472	4.19
276.851	3.94
277.229	4.29
277.608	3.47
277.986	3.95
278.365	3.69
278.743	3.94
279.122	3.15
279.5	2.97
279.878	2.89
280.257	4.97
280.635	3.19
281.013	4.08
281.391	3.85
281.769	3.55
282.147	3.54
282.525	3.4
282.903	3.62
283.281	3.71
283.659	3.68
284.037	3.97
284.415	3.84
284.792	3.86
285.17	3.78
285.548	3.67
285.925	4.25
286.303	3.8
286.68	4.22
287.058	4.07
287.435	3.38
287.813	4.1
288.19	4.28
288.567	3.73
288.945	3.95
289.322	3.71
289.699	4.34
290.076	4.34
290.453	4.22
290.83	3.89
291.207	4.19
291.584	3.76
291.961	4.32
292.338	4.36
292.715	4.36
293.092	4.53
293.469	5
293.845	4.28
294.222	4.14
294.599	5.07
294.975	4.46
295.352	4.56
295.728	4.86
296.105	5.04
296.481	5.36
296.858	4.74
297.234	4.99
297.61	4.8
297.986	5.18
298.363	4.52
298.739	5.25
299.115	4.72
299.491	5
299.867	5.31
300.243	5.06
300.619	5.32
300.995	4.98
301.371	5.45
301.746	5.49
302.122	5.47
302.498	5.65
302.874	5.64
303.249	5.74
303.625	5.9
304	5.78
304.376	6
304.751	5.74
305.127	6.03
305.502	6.06
305.878	5.71
306.253	5.65
306.628	6.36
307.003	6.51
307.378	5.41
307.754	6.27
308.129	6.32
308.504	6.01
308.879	6.19
309.254	7.07
309.629	6.79
310.003	6.99
310.378	6.8
310.753	6.66
311.128	6.74
311.502	6.86
311.877	6.91
312.252	6.62
312.626	6.84
313.001	6.96
313.375	7.2
313.75	6.93
314.124	7.62
314.498	7.54
314.873	7.85
315.247	7.45
315.621	7.81
315.995	7.73
316.369	7.73
316.743	8.42
317.117	8.15
317.491	7.79
317.865	7.25
318.239	8.1
318.613	7.72
318.987	8.7
319.361	8.46
319.734	8.17
320.108	7.78
320.482	8.44
320.855	8.68
321.229	8.95
321.602	8.47
321.976	8.82
322.349	8.66
322.723	8.81
323.096	9.09
323.469	8.68
323.843	8.67
324.216	8.8
324.589	9.61
324.962	9.33
325.335	9.17
325.708	9.63
326.081	9.67
326.454	9.39
326.827	9.8
327.2	9.19
327.573	9.32
327.945	9.75
328.318	10.07
328.691	9.81
329.063	10.22
329.436	9.68
329.809	9.31
330.181	10.32
330.553	10.42
330.926	10.56
331.298	9.84
331.671	10.37
332.043	10.05
332.415	10.6
332.787	10.79
333.159	10.43
333.532	10.96
333.904	10.28
334.276	10.42
334.648	10.52
335.02	11.24
335.391	10.56
335.763	10.26
336.135	10.6
336.507	10.52
336.879	11.1
337.25	10.52
337.622	11.17
337.993	10.99
338.365	10.96
338.736	11.44
339.108	10.59
339.479	11.07
339.851	11.31
340.222	11.5
340.593	11.03
340.964	11.05
341.336	10.76
341.707	11.62
342.078	10.89
342.449	11.63
342.82	11.38
343.191	11.3
343.562	11.43
343.933	11.77
344.303	12.09
344.674	11.67
345.045	12.11
345.416	11.88
345.786	11.48
346.157	12.21
346.527	11.33
346.898	11.91
347.268	11.66
347.639	12.14
348.009	12.14
348.38	12.07
348.75	12.09
349.12	12.4
349.49	12.18
349.861	12.64
350.231	12.59
350.601	11.96
350.971	12.02
351.341	12.68
351.711	12.38
352.081	12.72
352.45	12.72
352.82	12.8
353.19	12.7
353.56	12.98
353.929	13.2
354.299	13.05
354.669	12.78
355.038	12.87
355.408	13.56
355.777	12.89
356.147	13.07
356.516	13.06
356.885	13.06
357.254	13.06
357.624	13.28
357.993	12.97
358.362	13.06
358.731	12.97
359.1	13.12
359.469	13.46
359.838	13.4
360.207	13.47
360.576	13.5
360.945	12.96
361.314	13.51
361.682	13.07
362.051	13.26
362.42	13.51
362.788	13.42
363.157	13.32
363.525	13.35
363.894	13.56
364.262	13.78
364.631	14.31
364.999	13.43
365.367	14.05
365.735	13.63
366.104	13.68
366.472	14.18
366.84	13.67
367.208	13.74
367.576	13.84
367.944	14.26
368.312	14.09
368.68	14.4
369.048	14.29
369.416	14.34
369.783	14.56
370.151	14.48
370.519	14.37
370.886	14.28
371.254	14.32
371.621	14.38
371.989	14.63
372.356	14.64
372.724	14.46
373.091	14.57
373.458	14.77
373.826	14.91
374.193	14.97
374.56	14.76
374.927	15.16
375.294	15.37
375.661	14.82
376.028	15.12
376.395	14.77
376.762	15.37
377.129	15.57
377.496	15.33
377.863	15.48
378.229	15.28
378.596	15.11
378.963	15.28
379.329	15.26
379.696	15.61
380.062	15.91
380.429	15.8
380.795	15.54
381.161	15.68
381.528	15.35
381.894	15.54
382.26	15.85
382.626	15.9
382.993	15.35
383.359	15.43
383.725	16.02
384.091	16.23
384.457	16.19
384.823	16.02
385.188	16.26
385.554	16.32
385.92	16.39
386.286	16.21
386.651	16.29
387.017	16.81
387.383	16.12
387.748	16.32
388.114	16.36
388.479	16.1
388.845	16.69
389.21	16.6
389.575	16.71
389.94	16.74
390.306	16.44
390.671	16.59
391.036	16.42
391.401	16.96
391.766	16.82
392.131	16.57
392.496	16.7
392.861	16.41
393.226	16.61
393.591	17.02
393.956	17.04
394.32	16.82
394.685	17.06
395.05	16.95
395.414	17.08
395.779	16.99
396.143	16.99
396.508	17.4
396.872	17.51
397.236	17.18
397.601	17.61
397.965	17.54
398.329	17.77
398.694	17.27
399.058	17.56
399.422	17.76
399.786	17.47
400.15	17.21
400.514	17.7
400.878	17.68
401.242	18.03
401.605	17.83
401.969	17.67
402.333	17.99
402.697	18.2
403.06	18.23
403.424	18.02
403.787	17.91
404.151	18.01
404.514	18.06
404.878	18.11
405.241	18.3
405.604	18.11
405.968	17.96
406.331	18.17
406.694	18.33
407.057	18.25
407.42	18.48
407.783	18.71
408.146	18.5
408.509	18.38
408.872	18.56
409.235	18.65
409.598	18.92
409.961	18.67
410.323	18.71
410.686	19.13
411.049	18.76
411.411	18.89
411.774	18.95
412.136	19.1
412.499	18.89
412.861	18.83
413.223	18.92
413.586	19.03
413.948	19.19
414.31	19.43
414.672	19.36
415.035	19.36
415.397	19.48
415.759	19.37
416.121	19.57
416.483	19.39
416.845	19.45
417.206	19.23
417.568	19.18
417.93	19.31
418.292	19.69
418.653	19.31
419.015	19.34
419.377	19.24
419.738	19.36
420.1	19.27
420.461	19.36
420.822	19.49
421.184	19.29
421.545	19.39
421.906	19.31
422.267	19.22
422.629	19.25
422.99	19.34
423.351	19.61
423.712	19.77
424.073	19.72
424.434	19.65
424.795	19.53
425.155	19.61
425.516	19.72
425.877	19.64
426.238	19.69
426.598	19.87
426.959	19.96
427.32	20.24
427.68	20.25
428.041	20.37
428.401	20.44
428.761	20.46
429.122	20.45
429.482	20.59
429.842	20.65
430.202	20.63
430.563	20.71
430.923	20.56
431.283	20.84
431.643	20.79
432.003	20.75
432.363	20.78
432.722	20.86
433.082	20.8
433.442	20.84
433.802	20.76
434.161	20.6
434.521	20.83
434.881	20.96
435.24	20.98
435.6	20.82
435.959	21.16
436.319	20.97
436.678	21.25
437.037	21.3
437.396	21.3
437.756	21.38
438.115	21.6
438.474	21.28
438.833	21.46
439.192	21.46
439.551	21.25
439.91	21.58
440.269	21.48
440.628	21.52
440.987	21.36
441.345	21.46
441.704	21.38
442.063	21.23
442.421	21.4
442.78	21.59
443.138	21.81
443.497	21.84
443.855	21.98
444.214	22
444.572	21.88
444.93	22.14
445.288	21.99
445.647	22.16
446.005	21.81
446.363	22.03
446.721	21.67
447.079	21.69
447.437	21.76
447.795	21.77
448.153	21.89
448.51	21.93
448.868	22.26
449.226	22.15
449.584	22.38
449.941	22.47
450.299	22.53
450.656	22.77
451.014	22.72
451.371	22.54
451.729	22.85
452.086	22.82
452.443	22.74
452.801	22.99
453.158	22.86
453.515	22.74
453.872	23.08
454.229	22.77
454.586	22.85
454.943	23.17
455.3	23.13
455.657	23.06
456.014	23.22
456.371	23.4
456.727	23.35
457.084	23.34
457.441	23.37
457.797	23.49
458.154	23.63
458.51	23.39
458.867	23.47
459.223	23.47
459.58	23.58
459.936	23.55
460.292	23.55
460.648	23.13
461.005	22.99
461.361	23.03
461.717	23.32
462.073	23.73
462.429	23.78
462.785	24.02
463.141	24.13
463.496	24.06
463.852	24.24
464.208	24.14
464.564	24.35
464.919	24.18
465.275	24.45
465.631	24.23
465.986	24.11
466.342	24.48
466.697	24.35
467.052	24.34
467.408	24.57
467.763	24.35
468.118	24.43
468.473	24.79
468.829	24.78
469.184	24.8
469.539	24.81
469.894	24.8
470.249	24.8
470.603	25.01
470.958	25.12
471.313	24.96
471.668	25.29
472.023	25.11
472.377	25.16
472.732	25.17
473.086	25.08
473.441	25.18
473.795	25.19
474.15	25.15
474.504	25.15
474.859	25.4
475.213	25.27
475.567	25.41
475.921	25.57
476.275	25.66
476.63	25.64
476.984	25.61
477.338	25.58
477.692	25.5
478.045	25.33
478.399	25.71
478.753	25.67
479.107	25.54
479.461	25.5
479.814	25.72
480.168	25.74
480.521	25.62
480.875	25.97
481.228	25.85
481.582	25.69
481.935	25.76
482.289	25.77
482.642	25.76
482.995	25.75
483.348	25.65
483.701	25.48
484.055	25.3
484.408	25.08
484.761	24.58
485.114	24.42
485.466	24.65
485.819	25.01
486.172	25.63
486.525	25.78
486.878	25.9
487.23	25.92
487.583	25.87
487.936	25.71
488.288	25.39
488.641	25.25
488.993	25.21
489.345	25.43
489.698	25.77
490.05	25.96
490.402	26.34
490.754	26.6
491.107	26.65
491.459	26.69
491.811	26.65
492.163	26.45
492.515	26
492.866	25.61
493.218	25.83
493.57	26.31
493.922	26.71
494.274	26.97
494.625	27.21
494.977	27.41
495.328	27.5
495.68	27.78
496.031	27.79
496.383	27.56
496.734	27.63
497.086	27.52
497.437	27.4
497.788	27.47
498.139	27.45
498.49	27.47
498.842	27.56
499.193	27.87
499.544	27.73
499.894	27.93
500.245	27.84
500.596	27.96
500.947	28.03
501.298	28.23
501.648	28.23
501.999	28.4
502.35	28.36
502.7	28.48
503.051	28.59
503.401	28.57
503.752	28.59
504.102	28.48
504.452	28.52
504.803	28.61
505.153	28.58
505.503	28.45
505.853	28.52
506.203	28.76
506.553	28.92
506.903	28.95
507.253	28.98
507.603	28.91
507.953	28.99
508.303	28.97
508.652	29.07
509.002	28.99
509.352	28.94
509.701	28.91
510.051	28.99
510.4	29.06
510.75	28.9
511.099	29.06
511.449	29.08
511.798	29.27
512.147	29.17
512.496	29.48
512.846	29.21
513.195	29.24
513.544	29.22
513.893	29.32
514.242	29.63
514.591	29.68
514.939	29.62
515.288	29.72
515.637	29.88
515.986	29.98
516.334	29.97
516.683	29.97
517.032	30.11
517.38	30.2
517.729	30.19
518.077	30.13
518.426	30.03
518.774	30.02
519.122	29.67
519.47	29.79
519.819	29.56
520.167	29.59
520.515	29.78
520.863	30.13
521.211	30.04
521.559	30.27
521.907	30.58
522.255	30.7
522.602	30.67
522.95	30.85
523.298	30.65
523.645	30.86
523.993	31.07
524.341	30.8
524.688	31.13
525.036	31.04
525.383	30.96
525.73	30.92
526.078	31
526.425	30.75
526.772	30.33
527.119	30.4
527.466	30.58
527.814	30.69
528.161	30.93
528.508	30.73
528.854	30.48
529.201	30.36
529.548	29.95
529.895	29.7
530.242	29.9
530.588	30.3
530.935	30.7
531.282	30.97
531.628	31.19
531.975	31.26
532.321	31.2
532.667	31.35
533.014	31.47
533.36	31.47
533.706	31.34
534.052	31.12
534.399	30.92
534.745	30.68
535.091	30.94
535.437	31.39
535.783	31.76
536.129	31.83
536.474	32.26
536.82	32.1
537.166	32.07
537.512	31.88
537.857	31.73
538.203	31.73
538.549	32.02
538.894	32.1
539.239	32.6
539.585	32.7
539.93	32.78
540.276	32.9
540.621	32.93
540.966	32.75
541.311	32.67
541.656	32.68
542.001	32.34
542.346	31.78
542.691	31.63
543.036	31.77
543.381	32.3
543.726	32.61
544.071	32.87
544.415	32.7
544.76	32.6
545.105	32.75
545.449	33.1
545.794	33.26
546.138	33.56
546.483	33.55
546.827	33.54
547.171	33.49
547.516	33.38
547.86	33.47
548.204	33.38
548.548	33.43
548.892	33.77
549.236	33.92
549.58	34.04
549.924	34.23
550.268	34.45
550.612	34.59
550.956	34.48
551.3	34.52
551.643	34.69
551.987	34.58
552.33	34.53
552.674	34.78
553.017	34.8
553.361	34.52
553.704	34.68
554.048	34.44
554.391	34.49
554.734	34.65
555.077	34.99
555.42	35.02
555.764	35.18
556.107	35.1
556.45	35.12
556.793	35.36
557.135	35.48
557.478	35.68
557.821	35.43
558.164	35.46
558.507	35.26
558.849	35.47
559.192	35.56
559.534	35.55
559.877	35.85
560.219	35.81
560.562	35.89
560.904	35.89
561.246	36
561.589	35.87
561.931	36.22
562.273	35.81
562.615	35.96
562.957	35.72
563.299	36.02
563.641	36.32
563.983	36.27
564.325	36.11
564.667	36.35
565.008	36.73
565.35	36.52
565.692	36.51
566.033	36.55
566.375	36.6
566.716	36.41
567.058	36.46
567.399	36.08
567.741	36.2
568.082	36.26
568.423	36.29
568.764	36.78
569.105	37.02
569.447	36.76
569.788	36.98
570.129	37.07
570.47	36.98
570.811	37.02
571.151	37.11
571.492	37.26
571.833	37.15
572.174	37.12
572.514	37.22
572.855	37.29
573.195	37.02
573.536	37.09
573.876	36.98
574.217	37.31
574.557	37.45
574.898	37.41
575.238	37.55
575.578	37.73
575.918	37.66
576.258	37.7
576.598	37.58
576.938	37.78
577.278	37.77
577.618	37.75
577.958	38.05
578.298	38.3
578.638	38.17
578.977	38.3
579.317	38.37
579.657	38.4
579.996	38.34
580.336	38.73
580.675	38.62
581.014	38.57
581.354	38.81
581.693	39.09
582.032	38.91
582.372	39.09
582.711	39.05
583.05	39.3
583.389	39.1
583.728	39.07
584.067	39.01
584.406	39.19
584.745	38.81
585.083	39.66
585.422	39.19
585.761	39.49
586.1	39.96
586.438	39.3
586.777	39.71
587.115	39.59
587.454	39.31
587.792	39.9
588.13	39.79
588.469	39.71
588.807	39.8
589.145	39.79
589.483	39.62
589.821	39.77
590.159	40.06
590.497	39.81
590.835	40.08
591.173	40.1
591.511	40.09
591.849	40.32
592.187	40.06
592.524	40.08
592.862	40.29
593.2	40.36
593.537	40.41
593.875	40.67
594.212	40.6
594.55	40.55
594.887	40.56
595.224	40.38
595.561	40.87
595.899	40.5
596.236	40.72
596.573	40.57
596.91	40.94
597.247	40.72
597.584	40.94
597.921	40.67
598.258	40.33
598.594	40.2
598.931	40.52
599.268	40.72
599.604	41.05
599.941	41.34
600.277	41.72
600.614	41.38
600.95	41.4
601.287	41.22
601.623	41.49
601.959	41.32
602.296	41.87
602.632	41.57
602.968	41.69
603.304	41.52
603.64	41.6
603.976	41.5
604.312	41.89
604.648	41.4
604.984	41.68
605.319	41.66
605.655	41.41
605.991	41.46
606.326	41.38
606.662	41.48
606.998	42.02
607.333	41.89
607.668	42.24
608.004	42.24
608.339	42.42
608.674	42.38
609.01	42.42
609.345	42.66
609.68	42.22
610.015	42.53
610.35	42.4
610.685	42.41
611.02	42.28
611.355	42.23
611.689	42.32
612.024	42.88
612.359	42.87
612.694	42.93
613.028	43.69
613.363	43.11
613.697	43.19
614.032	43.26
614.366	43.11
614.7	43.58
615.035	43.19
615.369	43.66
615.703	43.83
616.037	43.28
616.371	43.29
616.705	43.56
617.039	43.27
617.373	43.53
617.707	43.55
618.041	44.12
618.375	43.77
618.709	43.56
619.042	43.89
619.376	43.98
619.71	43.85
620.043	43.64
620.377	44.12
620.71	43.68
621.043	43.76
621.377	44.64
621.71	44.11
622.043	44.03
622.376	43.83
622.709	44.6
623.043	43.58
623.376	44.43
623.709	44.49
624.041	44.21
624.374	44.51
624.707	44.08
625.04	44.18
625.373	44.7
625.705	44.41
626.038	44.84
626.37	44.6
626.703	44.77
627.035	44.74
627.368	44.9
627.7	44.34
628.032	44.63
628.365	44.39
628.697	44.42
629.029	44.84
629.361	44.91
629.693	45.1
630.025	45.11
630.357	45.2
630.689	45.28
631.021	45.29
631.353	45.24
631.684	45.57
632.016	45.53
632.348	45.6
632.679	45.78
633.011	45.62
633.342	45.53
633.674	45.29
634.005	45.75
634.336	45.6
634.668	45.78
634.999	46.03
635.33	45.45
635.661	45.85
635.992	45.86
636.323	45.71
636.654	45.62
636.985	45.98
637.316	46.26
637.647	46.48
637.977	45.97
638.308	46.04
638.639	46.17
638.969	46.28
639.3	46.36
639.63	46.27
639.961	46.04
640.291	46.45
640.622	46.61
640.952	47.1
641.282	45.99
641.612	46.31
641.943	46.68
642.273	46.77
642.603	46.78
642.933	46.8
643.263	46.72
643.592	46.79
643.922	46.75
644.252	46.99
644.582	47.21
644.911	46.6
645.241	46.85
645.571	47.39
645.9	47.21
646.23	47.54
646.559	46.97
646.888	47.42
647.218	47.54
647.547	47.63
647.876	48.07
648.205	47.15
648.534	47.12
648.863	48
649.192	47.27
649.521	47.38
649.85	47.82
650.179	47.43
650.508	48.07
650.837	48.21
651.165	47.68
651.494	47.77
651.822	48.25
652.151	48.48
652.479	48.2
652.808	47.63
653.136	47.95
653.465	48.1
653.793	48.15
654.121	47.87
654.449	47.98
654.777	48.82
655.105	48.32
655.433	48.67
655.761	48.25
656.089	48.12
656.417	48.42
656.745	48.73
657.073	48.41
657.4	49
657.728	47.99
658.056	48.72
658.383	48.3
658.711	48.76
659.038	48.66
659.365	48.68
659.693	48.84
660.02	48.09
660.347	48.7
660.674	48.29
661.001	47.97
661.329	48.82
661.656	48.8
661.982	49.16
662.309	49.03
662.636	49.27
662.963	49.8
663.29	49.37
663.616	49.56
663.943	49.34
664.27	49.13
664.596	49.7
664.923	50.15
665.249	49.1
665.576	49.34
665.902	49.53
666.228	48.96
666.554	50.05
666.881	49.71
667.207	50.08
667.533	49.87
667.859	49.73
668.185	49.97
668.511	50.18
668.837	49.52
669.162	49.66
669.488	49.67
669.814	49.99
670.139	49.81
