Data from 0065_forehead_Reflection__3__252.txt Node

Date: Fri Dec 16 15:53:18 CST 2022
User: ToomeyLab
Spectrometer: FLMS14357
Trigger mode: 0
Integration Time (sec): 1.000000E-2
Scans to average: 100
Electric dark correction enabled: true
Nonlinearity correction enabled: false
Boxcar width: 0
XAxis mode: Wavelengths
Number of Pixels in Spectrum: 2048
>>>>>Begin Spectral Data<<<<<
189.047	353.81
189.435	353.81
189.823	353.81
190.211	275.25
190.599	31.87
190.987	-3.88
191.375	43.52
191.763	97.33
192.151	-315.64
192.538	56.98
192.926	382.1
193.314	104.7
193.702	-175.48
194.089	71.86
194.477	-165.93
194.864	84.24
195.252	143.35
195.639	79.38
196.027	69.94
196.414	-8838.6
196.801	538.55
197.189	135.58
197.576	-79.47
197.963	62.82
198.351	54.14
198.738	-8.4
199.125	35.31
199.512	3.85
199.899	8.91
200.286	-63.36
200.673	49.61
201.06	48.1
201.447	61.11
201.833	59.2
202.22	43.02
202.607	13.63
202.994	39.28
203.38	-17.56
203.767	30.47
204.154	-23.51
204.54	33.1
204.927	43.78
205.313	44.45
205.699	-14.31
206.086	40.83
206.472	26.49
206.858	40.87
207.245	22.38
207.631	8.11
208.017	12.51
208.403	34.44
208.789	8.66
209.175	33.54
209.561	73
209.947	1.61
210.333	24.77
210.719	15.28
211.105	-12.56
211.491	37.69
211.876	56.25
212.262	5.43
212.648	16.45
213.034	6.61
213.419	22.35
213.805	22.02
214.19	3.82
214.576	27.87
214.961	28.43
215.346	14.85
215.732	39.15
216.117	28.52
216.502	45.27
216.888	-27.73
217.273	19.17
217.658	-12.54
218.043	20.94
218.428	7.43
218.813	-8.72
219.198	20.13
219.583	6.2
219.968	5.24
220.353	45.93
220.738	10.16
221.122	2.09
221.507	10.35
221.892	26.31
222.276	9.53
222.661	0.34
223.046	24.04
223.43	7.34
223.815	26.24
224.199	12.45
224.583	8.15
224.968	12.58
225.352	5.47
225.736	12.63
226.121	2.61
226.505	5.43
226.889	11.62
227.273	7.14
227.657	6.74
228.041	7.43
228.425	5.45
228.809	8.67
229.193	5.7
229.577	7.28
229.961	7.06
230.344	6.94
230.728	7.35
231.112	6.03
231.495	6.05
231.879	6.66
232.263	6.62
232.646	6.96
233.03	5.11
233.413	7.92
233.797	6.75
234.18	6.57
234.563	6
234.946	7.11
235.33	7.35
235.713	7.56
236.096	7.59
236.479	7.73
236.862	6.79
237.245	8.28
237.628	7.26
238.011	7.34
238.394	8.77
238.777	7.04
239.16	6.13
239.543	6.5
239.925	9.59
240.308	8.14
240.691	8.66
241.073	7.37
241.456	5.79
241.838	7.61
242.221	6.96
242.603	6.71
242.986	7.78
243.368	7.23
243.75	7.13
244.133	7.39
244.515	7.24
244.897	7.2
245.279	7.5
245.661	7.75
246.043	8.7
246.425	7.66
246.807	7.58
247.189	7.34
247.571	7.27
247.953	7.38
248.335	7.45
248.717	7.24
249.098	7.46
249.48	6.99
249.862	7.33
250.243	7.66
250.625	7.27
251.006	7.8
251.388	7.4
251.769	8.15
252.151	8.18
252.532	7.81
252.913	7.78
253.295	7.73
253.676	8.02
254.057	7.43
254.438	7.71
254.819	7.96
255.2	9.07
255.581	7.54
255.962	7.79
256.343	8.85
256.724	8.34
257.105	7.91
257.486	7.77
257.867	7.03
258.247	7.99
258.628	8.71
259.009	8.08
259.389	7.77
259.77	7.78
260.15	7.94
260.531	7.62
260.911	7.42
261.292	7.34
261.672	7.15
262.052	7.49
262.432	7.58
262.813	7.53
263.193	6.91
263.573	7.36
263.953	7.81
264.333	7.62
264.713	7.78
265.093	7.33
265.473	8.54
265.853	8.12
266.233	7.47
266.612	7.71
266.992	6.6
267.372	7.72
267.752	7.07
268.131	7.58
268.511	7.56
268.89	7.69
269.27	7.46
269.649	7.65
270.029	6.52
270.408	7.2
270.787	6.78
271.167	7.43
271.546	6.92
271.925	7.66
272.304	7.54
272.683	7.56
273.062	7.44
273.441	7.41
273.82	7.54
274.199	7.41
274.578	6.47
274.957	7.52
275.336	7.04
275.715	7.35
276.093	7.95
276.472	7.53
276.851	7.64
277.229	7.07
277.608	6.76
277.986	7.57
278.365	7.03
278.743	7.61
279.122	7.08
279.5	6.95
279.878	6.41
280.257	7.45
280.635	6.75
281.013	7.74
281.391	7.09
281.769	7.37
282.147	7.68
282.525	7.1
282.903	7.54
283.281	6.7
283.659	7.77
284.037	7.06
284.415	7.25
284.792	7.39
285.17	6.83
285.548	7.18
285.925	7.4
286.303	7
286.68	7.65
287.058	7.04
287.435	7.02
287.813	7.24
288.19	8.01
288.567	7.33
288.945	7.7
289.322	7.11
289.699	7.82
290.076	7.58
290.453	7.65
290.83	7.86
291.207	7.82
291.584	7.77
291.961	8.03
292.338	8.1
292.715	8.11
293.092	8.45
293.469	8.24
293.845	8.27
294.222	8.5
294.599	8.72
294.975	8.99
295.352	8.39
295.728	8.96
296.105	8.7
296.481	9.47
296.858	9.18
297.234	8.91
297.61	9
297.986	9.05
298.363	8.88
298.739	9.32
299.115	8.98
299.491	9.08
299.867	9.68
300.243	9.52
300.619	9.22
300.995	9.61
301.371	9.67
301.746	9.67
302.122	9.7
302.498	10.37
302.874	10.34
303.249	10.6
303.625	10.14
304	9.73
304.376	10.7
304.751	10.46
305.127	10.65
305.502	10.61
305.878	10.72
306.253	10.52
306.628	11.2
307.003	11.11
307.378	11.46
307.754	11.47
308.129	10.87
308.504	11.15
308.879	11.76
309.254	11.7
309.629	11.88
310.003	12.34
310.378	11.94
310.753	11.81
311.128	12.08
311.502	12.03
311.877	12.36
312.252	11.99
312.626	11.98
313.001	12.33
313.375	12.44
313.75	12.54
314.124	13.07
314.498	12.28
314.873	13.56
315.247	12.87
315.621	13.51
315.995	13.67
316.369	12.9
316.743	13.38
317.117	13.4
317.491	13.56
317.865	13.47
318.239	13.76
318.613	13.98
318.987	14.46
319.361	14.42
319.734	13.78
320.108	14.3
320.482	13.92
320.855	14.38
321.229	15.08
321.602	14.67
321.976	14.32
322.349	14.69
322.723	14.37
323.096	14.69
323.469	14.95
323.843	15.27
324.216	14.86
324.589	15.87
324.962	15.8
325.335	15.43
325.708	16.23
326.081	16.06
326.454	15.54
326.827	16.01
327.2	16.11
327.573	16.3
327.945	16.36
328.318	17.19
328.691	16.12
329.063	16.33
329.436	16.49
329.809	16.1
330.181	16.67
330.553	16.52
330.926	17.01
331.298	16.78
331.671	16.85
332.043	17.18
332.415	17.33
332.787	17.58
333.159	17.11
333.532	17.19
333.904	17.33
334.276	17.34
334.648	16.97
335.02	17.46
335.391	17.48
335.763	17.69
336.135	17.79
336.507	17.92
336.879	17.85
337.25	17.93
337.622	18.3
337.993	17.73
338.365	18.35
338.736	17.79
339.108	17.43
339.479	18.37
339.851	18.54
340.222	18.42
340.593	17.95
340.964	18.89
341.336	18.58
341.707	19.01
342.078	18.54
342.449	18.79
342.82	18.62
343.191	18.54
343.562	18.73
343.933	18.52
344.303	19.06
344.674	19.05
345.045	19.67
345.416	19.25
345.786	18.54
346.157	19.56
346.527	19.06
346.898	19.22
347.268	19.11
347.639	19.44
348.009	19.68
348.38	19.53
348.75	19.68
349.12	19.5
349.49	19.59
349.861	20.56
350.231	20.01
350.601	19.96
350.971	20.16
351.341	20.4
351.711	19.81
352.081	19.68
352.45	20.48
352.82	20.27
353.19	20.43
353.56	20.22
353.929	20.51
354.299	20.34
354.669	20.83
355.038	20.58
355.408	21.05
355.777	20.82
356.147	20.88
356.516	21.16
356.885	20.93
357.254	21.07
357.624	21.26
357.993	21.01
358.362	21.23
358.731	21.22
359.1	21.57
359.469	21.29
359.838	21.5
360.207	21.21
360.576	21.46
360.945	21.39
361.314	21.37
361.682	21.78
362.051	21.7
362.42	21.81
362.788	21.9
363.157	21.77
363.525	21.83
363.894	21.43
364.262	21.56
364.631	22.17
364.999	22.22
365.367	22.44
365.735	21.97
366.104	22.32
366.472	22.62
366.84	22.74
367.208	22.17
367.576	22.28
367.944	23.05
368.312	22.52
368.68	22.58
369.048	22.71
369.416	22.66
369.783	22.97
370.151	22.35
370.519	23.07
370.886	22.8
371.254	23.42
371.621	23.11
371.989	23.19
372.356	23.39
372.724	23.34
373.091	23.13
373.458	23.46
373.826	23.11
374.193	23.74
374.56	23.3
374.927	23.27
375.294	23.71
375.661	23.42
376.028	23.75
376.395	23.92
376.762	24.09
377.129	24.26
377.496	23.87
377.863	24.01
378.229	24.07
378.596	23.88
378.963	24.24
379.329	23.91
379.696	24.19
380.062	24.4
380.429	24.54
380.795	24.18
381.161	24.22
381.528	24.37
381.894	24.57
382.26	24.59
382.626	24.63
382.993	24.43
383.359	24.59
383.725	25.51
384.091	25.06
384.457	24.94
384.823	25.17
385.188	25.33
385.554	25.21
385.92	25.51
386.286	25.05
386.651	25.41
387.017	25.4
387.383	25.36
387.748	25.46
388.114	25.49
388.479	25.45
388.845	25.34
389.21	25.51
389.575	25.86
389.94	25.8
390.306	25.77
390.671	25.82
391.036	26.2
391.401	25.98
391.766	26.24
392.131	26.31
392.496	26.17
392.861	25.94
393.226	26.37
393.591	26.15
393.956	26.42
394.32	26.58
394.685	26.62
395.05	26.28
395.414	26.65
395.779	26.48
396.143	26.57
396.508	26.74
396.872	26.69
397.236	26.46
397.601	26.53
397.965	26.57
398.329	26.84
398.694	27.12
399.058	27.23
399.422	27.21
399.786	27.28
400.15	27.17
400.514	27.22
400.878	27.05
401.242	27.59
401.605	27.35
401.969	27.21
402.333	27.57
402.697	27.31
403.06	27.64
403.424	27.8
403.787	27.74
404.151	27.61
404.514	27.84
404.878	27.9
405.241	28.2
405.604	27.99
405.968	27.95
406.331	27.86
406.694	27.96
407.057	28.25
407.42	27.92
407.783	27.91
408.146	28.35
408.509	28.12
408.872	27.96
409.235	28.27
409.598	28.55
409.961	28.39
410.323	28.48
410.686	28.52
411.049	28.74
411.411	28.6
411.774	28.7
412.136	28.79
412.499	28.56
412.861	28.66
413.223	28.57
413.586	28.65
413.948	29.03
414.31	29.07
414.672	29.24
415.035	29.05
415.397	29.27
415.759	29.21
416.121	29.5
416.483	29.41
416.845	29.25
417.206	29.46
417.568	29.39
417.93	29.34
418.292	29.48
418.653	29.45
419.015	29.32
419.377	29.54
419.738	29.72
420.1	29.32
420.461	29.38
420.822	29.54
421.184	29.57
421.545	29.55
421.906	29.64
422.267	29.62
422.629	29.53
422.99	29.36
423.351	29.73
423.712	29.51
424.073	29.85
424.434	29.77
424.795	29.97
425.155	29.89
425.516	29.84
425.877	29.86
426.238	29.85
426.598	29.9
426.959	29.85
427.32	30.27
427.68	30.23
428.041	30.22
428.401	30.42
428.761	30.52
429.122	30.48
429.482	30.58
429.842	30.65
430.202	30.99
430.563	30.93
430.923	30.87
431.283	31
431.643	31.03
432.003	30.94
432.363	31.13
432.722	31.04
433.082	31.15
433.442	31.25
433.802	31.09
434.161	31.36
434.521	31.34
434.881	31.43
435.24	31.24
435.6	31.33
435.959	31.34
436.319	31.26
436.678	31.47
437.037	31.64
437.396	31.68
437.756	31.72
438.115	31.83
438.474	32.09
438.833	31.85
439.192	31.99
439.551	31.97
439.91	31.9
440.269	32.21
440.628	31.87
440.987	31.79
441.345	31.97
441.704	31.95
442.063	31.85
442.421	32.03
442.78	31.87
443.138	31.81
443.497	31.9
443.855	32.31
444.214	32.34
444.572	32.34
444.93	32.57
445.288	32.66
445.647	32.76
446.005	32.5
446.363	32.72
446.721	32.58
447.079	32.4
447.437	32.53
447.795	32.47
448.153	32.44
448.51	32.44
448.868	32.6
449.226	32.55
449.584	32.6
449.941	32.82
450.299	32.87
450.656	33.1
451.014	32.98
451.371	33.27
451.729	33.14
452.086	33.15
452.443	33.21
452.801	33.39
453.158	33.72
453.515	33.44
453.872	33.76
454.229	33.52
454.586	33.67
454.943	33.64
455.3	33.65
455.657	33.62
456.014	33.71
456.371	33.87
456.727	33.78
457.084	33.83
457.441	33.97
457.797	33.76
458.154	33.82
458.51	34.07
458.867	34.12
459.223	34.25
459.58	34.09
459.936	34.23
460.292	34.21
460.648	34.21
461.005	34.13
461.361	34.08
461.717	33.84
462.073	33.93
462.429	34.23
462.785	34.28
463.141	34.26
463.496	34.6
463.852	34.57
464.208	34.78
464.564	34.78
464.919	34.57
465.275	35.09
465.631	35.08
465.986	34.96
466.342	35.11
466.697	35.1
467.052	35.2
467.408	35.19
467.763	35.17
468.118	35.3
468.473	35.42
468.829	35.11
469.184	35.48
469.539	35.37
469.894	35.29
470.249	35.49
470.603	35.68
470.958	35.65
471.313	35.74
471.668	35.88
472.023	35.45
472.377	35.75
472.732	35.69
473.086	35.75
473.441	36
473.795	36
474.15	36.12
474.504	36.1
474.859	36.05
475.213	36.01
475.567	35.91
475.921	36.03
476.275	36.32
476.63	36.15
476.984	36.41
477.338	36.64
477.692	36.59
478.045	36.37
478.399	36.57
478.753	36.35
479.107	36.43
479.461	36.54
479.814	36.46
480.168	36.62
480.521	36.43
480.875	36.55
481.228	36.69
481.582	36.69
481.935	36.71
482.289	36.73
482.642	36.83
482.995	36.86
483.348	36.79
483.701	36.61
484.055	36.63
484.408	36.72
484.761	36.54
485.114	36.64
485.466	36.49
485.819	36.13
486.172	35.87
486.525	35.76
486.878	36.09
487.23	36.34
487.583	36.61
487.936	36.99
488.288	36.88
488.641	36.86
488.993	36.74
489.345	36.56
489.698	36.59
490.05	36.56
490.402	36.69
490.754	36.91
491.107	36.92
491.459	37.31
491.811	37.47
492.163	37.61
492.515	37.75
492.866	37.39
493.218	37.38
493.57	37.2
493.922	37.03
494.274	37.22
494.625	37.36
494.977	37.62
495.328	37.83
495.68	38.33
496.031	38.31
496.383	38.35
496.734	38.63
497.086	38.39
497.437	38.6
497.788	38.67
498.139	38.58
498.49	38.54
498.842	38.52
499.193	38.51
499.544	38.62
499.894	38.74
500.245	38.87
500.596	38.86
500.947	38.67
501.298	38.82
501.648	39.02
501.999	39.22
502.35	39.12
502.7	39.14
503.051	39.31
503.401	39.48
503.752	39.39
504.102	39.37
504.452	39.29
504.803	39.22
505.153	39.75
505.503	39.72
505.853	39.52
506.203	39.54
506.553	39.7
506.903	39.76
507.253	39.63
507.603	39.77
507.953	39.74
508.303	39.77
508.652	40.03
509.002	40.08
509.352	40.05
509.701	39.97
510.051	40.15
510.4	40.2
510.75	39.96
511.099	40.15
511.449	40.29
511.798	40.05
512.147	40.2
512.496	40.37
512.846	40.3
513.195	40.24
513.544	40.3
513.893	40.3
514.242	40.5
514.591	40.53
514.939	40.48
515.288	40.53
515.637	40.82
515.986	40.91
516.334	40.82
516.683	40.87
517.032	40.9
517.38	40.98
517.729	40.97
518.077	41.23
518.426	41.3
518.774	41.11
519.122	41.04
519.47	41.06
519.819	41.08
520.167	40.87
520.515	40.77
520.863	40.8
521.211	40.81
521.559	40.94
521.907	41.17
522.255	41.23
522.602	41.52
522.95	41.4
523.298	41.53
523.645	41.39
523.993	41.9
524.341	41.85
524.688	41.75
525.036	41.91
525.383	41.71
525.73	42.06
526.078	42
526.425	41.78
526.772	41.81
527.119	41.86
527.466	41.93
527.814	41.53
528.161	41.55
528.508	41.71
528.854	41.74
529.201	41.93
529.548	41.73
529.895	41.96
530.242	41.89
530.588	41.56
530.935	41.23
531.282	41.31
531.628	41.42
531.975	41.89
532.321	42.05
532.667	42.14
533.014	42.33
533.36	42.34
533.706	42.5
534.052	42.58
534.399	42.75
534.745	42.32
535.091	42.31
535.437	42.21
535.783	42.4
536.129	42.37
536.474	42.75
536.82	42.55
537.166	42.99
537.512	42.99
537.857	43.16
538.203	43.16
538.549	43.1
538.894	42.98
539.239	43.19
539.585	43.26
539.93	43.46
540.276	43.52
540.621	43.72
540.966	43.62
541.311	43.82
541.656	43.82
542.001	43.7
542.346	43.81
542.691	43.55
543.036	43.47
543.381	43.3
543.726	43.26
544.071	43.34
544.415	43.42
544.76	43.49
545.105	43.83
545.449	43.7
545.794	43.75
546.138	44.37
546.483	44.27
546.827	44.45
547.171	44.61
547.516	44.57
547.86	44.55
548.204	44.48
548.548	44.61
548.892	44.58
549.236	44.48
549.58	44.78
549.924	44.74
550.268	44.95
550.612	45.02
550.956	45.27
551.3	45.24
551.643	45.28
551.987	45.32
552.33	45.31
552.674	45.53
553.017	45.52
553.361	45.49
553.704	45.55
554.048	45.68
554.391	45.61
554.734	45.79
555.077	45.75
555.42	45.87
555.764	45.4
556.107	45.6
556.45	45.75
556.793	45.92
557.135	46.34
557.478	46.29
557.821	46.07
558.164	46.4
558.507	46.32
558.849	46.02
559.192	46.17
559.534	46.17
559.877	46.64
560.219	46.38
560.562	46.44
560.904	46.75
561.246	46.57
561.589	46.65
561.931	46.85
562.273	46.65
562.615	46.96
562.957	46.45
563.299	46.93
563.641	47.03
563.983	46.98
564.325	47.06
564.667	46.77
565.008	47.13
565.35	46.96
565.692	47.15
566.033	47.6
566.375	47.01
566.716	47.22
567.058	47.28
567.399	47.52
567.741	47.57
568.082	46.98
568.423	47.1
568.764	47.01
569.105	47.36
569.447	47.21
569.788	47.15
570.129	47.34
570.47	47.89
570.811	47.64
571.151	47.74
571.492	47.85
571.833	47.87
572.174	47.87
572.514	47.76
572.855	47.92
573.195	47.84
573.536	47.68
573.876	47.89
574.217	47.86
574.557	47.83
574.898	47.99
575.238	47.9
575.578	48.29
575.918	48.35
576.258	48.24
576.598	48.28
576.938	48.31
577.278	48.66
577.618	48.33
577.958	48.51
578.298	48.46
578.638	48.53
578.977	48.76
579.317	48.83
579.657	48.6
579.996	48.66
580.336	49
580.675	48.72
581.014	49.18
581.354	49.25
581.693	49.1
582.032	49.24
582.372	49.36
582.711	49.12
583.05	49.16
583.389	48.89
583.728	49.64
584.067	49.36
584.406	49.54
584.745	49.44
585.083	49.74
585.422	49.7
585.761	49.63
586.1	49.96
586.438	49.38
586.777	49.69
587.115	49.78
587.454	50.06
587.792	49.86
588.13	50.11
588.469	49.91
588.807	50.23
589.145	49.93
589.483	49.95
589.821	50.02
590.159	50
590.497	49.89
590.835	50.21
591.173	50.23
591.511	50.6
591.849	50.07
592.187	50.52
592.524	50.52
592.862	50.33
593.2	50.22
593.537	50.36
593.875	50.46
594.212	50.75
594.55	50.53
594.887	50.69
595.224	50.81
595.561	50.8
595.899	50.72
596.236	50.64
596.573	50.48
596.91	51.24
597.247	50.98
597.584	51.19
597.921	50.73
598.258	50.91
598.594	50.89
598.931	50.67
599.268	50.84
599.604	50.97
599.941	51.04
600.277	51.37
600.614	51.05
600.95	51.45
601.287	51.12
601.623	51.51
601.959	51.29
602.296	51.54
602.632	51.26
602.968	51.83
603.304	51.56
603.64	51.61
603.976	51.47
604.312	51.7
604.648	51.71
604.984	51.87
605.319	51.65
605.655	51.65
605.991	51.8
606.326	51.78
606.662	51.92
606.998	51.7
607.333	51.66
607.668	52.03
608.004	51.72
608.339	51.83
608.674	51.99
609.01	52.39
609.345	52.41
609.68	52.28
610.015	52.49
610.35	52.6
610.685	52.56
611.02	52.3
611.355	52.27
611.689	52.25
612.024	52.18
612.359	52.64
612.694	52.6
613.028	52.95
613.363	52.61
613.697	52.67
614.032	53.26
614.366	52.81
614.7	53.36
615.035	52.76
615.369	53.15
615.703	53.22
616.037	52.75
616.371	53
616.705	53.08
617.039	53.2
617.373	53.8
617.707	53.42
618.041	53.4
618.375	53.55
618.709	53.1
619.042	53.52
619.376	53.56
619.71	53.43
620.043	53.44
620.377	53.61
620.71	53.14
621.043	53.47
621.377	53.72
621.71	53.71
622.043	53.64
622.376	53.6
622.709	54.43
623.043	53.75
623.376	53.75
623.709	53.93
624.041	53.93
624.374	54.04
624.707	54.16
625.04	53.92
625.373	54.18
625.705	54.23
626.038	54.53
626.37	53.82
626.703	54.3
627.035	54.45
627.368	54.33
627.7	54.62
628.032	54.39
628.365	54.37
628.697	54.19
629.029	54.4
629.361	54.13
629.693	54.47
630.025	54.41
630.357	54.32
630.689	54.87
631.021	54.93
631.353	54.52
631.684	54.93
632.016	54.77
632.348	54.39
632.679	54.91
633.011	54.95
633.342	54.88
633.674	54.6
634.005	55.09
634.336	55.25
634.668	54.87
634.999	55.27
635.33	54.9
635.661	55.07
635.992	55.24
636.323	54.81
636.654	55.25
636.985	55.71
637.316	55.49
637.647	55.49
637.977	55.24
638.308	55.44
638.639	55.76
638.969	55.51
639.3	55.33
639.63	55.41
639.961	55.84
640.291	55.77
640.622	55.69
640.952	55.86
641.282	55.81
641.612	55.43
641.943	56.26
642.273	56.2
642.603	55.51
642.933	55.95
643.263	56.29
643.592	55.77
643.922	56.06
644.252	56.45
644.582	55.64
644.911	55.67
645.241	56.2
645.571	55.7
645.9	56.15
646.23	56.85
646.559	55.92
646.888	56.44
647.218	56.54
647.547	56.77
647.876	57.21
648.205	56.4
648.534	56.5
648.863	56.61
649.192	56.11
649.521	56.7
649.85	56.54
650.179	56.47
650.508	57.03
650.837	57.35
651.165	56.22
651.494	56.89
651.822	57.58
652.151	57.04
652.479	56.57
652.808	56.6
653.136	57.07
653.465	56.47
653.793	57.14
654.121	57.09
654.449	57.17
654.777	57.01
655.105	57.3
655.433	56.87
655.761	56.5
656.089	57.07
656.417	57.43
656.745	57.38
657.073	57.45
657.4	57.32
657.728	57.18
658.056	57.89
658.383	57.36
658.711	57.35
659.038	57.17
659.365	57.72
659.693	58.01
660.02	57.29
660.347	57.66
660.674	57.82
661.001	57.38
661.329	57.84
661.656	57.86
661.982	57.75
662.309	57.34
662.636	58.01
662.963	57.61
663.29	57.43
663.616	57.86
663.943	57.81
664.27	57.77
664.596	58.07
664.923	58.12
665.249	57.06
665.576	57.51
665.902	57.86
666.228	57.9
666.554	57.9
666.881	57.67
667.207	58.11
667.533	57.82
667.859	58.36
668.185	58.1
668.511	58.21
