Data from 0065_forehead_Reflection__0__249.txt Node

Date: Fri Dec 16 15:52:38 CST 2022
User: ToomeyLab
Spectrometer: FLMS14357
Trigger mode: 0
Integration Time (sec): 1.000000E-2
Scans to average: 100
Electric dark correction enabled: true
Nonlinearity correction enabled: false
Boxcar width: 0
XAxis mode: Wavelengths
Number of Pixels in Spectrum: 2048
>>>>>Begin Spectral Data<<<<<
189.047	501.66
189.435	501.66
189.823	501.66
190.211	149.55
190.599	-58.7
190.987	7.09
191.375	94.02
191.763	9.6
192.151	-230.65
192.538	99.94
192.926	102.1
193.314	63.44
193.702	-146.69
194.089	30.52
194.477	-500.82
194.864	80.09
195.252	-9.82
195.639	65.39
196.027	127.35
196.414	329.82
196.801	26.67
197.189	155.26
197.576	-61.25
197.963	-164.83
198.351	18.85
198.738	30.2
199.125	68.93
199.512	56.63
199.899	-2.28
200.286	3.5
200.673	27.09
201.06	42.92
201.447	49.94
201.833	43.87
202.22	26.21
202.607	-3.87
202.994	35.55
203.38	9.55
203.767	12.01
204.154	-23.83
204.54	34
204.927	43.59
205.313	28.56
205.699	26.53
206.086	-18.81
206.472	15.98
206.858	62.66
207.245	4.11
207.631	49.8
208.017	62.72
208.403	43.07
208.789	36.53
209.175	22.75
209.561	49.85
209.947	-15.03
210.333	9.18
210.719	37.65
211.105	20.25
211.491	3.48
211.876	34.64
212.262	-12.49
212.648	21.59
213.034	17.46
213.419	30.66
213.805	24.09
214.19	15.93
214.576	-12.2
214.961	-9.73
215.346	21.35
215.732	16.78
216.117	15.86
216.502	6.44
216.888	-18.11
217.273	14.44
217.658	22.16
218.043	1.49
218.428	18.97
218.813	-10.28
219.198	-2.14
219.583	30.24
219.968	-4.22
220.353	34.42
220.738	2.49
221.122	5.24
221.507	13.23
221.892	15.62
222.276	12.91
222.661	3.06
223.046	15.47
223.43	-5.54
223.815	6.48
224.199	16.29
224.583	20.57
224.968	12.33
225.352	4.04
225.736	9.38
226.121	-3.04
226.505	6.84
226.889	9.7
227.273	7.19
227.657	-1.82
228.041	4.33
228.425	5.89
228.809	3.49
229.193	2.34
229.577	3.75
229.961	3.26
230.344	4.57
230.728	3.36
231.112	4.15
231.495	3.93
231.879	4.97
232.263	3.29
232.646	3.06
233.03	2.61
233.413	3.27
233.797	6.72
234.18	0.93
234.563	3.06
234.946	2.88
235.33	4.09
235.713	3
236.096	3.39
236.479	4.74
236.862	3.68
237.245	5.8
237.628	6.1
238.011	3.83
238.394	4.92
238.777	4.16
239.16	2.65
239.543	2.44
239.925	3.41
240.308	4.52
240.691	5.69
241.073	4.4
241.456	4.67
241.838	4.29
242.221	4.17
242.603	4.48
242.986	4.74
243.368	3.92
243.75	3.75
244.133	3.97
244.515	4.23
244.897	4.87
245.279	4.45
245.661	4.09
246.043	4.95
246.425	4.21
246.807	4.65
247.189	4.58
247.571	4.46
247.953	4.22
248.335	4.43
248.717	4.24
249.098	4.57
249.48	3.98
249.862	4.43
250.243	4.53
250.625	5.49
251.006	4.59
251.388	5.99
251.769	5.08
252.151	4.31
252.532	5.33
252.913	4.8
253.295	4.88
253.676	4.85
254.057	4.28
254.438	4.25
254.819	4.96
255.2	5.29
255.581	4.48
255.962	4.53
256.343	5.06
256.724	5.03
257.105	3.72
257.486	4.41
257.867	4.77
258.247	4.7
258.628	5.23
259.009	4.46
259.389	4.86
259.77	4.67
260.15	5.62
260.531	4.52
260.911	4.32
261.292	4.3
261.672	4.33
262.052	4.53
262.432	4.56
262.813	4.85
263.193	4.57
263.573	4.84
263.953	4.36
264.333	4.99
264.713	4.44
265.093	3.86
265.473	5.42
265.853	4.31
266.233	4.12
266.612	4.87
266.992	5.31
267.372	4.18
267.752	4.32
268.131	4.93
268.511	4.8
268.89	4.7
269.27	4.78
269.649	4.82
270.029	3.86
270.408	4.78
270.787	4.92
271.167	4.71
271.546	4.12
271.925	4.36
272.304	4.32
272.683	4.01
273.062	4.76
273.441	4.54
273.82	4.72
274.199	4.37
274.578	4.24
274.957	4.79
275.336	4.55
275.715	4.99
276.093	4.85
276.472	4.48
276.851	4.99
277.229	4.69
277.608	4.07
277.986	4.11
278.365	3.9
278.743	4.3
279.122	4.19
279.5	4.09
279.878	4.29
280.257	4.93
280.635	4.4
281.013	4.74
281.391	4.82
281.769	4.33
282.147	4.25
282.525	4.35
282.903	4.38
283.281	4.25
283.659	4.54
284.037	4.45
284.415	4.2
284.792	4.7
285.17	3.96
285.548	4.55
285.925	4.63
286.303	4.42
286.68	4.61
287.058	4.34
287.435	4.09
287.813	4.86
288.19	4.77
288.567	4.49
288.945	4.79
289.322	4.3
289.699	5.1
290.076	4.91
290.453	4.56
290.83	4.97
291.207	4.72
291.584	4.74
291.961	4.91
292.338	5.18
292.715	5.32
293.092	5.43
293.469	5.3
293.845	5.3
294.222	5.14
294.599	5.2
294.975	5.7
295.352	5.31
295.728	5.13
296.105	5.55
296.481	6.06
296.858	5.64
297.234	5.69
297.61	5.53
297.986	5.73
298.363	5.51
298.739	5.66
299.115	5.51
299.491	6.2
299.867	6.17
300.243	6.34
300.619	6.15
300.995	6.55
301.371	6.63
301.746	6.51
302.122	6.8
302.498	6.49
302.874	6.94
303.249	6.66
303.625	6.61
304	6.84
304.376	7.04
304.751	6.95
305.127	6.92
305.502	7.24
305.878	7.12
306.253	7.05
306.628	7.25
307.003	7.7
307.378	7.29
307.754	7.54
308.129	7.28
308.504	7.87
308.879	7.83
309.254	7.61
309.629	7.79
310.003	8.47
310.378	8.34
310.753	8.29
311.128	8.16
311.502	7.81
311.877	8.42
312.252	8.28
312.626	8
313.001	8.32
313.375	8.55
313.75	8.41
314.124	9.08
314.498	8.79
314.873	8.25
315.247	9.15
315.621	9.46
315.995	8.94
316.369	9.33
316.743	9.62
317.117	9.19
317.491	9.57
317.865	9.42
318.239	10.04
318.613	9.66
318.987	10.49
319.361	9.96
319.734	10.39
320.108	10.15
320.482	10.14
320.855	10.58
321.229	10.72
321.602	10.32
321.976	10.45
322.349	10.3
322.723	10.85
323.096	10.55
323.469	10.05
323.843	11.27
324.216	10.77
324.589	11.55
324.962	11.51
325.335	11.37
325.708	11.15
326.081	11.22
326.454	11.64
326.827	11.34
327.2	12.36
327.573	11.82
327.945	11.42
328.318	11.97
328.691	11.85
329.063	12.03
329.436	11.51
329.809	11.61
330.181	12.21
330.553	12.52
330.926	12.26
331.298	12.53
331.671	12.3
332.043	11.85
332.415	13.07
332.787	13.39
333.159	12.81
333.532	12.5
333.904	12.49
334.276	13.01
334.648	13.32
335.02	12.65
335.391	13.24
335.763	12.66
336.135	13.15
336.507	13.68
336.879	13.87
337.25	13.32
337.622	13.77
337.993	13.98
338.365	14.08
338.736	13.38
339.108	13.1
339.479	13.28
339.851	13.44
340.222	13.42
340.593	13.37
340.964	13.98
341.336	13.67
341.707	13.73
342.078	13.72
342.449	14.41
342.82	13.75
343.191	13.8
343.562	13.93
343.933	14.35
344.303	14.69
344.674	14.39
345.045	14.88
345.416	14.16
345.786	14.26
346.157	14.61
346.527	14.47
346.898	14.38
347.268	14.51
347.639	14.45
348.009	15.22
348.38	14.35
348.75	14.94
349.12	14.77
349.49	14.98
349.861	15.14
350.231	14.93
350.601	15.04
350.971	15.22
351.341	15.26
351.711	15.1
352.081	15.79
352.45	15.54
352.82	15.95
353.19	15.85
353.56	15.68
353.929	15.77
354.299	15.94
354.669	15.68
355.038	15.92
355.408	16.12
355.777	15.99
356.147	16.09
356.516	16.1
356.885	15.94
357.254	16.33
357.624	16.44
357.993	16.17
358.362	16.25
358.731	16.18
359.1	16.62
359.469	16.41
359.838	16.31
360.207	16.48
360.576	16.93
360.945	16.58
361.314	16.87
361.682	16.26
362.051	16.47
362.42	16.84
362.788	16.8
363.157	16.7
363.525	16.72
363.894	17.03
364.262	16.6
364.631	17.87
364.999	16.98
365.367	17.25
365.735	16.93
366.104	17.05
366.472	17.83
366.84	17.71
367.208	17.43
367.576	17.98
367.944	17.83
368.312	17.72
368.68	17.78
369.048	18.07
369.416	18.18
369.783	18.05
370.151	18.17
370.519	18.03
370.886	18.01
371.254	18.5
371.621	17.96
371.989	18.57
372.356	18.61
372.724	18.48
373.091	18.22
373.458	18.32
373.826	18.89
374.193	19.23
374.56	18.62
374.927	18.95
375.294	19.16
375.661	18.89
376.028	19.08
376.395	18.85
376.762	19.47
377.129	19.22
377.496	19.68
377.863	19.28
378.229	19.2
378.596	19.18
378.963	19.19
379.329	19.52
379.696	19.44
380.062	19.74
380.429	19.83
380.795	19.61
381.161	19.69
381.528	19.62
381.894	19.96
382.26	19.99
382.626	20.06
382.993	20.04
383.359	20.24
383.725	20.48
384.091	20.36
384.457	20.26
384.823	20.07
385.188	20.42
385.554	20.5
385.92	20.7
386.286	20.74
386.651	20.55
387.017	20.79
387.383	20.9
387.748	20.8
388.114	20.83
388.479	21.27
388.845	20.87
389.21	21.04
389.575	21.16
389.94	20.96
390.306	21.27
390.671	21.11
391.036	21.38
391.401	21.65
391.766	21.45
392.131	21.44
392.496	21.31
392.861	21.31
393.226	21.36
393.591	21.59
393.956	21.7
394.32	21.82
394.685	21.89
395.05	21.59
395.414	22.04
395.779	22.05
396.143	21.74
396.508	22.03
396.872	22.59
397.236	21.83
397.601	22.35
397.965	22.29
398.329	22.59
398.694	22.38
399.058	22.44
399.422	22.67
399.786	22.81
400.15	22.73
400.514	22.75
400.878	22.54
401.242	23.12
401.605	22.9
401.969	22.97
402.333	23.11
402.697	22.95
403.06	23.26
403.424	23.17
403.787	23.37
404.151	23.34
404.514	23.42
404.878	23.34
405.241	23.34
405.604	23.38
405.968	23.53
406.331	23.64
406.694	23.66
407.057	23.75
407.42	23.6
407.783	23.77
408.146	23.71
408.509	23.42
408.872	23.78
409.235	24.08
409.598	24.29
409.961	24.17
410.323	24.12
410.686	24.31
411.049	24.1
411.411	24.28
411.774	24.39
412.136	24.48
412.499	24.4
412.861	24.51
413.223	24.74
413.586	24.56
413.948	24.86
414.31	24.85
414.672	24.84
415.035	24.83
415.397	24.91
415.759	25.06
416.121	25.08
416.483	25.41
416.845	25.35
417.206	25.18
417.568	25.23
417.93	24.95
418.292	25.08
418.653	25.12
419.015	25.19
419.377	25.17
419.738	25.08
420.1	25.14
420.461	24.87
420.822	25.27
421.184	25.2
421.545	25.28
421.906	25.21
422.267	25.02
422.629	25.08
422.99	25.18
423.351	25.59
423.712	25.65
424.073	25.6
424.434	25.55
424.795	25.76
425.155	25.64
425.516	25.54
425.877	25.64
426.238	25.53
426.598	25.71
426.959	26
427.32	26.2
427.68	26.29
428.041	26.44
428.401	26.58
428.761	26.51
429.122	26.66
429.482	26.62
429.842	26.68
430.202	27.08
430.563	26.8
430.923	27
431.283	26.97
431.643	27.01
432.003	27.22
432.363	27.07
432.722	27.23
433.082	27.02
433.442	27.28
433.802	27.28
434.161	27.14
434.521	27.26
434.881	27.41
435.24	27.11
435.6	27.44
435.959	27.46
436.319	27.48
436.678	27.56
437.037	27.99
437.396	27.75
437.756	28.02
438.115	28.26
438.474	27.94
438.833	27.88
439.192	27.99
439.551	28.25
439.91	28.06
440.269	28.24
440.628	28.16
440.987	27.96
441.345	28.1
441.704	28.04
442.063	28.01
442.421	27.88
442.78	28.21
443.138	28.38
443.497	28.42
443.855	28.45
444.214	28.6
444.572	28.79
444.93	29.07
445.288	28.77
445.647	28.94
446.005	28.85
446.363	28.84
446.721	28.6
447.079	28.69
447.437	28.54
447.795	28.76
448.153	28.77
448.51	28.69
448.868	28.86
449.226	29.07
449.584	29.06
449.941	29.19
450.299	29.36
450.656	29.73
451.014	29.62
451.371	29.49
451.729	29.78
452.086	29.86
452.443	29.91
452.801	29.92
453.158	29.93
453.515	30.03
453.872	30.06
454.229	30.12
454.586	30.2
454.943	30.26
455.3	30.2
455.657	30.25
456.014	30.54
456.371	30.58
456.727	30.62
457.084	30.57
457.441	30.6
457.797	30.65
458.154	30.71
458.51	30.92
458.867	30.9
459.223	31.13
459.58	30.81
459.936	31.15
460.292	31
460.648	30.67
461.005	30.43
461.361	30.46
461.717	30.42
462.073	30.89
462.429	31.07
462.785	31.2
463.141	31.33
463.496	31.24
463.852	31.55
464.208	31.76
464.564	31.7
464.919	31.61
465.275	31.99
465.631	31.93
465.986	31.83
466.342	31.99
466.697	32.09
467.052	32.02
467.408	32.25
467.763	32.22
468.118	32.08
468.473	32.48
468.829	32.44
469.184	32.46
469.539	32.34
469.894	32.38
470.249	32.68
470.603	32.5
470.958	32.74
471.313	32.55
471.668	32.89
472.023	32.77
472.377	32.89
472.732	32.68
473.086	32.74
473.441	32.93
473.795	33.09
474.15	33
474.504	32.96
474.859	33.22
475.213	33.18
475.567	33.2
475.921	33.45
476.275	33.54
476.63	33.38
476.984	33.65
477.338	33.59
477.692	33.52
478.045	33.43
478.399	33.51
478.753	33.5
479.107	33.58
479.461	33.74
479.814	33.67
480.168	33.75
480.521	33.73
480.875	33.94
481.228	33.98
481.582	34.12
481.935	34.05
482.289	34.15
482.642	33.91
482.995	33.97
483.348	33.77
483.701	33.56
484.055	33.54
484.408	33.43
484.761	33.04
485.114	32.86
485.466	32.91
485.819	33
486.172	33.23
486.525	33.47
486.878	33.75
487.23	33.84
487.583	33.86
487.936	33.8
488.288	33.77
488.641	33.66
488.993	33.59
489.345	33.57
489.698	33.76
490.05	34
490.402	34.38
490.754	34.66
491.107	34.65
491.459	34.93
491.811	34.96
492.163	34.77
492.515	34.63
492.866	34.28
493.218	34.19
493.57	34.51
493.922	34.75
494.274	35.11
494.625	35.16
494.977	35.43
495.328	35.82
495.68	35.94
496.031	36.03
496.383	36.12
496.734	36.23
497.086	36.25
497.437	36.06
497.788	36.3
498.139	36.07
498.49	36.03
498.842	36.13
499.193	36.18
499.544	36.49
499.894	36.32
500.245	36.67
500.596	36.7
500.947	36.39
501.298	36.77
501.648	36.67
501.999	36.98
502.35	37.1
502.7	36.97
503.051	37.41
503.401	37.38
503.752	37.32
504.102	37.37
504.452	37.26
504.803	37.17
505.153	37.63
505.503	37.41
505.853	37.39
506.203	37.51
506.553	37.48
506.903	37.8
507.253	37.8
507.603	37.62
507.953	37.78
508.303	38.04
508.652	37.87
509.002	37.89
509.352	37.75
509.701	37.78
510.051	37.86
510.4	37.77
510.75	37.84
511.099	38.02
511.449	38.13
511.798	38.09
512.147	38.05
512.496	38.4
512.846	38.12
513.195	38.13
513.544	38.29
513.893	38.16
514.242	38.49
514.591	38.41
514.939	38.59
515.288	38.83
515.637	38.9
515.986	38.81
516.334	39.04
516.683	39.11
517.032	39.11
517.38	39.08
517.729	39.14
518.077	39.31
518.426	39.23
518.774	39.13
519.122	38.9
519.47	38.91
519.819	38.63
520.167	38.69
520.515	38.81
520.863	38.97
521.211	39.02
521.559	39.17
521.907	39.27
522.255	39.54
522.602	39.86
522.95	39.68
523.298	39.94
523.645	40.07
523.993	39.98
524.341	40.15
524.688	40.06
525.036	40.03
525.383	40.12
525.73	40.07
526.078	40.18
526.425	39.99
526.772	39.56
527.119	39.59
527.466	39.63
527.814	39.8
528.161	39.8
528.508	39.87
528.854	39.84
529.201	39.7
529.548	39.28
529.895	39.24
530.242	39.35
530.588	39.44
530.935	39.49
531.282	39.76
531.628	39.93
531.975	40.33
532.321	40.39
532.667	40.49
533.014	40.65
533.36	40.59
533.706	40.46
534.052	40.5
534.399	40.41
534.745	40.1
535.091	40.17
535.437	40.61
535.783	40.91
536.129	40.97
536.474	41.33
536.82	41.28
537.166	41.45
537.512	41.34
537.857	41.13
538.203	41.08
538.549	41.51
538.894	41.36
539.239	41.72
539.585	41.86
539.93	42.01
540.276	42.25
540.621	42.29
540.966	42.05
541.311	42.33
541.656	42.02
542.001	41.92
542.346	41.47
542.691	41.17
543.036	41.21
543.381	41.4
543.726	41.63
544.071	41.98
544.415	42.01
544.76	42.05
545.105	42.23
545.449	42.26
545.794	42.52
546.138	42.93
546.483	42.82
546.827	42.88
547.171	43.07
547.516	42.98
547.86	42.89
548.204	43.01
548.548	42.97
548.892	43.16
549.236	43.37
549.58	43.66
549.924	43.57
550.268	43.99
550.612	44.14
550.956	43.86
551.3	44.13
551.643	44.18
551.987	44.01
552.33	44.26
552.674	44.11
553.017	44.3
553.361	44.23
553.704	44.39
554.048	44.19
554.391	44.31
554.734	44.42
555.077	44.53
555.42	44.71
555.764	44.78
556.107	44.63
556.45	44.88
556.793	45.07
557.135	45.05
557.478	45.41
557.821	44.94
558.164	45.32
558.507	45.1
558.849	45.18
559.192	45.24
559.534	45.2
559.877	45.73
560.219	45.34
560.562	45.65
560.904	45.65
561.246	45.63
561.589	45.53
561.931	45.76
562.273	45.73
562.615	45.79
562.957	45.63
563.299	45.79
563.641	46.13
563.983	45.83
564.325	45.82
564.667	46
565.008	46.07
565.35	46.36
565.692	45.96
566.033	46.28
566.375	46.26
566.716	46.31
567.058	46.35
567.399	46.31
567.741	46.17
568.082	46.06
568.423	45.87
568.764	46.21
569.105	46.35
569.447	46.63
569.788	46.71
570.129	46.84
570.47	46.86
570.811	46.63
571.151	46.92
571.492	47.06
571.833	47.05
572.174	46.88
572.514	46.71
572.855	47.26
573.195	47.04
573.536	46.8
573.876	46.66
574.217	47
574.557	47.04
574.898	47.08
575.238	47.21
575.578	47.42
575.918	47.52
576.258	47.52
576.598	47.31
576.938	47.41
577.278	47.44
577.618	47.49
577.958	47.9
578.298	47.86
578.638	47.83
578.977	48.34
579.317	48.5
579.657	48.31
579.996	48.11
580.336	48.32
580.675	48.3
581.014	48.85
581.354	48.88
581.693	48.99
582.032	48.42
582.372	48.96
582.711	48.59
583.05	48.99
583.389	49.21
583.728	49.08
584.067	49.1
584.406	49.31
584.745	48.67
585.083	49.49
585.422	48.89
585.761	49.38
586.1	49.31
586.438	48.99
586.777	49.18
587.115	49.08
587.454	49.38
587.792	49.6
588.13	49.67
588.469	49.63
588.807	49.84
589.145	49.39
589.483	49.47
589.821	49.47
590.159	49.82
590.497	49.69
590.835	49.83
591.173	50.03
591.511	49.93
591.849	50.11
592.187	50.19
592.524	49.95
592.862	49.85
593.2	50.2
593.537	50.23
593.875	50.13
594.212	50.41
594.55	49.92
594.887	50.42
595.224	50.46
595.561	50.34
595.899	50.31
596.236	50.24
596.573	50.27
596.91	50.9
597.247	50.78
597.584	50.98
597.921	50.48
598.258	50.17
598.594	50.18
598.931	50.33
599.268	50.29
599.604	50.59
599.941	50.74
600.277	50.94
600.614	51.38
600.95	51.55
601.287	51.22
601.623	51.35
601.959	51.24
602.296	51.51
602.632	51.35
602.968	51.41
603.304	51.55
603.64	51.7
603.976	51.33
604.312	51.41
604.648	51.13
604.984	51.53
605.319	51.3
605.655	51.25
605.991	51.24
606.326	51.1
606.662	51.7
606.998	51.63
607.333	51.74
607.668	51.82
608.004	52.03
608.339	52.11
608.674	52.17
609.01	52.1
609.345	52.55
609.68	52.14
610.015	52.23
610.35	52.37
610.685	52.14
611.02	51.93
611.355	52.09
611.689	52.11
612.024	52.34
612.359	52.5
612.694	52.42
613.028	53.02
613.363	53.03
613.697	52.83
614.032	53.28
614.366	53.09
614.7	53.48
615.035	52.77
615.369	53.14
615.703	53.55
616.037	53.09
616.371	53.26
616.705	53.37
617.039	53.26
617.373	53.42
617.707	53.38
618.041	53.89
618.375	53.6
618.709	53.31
619.042	53.6
619.376	53.65
619.71	53.8
620.043	53.43
620.377	54.04
620.71	53.53
621.043	53.85
621.377	53.84
621.71	54.01
622.043	54.27
622.376	54.51
622.709	54.17
623.043	54.44
623.376	54
623.709	53.94
624.041	54.12
624.374	54.45
624.707	54.24
625.04	54.24
625.373	54.59
625.705	54.65
626.038	54.42
626.37	54.26
626.703	54.69
627.035	54.65
627.368	54.87
627.7	54.61
628.032	54.57
628.365	54.31
628.697	54.32
629.029	54.53
629.361	54.66
629.693	54.94
630.025	54.68
630.357	54.6
630.689	54.99
631.021	55.05
631.353	55.15
631.684	55.23
632.016	55.62
632.348	55.45
632.679	55.16
633.011	55.64
633.342	55.85
633.674	55.55
634.005	55.27
634.336	55.63
634.668	55.35
634.999	56.06
635.33	55.4
635.661	55.42
635.992	55.26
636.323	55.63
636.654	55.78
636.985	56.24
637.316	56.11
637.647	56.09
637.977	56.01
638.308	55.76
638.639	55.82
638.969	55.93
639.3	56.36
639.63	56.08
639.961	55.96
640.291	56.47
640.622	56.69
640.952	56.79
641.282	56.48
641.612	56.57
641.943	56.74
642.273	56.85
642.603	56.75
642.933	56.6
643.263	56.81
643.592	56.73
643.922	57.68
644.252	57.1
644.582	56.41
644.911	56.98
645.241	56.73
645.571	56.88
645.9	57.49
646.23	57.46
646.559	57.12
646.888	57.32
647.218	57.46
647.547	57.2
647.876	57.42
648.205	57.89
648.534	56.96
648.863	57.55
649.192	57.66
649.521	57.09
649.85	56.93
650.179	57.47
650.508	58.17
650.837	57.92
651.165	58.01
651.494	58.01
651.822	57.81
652.151	58.19
652.479	57.53
652.808	57.51
653.136	58.07
653.465	57.9
653.793	58.51
654.121	58.42
654.449	57.61
654.777	57.89
655.105	58.79
655.433	58.17
655.761	58.34
656.089	58.06
656.417	57.65
656.745	58.28
657.073	58.15
657.4	59.19
657.728	58.3
658.056	58.17
658.383	58.76
658.711	59.04
659.038	58.13
659.365	58.29
659.693	58.89
660.02	58.51
660.347	58.52
660.674	58.46
661.001	58.2
661.329	58.26
661.656	58.5
661.982	58.66
662.309	59.04
662.636	59.21
662.963	59.05
663.29	59.07
663.616	59.68
663.943	59.58
664.27	59.25
664.596	59.44
664.923	59.64
665.249	58.44
665.576	59.21
665.902	59.02
666.228	59.18
666.554	59.85
666.881	58.87
667.207	59.37
667.533	59.21
667.859	60.5
668.185	59.08
668.511	59.34
668.837	60.35
669.162	59.31
