Data from 0065_crown_Reflection__3__247.txt Node

Date: Fri Dec 16 15:51:53 CST 2022
User: ToomeyLab
Spectrometer: FLMS14357
Trigger mode: 0
Integration Time (sec): 1.000000E-2
Scans to average: 100
Electric dark correction enabled: true
Nonlinearity correction enabled: false
Boxcar width: 0
XAxis mode: Wavelengths
Number of Pixels in Spectrum: 2048
>>>>>Begin Spectral Data<<<<<
189.047	321.88
189.435	321.88
189.823	321.88
190.211	22.85
190.599	38.07
190.987	97.69
191.375	54.08
191.763	45.97
192.151	-237.44
192.538	94.04
192.926	466.85
193.314	145.04
193.702	-145.74
194.089	-57.77
194.477	-464.76
194.864	10.71
195.252	110.51
195.639	76.98
196.027	35.53
196.414	-8728.07
196.801	-366.09
197.189	149.67
197.576	-54.33
197.963	663.43
198.351	-7.28
198.738	-73.04
199.125	37.88
199.512	-71.97
199.899	-47.33
200.286	47.17
200.673	38.28
201.06	6.63
201.447	21.92
201.833	-18.06
202.22	68.05
202.607	-7.26
202.994	24.55
203.38	-56.74
203.767	-23.46
204.154	29.5
204.54	6.57
204.927	0.96
205.313	16.48
205.699	-44.72
206.086	-51.58
206.472	-33.87
206.858	33.26
207.245	-12.69
207.631	-30.21
208.017	-7.68
208.403	14.56
208.789	57.6
209.175	51
209.561	14.01
209.947	-6.1
210.333	-47.49
210.719	-6.36
211.105	-19.68
211.491	20.53
211.876	-36.87
212.262	-44.4
212.648	-49.59
213.034	-11.02
213.419	34.17
213.805	5.97
214.19	-20.89
214.576	1.9
214.961	-10.77
215.346	-24.76
215.732	8.92
216.117	12.63
216.502	7.83
216.888	-30.75
217.273	10.14
217.658	-12.04
218.043	-9.78
218.428	-5.47
218.813	-7.51
219.198	-5.45
219.583	1.62
219.968	8.41
220.353	22.81
220.738	-33.5
221.122	-5.91
221.507	-17.99
221.892	-14.11
222.276	2.77
222.661	-0.67
223.046	0.86
223.43	-12.39
223.815	5.72
224.199	3.47
224.583	-7.17
224.968	10.17
225.352	-3.36
225.736	7.99
226.121	-2.49
226.505	3.34
226.889	15.51
227.273	5.9
227.657	3.84
228.041	6.39
228.425	3.35
228.809	3.26
229.193	2.46
229.577	4.42
229.961	5.25
230.344	5.47
230.728	4.63
231.112	5.54
231.495	4.85
231.879	4.84
232.263	4.29
232.646	2.67
233.03	2.55
233.413	4.34
233.797	3.61
234.18	4.24
234.563	3.08
234.946	5.48
235.33	4.27
235.713	4.71
236.096	2.94
236.479	4.72
236.862	4.39
237.245	5.7
237.628	3.49
238.011	5.25
238.394	5.56
238.777	2.04
239.16	1.79
239.543	2.1
239.925	4.16
240.308	3.78
240.691	2.18
241.073	3.77
241.456	3.49
241.838	4.15
242.221	4.75
242.603	4.21
242.986	5.09
243.368	4.98
243.75	4.08
244.133	4.35
244.515	4.68
244.897	4.69
245.279	4.26
245.661	4.02
246.043	4.29
246.425	3.82
246.807	4.68
247.189	3.86
247.571	4.45
247.953	4.32
248.335	4.67
248.717	4.39
249.098	4.61
249.48	3.65
249.862	4.4
250.243	4.35
250.625	4.43
251.006	4.48
251.388	4.44
251.769	4.16
252.151	5.03
252.532	3.84
252.913	4.03
253.295	4.4
253.676	4.32
254.057	4.14
254.438	4.39
254.819	4.35
255.2	4.51
255.581	3.67
255.962	3.41
256.343	4.63
256.724	4.57
257.105	3.61
257.486	4.27
257.867	2.69
258.247	3.92
258.628	4.75
259.009	3.88
259.389	4.59
259.77	3.83
260.15	4.54
260.531	4.14
260.911	4.17
261.292	4.09
261.672	4.18
262.052	4.14
262.432	4.34
262.813	4.59
263.193	3.2
263.573	4.07
263.953	3.52
264.333	4
264.713	3.39
265.093	3.92
265.473	4.75
265.853	4.39
266.233	3.53
266.612	4.18
266.992	3.77
267.372	3.62
267.752	3.42
268.131	4.25
268.511	4.28
268.89	4.45
269.27	3.83
269.649	4.12
270.029	4.02
270.408	3.64
270.787	4.02
271.167	3.95
271.546	3.32
271.925	4.06
272.304	3.84
272.683	3.58
273.062	4.68
273.441	4.16
273.82	4.05
274.199	4.02
274.578	3.71
274.957	3.87
275.336	4.14
275.715	4.02
276.093	3.5
276.472	3.85
276.851	4.27
277.229	4.72
277.608	3.76
277.986	4.82
278.365	3.98
278.743	4.51
279.122	4.01
279.5	3
279.878	2.89
280.257	3.99
280.635	3.65
281.013	4.37
281.391	3.63
281.769	3.67
282.147	4.07
282.525	3.32
282.903	3.83
283.281	3.98
283.659	4.5
284.037	3.79
284.415	4.01
284.792	3.74
285.17	3.47
285.548	3.74
285.925	4.16
286.303	3.87
286.68	4.39
287.058	3.86
287.435	3.7
287.813	4.11
288.19	4.18
288.567	3.83
288.945	4.01
289.322	3.87
289.699	3.93
290.076	4.5
290.453	3.6
290.83	4.38
291.207	3.88
291.584	3.37
291.961	3.94
292.338	3.97
292.715	3.97
293.092	4.12
293.469	3.8
293.845	3.69
294.222	3.65
294.599	4.07
294.975	3.99
295.352	3.62
295.728	3.88
296.105	3.69
296.481	4.04
296.858	3.83
297.234	3.46
297.61	4.01
297.986	4.05
298.363	3.6
298.739	3.91
299.115	3.25
299.491	3.83
299.867	3.83
300.243	3.66
300.619	3.51
300.995	3.91
301.371	3.75
301.746	4.04
302.122	4.11
302.498	3.99
302.874	4.07
303.249	3.92
303.625	3.92
304	3.57
304.376	3.82
304.751	3.78
305.127	3.88
305.502	3.95
305.878	3.42
306.253	3.39
306.628	3.71
307.003	4.18
307.378	3.86
307.754	3.9
308.129	3.22
308.504	3.71
308.879	3.38
309.254	4.27
309.629	3.74
310.003	4.06
310.378	3.65
310.753	3.87
311.128	3.6
311.502	3.47
311.877	3.92
312.252	3.82
312.626	3.47
313.001	3.79
313.375	3.73
313.75	3.44
314.124	4.03
314.498	3.68
314.873	3.78
315.247	3.39
315.621	4.44
315.995	3.75
316.369	3.43
316.743	4.25
317.117	3.79
317.491	3.66
317.865	3.25
318.239	4.34
318.613	4.06
318.987	3.52
319.361	3.33
319.734	3.06
320.108	3.85
320.482	3.73
320.855	3.69
321.229	4.3
321.602	3.58
321.976	3.57
322.349	2.79
322.723	3.46
323.096	3.55
323.469	3.15
323.843	3.59
324.216	3.03
324.589	4.21
324.962	3.63
325.335	3.58
325.708	4.05
326.081	4.12
326.454	3.82
326.827	3.2
327.2	4.1
327.573	3.64
327.945	3.39
328.318	4.44
328.691	3.97
329.063	3.6
329.436	3.61
329.809	3.34
330.181	3.71
330.553	4.04
330.926	3.71
331.298	3.44
331.671	3.63
332.043	3.39
332.415	4.14
332.787	4.11
333.159	3.59
333.532	3.54
333.904	3.15
334.276	3.31
334.648	3.6
335.02	4.04
335.391	3.44
335.763	3.49
336.135	3.8
336.507	3.77
336.879	3.38
337.25	3.73
337.622	3.95
337.993	3.64
338.365	3.99
338.736	4.02
339.108	3.5
339.479	3.59
339.851	3.96
340.222	4.15
340.593	3.14
340.964	3.77
341.336	3.1
341.707	3.62
342.078	2.97
342.449	3.86
342.82	3.66
343.191	3.15
343.562	3.61
343.933	3.55
344.303	3.34
344.674	3.77
345.045	3.69
345.416	3.53
345.786	3.5
346.157	3.67
346.527	3.17
346.898	3.58
347.268	3.23
347.639	3.6
348.009	4.07
348.38	3.47
348.75	3.94
349.12	3.71
349.49	3.62
349.861	4.14
350.231	3.37
350.601	3.96
350.971	3.69
351.341	3.88
351.711	3.76
352.081	3.65
352.45	3.88
352.82	3.46
353.19	3.48
353.56	3.63
353.929	3.68
354.299	3.53
354.669	3.56
355.038	3.76
355.408	3.95
355.777	3.76
356.147	3.86
356.516	4.07
356.885	3.66
357.254	3.9
357.624	3.96
357.993	3.8
358.362	3.75
358.731	3.64
359.1	3.74
359.469	3.89
359.838	3.79
360.207	3.28
360.576	3.99
360.945	3.77
361.314	3.93
361.682	3.18
362.051	3.56
362.42	3.9
362.788	3.51
363.157	3.71
363.525	3.51
363.894	3.61
364.262	3.47
364.631	4.41
364.999	3.68
365.367	3.94
365.735	3.25
366.104	3.48
366.472	3.79
366.84	4.01
367.208	3.22
367.576	3.74
367.944	4.05
368.312	3.38
368.68	3.89
369.048	4.19
369.416	3.61
369.783	3.61
370.151	3.85
370.519	3.53
370.886	3.78
371.254	3.82
371.621	3.44
371.989	3.61
372.356	3.65
372.724	3.72
373.091	3.58
373.458	3.62
373.826	3.76
374.193	4.2
374.56	3.8
374.927	3.64
375.294	4.1
375.661	3.79
376.028	3.59
376.395	3.59
376.762	3.97
377.129	3.79
377.496	3.9
377.863	3.8
378.229	3.68
378.596	3.66
378.963	3.64
379.329	3.63
379.696	3.86
380.062	3.83
380.429	3.92
380.795	3.5
381.161	3.63
381.528	3.21
381.894	3.73
382.26	3.75
382.626	3.73
382.993	3.52
383.359	3.91
383.725	3.88
384.091	3.71
384.457	3.89
384.823	3.66
385.188	4.08
385.554	3.74
385.92	3.92
386.286	4.06
386.651	3.78
387.017	3.95
387.383	4.01
387.748	3.83
388.114	3.76
388.479	3.81
388.845	3.67
389.21	4.06
389.575	4.06
389.94	3.72
390.306	3.75
390.671	3.65
391.036	4.12
391.401	4.05
391.766	3.89
392.131	3.86
392.496	3.56
392.861	3.73
393.226	3.77
393.591	3.79
393.956	3.78
394.32	3.58
394.685	4.11
395.05	3.68
395.414	3.82
395.779	3.6
396.143	4.03
396.508	3.79
396.872	4.01
397.236	3.7
397.601	3.91
397.965	3.72
398.329	4.11
398.694	3.72
399.058	3.99
399.422	4.2
399.786	3.91
400.15	3.81
400.514	3.75
400.878	3.97
401.242	3.89
401.605	3.71
401.969	3.91
402.333	3.64
402.697	4.03
403.06	3.99
403.424	3.78
403.787	4.14
404.151	3.77
404.514	3.81
404.878	3.8
405.241	4.02
405.604	3.83
405.968	3.71
406.331	3.95
406.694	3.77
407.057	3.99
407.42	3.84
407.783	3.77
408.146	3.81
408.509	3.68
408.872	3.66
409.235	3.96
409.598	4.04
409.961	3.89
410.323	3.77
410.686	3.85
411.049	3.83
411.411	3.7
411.774	3.77
412.136	3.85
412.499	4
412.861	3.77
413.223	4.07
413.586	3.73
413.948	4.26
414.31	4.06
414.672	3.56
415.035	4
415.397	3.86
415.759	3.96
416.121	4.07
416.483	4.06
416.845	4.01
417.206	3.94
417.568	4.08
417.93	3.85
418.292	3.95
418.653	3.95
419.015	3.93
419.377	3.93
419.738	3.71
420.1	3.78
420.461	3.76
420.822	3.8
421.184	3.89
421.545	3.84
421.906	3.86
422.267	3.74
422.629	3.88
422.99	3.75
423.351	3.98
423.712	3.82
424.073	3.96
424.434	3.82
424.795	3.74
425.155	3.77
425.516	3.74
425.877	3.87
426.238	3.87
426.598	3.9
426.959	3.84
427.32	3.89
427.68	3.95
428.041	3.76
428.401	3.63
428.761	3.85
429.122	3.84
429.482	3.81
429.842	3.98
430.202	3.86
430.563	3.83
430.923	3.88
431.283	3.9
431.643	4
432.003	3.91
432.363	4.09
432.722	3.91
433.082	3.79
433.442	3.82
433.802	3.98
434.161	3.97
434.521	4.01
434.881	4.03
435.24	3.96
435.6	3.98
435.959	4.07
436.319	3.93
436.678	3.9
437.037	3.99
437.396	3.97
437.756	3.8
438.115	3.81
438.474	3.96
438.833	4
439.192	4.07
439.551	4.12
439.91	3.97
440.269	4.16
440.628	3.88
440.987	3.73
441.345	3.86
441.704	3.98
442.063	3.97
442.421	3.9
442.78	3.84
443.138	3.86
443.497	3.9
443.855	4.03
444.214	3.93
444.572	3.93
444.93	4.01
445.288	3.97
445.647	3.95
446.005	3.8
446.363	3.89
446.721	3.86
447.079	3.9
447.437	3.97
447.795	3.83
448.153	3.93
448.51	3.9
448.868	4.02
449.226	3.97
449.584	3.88
449.941	4.01
450.299	3.83
450.656	4.08
451.014	3.94
451.371	4.07
451.729	4.06
452.086	3.92
452.443	3.86
452.801	4.06
453.158	3.98
453.515	4.06
453.872	4.07
454.229	3.92
454.586	4.06
454.943	3.95
455.3	4.1
455.657	4
456.014	3.93
456.371	4.23
456.727	4
457.084	3.84
457.441	4.09
457.797	4.03
458.154	4.04
458.51	3.85
458.867	3.81
459.223	3.99
459.58	4
459.936	3.87
460.292	4.12
460.648	3.8
461.005	3.77
461.361	3.94
461.717	3.94
462.073	4.05
462.429	4.05
462.785	4.01
463.141	4.12
463.496	3.95
463.852	4.18
464.208	4.14
464.564	3.94
464.919	3.96
465.275	4.09
465.631	4.03
465.986	3.88
466.342	4
466.697	4.08
467.052	4.01
467.408	4
467.763	3.91
468.118	4.06
468.473	4.22
468.829	3.95
469.184	4.2
469.539	3.89
469.894	4.1
470.249	4.16
470.603	4.29
470.958	4.3
471.313	3.89
471.668	4.36
472.023	4.34
472.377	4.15
472.732	3.94
473.086	3.96
473.441	4.15
473.795	4.39
474.15	4
474.504	4.08
474.859	4.11
475.213	4.23
475.567	4.04
475.921	4.21
476.275	4.04
476.63	4.03
476.984	4.01
477.338	4.35
477.692	4.22
478.045	4.04
478.399	4.16
478.753	3.96
479.107	4.16
479.461	4.16
479.814	4.03
480.168	4.13
480.521	4.19
480.875	4.23
481.228	4.2
481.582	3.97
481.935	4.13
482.289	4.13
482.642	4.1
482.995	4.13
483.348	4.13
483.701	4.04
484.055	4.08
484.408	3.98
484.761	3.84
485.114	3.8
485.466	3.81
485.819	3.84
486.172	3.97
486.525	4.03
486.878	4
487.23	4.02
487.583	4.07
487.936	4.03
488.288	3.96
488.641	3.9
488.993	3.85
489.345	3.9
489.698	3.96
490.05	3.98
490.402	4.07
490.754	4.15
491.107	4.05
491.459	4.19
491.811	4.15
492.163	4.1
492.515	4.09
492.866	3.86
493.218	3.95
493.57	4.03
493.922	4.11
494.274	4.13
494.625	4.09
494.977	4.1
495.328	4.26
495.68	4.39
496.031	4.24
496.383	4.15
496.734	4.25
497.086	4.08
497.437	4.27
497.788	4.05
498.139	4.21
498.49	4.1
498.842	4.13
499.193	4.15
499.544	4.26
499.894	4.16
500.245	4.21
500.596	4.17
500.947	4.17
501.298	4.25
501.648	4.22
501.999	4.34
502.35	4.33
502.7	4.29
503.051	4.29
503.401	4.28
503.752	4.27
504.102	4.22
504.452	4.18
504.803	4.08
505.153	4.23
505.503	4.2
505.853	4.23
506.203	4.16
506.553	4.37
506.903	4.24
507.253	4.4
507.603	4.24
507.953	4.41
508.303	4.19
508.652	4.28
509.002	4.34
509.352	4.14
509.701	4.19
510.051	4.11
510.4	4.31
510.75	4.25
511.099	4.2
511.449	4.21
511.798	4.38
512.147	4.19
512.496	4.31
512.846	4.17
513.195	4.29
513.544	4.27
513.893	4.18
514.242	4.22
514.591	4.31
514.939	4.15
515.288	4.33
515.637	4.44
515.986	4.37
516.334	4.44
516.683	4.28
517.032	4.24
517.38	4.25
517.729	4.23
518.077	4.36
518.426	4.28
518.774	4.29
519.122	4.24
519.47	4.27
519.819	4.2
520.167	4.22
520.515	4.2
520.863	4.16
521.211	4.21
521.559	4.28
521.907	4.28
522.255	4.32
522.602	4.41
522.95	4.28
523.298	4.33
523.645	4.25
523.993	4.42
524.341	4.3
524.688	4.33
525.036	4.49
525.383	4.45
525.73	4.4
526.078	4.33
526.425	4.23
526.772	4.1
527.119	4.22
527.466	4.26
527.814	4.26
528.161	4.32
528.508	4.29
528.854	4.18
529.201	4.15
529.548	4.14
529.895	3.99
530.242	4.03
530.588	4.08
530.935	4.18
531.282	4.23
531.628	4.26
531.975	4.37
532.321	4.31
532.667	4.27
533.014	4.26
533.36	4.29
533.706	4.32
534.052	4.18
534.399	4.17
534.745	4.1
535.091	4.19
535.437	4.27
535.783	4.31
536.129	4.29
536.474	4.4
536.82	4.28
537.166	4.4
537.512	4.28
537.857	4.28
538.203	4.25
538.549	4.32
538.894	4.33
539.239	4.49
539.585	4.41
539.93	4.42
540.276	4.34
540.621	4.44
540.966	4.46
541.311	4.43
541.656	4.24
542.001	4.38
542.346	4.21
542.691	4.16
543.036	4.15
543.381	4.28
543.726	4.25
544.071	4.39
544.415	4.34
544.76	4.27
545.105	4.29
545.449	4.32
545.794	4.4
546.138	4.5
546.483	4.42
546.827	4.4
547.171	4.43
547.516	4.51
547.86	4.26
548.204	4.3
548.548	4.51
548.892	4.53
549.236	4.5
549.58	4.38
549.924	4.44
550.268	4.54
550.612	4.63
550.956	4.4
551.3	4.5
551.643	4.45
551.987	4.42
552.33	4.44
552.674	4.51
553.017	4.62
553.361	4.39
553.704	4.31
554.048	4.45
554.391	4.48
554.734	4.46
555.077	4.5
555.42	4.53
555.764	4.46
556.107	4.5
556.45	4.43
556.793	4.63
557.135	4.73
557.478	4.64
557.821	4.48
558.164	4.56
558.507	4.49
558.849	4.51
559.192	4.58
559.534	4.5
559.877	4.67
560.219	4.65
560.562	4.72
560.904	4.59
561.246	4.59
561.589	4.56
561.931	4.68
562.273	4.5
562.615	4.44
562.957	4.45
563.299	4.6
563.641	4.54
563.983	4.52
564.325	4.41
564.667	4.47
565.008	4.56
565.35	4.76
565.692	4.55
566.033	4.75
566.375	4.29
566.716	4.63
567.058	4.51
567.399	4.58
567.741	4.59
568.082	4.61
568.423	4.56
568.764	4.69
569.105	4.61
569.447	4.57
569.788	4.62
570.129	4.51
570.47	4.6
570.811	4.59
571.151	4.73
571.492	4.84
571.833	4.56
572.174	4.58
572.514	4.57
572.855	4.68
573.195	4.42
573.536	4.42
573.876	4.55
574.217	4.67
574.557	4.63
574.898	4.44
575.238	4.57
575.578	4.61
575.918	4.56
576.258	4.6
576.598	4.6
576.938	4.54
577.278	4.67
577.618	4.53
577.958	4.76
578.298	4.68
578.638	4.63
578.977	4.74
579.317	4.62
579.657	4.45
579.996	4.53
580.336	4.58
580.675	4.51
581.014	4.53
581.354	4.79
581.693	4.59
582.032	4.53
582.372	4.7
582.711	4.57
583.05	4.76
583.389	4.91
583.728	4.68
584.067	4.69
584.406	4.89
584.745	4.77
585.083	4.93
585.422	4.44
585.761	4.88
586.1	4.95
586.438	4.56
586.777	4.69
587.115	4.81
587.454	4.63
587.792	4.66
588.13	4.87
588.469	4.6
588.807	4.87
589.145	5
589.483	4.6
589.821	4.83
590.159	4.64
590.497	4.35
590.835	4.74
591.173	4.66
591.511	4.91
591.849	4.72
592.187	4.83
592.524	4.75
592.862	4.72
593.2	4.76
593.537	4.53
593.875	4.6
594.212	4.71
594.55	4.62
594.887	5.01
595.224	4.61
595.561	4.79
595.899	4.69
596.236	4.92
596.573	4.51
596.91	4.74
597.247	4.7
597.584	4.88
597.921	4.91
598.258	4.68
598.594	4.37
598.931	4.61
599.268	4.58
599.604	4.9
599.941	4.57
600.277	4.78
600.614	4.71
600.95	4.89
601.287	4.81
601.623	4.99
601.959	4.7
602.296	5
602.632	4.91
602.968	4.87
603.304	4.57
603.64	4.85
603.976	4.93
604.312	4.86
604.648	4.93
604.984	4.74
605.319	4.65
605.655	4.72
605.991	4.93
606.326	4.56
606.662	4.56
606.998	4.83
607.333	4.79
607.668	4.86
608.004	4.61
608.339	4.69
608.674	4.85
609.01	4.97
609.345	5.13
609.68	4.58
610.015	4.94
610.35	4.83
610.685	4.81
611.02	4.94
611.355	4.62
611.689	4.66
612.024	4.9
612.359	4.76
612.694	4.9
613.028	5.12
613.363	4.72
613.697	4.94
614.032	5.05
614.366	4.84
614.7	5.34
615.035	4.71
615.369	4.99
615.703	5.07
616.037	4.93
616.371	4.79
616.705	4.86
617.039	5.06
617.373	4.94
617.707	4.94
618.041	5.06
618.375	4.88
618.709	4.9
619.042	4.89
619.376	4.8
619.71	4.69
620.043	4.89
620.377	5.14
620.71	5.03
621.043	4.66
621.377	4.74
621.71	4.92
622.043	5.13
622.376	4.67
622.709	5.01
623.043	4.83
623.376	5.1
623.709	4.86
624.041	4.78
624.374	4.92
624.707	4.63
625.04	5.07
625.373	4.77
625.705	5.21
626.038	4.98
626.37	5.01
626.703	4.64
627.035	5.22
627.368	4.82
627.7	5.14
628.032	4.94
628.365	4.85
628.697	4.68
629.029	5.29
629.361	5
629.693	5.08
630.025	4.93
630.357	4.72
630.689	5.14
631.021	5.1
631.353	5.18
631.684	5.13
632.016	4.69
632.348	4.9
632.679	4.82
633.011	4.96
633.342	4.85
633.674	4.99
634.005	5.06
634.336	5.09
634.668	5.14
634.999	4.99
635.33	4.85
635.661	5.08
635.992	4.86
636.323	4.88
636.654	4.84
636.985	4.87
637.316	5.25
637.647	5.05
637.977	4.76
638.308	4.99
638.639	4.73
638.969	4.97
639.3	4.62
639.63	5.01
639.961	4.92
640.291	5.3
640.622	5.28
640.952	5.28
641.282	4.54
641.612	4.64
641.943	4.87
642.273	5.23
642.603	4.96
642.933	4.95
643.263	5.35
643.592	5.09
643.922	5.63
644.252	5.16
644.582	4.79
644.911	4.45
645.241	4.89
645.571	4.66
645.9	5.05
646.23	4.54
646.559	4.83
646.888	4.7
647.218	4.98
647.547	5.03
647.876	5.18
648.205	4.65
648.534	4.68
648.863	5.59
649.192	4.7
649.521	4.93
649.85	5.31
650.179	4.4
650.508	5.04
650.837	5.05
651.165	4.61
651.494	4.47
651.822	5.2
652.151	5.47
652.479	5.43
652.808	4.67
653.136	4.76
653.465	5.12
653.793	5.44
654.121	5.22
654.449	4.91
654.777	4.83
655.105	5.51
655.433	5.31
655.761	4.88
656.089	5.3
656.417	4.9
656.745	5.72
657.073	5.71
657.4	5.53
657.728	4.95
658.056	5.3
658.383	5.18
658.711	4.64
659.038	5.51
659.365	4.7
659.693	5.29
660.02	5.18
660.347	5.49
660.674	5.05
661.001	4.82
661.329	4.98
661.656	4.79
661.982	5.04
662.309	4.99
662.636	5.24
662.963	5.38
663.29	4.94
663.616	5.1
663.943	5.46
664.27	5.34
664.596	5.31
664.923	5.61
665.249	5.32
665.576	4.87
665.902	4.93
666.228	5.28
666.554	5.12
666.881	5.41
667.207	5.14
667.533	5.41
667.859	4.65
668.185	5.91
668.511	5.28
668.837	4.52
669.162	5.56
669.488	5.04
669.814	5.35
670.139	5.6
670.465	5.18
670.791	5.37
671.116	5.05
671.442	4.8
671.767	5.35
672.092	5.54
672.418	5.4
672.743	4.93
673.068	4.41
673.393	5.26
673.718	4.99
674.043	4.89
674.368	5.61
674.693	5.51
675.018	5.27
675.343	5.13
675.667	5.09
675.992	4.43
676.317	5.04
676.641	4.79
676.966	5.45
677.29	5.03
677.615	5.45
677.939	4.95
678.264	4.56
678.588	5.64
678.912	5.11
679.236	5.08
679.56	4.62
679.885	5.08
680.209	4.65
680.532	5.33
680.856	5.06
681.18	5.18
681.504	4.88
681.828	4.79
682.152	4.99
682.475	5.57
682.799	5.5
683.122	4.98
683.446	4.97
683.769	5.17
684.093	5.45
684.416	5.2
684.739	5.29
685.062	4.98
685.386	4.8
685.709	4.52
686.032	5.11
686.355	4.84
686.678	5.12
687.001	4.3
687.324	5.23
687.646	4.75
687.969	5.28
688.292	5.78
688.614	5.78
688.937	4.94
689.26	4.81
689.582	4.96
689.904	4.88
690.227	5.07
690.549	5.22
690.871	5.73
691.194	5.8
691.516	5.17
691.838	5.26
692.16	4.94
692.482	5.27
692.804	4.78
