Data from 0065_crown_Reflection__0__244.txt Node

Date: Fri Dec 16 15:51:17 CST 2022
User: ToomeyLab
Spectrometer: FLMS14357
Trigger mode: 0
Integration Time (sec): 1.000000E-2
Scans to average: 100
Electric dark correction enabled: true
Nonlinearity correction enabled: false
Boxcar width: 0
XAxis mode: Wavelengths
Number of Pixels in Spectrum: 2048
>>>>>Begin Spectral Data<<<<<
189.047	179.23
189.435	179.23
189.823	179.23
190.211	178.15
190.599	176.88
190.987	101.2
191.375	-1.37
191.763	60.09
192.151	-585.47
192.538	10.19
192.926	302.98
193.314	121.23
193.702	16.6
194.089	63.12
194.477	-415.64
194.864	90.3
195.252	52.66
195.639	65.26
196.027	28.54
196.414	-4536.84
196.801	1833.62
197.189	269.75
197.576	5.44
197.963	257.04
198.351	36.19
198.738	-47.63
199.125	2.38
199.512	-57.95
199.899	-73.14
200.286	-67.51
200.673	-12.51
201.06	21.86
201.447	-12.79
201.833	-38.64
202.22	16.92
202.607	15.25
202.994	2.05
203.38	-81.15
203.767	-26.9
204.154	-51.79
204.54	23.02
204.927	14.36
205.313	-4.59
205.699	1.67
206.086	-49.57
206.472	4.02
206.858	4.02
207.245	3.26
207.631	-33.99
208.017	1.34
208.403	-26.26
208.789	-25.72
209.175	42.68
209.561	14.09
209.947	-12.37
210.333	3.44
210.719	-12.82
211.105	-33.83
211.491	1.13
211.876	-58.94
212.262	-38.13
212.648	-53.87
213.034	-12.78
213.419	-2.22
213.805	-0.61
214.19	11.32
214.576	-2.65
214.961	-25.81
215.346	-57.22
215.732	-17.22
216.117	-35.1
216.502	-24.69
216.888	-31.71
217.273	26.79
217.658	-51.69
218.043	16.42
218.428	-24.51
218.813	-6.46
219.198	-32.85
219.583	29.2
219.968	-19.08
220.353	-6.53
220.738	14.18
221.122	-5.24
221.507	-11.03
221.892	1.15
222.276	9.71
222.661	-4.5
223.046	2.8
223.43	-2.27
223.815	0.24
224.199	4.11
224.583	-6.75
224.968	-2.72
225.352	-6.82
225.736	0.55
226.121	-5.71
226.505	-1.88
226.889	3.11
227.273	2.96
227.657	1.22
228.041	1.33
228.425	5.34
228.809	2.04
229.193	0.48
229.577	3.4
229.961	4.07
230.344	4.34
230.728	4.47
231.112	4.05
231.495	1.87
231.879	3.56
232.263	1.85
232.646	3.58
233.03	2.24
233.413	0.4
233.797	4.25
234.18	0.57
234.563	5.2
234.946	2.7
235.33	4.87
235.713	4.58
236.096	4.15
236.479	5.26
236.862	3.55
237.245	4.36
237.628	4.47
238.011	4.58
238.394	4.99
238.777	2.46
239.16	1.39
239.543	2.12
239.925	4.25
240.308	3.22
240.691	1.29
241.073	3.97
241.456	1.88
241.838	2.99
242.221	3.84
242.603	3.16
242.986	4.3
243.368	3.85
243.75	3.72
244.133	3.97
244.515	4.04
244.897	3.42
245.279	3.32
245.661	3.68
246.043	3.73
246.425	2.83
246.807	3.56
247.189	3.2
247.571	3.65
247.953	3.82
248.335	3.89
248.717	3.69
249.098	3.82
249.48	3.8
249.862	3.58
250.243	3.65
250.625	3.52
251.006	3.85
251.388	3.39
251.769	3.35
252.151	3.07
252.532	4.11
252.913	3.69
253.295	3.83
253.676	3.9
254.057	3.11
254.438	4
254.819	2.95
255.2	3.77
255.581	2.79
255.962	2.73
256.343	3.5
256.724	3.91
257.105	2.94
257.486	3.92
257.867	1.77
258.247	3.44
258.628	3.96
259.009	3.9
259.389	3.77
259.77	3.34
260.15	4.16
260.531	3.58
260.911	3.53
261.292	3.32
261.672	3.57
262.052	3.48
262.432	3.12
262.813	2.9
263.193	3.07
263.573	3.47
263.953	3.35
264.333	3.05
264.713	3.17
265.093	3.37
265.473	3.34
265.853	3.27
266.233	2.96
266.612	3.12
266.992	2.77
267.372	3.46
267.752	2.57
268.131	3.36
268.511	2.88
268.89	3.27
269.27	3.08
269.649	3.33
270.029	2.7
270.408	2.9
270.787	2.97
271.167	3.53
271.546	2.84
271.925	2.76
272.304	3.2
272.683	3.17
273.062	3.65
273.441	3.57
273.82	3.49
274.199	3.41
274.578	2.88
274.957	3.2
275.336	3.12
275.715	3.23
276.093	3.87
276.472	3.5
276.851	2.95
277.229	3.62
277.608	2.74
277.986	3.04
278.365	2.57
278.743	3.14
279.122	2.63
279.5	2.96
279.878	2.72
280.257	3.37
280.635	2.51
281.013	3.17
281.391	2.79
281.769	2.68
282.147	3.12
282.525	2.91
282.903	2.99
283.281	2.94
283.659	3.16
284.037	3.17
284.415	3.13
284.792	3.24
285.17	2.97
285.548	2.82
285.925	2.87
286.303	2.74
286.68	3.35
287.058	2.94
287.435	2.65
287.813	3.21
288.19	3.43
288.567	2.85
288.945	2.88
289.322	2.87
289.699	3.32
290.076	3.19
290.453	2.81
290.83	3.25
291.207	3.01
291.584	2.99
291.961	3.26
292.338	3.11
292.715	3.29
293.092	3.15
293.469	3.67
293.845	3.35
294.222	3.16
294.599	3.71
294.975	3.13
295.352	2.77
295.728	3.07
296.105	2.72
296.481	3.01
296.858	2.93
297.234	3.11
297.61	3.51
297.986	3.1
298.363	2.67
298.739	3.48
299.115	2.95
299.491	3.15
299.867	3.46
300.243	3.54
300.619	3.18
300.995	2.97
301.371	3.17
301.746	3.12
302.122	3.13
302.498	2.99
302.874	3.31
303.249	3.6
303.625	2.93
304	2.92
304.376	3.2
304.751	2.84
305.127	3.09
305.502	3.35
305.878	3.05
306.253	3.11
306.628	3.27
307.003	3.39
307.378	3.17
307.754	3.5
308.129	2.98
308.504	3.16
308.879	3.28
309.254	3.77
309.629	3.43
310.003	3.32
310.378	3.74
310.753	3.27
311.128	3.51
311.502	3.41
311.877	3.47
312.252	3.23
312.626	3.2
313.001	3.1
313.375	3.5
313.75	3
314.124	3.72
314.498	3.06
314.873	3.33
315.247	3.33
315.621	3.35
315.995	2.9
316.369	3.41
316.743	3.79
317.117	3.36
317.491	3.14
317.865	3.08
318.239	3.53
318.613	3.33
318.987	3.91
319.361	3.47
319.734	3.46
320.108	3.2
320.482	3.52
320.855	3.85
321.229	3.29
321.602	3.37
321.976	3.53
322.349	2.66
322.723	3.04
323.096	3.11
323.469	2.94
323.843	2.92
324.216	2.6
324.589	3.85
324.962	3.62
325.335	3.36
325.708	3.43
326.081	3.91
326.454	3.65
326.827	3.81
327.2	3.99
327.573	3.81
327.945	3.74
328.318	3.69
328.691	3.27
329.063	3.42
329.436	3.61
329.809	3.3
330.181	3.57
330.553	3.36
330.926	3.44
331.298	3.17
331.671	3.33
332.043	3.61
332.415	3.93
332.787	3.95
333.159	3.36
333.532	3.75
333.904	3.44
334.276	3.41
334.648	3.35
335.02	3.14
335.391	3.3
335.763	3.75
336.135	3.85
336.507	3.77
336.879	3.72
337.25	3.7
337.622	3.69
337.993	3.31
338.365	4.15
338.736	3.52
339.108	3.15
339.479	3.62
339.851	3.99
340.222	3.74
340.593	3.75
340.964	3.58
341.336	2.76
341.707	3.52
342.078	3.08
342.449	3.61
342.82	3.34
343.191	3.4
343.562	3.52
343.933	3.81
344.303	3.84
344.674	3.57
345.045	3.98
345.416	3.96
345.786	3.5
346.157	3.54
346.527	3.39
346.898	3.65
347.268	3.65
347.639	3.47
348.009	3.95
348.38	4.01
348.75	3.47
349.12	4
349.49	3.64
349.861	3.89
350.231	3.86
350.601	3.47
350.971	3.66
351.341	3.81
351.711	3.63
352.081	3.44
352.45	3.57
352.82	3.84
353.19	3.5
353.56	3.63
353.929	3.33
354.299	3.49
354.669	3.47
355.038	3.65
355.408	3.96
355.777	3.74
356.147	3.83
356.516	3.7
356.885	3.36
357.254	3.89
357.624	3.94
357.993	3.77
358.362	3.87
358.731	3.66
359.1	4
359.469	4.06
359.838	3.85
360.207	3.52
360.576	3.6
360.945	3.67
361.314	3.71
361.682	3.57
362.051	3.49
362.42	4.17
362.788	3.84
363.157	3.56
363.525	3.64
363.894	3.37
364.262	3.69
364.631	4.21
364.999	3.48
365.367	3.9
365.735	3.45
366.104	3.57
366.472	3.58
366.84	3.75
367.208	3.8
367.576	3.49
367.944	3.77
368.312	3.35
368.68	3.97
369.048	3.92
369.416	3.6
369.783	3.68
370.151	3.86
370.519	3.7
370.886	3.4
371.254	3.88
371.621	3.8
371.989	3.92
372.356	3.65
372.724	4.22
373.091	3.77
373.458	3.94
373.826	3.47
374.193	4.19
374.56	3.63
374.927	3.52
375.294	4.22
375.661	3.95
376.028	3.72
376.395	3.88
376.762	4.07
377.129	3.88
377.496	3.81
377.863	3.84
378.229	3.54
378.596	3.81
378.963	3.89
379.329	3.69
379.696	3.74
380.062	4.04
380.429	3.69
380.795	3.8
381.161	3.92
381.528	3.46
381.894	3.83
382.26	3.61
382.626	3.68
382.993	3.73
383.359	3.72
383.725	4.05
384.091	3.61
384.457	3.77
384.823	3.78
385.188	3.97
385.554	4.02
385.92	4.27
386.286	4.05
386.651	3.88
387.017	4.04
387.383	3.96
387.748	4.09
388.114	3.98
388.479	4.05
388.845	4
389.21	3.95
389.575	4.07
389.94	3.94
390.306	4.07
390.671	3.97
391.036	4.09
391.401	4.26
391.766	3.95
392.131	3.98
392.496	4.02
392.861	3.75
393.226	4.05
393.591	3.9
393.956	4.06
394.32	3.8
394.685	4.02
395.05	3.78
395.414	3.91
395.779	3.86
396.143	4.12
396.508	4.08
396.872	4.21
397.236	3.71
397.601	4.07
397.965	3.89
398.329	4.04
398.694	4.05
399.058	3.83
399.422	3.98
399.786	4.14
400.15	3.96
400.514	3.95
400.878	3.75
401.242	4.02
401.605	3.94
401.969	4.08
402.333	4.02
402.697	4.23
403.06	4.22
403.424	3.93
403.787	4
404.151	3.84
404.514	4
404.878	4.2
405.241	4.11
405.604	4.03
405.968	4.13
406.331	3.92
406.694	4.11
407.057	4.24
407.42	4.05
407.783	3.73
408.146	3.98
408.509	4.06
408.872	4.03
409.235	4.28
409.598	4.23
409.961	4.27
410.323	4.03
410.686	3.86
411.049	4.05
411.411	4.13
411.774	3.92
412.136	4.21
412.499	3.9
412.861	3.87
413.223	3.99
413.586	3.77
413.948	4.17
414.31	4.14
414.672	4.16
415.035	4.22
415.397	4.03
415.759	4.14
416.121	4.33
416.483	4.23
416.845	4.13
417.206	4.24
417.568	4.16
417.93	3.98
418.292	4.17
418.653	4.08
419.015	4.11
419.377	4.17
419.738	4.01
420.1	4.07
420.461	4
420.822	4.15
421.184	4.04
421.545	4.14
421.906	4.07
422.267	3.95
422.629	4.01
422.99	4.05
423.351	4.17
423.712	4.09
424.073	4.23
424.434	4.04
424.795	3.98
425.155	4.04
425.516	4.07
425.877	4.1
426.238	4.07
426.598	4.17
426.959	4.11
427.32	4.31
427.68	4.22
428.041	4.1
428.401	4.08
428.761	4.14
429.122	3.95
429.482	4.05
429.842	4.16
430.202	4.11
430.563	4.36
430.923	4.22
431.283	4.13
431.643	4.16
432.003	4.17
432.363	4.25
432.722	4.25
433.082	4.12
433.442	4.13
433.802	4.12
434.161	4.15
434.521	4.05
434.881	4.19
435.24	4.06
435.6	4.23
435.959	4.17
436.319	4.13
436.678	4.33
437.037	4.25
437.396	4.23
437.756	4.17
438.115	4.17
438.474	4.25
438.833	4.26
439.192	4.22
439.551	4.28
439.91	4.39
440.269	4.31
440.628	4.23
440.987	4.11
441.345	4.16
441.704	4.15
442.063	4.15
442.421	4.18
442.78	4.16
443.138	4.15
443.497	4.12
443.855	4.18
444.214	4
444.572	4.14
444.93	4.26
445.288	4.22
445.647	4.19
446.005	4.09
446.363	4.17
446.721	4.11
447.079	4.23
447.437	4.1
447.795	4.25
448.153	4.15
448.51	4.2
448.868	4.39
449.226	4.22
449.584	4.25
449.941	4.32
450.299	4.23
450.656	4.38
451.014	4.23
451.371	4.3
451.729	4.25
452.086	4.17
452.443	4.3
452.801	4.3
453.158	4.3
453.515	4.18
453.872	4.4
454.229	4.23
454.586	4.18
454.943	4.21
455.3	4.46
455.657	4.08
456.014	4.34
456.371	4.39
456.727	4.27
457.084	4.23
457.441	4.32
457.797	4.31
458.154	4.22
458.51	4.39
458.867	4.19
459.223	4.37
459.58	4.34
459.936	4.36
460.292	4.34
460.648	4.13
461.005	4.2
461.361	4.24
461.717	4.21
462.073	4.39
462.429	4.36
462.785	4.29
463.141	4.45
463.496	4.32
463.852	4.46
464.208	4.53
464.564	4.26
464.919	4.37
465.275	4.36
465.631	4.25
465.986	4.4
466.342	4.29
466.697	4.35
467.052	4.46
467.408	4.44
467.763	4.22
468.118	4.25
468.473	4.58
468.829	4.35
469.184	4.49
469.539	4.37
469.894	4.36
470.249	4.35
470.603	4.44
470.958	4.34
471.313	4.4
471.668	4.51
472.023	4.57
472.377	4.34
472.732	4.4
473.086	4.22
473.441	4.51
473.795	4.48
474.15	4.52
474.504	4.41
474.859	4.44
475.213	4.38
475.567	4.32
475.921	4.55
476.275	4.49
476.63	4.5
476.984	4.38
477.338	4.59
477.692	4.42
478.045	4.3
478.399	4.57
478.753	4.44
479.107	4.42
479.461	4.36
479.814	4.38
480.168	4.4
480.521	4.48
480.875	4.64
481.228	4.52
481.582	4.47
481.935	4.37
482.289	4.26
482.642	4.45
482.995	4.41
483.348	4.36
483.701	4.41
484.055	4.27
484.408	4.27
484.761	4.15
485.114	4.13
485.466	4.12
485.819	4.16
486.172	4.3
486.525	4.34
486.878	4.35
487.23	4.4
487.583	4.36
487.936	4.39
488.288	4.28
488.641	4.21
488.993	4.21
489.345	4.21
489.698	4.3
490.05	4.37
490.402	4.33
490.754	4.47
491.107	4.47
491.459	4.48
491.811	4.54
492.163	4.47
492.515	4.38
492.866	4.22
493.218	4.27
493.57	4.37
493.922	4.33
494.274	4.43
494.625	4.42
494.977	4.49
495.328	4.55
495.68	4.71
496.031	4.59
496.383	4.47
496.734	4.64
497.086	4.38
497.437	4.55
497.788	4.38
498.139	4.5
498.49	4.59
498.842	4.47
499.193	4.51
499.544	4.57
499.894	4.56
500.245	4.59
500.596	4.57
500.947	4.63
501.298	4.6
501.648	4.6
501.999	4.68
502.35	4.69
502.7	4.68
503.051	4.68
503.401	4.73
503.752	4.6
504.102	4.57
504.452	4.46
504.803	4.41
505.153	4.57
505.503	4.58
505.853	4.51
506.203	4.68
506.553	4.61
506.903	4.48
507.253	4.62
507.603	4.57
507.953	4.52
508.303	4.55
508.652	4.48
509.002	4.66
509.352	4.55
509.701	4.47
510.051	4.59
510.4	4.51
510.75	4.57
511.099	4.47
511.449	4.72
511.798	4.64
512.147	4.43
512.496	4.72
512.846	4.53
513.195	4.58
513.544	4.61
513.893	4.61
514.242	4.59
514.591	4.56
514.939	4.57
515.288	4.59
515.637	4.6
515.986	4.71
516.334	4.67
516.683	4.63
517.032	4.62
517.38	4.65
517.729	4.52
518.077	4.59
518.426	4.51
518.774	4.65
519.122	4.5
519.47	4.53
519.819	4.58
520.167	4.55
520.515	4.57
520.863	4.64
521.211	4.57
521.559	4.68
521.907	4.64
522.255	4.63
522.602	4.69
522.95	4.65
523.298	4.58
523.645	4.61
523.993	4.73
524.341	4.86
524.688	4.67
525.036	4.63
525.383	4.71
525.73	4.76
526.078	4.68
526.425	4.62
526.772	4.46
527.119	4.58
527.466	4.56
527.814	4.56
528.161	4.61
528.508	4.59
528.854	4.5
529.201	4.53
529.548	4.42
529.895	4.35
530.242	4.34
530.588	4.42
530.935	4.48
531.282	4.54
531.628	4.56
531.975	4.59
532.321	4.66
532.667	4.63
533.014	4.65
533.36	4.59
533.706	4.61
534.052	4.51
534.399	4.54
534.745	4.48
535.091	4.5
535.437	4.53
535.783	4.64
536.129	4.7
536.474	4.76
536.82	4.63
537.166	4.69
537.512	4.78
537.857	4.64
538.203	4.55
538.549	4.67
538.894	4.65
539.239	4.78
539.585	4.81
539.93	4.72
540.276	4.68
540.621	4.69
540.966	4.77
541.311	4.76
541.656	4.72
542.001	4.68
542.346	4.53
542.691	4.49
543.036	4.47
543.381	4.56
543.726	4.56
544.071	4.72
544.415	4.65
544.76	4.59
545.105	4.69
545.449	4.68
545.794	4.64
546.138	4.76
546.483	4.76
546.827	4.66
547.171	4.71
547.516	4.77
547.86	4.75
548.204	4.62
548.548	4.77
548.892	4.77
549.236	4.8
549.58	4.81
549.924	4.74
550.268	4.9
550.612	4.84
550.956	4.78
551.3	4.71
551.643	4.78
551.987	4.77
552.33	4.81
552.674	4.75
553.017	4.88
553.361	4.72
553.704	4.75
554.048	4.88
554.391	4.74
554.734	4.81
555.077	4.76
555.42	4.82
555.764	4.97
556.107	4.93
556.45	4.8
556.793	4.91
557.135	5.13
557.478	4.94
557.821	4.98
558.164	4.88
558.507	4.82
558.849	4.69
559.192	4.92
559.534	4.79
559.877	4.71
560.219	5.01
560.562	4.87
560.904	4.95
561.246	4.95
561.589	4.89
561.931	5.04
562.273	4.85
562.615	4.93
562.957	4.89
563.299	4.89
563.641	4.99
563.983	4.87
564.325	4.78
564.667	4.89
565.008	4.69
565.35	4.98
565.692	5.13
566.033	4.9
566.375	4.73
566.716	4.94
567.058	4.96
567.399	4.97
567.741	5
568.082	4.71
568.423	4.85
568.764	4.93
569.105	4.97
569.447	4.85
569.788	4.8
570.129	4.93
570.47	4.96
570.811	4.83
571.151	4.82
571.492	5.19
571.833	4.99
572.174	4.92
572.514	4.88
572.855	5.04
573.195	4.86
573.536	5.03
573.876	4.96
574.217	4.94
574.557	5
574.898	4.88
575.238	4.93
575.578	4.91
575.918	4.89
576.258	4.97
576.598	4.95
576.938	5.11
577.278	4.84
577.618	4.93
577.958	4.85
578.298	4.99
578.638	5.04
578.977	5.06
579.317	5.18
579.657	4.9
579.996	4.87
580.336	5.12
580.675	5.15
581.014	5.04
581.354	5.03
581.693	4.88
582.032	5.04
582.372	5.25
582.711	4.87
583.05	5.09
583.389	5.15
583.728	5.11
584.067	5
584.406	5.1
584.745	4.94
585.083	5.35
585.422	5.2
585.761	5.22
586.1	5.18
586.438	4.89
586.777	5.16
587.115	5.18
587.454	5.17
587.792	4.91
588.13	5.33
588.469	5.43
588.807	5.26
589.145	5.27
589.483	4.9
589.821	5.03
590.159	5.04
590.497	4.93
590.835	5.36
591.173	5.24
591.511	5.05
591.849	5.26
592.187	5.19
592.524	5.07
592.862	5.28
593.2	5.12
593.537	5.11
593.875	5.3
594.212	5.01
594.55	5.35
594.887	5.43
595.224	5.13
595.561	5.1
595.899	5.16
596.236	5.2
596.573	5.03
596.91	4.95
597.247	5.01
597.584	5.2
597.921	5.15
598.258	5.15
598.594	4.97
598.931	5.12
599.268	5.15
599.604	5.16
599.941	5.09
600.277	5.36
600.614	5.34
600.95	5.5
601.287	5.33
601.623	5.51
601.959	5
602.296	5.29
602.632	5.43
602.968	5.18
603.304	5.18
603.64	4.98
603.976	5.32
604.312	5.43
604.648	5.31
604.984	5.39
605.319	5.3
605.655	5.19
605.991	5.14
606.326	5.1
606.662	5.19
606.998	5.19
607.333	5.3
607.668	5.38
608.004	5.12
608.339	5.12
608.674	5.45
609.01	5.35
609.345	5.37
609.68	4.97
610.015	5.31
610.35	5.21
610.685	5.25
611.02	5.41
611.355	5.37
611.689	5.06
612.024	5.48
612.359	5.37
612.694	5.33
613.028	5.52
613.363	5.15
613.697	5.36
614.032	5.24
614.366	5.14
614.7	5.95
615.035	5.09
615.369	5.6
615.703	5.77
616.037	5.44
616.371	5.28
616.705	5.23
617.039	5.55
617.373	5.26
617.707	5.15
618.041	5.43
618.375	5.22
618.709	5.33
619.042	5.46
619.376	5.27
619.71	5.29
620.043	5.26
620.377	5.71
620.71	5.48
621.043	5.06
621.377	5.08
621.71	5.66
622.043	5.67
622.376	5.33
622.709	5.73
623.043	5.53
623.376	5.78
623.709	5.59
624.041	5.22
624.374	5.22
624.707	5.49
625.04	5.83
625.373	5.44
625.705	5.37
626.038	5.47
626.37	5.38
626.703	5.53
627.035	5.55
627.368	5.68
627.7	5.5
628.032	5.48
628.365	5.63
628.697	5.22
629.029	5.58
629.361	5.48
629.693	5.54
630.025	5.36
630.357	5.48
630.689	5.63
631.021	5.24
631.353	5.69
631.684	5.34
632.016	5.73
632.348	5.61
632.679	5.41
633.011	5.48
633.342	5.62
633.674	5.25
634.005	5.81
634.336	5.36
634.668	5.46
634.999	5.66
635.33	5.46
635.661	5.66
635.992	5.38
636.323	5.5
636.654	5.69
636.985	5.51
637.316	5.41
637.647	5.93
637.977	5.6
638.308	5.53
638.639	5.52
638.969	5.51
639.3	5.88
639.63	5.74
639.961	5.63
640.291	5.89
640.622	5.93
640.952	5.84
641.282	5.05
641.612	5.46
641.943	5.91
642.273	5.49
642.603	5.93
642.933	5.82
643.263	5.79
643.592	5.44
643.922	6.04
644.252	5.8
644.582	5.46
644.911	5.38
645.241	5.51
645.571	5.42
645.9	5.8
646.23	5.41
646.559	5.44
646.888	5.6
647.218	6.08
647.547	5.85
647.876	5.84
648.205	5.63
648.534	5.56
648.863	6.05
649.192	5.63
649.521	5.28
649.85	6.2
650.179	5.18
650.508	5.81
650.837	5.56
651.165	5.77
651.494	5.67
651.822	5.56
652.151	6.1
652.479	6.23
652.808	5.53
653.136	5.61
653.465	6.2
653.793	6.14
654.121	5.75
654.449	5.4
654.777	5.74
655.105	6.08
655.433	5.94
655.761	5.82
656.089	6.19
656.417	5.59
656.745	6.03
657.073	6.36
657.4	6.02
657.728	5.72
658.056	5.86
658.383	6.18
658.711	5.88
659.038	6.51
659.365	5.62
659.693	6
660.02	5.8
660.347	5.81
660.674	6.16
661.001	5.68
661.329	5.74
661.656	5.77
661.982	6.07
662.309	5.8
662.636	5.62
662.963	6.11
663.29	5.83
663.616	5.75
663.943	6.2
664.27	6.18
664.596	6.05
664.923	6.56
665.249	6.38
665.576	5.85
665.902	6.3
666.228	5.54
666.554	6.05
666.881	6.23
667.207	6.16
667.533	6.27
667.859	5.98
668.185	5.85
668.511	5.61
668.837	5.41
669.162	5.85
669.488	6.13
669.814	6.04
670.139	6.78
670.465	5.72
670.791	6.35
671.116	5.88
671.442	5.82
671.767	6.13
672.092	6.61
672.418	6.45
672.743	5.54
673.068	5.99
673.393	6.29
673.718	5.97
674.043	6.22
674.368	6.42
674.693	6.57
675.018	5.9
675.343	6.27
675.667	6.05
675.992	5.85
676.317	6.28
676.641	6.27
676.966	6.13
677.29	6.74
677.615	6.45
677.939	6.24
678.264	5.53
678.588	6.88
678.912	6.1
679.236	6.79
679.56	6.39
679.885	6.9
680.209	5.39
680.532	6.08
680.856	6.57
681.18	6.25
681.504	6.31
681.828	6.22
682.152	6.22
682.475	6.36
682.799	6.68
683.122	5.9
683.446	6.27
683.769	6.8
684.093	6.65
684.416	6.33
684.739	6.54
685.062	6.92
685.386	6.2
685.709	6.78
686.032	6.25
686.355	5.44
686.678	6.26
687.001	5.67
687.324	5.57
687.646	6.36
687.969	6.53
688.292	7.04
688.614	6.65
688.937	6.45
689.26	5.82
689.582	6.3
689.904	6.42
690.227	6.37
690.549	6.11
690.871	6.38
691.194	6.44
691.516	6.22
691.838	6.1
692.16	6.27
692.482	6.37
