Data from 0065_crown_Reflection__4__248.txt Node

Date: Fri Dec 16 15:52:04 CST 2022
User: ToomeyLab
Spectrometer: FLMS14357
Trigger mode: 0
Integration Time (sec): 1.000000E-2
Scans to average: 100
Electric dark correction enabled: true
Nonlinearity correction enabled: false
Boxcar width: 0
XAxis mode: Wavelengths
Number of Pixels in Spectrum: 2048
>>>>>Begin Spectral Data<<<<<
189.047	248.62
189.435	248.62
189.823	248.62
190.211	-14.73
190.599	-47.99
190.987	-37.86
191.375	24.05
191.763	67.35
192.151	69.83
192.538	88.71
192.926	582.76
193.314	150.85
193.702	-174.64
194.089	123.27
194.477	-389.03
194.864	-54.4
195.252	67.05
195.639	101.19
196.027	-18.83
196.414	-10.53
196.801	128.12
197.189	154.86
197.576	68.44
197.963	248.29
198.351	-19.68
198.738	-110.71
199.125	40.51
199.512	-79.94
199.899	-120.67
200.286	-79.46
200.673	17.36
201.06	16.97
201.447	46.06
201.833	16.69
202.22	14.87
202.607	-13.66
202.994	3.08
203.38	-74.07
203.767	-44.46
204.154	-30.48
204.54	30.16
204.927	10.17
205.313	8.07
205.699	5.43
206.086	-55.24
206.472	-18.98
206.858	25.12
207.245	-16.96
207.631	-48.19
208.017	-22.64
208.403	5.41
208.789	-41.66
209.175	33.97
209.561	-61
209.947	-3.84
210.333	-29.72
210.719	-6.42
211.105	-15.71
211.491	8.05
211.876	-20.81
212.262	-40.26
212.648	-49.8
213.034	-6.04
213.419	11.32
213.805	-41.48
214.19	-39.56
214.576	-71.04
214.961	-53.38
215.346	-40.5
215.732	-62.53
216.117	6.8
216.502	-36.11
216.888	-51.14
217.273	-12.77
217.658	-25.54
218.043	-18.08
218.428	22.87
218.813	-23.7
219.198	-56.9
219.583	-15.04
219.968	-1.49
220.353	11.22
220.738	-23.49
221.122	-13.47
221.507	-13.49
221.892	-8.24
222.276	-1.81
222.661	-4.04
223.046	5.55
223.43	-3.83
223.815	9.87
224.199	5.62
224.583	-5.81
224.968	-3.37
225.352	-13.51
225.736	0.23
226.121	-6.46
226.505	-2.51
226.889	4.02
227.273	4.73
227.657	0.21
228.041	-3.68
228.425	-0.87
228.809	4.09
229.193	2.34
229.577	3.11
229.961	3.21
230.344	4
230.728	2.87
231.112	3.2
231.495	3.82
231.879	3.53
232.263	1.31
232.646	2.36
233.03	1.59
233.413	4.52
233.797	5.6
234.18	1.41
234.563	2.44
234.946	1.66
235.33	4.22
235.713	4.16
236.096	3.76
236.479	3.53
236.862	2.82
237.245	3.23
237.628	3.62
238.011	1.8
238.394	4.17
238.777	2.9
239.16	2.73
239.543	1.33
239.925	3.26
240.308	5.04
240.691	2.9
241.073	3.79
241.456	3.11
241.838	2.87
242.221	4.25
242.603	3.88
242.986	4.33
243.368	3.33
243.75	3.57
244.133	4.1
244.515	3.66
244.897	3.89
245.279	3.19
245.661	3.56
246.043	3.48
246.425	2.44
246.807	4.49
247.189	2.49
247.571	3.63
247.953	3.61
248.335	3.63
248.717	3.89
249.098	3.87
249.48	3.69
249.862	3.63
250.243	3.34
250.625	3.05
251.006	3.32
251.388	3.18
251.769	3
252.151	2.37
252.532	2.9
252.913	3.46
253.295	3.52
253.676	3.75
254.057	3.44
254.438	2.59
254.819	2.91
255.2	2.67
255.581	3.22
255.962	3.11
256.343	3.05
256.724	2.33
257.105	3.61
257.486	3.03
257.867	2.68
258.247	2.94
258.628	3.1
259.009	3.04
259.389	2.94
259.77	3.37
260.15	3.57
260.531	3.23
260.911	3.24
261.292	3.38
261.672	3.25
262.052	3.26
262.432	3.31
262.813	3.19
263.193	2.42
263.573	3.45
263.953	2.83
264.333	3.85
264.713	3.02
265.093	2.61
265.473	3.67
265.853	3.22
266.233	2.77
266.612	2.98
266.992	3.15
267.372	3.05
267.752	2.23
268.131	3.06
268.511	3.09
268.89	3.64
269.27	3.75
269.649	3.5
270.029	2.63
270.408	3.02
270.787	2.91
271.167	3.03
271.546	2.34
271.925	2.86
272.304	3.31
272.683	3.04
273.062	3.36
273.441	3.39
273.82	3.42
274.199	3.28
274.578	2.89
274.957	2.93
275.336	2.82
275.715	3.45
276.093	3.27
276.472	2.85
276.851	2.76
277.229	3.76
277.608	2.48
277.986	3.13
278.365	2.95
278.743	2.97
279.122	2.41
279.5	2.76
279.878	2.65
280.257	3.07
280.635	2.51
281.013	3.51
281.391	2.63
281.769	2.95
282.147	3.19
282.525	2.64
282.903	3.25
283.281	3.13
283.659	3.04
284.037	2.84
284.415	3.43
284.792	3.43
285.17	2.36
285.548	2.82
285.925	3.02
286.303	2.62
286.68	3.52
287.058	3.06
287.435	2.8
287.813	2.99
288.19	3.34
288.567	2.54
288.945	2.99
289.322	2.86
289.699	2.93
290.076	3.5
290.453	3.05
290.83	3.28
291.207	3.58
291.584	2.84
291.961	3.04
292.338	3.1
292.715	2.84
293.092	2.92
293.469	3.08
293.845	3.46
294.222	2.89
294.599	3.32
294.975	3.6
295.352	2.79
295.728	3.75
296.105	2.91
296.481	3.4
296.858	3.29
297.234	2.94
297.61	3.16
297.986	3.02
298.363	3.16
298.739	3.43
299.115	2.98
299.491	3.31
299.867	3.16
300.243	3.19
300.619	3.14
300.995	3.46
301.371	3.46
301.746	3.01
302.122	3.62
302.498	3.05
302.874	2.99
303.249	3.57
303.625	3.56
304	2.97
304.376	3.32
304.751	3.57
305.127	3.42
305.502	3.3
305.878	2.94
306.253	3.01
306.628	3.46
307.003	3.67
307.378	3.17
307.754	3.57
308.129	3.31
308.504	3.29
308.879	4.03
309.254	3.67
309.629	3.39
310.003	3.58
310.378	3.38
310.753	3.43
311.128	3.37
311.502	3.35
311.877	3.28
312.252	3.16
312.626	3.01
313.001	3.11
313.375	3.38
313.75	3.24
314.124	3.86
314.498	3.13
314.873	3.71
315.247	3.03
315.621	3.2
315.995	3.08
316.369	3.42
316.743	3.69
317.117	3.31
317.491	3.42
317.865	3.01
318.239	3.98
318.613	3.42
318.987	3.01
319.361	2.91
319.734	3.35
320.108	3.41
320.482	3.45
320.855	3.55
321.229	4.36
321.602	3.33
321.976	3.13
322.349	2.66
322.723	2.95
323.096	3.33
323.469	3.36
323.843	3.8
324.216	2.94
324.589	3.66
324.962	3.68
325.335	3.92
325.708	3.66
326.081	4.43
326.454	3.73
326.827	3.89
327.2	3.8
327.573	3.54
327.945	3.32
328.318	3.87
328.691	3.86
329.063	3.63
329.436	3.29
329.809	3.58
330.181	3.7
330.553	3.78
330.926	3.63
331.298	3.68
331.671	3.83
332.043	3.82
332.415	3.82
332.787	4.16
333.159	3.58
333.532	3.88
333.904	3.96
334.276	3.65
334.648	3.71
335.02	3.56
335.391	3.65
335.763	3.62
336.135	3.84
336.507	4.11
336.879	3.73
337.25	4.27
337.622	3.7
337.993	3.86
338.365	3.72
338.736	4.13
339.108	3.54
339.479	4
339.851	4.19
340.222	3.77
340.593	3.18
340.964	3.85
341.336	3.04
341.707	3.81
342.078	3.07
342.449	4.29
342.82	3.78
343.191	3.53
343.562	3.73
343.933	3.61
344.303	3.9
344.674	4.24
345.045	4.24
345.416	3.94
345.786	3.67
346.157	3.76
346.527	3.72
346.898	3.79
347.268	3.69
347.639	3.51
348.009	3.94
348.38	3.6
348.75	3.64
349.12	3.78
349.49	3.33
349.861	4.87
350.231	4.04
350.601	4.1
350.971	3.91
351.341	3.8
351.711	3.9
352.081	3.88
352.45	3.93
352.82	3.87
353.19	3.97
353.56	3.87
353.929	4.22
354.299	3.61
354.669	4.4
355.038	3.73
355.408	4.38
355.777	3.91
356.147	4.33
356.516	3.73
356.885	3.89
357.254	3.72
357.624	4.1
357.993	3.93
358.362	3.91
358.731	3.95
359.1	3.8
359.469	4.09
359.838	3.91
360.207	3.92
360.576	3.86
360.945	3.81
361.314	4.08
361.682	3.64
362.051	3.76
362.42	4.15
362.788	4.04
363.157	3.85
363.525	3.73
363.894	3.58
364.262	3.74
364.631	4.24
364.999	3.69
365.367	4.38
365.735	3.9
366.104	3.63
366.472	4.07
366.84	3.94
367.208	3.73
367.576	4.16
367.944	4.18
368.312	3.61
368.68	4.16
369.048	4.19
369.416	3.92
369.783	4.01
370.151	4.29
370.519	3.54
370.886	3.8
371.254	4.1
371.621	4.29
371.989	3.87
372.356	4.22
372.724	4.17
373.091	3.77
373.458	3.79
373.826	3.9
374.193	4.05
374.56	3.59
374.927	3.67
375.294	4.28
375.661	3.82
376.028	4
376.395	3.7
376.762	4.43
377.129	4.21
377.496	4.27
377.863	4.05
378.229	3.92
378.596	3.65
378.963	3.91
379.329	4.06
379.696	4.07
380.062	4.46
380.429	4.1
380.795	4.01
381.161	3.88
381.528	3.79
381.894	4.06
382.26	4
382.626	3.76
382.993	3.84
383.359	3.83
383.725	4.38
384.091	3.92
384.457	4.35
384.823	3.84
385.188	4.31
385.554	4.16
385.92	4.31
386.286	4.28
386.651	3.94
387.017	4.34
387.383	3.99
387.748	3.82
388.114	4.13
388.479	3.94
388.845	4.19
389.21	4.14
389.575	4.14
389.94	4.18
390.306	3.84
390.671	4.17
391.036	4.37
391.401	4.55
391.766	4.28
392.131	4.07
392.496	4.11
392.861	3.9
393.226	4.17
393.591	4.21
393.956	4.24
394.32	4
394.685	4.07
395.05	3.9
395.414	4.17
395.779	4.1
396.143	4.13
396.508	4.17
396.872	4.28
397.236	3.96
397.601	4.19
397.965	3.99
398.329	3.98
398.694	4.06
399.058	4.09
399.422	4.38
399.786	4.14
400.15	4.14
400.514	4.33
400.878	4.26
401.242	4.26
401.605	4.2
401.969	4.4
402.333	4.12
402.697	4.44
403.06	4.31
403.424	3.86
403.787	4.27
404.151	4.05
404.514	4.26
404.878	4.25
405.241	4.42
405.604	4.11
405.968	4.19
406.331	4.34
406.694	3.99
407.057	4.4
407.42	4.3
407.783	4.11
408.146	4.14
408.509	3.96
408.872	3.97
409.235	4.35
409.598	4.35
409.961	4.26
410.323	4.27
410.686	4.24
411.049	4.12
411.411	4.16
411.774	4.15
412.136	4.16
412.499	4.16
412.861	4.18
413.223	4.35
413.586	3.89
413.948	4.28
414.31	4.23
414.672	4.12
415.035	4.39
415.397	4.35
415.759	4.21
416.121	4.34
416.483	4.34
416.845	4.25
417.206	4.25
417.568	4.19
417.93	4.07
418.292	4.25
418.653	4.33
419.015	4.12
419.377	4.3
419.738	4.17
420.1	4.08
420.461	4.27
420.822	4.36
421.184	4.14
421.545	4.25
421.906	4.19
422.267	4.07
422.629	4.16
422.99	4.24
423.351	4.27
423.712	4.24
424.073	4.33
424.434	4.16
424.795	4.18
425.155	4.12
425.516	4.22
425.877	4.32
426.238	4.09
426.598	4.17
426.959	4.15
427.32	4.28
427.68	4.4
428.041	4.27
428.401	4.33
428.761	4.2
429.122	4.15
429.482	4.26
429.842	4.29
430.202	4.31
430.563	4.37
430.923	4.33
431.283	4.51
431.643	4.35
432.003	4.34
432.363	4.36
432.722	4.38
433.082	4.45
433.442	4.33
433.802	4.34
434.161	4.18
434.521	4.3
434.881	4.33
435.24	4.26
435.6	4.22
435.959	4.4
436.319	4.24
436.678	4.46
437.037	4.31
437.396	4.26
437.756	4.33
438.115	4.39
438.474	4.31
438.833	4.32
439.192	4.51
439.551	4.33
439.91	4.36
440.269	4.45
440.628	4.36
440.987	4.25
441.345	4.23
441.704	4.36
442.063	4.33
442.421	4.31
442.78	4.23
443.138	4.32
443.497	4.21
443.855	4.31
444.214	4.36
444.572	4.31
444.93	4.43
445.288	4.24
445.647	4.44
446.005	4.2
446.363	4.3
446.721	4.11
447.079	4.33
447.437	4.24
447.795	4.23
448.153	4.28
448.51	4.25
448.868	4.51
449.226	4.37
449.584	4.3
449.941	4.44
450.299	4.34
450.656	4.45
451.014	4.29
451.371	4.45
451.729	4.38
452.086	4.21
452.443	4.22
452.801	4.44
453.158	4.29
453.515	4.32
453.872	4.48
454.229	4.3
454.586	4.31
454.943	4.38
455.3	4.54
455.657	4.28
456.014	4.49
456.371	4.51
456.727	4.38
457.084	4.29
457.441	4.19
457.797	4.4
458.154	4.53
458.51	4.25
458.867	4.37
459.223	4.35
459.58	4.35
459.936	4.24
460.292	4.34
460.648	4.26
461.005	4.27
461.361	4.3
461.717	4.38
462.073	4.31
462.429	4.33
462.785	4.3
463.141	4.44
463.496	4.4
463.852	4.5
464.208	4.48
464.564	4.35
464.919	4.4
465.275	4.44
465.631	4.31
465.986	4.14
466.342	4.36
466.697	4.39
467.052	4.37
467.408	4.39
467.763	4.29
468.118	4.37
468.473	4.61
468.829	4.42
469.184	4.61
469.539	4.42
469.894	4.42
470.249	4.53
470.603	4.43
470.958	4.47
471.313	4.45
471.668	4.59
472.023	4.56
472.377	4.42
472.732	4.4
473.086	4.21
473.441	4.57
473.795	4.55
474.15	4.39
474.504	4.58
474.859	4.42
475.213	4.28
475.567	4.33
475.921	4.5
476.275	4.59
476.63	4.39
476.984	4.46
477.338	4.61
477.692	4.51
478.045	4.44
478.399	4.66
478.753	4.35
479.107	4.4
479.461	4.49
479.814	4.49
480.168	4.49
480.521	4.39
480.875	4.66
481.228	4.58
481.582	4.3
481.935	4.52
482.289	4.24
482.642	4.48
482.995	4.43
483.348	4.52
483.701	4.29
484.055	4.32
484.408	4.33
484.761	4.16
485.114	4.11
485.466	4.13
485.819	4.22
486.172	4.31
486.525	4.41
486.878	4.41
487.23	4.41
487.583	4.42
487.936	4.35
488.288	4.31
488.641	4.22
488.993	4.23
489.345	4.24
489.698	4.34
490.05	4.33
490.402	4.49
490.754	4.54
491.107	4.46
491.459	4.54
491.811	4.58
492.163	4.4
492.515	4.33
492.866	4.23
493.218	4.27
493.57	4.39
493.922	4.38
494.274	4.47
494.625	4.52
494.977	4.49
495.328	4.59
495.68	4.72
496.031	4.58
496.383	4.56
496.734	4.56
497.086	4.46
497.437	4.66
497.788	4.43
498.139	4.47
498.49	4.55
498.842	4.46
499.193	4.53
499.544	4.61
499.894	4.6
500.245	4.51
500.596	4.5
500.947	4.63
501.298	4.46
501.648	4.5
501.999	4.69
502.35	4.6
502.7	4.59
503.051	4.82
503.401	4.59
503.752	4.56
504.102	4.57
504.452	4.46
504.803	4.43
505.153	4.57
505.503	4.5
505.853	4.45
506.203	4.69
506.553	4.59
506.903	4.59
507.253	4.54
507.603	4.54
507.953	4.68
508.303	4.58
508.652	4.58
509.002	4.56
509.352	4.6
509.701	4.48
510.051	4.56
510.4	4.58
510.75	4.59
511.099	4.47
511.449	4.57
511.798	4.65
512.147	4.54
512.496	4.58
512.846	4.65
513.195	4.57
513.544	4.57
513.893	4.54
514.242	4.7
514.591	4.68
514.939	4.64
515.288	4.59
515.637	4.64
515.986	4.54
516.334	4.67
516.683	4.71
517.032	4.57
517.38	4.62
517.729	4.59
518.077	4.63
518.426	4.55
518.774	4.56
519.122	4.53
519.47	4.57
519.819	4.6
520.167	4.6
520.515	4.54
520.863	4.55
521.211	4.57
521.559	4.61
521.907	4.58
522.255	4.67
522.602	4.68
522.95	4.79
523.298	4.67
523.645	4.65
523.993	4.68
524.341	4.64
524.688	4.62
525.036	4.67
525.383	4.66
525.73	4.66
526.078	4.63
526.425	4.53
526.772	4.48
527.119	4.55
527.466	4.55
527.814	4.49
528.161	4.63
528.508	4.59
528.854	4.53
529.201	4.46
529.548	4.42
529.895	4.37
530.242	4.38
530.588	4.44
530.935	4.54
531.282	4.58
531.628	4.62
531.975	4.63
532.321	4.6
532.667	4.65
533.014	4.66
533.36	4.62
533.706	4.57
534.052	4.53
534.399	4.53
534.745	4.41
535.091	4.49
535.437	4.61
535.783	4.63
536.129	4.65
536.474	4.79
536.82	4.68
537.166	4.63
537.512	4.61
537.857	4.57
538.203	4.65
538.549	4.67
538.894	4.75
539.239	4.79
539.585	4.89
539.93	4.82
540.276	4.7
540.621	4.71
540.966	4.79
541.311	4.82
541.656	4.65
542.001	4.63
542.346	4.64
542.691	4.44
543.036	4.47
543.381	4.59
543.726	4.63
544.071	4.67
544.415	4.72
544.76	4.57
545.105	4.63
545.449	4.69
545.794	4.68
546.138	4.76
546.483	4.84
546.827	4.66
547.171	4.67
547.516	4.74
547.86	4.75
548.204	4.76
548.548	4.86
548.892	4.84
549.236	4.81
549.58	4.87
549.924	4.72
550.268	4.96
550.612	4.69
550.956	4.73
551.3	4.79
551.643	4.73
551.987	4.81
552.33	4.58
552.674	4.8
553.017	4.77
553.361	4.79
553.704	4.67
554.048	4.71
554.391	4.7
554.734	4.83
555.077	4.84
555.42	4.83
555.764	4.7
556.107	4.89
556.45	4.93
556.793	5.03
557.135	4.9
557.478	4.9
557.821	4.8
558.164	4.91
558.507	4.63
558.849	4.92
559.192	4.93
559.534	4.73
559.877	4.95
560.219	5.07
560.562	4.97
560.904	4.89
561.246	4.81
561.589	4.85
561.931	5.11
562.273	4.91
562.615	4.88
562.957	4.78
563.299	4.93
563.641	4.82
563.983	4.87
564.325	4.8
564.667	4.89
565.008	4.83
565.35	5.03
565.692	4.94
566.033	5.2
566.375	4.71
566.716	4.93
567.058	4.87
567.399	4.89
567.741	4.92
568.082	4.8
568.423	4.85
568.764	5.03
569.105	5.11
569.447	4.99
569.788	4.91
570.129	4.94
570.47	4.93
570.811	4.96
571.151	4.71
571.492	5.1
571.833	4.93
572.174	5.04
572.514	4.86
572.855	4.96
573.195	4.88
573.536	5.01
573.876	4.94
574.217	4.96
574.557	5.01
574.898	4.79
575.238	4.93
575.578	5.02
575.918	5.16
576.258	4.96
576.598	4.88
576.938	5.11
577.278	4.91
577.618	4.83
577.958	4.93
578.298	5.04
578.638	4.89
578.977	5.09
579.317	5.07
579.657	5.03
579.996	4.93
580.336	5.02
580.675	5.03
581.014	4.92
581.354	5.08
581.693	4.92
582.032	4.84
582.372	5.31
582.711	4.97
583.05	5.27
583.389	5.18
583.728	4.93
584.067	5.06
584.406	5.16
584.745	4.89
585.083	5.33
585.422	5.16
585.761	5.23
586.1	5.38
586.438	5.23
586.777	5.06
587.115	5.24
587.454	5.02
587.792	5.16
588.13	5.38
588.469	5.45
588.807	5.15
589.145	5.33
589.483	4.84
589.821	5.35
590.159	4.92
590.497	5.05
590.835	5.32
591.173	5.43
591.511	5.25
591.849	5.42
592.187	5.12
592.524	5.18
592.862	5.1
593.2	5.23
593.537	5.18
593.875	5.2
594.212	5.2
594.55	5.12
594.887	5.11
595.224	5.14
595.561	5.33
595.899	5.05
596.236	5.18
596.573	5.06
596.91	5.27
597.247	5.05
597.584	5.3
597.921	5.26
598.258	5.15
598.594	5.09
598.931	4.99
599.268	5.13
599.604	5.39
599.941	5.06
600.277	5.3
600.614	5.22
600.95	5.3
601.287	5.1
601.623	5.28
601.959	5.21
602.296	5.58
602.632	5.6
602.968	5.48
603.304	5.35
603.64	5.22
603.976	5
604.312	5.46
604.648	5.35
604.984	5.28
605.319	5.09
605.655	5.26
605.991	5.27
606.326	5.2
606.662	5.08
606.998	5.33
607.333	5.22
607.668	5.34
608.004	5.1
608.339	5.27
608.674	5.04
609.01	5.38
609.345	5.36
609.68	4.94
610.015	5.4
610.35	5.19
610.685	5.16
611.02	5.47
611.355	5.5
611.689	5.2
612.024	5.62
612.359	5.4
612.694	5.38
613.028	5.58
613.363	5.39
613.697	5.27
614.032	5.59
614.366	5.18
614.7	5.62
615.035	5.38
615.369	5.46
615.703	5.62
616.037	5.27
616.371	5.3
616.705	5.13
617.039	5.87
617.373	5.41
617.707	5.26
618.041	5.37
618.375	5.19
618.709	5.26
619.042	5.25
619.376	5.43
619.71	5.29
620.043	5.27
620.377	5.25
620.71	5.34
621.043	5.26
621.377	5.55
621.71	5.26
622.043	5.49
622.376	5.33
622.709	5.62
623.043	5.06
623.376	5.43
623.709	5.84
624.041	5.47
624.374	5.06
624.707	5.24
625.04	5.67
625.373	5.29
625.705	5.57
626.038	5.59
626.37	5.89
626.703	5.33
627.035	5.6
627.368	5.62
627.7	5.58
628.032	5.52
628.365	5.41
628.697	5.29
629.029	5.84
629.361	5.32
629.693	5.57
630.025	5.58
630.357	5.33
630.689	5.51
631.021	5.59
631.353	5.7
631.684	5.76
632.016	5.4
632.348	5.67
632.679	5.04
633.011	5.58
633.342	5.9
633.674	5.49
634.005	5.8
634.336	5.54
634.668	5.37
634.999	5.91
635.33	5.49
635.661	5.6
635.992	5.44
636.323	5.7
636.654	5.67
636.985	5.73
637.316	5.98
637.647	5.38
637.977	5.76
638.308	5.66
638.639	5.48
638.969	5.37
639.3	5.54
639.63	5.78
639.961	5.77
640.291	5.81
640.622	5.25
640.952	5.51
641.282	5.53
641.612	5.52
641.943	5.91
642.273	5.39
642.603	5.6
642.933	5.42
643.263	6.21
643.592	5.48
643.922	6.17
644.252	5.87
644.582	5.71
644.911	5.71
645.241	5.68
645.571	5.43
645.9	6.24
646.23	5.45
646.559	5.68
646.888	5.12
647.218	6.21
647.547	6.18
647.876	5.87
648.205	5.62
648.534	5.42
648.863	6.28
649.192	5.59
649.521	5.36
649.85	6.17
650.179	5.33
650.508	6.07
650.837	5.73
651.165	5.97
651.494	5.51
651.822	5.76
652.151	6.32
652.479	6.1
652.808	5.46
653.136	5.75
653.465	6.27
653.793	5.83
654.121	5.94
654.449	5.74
654.777	5.56
655.105	6.15
655.433	5.94
655.761	5.86
656.089	5.92
656.417	5.51
656.745	6.29
657.073	5.79
657.4	6
657.728	5.54
658.056	5.86
658.383	6.37
658.711	5.65
659.038	6.23
659.365	6.2
659.693	5.72
660.02	5.64
660.347	5.96
660.674	5.62
661.001	5.76
661.329	5.83
661.656	6.11
661.982	6.17
662.309	6.12
662.636	6.04
662.963	6.27
663.29	5.68
663.616	5.97
663.943	6.09
664.27	5.75
664.596	5.99
664.923	6.36
665.249	5.49
665.576	5.53
665.902	5.91
666.228	5.6
666.554	5.87
666.881	6.22
667.207	5.84
667.533	6.29
667.859	6.21
668.185	6.02
668.511	6.1
668.837	5.63
669.162	6.27
669.488	5.62
669.814	6.6
670.139	7.02
670.465	6.05
670.791	6.34
671.116	5.59
671.442	6.08
671.767	6.12
672.092	6.29
672.418	6.02
672.743	5.64
673.068	5.64
673.393	6.52
673.718	5.72
674.043	5.79
674.368	6.56
674.693	6.5
675.018	6.12
675.343	6.05
675.667	5.98
675.992	5.79
676.317	6.48
676.641	6.21
676.966	6.08
677.29	6.2
677.615	5.61
677.939	6.15
678.264	6.37
678.588	6.11
678.912	6.5
679.236	6.62
679.56	6.05
679.885	6.02
680.209	5.93
680.532	6.53
680.856	6.02
681.18	6.05
681.504	5.72
681.828	5.91
682.152	6.07
682.475	6.43
682.799	6.65
683.122	6.25
683.446	6.3
683.769	6.07
684.093	6.87
684.416	6.25
684.739	6.4
685.062	6.43
685.386	6.13
685.709	5.95
686.032	5.8
686.355	6.45
686.678	5.46
687.001	5.53
687.324	5.7
687.646	6.27
687.969	5.86
688.292	7.19
688.614	6.89
688.937	6.58
689.26	6.03
689.582	5.72
689.904	6.46
690.227	5.97
690.549	6.39
690.871	6
691.194	6.46
691.516	6.37
