Data from 0065_forehead_Reflection__1__250.txt Node

Date: Fri Dec 16 15:52:51 CST 2022
User: ToomeyLab
Spectrometer: FLMS14357
Trigger mode: 0
Integration Time (sec): 1.000000E-2
Scans to average: 100
Electric dark correction enabled: true
Nonlinearity correction enabled: false
Boxcar width: 0
XAxis mode: Wavelengths
Number of Pixels in Spectrum: 2048
>>>>>Begin Spectral Data<<<<<
189.047	376.35
189.435	376.35
189.823	376.35
190.211	-52.54
190.599	175.48
190.987	129.9
191.375	54.76
191.763	32.26
192.151	952.61
192.538	129.21
192.926	-136.35
193.314	102.73
193.702	-40.84
194.089	116.56
194.477	-235.47
194.864	73.7
195.252	-221.93
195.639	17.51
196.027	-23.59
196.414	-15554.39
196.801	1028.99
197.189	210.09
197.576	-36.47
197.963	23.97
198.351	58.71
198.738	9.86
199.125	48.84
199.512	26.96
199.899	-5.46
200.286	-92.05
200.673	112.45
201.06	47.95
201.447	53.47
201.833	-16.27
202.22	25.03
202.607	18.09
202.994	27.31
203.38	-3.38
203.767	-1.13
204.154	-13.06
204.54	57.53
204.927	5.3
205.313	34.93
205.699	51.23
206.086	23.98
206.472	7
206.858	30.7
207.245	14.6
207.631	38.66
208.017	100.37
208.403	36.37
208.789	28.92
209.175	37.57
209.561	36.72
209.947	15.39
210.333	42.41
210.719	-2.67
211.105	44.23
211.491	11.73
211.876	29.28
212.262	-19.51
212.648	-12.99
213.034	30.9
213.419	8.43
213.805	-4.96
214.19	20.38
214.576	2.42
214.961	20.45
215.346	-22.93
215.732	8.33
216.117	9.67
216.502	-6.71
216.888	-21.73
217.273	15.35
217.658	26.49
218.043	4.02
218.428	16.01
218.813	10.55
219.198	-31.55
219.583	35.93
219.968	-8.5
220.353	14.91
220.738	3.34
221.122	17.72
221.507	4.03
221.892	22.12
222.276	8.07
222.661	0.05
223.046	-0.21
223.43	-8.96
223.815	20.91
224.199	7
224.583	7.37
224.968	12.53
225.352	1.33
225.736	18.54
226.121	-2.94
226.505	12.99
226.889	8.85
227.273	7.79
227.657	4.12
228.041	3.46
228.425	2.64
228.809	5.04
229.193	1.51
229.577	2.12
229.961	2.51
230.344	3.22
230.728	2.61
231.112	1.87
231.495	2.24
231.879	2.97
232.263	2.4
232.646	2.1
233.03	0.48
233.413	2.04
233.797	6.94
234.18	1.96
234.563	2.8
234.946	3.68
235.33	4.17
235.713	1.84
236.096	3.36
236.479	4.14
236.862	3.78
237.245	4.26
237.628	5.72
238.011	2.66
238.394	4.24
238.777	2.68
239.16	-0.39
239.543	4.03
239.925	4.41
240.308	3.46
240.691	1.93
241.073	2.87
241.456	1.07
241.838	2.21
242.221	2.56
242.603	2.91
242.986	3.29
243.368	2.56
243.75	2.56
244.133	2.4
244.515	2.31
244.897	1.91
245.279	2.31
245.661	2.88
246.043	2.77
246.425	1.87
246.807	2.34
247.189	2.17
247.571	2.02
247.953	2.64
248.335	2.69
248.717	2.43
249.098	2.65
249.48	2.11
249.862	2.49
250.243	2.44
250.625	2.76
251.006	3.46
251.388	2.68
251.769	3.03
252.151	3.72
252.532	3.06
252.913	3.13
253.295	2.7
253.676	3.04
254.057	2.59
254.438	2.67
254.819	3.19
255.2	2.64
255.581	3
255.962	2.28
256.343	3.97
256.724	1.99
257.105	2.06
257.486	2.5
257.867	0.73
258.247	3.7
258.628	3.73
259.009	2.92
259.389	3.28
259.77	2.28
260.15	2.81
260.531	2.94
260.911	2.44
261.292	2.45
261.672	2.41
262.052	2.39
262.432	2.46
262.813	2.86
263.193	2.35
263.573	2.69
263.953	2.58
264.333	2.65
264.713	3.39
265.093	2.82
265.473	3.27
265.853	2.48
266.233	2.64
266.612	2.94
266.992	2.1
267.372	2.7
267.752	2.95
268.131	2.86
268.511	3.13
268.89	2.57
269.27	2.84
269.649	2.89
270.029	2.31
270.408	2.19
270.787	2.6
271.167	2.95
271.546	1.86
271.925	2.35
272.304	2.77
272.683	2.5
273.062	3.02
273.441	2.98
273.82	2.55
274.199	2.69
274.578	2.14
274.957	2.39
275.336	2.8
275.715	2.87
276.093	3.08
276.472	2.75
276.851	2.34
277.229	2.86
277.608	2.29
277.986	2.36
278.365	2.5
278.743	2.84
279.122	2.6
279.5	2.33
279.878	1.79
280.257	2.9
280.635	2.3
281.013	3.13
281.391	2.87
281.769	3.24
282.147	2.35
282.525	3.14
282.903	3
283.281	2.57
283.659	2.81
284.037	2.59
284.415	2.62
284.792	2.95
285.17	2.5
285.548	2.75
285.925	2.4
286.303	2.55
286.68	2.58
287.058	2.31
287.435	2.21
287.813	2.39
288.19	2.82
288.567	2.22
288.945	2.39
289.322	3.01
289.699	2.73
290.076	3.14
290.453	2.86
290.83	2.89
291.207	2.86
291.584	2.46
291.961	2.92
292.338	2.78
292.715	3.11
293.092	2.92
293.469	3.32
293.845	3.54
294.222	3.15
294.599	3.71
294.975	3.74
295.352	2.59
295.728	2.94
296.105	3.27
296.481	3.67
296.858	3.31
297.234	3.17
297.61	3.38
297.986	3.3
298.363	2.91
298.739	3.69
299.115	3.27
299.491	4.07
299.867	3.46
300.243	3.62
300.619	3.34
300.995	3.88
301.371	4.05
301.746	3.42
302.122	3.7
302.498	3.82
302.874	4.14
303.249	4.13
303.625	3.91
304	3.73
304.376	3.55
304.751	3.87
305.127	4.42
305.502	4.51
305.878	4.08
306.253	3.91
306.628	4.35
307.003	4.35
307.378	4.4
307.754	4.01
308.129	4.01
308.504	4.3
308.879	4.61
309.254	4.79
309.629	4.71
310.003	5.51
310.378	5.1
310.753	5.1
311.128	5.09
311.502	4.73
311.877	5.13
312.252	5.16
312.626	4.74
313.001	5.15
313.375	5.28
313.75	5.07
314.124	6.05
314.498	5.62
314.873	5.37
315.247	5.71
315.621	6.03
315.995	6.03
316.369	5.94
316.743	6.14
317.117	6.29
317.491	6.47
317.865	5.85
318.239	6.5
318.613	6.53
318.987	6.4
319.361	6.28
319.734	6.54
320.108	6.99
320.482	6.47
320.855	7.2
321.229	8.12
321.602	7.26
321.976	7.05
322.349	6.8
322.723	7.07
323.096	7.37
323.469	6.96
323.843	7.65
324.216	7.15
324.589	8.28
324.962	7.59
325.335	7.58
325.708	8.07
326.081	8.44
326.454	7.73
326.827	8.03
327.2	8.44
327.573	8.35
327.945	8.34
328.318	9.04
328.691	8.49
329.063	8.38
329.436	8.17
329.809	7.73
330.181	9.01
330.553	9.06
330.926	8.86
331.298	8.59
331.671	9.16
332.043	8.82
332.415	9.94
332.787	9.84
333.159	9.32
333.532	8.99
333.904	9.28
334.276	9.15
334.648	9.43
335.02	9.42
335.391	9.85
335.763	9.08
336.135	9.76
336.507	9.43
336.879	9.9
337.25	10.16
337.622	9.66
337.993	9.6
338.365	10.15
338.736	10.07
339.108	10.13
339.479	9.8
339.851	10.49
340.222	10.04
340.593	10.07
340.964	10.58
341.336	10.18
341.707	10.38
342.078	10.28
342.449	10.84
342.82	10.51
343.191	10.32
343.562	10.63
343.933	10.86
344.303	10.84
344.674	10.75
345.045	11.13
345.416	10.95
345.786	10.73
346.157	10.77
346.527	10.89
346.898	11.09
347.268	10.84
347.639	11.14
348.009	11.29
348.38	11.46
348.75	11.26
349.12	11.51
349.49	11.28
349.861	12
350.231	12.26
350.601	11.77
350.971	11.95
351.341	12.26
351.711	11.75
352.081	11.83
352.45	12.03
352.82	12.22
353.19	11.64
353.56	12.09
353.929	12.64
354.299	12.16
354.669	12.69
355.038	12.51
355.408	12.38
355.777	12.15
356.147	13.08
356.516	12.86
356.885	12.41
357.254	12.89
357.624	12.73
357.993	12.67
358.362	12.72
358.731	12.9
359.1	13.18
359.469	13.06
359.838	12.9
360.207	13.08
360.576	13.12
360.945	13.29
361.314	13.53
361.682	13.16
362.051	13.02
362.42	13.69
362.788	13.34
363.157	13.41
363.525	13.2
363.894	13.43
364.262	13.63
364.631	14.08
364.999	13.46
365.367	13.85
365.735	13.71
366.104	13.98
366.472	14.39
366.84	13.83
367.208	13.79
367.576	14.31
367.944	14.65
368.312	14.35
368.68	14.64
369.048	14.49
369.416	14.5
369.783	14.71
370.151	14.64
370.519	14.27
370.886	14.73
371.254	14.91
371.621	14.88
371.989	14.93
372.356	14.89
372.724	15.03
373.091	14.81
373.458	15.17
373.826	15.21
374.193	15.74
374.56	15.4
374.927	15.6
375.294	16.19
375.661	15.64
376.028	16.16
376.395	15.75
376.762	16.22
377.129	16.01
377.496	16.08
377.863	15.82
378.229	16.06
378.596	16.12
378.963	16.25
379.329	15.96
379.696	16.27
380.062	16.31
380.429	16.31
380.795	16.26
381.161	16.49
381.528	16.41
381.894	16.91
382.26	16.62
382.626	16.5
382.993	16.76
383.359	16.37
383.725	17.08
384.091	17.18
384.457	17.24
384.823	17.2
385.188	17.27
385.554	17.62
385.92	17.18
386.286	17.61
386.651	16.93
387.017	17.73
387.383	17.56
387.748	17.34
388.114	17.82
388.479	18.01
388.845	17.7
389.21	17.97
389.575	17.7
389.94	18.15
390.306	18.06
390.671	18.19
391.036	18.18
391.401	18.32
391.766	18.17
392.131	18.51
392.496	18.33
392.861	18.27
393.226	18.44
393.591	18.17
393.956	18.37
394.32	18.45
394.685	18.89
395.05	18.81
395.414	18.86
395.779	18.9
396.143	19.13
396.508	19.13
396.872	19.24
397.236	18.9
397.601	19.46
397.965	19.13
398.329	19.48
398.694	19.16
399.058	19.48
399.422	19.44
399.786	19.78
400.15	19.84
400.514	19.69
400.878	19.54
401.242	19.85
401.605	19.84
401.969	19.94
402.333	20.12
402.697	20.25
403.06	20.33
403.424	20.37
403.787	20.49
404.151	20.07
404.514	20.42
404.878	20.61
405.241	20.57
405.604	20.48
405.968	20.53
406.331	20.61
406.694	20.94
407.057	20.8
407.42	20.9
407.783	20.96
408.146	20.96
408.509	21.05
408.872	20.97
409.235	21.24
409.598	21.39
409.961	21.07
410.323	21.31
410.686	21.54
411.049	21.41
411.411	21.62
411.774	21.53
412.136	21.73
412.499	21.63
412.861	21.75
413.223	21.81
413.586	21.88
413.948	21.92
414.31	22.12
414.672	22.14
415.035	22.23
415.397	22.43
415.759	22.15
416.121	22.37
416.483	22.26
416.845	22.06
417.206	22.3
417.568	22.51
417.93	22.37
418.292	22.51
418.653	22.4
419.015	22.55
419.377	22.52
419.738	22.52
420.1	22.37
420.461	22.41
420.822	22.59
421.184	22.49
421.545	22.52
421.906	22.62
422.267	22.5
422.629	22.48
422.99	22.59
423.351	22.71
423.712	22.91
424.073	22.98
424.434	22.99
424.795	22.94
425.155	23.06
425.516	22.98
425.877	22.95
426.238	23.09
426.598	23.32
426.959	23.2
427.32	23.56
427.68	23.75
428.041	23.68
428.401	23.69
428.761	23.78
429.122	23.88
429.482	23.99
429.842	24.27
430.202	24.23
430.563	24.36
430.923	24.34
431.283	24.51
431.643	24.54
432.003	24.58
432.363	24.36
432.722	24.52
433.082	24.38
433.442	24.79
433.802	24.89
434.161	24.69
434.521	24.7
434.881	24.93
435.24	24.61
435.6	24.73
435.959	24.88
436.319	24.88
436.678	25
437.037	25.29
437.396	25.37
437.756	25.31
438.115	25.34
438.474	25.67
438.833	25.4
439.192	25.36
439.551	25.49
439.91	25.67
440.269	25.56
440.628	25.54
440.987	25.42
441.345	25.49
441.704	25.53
442.063	25.49
442.421	25.67
442.78	25.65
443.138	25.73
443.497	25.62
443.855	25.94
444.214	25.98
444.572	26.22
444.93	26.35
445.288	26.3
445.647	26.31
446.005	26.46
446.363	26.23
446.721	26.12
447.079	26.05
447.437	26.05
447.795	26.16
448.153	26.11
448.51	26.24
448.868	26.45
449.226	26.56
449.584	26.43
449.941	27
450.299	26.84
450.656	26.91
451.014	27.05
451.371	26.99
451.729	27.35
452.086	27.21
452.443	27.16
452.801	27.33
453.158	27.53
453.515	27.34
453.872	27.66
454.229	27.3
454.586	27.65
454.943	27.58
455.3	27.81
455.657	27.71
456.014	27.87
456.371	28.02
456.727	27.83
457.084	28.08
457.441	27.94
457.797	28.22
458.154	28.13
458.51	28.35
458.867	28.26
459.223	28.42
459.58	28.27
459.936	28.37
460.292	28.48
460.648	28.15
461.005	27.97
461.361	27.92
461.717	27.93
462.073	28.31
462.429	28.51
462.785	28.56
463.141	28.78
463.496	28.65
463.852	29.09
464.208	29.06
464.564	29.08
464.919	28.93
465.275	29.49
465.631	29.25
465.986	29.18
466.342	29.3
466.697	29.24
467.052	29.51
467.408	29.59
467.763	29.41
468.118	29.61
468.473	29.63
468.829	29.89
469.184	29.77
469.539	29.81
469.894	29.87
470.249	30.17
470.603	30.1
470.958	30.16
471.313	30.15
471.668	30.29
472.023	30.33
472.377	30.08
472.732	30.37
473.086	30.24
473.441	30.42
473.795	30.47
474.15	30.56
474.504	30.52
474.859	30.52
475.213	30.61
475.567	30.57
475.921	30.79
476.275	30.83
476.63	30.87
476.984	31.08
477.338	31.12
477.692	30.97
478.045	30.84
478.399	30.89
478.753	30.84
479.107	31.05
479.461	31.13
479.814	31.05
480.168	31.06
480.521	31.12
480.875	31.39
481.228	31.27
481.582	31.4
481.935	31.32
482.289	31.24
482.642	31.46
482.995	31.26
483.348	31.15
483.701	31.13
484.055	30.97
484.408	30.75
484.761	30.35
485.114	30.32
485.466	30.4
485.819	30.33
486.172	30.52
486.525	30.55
486.878	30.88
487.23	31.01
487.583	31.25
487.936	31.22
488.288	30.98
488.641	31.07
488.993	31.02
489.345	30.96
489.698	31.06
490.05	31.26
490.402	31.51
490.754	31.77
491.107	31.89
491.459	32.04
491.811	32.36
492.163	32.02
492.515	31.98
492.866	31.57
493.218	31.55
493.57	31.79
493.922	31.88
494.274	32.18
494.625	32.34
494.977	32.7
495.328	32.92
495.68	33.24
496.031	33.17
496.383	33.28
496.734	33.38
497.086	33.36
497.437	33.21
497.788	33.27
498.139	33.31
498.49	33.24
498.842	33.1
499.193	33.29
499.544	33.5
499.894	33.55
500.245	33.73
500.596	33.66
500.947	33.78
501.298	33.9
501.648	33.87
501.999	34.02
502.35	34.1
502.7	34.15
503.051	34.34
503.401	34.33
503.752	34.55
504.102	34.25
504.452	34.39
504.803	34.04
505.153	34.55
505.503	34.45
505.853	34.49
506.203	34.31
506.553	34.71
506.903	34.86
507.253	34.58
507.603	34.75
507.953	34.71
508.303	34.84
508.652	35.02
509.002	34.88
509.352	34.71
509.701	34.79
510.051	34.87
510.4	34.74
510.75	34.81
511.099	35.06
511.449	34.86
511.798	35
512.147	35.06
512.496	35.14
512.846	35.02
513.195	35.21
513.544	35.14
513.893	35.19
514.242	35.39
514.591	35.5
514.939	35.37
515.288	35.56
515.637	35.47
515.986	35.73
516.334	35.63
516.683	35.74
517.032	35.74
517.38	36.17
517.729	35.84
518.077	35.83
518.426	36.03
518.774	35.93
519.122	35.58
519.47	35.6
519.819	35.49
520.167	35.45
520.515	35.65
520.863	35.57
521.211	35.62
521.559	35.94
521.907	36.1
522.255	36.17
522.602	36.32
522.95	36.27
523.298	36.43
523.645	36.6
523.993	36.61
524.341	36.45
524.688	36.63
525.036	36.67
525.383	36.72
525.73	36.8
526.078	36.77
526.425	36.51
526.772	36.16
527.119	36.18
527.466	36.24
527.814	36.38
528.161	36.26
528.508	36.31
528.854	36.25
529.201	36.29
529.548	35.88
529.895	35.8
530.242	35.89
530.588	35.9
530.935	36.03
531.282	36.1
531.628	36.24
531.975	36.73
532.321	36.89
532.667	36.76
533.014	36.98
533.36	37.1
533.706	37.02
534.052	36.73
534.399	36.74
534.745	36.57
535.091	36.6
535.437	36.8
535.783	37.04
536.129	37.15
536.474	37.51
536.82	37.28
537.166	37.62
537.512	37.51
537.857	37.46
538.203	37.37
538.549	37.49
538.894	37.66
539.239	37.92
539.585	37.99
539.93	38.09
540.276	38.27
540.621	38.43
540.966	38.2
541.311	38.39
541.656	38.13
542.001	38.02
542.346	37.73
542.691	37.46
543.036	37.47
543.381	37.43
543.726	37.72
544.071	37.79
544.415	37.84
544.76	38.09
545.105	38.13
545.449	38.34
545.794	38.43
546.138	38.73
546.483	38.94
546.827	38.75
547.171	38.8
547.516	39.03
547.86	38.84
548.204	38.97
548.548	38.88
548.892	39.06
549.236	39.18
549.58	39.28
549.924	39.3
550.268	39.58
550.612	39.89
550.956	39.65
551.3	39.96
551.643	40.06
551.987	39.74
552.33	39.88
552.674	40.14
553.017	40.03
553.361	40.17
553.704	40.07
554.048	39.92
554.391	39.88
554.734	40.02
555.077	40.34
555.42	40.3
555.764	40.34
556.107	40.29
556.45	40.55
556.793	40.74
557.135	40.71
557.478	40.65
557.821	40.64
558.164	40.45
558.507	40.86
558.849	40.79
559.192	40.74
559.534	40.62
559.877	41.01
560.219	40.92
560.562	40.78
560.904	40.93
561.246	41.04
561.589	41.03
561.931	41.28
562.273	41.17
562.615	41.22
562.957	41.03
563.299	41.37
563.641	41.51
563.983	41.26
564.325	41.25
564.667	41.38
565.008	41.44
565.35	41.53
565.692	41.5
566.033	41.69
566.375	41.59
566.716	41.7
567.058	41.31
567.399	41.34
567.741	41.5
568.082	41.12
568.423	41.18
568.764	41.48
569.105	41.58
569.447	41.96
569.788	41.77
570.129	42.16
570.47	41.93
570.811	41.92
571.151	42.06
571.492	42.2
571.833	42.09
572.174	41.87
572.514	42.18
572.855	42.1
573.195	42.08
573.536	41.88
573.876	41.79
574.217	42.03
574.557	42.15
574.898	42.13
575.238	42.32
575.578	42.43
575.918	42.29
576.258	42.45
576.598	42.17
576.938	42.45
577.278	42.56
577.618	42.31
577.958	42.53
578.298	42.67
578.638	42.7
578.977	42.87
579.317	43
579.657	42.87
579.996	43.02
580.336	42.93
580.675	42.92
581.014	43.61
581.354	43.55
581.693	43.21
582.032	43.62
582.372	43.41
582.711	43.2
583.05	43.53
583.389	43.7
583.728	43.76
584.067	43.8
584.406	43.78
584.745	43.38
585.083	44.02
585.422	43.85
585.761	44.05
586.1	44.15
586.438	43.82
586.777	43.81
587.115	43.86
587.454	44.01
587.792	43.98
588.13	44.07
588.469	44
588.807	44.27
589.145	44.17
589.483	43.94
589.821	44.28
590.159	44.25
590.497	44.15
590.835	44.34
591.173	44.16
591.511	44.22
591.849	44.23
592.187	44.46
592.524	44.27
592.862	44.59
593.2	44.34
593.537	44.43
593.875	44.43
594.212	44.35
594.55	44.26
594.887	44.55
595.224	44.7
595.561	44.9
595.899	44.85
596.236	44.6
596.573	44.4
596.91	44.73
597.247	44.76
597.584	44.84
597.921	44.42
598.258	44.5
598.594	44.45
598.931	44.27
599.268	44.53
599.604	44.71
599.941	44.86
600.277	45.03
600.614	45.07
600.95	45.29
601.287	45.35
601.623	45.42
601.959	45.25
602.296	45.35
602.632	45.63
602.968	45.71
603.304	45.67
603.64	45.44
603.976	45.34
604.312	45.36
604.648	45.41
604.984	45.27
605.319	45.46
605.655	45.13
605.991	44.99
606.326	44.94
606.662	45.1
606.998	45.37
607.333	45.23
607.668	45.64
608.004	45.53
608.339	45.65
608.674	45.53
609.01	46.01
609.345	46.11
609.68	45.74
610.015	45.89
610.35	45.97
610.685	46.03
611.02	46.01
611.355	45.83
611.689	45.65
612.024	46.14
612.359	45.88
612.694	46.37
613.028	46.48
613.363	46.25
613.697	46.63
614.032	46.97
614.366	45.96
614.7	46.9
615.035	46.58
615.369	46.78
615.703	46.5
616.037	46
616.371	46.69
616.705	47.08
617.039	46.71
617.373	46.76
617.707	47.08
618.041	46.86
618.375	47.5
618.709	46.78
619.042	47.09
619.376	47.11
619.71	47.21
620.043	46.95
620.377	46.91
620.71	46.72
621.043	47.35
621.377	47.34
621.71	47.27
622.043	47.32
622.376	47.12
622.709	47.39
623.043	46.99
623.376	47.42
623.709	47.4
624.041	46.99
624.374	47.26
624.707	47.36
625.04	47.67
625.373	47.38
625.705	47.79
626.038	47.56
626.37	47.66
626.703	47.33
627.035	48
627.368	48.04
627.7	47.85
628.032	47.95
628.365	47.26
628.697	47.54
629.029	47.64
629.361	47.72
629.693	47.88
630.025	48.26
630.357	47.86
630.689	47.96
631.021	47.94
631.353	48.34
631.684	48.34
632.016	47.65
632.348	48.69
632.679	48.43
633.011	48.49
633.342	48.37
633.674	48.35
634.005	48.14
634.336	48.37
634.668	48.06
634.999	48.55
635.33	48.28
635.661	48.34
635.992	48.65
636.323	47.87
636.654	48.28
636.985	48.68
637.316	48.53
637.647	49.04
637.977	48.31
638.308	48.88
638.639	48.76
638.969	48.78
639.3	48.46
639.63	48.17
639.961	48.78
640.291	48.98
640.622	49.32
640.952	49.22
641.282	48.29
641.612	48.63
641.943	49.06
642.273	49.2
642.603	49.24
642.933	48.98
643.263	48.61
643.592	49.04
643.922	49.13
644.252	48.85
644.582	48.84
644.911	49
645.241	48.85
645.571	49.48
645.9	49.08
646.23	49.31
646.559	49.28
646.888	49.99
647.218	49.7
647.547	49.03
647.876	50.4
648.205	49.4
648.534	49.39
648.863	49.9
649.192	49.8
649.521	49.41
649.85	49.53
650.179	49.18
650.508	49.39
650.837	49.93
651.165	49.21
651.494	49.88
651.822	49.58
652.151	50.16
652.479	49.77
652.808	49.75
653.136	50.21
653.465	49.79
653.793	50.17
654.121	50.31
654.449	49.84
654.777	49.89
655.105	49.34
655.433	49.73
655.761	50.26
656.089	49.92
656.417	49.4
656.745	50.34
657.073	50.19
657.4	50.1
657.728	50.46
658.056	49.96
658.383	50.36
658.711	50.25
659.038	50.09
659.365	50.15
659.693	50.13
660.02	50.01
660.347	50.72
660.674	49.89
661.001	49.73
661.329	50.5
661.656	50.33
661.982	50.53
662.309	50.63
662.636	50.49
662.963	50.44
663.29	50.2
663.616	50.39
663.943	51.15
664.27	50.83
664.596	50.38
664.923	51.24
665.249	50.48
665.576	51.25
665.902	50.83
666.228	50.86
666.554	50.96
666.881	50.98
667.207	51.13
667.533	50.82
667.859	50.51
668.185	51.28
668.511	50.57
668.837	51.83
669.162	51.6
669.488	50.76
669.814	50.71
670.139	51.3
