Data from 0065_chest_Reflection__0__239.txt Node

Date: Fri Dec 16 15:49:22 CST 2022
User: ToomeyLab
Spectrometer: FLMS14357
Trigger mode: 0
Integration Time (sec): 1.000000E-2
Scans to average: 100
Electric dark correction enabled: true
Nonlinearity correction enabled: false
Boxcar width: 0
XAxis mode: Wavelengths
Number of Pixels in Spectrum: 2048
>>>>>Begin Spectral Data<<<<<
189.047	215.25
189.435	215.25
189.823	215.25
190.211	163.23
190.599	60.11
190.987	138.39
191.375	54.33
191.763	-86.25
192.151	-425.28
192.538	24.88
192.926	-120.66
193.314	185.28
193.702	56.74
194.089	13.8
194.477	-291.72
194.864	25.35
195.252	-128.61
195.639	73.63
196.027	38.03
196.414	-315.79
196.801	708.41
197.189	133.94
197.576	-20.66
197.963	186.53
198.351	-6.73
198.738	-35.87
199.125	49.53
199.512	-4.33
199.899	-24.97
200.286	-68.69
200.673	34.81
201.06	47.83
201.447	45.62
201.833	-5.37
202.22	4.76
202.607	-3.87
202.994	-4.49
203.38	-33.13
203.767	-18.75
204.154	-78.67
204.54	41.52
204.927	28.59
205.313	3.73
205.699	0.32
206.086	15.3
206.472	-0.56
206.858	27.19
207.245	6.62
207.631	28.24
208.017	-9.01
208.403	11.44
208.789	29.19
209.175	18.62
209.561	-26.95
209.947	1.88
210.333	-39.7
210.719	23.72
211.105	-1.88
211.491	14.82
211.876	-28.16
212.262	-35.1
212.648	-4.65
213.034	-6.86
213.419	19.87
213.805	-1.95
214.19	-13.08
214.576	-36.81
214.961	-65.35
215.346	-4.93
215.732	-41.54
216.117	20.7
216.502	5.64
216.888	-67.07
217.273	-6.43
217.658	-41.75
218.043	9.62
218.428	7.48
218.813	-10.49
219.198	-24.24
219.583	4.22
219.968	-8.25
220.353	14.35
220.738	-27.2
221.122	8.17
221.507	-3.84
221.892	-2.87
222.276	10.89
222.661	-8.94
223.046	-6.08
223.43	-4.59
223.815	-8.42
224.199	7.94
224.583	-3.01
224.968	1.54
225.352	-7.82
225.736	-4.85
226.121	2.36
226.505	-0.17
226.889	8.79
227.273	2.21
227.657	-2.05
228.041	3.73
228.425	-0.02
228.809	-0.18
229.193	1.49
229.577	1.69
229.961	1.99
230.344	2.33
230.728	2.85
231.112	3.19
231.495	1.16
231.879	2.39
232.263	0.72
232.646	1.61
233.03	0.7
233.413	1.62
233.797	4.87
234.18	-0.83
234.563	1.92
234.946	1.5
235.33	2.98
235.713	2.74
236.096	2.68
236.479	0.95
236.862	3.07
237.245	4.15
237.628	3.22
238.011	1.02
238.394	4.34
238.777	1.87
239.16	1.56
239.543	1.53
239.925	2.57
240.308	2
240.691	3.46
241.073	2
241.456	1.17
241.838	1.22
242.221	1.78
242.603	2.66
242.986	2.92
243.368	1.97
243.75	2.34
244.133	2.59
244.515	2.48
244.897	1.94
245.279	1.87
245.661	2.63
246.043	3.01
246.425	1.94
246.807	2.16
247.189	2.06
247.571	2.72
247.953	2.57
248.335	2.73
248.717	2.49
249.098	2.6
249.48	2.13
249.862	2.63
250.243	2.36
250.625	2.41
251.006	2.21
251.388	3.68
251.769	2.09
252.151	2.34
252.532	2.51
252.913	2.49
253.295	2.35
253.676	2.23
254.057	2.38
254.438	2.97
254.819	1.63
255.2	1.83
255.581	1.87
255.962	2.37
256.343	2.89
256.724	0.88
257.105	2.72
257.486	1.85
257.867	1.61
258.247	2.45
258.628	3.34
259.009	2.12
259.389	2.99
259.77	2.32
260.15	3.05
260.531	2.42
260.911	2.35
261.292	2.48
261.672	2.22
262.052	2.28
262.432	2.16
262.813	1.86
263.193	2.08
263.573	2.95
263.953	2.32
264.333	2.01
264.713	2
265.093	2.1
265.473	3.06
265.853	1.91
266.233	1.88
266.612	2
266.992	2
267.372	2.69
267.752	1.71
268.131	1.94
268.511	2.2
268.89	2.44
269.27	2.31
269.649	2.54
270.029	1.77
270.408	1.49
270.787	1.8
271.167	2.34
271.546	1.67
271.925	1.84
272.304	2.12
272.683	1.98
273.062	2.38
273.441	2.28
273.82	2.28
274.199	2.54
274.578	2.23
274.957	2.4
275.336	2.16
275.715	2.26
276.093	2.81
276.472	2.51
276.851	2.92
277.229	2.6
277.608	1.95
277.986	1.76
278.365	1.93
278.743	1.9
279.122	1.74
279.5	2.38
279.878	1.54
280.257	2.06
280.635	1.87
281.013	2.41
281.391	1.71
281.769	2.09
282.147	2.2
282.525	1.82
282.903	2.04
283.281	1.62
283.659	2.41
284.037	2.11
284.415	2.12
284.792	2.25
285.17	1.59
285.548	2.17
285.925	2.37
286.303	1.77
286.68	2.17
287.058	1.88
287.435	2.04
287.813	2.09
288.19	2.28
288.567	1.75
288.945	1.85
289.322	2.17
289.699	1.97
290.076	2.12
290.453	2.06
290.83	2.41
291.207	2.11
291.584	1.62
291.961	2.42
292.338	1.97
292.715	2.14
293.092	2.04
293.469	2.4
293.845	2.56
294.222	1.84
294.599	2.11
294.975	2.23
295.352	1.65
295.728	2.62
296.105	2.39
296.481	2.44
296.858	2.46
297.234	1.97
297.61	2.35
297.986	2.35
298.363	1.87
298.739	2.19
299.115	1.96
299.491	2.39
299.867	2.17
300.243	1.8
300.619	2.44
300.995	1.99
301.371	2.38
301.746	2.46
302.122	2.52
302.498	2.92
302.874	2.5
303.249	2.42
303.625	2.58
304	1.69
304.376	2.4
304.751	1.93
305.127	2.45
305.502	2.82
305.878	2.21
306.253	2.13
306.628	2.65
307.003	2.49
307.378	1.92
307.754	2.57
308.129	1.86
308.504	2.14
308.879	2.5
309.254	2.79
309.629	2.21
310.003	2.7
310.378	2.78
310.753	2.45
311.128	2.4
311.502	2.11
311.877	2.75
312.252	2.48
312.626	2.18
313.001	2.32
313.375	2.36
313.75	2.21
314.124	2.71
314.498	1.9
314.873	1.95
315.247	2.03
315.621	2.58
315.995	2.16
316.369	2.34
316.743	2.85
317.117	2.36
317.491	2.3
317.865	1.78
318.239	2.91
318.613	1.71
318.987	2.59
319.361	2.27
319.734	2.63
320.108	2.71
320.482	2.18
320.855	2.02
321.229	2.36
321.602	2.28
321.976	2.45
322.349	2.42
322.723	2.5
323.096	1.93
323.469	2.16
323.843	2.58
324.216	2.36
324.589	2.24
324.962	2.55
325.335	2.37
325.708	2.72
326.081	2.63
326.454	2.61
326.827	2.55
327.2	3.3
327.573	2.91
327.945	2.3
328.318	2.28
328.691	2.37
329.063	2.48
329.436	2.26
329.809	1.96
330.181	2.29
330.553	3.28
330.926	2.65
331.298	2.48
331.671	2.49
332.043	2.49
332.415	2.8
332.787	3.06
333.159	2.79
333.532	2.53
333.904	2.42
334.276	2.88
334.648	2.61
335.02	2.11
335.391	2.27
335.763	2.14
336.135	2.59
336.507	2.5
336.879	2.51
337.25	2.72
337.622	2.18
337.993	2.77
338.365	2.81
338.736	2.84
339.108	2.59
339.479	2.59
339.851	3.1
340.222	2.98
340.593	2.34
340.964	2.29
341.336	2.41
341.707	2.58
342.078	2.29
342.449	3.18
342.82	2.43
343.191	2.34
343.562	2.74
343.933	2.52
344.303	2.45
344.674	2.47
345.045	2.87
345.416	2.56
345.786	2.15
346.157	2.51
346.527	2.38
346.898	2.53
347.268	2.27
347.639	2.64
348.009	3.12
348.38	2.64
348.75	2.69
349.12	2.52
349.49	2.61
349.861	3.17
350.231	3.01
350.601	2.72
350.971	2.44
351.341	2.74
351.711	2.71
352.081	2.57
352.45	2.99
352.82	2.78
353.19	3.02
353.56	2.76
353.929	2.4
354.299	2.49
354.669	2.78
355.038	2.53
355.408	3.38
355.777	2.74
356.147	3.13
356.516	2.9
356.885	2.56
357.254	2.86
357.624	2.81
357.993	2.6
358.362	2.9
358.731	2.51
359.1	2.95
359.469	2.7
359.838	2.35
360.207	2.65
360.576	2.87
360.945	2.68
361.314	2.74
361.682	2.45
362.051	2.66
362.42	2.9
362.788	2.71
363.157	2.5
363.525	2.52
363.894	2.41
364.262	2.4
364.631	3.33
364.999	2.27
365.367	2.82
365.735	2.33
366.104	2.29
366.472	2.62
366.84	2.75
367.208	2.58
367.576	2.66
367.944	2.89
368.312	2.43
368.68	2.79
369.048	2.79
369.416	2.63
369.783	2.49
370.151	2.74
370.519	2.39
370.886	2.87
371.254	2.43
371.621	2.57
371.989	2.7
372.356	2.56
372.724	2.7
373.091	2.71
373.458	2.67
373.826	2.67
374.193	3.1
374.56	2.81
374.927	2.69
375.294	3.08
375.661	2.8
376.028	2.88
376.395	2.56
376.762	3.05
377.129	3.03
377.496	2.76
377.863	2.75
378.229	2.65
378.596	2.81
378.963	2.61
379.329	2.73
379.696	2.71
380.062	2.97
380.429	2.66
380.795	2.38
381.161	2.79
381.528	2.31
381.894	2.78
382.26	2.69
382.626	2.41
382.993	2.55
383.359	2.39
383.725	2.94
384.091	2.59
384.457	2.83
384.823	2.9
385.188	3.04
385.554	2.57
385.92	2.98
386.286	3.01
386.651	2.54
387.017	2.82
387.383	2.9
387.748	2.46
388.114	3.23
388.479	2.63
388.845	2.97
389.21	2.71
389.575	2.7
389.94	2.82
390.306	2.9
390.671	3.07
391.036	2.9
391.401	3.01
391.766	2.91
392.131	2.86
392.496	2.91
392.861	2.74
393.226	2.69
393.591	2.82
393.956	3.02
394.32	2.63
394.685	2.91
395.05	2.6
395.414	3.02
395.779	2.79
396.143	2.95
396.508	2.89
396.872	2.88
397.236	2.53
397.601	2.98
397.965	2.67
398.329	2.98
398.694	2.78
399.058	2.84
399.422	2.81
399.786	2.93
400.15	2.63
400.514	2.77
400.878	2.82
401.242	3
401.605	2.91
401.969	2.86
402.333	2.97
402.697	2.92
403.06	2.82
403.424	2.88
403.787	2.99
404.151	2.86
404.514	2.85
404.878	2.92
405.241	2.89
405.604	3.04
405.968	2.81
406.331	3
406.694	3
407.057	3
407.42	3.16
407.783	2.84
408.146	2.86
408.509	2.62
408.872	2.78
409.235	2.68
409.598	3.09
409.961	3.07
410.323	2.7
410.686	2.74
411.049	2.98
411.411	2.82
411.774	2.81
412.136	2.77
412.499	2.79
412.861	2.67
413.223	2.78
413.586	2.78
413.948	2.9
414.31	2.84
414.672	2.87
415.035	2.68
415.397	2.94
415.759	2.81
416.121	3.17
416.483	3.09
416.845	2.96
417.206	3.2
417.568	2.94
417.93	2.82
418.292	2.82
418.653	2.96
419.015	3.05
419.377	2.95
419.738	2.8
420.1	2.85
420.461	2.74
420.822	2.91
421.184	2.81
421.545	2.85
421.906	2.96
422.267	2.77
422.629	2.83
422.99	2.9
423.351	2.93
423.712	2.96
424.073	3.04
424.434	2.78
424.795	2.81
425.155	2.81
425.516	2.74
425.877	2.82
426.238	2.83
426.598	2.91
426.959	2.81
427.32	2.88
427.68	3.06
428.041	2.88
428.401	2.71
428.761	2.84
429.122	2.85
429.482	2.79
429.842	2.94
430.202	3.15
430.563	2.89
430.923	2.82
431.283	2.99
431.643	3.06
432.003	2.96
432.363	3.01
432.722	2.95
433.082	2.88
433.442	2.87
433.802	2.93
434.161	2.99
434.521	3.02
434.881	2.94
435.24	2.88
435.6	2.95
435.959	2.99
436.319	2.83
436.678	2.86
437.037	3.11
437.396	3.05
437.756	2.9
438.115	3.12
438.474	3.01
438.833	2.9
439.192	3.12
439.551	3
439.91	2.91
440.269	3.14
440.628	2.97
440.987	2.94
441.345	2.92
441.704	2.98
442.063	2.93
442.421	3.04
442.78	2.89
443.138	3.03
443.497	2.95
443.855	2.86
444.214	3.06
444.572	2.88
444.93	2.88
445.288	2.91
445.647	3.06
446.005	2.87
446.363	2.95
446.721	2.88
447.079	2.94
447.437	2.8
447.795	2.89
448.153	2.89
448.51	2.95
448.868	3
449.226	3.03
449.584	3.01
449.941	3.04
450.299	3
450.656	3.03
451.014	2.96
451.371	3.06
451.729	3.07
452.086	2.96
452.443	2.97
452.801	3.1
453.158	2.93
453.515	2.94
453.872	3.08
454.229	2.91
454.586	2.94
454.943	2.97
455.3	3.09
455.657	2.91
456.014	3.1
456.371	3.14
456.727	3.03
457.084	2.87
457.441	2.92
457.797	2.96
458.154	3.08
458.51	3
458.867	2.91
459.223	3.14
459.58	2.97
459.936	2.97
460.292	3.06
460.648	2.85
461.005	2.89
461.361	2.91
461.717	2.97
462.073	3.09
462.429	2.94
462.785	3.03
463.141	3.13
463.496	3.09
463.852	3.09
464.208	2.9
464.564	2.92
464.919	3.01
465.275	3.13
465.631	3.18
465.986	2.87
466.342	3.04
466.697	3.18
467.052	3.33
467.408	2.93
467.763	2.97
468.118	3.06
468.473	3.03
468.829	3.09
469.184	3.18
469.539	3.01
469.894	3.13
470.249	3.02
470.603	3.14
470.958	3.23
471.313	2.94
471.668	3.23
472.023	3.18
472.377	3.01
472.732	3.04
473.086	3.05
473.441	3.18
473.795	3.2
474.15	2.95
474.504	3.05
474.859	3.17
475.213	3.11
475.567	3
475.921	3.21
476.275	3.18
476.63	2.98
476.984	3.12
477.338	3.35
477.692	3.14
478.045	3.01
478.399	3.21
478.753	2.91
479.107	3.08
479.461	3.09
479.814	3.06
480.168	3.1
480.521	3.14
480.875	3.22
481.228	3.16
481.582	2.96
481.935	3.02
482.289	3
482.642	3.14
482.995	3.09
483.348	3.19
483.701	3.05
484.055	3.06
484.408	3.01
484.761	2.88
485.114	2.85
485.466	2.86
485.819	2.89
486.172	2.96
486.525	3.05
486.878	3.07
487.23	3.1
487.583	3.05
487.936	3.03
488.288	3.01
488.641	2.99
488.993	2.95
489.345	2.96
489.698	3
490.05	3.05
490.402	3.13
490.754	3.15
491.107	3.14
491.459	3.2
491.811	3.19
492.163	3.16
492.515	3.13
492.866	2.91
493.218	2.96
493.57	3.09
493.922	3.09
494.274	3.08
494.625	3.02
494.977	3.13
495.328	3.26
495.68	3.39
496.031	3.19
496.383	3.08
496.734	3.19
497.086	3.05
497.437	3.15
497.788	3.08
498.139	3.23
498.49	3.21
498.842	3.2
499.193	3.17
499.544	3.32
499.894	3.26
500.245	3.15
500.596	3.24
500.947	3.26
501.298	3.2
501.648	3.1
501.999	3.34
502.35	3.32
502.7	3.29
503.051	3.31
503.401	3.26
503.752	3.25
504.102	3.26
504.452	3.14
504.803	3.14
505.153	3.2
505.503	3.21
505.853	3.24
506.203	3.34
506.553	3.27
506.903	3.17
507.253	3.31
507.603	3.25
507.953	3.31
508.303	3.32
508.652	3.25
509.002	3.27
509.352	3.23
509.701	3.31
510.051	3.31
510.4	3.23
510.75	3.22
511.099	3.28
511.449	3.32
511.798	3.31
512.147	3.33
512.496	3.36
512.846	3.19
513.195	3.36
513.544	3.23
513.893	3.22
514.242	3.44
514.591	3.35
514.939	3.3
515.288	3.4
515.637	3.43
515.986	3.3
516.334	3.37
516.683	3.39
517.032	3.25
517.38	3.38
517.729	3.41
518.077	3.39
518.426	3.41
518.774	3.45
519.122	3.26
519.47	3.3
519.819	3.32
520.167	3.3
520.515	3.3
520.863	3.39
521.211	3.32
521.559	3.33
521.907	3.34
522.255	3.43
522.602	3.43
522.95	3.41
523.298	3.35
523.645	3.45
523.993	3.58
524.341	3.45
524.688	3.38
525.036	3.53
525.383	3.52
525.73	3.46
526.078	3.38
526.425	3.49
526.772	3.32
527.119	3.33
527.466	3.37
527.814	3.44
528.161	3.5
528.508	3.46
528.854	3.34
529.201	3.38
529.548	3.25
529.895	3.24
530.242	3.23
530.588	3.31
530.935	3.32
531.282	3.4
531.628	3.4
531.975	3.46
532.321	3.45
532.667	3.44
533.014	3.52
533.36	3.47
533.706	3.5
534.052	3.41
534.399	3.4
534.745	3.32
535.091	3.36
535.437	3.45
535.783	3.55
536.129	3.57
536.474	3.61
536.82	3.52
537.166	3.54
537.512	3.54
537.857	3.54
538.203	3.51
538.549	3.62
538.894	3.6
539.239	3.7
539.585	3.68
539.93	3.59
540.276	3.58
540.621	3.56
540.966	3.6
541.311	3.75
541.656	3.6
542.001	3.69
542.346	3.53
542.691	3.47
543.036	3.45
543.381	3.6
543.726	3.63
544.071	3.68
544.415	3.64
544.76	3.56
545.105	3.66
545.449	3.62
545.794	3.65
546.138	3.76
546.483	3.7
546.827	3.77
547.171	3.75
547.516	3.81
547.86	3.73
548.204	3.72
548.548	3.91
548.892	3.86
549.236	3.85
549.58	3.86
549.924	3.92
550.268	3.94
550.612	3.95
550.956	3.74
551.3	3.83
551.643	3.84
551.987	3.72
552.33	3.83
552.674	4.08
553.017	4.14
553.361	4.05
553.704	3.92
554.048	4.04
554.391	3.94
554.734	4.01
555.077	3.95
555.42	3.98
555.764	4.02
556.107	4.06
556.45	4.07
556.793	4.27
557.135	4.29
557.478	4.22
557.821	4.07
558.164	4.15
558.507	4.01
558.849	4.04
559.192	4.22
559.534	4.01
559.877	4.11
560.219	4.16
560.562	4.26
560.904	4.14
561.246	4.25
561.589	4.37
561.931	4.41
562.273	4.17
562.615	4.19
562.957	4.2
563.299	4.28
563.641	4.36
563.983	4.18
564.325	4.04
564.667	4.31
565.008	4.22
565.35	4.41
565.692	4.42
566.033	4.34
566.375	4.08
566.716	4.33
567.058	4.43
567.399	4.24
567.741	4.33
568.082	4.26
568.423	4.29
568.764	4.44
569.105	4.46
569.447	4.32
569.788	4.35
570.129	4.49
570.47	4.67
570.811	4.51
571.151	4.5
571.492	4.71
571.833	4.57
572.174	4.54
572.514	4.42
572.855	4.56
573.195	4.53
573.536	4.47
573.876	4.44
574.217	4.69
574.557	4.8
574.898	4.43
575.238	4.44
575.578	4.7
575.918	4.56
576.258	4.55
576.598	4.65
576.938	4.9
577.278	4.71
577.618	4.65
577.958	4.75
578.298	4.65
578.638	4.69
578.977	4.85
579.317	4.89
579.657	4.85
579.996	4.76
580.336	4.74
580.675	4.85
581.014	4.93
581.354	4.97
581.693	4.86
582.032	4.84
582.372	4.9
582.711	4.9
583.05	5.3
583.389	4.97
583.728	5.07
584.067	5.02
584.406	5.23
584.745	4.85
585.083	5.28
585.422	5.01
585.761	5.12
586.1	5.21
586.438	4.97
586.777	5.22
587.115	5.24
587.454	5.32
587.792	5.1
588.13	5.61
588.469	5.22
588.807	5.42
589.145	5.28
589.483	5.06
589.821	5.09
590.159	5.43
590.497	5.25
590.835	5.46
591.173	5.48
591.511	5.46
591.849	5.54
592.187	5.39
592.524	5.35
592.862	5.32
593.2	5.47
593.537	5.32
593.875	5.27
594.212	5.41
594.55	5.5
594.887	5.8
595.224	5.39
595.561	5.46
595.899	5.36
596.236	5.78
596.573	5.46
596.91	5.59
597.247	5.58
597.584	5.92
597.921	5.64
598.258	5.53
598.594	5.55
598.931	5.62
599.268	5.52
599.604	5.92
599.941	5.67
600.277	5.75
600.614	5.69
600.95	5.95
601.287	5.8
601.623	6.19
601.959	5.5
602.296	5.87
602.632	5.97
602.968	6.11
603.304	5.87
603.64	5.93
603.976	5.73
604.312	6.17
604.648	6.03
604.984	6.07
605.319	5.85
605.655	5.97
605.991	5.98
606.326	5.95
606.662	6.04
606.998	6.06
607.333	5.99
607.668	6.19
608.004	5.97
608.339	6.25
608.674	6.14
609.01	6.13
609.345	6.28
609.68	6.03
610.015	6.21
610.35	6.2
610.685	6.16
611.02	6.45
611.355	6.34
611.689	6.16
612.024	6.56
612.359	6.39
612.694	6.53
613.028	6.61
613.363	6.36
613.697	6.38
614.032	6.68
614.366	6.52
614.7	6.86
615.035	6.36
615.369	6.82
615.703	6.88
616.037	6.67
616.371	6.32
616.705	6.6
617.039	6.72
617.373	6.86
617.707	6.44
618.041	6.78
618.375	6.7
618.709	6.73
619.042	6.79
619.376	6.64
619.71	6.87
620.043	6.93
620.377	6.91
620.71	6.87
621.043	6.64
621.377	6.62
621.71	6.97
622.043	7.05
622.376	6.89
622.709	7.27
623.043	6.98
623.376	7.32
623.709	7.37
624.041	7.02
624.374	6.74
624.707	6.99
625.04	7.43
625.373	7.07
625.705	7.17
626.038	7.31
626.37	7.43
626.703	7.14
627.035	7.42
627.368	7.54
627.7	7.37
628.032	7.36
628.365	7.15
628.697	6.7
629.029	7.41
629.361	7.21
629.693	7.55
630.025	7.54
630.357	7.2
630.689	7.55
631.021	7.77
631.353	7.52
631.684	7.71
632.016	7.34
632.348	7.49
632.679	7.52
633.011	8.2
633.342	7.93
633.674	7.76
634.005	7.73
634.336	7.93
634.668	7.95
634.999	7.97
635.33	7.59
635.661	7.84
635.992	7.56
636.323	7.41
636.654	7.89
636.985	7.71
637.316	7.95
637.647	8.26
637.977	7.73
638.308	7.97
638.639	7.72
638.969	7.72
639.3	8.14
639.63	7.93
639.961	7.71
640.291	8.29
640.622	8.15
640.952	8.19
641.282	7.64
641.612	8.19
641.943	8.36
642.273	7.91
642.603	8.44
642.933	7.95
643.263	8.27
643.592	8.46
643.922	8.41
644.252	7.77
644.582	8.02
644.911	8.27
645.241	8.45
645.571	8.26
645.9	8.27
646.23	8.4
646.559	8.55
646.888	8.36
647.218	8.61
647.547	9.04
647.876	8.96
648.205	8.42
648.534	8.5
648.863	9.13
649.192	8.43
649.521	8.86
649.85	9.25
650.179	8.71
650.508	8.88
650.837	8.79
651.165	8.61
651.494	8.64
651.822	8.98
652.151	9.34
652.479	9.32
652.808	8.81
653.136	8.85
653.465	9.24
653.793	9.01
654.121	8.67
654.449	9.06
654.777	8.49
655.105	9.58
655.433	9.46
655.761	8.87
656.089	9.35
656.417	9.21
656.745	9.65
657.073	9.82
657.4	9.13
657.728	9.26
658.056	8.96
658.383	9.59
658.711	9.41
659.038	9.67
659.365	9.06
659.693	8.77
660.02	8.93
660.347	9.28
660.674	9.33
661.001	9.08
661.329	9.53
661.656	9.51
661.982	9.96
662.309	9.53
662.636	9.6
662.963	9.97
663.29	9.58
663.616	9.74
663.943	9.48
664.27	9.79
664.596	9.45
664.923	9.95
665.249	9.72
665.576	10.27
665.902	9.58
666.228	9.75
666.554	9.08
666.881	9.87
667.207	10.04
667.533	9.96
667.859	10.3
668.185	10.22
668.511	9.51
668.837	9.52
669.162	10.06
669.488	9.75
669.814	10.11
670.139	10.52
670.465	10.65
670.791	9.9
671.116	10.1
671.442	10.18
671.767	9.91
672.092	9.94
672.418	10.2
672.743	10.18
673.068	9.82
673.393	10.47
673.718	10.43
674.043	10.38
674.368	10.94
674.693	10.64
675.018	9.96
675.343	10.89
675.667	10.07
675.992	9.89
676.317	11.07
676.641	9.97
676.966	10.62
677.29	10.87
677.615	11.22
677.939	11.02
678.264	11.03
678.588	10.55
678.912	10.67
679.236	11.01
679.56	10.22
679.885	10.71
680.209	10.24
680.532	10.31
680.856	11.39
681.18	10.91
681.504	10.21
681.828	10.56
682.152	10.83
682.475	10.8
682.799	11.53
683.122	10.63
683.446	11.06
683.769	11.18
684.093	11.75
684.416	11.27
684.739	11.37
685.062	11.47
685.386	11.21
685.709	11.24
686.032	11.73
686.355	11.43
686.678	11.29
687.001	10.52
687.324	10.92
687.646	10.83
687.969	11.45
688.292	11.92
688.614	12.09
688.937	11.02
689.26	11.68
689.582	11.17
689.904	11.96
690.227	11.3
690.549	11.97
690.871	11.88
