Data from 0065_crown_Reflection__1__245.txt Node

Date: Fri Dec 16 15:51:28 CST 2022
User: ToomeyLab
Spectrometer: FLMS14357
Trigger mode: 0
Integration Time (sec): 1.000000E-2
Scans to average: 100
Electric dark correction enabled: true
Nonlinearity correction enabled: false
Boxcar width: 0
XAxis mode: Wavelengths
Number of Pixels in Spectrum: 2048
>>>>>Begin Spectral Data<<<<<
189.047	402.43
189.435	402.43
189.823	402.43
190.211	166.18
190.599	36.08
190.987	-139.46
191.375	11.95
191.763	63.76
192.151	92.58
192.538	32.01
192.926	179.67
193.314	120.21
193.702	-140.46
194.089	167.84
194.477	-114.59
194.864	172.63
195.252	-224.44
195.639	64
196.027	31.25
196.414	-1470.18
196.801	81.74
197.189	208.85
197.576	30.19
197.963	-98.86
198.351	3.36
198.738	-56.58
199.125	22.87
199.512	-59.69
199.899	-56.31
200.286	-47.27
200.673	32.81
201.06	16.63
201.447	21.65
201.833	-16.78
202.22	14.44
202.607	16.08
202.994	12
203.38	-29.47
203.767	-23.85
204.154	-27.05
204.54	20.04
204.927	-35.9
205.313	0.93
205.699	7.53
206.086	-8.55
206.472	-16.99
206.858	26.22
207.245	27.57
207.631	-11.24
208.017	64.79
208.403	3.17
208.789	-27.7
209.175	22.66
209.561	-50.3
209.947	-2.74
210.333	-16.97
210.719	5.26
211.105	-31.34
211.491	17.91
211.876	-7.25
212.262	-34.85
212.648	-11.44
213.034	-36.71
213.419	1.65
213.805	-16.36
214.19	-19.68
214.576	-20.6
214.961	-25.91
215.346	-32.41
215.732	-32.87
216.117	-15.5
216.502	-11.16
216.888	-34.7
217.273	10.48
217.658	-28.58
218.043	-1.54
218.428	-3.62
218.813	-18.12
219.198	-57.15
219.583	-4.78
219.968	-1.58
220.353	11.61
220.738	-15.48
221.122	-9.05
221.507	-22.48
221.892	-3.73
222.276	8.86
222.661	-26.26
223.046	8.13
223.43	-4.26
223.815	-0.9
224.199	1.09
224.583	-6.25
224.968	4.1
225.352	6.64
225.736	3.47
226.121	-5.95
226.505	-0.4
226.889	8.35
227.273	9.12
227.657	3.53
228.041	1.29
228.425	4.97
228.809	5.79
229.193	0.8
229.577	2.4
229.961	4.13
230.344	3.49
230.728	4.54
231.112	4.39
231.495	3.55
231.879	4.01
232.263	3.08
232.646	1.89
233.03	1.98
233.413	2.78
233.797	5.15
234.18	2.01
234.563	2.02
234.946	3.15
235.33	4.99
235.713	4.62
236.096	2.57
236.479	4.5
236.862	6.92
237.245	5.2
237.628	4.34
238.011	3.71
238.394	6.37
238.777	3.33
239.16	1.81
239.543	2.37
239.925	2.71
240.308	4.76
240.691	3.19
241.073	3.49
241.456	2.75
241.838	3.06
242.221	3.91
242.603	4.29
242.986	4.07
243.368	3.92
243.75	3.11
244.133	3.46
244.515	3.8
244.897	3.75
245.279	3.95
245.661	3.45
246.043	3.72
246.425	2.65
246.807	3.86
247.189	3.15
247.571	3.47
247.953	3.72
248.335	4.08
248.717	3.87
249.098	4.14
249.48	3.73
249.862	4
250.243	3.69
250.625	4
251.006	3.64
251.388	3.44
251.769	4
252.151	3.27
252.532	2.77
252.913	3.95
253.295	3.98
253.676	3.69
254.057	3.43
254.438	3
254.819	3.36
255.2	3.99
255.581	3.83
255.962	3.2
256.343	3.04
256.724	3.62
257.105	3.06
257.486	4.03
257.867	1.99
258.247	3.93
258.628	4.58
259.009	3.33
259.389	4.62
259.77	3.2
260.15	4.05
260.531	3.79
260.911	3.71
261.292	3.48
261.672	3.63
262.052	3.45
262.432	3.6
262.813	3.21
263.193	2.98
263.573	3.47
263.953	3.6
264.333	3.73
264.713	3.26
265.093	2.92
265.473	3.19
265.853	2.96
266.233	3.82
266.612	4.47
266.992	2.78
267.372	3.2
267.752	3.29
268.131	3.78
268.511	3.62
268.89	3.98
269.27	3.87
269.649	3.77
270.029	3.03
270.408	3.22
270.787	3.57
271.167	3.93
271.546	3.09
271.925	2.86
272.304	3.67
272.683	3.2
273.062	4
273.441	4
273.82	4.1
274.199	3.31
274.578	3.52
274.957	3.54
275.336	3.1
275.715	3.63
276.093	4.17
276.472	3.51
276.851	3.94
277.229	3.4
277.608	3.61
277.986	3.51
278.365	2.71
278.743	3.55
279.122	2.41
279.5	3.17
279.878	2.66
280.257	4.02
280.635	3.15
281.013	3.32
281.391	3.18
281.769	3.68
282.147	3.4
282.525	3.43
282.903	3.45
283.281	3.21
283.659	3.47
284.037	3.4
284.415	3.33
284.792	2.86
285.17	3.16
285.548	3.08
285.925	3.25
286.303	3.17
286.68	3.51
287.058	3.39
287.435	3.14
287.813	3.52
288.19	3.87
288.567	3.41
288.945	3.22
289.322	3.73
289.699	3.09
290.076	3.6
290.453	2.57
290.83	3.71
291.207	3.24
291.584	3
291.961	3.44
292.338	3.45
292.715	3.45
293.092	3.51
293.469	3.11
293.845	3.45
294.222	3.04
294.599	3.75
294.975	3.41
295.352	2.63
295.728	3.04
296.105	2.82
296.481	3.55
296.858	3.45
297.234	3.48
297.61	3.42
297.986	3.3
298.363	2.83
298.739	3.31
299.115	3.15
299.491	3.18
299.867	3.55
300.243	3.01
300.619	2.87
300.995	3.19
301.371	3.53
301.746	3.1
302.122	3.33
302.498	3.6
302.874	3.18
303.249	3.18
303.625	3.82
304	2.94
304.376	2.99
304.751	2.79
305.127	3.19
305.502	3.67
305.878	3.18
306.253	3.11
306.628	3.16
307.003	3.32
307.378	3.16
307.754	3.39
308.129	2.54
308.504	3.1
308.879	3.24
309.254	3.14
309.629	3.06
310.003	3.84
310.378	3.35
310.753	3.43
311.128	3.32
311.502	3.04
311.877	3.26
312.252	3.09
312.626	2.74
313.001	3.11
313.375	3.21
313.75	3.08
314.124	3.17
314.498	3.08
314.873	3.01
315.247	2.78
315.621	3.63
315.995	3.14
316.369	3.04
316.743	3.49
317.117	3.37
317.491	3.19
317.865	2.55
318.239	3.38
318.613	3.1
318.987	3.42
319.361	3.13
319.734	3.08
320.108	2.88
320.482	3.24
320.855	2.98
321.229	3.17
321.602	3.22
321.976	3.24
322.349	2.78
322.723	2.51
323.096	2.71
323.469	2.37
323.843	2.92
324.216	2.41
324.589	3.42
324.962	3
325.335	3.42
325.708	3.47
326.081	3.24
326.454	3.22
326.827	3.11
327.2	3.71
327.573	3.27
327.945	3
328.318	3.04
328.691	3.67
329.063	3
329.436	2.77
329.809	2.51
330.181	3.21
330.553	3.41
330.926	3.11
331.298	2.61
331.671	2.64
332.043	2.69
332.415	3.25
332.787	3.52
333.159	3.03
333.532	2.88
333.904	3.04
334.276	3.08
334.648	2.82
335.02	3.38
335.391	3.25
335.763	3.34
336.135	2.67
336.507	3.32
336.879	3.05
337.25	2.9
337.622	3.39
337.993	3.21
338.365	3.31
338.736	2.96
339.108	3.06
339.479	3.2
339.851	3.39
340.222	3.1
340.593	2.82
340.964	3.02
341.336	2.95
341.707	3.32
342.078	2.67
342.449	3.16
342.82	2.92
343.191	3.31
343.562	3.28
343.933	3.15
344.303	3.3
344.674	3.07
345.045	3.48
345.416	3.25
345.786	2.64
346.157	2.68
346.527	2.99
346.898	3.06
347.268	3.08
347.639	2.9
348.009	3.27
348.38	3.13
348.75	3.09
349.12	2.99
349.49	3.13
349.861	3.36
350.231	3.2
350.601	3.27
350.971	3.34
351.341	2.89
351.711	3.16
352.081	3.25
352.45	3.46
352.82	3.13
353.19	3.25
353.56	2.89
353.929	3.33
354.299	2.87
354.669	3.24
355.038	3.06
355.408	3.45
355.777	3.02
356.147	3.01
356.516	3.38
356.885	2.84
357.254	3.15
357.624	3.16
357.993	3.03
358.362	3.48
358.731	3.23
359.1	3.24
359.469	3.04
359.838	2.94
360.207	3.12
360.576	3.08
360.945	2.89
361.314	3.23
361.682	2.86
362.051	3.25
362.42	3.29
362.788	3.11
363.157	2.84
363.525	3.05
363.894	2.81
364.262	3.11
364.631	3.65
364.999	2.94
365.367	3.36
365.735	2.68
366.104	2.84
366.472	3.26
366.84	3.3
367.208	2.67
367.576	2.89
367.944	3.28
368.312	2.84
368.68	3.05
369.048	3.4
369.416	3.23
369.783	3.35
370.151	3.03
370.519	3.05
370.886	3.21
371.254	3.08
371.621	3.27
371.989	3.29
372.356	3.35
372.724	3.39
373.091	2.88
373.458	2.98
373.826	2.9
374.193	3.72
374.56	2.98
374.927	3.07
375.294	3.55
375.661	3.24
376.028	3.01
376.395	2.87
376.762	3.54
377.129	3.21
377.496	3.43
377.863	3.2
378.229	3
378.596	3.05
378.963	2.99
379.329	3.43
379.696	3.33
380.062	3.33
380.429	3.35
380.795	3.15
381.161	3.38
381.528	2.86
381.894	3.25
382.26	3.13
382.626	3.21
382.993	3
383.359	3.16
383.725	3.39
384.091	3.24
384.457	3.31
384.823	3.2
385.188	3.29
385.554	3.17
385.92	3.47
386.286	3.5
386.651	3.06
387.017	3.31
387.383	3.26
387.748	3.04
388.114	3.25
388.479	3.29
388.845	3.33
389.21	3.28
389.575	3.41
389.94	3.16
390.306	3.32
390.671	3.09
391.036	3.24
391.401	3.6
391.766	3.23
392.131	3.37
392.496	3.22
392.861	3.05
393.226	3.37
393.591	3.42
393.956	3.4
394.32	3.22
394.685	3.53
395.05	3.15
395.414	3.4
395.779	3.3
396.143	3.2
396.508	3.35
396.872	3.62
397.236	3.04
397.601	3.26
397.965	3.06
398.329	3.42
398.694	3.05
399.058	3.33
399.422	3.35
399.786	3.24
400.15	3.23
400.514	3.26
400.878	3.4
401.242	3.47
401.605	3.09
401.969	3.41
402.333	3.2
402.697	3.55
403.06	3.35
403.424	3.12
403.787	3.59
404.151	3.34
404.514	3.38
404.878	3.32
405.241	3.49
405.604	3.37
405.968	3.36
406.331	3.44
406.694	3.31
407.057	3.68
407.42	3.35
407.783	3.27
408.146	3.34
408.509	3.24
408.872	3.42
409.235	3.49
409.598	3.47
409.961	3.48
410.323	3.49
410.686	3.47
411.049	3.05
411.411	3.23
411.774	3.2
412.136	3.37
412.499	3.16
412.861	3.32
413.223	3.43
413.586	3.33
413.948	3.7
414.31	3.5
414.672	3.29
415.035	3.61
415.397	3.48
415.759	3.44
416.121	3.63
416.483	3.55
416.845	3.49
417.206	3.58
417.568	3.47
417.93	3.25
418.292	3.5
418.653	3.43
419.015	3.34
419.377	3.5
419.738	3.31
420.1	3.25
420.461	3.19
420.822	3.38
421.184	3.35
421.545	3.42
421.906	3.3
422.267	3.25
422.629	3.24
422.99	3.41
423.351	3.45
423.712	3.45
424.073	3.46
424.434	3.35
424.795	3.32
425.155	3.3
425.516	3.28
425.877	3.31
426.238	3.26
426.598	3.39
426.959	3.28
427.32	3.36
427.68	3.45
428.041	3.4
428.401	3.41
428.761	3.39
429.122	3.38
429.482	3.19
429.842	3.41
430.202	3.44
430.563	3.31
430.923	3.44
431.283	3.55
431.643	3.33
432.003	3.51
432.363	3.51
432.722	3.49
433.082	3.27
433.442	3.38
433.802	3.45
434.161	3.38
434.521	3.43
434.881	3.49
435.24	3.3
435.6	3.39
435.959	3.41
436.319	3.48
436.678	3.46
437.037	3.49
437.396	3.46
437.756	3.34
438.115	3.43
438.474	3.38
438.833	3.66
439.192	3.61
439.551	3.47
439.91	3.51
440.269	3.55
440.628	3.47
440.987	3.33
441.345	3.33
441.704	3.42
442.063	3.43
442.421	3.36
442.78	3.49
443.138	3.48
443.497	3.29
443.855	3.4
444.214	3.49
444.572	3.43
444.93	3.49
445.288	3.56
445.647	3.53
446.005	3.33
446.363	3.43
446.721	3.24
447.079	3.45
447.437	3.4
447.795	3.41
448.153	3.43
448.51	3.43
448.868	3.58
449.226	3.49
449.584	3.51
449.941	3.61
450.299	3.47
450.656	3.49
451.014	3.48
451.371	3.59
451.729	3.33
452.086	3.47
452.443	3.21
452.801	3.6
453.158	3.54
453.515	3.39
453.872	3.46
454.229	3.45
454.586	3.46
454.943	3.6
455.3	3.72
455.657	3.44
456.014	3.56
456.371	3.63
456.727	3.23
457.084	3.41
457.441	3.56
457.797	3.51
458.154	3.5
458.51	3.52
458.867	3.58
459.223	3.64
459.58	3.48
459.936	3.42
460.292	3.49
460.648	3.35
461.005	3.33
461.361	3.4
461.717	3.47
462.073	3.62
462.429	3.63
462.785	3.7
463.141	3.55
463.496	3.45
463.852	3.67
464.208	3.72
464.564	3.45
464.919	3.53
465.275	3.58
465.631	3.62
465.986	3.53
466.342	3.69
466.697	3.59
467.052	3.6
467.408	3.51
467.763	3.46
468.118	3.62
468.473	3.59
468.829	3.52
469.184	3.69
469.539	3.35
469.894	3.64
470.249	3.56
470.603	3.55
470.958	3.71
471.313	3.6
471.668	3.66
472.023	3.85
472.377	3.56
472.732	3.67
473.086	3.61
473.441	3.68
473.795	3.69
474.15	3.44
474.504	3.53
474.859	3.51
475.213	3.6
475.567	3.56
475.921	3.76
476.275	3.77
476.63	3.63
476.984	3.64
477.338	3.71
477.692	3.69
478.045	3.46
478.399	3.71
478.753	3.64
479.107	3.64
479.461	3.56
479.814	3.52
480.168	3.63
480.521	3.66
480.875	3.78
481.228	3.7
481.582	3.54
481.935	3.55
482.289	3.55
482.642	3.59
482.995	3.59
483.348	3.63
483.701	3.43
484.055	3.41
484.408	3.46
484.761	3.29
485.114	3.26
485.466	3.31
485.819	3.34
486.172	3.49
486.525	3.61
486.878	3.6
487.23	3.69
487.583	3.61
487.936	3.5
488.288	3.48
488.641	3.43
488.993	3.32
489.345	3.38
489.698	3.51
490.05	3.53
490.402	3.62
490.754	3.74
491.107	3.67
491.459	3.7
491.811	3.69
492.163	3.64
492.515	3.55
492.866	3.33
493.218	3.39
493.57	3.54
493.922	3.63
494.274	3.69
494.625	3.67
494.977	3.81
495.328	3.82
495.68	3.78
496.031	3.76
496.383	3.62
496.734	3.79
497.086	3.62
497.437	3.72
497.788	3.53
498.139	3.6
498.49	3.66
498.842	3.7
499.193	3.76
499.544	3.84
499.894	3.71
500.245	3.71
500.596	3.77
500.947	3.8
501.298	3.7
501.648	3.72
501.999	3.86
502.35	3.77
502.7	3.77
503.051	3.9
503.401	3.93
503.752	3.79
504.102	3.76
504.452	3.82
504.803	3.57
505.153	3.81
505.503	3.64
505.853	3.68
506.203	3.67
506.553	3.74
506.903	3.66
507.253	3.81
507.603	3.7
507.953	3.86
508.303	3.78
508.652	3.74
509.002	3.73
509.352	3.73
509.701	3.72
510.051	3.74
510.4	3.69
510.75	3.73
511.099	3.7
511.449	3.8
511.798	3.93
512.147	3.82
512.496	3.83
512.846	3.76
513.195	3.76
513.544	3.7
513.893	3.66
514.242	3.94
514.591	3.83
514.939	3.71
515.288	3.78
515.637	3.8
515.986	3.86
516.334	3.94
516.683	3.79
517.032	3.68
517.38	3.83
517.729	3.7
518.077	3.8
518.426	3.63
518.774	3.73
519.122	3.73
519.47	3.81
519.819	3.56
520.167	3.7
520.515	3.73
520.863	3.73
521.211	3.73
521.559	3.79
521.907	3.72
522.255	3.9
522.602	3.84
522.95	3.83
523.298	3.83
523.645	3.65
523.993	3.93
524.341	3.81
524.688	3.75
525.036	3.92
525.383	3.89
525.73	3.82
526.078	3.85
526.425	3.75
526.772	3.63
527.119	3.6
527.466	3.68
527.814	3.75
528.161	3.8
528.508	3.77
528.854	3.62
529.201	3.59
529.548	3.49
529.895	3.44
530.242	3.48
530.588	3.62
530.935	3.74
531.282	3.8
531.628	3.8
531.975	3.87
532.321	3.81
532.667	3.85
533.014	3.82
533.36	3.75
533.706	3.81
534.052	3.64
534.399	3.58
534.745	3.55
535.091	3.66
535.437	3.74
535.783	3.92
536.129	3.85
536.474	3.99
536.82	3.82
537.166	3.84
537.512	3.84
537.857	3.75
538.203	3.77
538.549	3.88
538.894	3.83
539.239	3.92
539.585	3.98
539.93	3.93
540.276	3.77
540.621	3.83
540.966	3.88
541.311	3.85
541.656	3.69
542.001	3.86
542.346	3.64
542.691	3.6
543.036	3.6
543.381	3.79
543.726	3.84
544.071	3.89
544.415	3.87
544.76	3.78
545.105	3.85
545.449	3.88
545.794	3.94
546.138	4.02
546.483	3.91
546.827	3.9
547.171	3.85
547.516	3.87
547.86	3.84
548.204	3.78
548.548	3.85
548.892	3.89
549.236	3.98
549.58	3.99
549.924	3.97
550.268	4.02
550.612	4.07
550.956	3.97
551.3	3.98
551.643	4.08
551.987	4.1
552.33	4.1
552.674	4.17
553.017	4.13
553.361	3.75
553.704	3.9
554.048	3.94
554.391	3.96
554.734	3.83
555.077	3.89
555.42	3.98
555.764	3.99
556.107	3.96
556.45	3.99
556.793	4.11
557.135	4.14
557.478	4.05
557.821	3.82
558.164	3.98
558.507	3.98
558.849	3.84
559.192	4.02
559.534	3.7
559.877	4
560.219	4.11
560.562	4.02
560.904	3.91
561.246	3.93
561.589	3.94
561.931	4.34
562.273	4.09
562.615	4.14
562.957	4.07
563.299	4.17
563.641	4.11
563.983	3.92
564.325	3.8
564.667	4.05
565.008	3.96
565.35	4
565.692	3.96
566.033	4.2
566.375	3.82
566.716	4.12
567.058	3.97
567.399	4.05
567.741	4.04
568.082	3.85
568.423	3.93
568.764	4.05
569.105	4.26
569.447	4.03
569.788	4.09
570.129	3.99
570.47	4.08
570.811	4.14
571.151	4.09
571.492	4.14
571.833	4.04
572.174	4.02
572.514	3.81
572.855	4.07
573.195	3.9
573.536	3.98
573.876	3.96
574.217	4.18
574.557	4.02
574.898	3.83
575.238	3.87
575.578	4.02
575.918	4.02
576.258	4.08
576.598	3.95
576.938	4.12
577.278	3.91
577.618	4.12
577.958	4.05
578.298	4.01
578.638	4.19
578.977	4.2
579.317	4.14
579.657	4.11
579.996	3.89
580.336	3.96
580.675	4.28
581.014	4.22
581.354	4.2
581.693	4.17
582.032	3.98
582.372	4.21
582.711	3.93
583.05	4.33
583.389	4.19
583.728	3.99
584.067	4.01
584.406	4.33
584.745	4.03
585.083	4.46
585.422	4.09
585.761	4.21
586.1	4.11
586.438	4.19
586.777	4.17
587.115	4.21
587.454	4.08
587.792	4.04
588.13	4.34
588.469	4.29
588.807	4.29
589.145	4.36
589.483	3.88
589.821	4.27
590.159	4.19
590.497	3.51
590.835	3.96
591.173	4.3
591.511	4.26
591.849	4.17
592.187	4.06
592.524	3.96
592.862	4.09
593.2	3.82
593.537	4
593.875	4
594.212	4.21
594.55	4.22
594.887	4.51
595.224	3.9
595.561	4.06
595.899	4.19
596.236	4.18
596.573	3.86
596.91	4.21
597.247	4.06
597.584	4.12
597.921	4.05
598.258	4.08
598.594	3.75
598.931	4.09
599.268	4.18
599.604	4.28
599.941	4.17
600.277	4.19
600.614	4.21
600.95	4.19
601.287	4.09
601.623	4.29
601.959	4.15
602.296	4.03
602.632	4.29
602.968	4.17
603.304	4.22
603.64	3.99
603.976	4.04
604.312	4.3
604.648	4.14
604.984	4.04
605.319	4.08
605.655	4.23
605.991	4.04
606.326	3.99
606.662	4.04
606.998	4.2
607.333	4.08
607.668	4.16
608.004	4.11
608.339	4.21
608.674	4.05
609.01	4.27
609.345	4.36
609.68	3.96
610.015	4.17
610.35	3.99
610.685	4.04
611.02	4.38
611.355	4.25
611.689	3.85
612.024	4.42
612.359	4.43
612.694	4.35
613.028	4.63
613.363	4.13
613.697	4.34
614.032	4.48
614.366	4.04
614.7	4.77
615.035	4.1
615.369	4.63
615.703	4.61
616.037	4.09
616.371	4.19
616.705	4.25
617.039	4.42
617.373	4.17
617.707	3.94
618.041	4.34
618.375	4.22
618.709	4.38
619.042	4.47
619.376	3.94
619.71	4.21
620.043	3.97
620.377	4.4
620.71	4.22
621.043	4.15
621.377	4.01
621.71	4.23
622.043	4.27
622.376	4.39
622.709	4.75
623.043	4.16
623.376	4.13
623.709	4.58
624.041	4.14
624.374	4.11
624.707	4.05
625.04	4.63
625.373	4.04
625.705	4.08
626.038	4.07
626.37	4.36
626.703	4.2
627.035	4.19
627.368	4.4
627.7	4.35
628.032	4.35
628.365	4.01
628.697	4.19
629.029	4.31
629.361	4.11
629.693	4.7
630.025	4.1
630.357	4.16
630.689	4.57
631.021	4.12
631.353	4.55
631.684	4.19
632.016	4.34
632.348	4.24
632.679	4.34
633.011	4.3
633.342	4.05
633.674	4.21
634.005	4.44
634.336	4.23
634.668	4.25
634.999	4.22
635.33	4.26
635.661	4.27
635.992	4.15
636.323	4.36
636.654	4.37
636.985	4
637.316	4.38
637.647	4.26
637.977	4.05
638.308	4.36
638.639	3.82
638.969	3.98
639.3	4.22
639.63	4.1
639.961	4.36
640.291	4.71
640.622	4.11
640.952	4.27
641.282	3.78
641.612	4.41
641.943	4.57
642.273	4.23
642.603	4.23
642.933	4.3
643.263	4.56
643.592	4.04
643.922	4.31
644.252	4.48
644.582	4.05
644.911	4.22
645.241	4.5
645.571	4.55
645.9	4.65
646.23	4.32
646.559	4.37
646.888	3.96
647.218	4.27
647.547	4.37
647.876	4.06
648.205	3.95
648.534	3.94
648.863	4.52
649.192	4.3
649.521	4.35
649.85	4.48
650.179	3.97
650.508	4.52
650.837	4.49
651.165	4.38
651.494	4.22
651.822	4.35
652.151	4.52
652.479	4.4
652.808	4.08
653.136	4.19
653.465	4.63
653.793	4.58
654.121	4.39
654.449	3.79
654.777	4.57
655.105	4.61
655.433	4.85
655.761	4.06
656.089	4.37
656.417	4.13
656.745	4.62
657.073	4.75
657.4	4.49
657.728	4.32
658.056	4.17
658.383	4.53
658.711	4.66
659.038	4.73
659.365	4.43
659.693	4.37
660.02	3.91
660.347	4.45
660.674	4.26
661.001	3.81
661.329	4.53
661.656	4.28
661.982	4.44
662.309	4.16
662.636	4.14
662.963	4.51
663.29	4.05
663.616	4.61
663.943	4.53
664.27	4.2
664.596	4.27
664.923	4.78
665.249	4.03
665.576	3.77
665.902	4.07
666.228	4.56
666.554	4.54
666.881	4.76
667.207	3.92
667.533	4.55
667.859	4.49
668.185	4.43
668.511	3.67
668.837	4.27
669.162	5.03
669.488	4.51
669.814	4.23
670.139	4.44
670.465	4.48
670.791	4.65
671.116	3.74
671.442	4.33
671.767	4.4
672.092	4.41
672.418	4.85
672.743	3.73
673.068	4.26
673.393	4.71
673.718	3.99
674.043	4.63
674.368	4.6
674.693	4.83
675.018	4.99
675.343	4.66
675.667	4.1
675.992	3.72
676.317	3.8
676.641	4.24
676.966	4.63
677.29	4.88
677.615	4.91
677.939	4.42
678.264	4.66
678.588	4.92
678.912	4.35
679.236	4.8
679.56	3.75
679.885	4.81
680.209	4.27
680.532	4.32
680.856	4.6
681.18	4.33
681.504	3.85
681.828	3.76
682.152	4.44
682.475	4.63
682.799	4.39
683.122	4.24
683.446	4.34
683.769	4.48
684.093	5.23
684.416	4.19
684.739	4.6
685.062	4.7
685.386	4.29
685.709	4.17
686.032	4.3
686.355	4.43
686.678	4.47
687.001	3.76
687.324	3.91
687.646	4.1
687.969	4.45
688.292	4.29
688.614	5.13
688.937	3.97
689.26	3.98
689.582	4.14
689.904	4.35
690.227	5.17
690.549	4.97
690.871	4.87
691.194	5.09
691.516	4.7
691.838	4.39
692.16	4.36
692.482	4.82
692.804	4.04
