Data from 444_crown_Reflection__3__69.txt Node

Date: Tue Dec 12 18:46:45 CST 2023
User: ToomeyLab
Spectrometer: FLMS14357
Trigger mode: 0
Integration Time (sec): 1.000000E-2
Scans to average: 100
Electric dark correction enabled: true
Nonlinearity correction enabled: false
Boxcar width: 0
XAxis mode: Wavelengths
Number of Pixels in Spectrum: 2048
>>>>>Begin Spectral Data<<<<<
189.047	128.58
189.435	128.58
189.823	128.58
190.211	69.67
190.599	-169.71
190.987	97.44
191.375	-161.32
191.763	54.84
192.151	11.96
192.538	-7.3
192.926	7.81
193.314	83.4
193.702	10.58
194.089	10.68
194.477	501.7
194.864	-329.92
195.252	-44.38
195.639	-83.23
196.027	112.4
196.414	5.96
196.801	52.17
197.189	-359.52
197.576	10.47
197.963	25.44
198.351	33.63
198.738	30.49
199.125	22.55
199.512	36.29
199.899	16.22
200.286	15.28
200.673	-2.51
201.06	-39.31
201.447	-111.37
201.833	-12.58
202.22	-29.78
202.607	-157.32
202.994	25.96
203.38	31.7
203.767	-45.29
204.154	-6.36
204.54	55.6
204.927	36.88
205.313	41.53
205.699	19.01
206.086	-5.67
206.472	66.02
206.858	-0.01
207.245	-25.84
207.631	17.59
208.017	13.74
208.403	-13.61
208.789	4.8
209.175	33.73
209.561	16.96
209.947	-19.42
210.333	36.13
210.719	14
211.105	3.49
211.491	32.37
211.876	10.27
212.262	34.74
212.648	-21.71
213.034	-64.35
213.419	20.3
213.805	6.96
214.19	11.73
214.576	10.97
214.961	4.56
215.346	-28.99
215.732	15.42
216.117	18.98
216.502	-23.42
216.888	21.64
217.273	9.67
217.658	-29.46
218.043	10
218.428	20.11
218.813	12.75
219.198	-1.55
219.583	29.39
219.968	42.8
220.353	5.6
220.738	14.27
221.122	9.2
221.507	-18.46
221.892	-3.69
222.276	14.92
222.661	12
223.046	7.24
223.43	4.05
223.815	9.93
224.199	16.53
224.583	8.31
224.968	7.34
225.352	1.35
225.736	9.16
226.121	9.54
226.505	1.72
226.889	-3.8
227.273	-2.25
227.657	12.02
228.041	8.77
228.425	3.99
228.809	8.08
229.193	4.17
229.577	8.18
229.961	5.04
230.344	5.34
230.728	7.06
231.112	6.67
231.495	7.11
231.879	8.34
232.263	6.24
232.646	7.15
233.03	6.55
233.413	6.19
233.797	5.78
234.18	1.96
234.563	4.59
234.946	7.18
235.33	9.94
235.713	5.74
236.096	5.72
236.479	5.35
236.862	6.13
237.245	4.13
237.628	6.04
238.011	5.44
238.394	5.63
238.777	6.49
239.16	6.81
239.543	6.77
239.925	8.77
240.308	6.13
240.691	6.02
241.073	7.1
241.456	7.78
241.838	5.64
242.221	6.3
242.603	7.43
242.986	5.84
243.368	7.19
243.75	6.57
244.133	6.63
244.515	6.72
244.897	6.67
245.279	6.41
245.661	4.65
246.043	5.43
246.425	7.45
246.807	5.93
247.189	6.27
247.571	6.16
247.953	5.89
248.335	5.93
248.717	5.76
249.098	6.23
249.48	6.1
249.862	5.82
250.243	5.81
250.625	6.36
251.006	5.73
251.388	5.73
251.769	6.16
252.151	5.8
252.532	6.19
252.913	5.72
253.295	7
253.676	6.24
254.057	5.2
254.438	6.59
254.819	6.11
255.2	5.81
255.581	6.34
255.962	4.74
256.343	5.57
256.724	5.2
257.105	5.55
257.486	5.03
257.867	5.15
258.247	5.51
258.628	5.46
259.009	4.85
259.389	6.24
259.77	5.71
260.15	5.39
260.531	6.09
260.911	5.67
261.292	5.13
261.672	5.28
262.052	5.44
262.432	5.22
262.813	5.44
263.193	5.63
263.573	5.29
263.953	6.3
264.333	6.01
264.713	5.3
265.093	5.6
265.473	5.84
265.853	5.11
266.233	4.52
266.612	5
266.992	4.6
267.372	5.72
267.752	5.91
268.131	4.35
268.511	4.84
268.89	4.75
269.27	4.43
269.649	4.91
270.029	5.09
270.408	5.04
270.787	4.83
271.167	5.85
271.546	5.02
271.925	5.8
272.304	5.44
272.683	4.59
273.062	5.13
273.441	4.97
273.82	4.48
274.199	5.02
274.578	4.66
274.957	4.83
275.336	5.21
275.715	5.37
276.093	4.99
276.472	5.42
276.851	5.1
277.229	4.54
277.608	4.7
277.986	4.17
278.365	4.66
278.743	4.84
279.122	5.69
279.5	4.61
279.878	4.12
280.257	4.96
280.635	4.49
281.013	5.1
281.391	4.36
281.769	4.52
282.147	4.42
282.525	4.06
282.903	4.43
283.281	4.26
283.659	4.94
284.037	4.67
284.415	4.72
284.792	4.78
285.17	4.66
285.548	4.69
285.925	4.57
286.303	4.27
286.68	4.37
287.058	4.53
287.435	4.58
287.813	4.53
288.19	4.42
288.567	4.78
288.945	4.83
289.322	4.34
289.699	4.76
290.076	4.24
290.453	4.9
290.83	4.84
291.207	4.97
291.584	4.41
291.961	4.45
292.338	4.48
292.715	4.33
293.092	4.83
293.469	4.77
293.845	4.61
294.222	4.83
294.599	4.93
294.975	4.68
295.352	4.49
295.728	4.55
296.105	4.28
296.481	4.72
296.858	4.71
297.234	5.09
297.61	4.48
297.986	4.7
298.363	5
298.739	4.16
299.115	4.28
299.491	4.21
299.867	4.47
300.243	4.34
300.619	4.58
300.995	4.6
301.371	4.6
301.746	4.94
302.122	5.18
302.498	4.76
302.874	4.64
303.249	5.4
303.625	4.02
304	4.71
304.376	4.79
304.751	4.72
305.127	4.19
305.502	4.86
305.878	4.72
306.253	3.86
306.628	4.66
307.003	4.4
307.378	4.41
307.754	4.61
308.129	4.3
308.504	4.71
308.879	3.86
309.254	4.62
309.629	4.44
310.003	5.06
310.378	4.26
310.753	5
311.128	5.09
311.502	3.91
311.877	4.51
312.252	3.6
312.626	4.48
313.001	4.41
313.375	4.11
313.75	4.87
314.124	4.63
314.498	4.5
314.873	4.09
315.247	4.08
315.621	4.35
315.995	4.66
316.369	4.42
316.743	3.91
317.117	3.89
317.491	3.96
317.865	4.27
318.239	4.2
318.613	4.54
318.987	5.11
319.361	3.75
319.734	3.79
320.108	4.5
320.482	4.46
320.855	3.93
321.229	4.78
321.602	4.07
321.976	4.19
322.349	4.7
322.723	3.78
323.096	3.56
323.469	4.22
323.843	4.72
324.216	4.86
324.589	4.22
324.962	4.54
325.335	5.14
325.708	4.23
326.081	4.26
326.454	3.97
326.827	4.81
327.2	4.34
327.573	4.15
327.945	4.55
328.318	4.41
328.691	3.72
329.063	4.81
329.436	4.41
329.809	4.39
330.181	3.78
330.553	4.48
330.926	4.17
331.298	4.25
331.671	3.74
332.043	3.92
332.415	4.53
332.787	3.99
333.159	4.43
333.532	4.74
333.904	4.17
334.276	4.93
334.648	4.06
335.02	3.91
335.391	4.35
335.763	3.89
336.135	4.56
336.507	4.66
336.879	4.39
337.25	3.94
337.622	4.43
337.993	4.16
338.365	4.14
338.736	4.36
339.108	3.83
339.479	4.45
339.851	4.09
340.222	3.92
340.593	4.43
340.964	4.19
341.336	4.5
341.707	4.22
342.078	3.83
342.449	3.89
342.82	4.28
343.191	4.17
343.562	4.51
343.933	4.33
344.303	4.18
344.674	4.45
345.045	4.44
345.416	4.07
345.786	4.39
346.157	4.61
346.527	4.72
346.898	3.84
347.268	3.93
347.639	4.68
348.009	4.45
348.38	4.14
348.75	4.69
349.12	4.17
349.49	4.15
349.861	4.73
350.231	4.26
350.601	4.38
350.971	4.37
351.341	4.12
351.711	4.34
352.081	4.62
352.45	4.14
352.82	4.34
353.19	4.15
353.56	4.09
353.929	4.21
354.299	3.99
354.669	4.2
355.038	3.65
355.408	3.91
355.777	4.89
356.147	3.92
356.516	4.38
356.885	4.29
357.254	4.63
357.624	4.08
357.993	3.93
358.362	4.21
358.731	4.34
359.1	4.31
359.469	4.23
359.838	3.85
360.207	4.04
360.576	4.32
360.945	4.06
361.314	4.42
361.682	4.72
362.051	4.37
362.42	4.43
362.788	4.34
363.157	4.53
363.525	4.49
363.894	4.16
364.262	4.41
364.631	4.2
364.999	4.59
365.367	4.67
365.735	4.13
366.104	4.22
366.472	4.29
366.84	4.34
367.208	4.34
367.576	4.27
367.944	4.72
368.312	4.45
368.68	4.46
369.048	4.73
369.416	4.36
369.783	4.78
370.151	4.5
370.519	4.05
370.886	4.88
371.254	4.5
371.621	4.35
371.989	4.35
372.356	4.37
372.724	4.8
373.091	4.23
373.458	4.37
373.826	4.5
374.193	4.26
374.56	4.47
374.927	4.62
375.294	4.48
375.661	4.94
376.028	4.74
376.395	4.76
376.762	5.07
377.129	4.67
377.496	4.6
377.863	4.43
378.229	4.54
378.596	4.38
378.963	4.39
379.329	4.56
379.696	4.5
380.062	4.76
380.429	4.47
380.795	4.68
381.161	4.61
381.528	4.63
381.894	4.94
382.26	4.44
382.626	4.48
382.993	5.01
383.359	4.43
383.725	4.58
384.091	4.65
384.457	4.59
384.823	4.54
385.188	4.58
385.554	4.56
385.92	4.58
386.286	4.76
386.651	4.47
387.017	4.87
387.383	4.78
387.748	4.57
388.114	4.77
388.479	4.84
388.845	4.66
389.21	4.6
389.575	4.4
389.94	4.75
390.306	4.95
390.671	4.74
391.036	4.89
391.401	4.38
391.766	4.66
392.131	4.79
392.496	4.68
392.861	4.5
393.226	4.75
393.591	4.56
393.956	4.69
394.32	4.74
394.685	4.83
395.05	4.49
395.414	4.6
395.779	4.72
396.143	4.74
396.508	4.34
396.872	4.74
397.236	4.68
397.601	4.78
397.965	4.82
398.329	4.81
398.694	4.46
399.058	4.88
399.422	4.81
399.786	4.74
400.15	4.54
400.514	4.92
400.878	4.99
401.242	4.53
401.605	4.82
401.969	4.89
402.333	4.83
402.697	4.73
403.06	4.49
403.424	4.83
403.787	4.25
404.151	4.87
404.514	4.6
404.878	4.87
405.241	4.96
405.604	4.52
405.968	4.67
406.331	4.89
406.694	5
407.057	4.52
407.42	4.67
407.783	4.58
408.146	4.84
408.509	4.87
408.872	4.99
409.235	4.79
409.598	4.69
409.961	4.74
410.323	5.08
410.686	4.66
411.049	4.68
411.411	4.95
411.774	4.94
412.136	5.1
412.499	4.78
412.861	4.84
413.223	5.16
413.586	4.93
413.948	4.85
414.31	4.87
414.672	5.07
415.035	4.74
415.397	4.81
415.759	5.02
416.121	5.09
416.483	4.87
416.845	4.76
417.206	4.93
417.568	4.68
417.93	4.94
418.292	4.89
418.653	4.92
419.015	4.91
419.377	5.06
419.738	4.79
420.1	4.85
420.461	4.95
420.822	4.83
421.184	4.77
421.545	4.95
421.906	4.83
422.267	4.75
422.629	4.8
422.99	4.76
423.351	4.75
423.712	4.75
424.073	4.78
424.434	4.82
424.795	4.92
425.155	4.73
425.516	4.73
425.877	4.78
426.238	4.86
426.598	4.72
426.959	4.83
427.32	4.73
427.68	4.95
428.041	4.82
428.401	5.01
428.761	4.92
429.122	4.97
429.482	4.96
429.842	5.1
430.202	4.83
430.563	4.9
430.923	4.89
431.283	5.07
431.643	5.11
432.003	4.89
432.363	4.95
432.722	4.96
433.082	4.88
433.442	4.97
433.802	5.01
434.161	4.91
434.521	4.94
434.881	4.93
435.24	4.99
435.6	5.05
435.959	4.97
436.319	5.04
436.678	5.03
437.037	4.81
437.396	4.85
437.756	5.09
438.115	4.91
438.474	5.1
438.833	5.16
439.192	5.12
439.551	5.1
439.91	4.86
440.269	4.9
440.628	4.98
440.987	4.93
441.345	4.98
441.704	4.98
442.063	4.95
442.421	4.91
442.78	4.91
443.138	4.84
443.497	4.94
443.855	4.97
444.214	4.91
444.572	5.06
444.93	5.03
445.288	4.86
445.647	5.01
446.005	4.95
446.363	4.79
446.721	4.92
447.079	5.01
447.437	4.8
447.795	4.9
448.153	4.84
448.51	4.98
448.868	4.98
449.226	4.96
449.584	5.05
449.941	4.95
450.299	5.08
450.656	4.98
451.014	4.99
451.371	5.08
451.729	5.11
452.086	4.99
452.443	5.16
452.801	5.08
453.158	5.05
453.515	5.05
453.872	5
454.229	5.07
454.586	5
454.943	4.84
455.3	5.08
455.657	5.1
456.014	5.12
456.371	5.14
456.727	5.11
457.084	4.98
457.441	5.06
457.797	5.09
458.154	4.97
458.51	4.98
458.867	5.17
459.223	4.95
459.58	5.02
459.936	4.85
460.292	5.02
460.648	5.09
461.005	5
461.361	4.97
461.717	5
462.073	5
462.429	4.89
462.785	4.97
463.141	5
463.496	4.93
463.852	5.32
464.208	5.01
464.564	5.17
464.919	5.27
465.275	5.28
465.631	5.28
465.986	5.16
466.342	5.01
466.697	5.06
467.052	5.29
467.408	5.13
467.763	5.06
468.118	5.1
468.473	5.27
468.829	5.1
469.184	5.09
469.539	5.2
469.894	5.26
470.249	5.22
470.603	5.03
470.958	5.13
471.313	5.39
471.668	5.11
472.023	5.24
472.377	5.05
472.732	5.22
473.086	5.24
473.441	5.26
473.795	5.08
474.15	5.29
474.504	5.16
474.859	5.21
475.213	5.07
475.567	5.17
475.921	5.14
476.275	5.17
476.63	5.2
476.984	5.26
477.338	5.17
477.692	5.16
478.045	5.18
478.399	5.2
478.753	5.15
479.107	5.23
479.461	5.19
479.814	5.15
480.168	5.04
480.521	5.14
480.875	5.12
481.228	5.25
481.582	5.09
481.935	5.16
482.289	5.24
482.642	5.26
482.995	5.09
483.348	5.08
483.701	5.24
484.055	5.16
484.408	5.06
484.761	4.93
485.114	4.95
485.466	4.8
485.819	4.78
486.172	4.81
486.525	4.88
486.878	4.88
487.23	4.87
487.583	4.97
487.936	5.08
488.288	4.91
488.641	4.96
488.993	4.89
489.345	4.91
489.698	4.88
490.05	4.9
490.402	4.96
490.754	4.97
491.107	5.02
491.459	5.06
491.811	5.18
492.163	5.08
492.515	5.08
492.866	4.91
493.218	4.93
493.57	4.93
493.922	4.9
494.274	5.08
494.625	5.05
494.977	5.11
495.328	5.23
495.68	5.03
496.031	5.29
496.383	5.2
496.734	5.3
497.086	5.16
497.437	5.13
497.788	5.21
498.139	5.26
498.49	5.28
498.842	5.21
499.193	5.11
499.544	5.2
499.894	5.11
500.245	5.26
500.596	5.15
500.947	5.2
501.298	5.16
501.648	5.23
501.999	5.24
502.35	5.18
502.7	5.21
503.051	5.23
503.401	5.22
503.752	5.31
504.102	5.16
504.452	5.24
504.803	5.22
505.153	5.23
505.503	5.21
505.853	5.29
506.203	5.22
506.553	5.17
506.903	5.25
507.253	5.2
507.603	5.19
507.953	5.24
508.303	5.3
508.652	5.31
509.002	5.26
509.352	5.2
509.701	5.29
510.051	5.19
510.4	5.14
510.75	5.22
511.099	5.13
511.449	5.33
511.798	5.19
512.147	5.11
512.496	5.24
512.846	5.17
513.195	5.17
513.544	5.22
513.893	5.21
514.242	5.2
514.591	5.07
514.939	5.27
515.288	5.21
515.637	5.23
515.986	5.12
516.334	5.27
516.683	5.25
517.032	5.18
517.38	5.2
517.729	5.19
518.077	5.15
518.426	5.29
518.774	5.15
519.122	5.22
519.47	5.15
519.819	5.1
520.167	5.06
520.515	4.99
520.863	5.16
521.211	5.15
521.559	5.09
521.907	5.12
522.255	5.14
522.602	5.21
522.95	5.17
523.298	5.21
523.645	5.27
523.993	5.27
524.341	5.29
524.688	5.16
525.036	5.42
525.383	5.22
525.73	5.18
526.078	5.08
526.425	5.16
526.772	5.13
527.119	5.22
527.466	5.1
527.814	5
528.161	5.12
528.508	5.15
528.854	5.03
529.201	5.1
529.548	5.03
529.895	4.97
530.242	4.88
530.588	4.88
530.935	4.93
531.282	4.93
531.628	5.04
531.975	5.01
532.321	5.01
532.667	5.07
533.014	5.09
533.36	5.15
533.706	5.07
534.052	5.07
534.399	5.11
534.745	4.99
535.091	5.03
535.437	5.03
535.783	5.05
536.129	5.07
536.474	5.06
536.82	5.12
537.166	5.2
537.512	5.14
537.857	5.24
538.203	5.09
538.549	5.11
538.894	5.13
539.239	5.09
539.585	5.13
539.93	5.24
540.276	5.12
540.621	5.14
540.966	5.21
541.311	5.22
541.656	5.18
542.001	5.11
542.346	5.21
542.691	5.04
543.036	4.97
543.381	4.9
543.726	4.96
544.071	4.95
544.415	5.03
544.76	5.11
545.105	5.16
545.449	5.03
545.794	5.19
546.138	5.14
546.483	5.24
546.827	5.18
547.171	5.27
547.516	5.09
547.86	5.21
548.204	5.16
548.548	5.13
548.892	5.18
549.236	5.16
549.58	5.21
549.924	5.1
550.268	5.35
550.612	5.11
550.956	5.23
551.3	5.5
551.643	5.14
551.987	5.17
552.33	5.36
552.674	5.39
553.017	5.46
553.361	5.31
553.704	5.15
554.048	5.31
554.391	5.21
554.734	5.3
555.077	5.37
555.42	5.13
555.764	5.31
556.107	5.31
556.45	5.19
556.793	5.23
557.135	5.08
557.478	5.12
557.821	5.23
558.164	5.24
558.507	5.36
558.849	5.42
559.192	5.3
559.534	5.19
559.877	5.24
560.219	5.38
560.562	5.31
560.904	5.28
561.246	5.4
561.589	5.24
561.931	5.36
562.273	5.08
562.615	5.28
562.957	5.38
563.299	5.22
563.641	5.31
563.983	5.33
564.325	5.26
564.667	5.46
565.008	5.14
565.35	5.14
565.692	5.26
566.033	5.5
566.375	5.24
566.716	5.11
567.058	5.2
567.399	5.2
567.741	5.32
568.082	5.08
568.423	5.13
568.764	5.21
569.105	5.14
569.447	5.26
569.788	5.38
570.129	5.05
570.47	5.34
570.811	5.14
571.151	5.29
571.492	5.3
571.833	5.38
572.174	5.27
572.514	5.15
572.855	5.28
573.195	5.12
573.536	5.09
573.876	5.27
574.217	5.29
574.557	5.17
574.898	5.28
575.238	5.4
575.578	5.21
575.918	5.36
576.258	5.23
576.598	5.07
576.938	5.18
577.278	5.2
577.618	5.28
577.958	5.2
578.298	5.32
578.638	5.21
578.977	5.21
579.317	5.24
579.657	5.15
579.996	5.42
580.336	5.32
580.675	5.3
581.014	5.26
581.354	5.3
581.693	5.33
582.032	5.19
582.372	5.22
582.711	5.3
583.05	5.35
583.389	5.23
583.728	5.29
584.067	5.42
584.406	5.41
584.745	5.47
585.083	5.18
585.422	5.63
585.761	5.5
586.1	5.09
586.438	5.54
586.777	5.34
587.115	5.2
587.454	5.29
587.792	4.98
588.13	5.32
588.469	5.09
588.807	5.11
589.145	5.27
589.483	5.01
589.821	5.55
590.159	5.23
590.497	5.42
590.835	5.18
591.173	5.31
591.511	5.35
591.849	5.14
592.187	5.21
592.524	5.06
592.862	5.4
593.2	5.01
593.537	5.03
593.875	5.2
594.212	5.07
594.55	5.57
594.887	5.71
595.224	5.37
595.561	5.25
595.899	5.19
596.236	5.29
596.573	5.25
596.91	5.4
597.247	5.25
597.584	5.41
597.921	5.29
598.258	5.5
598.594	5.36
598.931	5.25
599.268	5.21
599.604	5.16
599.941	5.12
600.277	5.22
600.614	5.52
600.95	5.28
601.287	5.35
601.623	5.53
601.959	5.34
602.296	5.58
602.632	5.13
602.968	5.37
603.304	5.44
603.64	5.65
603.976	5.13
604.312	5.25
604.648	5.23
604.984	5.18
605.319	5.22
605.655	5.32
605.991	5.18
606.326	5.12
606.662	5.25
606.998	5.11
607.333	5.27
607.668	5.31
608.004	5.33
608.339	5.36
608.674	5.17
609.01	5.42
609.345	5.15
609.68	5.28
610.015	5.14
610.35	5.17
610.685	5.33
611.02	5.33
611.355	4.95
611.689	5.36
612.024	5.11
612.359	5.33
612.694	5.12
613.028	5.18
613.363	5.23
613.697	5.19
614.032	5.3
614.366	5.7
614.7	5.41
615.035	5.34
615.369	5.44
615.703	4.94
616.037	5.11
616.371	5.16
616.705	5.28
617.039	5.21
617.373	5.3
617.707	5.27
618.041	5.17
618.375	5.23
618.709	5.07
619.042	5.48
619.376	5.24
619.71	5.26
620.043	5.16
620.377	5.33
620.71	5.24
621.043	5.08
621.377	4.94
621.71	5.29
622.043	5.6
622.376	5.35
622.709	5.51
623.043	5.03
623.376	5.51
623.709	5.39
624.041	5.11
624.374	4.99
624.707	4.82
625.04	5.28
625.373	5.62
625.705	5.6
626.038	5.27
626.37	5.63
626.703	5.68
627.035	5.32
627.368	5.37
627.7	5.29
628.032	5.09
628.365	5.3
628.697	5.45
629.029	5.09
629.361	5.38
629.693	5.36
630.025	5.04
630.357	5.32
630.689	5.34
631.021	5.73
631.353	5.57
631.684	5.34
632.016	5.19
632.348	5.58
632.679	4.86
633.011	5.84
633.342	5.55
633.674	5.56
634.005	5.43
634.336	5.7
634.668	5.35
634.999	5.53
635.33	5.63
635.661	5.57
635.992	5.23
636.323	5.22
636.654	5.62
636.985	5.31
637.316	5.23
637.647	5.4
637.977	5.55
638.308	5.52
638.639	5.58
638.969	5.31
639.3	5.14
639.63	5.79
639.961	5.44
640.291	5.2
640.622	5.07
640.952	5.41
641.282	5.07
641.612	5.66
641.943	5.56
642.273	5.62
642.603	5.82
642.933	5.53
643.263	5.63
643.592	5.37
643.922	6.2
644.252	5.5
644.582	4.83
644.911	5.48
645.241	4.77
645.571	5.6
645.9	5.24
646.23	5.44
646.559	5.41
646.888	5.62
647.218	5.48
647.547	5.61
647.876	5.27
648.205	5.34
648.534	5.92
648.863	5.8
649.192	5.89
649.521	5.82
649.85	4.89
650.179	5.8
650.508	5.61
650.837	5.22
651.165	4.93
651.494	5.59
651.822	5.5
652.151	5.64
652.479	5.55
652.808	5.86
653.136	5.41
653.465	5.69
653.793	5.69
654.121	5.34
654.449	5.59
654.777	5.64
655.105	5.42
655.433	6.53
655.761	5.7
656.089	5.76
656.417	5.68
656.745	5.63
657.073	5.13
657.4	5.79
657.728	5.08
658.056	5.59
658.383	5.12
658.711	5.56
659.038	5.56
659.365	5.9
659.693	5.77
660.02	5.81
660.347	5.54
660.674	5.59
661.001	5.82
661.329	5.21
661.656	5.42
661.982	5.24
662.309	5.87
662.636	5.3
662.963	5.76
663.29	5.73
663.616	5.38
663.943	5.42
664.27	6
664.596	5.65
664.923	6.15
665.249	4.97
665.576	5.62
665.902	5.84
666.228	5.43
666.554	5.74
666.881	4.65
667.207	5.83
667.533	5.58
667.859	5.54
668.185	5.97
668.511	5.76
668.837	4.91
669.162	6.35
669.488	5.68
669.814	6
670.139	5.23
670.465	5.5
670.791	5.72
671.116	5.51
671.442	5.78
671.767	5.5
672.092	6.42
672.418	5.69
672.743	5.75
673.068	5.16
673.393	5.49
673.718	5.26
674.043	5.45
674.368	5.19
674.693	5.74
675.018	5.33
675.343	5.04
675.667	5.85
675.992	5.68
676.317	4.91
676.641	5.42
676.966	5.82
677.29	5.23
677.615	5.8
677.939	5.35
678.264	6.52
678.588	5.41
678.912	6.59
679.236	5.2
679.56	5.41
679.885	5.79
680.209	5.39
680.532	6.11
680.856	5.9
681.18	5.25
681.504	5.65
681.828	6.08
682.152	5.39
682.475	5.72
682.799	6.05
683.122	6.06
683.446	5.42
683.769	6.44
684.093	5.56
684.416	6.34
684.739	5.52
685.062	5.65
685.386	5.56
685.709	5.81
686.032	5.75
686.355	5.76
686.678	5.97
687.001	6.1
687.324	5.83
687.646	5.37
687.969	5.77
688.292	6.2
688.614	5.23
688.937	6.25
689.26	5.91
689.582	5.12
689.904	5.38
690.227	6.01
690.549	6.18
690.871	5.97
691.194	5.71
691.516	6.36
691.838	5.97
692.16	6.07
692.482	5.37
692.804	5.56
693.126	6.32
