Data from 444_crown_Reflection__4__70.txt Node

Date: Tue Dec 12 18:46:46 CST 2023
User: ToomeyLab
Spectrometer: FLMS14357
Trigger mode: 0
Integration Time (sec): 1.000000E-2
Scans to average: 100
Electric dark correction enabled: true
Nonlinearity correction enabled: false
Boxcar width: 0
XAxis mode: Wavelengths
Number of Pixels in Spectrum: 2048
>>>>>Begin Spectral Data<<<<<
189.047	81.83
189.435	81.83
189.823	81.83
190.211	24.84
190.599	-65.93
190.987	177.44
191.375	-52.15
191.763	67.38
192.151	28.95
192.538	78.73
192.926	59.15
193.314	-36.16
193.702	171.87
194.089	226.23
194.477	61.56
194.864	874.2
195.252	821.73
195.639	-236.36
196.027	57.23
196.414	89.35
196.801	-19.28
197.189	831.14
197.576	53.02
197.963	16.94
198.351	39.41
198.738	10.53
199.125	28.58
199.512	-23.84
199.899	27.95
200.286	56.37
200.673	10.12
201.06	11.14
201.447	-67.38
201.833	21.93
202.22	-2.41
202.607	-341.24
202.994	-17.17
203.38	-9.03
203.767	-59.72
204.154	0.09
204.54	31.04
204.927	-18.46
205.313	-2.7
205.699	-57.96
206.086	17.72
206.472	5.5
206.858	-17.18
207.245	15.16
207.631	36.49
208.017	-13.65
208.403	-31.16
208.789	2.8
209.175	-48.6
209.561	15.62
209.947	-13.87
210.333	9.13
210.719	4.75
211.105	-21.28
211.491	14.42
211.876	18.14
212.262	36.14
212.648	-4.07
213.034	-41.83
213.419	7.2
213.805	-19.03
214.19	2.28
214.576	20.9
214.961	24.91
215.346	-19.2
215.732	23.92
216.117	-8.22
216.502	-32.61
216.888	-8.44
217.273	-12.87
217.658	-15.85
218.043	4.94
218.428	32.98
218.813	-14.41
219.198	-49.76
219.583	-10.14
219.968	18.72
220.353	0.08
220.738	2.82
221.122	-10.59
221.507	21.88
221.892	0.77
222.276	-5.02
222.661	6.29
223.046	-2.79
223.43	0.5
223.815	3.45
224.199	14.19
224.583	9.16
224.968	9.02
225.352	-13.14
225.736	12.34
226.121	-4.44
226.505	3.71
226.889	2.23
227.273	5.69
227.657	13.53
228.041	6.71
228.425	3.66
228.809	2.09
229.193	1.96
229.577	7.37
229.961	4.14
230.344	6.79
230.728	6.79
231.112	7.3
231.495	6.03
231.879	7.43
232.263	3.24
232.646	5.43
233.03	6.01
233.413	5.16
233.797	5.95
234.18	2.47
234.563	3.26
234.946	8.08
235.33	9.46
235.713	7.84
236.096	6.77
236.479	5.33
236.862	5.73
237.245	7.5
237.628	6.77
238.011	9.41
238.394	6.04
238.777	7.16
239.16	4.97
239.543	6.07
239.925	6.75
240.308	5.62
240.691	5.67
241.073	7.11
241.456	6.25
241.838	5.57
242.221	6.86
242.603	6.9
242.986	5.34
243.368	6.54
243.75	5.58
244.133	6.5
244.515	6.79
244.897	5.99
245.279	6.57
245.661	5.26
246.043	5.23
246.425	7.37
246.807	5.23
247.189	6.36
247.571	5.99
247.953	5.75
248.335	6.1
248.717	6.01
249.098	6.11
249.48	5.69
249.862	5.92
250.243	5.69
250.625	6.38
251.006	6.08
251.388	6.12
251.769	5.51
252.151	4.7
252.532	6.43
252.913	5.31
253.295	6.59
253.676	5.36
254.057	5.47
254.438	6.35
254.819	5.43
255.2	4.92
255.581	5.59
255.962	4.91
256.343	5.47
256.724	6.21
257.105	5.26
257.486	4.66
257.867	4.73
258.247	4.42
258.628	5.03
259.009	5.49
259.389	5.12
259.77	4.53
260.15	5.65
260.531	5.69
260.911	5.94
261.292	5.16
261.672	5.2
262.052	5.24
262.432	5.48
262.813	5.26
263.193	5.74
263.573	5.18
263.953	6.11
264.333	6.01
264.713	4.75
265.093	4.81
265.473	5.82
265.853	3.59
266.233	5.33
266.612	4.47
266.992	5.44
267.372	5.49
267.752	5.86
268.131	5.29
268.511	4.99
268.89	4.6
269.27	4.79
269.649	4.78
270.029	4.88
270.408	5.65
270.787	4.5
271.167	5.55
271.546	4.48
271.925	5.34
272.304	5.33
272.683	4.46
273.062	5.45
273.441	4.94
273.82	4.78
274.199	5.04
274.578	4.83
274.957	4.63
275.336	5.03
275.715	5.58
276.093	4.64
276.472	4.5
276.851	4.95
277.229	4.99
277.608	4.53
277.986	4.1
278.365	4.59
278.743	4.97
279.122	5.52
279.5	4.44
279.878	4.28
280.257	3.77
280.635	5.12
281.013	4.5
281.391	5.73
281.769	4.26
282.147	4.78
282.525	4.12
282.903	4.54
283.281	4.07
283.659	4
284.037	4.67
284.415	4.57
284.792	4.96
285.17	4.28
285.548	5
285.925	4.15
286.303	4.54
286.68	4.44
287.058	4.76
287.435	4.3
287.813	4.22
288.19	4.49
288.567	4.36
288.945	4.8
289.322	4.16
289.699	4.69
290.076	3.84
290.453	5.01
290.83	4.48
291.207	4.8
291.584	4.38
291.961	4.94
292.338	4.43
292.715	4.32
293.092	4.15
293.469	4.21
293.845	4.52
294.222	4.76
294.599	4.01
294.975	4.6
295.352	4.48
295.728	4.54
296.105	4.1
296.481	4.93
296.858	4.5
297.234	4.72
297.61	4.79
297.986	4.62
298.363	4.5
298.739	4.31
299.115	4.07
299.491	4.09
299.867	4.65
300.243	4.15
300.619	4.54
300.995	4.4
301.371	4.71
301.746	4.17
302.122	5.28
302.498	4.67
302.874	4.31
303.249	4.69
303.625	4.67
304	4.85
304.376	4.65
304.751	4.69
305.127	4.18
305.502	4.32
305.878	4.64
306.253	3.67
306.628	4.18
307.003	4.54
307.378	4.24
307.754	4.35
308.129	4.24
308.504	5.33
308.879	4.09
309.254	4.7
309.629	4.27
310.003	4.23
310.378	4.8
310.753	5.18
311.128	4.44
311.502	3.86
311.877	4.04
312.252	3.99
312.626	4.26
313.001	4.5
313.375	3.94
313.75	4.38
314.124	4.72
314.498	4.6
314.873	4.29
315.247	4.36
315.621	4.28
315.995	4.34
316.369	4.39
316.743	3.98
317.117	4.12
317.491	3.93
317.865	3.64
318.239	4.96
318.613	4.28
318.987	4.57
319.361	3.37
319.734	4.17
320.108	4.52
320.482	4.38
320.855	4.2
321.229	4.08
321.602	4.39
321.976	4.21
322.349	4.61
322.723	4.13
323.096	4.26
323.469	4.15
323.843	4.77
324.216	4.34
324.589	4.35
324.962	4.81
325.335	4.26
325.708	4.03
326.081	4.14
326.454	4.47
326.827	4.86
327.2	4.41
327.573	4.31
327.945	4.36
328.318	4.73
328.691	3.81
329.063	4.26
329.436	4.34
329.809	4.35
330.181	3.32
330.553	4.34
330.926	4.44
331.298	4.43
331.671	4.26
332.043	3.94
332.415	4.07
332.787	4.14
333.159	4.19
333.532	4.23
333.904	4.15
334.276	5.09
334.648	4.58
335.02	3.82
335.391	3.75
335.763	3.86
336.135	4.38
336.507	4.28
336.879	4.16
337.25	4.99
337.622	4.33
337.993	4.05
338.365	3.79
338.736	4.24
339.108	4.1
339.479	4.37
339.851	4.01
340.222	3.8
340.593	3.75
340.964	4.34
341.336	4.72
341.707	4.13
342.078	3.68
342.449	4.52
342.82	4.49
343.191	3.88
343.562	4.02
343.933	4.86
344.303	4.18
344.674	4.11
345.045	4.14
345.416	4.33
345.786	3.74
346.157	3.96
346.527	4.55
346.898	3.99
347.268	4.53
347.639	4.88
348.009	4.11
348.38	4.22
348.75	4.36
349.12	4.56
349.49	3.76
349.861	4.64
350.231	4.23
350.601	4.76
350.971	4.77
351.341	4.61
351.711	4.22
352.081	4.58
352.45	3.96
352.82	4.34
353.19	4.38
353.56	4.06
353.929	4.39
354.299	4.05
354.669	4.38
355.038	3.88
355.408	3.94
355.777	4.22
356.147	4.46
356.516	4.32
356.885	4.35
357.254	4.28
357.624	4.1
357.993	4.33
358.362	4.32
358.731	4.31
359.1	4.25
359.469	4.21
359.838	4.35
360.207	4.34
360.576	4.35
360.945	3.74
361.314	4.04
361.682	4.33
362.051	4.49
362.42	4.67
362.788	4.27
363.157	4.63
363.525	4.41
363.894	4.02
364.262	4.22
364.631	4.23
364.999	4.45
365.367	4.28
365.735	4.27
366.104	4.6
366.472	4.13
366.84	4.35
367.208	4.72
367.576	4.22
367.944	4.44
368.312	4.43
368.68	4.05
369.048	4.18
369.416	4.35
369.783	4.6
370.151	4.57
370.519	4.24
370.886	4.53
371.254	4.35
371.621	4.47
371.989	3.95
372.356	4.35
372.724	4.13
373.091	4.13
373.458	4.43
373.826	4.4
374.193	3.98
374.56	4.63
374.927	4.51
375.294	4.42
375.661	4.48
376.028	4.54
376.395	4.86
376.762	4.71
377.129	4.32
377.496	4.77
377.863	4.17
378.229	4.47
378.596	4.19
378.963	4.7
379.329	4.47
379.696	4.39
380.062	4.89
380.429	4.46
380.795	4.8
381.161	4.77
381.528	4.54
381.894	4.77
382.26	4.61
382.626	4.48
382.993	4.68
383.359	4.3
383.725	4.24
384.091	4.44
384.457	4.66
384.823	4.84
385.188	4.74
385.554	4.52
385.92	4.62
386.286	4.83
386.651	4.56
387.017	4.79
387.383	4.68
387.748	4.79
388.114	4.71
388.479	4.83
388.845	4.64
389.21	4.82
389.575	4.36
389.94	4.72
390.306	4.92
390.671	4.43
391.036	4.67
391.401	4.54
391.766	4.71
392.131	4.55
392.496	4.46
392.861	4.39
393.226	4.45
393.591	4.64
393.956	4.57
394.32	4.9
394.685	4.99
395.05	4.32
395.414	4.63
395.779	4.85
396.143	4.7
396.508	4.51
396.872	4.65
397.236	4.72
397.601	4.71
397.965	4.61
398.329	4.82
398.694	4.78
399.058	4.97
399.422	4.82
399.786	4.62
400.15	4.61
400.514	5.1
400.878	4.63
401.242	4.69
401.605	4.82
401.969	4.71
402.333	4.71
402.697	4.81
403.06	4.74
403.424	4.94
403.787	4.6
404.151	4.82
404.514	4.7
404.878	4.75
405.241	4.74
405.604	4.62
405.968	4.68
406.331	4.8
406.694	4.96
407.057	4.73
407.42	4.73
407.783	4.68
408.146	4.75
408.509	4.95
408.872	4.78
409.235	4.83
409.598	4.87
409.961	4.79
410.323	4.84
410.686	4.89
411.049	4.89
411.411	5.11
411.774	4.88
412.136	5
412.499	4.68
412.861	4.81
413.223	4.98
413.586	4.92
413.948	4.88
414.31	4.82
414.672	4.96
415.035	4.85
415.397	4.88
415.759	4.97
416.121	5.1
416.483	5.15
416.845	4.88
417.206	5.04
417.568	4.71
417.93	5.05
418.292	4.89
418.653	4.82
419.015	4.78
419.377	4.94
419.738	4.89
420.1	4.79
420.461	4.92
420.822	4.84
421.184	4.81
421.545	5.01
421.906	4.85
422.267	4.7
422.629	4.73
422.99	4.75
423.351	4.73
423.712	4.66
424.073	4.8
424.434	4.87
424.795	4.93
425.155	4.74
425.516	4.73
425.877	4.71
426.238	4.83
426.598	4.74
426.959	4.76
427.32	4.78
427.68	4.87
428.041	4.89
428.401	4.92
428.761	4.98
429.122	5.03
429.482	5.08
429.842	5.06
430.202	4.87
430.563	4.92
430.923	5.05
431.283	5.02
431.643	4.93
432.003	4.97
432.363	5.03
432.722	4.9
433.082	5.09
433.442	4.96
433.802	5
434.161	4.98
434.521	5.01
434.881	4.87
435.24	5.02
435.6	4.89
435.959	5.04
436.319	5.1
436.678	5.14
437.037	5.11
437.396	4.73
437.756	4.74
438.115	4.91
438.474	4.93
438.833	5.03
439.192	5.04
439.551	4.97
439.91	4.94
440.269	5.07
440.628	5.01
440.987	4.73
441.345	5.04
441.704	4.89
442.063	4.98
442.421	4.98
442.78	4.92
443.138	5.07
443.497	4.94
443.855	4.97
444.214	5.04
444.572	5.15
444.93	5.09
445.288	4.89
445.647	4.96
446.005	4.99
446.363	4.82
446.721	4.89
447.079	4.92
447.437	4.88
447.795	5
448.153	4.93
448.51	4.91
448.868	4.94
449.226	5.08
449.584	5.1
449.941	4.97
450.299	5.08
450.656	4.92
451.014	5.08
451.371	5.18
451.729	5.12
452.086	5
452.443	5.22
452.801	5.17
453.158	4.96
453.515	5.12
453.872	5.03
454.229	5.1
454.586	5
454.943	4.99
455.3	5.08
455.657	5.05
456.014	5.17
456.371	5.21
456.727	5.01
457.084	5.11
457.441	5.03
457.797	5.06
458.154	4.96
458.51	4.95
458.867	5.02
459.223	5.06
459.58	5.08
459.936	4.87
460.292	5.11
460.648	5.1
461.005	5.07
461.361	4.95
461.717	5.05
462.073	5
462.429	5
462.785	4.9
463.141	5.03
463.496	4.97
463.852	5.26
464.208	5.16
464.564	5.08
464.919	5.23
465.275	5.1
465.631	5.32
465.986	4.98
466.342	5.12
466.697	5.17
467.052	5.42
467.408	5.1
467.763	5.14
468.118	5.23
468.473	5.17
468.829	5.24
469.184	5
469.539	5.06
469.894	5.23
470.249	5.09
470.603	5.2
470.958	5.09
471.313	5.48
471.668	5.26
472.023	5.03
472.377	5.12
472.732	5.23
473.086	5.24
473.441	5.47
473.795	5.18
474.15	5.23
474.504	5.32
474.859	5.16
475.213	5.05
475.567	5.32
475.921	5.23
476.275	5.01
476.63	5.14
476.984	5.22
477.338	5.12
477.692	5.27
478.045	5.23
478.399	5.05
478.753	5.27
479.107	5.19
479.461	5.32
479.814	5.26
480.168	4.99
480.521	5.14
480.875	5.23
481.228	5.22
481.582	5.25
481.935	5.22
482.289	5.11
482.642	5.25
482.995	5.2
483.348	5.15
483.701	5.24
484.055	5.1
484.408	5.06
484.761	5.07
485.114	4.98
485.466	4.81
485.819	4.82
486.172	4.83
486.525	4.92
486.878	4.91
487.23	5
487.583	4.92
487.936	5.02
488.288	5.01
488.641	5.03
488.993	4.94
489.345	4.93
489.698	4.91
490.05	4.9
490.402	4.97
490.754	4.94
491.107	4.98
491.459	5.04
491.811	5.15
492.163	5.05
492.515	5.03
492.866	4.99
493.218	4.93
493.57	4.92
493.922	4.93
494.274	5.03
494.625	5.12
494.977	5.15
495.328	5.28
495.68	5.27
496.031	5.26
496.383	5.1
496.734	5.33
497.086	5.13
497.437	5.26
497.788	5.24
498.139	5.17
498.49	5.24
498.842	5.12
499.193	5.15
499.544	5.22
499.894	5.19
500.245	5.21
500.596	5.21
500.947	5.3
501.298	5.25
501.648	5.28
501.999	5.26
502.35	5.23
502.7	5.27
503.051	5.13
503.401	5.13
503.752	5.3
504.102	5.36
504.452	5.15
504.803	5.26
505.153	5.23
505.503	5.42
505.853	5.29
506.203	5.18
506.553	5.24
506.903	5.32
507.253	5.25
507.603	5.12
507.953	5.23
508.303	5.18
508.652	5.17
509.002	5.24
509.352	5.23
509.701	5.32
510.051	5.22
510.4	5.19
510.75	5.22
511.099	5.22
511.449	5.26
511.798	5.25
512.147	5.28
512.496	5.27
512.846	5.19
513.195	5.15
513.544	5.35
513.893	5.22
514.242	5.2
514.591	5.18
514.939	5.21
515.288	5.14
515.637	5.25
515.986	5.27
516.334	5.37
516.683	5.27
517.032	5.32
517.38	5.21
517.729	5.26
518.077	5.19
518.426	5.35
518.774	5.27
519.122	5.26
519.47	5.21
519.819	5.11
520.167	5.06
520.515	5.03
520.863	5.2
521.211	5.18
521.559	5.1
521.907	5.1
522.255	5.15
522.602	5.2
522.95	5.25
523.298	5.31
523.645	5.25
523.993	5.26
524.341	5.28
524.688	5.18
525.036	5.26
525.383	5.2
525.73	5.17
526.078	5.11
526.425	5.21
526.772	5.24
527.119	5.18
527.466	5.17
527.814	4.99
528.161	5.15
528.508	5.16
528.854	5.13
529.201	5.11
529.548	5.13
529.895	5.03
530.242	4.89
530.588	4.92
530.935	4.98
531.282	5.01
531.628	5.04
531.975	5.03
532.321	5.02
532.667	5.03
533.014	5.17
533.36	5.04
533.706	5.12
534.052	5.15
534.399	5.14
534.745	5.12
535.091	5
535.437	5.12
535.783	5.03
536.129	5.09
536.474	5.13
536.82	5.13
537.166	5.17
537.512	5.16
537.857	5.17
538.203	5.15
538.549	5.13
538.894	5.25
539.239	5.1
539.585	5.09
539.93	5.2
540.276	5.3
540.621	5.26
540.966	5.2
541.311	5.27
541.656	5.19
542.001	5.13
542.346	5.14
542.691	5.01
543.036	5.01
543.381	4.93
543.726	5.07
544.071	5.03
544.415	5.03
544.76	5.08
545.105	5.09
545.449	5.1
545.794	5.29
546.138	5.04
546.483	5.15
546.827	5.17
547.171	5.21
547.516	5.2
547.86	5.15
548.204	5.1
548.548	5.09
548.892	5.17
549.236	5.16
549.58	5.16
549.924	5.24
550.268	5.27
550.612	5.18
550.956	5.13
551.3	5.26
551.643	5.3
551.987	5.38
552.33	5.33
552.674	5.23
553.017	5.2
553.361	5.37
553.704	5.19
554.048	5.3
554.391	5.28
554.734	5.17
555.077	5.29
555.42	5.21
555.764	5.42
556.107	5.45
556.45	5
556.793	5.18
557.135	5.29
557.478	5.39
557.821	5.35
558.164	5.35
558.507	5.32
558.849	5.05
559.192	5.4
559.534	5.36
559.877	5.31
560.219	5.27
560.562	5.35
560.904	5.21
561.246	5.25
561.589	5.18
561.931	5.38
562.273	5.05
562.615	5.12
562.957	5.29
563.299	5.2
563.641	5.38
563.983	5.36
564.325	5.28
564.667	5.35
565.008	5.09
565.35	5.22
565.692	5.29
566.033	5.17
566.375	5.1
566.716	5.18
567.058	5.18
567.399	5.25
567.741	5.27
568.082	5.28
568.423	5.1
568.764	5.29
569.105	5.14
569.447	5.29
569.788	5.3
570.129	5.03
570.47	5.3
570.811	5.37
571.151	5.32
571.492	5.36
571.833	5.43
572.174	5.29
572.514	5.22
572.855	5.32
573.195	5.19
573.536	5.02
573.876	5.19
574.217	5.11
574.557	5.24
574.898	5.25
575.238	5.25
575.578	5.26
575.918	5.21
576.258	5.31
576.598	5.07
576.938	5.22
577.278	5.21
577.618	5.36
577.958	5.1
578.298	5.25
578.638	5.28
578.977	5.1
579.317	5.34
579.657	5.28
579.996	5.37
580.336	5.17
580.675	5.26
581.014	5.41
581.354	5.26
581.693	5.26
582.032	5.26
582.372	5.31
582.711	5.58
583.05	5.47
583.389	5.27
583.728	5.27
584.067	5.48
584.406	5.41
584.745	5.35
585.083	5.29
585.422	5.42
585.761	5.26
586.1	5.38
586.438	5.75
586.777	5.53
587.115	5.28
587.454	5.38
587.792	5.09
588.13	5.52
588.469	5.4
588.807	5.27
589.145	5.23
589.483	5.58
589.821	5.45
590.159	5.35
590.497	5.33
590.835	5.31
591.173	5.23
591.511	5.28
591.849	5.06
592.187	5.35
592.524	5.09
592.862	5.36
593.2	5.18
593.537	5.15
593.875	5.53
594.212	5.24
594.55	5.13
594.887	5.54
595.224	5.33
595.561	5.53
595.899	5.22
596.236	5.3
596.573	5.2
596.91	5.42
597.247	5.13
597.584	5.49
597.921	5.35
598.258	5.44
598.594	5.35
598.931	5.3
599.268	5.02
599.604	5.16
599.941	5.22
600.277	5.27
600.614	5.3
600.95	5.22
601.287	5.29
601.623	5.15
601.959	5.2
602.296	5.37
602.632	5.07
602.968	5.37
603.304	5.28
603.64	5.38
603.976	4.95
604.312	5.29
604.648	5.28
604.984	5.27
605.319	5.23
605.655	5.12
605.991	5.27
606.326	5.06
606.662	5.31
606.998	5.1
607.333	5.29
607.668	5.32
608.004	5.34
608.339	5.4
608.674	5.28
609.01	5.1
609.345	5.65
609.68	5.39
610.015	5.26
610.35	5.04
610.685	5.27
611.02	5.35
611.355	4.99
611.689	5.23
612.024	5.13
612.359	5.33
612.694	5.26
613.028	5.43
613.363	5.44
613.697	5.33
614.032	5.46
614.366	5.45
614.7	5.09
615.035	5.26
615.369	5.21
615.703	5.31
616.037	5.36
616.371	5.15
616.705	5.39
617.039	5.25
617.373	5.32
617.707	5.3
618.041	5.1
618.375	4.88
618.709	5.05
619.042	5.12
619.376	4.87
619.71	5.27
620.043	5.09
620.377	5.37
620.71	5.02
621.043	4.98
621.377	4.54
621.71	5.23
622.043	5.56
622.376	5.45
622.709	4.9
623.043	5.5
623.376	5.85
623.709	5.58
624.041	5.29
624.374	5.4
624.707	5.43
625.04	5.26
625.373	5.64
625.705	5.88
626.038	5.04
626.37	5.53
626.703	5.13
627.035	5.19
627.368	5.16
627.7	4.99
628.032	4.87
628.365	5.22
628.697	5.47
629.029	5.25
629.361	5.16
629.693	5.17
630.025	5.17
630.357	5.5
630.689	5.24
631.021	5.55
631.353	5.53
631.684	5.28
632.016	5.29
632.348	5.32
632.679	4.81
633.011	5.51
633.342	5.32
633.674	5.33
634.005	5.15
634.336	5.55
634.668	5.06
634.999	5.6
635.33	5.6
635.661	5.44
635.992	5.61
636.323	5.01
636.654	5.76
636.985	5.36
637.316	5.31
637.647	5.23
637.977	5.56
638.308	5.64
638.639	5.55
638.969	5.4
639.3	5.41
639.63	5.78
639.961	5.42
640.291	5.39
640.622	5.62
640.952	5.43
641.282	5.47
641.612	5.35
641.943	5.41
642.273	5.7
642.603	5.94
642.933	5.59
643.263	5.23
643.592	5.64
643.922	5.63
644.252	5.63
644.582	4.96
644.911	5.19
645.241	4.9
645.571	5.77
645.9	5.13
646.23	5.4
646.559	5.91
646.888	5.44
647.218	5.27
647.547	5.09
647.876	5.17
648.205	5.41
648.534	5.7
648.863	5.29
649.192	5.76
649.521	5.82
649.85	5.32
650.179	5.47
650.508	5.63
650.837	5.34
651.165	5.23
651.494	5.42
651.822	5.5
652.151	5.64
652.479	5.42
652.808	5.17
653.136	5.57
653.465	5.64
653.793	5.45
654.121	5.17
654.449	5.18
654.777	5.61
655.105	5.49
655.433	5.9
655.761	5.64
656.089	5.35
656.417	5.57
656.745	5.2
657.073	4.59
657.4	5.65
657.728	5.09
658.056	5.27
658.383	5.31
658.711	5.65
659.038	5.04
659.365	5.74
659.693	5.36
660.02	5.18
660.347	5.72
660.674	5.59
661.001	5.25
661.329	5.34
661.656	5.22
661.982	5.3
662.309	5.8
662.636	5.63
662.963	5.8
663.29	5.54
663.616	5.5
663.943	5.64
664.27	5.83
664.596	5.93
664.923	5.54
665.249	5.25
665.576	5.51
665.902	5.37
666.228	5.5
666.554	5.04
666.881	5.41
667.207	5.8
667.533	5.35
667.859	5.42
668.185	5.85
668.511	5.45
668.837	5.93
669.162	6.64
669.488	5.79
669.814	5.94
670.139	5.54
670.465	5.14
670.791	5.24
671.116	5.36
671.442	4.96
671.767	5.79
672.092	5.9
672.418	5.71
672.743	5.94
673.068	5.03
673.393	5.25
673.718	5.69
674.043	5.9
674.368	5.23
674.693	5.14
675.018	4.6
675.343	5.02
675.667	5.78
675.992	6.11
676.317	5.02
676.641	5.63
676.966	5.83
677.29	4.65
677.615	5.2
677.939	5.49
678.264	5.2
678.588	5.78
678.912	5.39
679.236	5.7
679.56	5.42
679.885	5.87
680.209	5.17
680.532	5.81
680.856	5.54
681.18	5.06
681.504	5.57
681.828	6.08
682.152	5.26
682.475	5.94
682.799	5.52
683.122	5.66
683.446	6.16
683.769	6.33
684.093	5.67
684.416	5.53
684.739	6.01
685.062	5.49
685.386	5.79
685.709	6.05
686.032	5.87
686.355	5.81
686.678	6.26
687.001	5.69
687.324	5.82
687.646	6.56
687.969	5.38
688.292	6.57
688.614	5.78
688.937	6.1
689.26	5.66
689.582	5.62
689.904	4.97
690.227	5.58
690.549	6.77
690.871	6.21
691.194	5.83
691.516	6
691.838	5.42
692.16	6.62
692.482	5.67
692.804	6.12
