Data from 444_forehead_Reflection__0__72.txt Node

Date: Tue Dec 12 18:47:44 CST 2023
User: ToomeyLab
Spectrometer: FLMS14357
Trigger mode: 0
Integration Time (sec): 1.000000E-2
Scans to average: 100
Electric dark correction enabled: true
Nonlinearity correction enabled: false
Boxcar width: 0
XAxis mode: Wavelengths
Number of Pixels in Spectrum: 2048
>>>>>Begin Spectral Data<<<<<
189.047	-98.59
189.435	-98.59
189.823	-98.59
190.211	132.9
190.599	-141.85
190.987	-48.51
191.375	7.68
191.763	10.65
192.151	52.27
192.538	20.12
192.926	58.84
193.314	114.81
193.702	193.09
194.089	152.68
194.477	230.07
194.864	861.37
195.252	420.26
195.639	252.42
196.027	73.36
196.414	-37.67
196.801	178.1
197.189	-31.14
197.576	93.77
197.963	46.44
198.351	23.08
198.738	34.2
199.125	34.34
199.512	1.95
199.899	36.9
200.286	-16.04
200.673	-14.26
201.06	14.01
201.447	-67.44
201.833	-12.63
202.22	37.63
202.607	-225.15
202.994	47.77
203.38	41.32
203.767	-7.97
204.154	8.5
204.54	34.31
204.927	35.48
205.313	-0.25
205.699	13.21
206.086	24
206.472	37.68
206.858	11.86
207.245	18.33
207.631	40.24
208.017	26.65
208.403	3.75
208.789	34.43
209.175	-14.36
209.561	54.51
209.947	9.62
210.333	63.21
210.719	-21.37
211.105	-21.99
211.491	20.22
211.876	-1.15
212.262	50.78
212.648	34.46
213.034	-56.55
213.419	4.69
213.805	5.66
214.19	13.72
214.576	18.58
214.961	-3.15
215.346	-28.04
215.732	40.19
216.117	-6.81
216.502	-14.28
216.888	-6.07
217.273	28.68
217.658	21.15
218.043	18.87
218.428	15.99
218.813	13.8
219.198	9.18
219.583	31.05
219.968	16.48
220.353	-1.08
220.738	18.22
221.122	-4.78
221.507	1.77
221.892	25.76
222.276	-2.24
222.661	24.31
223.046	8.15
223.43	19.72
223.815	-9.46
224.199	10.69
224.583	12.62
224.968	5.86
225.352	-0.67
225.736	4.12
226.121	5.64
226.505	5.33
226.889	1.55
227.273	1.35
227.657	15.15
228.041	5.99
228.425	2.3
228.809	3.76
229.193	2.42
229.577	5.13
229.961	2.49
230.344	3.07
230.728	3.44
231.112	3.03
231.495	2.3
231.879	2.82
232.263	3.47
232.646	1.33
233.03	2.38
233.413	1.36
233.797	2.78
234.18	1.17
234.563	4.86
234.946	5.69
235.33	5.95
235.713	5.88
236.096	2.85
236.479	2.25
236.862	4.18
237.245	3.84
237.628	2.54
238.011	3.19
238.394	4.91
238.777	5.04
239.16	4.35
239.543	3.73
239.925	3.37
240.308	4.98
240.691	3.72
241.073	4.7
241.456	3.93
241.838	3.95
242.221	3.2
242.603	4.15
242.986	2.97
243.368	3.32
243.75	2.24
244.133	2.97
244.515	3.31
244.897	3.67
245.279	3.76
245.661	2.88
246.043	3.02
246.425	3.79
246.807	2.82
247.189	3.01
247.571	2.67
247.953	2.9
248.335	2.92
248.717	2.75
249.098	2.85
249.48	2.97
249.862	2.97
250.243	3.39
250.625	3.14
251.006	3.45
251.388	3.51
251.769	4.39
252.151	2.53
252.532	3.66
252.913	3.84
253.295	3.1
253.676	2.81
254.057	2.16
254.438	3.29
254.819	3.16
255.2	2.94
255.581	3.93
255.962	2.62
256.343	2.5
256.724	3.37
257.105	4.71
257.486	4.07
257.867	3.18
258.247	3.35
258.628	2.86
259.009	3.03
259.389	3.68
259.77	3.24
260.15	2.56
260.531	3.46
260.911	3.56
261.292	2.7
261.672	2.59
262.052	2.93
262.432	3.06
262.813	3.32
263.193	3.7
263.573	3.41
263.953	4.15
264.333	4.41
264.713	3.7
265.093	4.25
265.473	4.04
265.853	2.51
266.233	3
266.612	2.75
266.992	2.47
267.372	3.01
267.752	3.71
268.131	1.8
268.511	2.84
268.89	2.47
269.27	2.33
269.649	3.09
270.029	2.86
270.408	3.44
270.787	3.22
271.167	2.9
271.546	3.32
271.925	3.58
272.304	3.52
272.683	2.15
273.062	2.9
273.441	3.21
273.82	2.63
274.199	2.91
274.578	3.01
274.957	3.05
275.336	3.14
275.715	3.42
276.093	2.56
276.472	3.33
276.851	3.01
277.229	2.98
277.608	2.9
277.986	2.13
278.365	2.71
278.743	2.96
279.122	3.6
279.5	2.42
279.878	2.32
280.257	2.74
280.635	2.61
281.013	2.63
281.391	2.55
281.769	3.27
282.147	2.76
282.525	2.71
282.903	2.91
283.281	2.3
283.659	2.81
284.037	3.56
284.415	2.79
284.792	3.02
285.17	2.78
285.548	3.18
285.925	3.25
286.303	2.77
286.68	3.27
287.058	3.1
287.435	2.96
287.813	2.82
288.19	3
288.567	2.98
288.945	3.22
289.322	2.19
289.699	3.05
290.076	3.24
290.453	4.02
290.83	2.95
291.207	3.48
291.584	3.18
291.961	3.36
292.338	3.01
292.715	3.7
293.092	3.34
293.469	3.41
293.845	3.33
294.222	3.52
294.599	3.85
294.975	3.95
295.352	3.91
295.728	3.79
296.105	4
296.481	3.58
296.858	4.01
297.234	4
297.61	4.01
297.986	3.98
298.363	3.71
298.739	3.35
299.115	3.62
299.491	3.89
299.867	3.67
300.243	3.62
300.619	4.37
300.995	4
301.371	3.95
301.746	4.22
302.122	4.62
302.498	4.32
302.874	4.24
303.249	4.1
303.625	4.28
304	4.43
304.376	4.17
304.751	4.56
305.127	3.75
305.502	4.31
305.878	3.49
306.253	4.34
306.628	3.97
307.003	4.44
307.378	4.43
307.754	4.84
308.129	4.26
308.504	5.12
308.879	4.49
309.254	5.4
309.629	4.24
310.003	5.07
310.378	4.92
310.753	4.51
311.128	5.27
311.502	4.56
311.877	4.16
312.252	4.4
312.626	4.91
313.001	4.47
313.375	4.34
313.75	5.05
314.124	5.12
314.498	4.69
314.873	4.9
315.247	4.84
315.621	4.58
315.995	5.1
316.369	4.99
316.743	4.89
317.117	4.45
317.491	4.99
317.865	5.28
318.239	5.26
318.613	5.06
318.987	4.87
319.361	4.64
319.734	5.47
320.108	5.63
320.482	5.18
320.855	4.92
321.229	5.81
321.602	5.47
321.976	5.92
322.349	5.9
322.723	5.05
323.096	6.25
323.469	5.99
323.843	6.5
324.216	5.68
324.589	5.15
324.962	5.76
325.335	6.12
325.708	5.59
326.081	5.43
326.454	5.37
326.827	6.35
327.2	5.85
327.573	5.63
327.945	6.41
328.318	6.33
328.691	5.12
329.063	5.75
329.436	5.99
329.809	5.94
330.181	5.36
330.553	5.97
330.926	6.22
331.298	6.15
331.671	5.33
332.043	5.9
332.415	5.87
332.787	6.48
333.159	6.22
333.532	5.96
333.904	6.15
334.276	6.83
334.648	5.63
335.02	5.91
335.391	5.89
335.763	6.32
336.135	6.67
336.507	6.3
336.879	6.07
337.25	6.31
337.622	6.27
337.993	6.24
338.365	5.99
338.736	6.7
339.108	6.46
339.479	6.02
339.851	6.25
340.222	6.13
340.593	6.08
340.964	6.64
341.336	6.4
341.707	6.53
342.078	6.42
342.449	6.34
342.82	7.11
343.191	6.81
343.562	6.82
343.933	7.23
344.303	6.9
344.674	6.88
345.045	6.73
345.416	6.98
345.786	6.6
346.157	6.69
346.527	6.81
346.898	6.76
347.268	6.67
347.639	6.98
348.009	7
348.38	7.08
348.75	7.47
349.12	7.04
349.49	6.52
349.861	7.26
350.231	7.15
350.601	6.97
350.971	7.62
351.341	7.18
351.711	7.68
352.081	7.02
352.45	6.7
352.82	7.48
353.19	7.39
353.56	7.27
353.929	7.2
354.299	6.83
354.669	7.66
355.038	6.64
355.408	7.36
355.777	7.81
356.147	7.55
356.516	7.72
356.885	7.65
357.254	7.43
357.624	7.41
357.993	8.03
358.362	7.72
358.731	7.68
359.1	7.14
359.469	7.49
359.838	7.47
360.207	7.54
360.576	7.7
360.945	7.8
361.314	7.8
361.682	7.67
362.051	8.21
362.42	8.06
362.788	7.93
363.157	8.23
363.525	7.8
363.894	7.96
364.262	8.02
364.631	7.89
364.999	8.24
365.367	8.16
365.735	8.06
366.104	8
366.472	8.25
366.84	8.23
367.208	8.26
367.576	8.21
367.944	8.49
368.312	8.63
368.68	8.24
369.048	8.69
369.416	8.5
369.783	8.55
370.151	8.54
370.519	8.34
370.886	8.63
371.254	8.48
371.621	9.03
371.989	8.77
372.356	8.53
372.724	8.51
373.091	8.42
373.458	8.47
373.826	8.83
374.193	8.88
374.56	8.95
374.927	8.94
375.294	9.08
375.661	9.54
376.028	9.3
376.395	9.23
376.762	9.68
377.129	9.34
377.496	8.94
377.863	9.11
378.229	9
378.596	8.99
378.963	9.26
379.329	8.93
379.696	9
380.062	9.61
380.429	9.26
380.795	9.62
381.161	9.67
381.528	9.52
381.894	9.8
382.26	9.42
382.626	9.48
382.993	9.56
383.359	9.53
383.725	9.52
384.091	9.49
384.457	9.67
384.823	9.91
385.188	9.84
385.554	9.83
385.92	9.75
386.286	9.8
386.651	9.89
387.017	10.15
387.383	9.84
387.748	10.26
388.114	10.03
388.479	10.12
388.845	9.99
389.21	10
389.575	10.02
389.94	9.92
390.306	10.16
390.671	10.18
391.036	10.28
391.401	10.39
391.766	10.35
392.131	10.35
392.496	10.31
392.861	10.33
393.226	10.45
393.591	10.56
393.956	10.46
394.32	10.48
394.685	10.68
395.05	10.35
395.414	10.65
395.779	10.57
396.143	10.67
396.508	10.35
396.872	10.64
397.236	10.58
397.601	10.87
397.965	10.81
398.329	10.72
398.694	10.61
399.058	11.11
399.422	10.78
399.786	10.89
400.15	10.73
400.514	11.36
400.878	11.21
401.242	11.05
401.605	11.14
401.969	11.17
402.333	11.22
402.697	11.46
403.06	10.92
403.424	11.4
403.787	10.92
404.151	11.46
404.514	11.25
404.878	11.41
405.241	11.44
405.604	11.24
405.968	11.42
406.331	11.61
406.694	11.57
407.057	11.42
407.42	11.72
407.783	11.48
408.146	11.5
408.509	11.61
408.872	11.73
409.235	11.53
409.598	11.72
409.961	11.9
410.323	11.81
410.686	11.79
411.049	11.93
411.411	12.47
411.774	12.04
412.136	12.14
412.499	12
412.861	12.22
413.223	12.45
413.586	11.95
413.948	12.27
414.31	12.53
414.672	12.63
415.035	12.36
415.397	12.43
415.759	12.43
416.121	12.6
416.483	12.48
416.845	12.37
417.206	12.44
417.568	12.35
417.93	12.57
418.292	12.54
418.653	12.52
419.015	12.34
419.377	12.49
419.738	12.55
420.1	12.55
420.461	12.45
420.822	12.6
421.184	12.63
421.545	12.69
421.906	12.6
422.267	12.66
422.629	12.47
422.99	12.53
423.351	12.55
423.712	12.67
424.073	12.81
424.434	12.7
424.795	12.95
425.155	12.88
425.516	12.79
425.877	12.79
426.238	12.97
426.598	12.91
426.959	12.89
427.32	13.04
427.68	13.23
428.041	13.21
428.401	13.22
428.761	13.24
429.122	13.53
429.482	13.54
429.842	13.57
430.202	13.55
430.563	13.7
430.923	13.52
431.283	13.69
431.643	13.7
432.003	13.81
432.363	13.74
432.722	13.82
433.082	13.84
433.442	13.77
433.802	13.92
434.161	13.79
434.521	13.92
434.881	14.1
435.24	13.99
435.6	13.91
435.959	14.07
436.319	14
436.678	14.12
437.037	13.97
437.396	14.02
437.756	14.38
438.115	14.46
438.474	14.33
438.833	14.42
439.192	14.4
439.551	14.29
439.91	14.37
440.269	14.28
440.628	14.3
440.987	14.41
441.345	14.61
441.704	14.39
442.063	14.49
442.421	14.63
442.78	14.48
443.138	14.58
443.497	14.63
443.855	14.61
444.214	14.66
444.572	14.76
444.93	14.93
445.288	14.62
445.647	14.91
446.005	14.92
446.363	14.78
446.721	14.88
447.079	14.85
447.437	14.84
447.795	14.82
448.153	14.8
448.51	14.74
448.868	14.94
449.226	15.15
449.584	15.2
449.941	15.13
450.299	15.28
450.656	15.41
451.014	15.45
451.371	15.23
451.729	15.65
452.086	15.54
452.443	15.7
452.801	15.69
453.158	15.58
453.515	15.66
453.872	15.6
454.229	15.71
454.586	15.74
454.943	15.77
455.3	15.73
455.657	15.86
456.014	16.28
456.371	16.1
456.727	16.04
457.084	15.89
457.441	16.15
457.797	16.02
458.154	16.02
458.51	16.1
458.867	16.21
459.223	16.53
459.58	16.07
459.936	16.29
460.292	16.29
460.648	16.26
461.005	16.24
461.361	16.09
461.717	16.18
462.073	16.11
462.429	16.27
462.785	16.38
463.141	16.5
463.496	16.52
463.852	16.85
464.208	16.81
464.564	16.87
464.919	17.07
465.275	17.23
465.631	17.08
465.986	17.15
466.342	17.08
466.697	17.13
467.052	17.32
467.408	17.25
467.763	17.31
468.118	17.25
468.473	17.17
468.829	17.39
469.184	17.03
469.539	17.52
469.894	17.58
470.249	17.67
470.603	17.47
470.958	17.61
471.313	17.73
471.668	17.66
472.023	17.63
472.377	17.64
472.732	17.84
473.086	17.71
473.441	17.91
473.795	17.94
474.15	17.95
474.504	17.96
474.859	17.93
475.213	17.96
475.567	18.12
475.921	18.22
476.275	18.09
476.63	18.03
476.984	18.15
477.338	18.18
477.692	18.15
478.045	18.04
478.399	18.25
478.753	18.34
479.107	18.39
479.461	18.28
479.814	18.56
480.168	18.31
480.521	18.23
480.875	18.51
481.228	18.46
481.582	18.68
481.935	18.63
482.289	18.44
482.642	18.7
482.995	18.57
483.348	18.37
483.701	18.64
484.055	18.62
484.408	18.35
484.761	18.31
485.114	18.02
485.466	17.66
485.819	17.72
486.172	17.77
486.525	18.02
486.878	18.14
487.23	18.33
487.583	18.41
487.936	18.68
488.288	18.55
488.641	18.53
488.993	18.35
489.345	18.32
489.698	18.28
490.05	18.37
490.402	18.62
490.754	18.73
491.107	18.97
491.459	19.17
491.811	19.16
492.163	19.25
492.515	19.3
492.866	19.14
493.218	18.79
493.57	18.8
493.922	18.86
494.274	19.19
494.625	19.44
494.977	19.55
495.328	19.77
495.68	19.89
496.031	20.07
496.383	20.12
496.734	20.24
497.086	20.17
497.437	20.29
497.788	20.42
498.139	20.04
498.49	20.34
498.842	20.19
499.193	20.31
499.544	20.28
499.894	20.25
500.245	20.35
500.596	20.39
500.947	20.43
501.298	20.56
501.648	20.73
501.999	20.75
502.35	20.88
502.7	20.89
503.051	20.93
503.401	21.17
503.752	21.24
504.102	21.29
504.452	21.01
504.803	21.25
505.153	21.17
505.503	21.31
505.853	21.15
506.203	21.21
506.553	21.17
506.903	21.31
507.253	21.51
507.603	21.49
507.953	21.43
508.303	21.51
508.652	21.56
509.002	21.72
509.352	21.68
509.701	21.66
510.051	21.6
510.4	21.59
510.75	21.55
511.099	21.73
511.449	21.83
511.798	21.65
512.147	21.76
512.496	21.97
512.846	21.86
513.195	21.9
513.544	21.93
513.893	21.89
514.242	22
514.591	22.01
514.939	22.17
515.288	22.21
515.637	22.25
515.986	22.25
516.334	22.48
516.683	22.44
517.032	22.47
517.38	22.58
517.729	22.52
518.077	22.56
518.426	22.68
518.774	22.64
519.122	22.56
519.47	22.58
519.819	22.5
520.167	22.49
520.515	22.18
520.863	22.47
521.211	22.55
521.559	22.62
521.907	22.71
522.255	22.95
522.602	22.95
522.95	23.08
523.298	23.16
523.645	23.18
523.993	23.37
524.341	23.2
524.688	23.14
525.036	23.45
525.383	23.56
525.73	23.44
526.078	23.39
526.425	23.37
526.772	23.37
527.119	23.24
527.466	23.14
527.814	23.2
528.161	23.19
528.508	23.33
528.854	23.3
529.201	23.42
529.548	23.14
529.895	23.01
530.242	22.66
530.588	22.73
530.935	22.87
531.282	23.04
531.628	23.24
531.975	23.25
532.321	23.52
532.667	23.61
533.014	23.71
533.36	23.97
533.706	23.92
534.052	24.03
534.399	23.98
534.745	23.81
535.091	23.59
535.437	23.67
535.783	23.78
536.129	24.03
536.474	24.13
536.82	24.35
537.166	24.47
537.512	24.55
537.857	24.49
538.203	24.46
538.549	24.4
538.894	24.54
539.239	24.52
539.585	24.85
539.93	25
540.276	24.99
540.621	25.06
540.966	25.36
541.311	25.34
541.656	25.23
542.001	25.24
542.346	25.04
542.691	24.8
543.036	24.49
543.381	24.41
543.726	24.71
544.071	24.86
544.415	25.05
544.76	25.05
545.105	25.05
545.449	25.31
545.794	25.55
546.138	25.49
546.483	25.86
546.827	25.87
547.171	25.81
547.516	25.92
547.86	25.72
548.204	25.91
548.548	25.97
548.892	25.78
549.236	26.14
549.58	26.21
549.924	26.47
550.268	26.61
550.612	26.41
550.956	26.66
551.3	26.89
551.643	26.94
551.987	27.07
552.33	27.01
552.674	26.92
553.017	27.26
553.361	27.22
553.704	27.16
554.048	27.24
554.391	27.15
554.734	27.38
555.077	27.12
555.42	27.13
555.764	27.46
556.107	27.4
556.45	27.39
556.793	27.65
557.135	27.59
557.478	27.72
557.821	27.89
558.164	27.86
558.507	27.95
558.849	27.66
559.192	27.7
559.534	28.27
559.877	28.36
560.219	27.95
560.562	28.25
560.904	28.49
561.246	28.35
561.589	28.48
561.931	28.54
562.273	28.15
562.615	28.61
562.957	28.63
563.299	28.57
563.641	28.51
563.983	28.55
564.325	28.63
564.667	28.97
565.008	28.6
565.35	28.87
565.692	28.79
566.033	28.94
566.375	28.87
566.716	28.85
567.058	29.01
567.399	28.97
567.741	28.98
568.082	29.01
568.423	28.93
568.764	29.05
569.105	28.98
569.447	29.3
569.788	29.32
570.129	29.16
570.47	29.37
570.811	29.5
571.151	29.66
571.492	29.61
571.833	29.63
572.174	29.75
572.514	29.76
572.855	29.54
573.195	29.58
573.536	29.57
573.876	29.64
574.217	29.79
574.557	29.79
574.898	30.05
575.238	29.88
575.578	29.98
575.918	30.17
576.258	30.18
576.598	30.1
576.938	30.19
577.278	30.32
577.618	30.14
577.958	30.24
578.298	30.48
578.638	30.43
578.977	30.51
579.317	30.83
579.657	30.54
579.996	30.81
580.336	30.81
580.675	30.88
581.014	30.83
581.354	31.21
581.693	30.89
582.032	31.26
582.372	31.45
582.711	31.27
583.05	31.37
583.389	31.64
583.728	31.66
584.067	32.03
584.406	32.01
584.745	31.62
585.083	31.73
585.422	31.84
585.761	31.92
586.1	31.74
586.438	31.79
586.777	31.63
587.115	31.92
587.454	31.94
587.792	31.88
588.13	32.17
588.469	32.05
588.807	32.1
589.145	32.23
589.483	32.24
589.821	32.68
590.159	32.48
590.497	32.42
590.835	32.31
591.173	32.44
591.511	32.04
591.849	32.5
592.187	32.69
592.524	32.24
592.862	32.56
593.2	32.78
593.537	32.43
593.875	33.22
594.212	32.63
594.55	32.79
594.887	33.27
595.224	33.28
595.561	33.07
595.899	33.38
596.236	32.86
596.573	32.88
596.91	33.42
597.247	33.54
597.584	33.26
597.921	33.44
598.258	33.43
598.594	33.16
598.931	33.23
599.268	33.05
599.604	33.33
599.941	33.2
600.277	33.55
600.614	33.69
600.95	33.66
601.287	34.03
601.623	34
601.959	34.09
602.296	34.12
602.632	33.8
602.968	34.46
603.304	33.82
603.64	33.91
603.976	34.13
604.312	34.37
604.648	34.33
604.984	34.03
605.319	34.23
605.655	34.03
605.991	34.11
606.326	33.94
606.662	34.27
606.998	34
607.333	34
607.668	34.52
608.004	34.63
608.339	34.91
608.674	34.98
609.01	34.95
609.345	34.67
609.68	34.92
610.015	34.85
610.35	35.03
610.685	35.33
611.02	35.1
611.355	34.74
611.689	35.08
612.024	35
612.359	35.12
612.694	35.07
613.028	35.69
613.363	35.6
613.697	35.58
614.032	35.37
614.366	35.88
614.7	35.75
615.035	35.55
615.369	35.91
615.703	36.05
616.037	35.98
616.371	35.43
616.705	36.23
617.039	36.1
617.373	36.02
617.707	36.26
618.041	36.36
618.375	36.04
618.709	36.01
619.042	36.66
619.376	36.24
619.71	36.22
620.043	36.38
620.377	36.76
620.71	36.55
621.043	36.7
621.377	35.86
621.71	36.79
622.043	37.09
622.376	37.21
622.709	36.82
623.043	37.08
623.376	37.28
623.709	37.27
624.041	37.37
624.374	36.94
624.707	37.03
625.04	37.22
625.373	37.19
625.705	37.62
626.038	37.08
626.37	37.59
626.703	37.59
627.035	37.16
627.368	37.5
627.7	37.3
628.032	37.34
628.365	37.4
628.697	37.59
629.029	37.47
629.361	37.56
629.693	37.59
630.025	37.58
630.357	37.83
630.689	38.19
631.021	37.93
631.353	37.95
631.684	38.09
632.016	38.2
632.348	38.46
632.679	38.31
633.011	38.8
633.342	38.77
633.674	38.43
634.005	38.6
634.336	38.67
634.668	38.57
634.999	38.7
635.33	38.82
635.661	38.74
635.992	38.73
636.323	38.62
636.654	38.61
636.985	38.59
637.316	38.87
637.647	38.43
637.977	39.19
638.308	38.9
638.639	39.56
638.969	38.98
639.3	38.81
639.63	39.58
639.961	39.18
640.291	39.16
640.622	39.22
640.952	39.54
641.282	39.27
641.612	39.22
641.943	40.11
642.273	40.01
642.603	39.69
642.933	39.78
643.263	39.62
643.592	40.17
643.922	40.06
644.252	40.15
644.582	39.47
644.911	40.22
645.241	39.92
645.571	39.96
645.9	40.2
646.23	39.78
646.559	40.15
646.888	40
647.218	40.32
647.547	40.31
647.876	40.65
648.205	40.2
648.534	40.98
648.863	40.33
649.192	40.84
649.521	40.8
649.85	40.57
650.179	40.75
650.508	40.89
650.837	40.99
651.165	40.36
651.494	40.54
651.822	40.82
652.151	41.21
652.479	41.12
652.808	40.77
653.136	40.8
653.465	41.72
653.793	41.14
654.121	41.37
654.449	41.34
654.777	41.3
655.105	41.24
655.433	41.78
655.761	41.35
656.089	41.82
656.417	42.09
656.745	41.95
657.073	41.8
657.4	42.21
657.728	41.47
658.056	41.91
658.383	41.45
658.711	42.26
659.038	41.69
659.365	42.23
659.693	42.36
660.02	41.9
660.347	41.95
660.674	41.66
661.001	41.93
661.329	42.16
661.656	41.69
661.982	41.92
662.309	42.51
662.636	42.4
662.963	42.76
663.29	42.17
663.616	42.28
663.943	42.21
664.27	42.93
664.596	42.84
664.923	42.7
665.249	42.47
665.576	42.22
665.902	42.86
666.228	42.24
666.554	42.93
666.881	42.63
667.207	43.01
667.533	43.45
667.859	42.81
668.185	43.15
668.511	43.47
668.837	43.75
669.162	43.72
669.488	42.29
669.814	43.26
670.139	43.6
670.465	42.72
670.791	43.26
671.116	42.54
671.442	44.24
671.767	43.23
672.092	44.08
672.418	43.69
672.743	43.91
673.068	43.18
673.393	44.07
673.718	43.75
