Data from 444_forehead_Reflection__4__76.txt Node

Date: Tue Dec 12 18:48:24 CST 2023
User: ToomeyLab
Spectrometer: FLMS14357
Trigger mode: 0
Integration Time (sec): 1.000000E-2
Scans to average: 100
Electric dark correction enabled: true
Nonlinearity correction enabled: false
Boxcar width: 0
XAxis mode: Wavelengths
Number of Pixels in Spectrum: 2048
>>>>>Begin Spectral Data<<<<<
189.047	60.8
189.435	60.8
189.823	60.8
190.211	156.89
190.599	-168.25
190.987	49.41
191.375	-211.46
191.763	-57.95
192.151	37.18
192.538	166.38
192.926	89.41
193.314	73.31
193.702	107.19
194.089	62.65
194.477	130.21
194.864	6.41
195.252	-502.03
195.639	-34.71
196.027	106.28
196.414	55.37
196.801	22.24
197.189	1635.29
197.576	-24.85
197.963	37.44
198.351	56.2
198.738	65.95
199.125	49.3
199.512	4.11
199.899	27.81
200.286	42.73
200.673	25.06
201.06	6.52
201.447	-32.06
201.833	74.63
202.22	102.52
202.607	-204.92
202.994	18.13
203.38	9.72
203.767	14.33
204.154	13.55
204.54	24.35
204.927	24.34
205.313	15.77
205.699	-27.69
206.086	-6.88
206.472	32.6
206.858	-7.69
207.245	45.63
207.631	40.5
208.017	50.93
208.403	48.49
208.789	19.89
209.175	57.44
209.561	25.13
209.947	14.65
210.333	36.41
210.719	2.33
211.105	34.54
211.491	41.28
211.876	8.96
212.262	30.01
212.648	5.05
213.034	-27.03
213.419	12.34
213.805	36.46
214.19	42.89
214.576	35.78
214.961	27.58
215.346	5.2
215.732	26.76
216.117	14.09
216.502	-0.04
216.888	22.86
217.273	-11.9
217.658	-20.42
218.043	-2.36
218.428	24.99
218.813	17.17
219.198	-11.46
219.583	12.23
219.968	26.07
220.353	39.23
220.738	31.8
221.122	23.82
221.507	-9.65
221.892	27.32
222.276	12.86
222.661	1.08
223.046	-0.72
223.43	12.25
223.815	2.87
224.199	17.19
224.583	7.16
224.968	11.33
225.352	4.74
225.736	16.7
226.121	7.03
226.505	5.69
226.889	1.76
227.273	12.02
227.657	15.45
228.041	8.4
228.425	2.36
228.809	6.04
229.193	9.18
229.577	8.93
229.961	4.17
230.344	6.12
230.728	7.87
231.112	6.44
231.495	7.18
231.879	7.2
232.263	4.68
232.646	4.19
233.03	6.31
233.413	6.35
233.797	6.33
234.18	5.28
234.563	7.74
234.946	5.49
235.33	8.67
235.713	6.87
236.096	6.06
236.479	7.35
236.862	6.15
237.245	8.16
237.628	6.9
238.011	7.71
238.394	6.28
238.777	7.94
239.16	7.11
239.543	6.55
239.925	7.37
240.308	7.1
240.691	7.54
241.073	8.38
241.456	7.71
241.838	4.84
242.221	5.84
242.603	5.53
242.986	5.07
243.368	5.94
243.75	5.33
244.133	5.37
244.515	6.19
244.897	5.89
245.279	6.19
245.661	5.78
246.043	4.95
246.425	7.34
246.807	5.54
247.189	5.83
247.571	5.48
247.953	5.53
248.335	5.68
248.717	5.18
249.098	5.48
249.48	5.39
249.862	5.09
250.243	5.49
250.625	5.84
251.006	5.58
251.388	5.47
251.769	6.29
252.151	4.76
252.532	4.8
252.913	5.86
253.295	5.92
253.676	4.96
254.057	4.78
254.438	5.65
254.819	6.13
255.2	5.12
255.581	5
255.962	4.75
256.343	6.87
256.724	5.4
257.105	6.01
257.486	5.4
257.867	5.66
258.247	5.71
258.628	5.59
259.009	5.44
259.389	5.8
259.77	5.62
260.15	5.41
260.531	5.58
260.911	5.79
261.292	5.06
261.672	4.99
262.052	4.81
262.432	5.1
262.813	5.51
263.193	5.01
263.573	5.92
263.953	5.97
264.333	5.91
264.713	4.94
265.093	5.34
265.473	6.06
265.853	4.52
266.233	5.66
266.612	5.23
266.992	5.49
267.372	5.2
267.752	5.63
268.131	4.58
268.511	5.18
268.89	4.22
269.27	4.74
269.649	5.29
270.029	5.18
270.408	5.11
270.787	5.49
271.167	5.32
271.546	4.64
271.925	5.59
272.304	5.69
272.683	4.8
273.062	5.15
273.441	4.94
273.82	4.5
274.199	5.17
274.578	4.81
274.957	4.92
275.336	5.32
275.715	5.26
276.093	4.64
276.472	4.79
276.851	5.75
277.229	4.74
277.608	5.5
277.986	4.58
278.365	4.94
278.743	4.98
279.122	5.34
279.5	4.28
279.878	4.56
280.257	4.72
280.635	5.55
281.013	5.53
281.391	4.96
281.769	5.02
282.147	4.99
282.525	5.02
282.903	5.23
283.281	4.69
283.659	4.9
284.037	5.27
284.415	5.01
284.792	5.08
285.17	5.13
285.548	5.32
285.925	4.8
286.303	4.75
286.68	5.06
287.058	4.9
287.435	4.8
287.813	4.36
288.19	4.79
288.567	4.84
288.945	4.6
289.322	4.64
289.699	4.83
290.076	4.8
290.453	5.51
290.83	4.9
291.207	5.04
291.584	5.06
291.961	5.01
292.338	5.32
292.715	5.25
293.092	4.46
293.469	5.09
293.845	4.77
294.222	5.18
294.599	5.34
294.975	4.86
295.352	5.02
295.728	5.25
296.105	4.87
296.481	5.02
296.858	5.16
297.234	5.51
297.61	5.5
297.986	5.48
298.363	5.52
298.739	4.86
299.115	4.42
299.491	5.01
299.867	4.94
300.243	4.83
300.619	4.83
300.995	5.48
301.371	5.43
301.746	5.43
302.122	5.51
302.498	5.52
302.874	5.25
303.249	5.66
303.625	5.11
304	5.69
304.376	5.35
304.751	5.4
305.127	5.55
305.502	5.49
305.878	5.14
306.253	5.07
306.628	5.01
307.003	5.4
307.378	5.16
307.754	6
308.129	5.05
308.504	6.33
308.879	5.18
309.254	6.05
309.629	5.47
310.003	5.98
310.378	5.62
310.753	5.88
311.128	6.11
311.502	5.49
311.877	5.01
312.252	4.87
312.626	5.6
313.001	5.16
313.375	5.26
313.75	5.51
314.124	5.71
314.498	5.71
314.873	6.14
315.247	6.03
315.621	5.58
315.995	6.12
316.369	6.18
316.743	5.7
317.117	4.83
317.491	5.75
317.865	6.11
318.239	6.01
318.613	6.03
318.987	5.87
319.361	5.41
319.734	5.86
320.108	5.99
320.482	6.09
320.855	6
321.229	6.29
321.602	5.99
321.976	6.34
322.349	6.64
322.723	5.38
323.096	6.21
323.469	6.19
323.843	6.51
324.216	6.47
324.589	5.76
324.962	6.43
325.335	6.38
325.708	6.2
326.081	6.47
326.454	5.87
326.827	7.06
327.2	6.04
327.573	6.19
327.945	6.45
328.318	6.41
328.691	5.6
329.063	6.38
329.436	6.08
329.809	6.45
330.181	6.4
330.553	6.13
330.926	6.76
331.298	6.03
331.671	6.59
332.043	6.78
332.415	6.22
332.787	6.75
333.159	6.65
333.532	6.96
333.904	6.09
334.276	6.93
334.648	6.08
335.02	6.27
335.391	6.48
335.763	6.69
336.135	6.94
336.507	7.18
336.879	6.74
337.25	6.92
337.622	6.83
337.993	6.36
338.365	6.94
338.736	6.82
339.108	6.69
339.479	6.72
339.851	6.26
340.222	6.09
340.593	7.11
340.964	6.83
341.336	7.46
341.707	6.42
342.078	6.63
342.449	6.9
342.82	7.13
343.191	7.28
343.562	7.1
343.933	7.48
344.303	7.21
344.674	7.36
345.045	7.21
345.416	6.94
345.786	7.06
346.157	7.03
346.527	7.62
346.898	7.43
347.268	7.09
347.639	7.87
348.009	7.02
348.38	7.24
348.75	7.35
349.12	7.46
349.49	6.93
349.861	7.6
350.231	7.16
350.601	7.63
350.971	7.68
351.341	7.11
351.711	7.93
352.081	7.46
352.45	7.08
352.82	7.01
353.19	7.47
353.56	7.01
353.929	7.7
354.299	7.6
354.669	7.76
355.038	6.72
355.408	7.58
355.777	7.93
356.147	7.47
356.516	7.97
356.885	7.78
357.254	7.78
357.624	7.48
357.993	7.36
358.362	7.96
358.731	7.95
359.1	7.43
359.469	7.85
359.838	7.72
360.207	7.64
360.576	8.04
360.945	7.61
361.314	8.03
361.682	7.88
362.051	8.04
362.42	8.19
362.788	8.05
363.157	8.27
363.525	8.14
363.894	7.99
364.262	8.12
364.631	7.91
364.999	8.21
365.367	8.56
365.735	8.14
366.104	8.32
366.472	8.3
366.84	8.43
367.208	8.41
367.576	8.39
367.944	8.37
368.312	8.6
368.68	8.4
369.048	8.69
369.416	8.89
369.783	8.44
370.151	8.66
370.519	8.35
370.886	8.76
371.254	8.8
371.621	8.81
371.989	8.6
372.356	8.49
372.724	8.84
373.091	8.71
373.458	8.65
373.826	8.73
374.193	8.69
374.56	9.39
374.927	8.91
375.294	8.64
375.661	9.17
376.028	9.27
376.395	9.37
376.762	9.43
377.129	8.95
377.496	9.09
377.863	9.02
378.229	9.19
378.596	8.86
378.963	9.46
379.329	8.95
379.696	8.99
380.062	9.47
380.429	9.31
380.795	9.48
381.161	9.59
381.528	9.46
381.894	9.64
382.26	9.5
382.626	9.28
382.993	9.6
383.359	9.31
383.725	9.51
384.091	9.74
384.457	9.41
384.823	9.75
385.188	9.56
385.554	9.89
385.92	9.59
386.286	10.13
386.651	9.96
387.017	10.12
387.383	9.82
387.748	9.76
388.114	9.81
388.479	10.27
388.845	10.11
389.21	9.75
389.575	9.92
389.94	10.13
390.306	10.18
390.671	9.87
391.036	9.99
391.401	10.37
391.766	10.29
392.131	10.34
392.496	10.34
392.861	10.11
393.226	10.47
393.591	10.44
393.956	10.22
394.32	10.42
394.685	10.47
395.05	10.25
395.414	10.39
395.779	10.29
396.143	10.83
396.508	10.43
396.872	10.67
397.236	10.52
397.601	10.7
397.965	10.67
398.329	10.75
398.694	10.52
399.058	10.94
399.422	10.91
399.786	10.85
400.15	10.63
400.514	11.11
400.878	10.84
401.242	10.95
401.605	11.11
401.969	11
402.333	11.3
402.697	11.04
403.06	11.05
403.424	11.18
403.787	11.08
404.151	11.34
404.514	11.14
404.878	11.26
405.241	11.2
405.604	11.07
405.968	11.35
406.331	11.41
406.694	11.17
407.057	11.06
407.42	11.38
407.783	11.48
408.146	11.43
408.509	11.52
408.872	11.72
409.235	11.61
409.598	11.66
409.961	11.73
410.323	11.91
410.686	11.67
411.049	11.95
411.411	11.97
411.774	11.67
412.136	11.78
412.499	11.77
412.861	11.55
413.223	11.98
413.586	11.94
413.948	12.04
414.31	11.98
414.672	11.89
415.035	12.01
415.397	11.96
415.759	12.17
416.121	12.41
416.483	12.22
416.845	12.2
417.206	12.46
417.568	11.91
417.93	12.32
418.292	12.02
418.653	12.14
419.015	12.22
419.377	12.34
419.738	12.16
420.1	12.23
420.461	12.29
420.822	12.23
421.184	12.27
421.545	12.39
421.906	12.29
422.267	12.31
422.629	12.32
422.99	12.35
423.351	12.28
423.712	12.39
424.073	12.4
424.434	12.51
424.795	12.57
425.155	12.53
425.516	12.57
425.877	12.56
426.238	12.61
426.598	12.58
426.959	12.61
427.32	12.72
427.68	12.79
428.041	12.95
428.401	12.89
428.761	13.16
429.122	13.23
429.482	13.41
429.842	13.52
430.202	13.28
430.563	13.44
430.923	13.37
431.283	13.25
431.643	13.66
432.003	13.39
432.363	13.61
432.722	13.43
433.082	13.47
433.442	13.55
433.802	13.56
434.161	13.63
434.521	13.69
434.881	13.53
435.24	13.6
435.6	13.67
435.959	13.64
436.319	13.71
436.678	13.89
437.037	13.69
437.396	13.73
437.756	13.8
438.115	13.96
438.474	13.86
438.833	14.07
439.192	13.97
439.551	14.11
439.91	13.94
440.269	13.92
440.628	13.99
440.987	14.07
441.345	14.05
441.704	14.04
442.063	14.15
442.421	14.2
442.78	14.07
443.138	14.24
443.497	14.2
443.855	14.36
444.214	14.52
444.572	14.7
444.93	14.5
445.288	14.37
445.647	14.59
446.005	14.49
446.363	14.46
446.721	14.44
447.079	14.58
447.437	14.42
447.795	14.5
448.153	14.49
448.51	14.52
448.868	14.51
449.226	14.59
449.584	14.76
449.941	14.72
450.299	14.81
450.656	14.99
451.014	15.02
451.371	15.03
451.729	15.03
452.086	14.96
452.443	15.5
452.801	15.24
453.158	15.19
453.515	15.46
453.872	15.3
454.229	15.63
454.586	15.15
454.943	15.31
455.3	15.41
455.657	15.44
456.014	15.64
456.371	15.61
456.727	15.7
457.084	15.73
457.441	15.76
457.797	15.53
458.154	15.87
458.51	15.83
458.867	16.02
459.223	15.96
459.58	15.74
459.936	15.71
460.292	15.85
460.648	15.99
461.005	15.81
461.361	15.71
461.717	15.79
462.073	15.68
462.429	15.8
462.785	15.98
463.141	16.01
463.496	16.05
463.852	16.39
464.208	16.4
464.564	16.56
464.919	16.63
465.275	16.58
465.631	16.57
465.986	16.53
466.342	16.36
466.697	16.54
467.052	16.9
467.408	16.64
467.763	16.63
468.118	16.96
468.473	16.65
468.829	16.93
469.184	16.87
469.539	17.08
469.894	17.07
470.249	17.14
470.603	17.05
470.958	17.01
471.313	17.17
471.668	17.15
472.023	17.1
472.377	17.19
472.732	17.24
473.086	17.3
473.441	17.26
473.795	17.43
474.15	17.42
474.504	17.32
474.859	17.35
475.213	17.43
475.567	17.61
475.921	17.5
476.275	17.62
476.63	17.82
476.984	17.75
477.338	17.73
477.692	17.55
478.045	17.77
478.399	17.72
478.753	17.83
479.107	17.76
479.461	17.87
479.814	17.9
480.168	17.63
480.521	17.73
480.875	17.91
481.228	17.96
481.582	18.04
481.935	18.1
482.289	18.07
482.642	18.11
482.995	18.13
483.348	18.03
483.701	18.17
484.055	18.04
484.408	17.78
484.761	17.65
485.114	17.42
485.466	17.17
485.819	17.15
486.172	17.3
486.525	17.48
486.878	17.57
487.23	17.71
487.583	17.88
487.936	18
488.288	17.97
488.641	18.01
488.993	17.81
489.345	17.77
489.698	17.79
490.05	17.82
490.402	17.99
490.754	18.09
491.107	18.31
491.459	18.52
491.811	18.58
492.163	18.71
492.515	18.71
492.866	18.53
493.218	18.31
493.57	18.15
493.922	18.29
494.274	18.6
494.625	18.78
494.977	18.91
495.328	19.06
495.68	19.24
496.031	19.46
496.383	19.36
496.734	19.58
497.086	19.6
497.437	19.57
497.788	19.59
498.139	19.59
498.49	19.66
498.842	19.54
499.193	19.52
499.544	19.7
499.894	19.61
500.245	19.79
500.596	19.86
500.947	19.87
501.298	19.98
501.648	19.99
501.999	20.02
502.35	20.12
502.7	20.16
503.051	20.27
503.401	20.31
503.752	20.56
504.102	20.49
504.452	20.54
504.803	20.49
505.153	20.44
505.503	20.59
505.853	20.66
506.203	20.44
506.553	20.37
506.903	20.64
507.253	20.74
507.603	20.73
507.953	20.67
508.303	21.01
508.652	20.69
509.002	20.89
509.352	20.75
509.701	20.94
510.051	20.8
510.4	20.83
510.75	20.86
511.099	20.98
511.449	20.88
511.798	20.84
512.147	21.06
512.496	21.31
512.846	21.16
513.195	21.02
513.544	21.25
513.893	21.21
514.242	21.17
514.591	21.31
514.939	21.31
515.288	21.26
515.637	21.33
515.986	21.44
516.334	21.65
516.683	21.67
517.032	21.67
517.38	21.65
517.729	21.96
518.077	21.83
518.426	21.93
518.774	21.83
519.122	21.76
519.47	21.8
519.819	21.48
520.167	21.5
520.515	21.35
520.863	21.57
521.211	21.6
521.559	21.71
521.907	21.78
522.255	21.98
522.602	22.13
522.95	22.11
523.298	22.18
523.645	22.56
523.993	22.39
524.341	22.3
524.688	22.58
525.036	22.56
525.383	22.5
525.73	22.52
526.078	22.42
526.425	22.53
526.772	22.48
527.119	22.36
527.466	22.37
527.814	22.16
528.161	22.33
528.508	22.48
528.854	22.38
529.201	22.39
529.548	22.26
529.895	22.06
530.242	21.81
530.588	21.77
530.935	21.93
531.282	22.04
531.628	22.17
531.975	22.23
532.321	22.42
532.667	22.53
533.014	22.86
533.36	22.93
533.706	22.89
534.052	23.05
534.399	23.13
534.745	22.83
535.091	22.57
535.437	22.65
535.783	22.8
536.129	22.96
536.474	22.98
536.82	23.21
537.166	23.24
537.512	23.43
537.857	23.48
538.203	23.49
538.549	23.37
538.894	23.49
539.239	23.53
539.585	23.65
539.93	23.77
540.276	23.83
540.621	24.05
540.966	24.08
541.311	24.06
541.656	24.12
542.001	24.11
542.346	24
542.691	23.69
543.036	23.45
543.381	23.37
543.726	23.52
544.071	23.63
544.415	23.8
544.76	23.99
545.105	23.98
545.449	24.1
545.794	24.29
546.138	24.17
546.483	24.57
546.827	24.74
547.171	24.68
547.516	24.58
547.86	24.61
548.204	24.73
548.548	24.68
548.892	24.57
549.236	24.76
549.58	25.03
549.924	24.95
550.268	25.19
550.612	25.2
550.956	25.43
551.3	25.57
551.643	25.57
551.987	25.71
552.33	25.87
552.674	25.96
553.017	25.85
553.361	25.94
553.704	25.92
554.048	26.13
554.391	25.71
554.734	25.74
555.077	26.06
555.42	25.75
555.764	26.1
556.107	26.03
556.45	25.96
556.793	26.09
557.135	26.32
557.478	26.17
557.821	26.22
558.164	26.41
558.507	26.6
558.849	26.22
559.192	26.43
559.534	26.46
559.877	26.76
560.219	26.64
560.562	26.56
560.904	26.8
561.246	26.94
561.589	26.89
561.931	26.88
562.273	26.69
562.615	26.82
562.957	26.76
563.299	27.17
563.641	26.91
563.983	26.88
564.325	26.98
564.667	27.25
565.008	26.82
565.35	27.35
565.692	27.2
566.033	27.4
566.375	27.37
566.716	27.05
567.058	27.33
567.399	27.2
567.741	27.41
568.082	27.3
568.423	27.16
568.764	27.2
569.105	27.23
569.447	27.55
569.788	27.57
570.129	27.67
570.47	27.87
570.811	27.92
571.151	27.84
571.492	27.97
571.833	27.75
572.174	27.85
572.514	27.88
572.855	27.99
573.195	27.97
573.536	27.64
573.876	28.22
574.217	28.01
574.557	28.09
574.898	27.85
575.238	28.23
575.578	28.07
575.918	28.34
576.258	28.58
576.598	28.12
576.938	28.39
577.278	28.32
577.618	28.38
577.958	28.46
578.298	28.64
578.638	28.69
578.977	28.74
579.317	28.69
579.657	28.82
579.996	28.88
580.336	28.98
580.675	28.93
581.014	29.03
581.354	29.05
581.693	29.18
582.032	29.15
582.372	29.49
582.711	29.28
583.05	29.51
583.389	29.35
583.728	29.45
584.067	29.7
584.406	29.79
584.745	29.53
585.083	29.65
585.422	29.72
585.761	30.12
586.1	29.61
586.438	30.06
586.777	29.82
587.115	29.57
587.454	29.68
587.792	29.98
588.13	29.9
588.469	29.82
588.807	30.03
589.145	29.93
589.483	29.95
589.821	30.51
590.159	30.03
590.497	30.1
590.835	30.15
591.173	30.16
591.511	30.08
591.849	30.09
592.187	30.15
592.524	30.32
592.862	30.45
593.2	30.31
593.537	30.18
593.875	30.74
594.212	30.8
594.55	30.51
594.887	30.91
595.224	30.61
595.561	30.89
595.899	30.72
596.236	30.71
596.573	30.61
596.91	31.26
597.247	31.2
597.584	31.1
597.921	30.95
598.258	31.07
598.594	30.91
598.931	31.07
599.268	30.85
599.604	31.13
599.941	30.95
600.277	31.16
600.614	31.42
600.95	31.52
601.287	31.48
601.623	31.74
601.959	31.72
602.296	31.42
602.632	31.47
602.968	31.85
603.304	31.61
603.64	32.05
603.976	31.78
604.312	31.69
604.648	31.9
604.984	31.71
605.319	31.72
605.655	31.5
605.991	31.48
606.326	31.5
606.662	31.68
606.998	31.69
607.333	31.93
607.668	32.06
608.004	32.29
608.339	32.1
608.674	32.17
609.01	32.32
609.345	32.09
609.68	32.32
610.015	32.21
610.35	32.39
610.685	32.48
611.02	32.42
611.355	32.57
611.689	32.28
612.024	32.2
612.359	32.48
612.694	32.55
613.028	32.74
613.363	32.78
613.697	32.69
614.032	32.81
614.366	32.75
614.7	32.87
615.035	32.83
615.369	33.1
615.703	33.2
616.037	33.47
616.371	33.03
616.705	33.16
617.039	33.31
617.373	33.31
617.707	33.57
618.041	33.31
618.375	33.28
618.709	33.81
619.042	33.42
619.376	33.42
619.71	33.3
620.043	33.63
620.377	33.7
620.71	33.79
621.043	33.99
621.377	33.42
621.71	34.01
622.043	34.12
622.376	34
622.709	33.77
623.043	33.84
623.376	33.51
623.709	33.74
624.041	34.38
624.374	34.1
624.707	33.7
625.04	34.3
625.373	34.59
625.705	34.34
626.038	34.27
626.37	34.51
626.703	34.66
627.035	34.25
627.368	34.53
627.7	34.2
628.032	34.26
628.365	34.14
628.697	34.64
629.029	34.42
629.361	34.36
629.693	34.75
630.025	34.69
630.357	34.73
630.689	34.3
631.021	34.58
631.353	35.01
631.684	34.89
632.016	34.63
632.348	35.27
632.679	35.05
633.011	35.26
633.342	35.35
633.674	35.09
634.005	35.25
634.336	35.59
634.668	35.22
634.999	35.54
635.33	34.97
635.661	35.42
635.992	35.75
636.323	35.28
636.654	35.5
636.985	35.34
637.316	35.83
637.647	35.37
637.977	35.92
638.308	35.99
638.639	35.74
638.969	36.37
639.3	35.75
639.63	36.47
639.961	35.63
640.291	35.88
640.622	36.09
640.952	35.95
641.282	35.9
641.612	35.9
641.943	36.85
642.273	36.5
642.603	36.22
642.933	36.44
643.263	35.99
643.592	36.75
643.922	36.46
644.252	36.36
644.582	36.18
644.911	36.55
645.241	36.13
645.571	36.53
645.9	36.37
646.23	36.63
646.559	36.73
646.888	36.88
647.218	37.17
647.547	36.61
647.876	37.2
648.205	36.27
648.534	37.04
648.863	36.65
649.192	37.19
649.521	37.45
649.85	36.47
650.179	36.36
650.508	37.36
650.837	37.47
651.165	37.39
651.494	37.56
651.822	37.24
652.151	38.09
652.479	37.36
652.808	37.27
653.136	38.01
653.465	37.86
653.793	37.56
654.121	37.41
654.449	37.59
654.777	37.46
655.105	37.88
655.433	37.98
655.761	37.94
656.089	38.01
656.417	38.14
656.745	38.1
657.073	37.24
657.4	38.02
657.728	37.77
658.056	38
658.383	37.82
658.711	37.96
659.038	38.53
659.365	38.39
659.693	38.65
660.02	38.18
660.347	38.72
660.674	37.98
661.001	38.05
661.329	38.41
661.656	38.2
661.982	38.11
662.309	38.6
662.636	37.91
662.963	39.09
663.29	38.78
663.616	38.67
663.943	38.59
664.27	39.32
664.596	39.45
664.923	38.91
665.249	38.38
665.576	39.15
665.902	39.36
666.228	39.14
666.554	39.01
666.881	37.79
667.207	39.35
667.533	38.48
667.859	38.56
668.185	39.19
668.511	39.27
668.837	38.8
669.162	39.51
669.488	38.79
669.814	38.96
670.139	39.59
670.465	38.83
670.791	39.79
671.116	38.43
671.442	39.68
671.767	39.6
672.092	39.6
672.418	39.32
672.743	39.31
673.068	39.68
673.393	40.04
