Data from 444_chest_Reflection__3__63.txt Node

Date: Tue Dec 12 18:43:54 CST 2023
User: ToomeyLab
Spectrometer: FLMS14357
Trigger mode: 0
Integration Time (sec): 1.000000E-2
Scans to average: 100
Electric dark correction enabled: true
Nonlinearity correction enabled: false
Boxcar width: 0
XAxis mode: Wavelengths
Number of Pixels in Spectrum: 2048
>>>>>Begin Spectral Data<<<<<
189.047	141.09
189.435	141.09
189.823	141.09
190.211	89.93
190.599	-286.48
190.987	218.04
191.375	108.48
191.763	56.41
192.151	78.88
192.538	-60.77
192.926	72.06
193.314	12.32
193.702	138.81
194.089	51.97
194.477	-217.16
194.864	680.76
195.252	830.02
195.639	69.3
196.027	55.86
196.414	75.33
196.801	153.88
197.189	-1642.56
197.576	26.98
197.963	94.28
198.351	45.43
198.738	46.91
199.125	35.43
199.512	-15.97
199.899	18.49
200.286	65.74
200.673	0.11
201.06	8.36
201.447	-31.82
201.833	32.51
202.22	-51.46
202.607	-130.86
202.994	6.58
203.38	20.22
203.767	-31.83
204.154	19.51
204.54	14.92
204.927	10.73
205.313	63.92
205.699	-73.83
206.086	2.21
206.472	32.09
206.858	17.38
207.245	1.29
207.631	10
208.017	37.65
208.403	6.24
208.789	4.3
209.175	-7.06
209.561	2.63
209.947	5.74
210.333	27.7
210.719	4.72
211.105	-17.27
211.491	16.04
211.876	9.22
212.262	25.67
212.648	0.09
213.034	42.78
213.419	-0.74
213.805	48.13
214.19	20.4
214.576	24.74
214.961	3.5
215.346	25.95
215.732	33.12
216.117	5.89
216.502	-4.27
216.888	-0.32
217.273	7.15
217.658	-17.15
218.043	2.09
218.428	26.31
218.813	15.7
219.198	-1.58
219.583	11.78
219.968	-1.78
220.353	6.24
220.738	-0.56
221.122	-6.7
221.507	-29.66
221.892	-0.73
222.276	12.05
222.661	-10.48
223.046	5.55
223.43	20.09
223.815	4.18
224.199	13.51
224.583	-0.26
224.968	14.03
225.352	0.81
225.736	16.67
226.121	0.79
226.505	10.27
226.889	6.88
227.273	6.53
227.657	13.39
228.041	8.4
228.425	7.32
228.809	6.1
229.193	-1.15
229.577	6.08
229.961	3.68
230.344	3.15
230.728	5.12
231.112	4.87
231.495	4.81
231.879	4.5
232.263	4.54
232.646	2.75
233.03	4.94
233.413	2.3
233.797	5.33
234.18	4.4
234.563	1.59
234.946	4.53
235.33	5.11
235.713	6.13
236.096	4.2
236.479	4.54
236.862	4.45
237.245	5.54
237.628	3.85
238.011	5.42
238.394	5.13
238.777	5.8
239.16	3.95
239.543	6.56
239.925	6.41
240.308	2.14
240.691	4.52
241.073	4.68
241.456	5.22
241.838	2.88
242.221	4.75
242.603	3.49
242.986	3.81
243.368	4.52
243.75	3.6
244.133	4.36
244.515	4.43
244.897	4.6
245.279	5.05
245.661	3.22
246.043	3.68
246.425	4.66
246.807	3.52
247.189	4.53
247.571	4.77
247.953	4.16
248.335	3.72
248.717	4.02
249.098	4.04
249.48	3.57
249.862	3.95
250.243	4
250.625	4.31
251.006	4.3
251.388	4.75
251.769	4.03
252.151	3.4
252.532	4.5
252.913	4.68
253.295	5.07
253.676	3.82
254.057	3.46
254.438	4.33
254.819	3.4
255.2	3.86
255.581	4.56
255.962	3.9
256.343	4.64
256.724	4.51
257.105	5.35
257.486	4.61
257.867	4.68
258.247	2.55
258.628	4.96
259.009	3.22
259.389	3.73
259.77	3.72
260.15	3.25
260.531	4.03
260.911	4.26
261.292	3.58
261.672	3.5
262.052	3.73
262.432	3.82
262.813	3.69
263.193	4.09
263.573	4.01
263.953	4.76
264.333	5.32
264.713	3.57
265.093	3.59
265.473	4.8
265.853	3.12
266.233	3.46
266.612	3.95
266.992	3.75
267.372	3.71
267.752	4.59
268.131	3.01
268.511	3.75
268.89	3.3
269.27	2.93
269.649	3.47
270.029	3.06
270.408	3.47
270.787	4.05
271.167	3.96
271.546	3.76
271.925	4.07
272.304	3.97
272.683	2.56
273.062	3.28
273.441	3.7
273.82	3.39
274.199	3.71
274.578	3.21
274.957	3.56
275.336	3.47
275.715	4.08
276.093	3.63
276.472	4.1
276.851	3.63
277.229	3.36
277.608	3.36
277.986	3.69
278.365	3.91
278.743	4.24
279.122	4.09
279.5	3.01
279.878	2.87
280.257	3.01
280.635	3.29
281.013	3.57
281.391	3.49
281.769	3.54
282.147	3.27
282.525	3.05
282.903	3.28
283.281	4.01
283.659	3.17
284.037	4.09
284.415	3.9
284.792	3.38
285.17	3.68
285.548	3.31
285.925	3.39
286.303	3.4
286.68	3.32
287.058	3.6
287.435	3.62
287.813	3.02
288.19	3.32
288.567	3.66
288.945	3.61
289.322	2.92
289.699	3.66
290.076	3.64
290.453	4.05
290.83	3.16
291.207	3.98
291.584	3.63
291.961	3.86
292.338	3.78
292.715	3.52
293.092	3.81
293.469	3.79
293.845	3.87
294.222	3.87
294.599	4.15
294.975	4
295.352	4.08
295.728	3.92
296.105	3.85
296.481	4.37
296.858	3.99
297.234	4.03
297.61	3.83
297.986	4.37
298.363	4.59
298.739	3.79
299.115	3.72
299.491	3.85
299.867	3.93
300.243	4.18
300.619	3.87
300.995	4.58
301.371	4.01
301.746	4.47
302.122	4.75
302.498	4.03
302.874	4.26
303.249	4.92
303.625	3.82
304	4.49
304.376	3.97
304.751	4.82
305.127	4.13
305.502	4.67
305.878	3.78
306.253	4.23
306.628	4.55
307.003	4.13
307.378	4.57
307.754	4
308.129	4.34
308.504	5.26
308.879	4.52
309.254	4.96
309.629	4.18
310.003	4.62
310.378	4.83
310.753	4.76
311.128	4.82
311.502	3.68
311.877	4.17
312.252	4.01
312.626	4.5
313.001	4.15
313.375	4.07
313.75	4.13
314.124	4.49
314.498	4.29
314.873	4.5
315.247	4.45
315.621	4.05
315.995	4.82
316.369	4.26
316.743	3.86
317.117	3.76
317.491	4.63
317.865	4.84
318.239	4.73
318.613	4.76
318.987	4.77
319.361	3.97
319.734	4.49
320.108	4.47
320.482	4.85
320.855	3.9
321.229	4.82
321.602	4.45
321.976	4.9
322.349	4.86
322.723	4.77
323.096	4.73
323.469	5.62
323.843	5.83
324.216	5.06
324.589	5.17
324.962	4.97
325.335	4.91
325.708	4.63
326.081	4.76
326.454	4.46
326.827	5.25
327.2	5
327.573	4.32
327.945	4.47
328.318	4.81
328.691	3.74
329.063	4.89
329.436	5.12
329.809	4.86
330.181	4.39
330.553	5.03
330.926	4.83
331.298	4.79
331.671	4.89
332.043	5.5
332.415	4.82
332.787	5
333.159	5.25
333.532	4.43
333.904	5.11
334.276	5.35
334.648	4.95
335.02	4.8
335.391	4.5
335.763	4.89
336.135	4.92
336.507	5.05
336.879	4.6
337.25	4.87
337.622	4.75
337.993	4.5
338.365	4.21
338.736	4.79
339.108	4.48
339.479	5.21
339.851	4.24
340.222	4.35
340.593	4.88
340.964	4.73
341.336	5.28
341.707	3.98
342.078	4.77
342.449	4.68
342.82	4.83
343.191	4.75
343.562	4.95
343.933	5.42
344.303	4.96
344.674	4.77
345.045	4.93
345.416	4.51
345.786	4.61
346.157	5
346.527	4.91
346.898	4.21
347.268	4.19
347.639	4.8
348.009	4.82
348.38	4.53
348.75	4.84
349.12	4.96
349.49	4.62
349.861	5.1
350.231	5.17
350.601	5.03
350.971	4.8
351.341	4.83
351.711	5.07
352.081	4.59
352.45	4.98
352.82	4.7
353.19	4.7
353.56	4.55
353.929	4.97
354.299	4.72
354.669	4.96
355.038	4.31
355.408	4.58
355.777	5.21
356.147	4.53
356.516	5.06
356.885	4.9
357.254	4.58
357.624	4.29
357.993	4.8
358.362	4.87
358.731	4.85
359.1	4.19
359.469	4.61
359.838	4.47
360.207	4.35
360.576	5.02
360.945	4.29
361.314	4.88
361.682	4.76
362.051	5.06
362.42	4.97
362.788	4.84
363.157	4.94
363.525	4.73
363.894	4.47
364.262	4.92
364.631	4.63
364.999	4.76
365.367	4.9
365.735	4.8
366.104	4.88
366.472	4.58
366.84	4.81
367.208	4.71
367.576	4.68
367.944	5.19
368.312	4.93
368.68	4.67
369.048	5.06
369.416	4.92
369.783	4.8
370.151	5.22
370.519	4.79
370.886	5.05
371.254	4.64
371.621	5.22
371.989	4.7
372.356	5.05
372.724	5
373.091	5.03
373.458	4.83
373.826	5.03
374.193	4.87
374.56	5.32
374.927	5.05
375.294	5.09
375.661	5.73
376.028	5.05
376.395	4.98
376.762	5.46
377.129	4.92
377.496	5.3
377.863	4.72
378.229	4.82
378.596	4.77
378.963	5.09
379.329	4.76
379.696	4.82
380.062	5.41
380.429	5.06
380.795	5.25
381.161	4.88
381.528	5.04
381.894	5.14
382.26	4.86
382.626	5.18
382.993	5.37
383.359	5.02
383.725	5.2
384.091	5.09
384.457	5.09
384.823	4.97
385.188	4.98
385.554	5.25
385.92	4.91
386.286	5.02
386.651	5.18
387.017	5.51
387.383	4.88
387.748	4.96
388.114	5.08
388.479	5.27
388.845	5.26
389.21	4.99
389.575	4.95
389.94	5.32
390.306	5.14
390.671	4.93
391.036	5.49
391.401	5.04
391.766	5.24
392.131	5.44
392.496	5.14
392.861	4.95
393.226	5.27
393.591	5.07
393.956	4.93
394.32	5.37
394.685	5.35
395.05	5.13
395.414	5.22
395.779	5.04
396.143	5.24
396.508	5.03
396.872	5.43
397.236	5.29
397.601	5.16
397.965	5.06
398.329	5.09
398.694	5.01
399.058	5.33
399.422	5.03
399.786	5.01
400.15	5.02
400.514	5.69
400.878	5.33
401.242	5.31
401.605	5.49
401.969	5.29
402.333	5.32
402.697	4.86
403.06	5.06
403.424	5.1
403.787	5.01
404.151	5.3
404.514	4.92
404.878	5.19
405.241	5.14
405.604	5.08
405.968	5.12
406.331	5.49
406.694	5.3
407.057	5.31
407.42	4.95
407.783	5.02
408.146	5.09
408.509	5.23
408.872	5.17
409.235	5.15
409.598	5.19
409.961	5.28
410.323	5.46
410.686	5.06
411.049	5.38
411.411	5.43
411.774	5.48
412.136	5.48
412.499	5.14
412.861	5.41
413.223	5.52
413.586	5.13
413.948	5.35
414.31	5.5
414.672	5.4
415.035	5.21
415.397	5.31
415.759	5.45
416.121	5.21
416.483	5.64
416.845	5.34
417.206	5.47
417.568	5.19
417.93	5.46
418.292	5.21
418.653	5.31
419.015	5.22
419.377	5.51
419.738	5.11
420.1	5.36
420.461	5.22
420.822	5.23
421.184	5.14
421.545	5.46
421.906	5.27
422.267	5.26
422.629	5.31
422.99	5.25
423.351	5.27
423.712	5.16
424.073	5.23
424.434	5.39
424.795	5.38
425.155	5.27
425.516	5.21
425.877	5.23
426.238	5.3
426.598	5.27
426.959	5.24
427.32	5.35
427.68	5.31
428.041	5.4
428.401	5.4
428.761	5.4
429.122	5.34
429.482	5.69
429.842	5.6
430.202	5.15
430.563	5.58
430.923	5.47
431.283	5.39
431.643	5.52
432.003	5.42
432.363	5.61
432.722	5.53
433.082	5.41
433.442	5.57
433.802	5.74
434.161	5.45
434.521	5.52
434.881	5.58
435.24	5.47
435.6	5.45
435.959	5.59
436.319	5.51
436.678	5.67
437.037	5.53
437.396	5.49
437.756	5.54
438.115	5.55
438.474	5.62
438.833	5.63
439.192	5.75
439.551	5.5
439.91	5.42
440.269	5.54
440.628	5.46
440.987	5.45
441.345	5.63
441.704	5.63
442.063	5.59
442.421	5.56
442.78	5.49
443.138	5.5
443.497	5.53
443.855	5.6
444.214	5.57
444.572	5.59
444.93	5.67
445.288	5.55
445.647	5.57
446.005	5.53
446.363	5.34
446.721	5.44
447.079	5.69
447.437	5.38
447.795	5.5
448.153	5.55
448.51	5.55
448.868	5.51
449.226	5.57
449.584	5.52
449.941	5.53
450.299	5.63
450.656	5.59
451.014	5.81
451.371	5.56
451.729	5.73
452.086	5.57
452.443	5.84
452.801	5.66
453.158	5.73
453.515	5.75
453.872	5.64
454.229	5.72
454.586	5.61
454.943	5.55
455.3	5.57
455.657	5.54
456.014	5.99
456.371	5.81
456.727	5.83
457.084	5.78
457.441	5.88
457.797	5.74
458.154	5.81
458.51	5.78
458.867	5.98
459.223	5.96
459.58	5.69
459.936	5.79
460.292	5.86
460.648	5.69
461.005	5.68
461.361	5.69
461.717	5.7
462.073	5.72
462.429	5.62
462.785	5.78
463.141	5.73
463.496	5.83
463.852	5.78
464.208	5.83
464.564	5.92
464.919	6.01
465.275	5.96
465.631	5.98
465.986	5.94
466.342	5.97
466.697	5.83
467.052	6.05
467.408	5.94
467.763	6.1
468.118	6.01
468.473	6.06
468.829	5.98
469.184	5.76
469.539	6.16
469.894	5.97
470.249	6.16
470.603	5.97
470.958	6.07
471.313	6.16
471.668	6.07
472.023	6.08
472.377	5.81
472.732	6.04
473.086	6.11
473.441	6.13
473.795	5.93
474.15	6.2
474.504	6.1
474.859	6.09
475.213	5.93
475.567	6.15
475.921	5.99
476.275	5.92
476.63	6.16
476.984	6.13
477.338	5.97
477.692	6.02
478.045	6.16
478.399	5.96
478.753	6.05
479.107	6.05
479.461	6.14
479.814	6.02
480.168	6.06
480.521	6.05
480.875	6.2
481.228	6.3
481.582	6.1
481.935	6.26
482.289	6.14
482.642	6.22
482.995	6.06
483.348	6.06
483.701	6.2
484.055	6.07
484.408	6.01
484.761	6
485.114	5.87
485.466	5.7
485.819	5.66
486.172	5.75
486.525	5.86
486.878	5.97
487.23	5.93
487.583	5.93
487.936	6.04
488.288	5.97
488.641	5.97
488.993	5.9
489.345	5.91
489.698	5.94
490.05	5.97
490.402	6.01
490.754	6.01
491.107	6.09
491.459	6.16
491.811	6.19
492.163	6.19
492.515	6.28
492.866	6.09
493.218	6
493.57	6.01
493.922	6
494.274	6.13
494.625	6.25
494.977	6.31
495.328	6.32
495.68	6.35
496.031	6.35
496.383	6.31
496.734	6.42
497.086	6.45
497.437	6.38
497.788	6.55
498.139	6.41
498.49	6.5
498.842	6.32
499.193	6.52
499.544	6.38
499.894	6.41
500.245	6.43
500.596	6.4
500.947	6.46
501.298	6.53
501.648	6.6
501.999	6.53
502.35	6.54
502.7	6.54
503.051	6.49
503.401	6.55
503.752	6.85
504.102	6.7
504.452	6.6
504.803	6.56
505.153	6.67
505.503	6.74
505.853	6.75
506.203	6.55
506.553	6.6
506.903	6.74
507.253	6.76
507.603	6.52
507.953	6.73
508.303	6.75
508.652	6.69
509.002	6.83
509.352	6.71
509.701	6.8
510.051	6.67
510.4	6.65
510.75	6.66
511.099	6.55
511.449	6.72
511.798	6.81
512.147	6.67
512.496	6.85
512.846	6.87
513.195	6.76
513.544	6.77
513.893	6.81
514.242	6.8
514.591	6.76
514.939	6.9
515.288	6.9
515.637	6.83
515.986	6.89
516.334	7.06
516.683	6.9
517.032	7.11
517.38	6.95
517.729	7.04
518.077	6.89
518.426	7.13
518.774	7.06
519.122	6.94
519.47	6.96
519.819	6.97
520.167	6.85
520.515	6.81
520.863	6.96
521.211	6.91
521.559	7.06
521.907	6.95
522.255	7.14
522.602	7.1
522.95	7.06
523.298	7.09
523.645	7.34
523.993	7.23
524.341	7.18
524.688	7.18
525.036	7.27
525.383	7.21
525.73	7.09
526.078	7
526.425	7.2
526.772	7.11
527.119	7.23
527.466	7.19
527.814	7.14
528.161	7.27
528.508	7.3
528.854	7.19
529.201	7.19
529.548	7.1
529.895	7.11
530.242	6.96
530.588	6.92
530.935	7.04
531.282	7.1
531.628	7.12
531.975	7.21
532.321	7.29
532.667	7.27
533.014	7.32
533.36	7.4
533.706	7.39
534.052	7.41
534.399	7.53
534.745	7.35
535.091	7.23
535.437	7.33
535.783	7.31
536.129	7.51
536.474	7.5
536.82	7.59
537.166	7.7
537.512	7.67
537.857	7.64
538.203	7.62
538.549	7.6
538.894	7.61
539.239	7.66
539.585	7.77
539.93	7.93
540.276	7.71
540.621	7.7
540.966	7.82
541.311	7.81
541.656	7.88
542.001	7.8
542.346	7.8
542.691	7.73
543.036	7.69
543.381	7.59
543.726	7.71
544.071	7.73
544.415	7.73
544.76	7.82
545.105	7.83
545.449	7.92
545.794	7.93
546.138	7.9
546.483	8.21
546.827	8.07
547.171	8.1
547.516	8.18
547.86	8.14
548.204	8.21
548.548	8.19
548.892	8.2
549.236	8.3
549.58	8.28
549.924	8.31
550.268	8.47
550.612	8.3
550.956	8.56
551.3	8.68
551.643	8.57
551.987	8.72
552.33	8.72
552.674	8.63
553.017	8.7
553.361	8.84
553.704	8.58
554.048	8.78
554.391	8.7
554.734	8.61
555.077	8.75
555.42	8.52
555.764	8.75
556.107	8.96
556.45	8.87
556.793	8.82
557.135	8.8
557.478	9.04
557.821	8.87
558.164	9.09
558.507	9.04
558.849	9.05
559.192	9.27
559.534	9.13
559.877	9.17
560.219	8.99
560.562	9.19
560.904	9.32
561.246	9.54
561.589	9.4
561.931	9.3
562.273	9.28
562.615	9.17
562.957	9.32
563.299	9.31
563.641	9.34
563.983	9.42
564.325	9.39
564.667	9.36
565.008	9.43
565.35	9.3
565.692	9.48
566.033	9.5
566.375	9.34
566.716	9.38
567.058	9.77
567.399	9.68
567.741	9.49
568.082	9.48
568.423	9.66
568.764	9.77
569.105	9.58
569.447	9.77
569.788	9.81
570.129	9.88
570.47	9.89
570.811	9.78
571.151	9.89
571.492	10.06
571.833	9.99
572.174	10.04
572.514	10.03
572.855	10.11
573.195	9.91
573.536	9.84
573.876	9.96
574.217	10.11
574.557	10.03
574.898	10.23
575.238	10.27
575.578	10.26
575.918	10.38
576.258	10.37
576.598	10.15
576.938	10.4
577.278	10.42
577.618	10.51
577.958	10.38
578.298	10.52
578.638	10.63
578.977	10.48
579.317	10.54
579.657	10.63
579.996	10.84
580.336	10.71
580.675	10.65
581.014	10.88
581.354	10.85
581.693	10.87
582.032	10.78
582.372	11.1
582.711	11.02
583.05	10.9
583.389	11
583.728	11.22
584.067	10.97
584.406	11.29
584.745	11.17
585.083	11.1
585.422	11.33
585.761	11.32
586.1	11.23
586.438	11.5
586.777	11.32
587.115	11.39
587.454	11.44
587.792	11.27
588.13	11.76
588.469	11.56
588.807	11.42
589.145	11.58
589.483	11.5
589.821	11.77
590.159	11.64
590.497	11.62
590.835	11.64
591.173	11.84
591.511	11.82
591.849	11.71
592.187	11.81
592.524	11.65
592.862	11.84
593.2	11.86
593.537	11.69
593.875	12.23
594.212	12.11
594.55	12.1
594.887	12.32
595.224	12.24
595.561	12.24
595.899	11.94
596.236	12.37
596.573	12.28
596.91	12.28
597.247	12.31
597.584	12.38
597.921	12.45
598.258	12.54
598.594	12.53
598.931	12.37
599.268	12.39
599.604	12.34
599.941	12.51
600.277	12.66
600.614	12.75
600.95	13.06
601.287	12.66
601.623	12.98
601.959	12.89
602.296	12.89
602.632	12.72
602.968	13.05
603.304	12.97
603.64	13.14
603.976	13.02
604.312	13.16
604.648	13.14
604.984	13.09
605.319	12.98
605.655	12.99
605.991	13.02
606.326	12.98
606.662	13.21
606.998	12.99
607.333	13.17
607.668	13.05
608.004	13.43
608.339	13.62
608.674	13.31
609.01	13.48
609.345	13.56
609.68	13.73
610.015	13.3
610.35	13.7
610.685	13.75
611.02	13.9
611.355	13.83
611.689	13.64
612.024	13.82
612.359	13.69
612.694	13.87
613.028	14.16
613.363	14.07
613.697	14.14
614.032	14.17
614.366	14.11
614.7	14.12
615.035	14.29
615.369	14.15
615.703	14.4
616.037	14.11
616.371	14.22
616.705	14.36
617.039	14.51
617.373	14.61
617.707	14.71
618.041	14.83
618.375	14.31
618.709	14.53
619.042	14.7
619.376	14.59
619.71	14.67
620.043	14.59
620.377	14.86
620.71	14.49
621.043	15.09
621.377	14.56
621.71	15.16
622.043	15.23
622.376	15.54
622.709	15.05
623.043	15.25
623.376	15.35
623.709	15.33
624.041	15.29
624.374	15.3
624.707	15.2
625.04	15.11
625.373	15.96
625.705	15.7
626.038	15.15
626.37	15.45
626.703	15.68
627.035	15.44
627.368	15.86
627.7	15.8
628.032	15.55
628.365	15.5
628.697	15.67
629.029	15.4
629.361	15.5
629.693	15.69
630.025	15.43
630.357	15.92
630.689	15.67
631.021	15.97
631.353	16.57
631.684	16.03
632.016	16.13
632.348	16.19
632.679	15.84
633.011	16.7
633.342	16.42
633.674	16.5
634.005	16.56
634.336	16.59
634.668	16.27
634.999	16.83
635.33	16.15
635.661	16.52
635.992	16.65
636.323	16.37
636.654	16.86
636.985	16.76
637.316	16.74
637.647	16.53
637.977	17.26
638.308	16.67
638.639	16.89
638.969	17.11
639.3	16.74
639.63	17.39
639.961	17.05
640.291	16.87
640.622	17.02
640.952	17.46
641.282	17.47
641.612	17.04
641.943	17.78
642.273	17.36
642.603	17.41
642.933	17.53
643.263	17.09
643.592	17.52
643.922	17.44
644.252	17.93
644.582	17.06
644.911	17.76
645.241	17.12
645.571	17.93
645.9	17.92
646.23	17.37
646.559	18.27
646.888	18.02
647.218	17.54
647.547	17.77
647.876	17.93
648.205	17.63
648.534	18.06
648.863	18.4
649.192	18.5
649.521	18.35
649.85	17.57
650.179	18.71
650.508	18.72
650.837	19.13
651.165	18.04
651.494	18.03
651.822	18.23
652.151	18.8
652.479	18.42
652.808	18.78
653.136	18.9
653.465	18.52
653.793	18.82
654.121	18.71
654.449	18.94
654.777	18.41
655.105	19.26
655.433	19.37
655.761	19.43
656.089	19.3
656.417	19.07
656.745	19.46
657.073	19.17
657.4	20.05
657.728	18.59
658.056	19.25
658.383	18.99
658.711	19.55
659.038	18.91
659.365	19.21
659.693	19.61
660.02	19.32
660.347	19.3
660.674	19.69
661.001	19.25
661.329	19.63
661.656	19.49
661.982	19.41
662.309	19.92
662.636	19.42
662.963	20.12
663.29	19.92
663.616	20.07
663.943	19.7
664.27	20.34
664.596	20.36
664.923	20.67
665.249	19.62
665.576	20.07
665.902	20.35
666.228	20.03
666.554	20.36
666.881	19.77
667.207	20.3
667.533	20.7
667.859	20.17
668.185	20.73
668.511	21.03
668.837	20.45
669.162	20.2
669.488	20.09
669.814	20.66
670.139	19.83
670.465	19.92
670.791	20.49
671.116	20.6
671.442	21.04
671.767	20.92
672.092	21.22
672.418	20.51
672.743	21.42
673.068	20.93
673.393	21.45
673.718	21.57
674.043	20.84
674.368	20.64
674.693	21.12
675.018	20.67
675.343	21.47
675.667	21.5
675.992	21.29
676.317	21.63
676.641	20.95
676.966	21.51
677.29	21
677.615	21.45
677.939	21.22
678.264	21.93
678.588	21.7
678.912	22.19
679.236	21.22
679.56	21.99
679.885	22.58
680.209	21.97
680.532	21.91
680.856	21.72
681.18	22
681.504	22.22
681.828	22.17
682.152	21.86
682.475	21.95
682.799	22.16
683.122	22.44
683.446	22.39
683.769	23.29
684.093	22.07
684.416	22.71
684.739	22.28
685.062	22.35
685.386	22.22
685.709	22.83
