Data from 444_chest_Reflection__2__62.txt Node

Date: Tue Dec 12 18:43:34 CST 2023
User: ToomeyLab
Spectrometer: FLMS14357
Trigger mode: 0
Integration Time (sec): 1.000000E-2
Scans to average: 100
Electric dark correction enabled: true
Nonlinearity correction enabled: false
Boxcar width: 0
XAxis mode: Wavelengths
Number of Pixels in Spectrum: 2048
>>>>>Begin Spectral Data<<<<<
189.047	84.47
189.435	84.47
189.823	84.47
190.211	35.16
190.599	-67.7
190.987	64.75
191.375	-18.97
191.763	-40.76
192.151	49.53
192.538	-57.1
192.926	49.56
193.314	35.56
193.702	92.59
194.089	100.89
194.477	161.84
194.864	634.35
195.252	467.59
195.639	-47.82
196.027	93.91
196.414	-34.99
196.801	33.49
197.189	898.62
197.576	103.08
197.963	-15.25
198.351	38.2
198.738	36.48
199.125	10.82
199.512	29.94
199.899	11.36
200.286	48.07
200.673	-22.83
201.06	22.13
201.447	-64.93
201.833	-41.12
202.22	38.04
202.607	-84.03
202.994	16.39
203.38	-8.09
203.767	20.43
204.154	38.07
204.54	31.82
204.927	30.9
205.313	34.37
205.699	-56.01
206.086	-0.35
206.472	40.23
206.858	-8.44
207.245	-10.96
207.631	39.21
208.017	-2.79
208.403	-26.8
208.789	59.4
209.175	22.5
209.561	25.02
209.947	6.16
210.333	38.6
210.719	6.66
211.105	-9.06
211.491	19.73
211.876	1
212.262	20.62
212.648	-24.75
213.034	-45.79
213.419	-17.39
213.805	10.23
214.19	17.06
214.576	21.99
214.961	43.17
215.346	4.93
215.732	11.34
216.117	-8.05
216.502	-23.21
216.888	-16.6
217.273	-4.42
217.658	-43.23
218.043	-17.12
218.428	-17.73
218.813	18.33
219.198	-26.32
219.583	17.95
219.968	3.57
220.353	-16.67
220.738	22.34
221.122	11.02
221.507	2.48
221.892	-22.83
222.276	14.21
222.661	13.13
223.046	2.3
223.43	2.15
223.815	-8.68
224.199	8.47
224.583	5.2
224.968	3.66
225.352	-6.91
225.736	8.07
226.121	-2.07
226.505	1.65
226.889	-4.06
227.273	-0.6
227.657	7.15
228.041	4.78
228.425	4.27
228.809	3.09
229.193	3.48
229.577	3.69
229.961	2.17
230.344	3.71
230.728	4.43
231.112	4.19
231.495	4.26
231.879	4.18
232.263	2.34
232.646	4.95
233.03	3.14
233.413	2.55
233.797	3.49
234.18	3.39
234.563	2.45
234.946	3.68
235.33	6.7
235.713	4.68
236.096	4.79
236.479	1.64
236.862	4.01
237.245	3.41
237.628	2.89
238.011	4.05
238.394	2.2
238.777	5.83
239.16	3.71
239.543	3.98
239.925	3.02
240.308	2.94
240.691	4.71
241.073	4.37
241.456	4
241.838	2.67
242.221	4.24
242.603	3.78
242.986	2.34
243.368	4.37
243.75	3.73
244.133	2.86
244.515	3.77
244.897	3.64
245.279	4.08
245.661	3.45
246.043	3.22
246.425	3.88
246.807	2.39
247.189	3.62
247.571	4.1
247.953	3.15
248.335	3.61
248.717	2.93
249.098	3.14
249.48	3.5
249.862	2.99
250.243	3.66
250.625	3.44
251.006	3.27
251.388	3.06
251.769	3.56
252.151	2.7
252.532	3.45
252.913	3.97
253.295	3.88
253.676	3.31
254.057	2.94
254.438	3.76
254.819	3.63
255.2	3.4
255.581	4.29
255.962	2.6
256.343	2.83
256.724	3.88
257.105	4.66
257.486	2.93
257.867	2.43
258.247	2.48
258.628	3.66
259.009	2.26
259.389	2.98
259.77	3.26
260.15	3.5
260.531	3.58
260.911	3.6
261.292	2.92
261.672	2.98
262.052	3.24
262.432	3.55
262.813	3.39
263.193	3.37
263.573	3.52
263.953	4.54
264.333	3.73
264.713	3.65
265.093	3.3
265.473	4.26
265.853	3.51
266.233	2.15
266.612	2.85
266.992	2.95
267.372	3.71
267.752	4.09
268.131	2.84
268.511	2.97
268.89	2.52
269.27	2.64
269.649	2.78
270.029	2.97
270.408	3.11
270.787	2.81
271.167	3.75
271.546	3.74
271.925	3.49
272.304	3.04
272.683	2.01
273.062	3.03
273.441	3.35
273.82	2.64
274.199	2.99
274.578	2.87
274.957	3.1
275.336	3.44
275.715	3.58
276.093	2.37
276.472	3.37
276.851	3.55
277.229	2.94
277.608	2.98
277.986	2.61
278.365	2.9
278.743	3.78
279.122	3.21
279.5	2.7
279.878	2.62
280.257	2.6
280.635	2.87
281.013	3.23
281.391	3.25
281.769	3.1
282.147	3.24
282.525	3.1
282.903	2.7
283.281	2.94
283.659	3.62
284.037	3.19
284.415	3.22
284.792	3.06
285.17	3.32
285.548	3.3
285.925	3.51
286.303	2.81
286.68	2.84
287.058	2.98
287.435	2.84
287.813	2.97
288.19	3.14
288.567	3.18
288.945	3.3
289.322	2.67
289.699	3.44
290.076	2.76
290.453	3.48
290.83	3.35
291.207	3.93
291.584	2.89
291.961	3.13
292.338	2.87
292.715	3.29
293.092	2.83
293.469	3
293.845	3.53
294.222	3.47
294.599	3.5
294.975	2.99
295.352	4.01
295.728	3.38
296.105	3.51
296.481	4.03
296.858	3.11
297.234	3.67
297.61	3.21
297.986	3.24
298.363	3.69
298.739	3.34
299.115	3.26
299.491	3.35
299.867	3.36
300.243	3.08
300.619	3.66
300.995	4.04
301.371	4.19
301.746	3.57
302.122	4.09
302.498	3.63
302.874	3.71
303.249	4.11
303.625	3.33
304	3.94
304.376	3.61
304.751	3.81
305.127	3.59
305.502	3.79
305.878	3.2
306.253	3.61
306.628	3.76
307.003	3.36
307.378	3.55
307.754	3.78
308.129	3.38
308.504	4.08
308.879	3.23
309.254	4.01
309.629	3.69
310.003	3.86
310.378	3.67
310.753	3.49
311.128	4.28
311.502	3.66
311.877	3.44
312.252	2.76
312.626	3.86
313.001	3.4
313.375	3.3
313.75	3.76
314.124	3.9
314.498	3.83
314.873	3.39
315.247	3.94
315.621	3.47
315.995	3.72
316.369	3.67
316.743	3.02
317.117	3.36
317.491	3.49
317.865	3.61
318.239	3.18
318.613	3.94
318.987	3.78
319.361	3.08
319.734	4.45
320.108	3.94
320.482	3.8
320.855	3.13
321.229	3.59
321.602	4.09
321.976	3.98
322.349	3.77
322.723	3.39
323.096	3.24
323.469	3.36
323.843	4.78
324.216	4.3
324.589	3.46
324.962	3.81
325.335	4.3
325.708	3.57
326.081	4.33
326.454	3.58
326.827	4.35
327.2	3.96
327.573	3.7
327.945	3.38
328.318	4
328.691	3.26
329.063	4.16
329.436	3.58
329.809	3.96
330.181	3.59
330.553	3.91
330.926	4.16
331.298	3.68
331.671	4.03
332.043	3.65
332.415	4.06
332.787	3.81
333.159	4.19
333.532	3.88
333.904	3.62
334.276	4.62
334.648	3.77
335.02	3.66
335.391	3.31
335.763	3.79
336.135	4.44
336.507	3.97
336.879	3.58
337.25	3.29
337.622	3.52
337.993	4.09
338.365	4.07
338.736	3.76
339.108	3.8
339.479	4.32
339.851	3.57
340.222	3.19
340.593	3.99
340.964	4.2
341.336	3.98
341.707	3.67
342.078	3.64
342.449	3.84
342.82	3.73
343.191	4.09
343.562	3.72
343.933	4.2
344.303	3.98
344.674	4.13
345.045	4.19
345.416	4.39
345.786	3.97
346.157	3.55
346.527	4.29
346.898	3.07
347.268	3.88
347.639	4.26
348.009	3.92
348.38	3.89
348.75	4.27
349.12	4.3
349.49	3.13
349.861	4.57
350.231	3.84
350.601	4.04
350.971	4.07
351.341	3.98
351.711	4.47
352.081	3.95
352.45	3.85
352.82	4.06
353.19	3.8
353.56	3.71
353.929	3.72
354.299	3.84
354.669	3.48
355.038	3.16
355.408	3.5
355.777	4.25
356.147	3.59
356.516	4.16
356.885	4.06
357.254	4.08
357.624	3.7
357.993	3.74
358.362	4.23
358.731	4.16
359.1	3.28
359.469	4
359.838	3.56
360.207	3.81
360.576	4
360.945	3.47
361.314	4.29
361.682	3.98
362.051	4.24
362.42	4
362.788	4.06
363.157	4.32
363.525	4.02
363.894	3.92
364.262	3.93
364.631	3.9
364.999	4
365.367	4.42
365.735	3.94
366.104	3.99
366.472	3.6
366.84	3.96
367.208	3.7
367.576	3.7
367.944	4.46
368.312	4.04
368.68	3.98
369.048	4.14
369.416	3.91
369.783	3.92
370.151	4.23
370.519	4.16
370.886	4.24
371.254	4.03
371.621	4.16
371.989	3.96
372.356	4.05
372.724	3.92
373.091	4.09
373.458	4.14
373.826	4.33
374.193	3.8
374.56	4.44
374.927	3.96
375.294	4.18
375.661	4.54
376.028	4.26
376.395	4.22
376.762	4.17
377.129	4.13
377.496	4.24
377.863	4.24
378.229	4.07
378.596	3.85
378.963	4.27
379.329	3.94
379.696	3.84
380.062	4.5
380.429	4.03
380.795	4.14
381.161	4.32
381.528	4.31
381.894	4.46
382.26	3.94
382.626	3.97
382.993	4.42
383.359	3.86
383.725	4.27
384.091	4.07
384.457	3.97
384.823	4.3
385.188	4.33
385.554	4.05
385.92	4.14
386.286	4.22
386.651	4.25
387.017	4.45
387.383	4.24
387.748	4.08
388.114	4.31
388.479	3.97
388.845	4.26
389.21	4.24
389.575	4.04
389.94	4.03
390.306	4.27
390.671	4.36
391.036	4.31
391.401	4.18
391.766	4.16
392.131	4.12
392.496	4.15
392.861	4.24
393.226	4.18
393.591	4.21
393.956	4.18
394.32	4.14
394.685	4.15
395.05	4.14
395.414	4.42
395.779	4.19
396.143	4.5
396.508	4.17
396.872	4.18
397.236	4.36
397.601	4.45
397.965	4.4
398.329	4.32
398.694	4.13
399.058	4.68
399.422	4.19
399.786	4.4
400.15	4.2
400.514	4.55
400.878	4.36
401.242	4.32
401.605	4.63
401.969	4.32
402.333	4.59
402.697	4.26
403.06	4.09
403.424	4.66
403.787	4.18
404.151	4.7
404.514	4.19
404.878	4.28
405.241	4.34
405.604	4.16
405.968	4.23
406.331	4.56
406.694	4.6
407.057	4.33
407.42	4.35
407.783	4.2
408.146	4.49
408.509	4.47
408.872	4.51
409.235	4.36
409.598	4.14
409.961	4.3
410.323	4.38
410.686	4.64
411.049	4.54
411.411	4.51
411.774	4.39
412.136	4.55
412.499	4.4
412.861	4.2
413.223	4.74
413.586	4.34
413.948	4.38
414.31	4.35
414.672	4.58
415.035	4.41
415.397	4.39
415.759	4.29
416.121	4.4
416.483	4.39
416.845	4.41
417.206	4.52
417.568	4.34
417.93	4.42
418.292	4.52
418.653	4.62
419.015	4.5
419.377	4.6
419.738	4.42
420.1	4.37
420.461	4.69
420.822	4.41
421.184	4.49
421.545	4.66
421.906	4.47
422.267	4.41
422.629	4.41
422.99	4.45
423.351	4.39
423.712	4.29
424.073	4.39
424.434	4.41
424.795	4.47
425.155	4.41
425.516	4.36
425.877	4.41
426.238	4.45
426.598	4.4
426.959	4.43
427.32	4.43
427.68	4.46
428.041	4.45
428.401	4.49
428.761	4.52
429.122	4.62
429.482	4.73
429.842	4.72
430.202	4.67
430.563	4.73
430.923	4.67
431.283	4.5
431.643	4.72
432.003	4.53
432.363	4.63
432.722	4.45
433.082	4.69
433.442	4.76
433.802	4.62
434.161	4.52
434.521	4.7
434.881	4.6
435.24	4.69
435.6	4.62
435.959	4.66
436.319	4.75
436.678	4.73
437.037	4.55
437.396	4.52
437.756	4.69
438.115	4.78
438.474	4.57
438.833	4.89
439.192	4.81
439.551	4.65
439.91	4.63
440.269	4.54
440.628	4.66
440.987	4.46
441.345	4.69
441.704	4.61
442.063	4.68
442.421	4.78
442.78	4.63
443.138	4.69
443.497	4.71
443.855	4.73
444.214	4.76
444.572	4.81
444.93	4.89
445.288	4.61
445.647	4.79
446.005	4.66
446.363	4.67
446.721	4.65
447.079	4.67
447.437	4.61
447.795	4.7
448.153	4.66
448.51	4.68
448.868	4.71
449.226	4.77
449.584	4.77
449.941	4.71
450.299	4.75
450.656	4.77
451.014	4.71
451.371	4.81
451.729	4.87
452.086	4.8
452.443	4.99
452.801	4.9
453.158	4.84
453.515	4.91
453.872	4.92
454.229	4.77
454.586	4.61
454.943	4.74
455.3	4.71
455.657	4.71
456.014	5
456.371	4.94
456.727	4.94
457.084	4.8
457.441	4.84
457.797	4.81
458.154	4.85
458.51	4.81
458.867	5.01
459.223	4.91
459.58	4.89
459.936	4.68
460.292	4.82
460.648	4.98
461.005	4.81
461.361	4.77
461.717	4.8
462.073	4.79
462.429	4.82
462.785	4.9
463.141	4.96
463.496	4.91
463.852	5.02
464.208	4.96
464.564	5.01
464.919	5.02
465.275	5.08
465.631	5.02
465.986	4.93
466.342	4.76
466.697	5.05
467.052	5.17
467.408	5.07
467.763	5.17
468.118	5.07
468.473	5.07
468.829	4.96
469.184	4.97
469.539	5.13
469.894	5.06
470.249	5.05
470.603	5.14
470.958	5.08
471.313	5.19
471.668	5.15
472.023	5.22
472.377	4.89
472.732	5.03
473.086	5.07
473.441	5.24
473.795	5.16
474.15	5.21
474.504	5.03
474.859	5.27
475.213	5.1
475.567	5.14
475.921	5.14
476.275	5.01
476.63	5.29
476.984	5.12
477.338	4.96
477.692	4.97
478.045	5.32
478.399	5.02
478.753	5.22
479.107	5.11
479.461	5.16
479.814	5.23
480.168	4.97
480.521	5.1
480.875	5.2
481.228	5.34
481.582	5.1
481.935	5.13
482.289	5.26
482.642	5.33
482.995	5.19
483.348	5.15
483.701	5.43
484.055	5.07
484.408	5.1
484.761	5.15
485.114	5.01
485.466	4.92
485.819	4.86
486.172	4.84
486.525	4.97
486.878	4.98
487.23	5.03
487.583	4.99
487.936	5.19
488.288	5.06
488.641	5.07
488.993	5.03
489.345	5.01
489.698	4.99
490.05	5.03
490.402	5.06
490.754	5.04
491.107	5.13
491.459	5.18
491.811	5.3
492.163	5.23
492.515	5.2
492.866	5.25
493.218	5.08
493.57	5.08
493.922	5.04
494.274	5.15
494.625	5.26
494.977	5.28
495.328	5.37
495.68	5.27
496.031	5.53
496.383	5.42
496.734	5.42
497.086	5.43
497.437	5.39
497.788	5.45
498.139	5.38
498.49	5.48
498.842	5.38
499.193	5.47
499.544	5.44
499.894	5.46
500.245	5.59
500.596	5.57
500.947	5.45
501.298	5.65
501.648	5.5
501.999	5.61
502.35	5.55
502.7	5.59
503.051	5.52
503.401	5.4
503.752	5.68
504.102	5.51
504.452	5.63
504.803	5.7
505.153	5.67
505.503	5.65
505.853	5.69
506.203	5.65
506.553	5.63
506.903	5.75
507.253	5.72
507.603	5.66
507.953	5.73
508.303	5.8
508.652	5.68
509.002	5.78
509.352	5.76
509.701	5.58
510.051	5.63
510.4	5.61
510.75	5.62
511.099	5.65
511.449	5.79
511.798	5.65
512.147	5.7
512.496	5.8
512.846	5.79
513.195	5.74
513.544	5.84
513.893	5.72
514.242	5.77
514.591	5.66
514.939	5.78
515.288	5.8
515.637	5.66
515.986	5.91
516.334	5.96
516.683	5.76
517.032	5.93
517.38	5.8
517.729	5.91
518.077	5.9
518.426	6.12
518.774	5.94
519.122	5.98
519.47	5.88
519.819	5.83
520.167	5.87
520.515	5.77
520.863	5.84
521.211	5.82
521.559	6.06
521.907	5.91
522.255	5.9
522.602	6.09
522.95	5.94
523.298	5.98
523.645	6.15
523.993	6.13
524.341	6.16
524.688	6.03
525.036	6.2
525.383	5.99
525.73	5.96
526.078	5.99
526.425	6.09
526.772	6.09
527.119	6.05
527.466	6.01
527.814	6.04
528.161	6.07
528.508	6.05
528.854	6.05
529.201	6.04
529.548	5.99
529.895	5.91
530.242	5.89
530.588	5.84
530.935	5.92
531.282	5.99
531.628	6.05
531.975	6.03
532.321	6.11
532.667	6.11
533.014	6.09
533.36	6.32
533.706	6.24
534.052	6.21
534.399	6.29
534.745	6.23
535.091	6.15
535.437	6.2
535.783	6.18
536.129	6.29
536.474	6.25
536.82	6.27
537.166	6.38
537.512	6.43
537.857	6.38
538.203	6.34
538.549	6.44
538.894	6.38
539.239	6.44
539.585	6.48
539.93	6.48
540.276	6.56
540.621	6.5
540.966	6.53
541.311	6.59
541.656	6.68
542.001	6.59
542.346	6.54
542.691	6.55
543.036	6.35
543.381	6.35
543.726	6.42
544.071	6.42
544.415	6.46
544.76	6.55
545.105	6.57
545.449	6.63
545.794	6.81
546.138	6.65
546.483	6.86
546.827	6.67
547.171	6.82
547.516	6.78
547.86	6.82
548.204	6.85
548.548	6.94
548.892	6.83
549.236	6.85
549.58	6.95
549.924	7.03
550.268	7.14
550.612	7.03
550.956	7.07
551.3	7.12
551.643	7.08
551.987	7.41
552.33	7.26
552.674	7.17
553.017	7.4
553.361	7.37
553.704	7.23
554.048	7.4
554.391	7.24
554.734	7.21
555.077	7.28
555.42	7.14
555.764	7.35
556.107	7.44
556.45	7.36
556.793	7.16
557.135	7.6
557.478	7.49
557.821	7.44
558.164	7.42
558.507	7.61
558.849	7.63
559.192	7.5
559.534	7.48
559.877	7.69
560.219	7.49
560.562	7.53
560.904	7.79
561.246	7.7
561.589	7.82
561.931	7.51
562.273	7.6
562.615	7.43
562.957	7.71
563.299	7.74
563.641	7.75
563.983	7.84
564.325	7.77
564.667	7.8
565.008	7.67
565.35	7.86
565.692	7.86
566.033	8.04
566.375	8.08
566.716	7.75
567.058	8.02
567.399	7.99
567.741	7.95
568.082	7.77
568.423	8.09
568.764	8.02
569.105	7.89
569.447	7.97
569.788	8.06
570.129	8.1
570.47	8.15
570.811	8.23
571.151	8.04
571.492	8.27
571.833	8.22
572.174	8.18
572.514	8.24
572.855	8.44
573.195	8.3
573.536	8.1
573.876	8.24
574.217	8.37
574.557	8.21
574.898	8.51
575.238	8.54
575.578	8.38
575.918	8.57
576.258	8.57
576.598	8.42
576.938	8.52
577.278	8.54
577.618	8.64
577.958	8.42
578.298	8.65
578.638	8.72
578.977	8.75
579.317	8.54
579.657	8.53
579.996	8.7
580.336	8.73
580.675	8.78
581.014	9.1
581.354	8.87
581.693	8.87
582.032	8.72
582.372	8.96
582.711	8.88
583.05	9.2
583.389	9.02
583.728	8.98
584.067	9.22
584.406	9.31
584.745	9.08
585.083	9.15
585.422	8.84
585.761	9.49
586.1	8.96
586.438	9.47
586.777	9.39
587.115	9.27
587.454	9.41
587.792	9.22
588.13	9.5
588.469	9.4
588.807	9.15
589.145	9.37
589.483	9.66
589.821	9.81
590.159	9.49
590.497	9.55
590.835	9.48
591.173	9.52
591.511	9.63
591.849	9.58
592.187	9.57
592.524	9.53
592.862	9.84
593.2	9.56
593.537	9.63
593.875	9.89
594.212	9.93
594.55	9.9
594.887	10.24
595.224	9.98
595.561	10.21
595.899	9.93
596.236	9.96
596.573	9.98
596.91	10.46
597.247	9.96
597.584	9.87
597.921	10.11
598.258	10.29
598.594	10.23
598.931	10.02
599.268	10.14
599.604	9.99
599.941	10.24
600.277	10.2
600.614	10.39
600.95	10.26
601.287	10.27
601.623	10.3
601.959	10.45
602.296	10.76
602.632	10.31
602.968	10.74
603.304	10.59
603.64	10.66
603.976	10.77
604.312	10.85
604.648	10.82
604.984	10.65
605.319	10.6
605.655	10.67
605.991	10.69
606.326	10.27
606.662	10.86
606.998	10.72
607.333	10.71
607.668	10.72
608.004	10.85
608.339	11.01
608.674	10.98
609.01	10.89
609.345	11.15
609.68	11.1
610.015	10.97
610.35	11.14
610.685	11.15
611.02	11.25
611.355	11.16
611.689	11.18
612.024	11.04
612.359	11.44
612.694	11.16
613.028	11.35
613.363	11.4
613.697	11.44
614.032	11.25
614.366	11.74
614.7	11.33
615.035	11.83
615.369	11.62
615.703	11.47
616.037	11.44
616.371	11.44
616.705	11.7
617.039	11.65
617.373	11.6
617.707	11.55
618.041	11.72
618.375	11.54
618.709	11.63
619.042	11.85
619.376	11.79
619.71	11.54
620.043	12
620.377	12.24
620.71	11.81
621.043	11.95
621.377	11.62
621.71	12.09
622.043	12.34
622.376	12.55
622.709	12.21
623.043	12.17
623.376	12.37
623.709	11.82
624.041	12.14
624.374	12.37
624.707	12.2
625.04	12.5
625.373	12.63
625.705	12.3
626.038	12.24
626.37	12.81
626.703	13.08
627.035	12.61
627.368	12.69
627.7	12.37
628.032	12.6
628.365	12.92
628.697	12.45
629.029	12.55
629.361	12.73
629.693	12.48
630.025	12.28
630.357	12.47
630.689	12.5
631.021	12.91
631.353	12.96
631.684	13.13
632.016	12.78
632.348	12.8
632.679	13.14
633.011	13.3
633.342	12.96
633.674	13.31
634.005	13.12
634.336	13
634.668	13.26
634.999	13.27
635.33	13.34
635.661	13.32
635.992	13.4
636.323	13.31
636.654	13.35
636.985	13.41
637.316	13.47
637.647	12.96
637.977	13.78
638.308	13.76
638.639	13.53
638.969	13.64
639.3	13.37
639.63	13.93
639.961	13.66
640.291	12.98
640.622	13.54
640.952	14.09
641.282	13.74
641.612	13.57
641.943	14.17
642.273	14.38
642.603	14.26
642.933	14.11
643.263	13.48
643.592	13.99
643.922	14.23
644.252	14.25
644.582	13.59
644.911	14.36
645.241	13.79
645.571	14.54
645.9	14.28
646.23	13.52
646.559	14.48
646.888	14
647.218	14.51
647.547	14.25
647.876	14.39
648.205	13.94
648.534	14.45
648.863	14.54
649.192	14.92
649.521	14.97
649.85	14.07
650.179	14.41
650.508	14.84
650.837	14.8
651.165	14.78
651.494	14.8
651.822	14.53
652.151	14.98
652.479	14.79
652.808	15.08
653.136	14.97
653.465	14.82
653.793	14.61
654.121	14.85
654.449	15.06
654.777	15.03
655.105	15.04
655.433	15.29
655.761	15.23
656.089	15.24
656.417	15.28
656.745	15.11
657.073	14.97
657.4	15.24
657.728	14.84
658.056	14.93
658.383	15.1
658.711	15.48
659.038	15.26
659.365	15.27
659.693	15.64
660.02	15.41
660.347	15.3
660.674	15.43
661.001	15.95
661.329	15.49
661.656	15.48
661.982	15.57
662.309	15.57
662.636	15.3
662.963	16.25
663.29	15.86
663.616	16.06
663.943	15.82
664.27	16.64
664.596	16.24
664.923	16.15
665.249	15.75
665.576	15.95
665.902	15.78
666.228	16.24
666.554	16.07
666.881	15.59
667.207	15.63
667.533	16.17
667.859	15.94
668.185	16.7
668.511	16.19
668.837	15.66
669.162	17.36
669.488	15.94
669.814	16.57
670.139	17.03
670.465	15.82
670.791	16.57
671.116	16.29
671.442	16.44
671.767	16.81
672.092	16.98
672.418	16.17
672.743	16.91
673.068	16.39
673.393	16.73
673.718	16.81
674.043	16.63
674.368	16.42
674.693	16.71
675.018	16.45
675.343	16.9
675.667	17.45
675.992	16.77
676.317	15.96
676.641	16.72
676.966	17.54
677.29	17.05
677.615	16.54
677.939	16.67
678.264	17.76
678.588	17.01
678.912	17.28
679.236	17.02
679.56	17.03
679.885	17.74
680.209	17.44
680.532	17.46
680.856	16.5
681.18	17.24
681.504	17.32
681.828	17.85
682.152	17.35
682.475	17.59
682.799	17.32
683.122	17.73
683.446	17.89
683.769	18.4
684.093	17.45
684.416	17.06
684.739	17.76
685.062	17.65
685.386	17.65
685.709	18.03
686.032	17.09
686.355	17.46
686.678	18.01
