Data from 444_chest_Reflection__0__60.txt Node

Date: Tue Dec 12 18:43:10 CST 2023
User: ToomeyLab
Spectrometer: FLMS14357
Trigger mode: 0
Integration Time (sec): 1.000000E-2
Scans to average: 100
Electric dark correction enabled: true
Nonlinearity correction enabled: false
Boxcar width: 0
XAxis mode: Wavelengths
Number of Pixels in Spectrum: 2048
>>>>>Begin Spectral Data<<<<<
189.047	80.21
189.435	80.21
189.823	80.21
190.211	-49.36
190.599	46.56
190.987	27.2
191.375	-124.64
191.763	124.01
192.151	33.34
192.538	17.68
192.926	90.46
193.314	67.63
193.702	219.06
194.089	235.4
194.477	-333.48
194.864	187.94
195.252	-259.48
195.639	200.12
196.027	138.47
196.414	-78.77
196.801	112.9
197.189	-531.14
197.576	27.26
197.963	54.75
198.351	2.23
198.738	28
199.125	33.17
199.512	-29.57
199.899	6.78
200.286	54.83
200.673	13.41
201.06	-2.76
201.447	-80.98
201.833	-36.48
202.22	-14.7
202.607	-156.16
202.994	28.8
203.38	7.31
203.767	23.41
204.154	26.68
204.54	33.54
204.927	-4.09
205.313	32.43
205.699	4.83
206.086	4.27
206.472	41.78
206.858	29.94
207.245	12.78
207.631	7.29
208.017	54.41
208.403	80.12
208.789	40.09
209.175	17.81
209.561	26.71
209.947	-14.28
210.333	41.53
210.719	21.75
211.105	9.55
211.491	22.78
211.876	43.06
212.262	19.48
212.648	-19.49
213.034	13.3
213.419	-6.86
213.805	19.13
214.19	34.37
214.576	28.39
214.961	31.04
215.346	-17.77
215.732	38.95
216.117	-4.11
216.502	3.52
216.888	6.89
217.273	-0.01
217.658	-25.27
218.043	-2.13
218.428	7.46
218.813	6.58
219.198	22.43
219.583	12.26
219.968	8.85
220.353	-13.22
220.738	3.13
221.122	6.82
221.507	-4.77
221.892	-6.51
222.276	18.54
222.661	-6.63
223.046	-9.4
223.43	15.03
223.815	11.07
224.199	13.99
224.583	16.71
224.968	3.63
225.352	0.98
225.736	2.72
226.121	-0.16
226.505	7.92
226.889	4.86
227.273	8.99
227.657	11.98
228.041	5.49
228.425	4.49
228.809	6.16
229.193	2.47
229.577	6.89
229.961	3.14
230.344	4.37
230.728	4.97
231.112	5.23
231.495	3.75
231.879	5.46
232.263	4.95
232.646	4.01
233.03	5.6
233.413	3.11
233.797	2.38
234.18	2.98
234.563	1.93
234.946	3
235.33	5.52
235.713	5.32
236.096	4.12
236.479	5.28
236.862	6.3
237.245	5.68
237.628	4.39
238.011	5.27
238.394	3.26
238.777	6
239.16	5.08
239.543	4.85
239.925	6.43
240.308	6.01
240.691	4.69
241.073	6.63
241.456	4.78
241.838	3.81
242.221	4.65
242.603	5.17
242.986	4.5
243.368	4.42
243.75	4.24
244.133	4.17
244.515	4.55
244.897	4.52
245.279	5.13
245.661	3.67
246.043	4.46
246.425	4.88
246.807	4.65
247.189	5.05
247.571	4.18
247.953	4.05
248.335	4.16
248.717	4.21
249.098	4.08
249.48	4.1
249.862	4.31
250.243	4.1
250.625	4.65
251.006	4.86
251.388	4.97
251.769	3.85
252.151	3.05
252.532	5.19
252.913	4.86
253.295	4.95
253.676	3.78
254.057	3.79
254.438	4
254.819	4.12
255.2	3.36
255.581	3.37
255.962	3.75
256.343	3.67
256.724	4.86
257.105	5.56
257.486	3.64
257.867	3.86
258.247	4.04
258.628	4.19
259.009	3.68
259.389	4.56
259.77	4.01
260.15	4.29
260.531	4.81
260.911	4.46
261.292	4
261.672	3.77
262.052	3.94
262.432	4.25
262.813	4.1
263.193	4.19
263.573	3.79
263.953	5.21
264.333	4.97
264.713	4.06
265.093	3.69
265.473	3.92
265.853	3.69
266.233	2.58
266.612	4.15
266.992	3.17
267.372	4.25
267.752	4.89
268.131	3.55
268.511	4.27
268.89	3.09
269.27	3.03
269.649	3.91
270.029	3.71
270.408	3.98
270.787	3.56
271.167	3.34
271.546	3.88
271.925	4.7
272.304	4.26
272.683	2.81
273.062	3.69
273.441	4.17
273.82	3.25
274.199	3.9
274.578	3.34
274.957	3.38
275.336	3.81
275.715	4.23
276.093	3.03
276.472	4.27
276.851	3.62
277.229	3.29
277.608	3.83
277.986	3.11
278.365	3.78
278.743	3.43
279.122	3.5
279.5	3.03
279.878	2.93
280.257	3.38
280.635	3.59
281.013	3.36
281.391	3.4
281.769	3.56
282.147	4.06
282.525	3.24
282.903	3.77
283.281	4.18
283.659	3.66
284.037	4.23
284.415	3.68
284.792	4.08
285.17	3.4
285.548	3.77
285.925	3.48
286.303	3.5
286.68	3.53
287.058	3.85
287.435	3.33
287.813	3.27
288.19	3.86
288.567	3.41
288.945	3.68
289.322	3.22
289.699	4.14
290.076	3.17
290.453	3.9
290.83	3.77
291.207	3.83
291.584	3.86
291.961	4.07
292.338	4.1
292.715	4.06
293.092	3.85
293.469	3.11
293.845	3.84
294.222	4.02
294.599	3.84
294.975	3.91
295.352	4
295.728	4.41
296.105	3.85
296.481	3.78
296.858	4.01
297.234	4.74
297.61	3.65
297.986	3.93
298.363	4.2
298.739	3.98
299.115	3.39
299.491	3.92
299.867	3.91
300.243	3.85
300.619	4.1
300.995	4
301.371	4.52
301.746	3.89
302.122	4.63
302.498	4.04
302.874	4.63
303.249	4.01
303.625	3.87
304	4.21
304.376	4.27
304.751	4.34
305.127	4.12
305.502	4.6
305.878	3.75
306.253	4.04
306.628	4.13
307.003	4.02
307.378	4.75
307.754	4.69
308.129	4.21
308.504	4.75
308.879	4.18
309.254	4.26
309.629	4.04
310.003	4.69
310.378	4.23
310.753	4.38
311.128	3.99
311.502	3.71
311.877	4.03
312.252	3.53
312.626	4.35
313.001	3.82
313.375	4.06
313.75	4.12
314.124	4.32
314.498	4.04
314.873	4.23
315.247	3.87
315.621	4.27
315.995	4.14
316.369	4.21
316.743	3.79
317.117	3.58
317.491	4.41
317.865	4
318.239	4.28
318.613	4.4
318.987	4.6
319.361	3.75
319.734	4.2
320.108	4.18
320.482	3.83
320.855	3.85
321.229	4.74
321.602	4.39
321.976	4.12
322.349	4.62
322.723	3.99
323.096	4.06
323.469	3.95
323.843	4.76
324.216	4.36
324.589	4.27
324.962	4.67
325.335	4.32
325.708	4.2
326.081	4.63
326.454	4.28
326.827	4.87
327.2	4.18
327.573	3.87
327.945	4.48
328.318	4.27
328.691	3.36
329.063	4.51
329.436	4.62
329.809	4.08
330.181	4
330.553	4.13
330.926	4.41
331.298	3.69
331.671	4.13
332.043	4.22
332.415	4.37
332.787	4.39
333.159	4.37
333.532	3.81
333.904	4.16
334.276	4.66
334.648	4.26
335.02	3.57
335.391	4.02
335.763	3.91
336.135	4.49
336.507	4.56
336.879	4.01
337.25	4.23
337.622	3.81
337.993	4.16
338.365	4
338.736	4.57
339.108	4.18
339.479	4.23
339.851	4
340.222	3.41
340.593	4.23
340.964	4.25
341.336	4.35
341.707	3.34
342.078	3.75
342.449	3.88
342.82	4.26
343.191	3.85
343.562	4.46
343.933	4.52
344.303	4.38
344.674	3.88
345.045	4.25
345.416	4.77
345.786	3.81
346.157	4.22
346.527	4.22
346.898	4.09
347.268	4.19
347.639	4.62
348.009	4.54
348.38	4.17
348.75	4.41
349.12	4.13
349.49	3.89
349.861	4.53
350.231	4.2
350.601	4.57
350.971	4.23
351.341	4.31
351.711	4.7
352.081	4.51
352.45	4.11
352.82	4.08
353.19	4.09
353.56	3.98
353.929	3.86
354.299	4.14
354.669	4.15
355.038	3.42
355.408	4.3
355.777	4.78
356.147	4.04
356.516	4.45
356.885	4.23
357.254	4.56
357.624	4.18
357.993	4.15
358.362	4.36
358.731	4.46
359.1	3.72
359.469	4.2
359.838	3.77
360.207	4.13
360.576	4.54
360.945	4.12
361.314	4.26
361.682	4.03
362.051	4.39
362.42	4.43
362.788	4.21
363.157	4.73
363.525	4.25
363.894	4.18
364.262	3.91
364.631	3.9
364.999	4.03
365.367	4.43
365.735	4.17
366.104	3.9
366.472	4.31
366.84	4.16
367.208	4.11
367.576	4.09
367.944	4.75
368.312	4.2
368.68	4.1
369.048	4.24
369.416	4.37
369.783	4.18
370.151	4.05
370.519	4.34
370.886	4.68
371.254	4.22
371.621	4.78
371.989	4.35
372.356	4.42
372.724	4.02
373.091	4.13
373.458	4.3
373.826	4.48
374.193	3.96
374.56	4.41
374.927	4.34
375.294	4.38
375.661	4.44
376.028	4.72
376.395	4.39
376.762	5.18
377.129	4.5
377.496	4.59
377.863	4.28
378.229	4.38
378.596	4.2
378.963	4.45
379.329	4.15
379.696	4.19
380.062	4.79
380.429	4.42
380.795	4.78
381.161	4.42
381.528	4.47
381.894	4.55
382.26	4.49
382.626	4.22
382.993	4.46
383.359	4.54
383.725	4.66
384.091	4.08
384.457	4.22
384.823	4.55
385.188	4.38
385.554	4.4
385.92	4.23
386.286	4.59
386.651	4.32
387.017	4.43
387.383	4.45
387.748	4.33
388.114	4.33
388.479	4.69
388.845	4.64
389.21	4.72
389.575	4.24
389.94	4.43
390.306	4.25
390.671	4.47
391.036	4.55
391.401	4.63
391.766	4.42
392.131	4.48
392.496	4.27
392.861	4.17
393.226	4.54
393.591	4.49
393.956	4.54
394.32	4.54
394.685	4.63
395.05	4.29
395.414	4.55
395.779	4.37
396.143	4.56
396.508	4.43
396.872	4.33
397.236	4.3
397.601	4.37
397.965	4.53
398.329	4.44
398.694	4.33
399.058	4.46
399.422	4.41
399.786	4.45
400.15	4.27
400.514	4.69
400.878	4.4
401.242	4.47
401.605	4.47
401.969	4.5
402.333	4.77
402.697	4.42
403.06	4.24
403.424	4.72
403.787	4.5
404.151	4.69
404.514	4.34
404.878	4.51
405.241	4.59
405.604	4.31
405.968	4.29
406.331	4.5
406.694	4.73
407.057	4.56
407.42	4.61
407.783	4.43
408.146	4.56
408.509	4.35
408.872	4.52
409.235	4.32
409.598	4.42
409.961	4.48
410.323	4.43
410.686	4.54
411.049	4.56
411.411	4.99
411.774	4.56
412.136	4.63
412.499	4.41
412.861	4.52
413.223	4.78
413.586	4.46
413.948	4.58
414.31	4.77
414.672	4.49
415.035	4.65
415.397	4.65
415.759	4.66
416.121	4.49
416.483	4.53
416.845	4.43
417.206	4.57
417.568	4.44
417.93	4.48
418.292	4.55
418.653	4.77
419.015	4.56
419.377	4.46
419.738	4.44
420.1	4.52
420.461	4.48
420.822	4.53
421.184	4.63
421.545	4.67
421.906	4.51
422.267	4.42
422.629	4.49
422.99	4.45
423.351	4.51
423.712	4.47
424.073	4.32
424.434	4.48
424.795	4.59
425.155	4.48
425.516	4.51
425.877	4.54
426.238	4.53
426.598	4.39
426.959	4.49
427.32	4.6
427.68	4.56
428.041	4.6
428.401	4.6
428.761	4.61
429.122	4.66
429.482	4.99
429.842	4.72
430.202	4.57
430.563	4.84
430.923	4.68
431.283	4.72
431.643	4.71
432.003	4.65
432.363	4.75
432.722	4.6
433.082	4.68
433.442	4.69
433.802	4.85
434.161	4.86
434.521	4.68
434.881	4.7
435.24	4.6
435.6	4.63
435.959	4.68
436.319	4.77
436.678	4.73
437.037	4.58
437.396	4.51
437.756	4.58
438.115	4.74
438.474	4.74
438.833	4.87
439.192	4.88
439.551	4.74
439.91	4.69
440.269	4.55
440.628	4.69
440.987	4.6
441.345	4.73
441.704	4.72
442.063	4.74
442.421	4.69
442.78	4.59
443.138	4.73
443.497	4.6
443.855	4.8
444.214	4.71
444.572	4.7
444.93	4.77
445.288	4.5
445.647	4.87
446.005	4.74
446.363	4.61
446.721	4.63
447.079	4.63
447.437	4.54
447.795	4.82
448.153	4.74
448.51	4.64
448.868	4.63
449.226	4.79
449.584	4.66
449.941	4.82
450.299	4.77
450.656	4.69
451.014	4.89
451.371	4.77
451.729	4.92
452.086	4.72
452.443	4.95
452.801	4.84
453.158	4.72
453.515	4.9
453.872	4.95
454.229	4.85
454.586	4.79
454.943	4.92
455.3	4.89
455.657	4.87
456.014	5
456.371	4.73
456.727	5
457.084	4.82
457.441	4.78
457.797	4.95
458.154	4.97
458.51	4.85
458.867	4.96
459.223	4.89
459.58	4.83
459.936	4.66
460.292	4.84
460.648	4.9
461.005	4.75
461.361	4.68
461.717	4.89
462.073	4.75
462.429	4.8
462.785	4.69
463.141	4.87
463.496	4.86
463.852	5.02
464.208	4.94
464.564	5.06
464.919	5.08
465.275	4.94
465.631	5.1
465.986	5.07
466.342	4.88
466.697	5.09
467.052	5.19
467.408	4.92
467.763	5.21
468.118	5.04
468.473	4.96
468.829	4.99
469.184	4.77
469.539	5.01
469.894	5.21
470.249	4.91
470.603	4.95
470.958	4.92
471.313	5.37
471.668	5.18
472.023	5.04
472.377	4.89
472.732	4.95
473.086	5.01
473.441	5.14
473.795	5.02
474.15	5.27
474.504	5.06
474.859	5.04
475.213	4.88
475.567	5.09
475.921	5.05
476.275	4.96
476.63	5.13
476.984	5.21
477.338	4.95
477.692	4.96
478.045	5.17
478.399	5.04
478.753	5.04
479.107	5.1
479.461	5.12
479.814	5.15
480.168	4.99
480.521	4.92
480.875	5.23
481.228	5.3
481.582	5.1
481.935	5.2
482.289	5.17
482.642	5.2
482.995	4.99
483.348	5.02
483.701	5.19
484.055	4.97
484.408	4.94
484.761	5
485.114	4.96
485.466	4.84
485.819	4.79
486.172	4.78
486.525	4.88
486.878	4.85
487.23	4.91
487.583	4.97
487.936	5.02
488.288	4.9
488.641	5.07
488.993	4.98
489.345	4.94
489.698	4.95
490.05	4.97
490.402	5.01
490.754	4.99
491.107	5
491.459	5.1
491.811	5.14
492.163	5.09
492.515	5.18
492.866	5.04
493.218	5.02
493.57	5.05
493.922	4.94
494.274	5.06
494.625	5.14
494.977	5.18
495.328	5.31
495.68	5.17
496.031	5.45
496.383	5.29
496.734	5.2
497.086	5.15
497.437	5.32
497.788	5.33
498.139	5.31
498.49	5.33
498.842	5.34
499.193	5.31
499.544	5.23
499.894	5.25
500.245	5.43
500.596	5.32
500.947	5.37
501.298	5.38
501.648	5.44
501.999	5.28
502.35	5.36
502.7	5.4
503.051	5.32
503.401	5.56
503.752	5.69
504.102	5.43
504.452	5.53
504.803	5.45
505.153	5.52
505.503	5.49
505.853	5.53
506.203	5.45
506.553	5.45
506.903	5.47
507.253	5.51
507.603	5.51
507.953	5.51
508.303	5.43
508.652	5.49
509.002	5.42
509.352	5.51
509.701	5.47
510.051	5.43
510.4	5.42
510.75	5.5
511.099	5.42
511.449	5.52
511.798	5.43
512.147	5.62
512.496	5.76
512.846	5.51
513.195	5.55
513.544	5.61
513.893	5.66
514.242	5.51
514.591	5.63
514.939	5.63
515.288	5.52
515.637	5.6
515.986	5.62
516.334	5.66
516.683	5.69
517.032	5.63
517.38	5.6
517.729	5.78
518.077	5.73
518.426	5.72
518.774	5.66
519.122	5.63
519.47	5.61
519.819	5.68
520.167	5.53
520.515	5.58
520.863	5.62
521.211	5.55
521.559	5.65
521.907	5.59
522.255	5.77
522.602	5.77
522.95	5.87
523.298	5.81
523.645	5.92
523.993	5.82
524.341	5.84
524.688	5.82
525.036	5.95
525.383	5.9
525.73	5.79
526.078	5.86
526.425	5.78
526.772	5.8
527.119	5.79
527.466	5.84
527.814	5.73
528.161	5.83
528.508	5.8
528.854	5.83
529.201	5.87
529.548	5.72
529.895	5.7
530.242	5.61
530.588	5.62
530.935	5.67
531.282	5.75
531.628	5.76
531.975	5.74
532.321	5.81
532.667	5.74
533.014	5.91
533.36	5.96
533.706	5.93
534.052	6.01
534.399	6.06
534.745	5.93
535.091	5.84
535.437	5.89
535.783	5.91
536.129	6
536.474	6.06
536.82	5.97
537.166	6.14
537.512	6.17
537.857	6.14
538.203	6.04
538.549	6.03
538.894	6.12
539.239	6.13
539.585	6.12
539.93	6.18
540.276	6.15
540.621	6.14
540.966	6.19
541.311	6.36
541.656	6.39
542.001	6.37
542.346	6.21
542.691	6.14
543.036	6.08
543.381	6.05
543.726	6.11
544.071	6.12
544.415	6.17
544.76	6.23
545.105	6.32
545.449	6.37
545.794	6.41
546.138	6.23
546.483	6.38
546.827	6.36
547.171	6.47
547.516	6.43
547.86	6.49
548.204	6.48
548.548	6.44
548.892	6.45
549.236	6.52
549.58	6.58
549.924	6.6
550.268	6.56
550.612	6.57
550.956	6.67
551.3	6.77
551.643	6.7
551.987	6.72
552.33	6.85
552.674	6.7
553.017	6.89
553.361	6.96
553.704	6.66
554.048	6.75
554.391	6.85
554.734	6.73
555.077	6.94
555.42	6.82
555.764	7.05
556.107	6.87
556.45	6.92
556.793	6.88
557.135	6.96
557.478	6.93
557.821	6.94
558.164	7.02
558.507	7.1
558.849	6.98
559.192	7.12
559.534	7.09
559.877	7.32
560.219	6.99
560.562	7.08
560.904	7.22
561.246	7.24
561.589	7.16
561.931	7.26
562.273	7.08
562.615	7.13
562.957	7.29
563.299	7.3
563.641	7.33
563.983	7.21
564.325	7.27
564.667	7.44
565.008	7.29
565.35	7.16
565.692	7.35
566.033	7.36
566.375	7.26
566.716	7.38
567.058	7.44
567.399	7.44
567.741	7.52
568.082	7.5
568.423	7.42
568.764	7.71
569.105	7.31
569.447	7.6
569.788	7.5
570.129	7.6
570.47	7.65
570.811	7.71
571.151	7.59
571.492	7.7
571.833	7.67
572.174	7.68
572.514	7.65
572.855	7.57
573.195	7.77
573.536	7.62
573.876	7.73
574.217	7.87
574.557	7.65
574.898	7.82
575.238	7.99
575.578	7.85
575.918	7.85
576.258	7.95
576.598	8
576.938	7.77
577.278	7.93
577.618	8.18
577.958	7.9
578.298	8.15
578.638	8.03
578.977	8.16
579.317	7.98
579.657	8.09
579.996	8.16
580.336	8.12
580.675	8.03
581.014	8.29
581.354	8.4
581.693	8.31
582.032	8.09
582.372	8.39
582.711	8.51
583.05	8.3
583.389	8.51
583.728	8.56
584.067	8.8
584.406	8.79
584.745	8.67
585.083	8.49
585.422	8.69
585.761	8.75
586.1	8.5
586.438	8.63
586.777	8.61
587.115	8.75
587.454	8.94
587.792	8.54
588.13	9.01
588.469	8.59
588.807	8.59
589.145	8.83
589.483	9.13
589.821	9.14
590.159	9.03
590.497	9.09
590.835	8.85
591.173	8.83
591.511	8.98
591.849	8.84
592.187	8.92
592.524	8.94
592.862	8.96
593.2	8.92
593.537	8.91
593.875	9.24
594.212	9.22
594.55	9.28
594.887	9.63
595.224	9.32
595.561	9.41
595.899	9.28
596.236	9.26
596.573	9.31
596.91	9.61
597.247	9.24
597.584	9.46
597.921	9.28
598.258	9.47
598.594	9.67
598.931	9.48
599.268	9.2
599.604	9.32
599.941	9.39
600.277	9.48
600.614	9.74
600.95	9.76
601.287	9.61
601.623	9.91
601.959	9.88
602.296	9.67
602.632	9.64
602.968	9.7
603.304	9.62
603.64	10.03
603.976	9.52
604.312	9.79
604.648	9.8
604.984	10.01
605.319	9.87
605.655	9.83
605.991	9.92
606.326	9.73
606.662	9.88
606.998	9.85
607.333	9.87
607.668	9.98
608.004	10.08
608.339	10.13
608.674	10.12
609.01	10.11
609.345	10.11
609.68	10.09
610.015	10.09
610.35	10.2
610.685	10.29
611.02	10.3
611.355	10.14
611.689	10.24
612.024	10.2
612.359	10.46
612.694	10.16
613.028	10.46
613.363	10.53
613.697	10.69
614.032	10.49
614.366	10.69
614.7	10.5
615.035	10.64
615.369	10.52
615.703	10.41
616.037	10.78
616.371	10.61
616.705	10.74
617.039	10.86
617.373	10.77
617.707	10.65
618.041	10.83
618.375	10.88
618.709	11.16
619.042	10.96
619.376	10.9
619.71	10.88
620.043	10.77
620.377	10.97
620.71	10.9
621.043	11.23
621.377	10.6
621.71	11.31
622.043	11.53
622.376	11.15
622.709	11.21
623.043	11.02
623.376	11.44
623.709	11.38
624.041	11.29
624.374	11.59
624.707	11.39
625.04	11.4
625.373	11.93
625.705	11.87
626.038	11.74
626.37	11.78
626.703	11.62
627.035	11.77
627.368	11.67
627.7	11.57
628.032	11.36
628.365	11.45
628.697	11.54
629.029	11.64
629.361	11.36
629.693	11.66
630.025	11.59
630.357	12.02
630.689	11.61
631.021	11.99
631.353	12
631.684	11.91
632.016	11.97
632.348	11.7
632.679	11.52
633.011	12.44
633.342	12.23
633.674	12.35
634.005	12.1
634.336	12.45
634.668	12.04
634.999	12.28
635.33	12.17
635.661	12.44
635.992	12.5
636.323	12.17
636.654	12.06
636.985	12.38
637.316	12.35
637.647	12.58
637.977	12.48
638.308	12.75
638.639	12.75
638.969	12.49
639.3	12.77
639.63	12.81
639.961	12.55
640.291	12.34
640.622	12.77
640.952	13
641.282	12.87
641.612	12.69
641.943	12.54
642.273	13.38
642.603	13.09
642.933	13.15
643.263	12.82
643.592	13.09
643.922	13.2
644.252	13.22
644.582	12.89
644.911	12.82
645.241	12.78
645.571	13.47
645.9	12.91
646.23	12.83
646.559	13.71
646.888	12.69
647.218	13.49
647.547	13.06
647.876	13.37
648.205	13.86
648.534	13.52
648.863	13.5
649.192	13.78
649.521	13.99
649.85	12.86
650.179	13.38
650.508	14.06
650.837	14.19
651.165	13.5
651.494	13.3
651.822	13.75
652.151	13.65
652.479	13.92
652.808	14.22
653.136	13.98
653.465	13.86
653.793	14.24
654.121	13.95
654.449	13.79
654.777	14.29
655.105	14.01
655.433	14.04
655.761	14.2
656.089	14.07
656.417	14.68
656.745	13.89
657.073	13.26
657.4	14.25
657.728	13.99
658.056	14.46
658.383	13.95
658.711	14.37
659.038	14.36
659.365	13.98
659.693	14.06
660.02	14.01
660.347	14.3
660.674	14.24
661.001	14.63
661.329	14.42
661.656	14.48
661.982	14.05
662.309	14.48
662.636	14.21
662.963	14.38
663.29	15.14
663.616	14.29
663.943	15.06
664.27	14.9
664.596	14.6
664.923	15.4
665.249	14.48
665.576	14.53
665.902	14.83
666.228	15.15
666.554	15.16
666.881	14.04
667.207	15.37
667.533	14.97
667.859	15.05
668.185	15.07
668.511	15.79
668.837	15.13
669.162	15.47
669.488	15.04
669.814	15.37
670.139	15.74
670.465	14.86
670.791	15.26
671.116	15.02
671.442	15.4
671.767	15.52
672.092	15.97
672.418	15.26
672.743	15.35
673.068	15.14
673.393	15.86
673.718	15.41
674.043	15.94
674.368	14.9
674.693	15.48
675.018	15.27
675.343	15.59
675.667	15.84
675.992	15.8
676.317	15.65
676.641	15.49
676.966	15.84
677.29	15.43
677.615	15.72
677.939	15.9
678.264	16.21
678.588	15.98
678.912	16.15
679.236	15.61
679.56	16.23
679.885	16.86
680.209	16.26
680.532	16.17
680.856	15.97
681.18	15.99
681.504	16.42
681.828	16.06
682.152	16.14
682.475	16.09
682.799	16.12
683.122	16.32
683.446	15.99
683.769	17.65
684.093	16.39
684.416	16.26
684.739	16.43
685.062	16.24
685.386	16.9
685.709	17.33
686.032	16.34
686.355	16.47
686.678	17.46
687.001	16.88
687.324	16.98
687.646	17.53
