Data from 444_chest_Reflection__4__64.txt Node

Date: Tue Dec 12 18:44:04 CST 2023
User: ToomeyLab
Spectrometer: FLMS14357
Trigger mode: 0
Integration Time (sec): 1.000000E-2
Scans to average: 100
Electric dark correction enabled: true
Nonlinearity correction enabled: false
Boxcar width: 0
XAxis mode: Wavelengths
Number of Pixels in Spectrum: 2048
>>>>>Begin Spectral Data<<<<<
189.047	65.37
189.435	65.37
189.823	65.37
190.211	42.97
190.599	-304.87
190.987	-3.04
191.375	-113.64
191.763	77.71
192.151	39.21
192.538	227.15
192.926	130.32
193.314	-60.21
193.702	56.8
194.089	-32.57
194.477	-712.48
194.864	26.72
195.252	-716.21
195.639	-277.8
196.027	152.58
196.414	-21.95
196.801	169.87
197.189	-348.44
197.576	78.74
197.963	37.52
198.351	27.2
198.738	46.71
199.125	54.28
199.512	-7.9
199.899	36.01
200.286	-8.56
200.673	1.39
201.06	7.48
201.447	-84.61
201.833	24.42
202.22	-2.79
202.607	-175.24
202.994	31.46
203.38	27.57
203.767	27.69
204.154	12.4
204.54	33.27
204.927	-10.78
205.313	40.18
205.699	-38.09
206.086	3.31
206.472	44.23
206.858	-9.28
207.245	-25.71
207.631	17.72
208.017	7.1
208.403	-27.94
208.789	26.37
209.175	5.12
209.561	22.17
209.947	17.62
210.333	41.01
210.719	33.53
211.105	-25.31
211.491	34.18
211.876	16.26
212.262	37.55
212.648	16.2
213.034	-83.98
213.419	7.12
213.805	-16.74
214.19	17.08
214.576	31.43
214.961	35.61
215.346	35.51
215.732	38.31
216.117	-12.6
216.502	-25.42
216.888	-19.16
217.273	-12.87
217.658	-8.16
218.043	7.58
218.428	12.21
218.813	17.53
219.198	-27.83
219.583	3.5
219.968	9.59
220.353	-3.14
220.738	11.45
221.122	20.47
221.507	12.35
221.892	16.3
222.276	3.15
222.661	13.15
223.046	2.66
223.43	14.61
223.815	3.01
224.199	21.25
224.583	0.36
224.968	17.07
225.352	-10.51
225.736	7.91
226.121	8.35
226.505	3.94
226.889	10.02
227.273	1.56
227.657	5.57
228.041	7.3
228.425	1.42
228.809	2.98
229.193	1.17
229.577	4.32
229.961	3.68
230.344	4.43
230.728	5.17
231.112	4.69
231.495	3.5
231.879	5.53
232.263	4.69
232.646	5.2
233.03	3.62
233.413	4.48
233.797	4.46
234.18	1.35
234.563	5.67
234.946	3.57
235.33	7.93
235.713	7.31
236.096	3.09
236.479	4.2
236.862	5.16
237.245	6.5
237.628	5.17
238.011	5.16
238.394	3.65
238.777	6.26
239.16	3.88
239.543	6.62
239.925	6.51
240.308	5.06
240.691	7.48
241.073	7.29
241.456	4.5
241.838	5.94
242.221	4.54
242.603	4.71
242.986	4.08
243.368	4.81
243.75	4.51
244.133	4.93
244.515	5.03
244.897	4.6
245.279	5.12
245.661	3.99
246.043	3.96
246.425	5.13
246.807	4.83
247.189	5.01
247.571	4.62
247.953	4.26
248.335	4.47
248.717	4.48
249.098	4.49
249.48	4.4
249.862	4.13
250.243	4.34
250.625	4.54
251.006	4.23
251.388	5.01
251.769	4.12
252.151	4.43
252.532	5.07
252.913	5.49
253.295	5.08
253.676	3.62
254.057	3.74
254.438	4.05
254.819	3.66
255.2	5.7
255.581	4.34
255.962	4.41
256.343	4.11
256.724	4.86
257.105	5.08
257.486	4.21
257.867	3.6
258.247	3.03
258.628	5.25
259.009	3.51
259.389	4.64
259.77	3.91
260.15	3.6
260.531	4.41
260.911	4.52
261.292	3.95
261.672	4.07
262.052	4.11
262.432	3.99
262.813	4.13
263.193	4.22
263.573	4.53
263.953	4.39
264.333	4.42
264.713	4.04
265.093	4.38
265.473	4.88
265.853	3.87
266.233	3.63
266.612	3.16
266.992	4.06
267.372	4.31
267.752	4.75
268.131	2.99
268.511	3.79
268.89	3.47
269.27	3.27
269.649	3.45
270.029	3.56
270.408	4.37
270.787	3.27
271.167	4.21
271.546	3.78
271.925	4.73
272.304	4.19
272.683	3.12
273.062	3.94
273.441	4.27
273.82	3.38
274.199	4.13
274.578	3.65
274.957	3.19
275.336	3.94
275.715	4.04
276.093	3.66
276.472	4.03
276.851	4.81
277.229	3.78
277.608	3.66
277.986	3.72
278.365	3.84
278.743	3.66
279.122	3.79
279.5	3.66
279.878	2.91
280.257	3.76
280.635	3.37
281.013	3.59
281.391	4.23
281.769	4.09
282.147	3.69
282.525	3.54
282.903	4.09
283.281	3.87
283.659	3.74
284.037	4.47
284.415	3.85
284.792	4.18
285.17	3.65
285.548	3.86
285.925	3.79
286.303	3.75
286.68	3.75
287.058	3.85
287.435	3.87
287.813	3.51
288.19	3.67
288.567	3.92
288.945	3.86
289.322	3.2
289.699	3.76
290.076	3.53
290.453	3.84
290.83	4
291.207	4.63
291.584	4
291.961	4.23
292.338	4.11
292.715	3.64
293.092	3.7
293.469	4.06
293.845	4.21
294.222	4.1
294.599	4.23
294.975	3.76
295.352	4.52
295.728	4.38
296.105	3.83
296.481	4.38
296.858	4.09
297.234	4.95
297.61	4.34
297.986	4.46
298.363	4.38
298.739	4.13
299.115	4.08
299.491	4.25
299.867	4.08
300.243	4.31
300.619	4.23
300.995	4.12
301.371	4.75
301.746	4.36
302.122	4.87
302.498	4.28
302.874	4.5
303.249	4.84
303.625	4.46
304	4.81
304.376	4.54
304.751	4.99
305.127	4.89
305.502	4.32
305.878	4.38
306.253	4.5
306.628	3.94
307.003	4.52
307.378	4.29
307.754	4.86
308.129	4.6
308.504	5.72
308.879	4
309.254	5.14
309.629	4.5
310.003	4.24
310.378	4.85
310.753	5.18
311.128	4.94
311.502	4.16
311.877	4.3
312.252	4.17
312.626	4.27
313.001	4.44
313.375	4.23
313.75	4.77
314.124	4.4
314.498	4.72
314.873	4.47
315.247	5.21
315.621	4.61
315.995	4.78
316.369	4.39
316.743	4.15
317.117	3.87
317.491	4.65
317.865	4.9
318.239	4.83
318.613	4.44
318.987	5.26
319.361	3.58
319.734	4.43
320.108	4.72
320.482	4.74
320.855	3.87
321.229	4.42
321.602	4.55
321.976	5.32
322.349	5.07
322.723	4.82
323.096	3.92
323.469	4.69
323.843	4.92
324.216	4.89
324.589	5.31
324.962	5.13
325.335	5
325.708	4.87
326.081	5.06
326.454	4.74
326.827	5.14
327.2	4.98
327.573	4.22
327.945	5.11
328.318	5.2
328.691	3.8
329.063	5.17
329.436	4.71
329.809	4.81
330.181	3.82
330.553	4.49
330.926	4.72
331.298	4.59
331.671	4.62
332.043	5.11
332.415	5.36
332.787	4.69
333.159	4.92
333.532	4.85
333.904	4.66
334.276	5.37
334.648	4.14
335.02	4.22
335.391	4.46
335.763	4.6
336.135	5.31
336.507	4.94
336.879	4.43
337.25	4.96
337.622	4.78
337.993	4.21
338.365	4.33
338.736	4.66
339.108	4.46
339.479	4.68
339.851	4.27
340.222	4.04
340.593	4.82
340.964	4.65
341.336	4.72
341.707	4.07
342.078	4.18
342.449	5.01
342.82	4.5
343.191	5.01
343.562	4.86
343.933	5.1
344.303	4.84
344.674	4.79
345.045	5.05
345.416	4.96
345.786	4.34
346.157	4.78
346.527	5.01
346.898	4.36
347.268	4.55
347.639	4.8
348.009	4.49
348.38	4.81
348.75	5.35
349.12	4.99
349.49	4.67
349.861	4.77
350.231	4.54
350.601	5.07
350.971	4.65
351.341	4.46
351.711	4.84
352.081	5.07
352.45	4.98
352.82	5.01
353.19	4.55
353.56	4.55
353.929	4.34
354.299	4.55
354.669	4.53
355.038	4.58
355.408	4.4
355.777	5
356.147	4.74
356.516	4.63
356.885	4.99
357.254	4.78
357.624	4.81
357.993	4.65
358.362	4.85
358.731	4.88
359.1	4.73
359.469	4.82
359.838	4.9
360.207	4.82
360.576	5.1
360.945	4.71
361.314	4.63
361.682	4.65
362.051	4.94
362.42	4.97
362.788	4.58
363.157	5.1
363.525	4.9
363.894	4.85
364.262	4.75
364.631	4.5
364.999	4.98
365.367	5.09
365.735	4.59
366.104	4.9
366.472	4.91
366.84	4.65
367.208	5.01
367.576	4.94
367.944	4.75
368.312	4.91
368.68	4.87
369.048	5.01
369.416	4.78
369.783	4.88
370.151	4.9
370.519	4.72
370.886	5.25
371.254	4.65
371.621	4.82
371.989	4.73
372.356	4.77
372.724	4.94
373.091	4.67
373.458	5.07
373.826	5.01
374.193	4.62
374.56	5.21
374.927	4.77
375.294	4.84
375.661	5.27
376.028	5.17
376.395	5.25
376.762	5.48
377.129	5.02
377.496	4.88
377.863	4.81
378.229	4.94
378.596	4.85
378.963	5.32
379.329	4.89
379.696	4.94
380.062	5.27
380.429	5.04
380.795	4.73
381.161	5.01
381.528	5.18
381.894	5.35
382.26	5.01
382.626	5.05
382.993	5.11
383.359	4.93
383.725	5.13
384.091	5.23
384.457	4.76
384.823	5.19
385.188	5.19
385.554	5.19
385.92	5
386.286	5.27
386.651	5.36
387.017	5.39
387.383	4.87
387.748	5.06
388.114	5.23
388.479	5.2
388.845	4.86
389.21	5.08
389.575	4.85
389.94	5.1
390.306	4.95
390.671	5.02
391.036	5.07
391.401	4.92
391.766	5.16
392.131	5.07
392.496	4.94
392.861	4.95
393.226	5.1
393.591	5.15
393.956	5.08
394.32	5.21
394.685	4.94
395.05	4.96
395.414	5
395.779	5.3
396.143	5.09
396.508	4.88
396.872	5.11
397.236	5.07
397.601	5.08
397.965	5.11
398.329	5.19
398.694	5.11
399.058	5.41
399.422	4.88
399.786	4.92
400.15	5.07
400.514	5.41
400.878	4.97
401.242	5.08
401.605	5.44
401.969	5.26
402.333	5.39
402.697	5.31
403.06	5.04
403.424	5.39
403.787	4.91
404.151	5.31
404.514	5.12
404.878	5.19
405.241	5.24
405.604	5.23
405.968	5.15
406.331	5.35
406.694	5.24
407.057	5.04
407.42	5.33
407.783	5.05
408.146	5.15
408.509	5.23
408.872	5.1
409.235	5.07
409.598	5.24
409.961	5.22
410.323	5.44
410.686	4.92
411.049	5.23
411.411	5.23
411.774	5.3
412.136	5.39
412.499	5.45
412.861	5.22
413.223	5.44
413.586	5.15
413.948	5.33
414.31	5.27
414.672	5.21
415.035	5.11
415.397	5.13
415.759	5.23
416.121	5.34
416.483	5.25
416.845	5.36
417.206	5.24
417.568	5.18
417.93	5.44
418.292	5.13
418.653	5.3
419.015	5.19
419.377	5.15
419.738	5.2
420.1	5.08
420.461	5.25
420.822	5.12
421.184	5.19
421.545	5.37
421.906	5.05
422.267	5.08
422.629	5.13
422.99	5.13
423.351	5.13
423.712	5.17
424.073	5.17
424.434	5.05
424.795	5.29
425.155	5.18
425.516	5.18
425.877	5.12
426.238	5.1
426.598	5.15
426.959	5.26
427.32	5.29
427.68	5.31
428.041	5.4
428.401	5.38
428.761	5.24
429.122	5.51
429.482	5.52
429.842	5.48
430.202	5.31
430.563	5.52
430.923	5.44
431.283	5.3
431.643	5.39
432.003	5.32
432.363	5.49
432.722	5.39
433.082	5.44
433.442	5.35
433.802	5.5
434.161	5.35
434.521	5.43
434.881	5.33
435.24	5.44
435.6	5.4
435.959	5.43
436.319	5.38
436.678	5.43
437.037	5.32
437.396	5.34
437.756	5.45
438.115	5.64
438.474	5.32
438.833	5.57
439.192	5.61
439.551	5.4
439.91	5.4
440.269	5.33
440.628	5.48
440.987	5.23
441.345	5.36
441.704	5.35
442.063	5.41
442.421	5.45
442.78	5.3
443.138	5.26
443.497	5.36
443.855	5.46
444.214	5.45
444.572	5.39
444.93	5.63
445.288	5.26
445.647	5.52
446.005	5.26
446.363	5.38
446.721	5.32
447.079	5.36
447.437	5.35
447.795	5.46
448.153	5.36
448.51	5.35
448.868	5.34
449.226	5.49
449.584	5.44
449.941	5.51
450.299	5.44
450.656	5.49
451.014	5.57
451.371	5.47
451.729	5.54
452.086	5.45
452.443	5.69
452.801	5.51
453.158	5.4
453.515	5.72
453.872	5.51
454.229	5.62
454.586	5.44
454.943	5.44
455.3	5.55
455.657	5.65
456.014	5.67
456.371	5.6
456.727	5.68
457.084	5.59
457.441	5.66
457.797	5.6
458.154	5.6
458.51	5.56
458.867	5.61
459.223	5.7
459.58	5.47
459.936	5.45
460.292	5.74
460.648	5.66
461.005	5.62
461.361	5.46
461.717	5.5
462.073	5.48
462.429	5.48
462.785	5.64
463.141	5.65
463.496	5.52
463.852	5.88
464.208	5.66
464.564	5.61
464.919	5.84
465.275	5.67
465.631	5.72
465.986	5.61
466.342	5.48
466.697	5.87
467.052	5.87
467.408	5.76
467.763	5.89
468.118	5.8
468.473	5.86
468.829	5.89
469.184	5.55
469.539	5.79
469.894	5.93
470.249	5.97
470.603	5.88
470.958	5.77
471.313	5.84
471.668	5.92
472.023	5.75
472.377	5.75
472.732	5.63
473.086	5.8
473.441	6.11
473.795	5.72
474.15	5.75
474.504	5.74
474.859	5.8
475.213	5.65
475.567	5.86
475.921	5.9
476.275	5.84
476.63	5.76
476.984	5.94
477.338	5.94
477.692	5.88
478.045	5.93
478.399	5.7
478.753	5.79
479.107	5.88
479.461	5.96
479.814	5.85
480.168	5.74
480.521	5.69
480.875	5.74
481.228	5.92
481.582	5.86
481.935	5.84
482.289	5.98
482.642	6.01
482.995	5.81
483.348	5.73
483.701	5.99
484.055	5.77
484.408	5.74
484.761	5.63
485.114	5.56
485.466	5.5
485.819	5.42
486.172	5.52
486.525	5.56
486.878	5.68
487.23	5.76
487.583	5.73
487.936	5.87
488.288	5.74
488.641	5.8
488.993	5.67
489.345	5.65
489.698	5.61
490.05	5.71
490.402	5.74
490.754	5.8
491.107	5.75
491.459	5.92
491.811	5.9
492.163	5.79
492.515	6.03
492.866	5.76
493.218	5.69
493.57	5.65
493.922	5.68
494.274	5.88
494.625	5.95
494.977	6.05
495.328	6.08
495.68	5.96
496.031	6.15
496.383	6.19
496.734	6.04
497.086	6.05
497.437	6
497.788	6.16
498.139	6.02
498.49	6.14
498.842	5.93
499.193	6.02
499.544	6.16
499.894	6.11
500.245	6.14
500.596	6.14
500.947	6.19
501.298	6.17
501.648	6.24
501.999	6.17
502.35	6.17
502.7	6.27
503.051	6.13
503.401	6.31
503.752	6.36
504.102	6.33
504.452	6.32
504.803	6.33
505.153	6.34
505.503	6.38
505.853	6.36
506.203	6.27
506.553	6.19
506.903	6.37
507.253	6.34
507.603	6.28
507.953	6.29
508.303	6.43
508.652	6.3
509.002	6.36
509.352	6.26
509.701	6.38
510.051	6.3
510.4	6.32
510.75	6.3
511.099	6.28
511.449	6.35
511.798	6.3
512.147	6.37
512.496	6.37
512.846	6.34
513.195	6.35
513.544	6.3
513.893	6.42
514.242	6.42
514.591	6.37
514.939	6.44
515.288	6.39
515.637	6.41
515.986	6.57
516.334	6.64
516.683	6.49
517.032	6.54
517.38	6.48
517.729	6.55
518.077	6.51
518.426	6.64
518.774	6.61
519.122	6.52
519.47	6.44
519.819	6.47
520.167	6.39
520.515	6.45
520.863	6.45
521.211	6.49
521.559	6.63
521.907	6.47
522.255	6.58
522.602	6.68
522.95	6.63
523.298	6.63
523.645	6.86
523.993	6.81
524.341	6.79
524.688	6.83
525.036	6.84
525.383	6.76
525.73	6.63
526.078	6.72
526.425	6.75
526.772	6.59
527.119	6.65
527.466	6.62
527.814	6.5
528.161	6.8
528.508	6.73
528.854	6.71
529.201	6.69
529.548	6.66
529.895	6.52
530.242	6.44
530.588	6.44
530.935	6.53
531.282	6.59
531.628	6.74
531.975	6.69
532.321	6.71
532.667	6.74
533.014	6.82
533.36	6.86
533.706	6.79
534.052	6.89
534.399	6.95
534.745	6.79
535.091	6.68
535.437	6.75
535.783	6.76
536.129	6.91
536.474	6.91
536.82	7.04
537.166	7.1
537.512	7.05
537.857	7.08
538.203	7.08
538.549	6.97
538.894	7.01
539.239	7.03
539.585	7.24
539.93	7.32
540.276	7.12
540.621	7.05
540.966	7.08
541.311	7.21
541.656	7.27
542.001	7.32
542.346	7.25
542.691	7.11
543.036	7.03
543.381	6.93
543.726	7.04
544.071	7.14
544.415	7.17
544.76	7.21
545.105	7.26
545.449	7.34
545.794	7.37
546.138	7.21
546.483	7.52
546.827	7.5
547.171	7.52
547.516	7.38
547.86	7.55
548.204	7.46
548.548	7.48
548.892	7.56
549.236	7.56
549.58	7.62
549.924	7.62
550.268	7.76
550.612	7.66
550.956	7.74
551.3	7.92
551.643	7.87
551.987	7.91
552.33	7.89
552.674	7.9
553.017	7.98
553.361	7.96
553.704	8.01
554.048	7.88
554.391	7.88
554.734	7.88
555.077	8.05
555.42	7.99
555.764	8.08
556.107	8.05
556.45	7.85
556.793	7.97
557.135	8.05
557.478	8.23
557.821	7.84
558.164	8.09
558.507	8.22
558.849	8.13
559.192	8.23
559.534	8.29
559.877	8.24
560.219	8.33
560.562	8.41
560.904	8.39
561.246	8.39
561.589	8.41
561.931	8.6
562.273	8.15
562.615	8.27
562.957	8.42
563.299	8.38
563.641	8.55
563.983	8.56
564.325	8.62
564.667	8.79
565.008	8.36
565.35	8.48
565.692	8.56
566.033	8.72
566.375	8.65
566.716	8.51
567.058	8.87
567.399	8.69
567.741	8.79
568.082	8.85
568.423	8.63
568.764	8.79
569.105	8.74
569.447	9.01
569.788	8.9
570.129	8.81
570.47	8.85
570.811	9.05
571.151	9.04
571.492	9.1
571.833	8.97
572.174	9.04
572.514	9.02
572.855	9.18
573.195	9.02
573.536	8.96
573.876	9.08
574.217	9.06
574.557	9.13
574.898	9.22
575.238	9.34
575.578	9.23
575.918	9.03
576.258	9.52
576.598	9.06
576.938	9.41
577.278	9.33
577.618	9.47
577.958	9.22
578.298	9.59
578.638	9.49
578.977	9.53
579.317	9.34
579.657	9.44
579.996	9.58
580.336	9.73
580.675	9.62
581.014	9.55
581.354	9.83
581.693	9.76
582.032	9.57
582.372	9.7
582.711	9.86
583.05	9.94
583.389	9.8
583.728	10.05
584.067	9.95
584.406	10.24
584.745	10.26
585.083	10.05
585.422	10.1
585.761	10.29
586.1	10.23
586.438	10.27
586.777	10.15
587.115	10.26
587.454	10.28
587.792	10.22
588.13	10.46
588.469	10.35
588.807	10.11
589.145	10.45
589.483	10.37
589.821	10.62
590.159	10.56
590.497	10.43
590.835	10.56
591.173	10.48
591.511	10.65
591.849	10.36
592.187	10.58
592.524	10.47
592.862	10.62
593.2	10.41
593.537	10.68
593.875	10.88
594.212	10.79
594.55	11.1
594.887	11.23
595.224	10.88
595.561	11.11
595.899	10.54
596.236	10.85
596.573	10.85
596.91	11.28
597.247	11.04
597.584	11.11
597.921	11.23
598.258	11.28
598.594	11.38
598.931	11.09
599.268	11
599.604	11.12
599.941	11.31
600.277	11.2
600.614	11.47
600.95	11.34
601.287	11.41
601.623	11.76
601.959	11.43
602.296	11.71
602.632	11.43
602.968	11.54
603.304	11.71
603.64	11.71
603.976	11.69
604.312	11.7
604.648	11.74
604.984	11.74
605.319	11.8
605.655	11.78
605.991	11.69
606.326	11.52
606.662	11.85
606.998	11.8
607.333	11.74
607.668	11.93
608.004	12.08
608.339	12.29
608.674	12.02
609.01	11.84
609.345	12.39
609.68	12.1
610.015	11.92
610.35	12.23
610.685	12.01
611.02	12.39
611.355	12.12
611.689	12.16
612.024	12.25
612.359	12.52
612.694	12.45
613.028	12.53
613.363	12.78
613.697	12.6
614.032	12.6
614.366	12.66
614.7	12.5
615.035	12.61
615.369	12.57
615.703	12.88
616.037	12.7
616.371	12.89
616.705	13.14
617.039	12.89
617.373	13.21
617.707	12.92
618.041	12.86
618.375	12.81
618.709	13.11
619.042	12.94
619.376	13.25
619.71	13.12
620.043	13.2
620.377	13.59
620.71	13.35
621.043	13.25
621.377	12.64
621.71	13.29
622.043	13.52
622.376	13.8
622.709	13.59
623.043	13.48
623.376	13.84
623.709	13.52
624.041	13.55
624.374	13.7
624.707	13.42
625.04	13.6
625.373	14.16
625.705	14.15
626.038	13.73
626.37	14.16
626.703	14.1
627.035	14.05
627.368	14.41
627.7	14.15
628.032	13.86
628.365	14.09
628.697	14.07
629.029	14.11
629.361	14.07
629.693	14.08
630.025	14.31
630.357	14.34
630.689	14.29
631.021	14.3
631.353	14.77
631.684	14.4
632.016	14.36
632.348	14.71
632.679	14.29
633.011	14.84
633.342	14.91
633.674	14.63
634.005	14.66
634.336	14.85
634.668	14.9
634.999	14.78
635.33	14.47
635.661	14.85
635.992	14.78
636.323	14.66
636.654	15.04
636.985	15.11
637.316	14.61
637.647	15.15
637.977	15.29
638.308	14.91
638.639	15.33
638.969	15.02
639.3	14.81
639.63	15.53
639.961	15.24
640.291	15.47
640.622	15.55
640.952	15.63
641.282	15.41
641.612	15.31
641.943	15.57
642.273	15.76
642.603	16.17
642.933	15.49
643.263	15.2
643.592	16.08
643.922	15.78
644.252	16.02
644.582	15.14
644.911	16.22
645.241	15.32
645.571	16.14
645.9	16.18
646.23	15.57
646.559	16.63
646.888	16.09
647.218	15.87
647.547	16.04
647.876	16.47
648.205	16.29
648.534	16.53
648.863	16.36
649.192	16.4
649.521	16.68
649.85	15.84
650.179	16.56
650.508	17.08
650.837	16.4
651.165	16.13
651.494	16.51
651.822	16.31
652.151	16.89
652.479	17.07
652.808	16.92
653.136	16.91
653.465	16.91
653.793	17.06
654.121	16.86
654.449	16.95
654.777	16.52
655.105	17.09
655.433	17.67
655.761	16.85
656.089	17.04
656.417	17.76
656.745	17.15
657.073	17.5
657.4	18.07
657.728	17.3
658.056	17.24
658.383	17.02
658.711	17.34
659.038	17.57
659.365	17.41
659.693	17.04
660.02	16.85
660.347	17.83
660.674	17.57
661.001	17.94
661.329	17.71
661.656	17.36
661.982	17.42
662.309	17.98
662.636	17.73
662.963	18.11
663.29	18.24
663.616	18.05
663.943	18.3
664.27	18.26
664.596	18.32
664.923	18.47
665.249	17.86
665.576	18.11
665.902	18.94
666.228	18.31
666.554	18.4
666.881	17.83
667.207	18.04
667.533	18.82
667.859	18.38
668.185	18.72
668.511	18.95
668.837	18.37
669.162	19.25
669.488	18.24
669.814	18.9
670.139	18.51
670.465	18.48
670.791	19.03
671.116	18.72
671.442	18.3
671.767	19.27
672.092	19.27
672.418	18.68
672.743	19.03
673.068	18.84
673.393	19.53
673.718	19.36
674.043	19.26
674.368	18.92
674.693	18.93
675.018	18.65
675.343	19.34
675.667	19.18
675.992	18.84
676.317	18.86
676.641	19.36
676.966	19.92
677.29	19.27
677.615	19.61
677.939	19.32
678.264	19.91
678.588	19.58
678.912	20.59
679.236	19.22
679.56	19.91
679.885	20.19
680.209	19.98
680.532	19.99
680.856	20
681.18	19.94
681.504	19.75
681.828	19.83
682.152	20.07
682.475	20.09
682.799	19.92
683.122	20.52
683.446	20.45
683.769	20.65
684.093	19.88
684.416	20.29
684.739	20.25
685.062	20.43
685.386	20.88
