Data from 444_crown_Reflection__5__71.txt Node

Date: Tue Dec 12 18:46:56 CST 2023
User: ToomeyLab
Spectrometer: FLMS14357
Trigger mode: 0
Integration Time (sec): 1.000000E-2
Scans to average: 100
Electric dark correction enabled: true
Nonlinearity correction enabled: false
Boxcar width: 0
XAxis mode: Wavelengths
Number of Pixels in Spectrum: 2048
>>>>>Begin Spectral Data<<<<<
189.047	65.1
189.435	65.1
189.823	65.1
190.211	-12.02
190.599	-7.19
190.987	167.41
191.375	138.05
191.763	5.39
192.151	76.84
192.538	27.61
192.926	85.94
193.314	35.46
193.702	69.11
194.089	19.54
194.477	-525.25
194.864	208.7
195.252	-249.17
195.639	-407.2
196.027	180.58
196.414	73.58
196.801	32.55
197.189	1276.47
197.576	70.72
197.963	-51.57
198.351	5.05
198.738	37.24
199.125	18.27
199.512	-14.72
199.899	3.39
200.286	13.67
200.673	-46.27
201.06	11.69
201.447	3.95
201.833	-11.43
202.22	47.12
202.607	-373.29
202.994	16.28
203.38	31.86
203.767	20.82
204.154	20.08
204.54	10
204.927	-23.83
205.313	16.37
205.699	-114.83
206.086	-47.82
206.472	29.95
206.858	7.82
207.245	40.14
207.631	1.75
208.017	4.63
208.403	2.7
208.789	14.71
209.175	-36.79
209.561	15.79
209.947	-10.55
210.333	14.27
210.719	68.63
211.105	-13.67
211.491	32.58
211.876	5.69
212.262	38.9
212.648	-25.3
213.034	-68.02
213.419	-14.39
213.805	12.86
214.19	13.29
214.576	17.82
214.961	4.41
215.346	-20.54
215.732	15.62
216.117	15.79
216.502	-18.66
216.888	5.02
217.273	-13.22
217.658	-40
218.043	-0.87
218.428	6.1
218.813	-10.58
219.198	-29.31
219.583	-4.38
219.968	14.71
220.353	-1.38
220.738	-5.01
221.122	20.74
221.507	-23.74
221.892	-12.66
222.276	14.95
222.661	4.24
223.046	-13.37
223.43	7.21
223.815	-3.03
224.199	-2.32
224.583	5.97
224.968	-0.55
225.352	-11.84
225.736	12
226.121	-2.24
226.505	-3.9
226.889	2.3
227.273	-1.57
227.657	9.19
228.041	4.38
228.425	-1.79
228.809	2.48
229.193	3.56
229.577	2.79
229.961	2.06
230.344	3.24
230.728	4.23
231.112	4.19
231.495	3.67
231.879	4.49
232.263	4.75
232.646	3.15
233.03	1.87
233.413	1.58
233.797	4.12
234.18	-0.43
234.563	2.62
234.946	4.9
235.33	4.4
235.713	3.45
236.096	2.93
236.479	2.75
236.862	2.25
237.245	3.44
237.628	3.83
238.011	2.56
238.394	2.91
238.777	3.17
239.16	1.61
239.543	3.19
239.925	3.95
240.308	3.07
240.691	3.55
241.073	2.9
241.456	2.92
241.838	2.99
242.221	4.49
242.603	3.9
242.986	2.89
243.368	2.95
243.75	3.49
244.133	3.21
244.515	3.73
244.897	3.35
245.279	4.22
245.661	2.57
246.043	3.46
246.425	3.2
246.807	1.86
247.189	2.85
247.571	3.3
247.953	2.6
248.335	3.04
248.717	3.06
249.098	3.2
249.48	3.18
249.862	3.13
250.243	3.29
250.625	3.93
251.006	3.35
251.388	3.45
251.769	3.75
252.151	1.93
252.532	2.95
252.913	3.88
253.295	3.49
253.676	2.56
254.057	2.85
254.438	3.69
254.819	2.93
255.2	2.7
255.581	3.12
255.962	2.5
256.343	2.97
256.724	4.58
257.105	3.39
257.486	2.41
257.867	2.76
258.247	2.03
258.628	3.48
259.009	2.31
259.389	3.32
259.77	3.01
260.15	2.93
260.531	3.17
260.911	3.33
261.292	2.99
261.672	2.79
262.052	2.96
262.432	2.98
262.813	3.24
263.193	3.07
263.573	3.11
263.953	3.65
264.333	4.44
264.713	3.59
265.093	2.72
265.473	3.7
265.853	2.06
266.233	2.81
266.612	2.6
266.992	3.33
267.372	3.8
267.752	3.24
268.131	2.06
268.511	2.62
268.89	1.89
269.27	2.66
269.649	2.37
270.029	2.79
270.408	2.53
270.787	2.62
271.167	3.34
271.546	3.22
271.925	3.49
272.304	3.04
272.683	2.21
273.062	2.8
273.441	2.96
273.82	2.17
274.199	2.84
274.578	2.29
274.957	2.14
275.336	3.17
275.715	2.74
276.093	2.18
276.472	2.84
276.851	2.24
277.229	2.1
277.608	1.88
277.986	2.14
278.365	2.65
278.743	3.53
279.122	2.78
279.5	2.49
279.878	2.55
280.257	2.9
280.635	2.84
281.013	2.78
281.391	2.87
281.769	2.07
282.147	3.1
282.525	2.74
282.903	2.32
283.281	2.84
283.659	2.74
284.037	2.58
284.415	2.94
284.792	2.24
285.17	1.87
285.548	2.67
285.925	2.05
286.303	2.43
286.68	2.71
287.058	3.12
287.435	2.69
287.813	2.02
288.19	2.35
288.567	2.56
288.945	2.69
289.322	2.1
289.699	2.46
290.076	2.96
290.453	2.85
290.83	2.06
291.207	2.89
291.584	2.67
291.961	2.28
292.338	2.88
292.715	2.74
293.092	2.66
293.469	2.81
293.845	2.42
294.222	2.51
294.599	3.25
294.975	2.32
295.352	2.42
295.728	2.59
296.105	2.59
296.481	2.75
296.858	2.55
297.234	2.95
297.61	2.29
297.986	2.65
298.363	2.93
298.739	2.22
299.115	2.55
299.491	2.48
299.867	2.42
300.243	2.69
300.619	2.67
300.995	2.79
301.371	2.49
301.746	2.74
302.122	2.89
302.498	2.46
302.874	3.03
303.249	3.5
303.625	3.15
304	2.76
304.376	2.68
304.751	2.9
305.127	2.92
305.502	2.88
305.878	2.57
306.253	2.63
306.628	2.56
307.003	2.68
307.378	2.52
307.754	3.07
308.129	2.9
308.504	3.11
308.879	2.35
309.254	3.12
309.629	2.16
310.003	3.79
310.378	2.88
310.753	2.87
311.128	2.89
311.502	1.94
311.877	2.3
312.252	2.28
312.626	2.47
313.001	2.45
313.375	2.31
313.75	2.76
314.124	2.69
314.498	2.63
314.873	2.51
315.247	2.5
315.621	2.24
315.995	3.08
316.369	2.79
316.743	2.45
317.117	2.3
317.491	2.82
317.865	2.71
318.239	2.19
318.613	3.01
318.987	3.13
319.361	2.1
319.734	2.84
320.108	2.61
320.482	2.03
320.855	2.22
321.229	2.7
321.602	2.95
321.976	2.79
322.349	2.9
322.723	2.59
323.096	2.49
323.469	2.44
323.843	3.18
324.216	2.82
324.589	2.33
324.962	2.79
325.335	2.81
325.708	2.69
326.081	2.57
326.454	2.66
326.827	2.93
327.2	2.96
327.573	2.16
327.945	2.66
328.318	2.96
328.691	2.12
329.063	3.07
329.436	2.39
329.809	2.66
330.181	2.21
330.553	1.95
330.926	3.2
331.298	2.33
331.671	2.24
332.043	2.48
332.415	3.14
332.787	2.17
333.159	2.74
333.532	2.46
333.904	2.34
334.276	2.92
334.648	2.21
335.02	2.15
335.391	2.43
335.763	2.19
336.135	2.9
336.507	2.9
336.879	2.3
337.25	2.3
337.622	2.72
337.993	2.39
338.365	2.06
338.736	2.77
339.108	2.61
339.479	2.83
339.851	1.87
340.222	2.73
340.593	2.61
340.964	2.48
341.336	2.75
341.707	2.02
342.078	2.09
342.449	2.42
342.82	2.58
343.191	2.76
343.562	3.13
343.933	2.97
344.303	2.38
344.674	2.92
345.045	2.71
345.416	2.96
345.786	2.28
346.157	2.32
346.527	2.72
346.898	2.65
347.268	2.43
347.639	2.61
348.009	2.89
348.38	2.46
348.75	2.88
349.12	2.82
349.49	2.12
349.861	2.73
350.231	2.22
350.601	2.85
350.971	3
351.341	2.9
351.711	2.94
352.081	2.78
352.45	2.9
352.82	3
353.19	2.73
353.56	3.01
353.929	2.64
354.299	2.34
354.669	2.91
355.038	2.32
355.408	2.5
355.777	3.03
356.147	2.47
356.516	2.58
356.885	2.37
357.254	2.41
357.624	2.68
357.993	2.73
358.362	2.8
358.731	2.48
359.1	2.33
359.469	2.35
359.838	2.35
360.207	2.43
360.576	2.77
360.945	2.29
361.314	2.97
361.682	2.56
362.051	2.48
362.42	2.78
362.788	2.8
363.157	3.11
363.525	2.74
363.894	2.44
364.262	2.66
364.631	2.43
364.999	2.38
365.367	2.98
365.735	2.55
366.104	2.74
366.472	2.48
366.84	2.76
367.208	2.67
367.576	2.55
367.944	2.83
368.312	2.82
368.68	2.52
369.048	2.86
369.416	2.73
369.783	2.59
370.151	2.55
370.519	1.98
370.886	2.72
371.254	2.83
371.621	3.12
371.989	2.56
372.356	2.71
372.724	2.56
373.091	2.49
373.458	2.63
373.826	2.64
374.193	2.71
374.56	2.68
374.927	2.97
375.294	2.87
375.661	3.28
376.028	2.48
376.395	3.03
376.762	3.11
377.129	2.95
377.496	2.6
377.863	2.61
378.229	2.9
378.596	2.83
378.963	2.76
379.329	2.68
379.696	2.54
380.062	2.77
380.429	2.62
380.795	3.03
381.161	3.11
381.528	2.63
381.894	2.6
382.26	2.61
382.626	2.79
382.993	2.89
383.359	2.52
383.725	2.65
384.091	3.05
384.457	2.61
384.823	2.84
385.188	2.64
385.554	2.71
385.92	2.58
386.286	2.93
386.651	2.93
387.017	3.02
387.383	3
387.748	2.73
388.114	2.82
388.479	3.11
388.845	2.94
389.21	2.42
389.575	2.54
389.94	2.81
390.306	2.96
390.671	2.88
391.036	3
391.401	2.87
391.766	2.93
392.131	2.79
392.496	2.58
392.861	2.77
393.226	2.97
393.591	2.81
393.956	2.65
394.32	2.79
394.685	2.69
395.05	2.97
395.414	2.88
395.779	2.85
396.143	3.23
396.508	2.7
396.872	2.67
397.236	2.84
397.601	2.76
397.965	2.65
398.329	2.95
398.694	2.71
399.058	3.09
399.422	2.73
399.786	3.11
400.15	2.59
400.514	3.19
400.878	3
401.242	3
401.605	2.89
401.969	2.94
402.333	3
402.697	2.78
403.06	2.6
403.424	2.91
403.787	2.53
404.151	2.92
404.514	2.59
404.878	2.99
405.241	2.98
405.604	2.72
405.968	2.65
406.331	3.03
406.694	3.07
407.057	2.81
407.42	2.91
407.783	2.82
408.146	2.85
408.509	2.9
408.872	2.81
409.235	3
409.598	3.09
409.961	2.83
410.323	2.86
410.686	2.9
411.049	2.96
411.411	2.83
411.774	2.8
412.136	2.94
412.499	2.66
412.861	2.82
413.223	3.08
413.586	2.81
413.948	2.7
414.31	2.85
414.672	3.09
415.035	2.95
415.397	2.91
415.759	2.99
416.121	2.72
416.483	2.67
416.845	2.93
417.206	3.08
417.568	2.9
417.93	2.94
418.292	2.85
418.653	2.98
419.015	2.8
419.377	2.96
419.738	2.8
420.1	2.85
420.461	2.97
420.822	2.88
421.184	2.85
421.545	3.08
421.906	2.86
422.267	2.74
422.629	2.86
422.99	2.92
423.351	2.8
423.712	2.86
424.073	2.84
424.434	2.85
424.795	2.76
425.155	2.75
425.516	2.8
425.877	2.81
426.238	2.79
426.598	2.71
426.959	2.87
427.32	2.82
427.68	2.89
428.041	2.92
428.401	2.91
428.761	2.95
429.122	2.9
429.482	2.94
429.842	3.08
430.202	2.87
430.563	3
430.923	2.86
431.283	3.01
431.643	3.05
432.003	3.05
432.363	3.1
432.722	2.85
433.082	2.94
433.442	3.13
433.802	2.92
434.161	2.9
434.521	2.97
434.881	2.93
435.24	2.98
435.6	3.11
435.959	3.04
436.319	2.98
436.678	3.14
437.037	2.83
437.396	2.74
437.756	2.93
438.115	3.21
438.474	2.94
438.833	3.02
439.192	3.04
439.551	3
439.91	2.77
440.269	2.89
440.628	2.89
440.987	2.77
441.345	3.02
441.704	2.84
442.063	2.98
442.421	2.95
442.78	2.9
443.138	2.84
443.497	2.99
443.855	3.03
444.214	2.86
444.572	3.06
444.93	2.94
445.288	2.81
445.647	3.06
446.005	2.89
446.363	2.69
446.721	2.86
447.079	2.9
447.437	2.77
447.795	2.96
448.153	2.93
448.51	3.01
448.868	2.88
449.226	3.04
449.584	2.97
449.941	3.08
450.299	3.05
450.656	2.92
451.014	3.04
451.371	2.95
451.729	2.99
452.086	2.99
452.443	3.11
452.801	3.07
453.158	2.86
453.515	3.04
453.872	2.96
454.229	2.99
454.586	2.91
454.943	2.93
455.3	2.83
455.657	3.09
456.014	3.06
456.371	3.06
456.727	3.08
457.084	2.77
457.441	3.04
457.797	2.96
458.154	2.9
458.51	3.03
458.867	3.16
459.223	3.11
459.58	2.94
459.936	2.89
460.292	3.06
460.648	3.03
461.005	2.9
461.361	2.86
461.717	3
462.073	2.93
462.429	3.05
462.785	2.97
463.141	2.98
463.496	2.89
463.852	3.31
464.208	3.1
464.564	2.98
464.919	3.15
465.275	3.03
465.631	3.19
465.986	3
466.342	2.92
466.697	3.02
467.052	3.3
467.408	3.03
467.763	3.16
468.118	3.14
468.473	3.09
468.829	3.11
469.184	2.92
469.539	3.33
469.894	3.13
470.249	3.19
470.603	3.11
470.958	3.08
471.313	3.23
471.668	3.25
472.023	3.06
472.377	3.06
472.732	3.12
473.086	3.18
473.441	3.17
473.795	3
474.15	3.22
474.504	2.94
474.859	3.06
475.213	3.04
475.567	3.12
475.921	3.16
476.275	3.03
476.63	2.96
476.984	3.11
477.338	2.95
477.692	3.13
478.045	3.13
478.399	3.01
478.753	2.99
479.107	3.06
479.461	3.07
479.814	3.16
480.168	2.96
480.521	2.88
480.875	3.06
481.228	3.2
481.582	3.12
481.935	3.17
482.289	3.18
482.642	3.17
482.995	3.06
483.348	3.09
483.701	3.15
484.055	3.02
484.408	3.04
484.761	3.01
485.114	2.92
485.466	2.84
485.819	2.79
486.172	2.85
486.525	2.94
486.878	2.97
487.23	2.95
487.583	2.97
487.936	3.02
488.288	2.95
488.641	2.97
488.993	2.97
489.345	2.95
489.698	2.92
490.05	2.92
490.402	2.93
490.754	3
491.107	3.01
491.459	3.05
491.811	3.09
492.163	2.99
492.515	3.06
492.866	2.98
493.218	2.92
493.57	2.94
493.922	2.9
494.274	3
494.625	3.13
494.977	3.17
495.328	3.1
495.68	3.05
496.031	3.27
496.383	3.14
496.734	3.15
497.086	3.11
497.437	3.15
497.788	3.2
498.139	3
498.49	3.15
498.842	3.04
499.193	3.22
499.544	3.14
499.894	3.14
500.245	3.14
500.596	3.13
500.947	3.16
501.298	3.22
501.648	3.27
501.999	3.16
502.35	3.05
502.7	3.2
503.051	3.12
503.401	3.12
503.752	3.31
504.102	3.23
504.452	3.21
504.803	3.1
505.153	3.1
505.503	3.18
505.853	3.23
506.203	3.1
506.553	3.08
506.903	3.33
507.253	3.23
507.603	3.14
507.953	3.19
508.303	3.14
508.652	3.14
509.002	3.18
509.352	3.12
509.701	3.14
510.051	3.11
510.4	3.09
510.75	3.13
511.099	3.14
511.449	3.13
511.798	3.13
512.147	3.1
512.496	3.11
512.846	3.16
513.195	3.12
513.544	3.28
513.893	3.15
514.242	3.15
514.591	3.07
514.939	3.18
515.288	3.08
515.637	3.09
515.986	3.17
516.334	3.26
516.683	3.24
517.032	3.17
517.38	3.16
517.729	3.24
518.077	3.17
518.426	3.21
518.774	3.27
519.122	3.11
519.47	3.09
519.819	3.09
520.167	3.03
520.515	3
520.863	3.14
521.211	3.14
521.559	3.14
521.907	3.12
522.255	3.18
522.602	3.2
522.95	3.13
523.298	3.13
523.645	3.33
523.993	3.26
524.341	3.26
524.688	3.2
525.036	3.19
525.383	3.07
525.73	3.22
526.078	3.19
526.425	3.12
526.772	3.11
527.119	3.06
527.466	3.08
527.814	3.02
528.161	3.13
528.508	3.15
528.854	3.08
529.201	3.13
529.548	3.07
529.895	2.99
530.242	2.91
530.588	2.97
530.935	3.03
531.282	3.05
531.628	3.11
531.975	3.06
532.321	3.02
532.667	3.11
533.014	3.06
533.36	3.09
533.706	3.1
534.052	3.06
534.399	3.19
534.745	3.1
535.091	3.06
535.437	3.05
535.783	3.01
536.129	3.1
536.474	3.15
536.82	3.14
537.166	3.27
537.512	3.06
537.857	3.16
538.203	3.12
538.549	3.14
538.894	3.1
539.239	3.13
539.585	3.21
539.93	3.34
540.276	3.18
540.621	3.27
540.966	3.06
541.311	3.21
541.656	3.19
542.001	3.23
542.346	3.14
542.691	3.16
543.036	2.99
543.381	2.94
543.726	3.01
544.071	3.08
544.415	3.12
544.76	3.1
545.105	3.14
545.449	3.08
545.794	3.2
546.138	3.1
546.483	3.19
546.827	3.25
547.171	3.25
547.516	3.15
547.86	3.16
548.204	3.17
548.548	3.15
548.892	3.18
549.236	3.24
549.58	3.18
549.924	3.15
550.268	3.19
550.612	3.09
550.956	3.16
551.3	3.45
551.643	3.27
551.987	3.52
552.33	3.27
552.674	3.46
553.017	3.38
553.361	3.41
553.704	3.32
554.048	3.22
554.391	3.16
554.734	3.29
555.077	3.4
555.42	3.23
555.764	3.51
556.107	3.35
556.45	3.2
556.793	3.12
557.135	3.21
557.478	3.19
557.821	3.31
558.164	3.32
558.507	3.49
558.849	3.14
559.192	3.33
559.534	3.42
559.877	3.35
560.219	3.32
560.562	3.26
560.904	3.52
561.246	3.35
561.589	3.21
561.931	3.17
562.273	3.19
562.615	3.09
562.957	3.32
563.299	3.39
563.641	3.27
563.983	3.26
564.325	3.34
564.667	3.46
565.008	3.04
565.35	3.33
565.692	3.32
566.033	3.47
566.375	3.22
566.716	3.11
567.058	3.33
567.399	3.39
567.741	3.26
568.082	3.26
568.423	3.28
568.764	3.38
569.105	3.24
569.447	3.36
569.788	3.33
570.129	3.23
570.47	3.27
570.811	3.23
571.151	3.39
571.492	3.39
571.833	3.34
572.174	3.31
572.514	3.24
572.855	3.3
573.195	3.24
573.536	3.25
573.876	3.32
574.217	3.33
574.557	3.33
574.898	3.27
575.238	3.39
575.578	3.28
575.918	3.31
576.258	3.32
576.598	3.23
576.938	3.26
577.278	3.29
577.618	3.32
577.958	3.28
578.298	3.39
578.638	3.17
578.977	3.45
579.317	3.24
579.657	3.48
579.996	3.46
580.336	3.5
580.675	3.45
581.014	3.34
581.354	3.33
581.693	3.34
582.032	3.21
582.372	3.55
582.711	3.55
583.05	3.28
583.389	3.37
583.728	3.24
584.067	3.47
584.406	3.43
584.745	3.37
585.083	3.23
585.422	3.6
585.761	3.68
586.1	3.31
586.438	3.55
586.777	3.33
587.115	3.02
587.454	3.6
587.792	3.12
588.13	3.61
588.469	3.3
588.807	3.29
589.145	3.3
589.483	3.31
589.821	3.55
590.159	3.46
590.497	3.19
590.835	3.25
591.173	3.33
591.511	3.35
591.849	3.13
592.187	3.46
592.524	3.14
592.862	3.3
593.2	3.23
593.537	3.14
593.875	3.49
594.212	3.36
594.55	3.41
594.887	3.65
595.224	3.37
595.561	3.72
595.899	3.25
596.236	3.3
596.573	3.29
596.91	3.58
597.247	3.25
597.584	3.46
597.921	3.62
598.258	3.48
598.594	3.57
598.931	3.38
599.268	3.24
599.604	3.41
599.941	3.5
600.277	3.32
600.614	3.45
600.95	3.4
601.287	3.46
601.623	3.48
601.959	3.45
602.296	3.44
602.632	3.36
602.968	3.67
603.304	3.14
603.64	3.53
603.976	3.21
604.312	3.46
604.648	3.24
604.984	3.38
605.319	3.33
605.655	3.29
605.991	3.55
606.326	3.31
606.662	3.54
606.998	3.25
607.333	3.43
607.668	3.38
608.004	3.46
608.339	3.42
608.674	3.44
609.01	3.56
609.345	3.49
609.68	3.69
610.015	3.13
610.35	3.4
610.685	3.35
611.02	3.32
611.355	3.45
611.689	3.41
612.024	3.21
612.359	3.37
612.694	3.36
613.028	3.6
613.363	3.49
613.697	3.54
614.032	3.45
614.366	3.78
614.7	3.57
615.035	3.39
615.369	3.32
615.703	3.52
616.037	3.54
616.371	3.42
616.705	3.38
617.039	3.46
617.373	3.4
617.707	3.02
618.041	3.25
618.375	3.61
618.709	3.48
619.042	3.52
619.376	3.31
619.71	3.4
620.043	3.51
620.377	3.38
620.71	3.35
621.043	3.17
621.377	3.08
621.71	3.73
622.043	3.48
622.376	3.74
622.709	3.51
623.043	3.75
623.376	3.76
623.709	3.48
624.041	3.3
624.374	3.63
624.707	3.65
625.04	3.35
625.373	4.01
625.705	3.49
626.038	3.73
626.37	3.89
626.703	3.77
627.035	3.47
627.368	3.57
627.7	3.49
628.032	3.14
628.365	3.2
628.697	3.71
629.029	3.58
629.361	3.4
629.693	3.43
630.025	3.27
630.357	3.46
630.689	3.33
631.021	3.61
631.353	3.9
631.684	3.61
632.016	3.62
632.348	3.54
632.679	3.09
633.011	3.65
633.342	3.7
633.674	3.85
634.005	3.67
634.336	3.66
634.668	3.56
634.999	4.12
635.33	3.52
635.661	3.57
635.992	3.69
636.323	3.14
636.654	3.61
636.985	3.63
637.316	3.7
637.647	3.66
637.977	3.81
638.308	3.58
638.639	3.45
638.969	3.43
639.3	3.18
639.63	4.06
639.961	3.56
640.291	3.26
640.622	3.75
640.952	3.61
641.282	3.29
641.612	3.5
641.943	3.92
642.273	3.65
642.603	3.98
642.933	3.64
643.263	3.21
643.592	3.89
643.922	4.33
644.252	3.75
644.582	3.14
644.911	3.81
645.241	3.51
645.571	4.28
645.9	3.51
646.23	3.3
646.559	3.96
646.888	3.42
647.218	3.7
647.547	3.67
647.876	3.79
648.205	3.61
648.534	4.17
648.863	3.65
649.192	4.25
649.521	3.8
649.85	3.21
650.179	4.16
650.508	3.85
650.837	3.98
651.165	3.23
651.494	3.56
651.822	3.72
652.151	3.9
652.479	3.54
652.808	3.53
653.136	3.81
653.465	3.94
653.793	3.78
654.121	3.9
654.449	4.16
654.777	3.71
655.105	3.78
655.433	4.14
655.761	3.89
656.089	3.97
656.417	4.33
656.745	3.86
657.073	3.62
657.4	3.92
657.728	3.02
658.056	3.8
658.383	3.33
658.711	4
659.038	3.79
659.365	3.56
659.693	3.74
660.02	3.64
660.347	3.78
660.674	3.49
661.001	4.17
661.329	3.59
661.656	3.78
661.982	3.67
662.309	4.26
662.636	4.1
662.963	4.14
663.29	4.08
663.616	3.64
663.943	4.11
664.27	4.5
664.596	3.67
664.923	4.33
665.249	3.54
665.576	3.3
665.902	4.19
666.228	3.86
666.554	4.14
666.881	3.54
667.207	3.74
667.533	4.15
667.859	3.47
668.185	3.76
668.511	3.79
668.837	3.9
669.162	4.71
669.488	4.05
669.814	4.16
670.139	3.94
670.465	3.44
670.791	3.44
671.116	3.78
671.442	4.33
671.767	3.26
672.092	4.44
672.418	4.12
672.743	3.9
673.068	3.71
673.393	3.71
673.718	4.3
674.043	3.81
674.368	3.74
674.693	3.48
675.018	3.33
675.343	3.79
675.667	4.3
675.992	3.61
676.317	3.64
676.641	3.46
676.966	4.09
677.29	3.58
677.615	3.67
677.939	3.49
678.264	4.56
678.588	3.58
678.912	4.36
679.236	3.67
679.56	4.27
679.885	4.43
680.209	4.24
680.532	4.05
680.856	3.35
681.18	3.37
681.504	4.4
681.828	3.73
682.152	3.68
682.475	3.84
682.799	3.82
683.122	4.09
683.446	4.34
683.769	4.91
684.093	3.9
684.416	3.93
684.739	4.16
685.062	4.16
685.386	3.9
685.709	4
686.032	3.94
686.355	4.09
686.678	4.35
687.001	3.76
687.324	3.73
687.646	5.06
687.969	3.11
688.292	3.89
688.614	3.96
688.937	3.87
689.26	4.13
689.582	3.96
689.904	3.94
690.227	4.2
690.549	4
690.871	3.35
691.194	4.77
691.516	3.8
691.838	3.67
692.16	3.9
692.482	3.49
692.804	3.98
693.126	4.8
693.448	3.89
