Data from 444_forehead_Reflection__2__74.txt Node

Date: Tue Dec 12 18:48:05 CST 2023
User: ToomeyLab
Spectrometer: FLMS14357
Trigger mode: 0
Integration Time (sec): 1.000000E-2
Scans to average: 100
Electric dark correction enabled: true
Nonlinearity correction enabled: false
Boxcar width: 0
XAxis mode: Wavelengths
Number of Pixels in Spectrum: 2048
>>>>>Begin Spectral Data<<<<<
189.047	90.83
189.435	90.83
189.823	90.83
190.211	-17.09
190.599	1.73
190.987	272.6
191.375	-194.61
191.763	237.37
192.151	52.56
192.538	206.34
192.926	87.85
193.314	-12.76
193.702	5.4
194.089	162.87
194.477	149.22
194.864	897.1
195.252	867.03
195.639	-494.45
196.027	45.42
196.414	3.41
196.801	55.22
197.189	928.72
197.576	38.7
197.963	67.17
198.351	33.54
198.738	59.22
199.125	35.26
199.512	16.82
199.899	23.39
200.286	6.07
200.673	-2.46
201.06	-6.69
201.447	-105.85
201.833	9.07
202.22	10.17
202.607	-165.23
202.994	15.44
203.38	30.46
203.767	-46.57
204.154	28.9
204.54	68.35
204.927	22.19
205.313	32.88
205.699	49.1
206.086	-11.62
206.472	56.04
206.858	17.83
207.245	54.23
207.631	37.58
208.017	9.99
208.403	-43.24
208.789	15.04
209.175	-9.41
209.561	24.2
209.947	4.54
210.333	9.37
210.719	10.77
211.105	23.18
211.491	26.74
211.876	37.61
212.262	20.22
212.648	-7.55
213.034	-46.38
213.419	1.18
213.805	23.86
214.19	22.66
214.576	26.04
214.961	2.31
215.346	-0.82
215.732	38.58
216.117	10.33
216.502	-21.62
216.888	20.14
217.273	10.89
217.658	2.36
218.043	-10.59
218.428	3.68
218.813	15.74
219.198	-32.41
219.583	28.2
219.968	14.88
220.353	10.67
220.738	8.19
221.122	25.1
221.507	-0.61
221.892	35.44
222.276	29.23
222.661	-4.86
223.046	4.83
223.43	9.92
223.815	21.87
224.199	23.68
224.583	8.93
224.968	16.22
225.352	14.7
225.736	11.04
226.121	7.56
226.505	8.83
226.889	8.99
227.273	12.58
227.657	12.36
228.041	11.84
228.425	8.93
228.809	10
229.193	4.52
229.577	9.74
229.961	7.52
230.344	7.28
230.728	8.37
231.112	8.9
231.495	7.35
231.879	9.45
232.263	9.92
232.646	9.22
233.03	6.7
233.413	8.44
233.797	6.01
234.18	6.67
234.563	6.21
234.946	7.32
235.33	10.66
235.713	8.45
236.096	7.41
236.479	8.74
236.862	8.72
237.245	8.03
237.628	6.28
238.011	9.36
238.394	8.87
238.777	9.29
239.16	7.94
239.543	8.9
239.925	8.65
240.308	6.59
240.691	5.92
241.073	6.61
241.456	7.57
241.838	8.31
242.221	7.86
242.603	8.12
242.986	6.79
243.368	8.05
243.75	7
244.133	7.42
244.515	7.4
244.897	7.68
245.279	8.53
245.661	7.26
246.043	6.48
246.425	8.26
246.807	6.19
247.189	7.29
247.571	8.04
247.953	6.44
248.335	7.13
248.717	6.97
249.098	6.94
249.48	6.88
249.862	6.75
250.243	7.03
250.625	7.74
251.006	7.09
251.388	7.1
251.769	7.36
252.151	6.93
252.532	7.64
252.913	6.78
253.295	7.84
253.676	6.72
254.057	6.76
254.438	7.25
254.819	6.91
255.2	5.88
255.581	6.91
255.962	5.93
256.343	7.21
256.724	6.8
257.105	7.73
257.486	7.4
257.867	7.28
258.247	8.21
258.628	7.69
259.009	7.04
259.389	7.58
259.77	7.17
260.15	6.59
260.531	7.54
260.911	7.43
261.292	6.8
261.672	6.49
262.052	6.9
262.432	6.67
262.813	7.08
263.193	7.18
263.573	6.49
263.953	7.59
264.333	7.57
264.713	6.72
265.093	7.26
265.473	7.25
265.853	6.78
266.233	7.56
266.612	6.51
266.992	7.07
267.372	6.71
267.752	7.68
268.131	6.12
268.511	6.13
268.89	6.4
269.27	5.8
269.649	6.64
270.029	6.79
270.408	6.65
270.787	6.29
271.167	6.39
271.546	6.84
271.925	6.95
272.304	6.82
272.683	6.32
273.062	6.6
273.441	6.75
273.82	6.48
274.199	6.84
274.578	6.8
274.957	6.41
275.336	6.79
275.715	7.2
276.093	6.1
276.472	6.67
276.851	6.64
277.229	6.22
277.608	6.51
277.986	6.45
278.365	6.53
278.743	7.07
279.122	7.19
279.5	5.61
279.878	6.05
280.257	6.52
280.635	6.97
281.013	6.9
281.391	7.19
281.769	6.5
282.147	7.26
282.525	6.69
282.903	6.52
283.281	6.16
283.659	6.58
284.037	7.31
284.415	6.26
284.792	6.7
285.17	6.39
285.548	6.89
285.925	6.6
286.303	6.64
286.68	6.79
287.058	7.21
287.435	7.02
287.813	6.45
288.19	6.69
288.567	6.8
288.945	6.96
289.322	6.38
289.699	6.89
290.076	6.96
290.453	7.15
290.83	6.64
291.207	7.04
291.584	6.78
291.961	7.09
292.338	6.91
292.715	6.87
293.092	7.13
293.469	6.96
293.845	7.55
294.222	7.56
294.599	7.52
294.975	6.97
295.352	7.04
295.728	7.38
296.105	7.4
296.481	7.32
296.858	7.46
297.234	8.1
297.61	7.71
297.986	7.48
298.363	7.37
298.739	7.76
299.115	7.19
299.491	7.37
299.867	7.62
300.243	7.92
300.619	7.99
300.995	7.86
301.371	7.66
301.746	8.04
302.122	8.2
302.498	8.31
302.874	8.25
303.249	8.63
303.625	7.42
304	8.03
304.376	8.05
304.751	8.36
305.127	8.06
305.502	8.8
305.878	7.81
306.253	7.83
306.628	8.48
307.003	8.77
307.378	8.68
307.754	8.9
308.129	8.93
308.504	9.74
308.879	8.73
309.254	8.96
309.629	8.87
310.003	9.11
310.378	9.1
310.753	9.19
311.128	9.51
311.502	9.06
311.877	8.56
312.252	8.87
312.626	8.95
313.001	8.86
313.375	8.8
313.75	9.22
314.124	9.28
314.498	9.14
314.873	8.93
315.247	9.66
315.621	9.56
315.995	9.48
316.369	9.7
316.743	9.77
317.117	9.25
317.491	9.74
317.865	10.14
318.239	10.47
318.613	10.38
318.987	9.76
319.361	9.76
319.734	9.86
320.108	10.05
320.482	9.59
320.855	9.43
321.229	10.16
321.602	10.2
321.976	11.2
322.349	11.39
322.723	10.59
323.096	10.68
323.469	10.59
323.843	11.59
324.216	11.06
324.589	10.03
324.962	10.73
325.335	10.87
325.708	10.81
326.081	10.91
326.454	11.03
326.827	11.48
327.2	10.85
327.573	10.9
327.945	11.15
328.318	11.28
328.691	10.62
329.063	11.37
329.436	11.33
329.809	10.85
330.181	10.38
330.553	10.77
330.926	11.39
331.298	11.67
331.671	11.39
332.043	11.21
332.415	11.65
332.787	11.3
333.159	11.43
333.532	11.93
333.904	11.81
334.276	12.07
334.648	11.36
335.02	11.52
335.391	11.76
335.763	11.35
336.135	12.45
336.507	12.42
336.879	12.35
337.25	11.36
337.622	12.05
337.993	12.16
338.365	11.72
338.736	11.95
339.108	11.97
339.479	12.41
339.851	11.54
340.222	11.91
340.593	12.59
340.964	12.73
341.336	13.2
341.707	12.52
342.078	12.31
342.449	12.33
342.82	13.12
343.191	12.56
343.562	12.59
343.933	12.71
344.303	13.29
344.674	12.92
345.045	12.64
345.416	13.19
345.786	12.97
346.157	12.87
346.527	13.33
346.898	12.91
347.268	13.35
347.639	13.61
348.009	13.03
348.38	13.45
348.75	13.76
349.12	13.89
349.49	13.61
349.861	13.68
350.231	13.93
350.601	13.97
350.971	13.59
351.341	13.88
351.711	13.77
352.081	13.62
352.45	13.61
352.82	13.81
353.19	13.87
353.56	13.7
353.929	13.68
354.299	13.86
354.669	14.12
355.038	13.65
355.408	13.92
355.777	14.12
356.147	13.82
356.516	14.22
356.885	14.64
357.254	14.41
357.624	14.22
357.993	14.32
358.362	14.5
358.731	14.58
359.1	14.28
359.469	14.63
359.838	14.67
360.207	14.9
360.576	15.08
360.945	14.67
361.314	15.05
361.682	15
362.051	15.07
362.42	15.37
362.788	14.95
363.157	15.31
363.525	15.47
363.894	15.09
364.262	15.06
364.631	14.93
364.999	15.43
365.367	15.62
365.735	15.21
366.104	15.35
366.472	14.89
366.84	15.65
367.208	15.31
367.576	15.53
367.944	15.78
368.312	15.75
368.68	15.51
369.048	16.16
369.416	16.17
369.783	15.8
370.151	15.62
370.519	15.96
370.886	16.18
371.254	16.05
371.621	16.48
371.989	16.15
372.356	16.45
372.724	16.2
373.091	16.48
373.458	16.41
373.826	16.56
374.193	16.58
374.56	17.09
374.927	16.72
375.294	16.58
375.661	17.06
376.028	17.22
376.395	17.35
376.762	17.43
377.129	17.27
377.496	17.22
377.863	16.98
378.229	17.17
378.596	17.05
378.963	17.35
379.329	17.47
379.696	17
380.062	17.83
380.429	17.25
380.795	17.59
381.161	17.74
381.528	17.99
381.894	17.8
382.26	17.69
382.626	17.76
382.993	17.73
383.359	17.77
383.725	18.05
384.091	17.68
384.457	18.2
384.823	18.15
385.188	18.25
385.554	18.06
385.92	18.15
386.286	18.6
386.651	18.59
387.017	18.74
387.383	18.7
387.748	18.38
388.114	18.48
388.479	18.83
388.845	18.76
389.21	18.72
389.575	18.48
389.94	18.93
390.306	19.29
390.671	18.93
391.036	19.29
391.401	19.07
391.766	19.28
392.131	18.98
392.496	19.11
392.861	19.09
393.226	19.46
393.591	19.07
393.956	19.08
394.32	19.27
394.685	19.5
395.05	19.37
395.414	19.61
395.779	19.75
396.143	19.7
396.508	19.49
396.872	19.69
397.236	20.08
397.601	20.19
397.965	19.95
398.329	19.99
398.694	19.96
399.058	20.28
399.422	20.13
399.786	20.12
400.15	20.12
400.514	20.37
400.878	20.27
401.242	20.25
401.605	20.44
401.969	20.69
402.333	20.83
402.697	20.59
403.06	20.4
403.424	20.95
403.787	20.81
404.151	20.85
404.514	20.75
404.878	20.79
405.241	20.99
405.604	21
405.968	20.96
406.331	21.23
406.694	21.37
407.057	21.25
407.42	21.27
407.783	21.18
408.146	21.32
408.509	21.38
408.872	21.59
409.235	21.23
409.598	21.64
409.961	21.63
410.323	21.79
410.686	21.92
411.049	22.04
411.411	21.8
411.774	22.12
412.136	22.02
412.499	21.97
412.861	21.98
413.223	22.3
413.586	21.82
413.948	22.1
414.31	22.33
414.672	22.43
415.035	22.31
415.397	22.38
415.759	22.49
416.121	22.75
416.483	22.58
416.845	22.67
417.206	22.76
417.568	22.67
417.93	22.82
418.292	22.53
418.653	22.91
419.015	22.65
419.377	22.83
419.738	22.94
420.1	22.7
420.461	22.96
420.822	22.92
421.184	22.76
421.545	23.03
421.906	22.7
422.267	22.92
422.629	22.89
422.99	22.93
423.351	22.85
423.712	22.98
424.073	23.01
424.434	23.19
424.795	23.31
425.155	23.19
425.516	23.22
425.877	23.33
426.238	23.56
426.598	23.38
426.959	23.5
427.32	23.61
427.68	23.81
428.041	23.93
428.401	23.97
428.761	24.19
429.122	24.41
429.482	24.25
429.842	24.44
430.202	24.7
430.563	24.79
430.923	24.43
431.283	24.55
431.643	24.87
432.003	24.74
432.363	24.84
432.722	24.68
433.082	24.98
433.442	24.92
433.802	24.86
434.161	25.11
434.521	25.1
434.881	24.71
435.24	24.92
435.6	25.11
435.959	25.11
436.319	25.29
436.678	25.34
437.037	25.44
437.396	25.3
437.756	25.43
438.115	25.51
438.474	25.75
438.833	25.66
439.192	25.79
439.551	25.87
439.91	25.73
440.269	25.9
440.628	25.66
440.987	25.7
441.345	25.94
441.704	25.79
442.063	25.9
442.421	25.82
442.78	25.84
443.138	26.09
443.497	26
443.855	26.27
444.214	26.21
444.572	26.48
444.93	26.59
445.288	26.49
445.647	26.58
446.005	26.66
446.363	26.61
446.721	26.42
447.079	26.53
447.437	26.32
447.795	26.36
448.153	26.42
448.51	26.5
448.868	26.55
449.226	26.79
449.584	26.85
449.941	26.99
450.299	27.28
450.656	27.18
451.014	27.28
451.371	27.48
451.729	27.58
452.086	27.5
452.443	27.75
452.801	27.72
453.158	27.88
453.515	27.73
453.872	27.59
454.229	27.89
454.586	27.81
454.943	27.84
455.3	28.02
455.657	27.95
456.014	28.08
456.371	28.03
456.727	28.19
457.084	28.13
457.441	28.34
457.797	28.2
458.154	28.56
458.51	28.23
458.867	28.56
459.223	28.83
459.58	28.65
459.936	28.34
460.292	28.66
460.648	28.44
461.005	28.41
461.361	28.4
461.717	28.37
462.073	28.5
462.429	28.38
462.785	28.66
463.141	28.91
463.496	29.01
463.852	29.19
464.208	29.06
464.564	29.47
464.919	29.47
465.275	29.56
465.631	29.58
465.986	29.4
466.342	29.46
466.697	29.73
467.052	29.92
467.408	29.83
467.763	29.85
468.118	29.8
468.473	29.74
468.829	29.74
469.184	29.89
469.539	30.11
469.894	29.98
470.249	30.19
470.603	30.13
470.958	30.36
471.313	30.51
471.668	30.47
472.023	30.45
472.377	30.15
472.732	30.66
473.086	30.58
473.441	30.58
473.795	30.7
474.15	30.67
474.504	30.81
474.859	30.75
475.213	30.61
475.567	30.95
475.921	30.7
476.275	30.85
476.63	31.01
476.984	31.3
477.338	31.1
477.692	31.1
478.045	31.26
478.399	31.04
478.753	31.01
479.107	31.42
479.461	31.45
479.814	31.4
480.168	31.31
480.521	31.34
480.875	31.42
481.228	31.63
481.582	31.71
481.935	31.57
482.289	31.92
482.642	31.6
482.995	31.61
483.348	31.64
483.701	31.76
484.055	31.6
484.408	31.51
484.761	31.27
485.114	31.12
485.466	30.79
485.819	30.83
486.172	30.85
486.525	30.9
486.878	31.14
487.23	31.43
487.583	31.65
487.936	31.79
488.288	31.7
488.641	31.75
488.993	31.58
489.345	31.57
489.698	31.49
490.05	31.62
490.402	31.66
490.754	31.79
491.107	32.15
491.459	32.3
491.811	32.58
492.163	32.6
492.515	32.79
492.866	32.52
493.218	32.14
493.57	32.08
493.922	32.13
494.274	32.35
494.625	32.76
494.977	32.9
495.328	33.1
495.68	33.39
496.031	33.62
496.383	33.49
496.734	33.62
497.086	33.75
497.437	33.94
497.788	33.71
498.139	33.54
498.49	33.94
498.842	33.68
499.193	33.84
499.544	33.6
499.894	34.04
500.245	34
500.596	34.07
500.947	34.22
501.298	34.19
501.648	34.27
501.999	34.46
502.35	34.5
502.7	34.54
503.051	34.57
503.401	34.56
503.752	34.91
504.102	34.96
504.452	34.99
504.803	34.87
505.153	34.72
505.503	34.91
505.853	35.1
506.203	35.17
506.553	35.01
506.903	35.11
507.253	35.02
507.603	35.16
507.953	35.38
508.303	35.53
508.652	35.49
509.002	35.52
509.352	35.58
509.701	35.47
510.051	35.47
510.4	35.38
510.75	35.48
511.099	35.42
511.449	35.59
511.798	35.39
512.147	35.8
512.496	35.82
512.846	35.57
513.195	35.77
513.544	35.79
513.893	35.97
514.242	35.95
514.591	35.9
514.939	36.1
515.288	36.23
515.637	36.22
515.986	36.27
516.334	36.59
516.683	36.6
517.032	36.53
517.38	36.75
517.729	36.82
518.077	36.8
518.426	36.84
518.774	36.77
519.122	36.77
519.47	36.77
519.819	36.79
520.167	36.4
520.515	36.35
520.863	36.66
521.211	36.48
521.559	36.82
521.907	36.76
522.255	36.9
522.602	37.17
522.95	37.21
523.298	37.36
523.645	37.5
523.993	37.63
524.341	37.47
524.688	37.61
525.036	38.03
525.383	37.66
525.73	37.79
526.078	37.48
526.425	37.5
526.772	37.59
527.119	37.54
527.466	37.5
527.814	37.38
528.161	37.55
528.508	37.6
528.854	37.5
529.201	37.61
529.548	37.47
529.895	37.26
530.242	37.09
530.588	37.21
530.935	37.25
531.282	37.23
531.628	37.34
531.975	37.56
532.321	37.96
532.667	38.16
533.014	38.2
533.36	38.46
533.706	38.37
534.052	38.38
534.399	38.4
534.745	38.3
535.091	37.99
535.437	38.06
535.783	38.27
536.129	38.3
536.474	38.47
536.82	38.66
537.166	38.87
537.512	39.08
537.857	38.93
538.203	39.06
538.549	38.91
538.894	38.89
539.239	39.04
539.585	39.3
539.93	39.41
540.276	39.56
540.621	39.59
540.966	39.73
541.311	39.8
541.656	39.96
542.001	39.95
542.346	39.62
542.691	39.39
543.036	39.06
543.381	39.11
543.726	39.2
544.071	39.3
544.415	39.41
544.76	39.62
545.105	39.77
545.449	39.84
545.794	40.07
546.138	40
546.483	40.33
546.827	40.46
547.171	40.54
547.516	40.47
547.86	40.54
548.204	40.36
548.548	40.63
548.892	40.49
549.236	40.68
549.58	41.01
549.924	40.95
550.268	41.17
550.612	41.15
550.956	41.21
551.3	41.65
551.643	41.72
551.987	41.79
552.33	41.77
552.674	41.75
553.017	41.85
553.361	41.8
553.704	41.78
554.048	41.9
554.391	41.7
554.734	41.79
555.077	41.81
555.42	41.89
555.764	42.21
556.107	42.2
556.45	42.28
556.793	42.2
557.135	42.12
557.478	42.05
557.821	42.34
558.164	42.46
558.507	42.62
558.849	42.38
559.192	42.63
559.534	42.85
559.877	42.94
560.219	42.74
560.562	42.99
560.904	43.07
561.246	43.18
561.589	42.99
561.931	43.21
562.273	43.01
562.615	42.85
562.957	43.07
563.299	43.29
563.641	43.27
563.983	43.24
564.325	43.46
564.667	43.45
565.008	43.46
565.35	43.43
565.692	43.27
566.033	43.44
566.375	43.63
566.716	43.38
567.058	43.55
567.399	43.45
567.741	43.76
568.082	44.02
568.423	43.52
568.764	43.9
569.105	43.69
569.447	43.86
569.788	43.64
570.129	43.88
570.47	43.86
570.811	44.5
571.151	44.46
571.492	44.12
571.833	44.32
572.174	44.28
572.514	44.4
572.855	44.39
573.195	44.32
573.536	44.26
573.876	44.43
574.217	44.34
574.557	44.64
574.898	44.65
575.238	44.56
575.578	44.55
575.918	44.73
576.258	44.96
576.598	44.88
576.938	44.87
577.278	44.88
577.618	45.22
577.958	44.98
578.298	45.32
578.638	45.19
578.977	45.18
579.317	45.27
579.657	45.28
579.996	45.53
580.336	45.58
580.675	45.37
581.014	45.82
581.354	46.05
581.693	46.03
582.032	45.79
582.372	46.02
582.711	45.87
583.05	46.04
583.389	46.08
583.728	46.25
584.067	46.41
584.406	46.34
584.745	46.12
585.083	46.11
585.422	46.51
585.761	46.58
586.1	46.22
586.438	46.67
586.777	46.47
587.115	46.4
587.454	46.81
587.792	46.5
588.13	46.68
588.469	46.73
588.807	46.57
589.145	47.1
589.483	47.46
589.821	47.3
590.159	46.58
590.497	47.27
590.835	46.99
591.173	47.38
591.511	47.03
591.849	47.13
592.187	47.29
592.524	47.38
592.862	47.08
593.2	47.24
593.537	47.2
593.875	47.78
594.212	47.6
594.55	47.66
594.887	47.95
595.224	47.6
595.561	47.95
595.899	47.57
596.236	47.65
596.573	47.9
596.91	47.84
597.247	48
597.584	47.7
597.921	47.83
598.258	48.29
598.594	48.08
598.931	47.79
599.268	47.91
599.604	47.77
599.941	47.9
600.277	48.24
600.614	48.51
600.95	48.23
601.287	48.77
601.623	48.35
601.959	48.52
602.296	48.97
602.632	48.68
602.968	49.12
603.304	48.79
603.64	48.94
603.976	49.06
604.312	48.78
604.648	49.16
604.984	48.89
605.319	49.08
605.655	48.74
605.991	48.49
606.326	48.62
606.662	48.92
606.998	48.71
607.333	48.92
607.668	48.97
608.004	49.23
608.339	49.39
608.674	49.32
609.01	49.55
609.345	49.97
609.68	49.54
610.015	49.72
610.35	49.67
610.685	49.75
611.02	49.64
611.355	49.43
611.689	49.46
612.024	49.78
612.359	49.73
612.694	49.7
613.028	50.2
613.363	50.62
613.697	49.8
614.032	50.03
614.366	50.05
614.7	50.25
615.035	50.27
615.369	50.36
615.703	50.52
616.037	50.38
616.371	50.44
616.705	50.93
617.039	50.54
617.373	50.36
617.707	50.62
618.041	50.72
618.375	50.78
618.709	50.86
619.042	50.96
619.376	50.82
619.71	51.07
620.043	50.72
620.377	50.77
620.71	50.92
621.043	51.18
621.377	51.04
621.71	50.72
622.043	51.36
622.376	51.55
622.709	51.47
623.043	51.62
623.376	51.31
623.709	51.9
624.041	51.74
624.374	51.64
624.707	51.82
625.04	51.92
625.373	51.79
625.705	51.9
626.038	51.68
626.37	51.83
626.703	52.29
627.035	51.86
627.368	51.96
627.7	52.1
628.032	52.04
628.365	52.16
628.697	52.02
629.029	52.18
629.361	51.9
629.693	52.12
630.025	52.38
630.357	52.57
630.689	52.62
631.021	52.33
631.353	52.15
631.684	52.39
632.016	52.38
632.348	52.98
632.679	52.52
633.011	53.05
633.342	52.63
633.674	52.95
634.005	52.89
634.336	52.65
634.668	52.81
634.999	53.22
635.33	52.46
635.661	53.23
635.992	52.79
636.323	52.74
636.654	52.74
636.985	53.14
637.316	53.21
637.647	52.83
637.977	53.64
638.308	53.11
638.639	53.33
638.969	53.38
639.3	53.32
639.63	53.55
639.961	53.2
640.291	53.34
640.622	53.69
640.952	53.58
641.282	53.65
641.612	53.13
641.943	53.84
642.273	53.92
642.603	53.83
642.933	54.13
643.263	53.83
643.592	54.3
643.922	53.93
644.252	54.02
644.582	54.11
644.911	54.29
645.241	53.64
645.571	54.67
645.9	54.72
646.23	54.03
646.559	54.75
646.888	53.9
647.218	54.47
647.547	54.54
647.876	55.06
648.205	54.26
648.534	54.44
648.863	54.54
649.192	55.12
649.521	55.01
649.85	54.14
650.179	54.64
650.508	55.21
650.837	55.49
651.165	54.97
651.494	55.18
651.822	55.19
652.151	54.92
652.479	55.03
652.808	55.14
653.136	54.69
653.465	55.2
653.793	54.87
654.121	54.93
654.449	55.03
654.777	55.28
655.105	55.56
655.433	55.56
655.761	55.03
656.089	55.28
656.417	55.43
656.745	55.12
657.073	55.81
657.4	56.44
657.728	55.47
658.056	55.88
658.383	55.72
658.711	56.05
659.038	56.2
659.365	55.49
659.693	55.74
660.02	55.08
660.347	55.73
660.674	55.67
661.001	56.07
661.329	55.74
661.656	55.74
661.982	56.32
662.309	56.11
662.636	56.05
662.963	56.88
663.29	56.14
663.616	56.44
663.943	55.99
664.27	56.54
664.596	56.36
664.923	56.1
665.249	55.89
665.576	56.66
665.902	56.97
666.228	56.59
666.554	56.06
666.881	55.71
667.207	56.21
667.533	56.38
667.859	56.45
668.185	56.81
668.511	57.36
668.837	56.81
669.162	57.44
669.488	56.96
669.814	56.48
