Data from 444_crown_Reflection__1__67.txt Node

Date: Tue Dec 12 18:46:26 CST 2023
User: ToomeyLab
Spectrometer: FLMS14357
Trigger mode: 0
Integration Time (sec): 1.000000E-2
Scans to average: 100
Electric dark correction enabled: true
Nonlinearity correction enabled: false
Boxcar width: 0
XAxis mode: Wavelengths
Number of Pixels in Spectrum: 2048
>>>>>Begin Spectral Data<<<<<
189.047	195.64
189.435	195.64
189.823	195.64
190.211	5.86
190.599	-60.31
190.987	39.51
191.375	1.89
191.763	19.4
192.151	-2.92
192.538	52.23
192.926	23.7
193.314	-31.57
193.702	129.14
194.089	-67.3
194.477	-560.43
194.864	60.92
195.252	-97.42
195.639	-266.47
196.027	91.45
196.414	45.5
196.801	110.21
197.189	1168.51
197.576	-34.3
197.963	57.83
198.351	28.51
198.738	30.61
199.125	6.39
199.512	-2.16
199.899	27.61
200.286	46.14
200.673	-32.15
201.06	11.61
201.447	-11.35
201.833	5.83
202.22	-2.99
202.607	-226.13
202.994	-8.63
203.38	3.49
203.767	-2.04
204.154	29.46
204.54	10.32
204.927	-3.6
205.313	15.59
205.699	-116.65
206.086	3.2
206.472	25.17
206.858	20.17
207.245	47.53
207.631	11.86
208.017	28.29
208.403	11.83
208.789	30.12
209.175	-9.19
209.561	31.15
209.947	-26.03
210.333	26.99
210.719	-9.85
211.105	32.03
211.491	20.98
211.876	18.75
212.262	23.59
212.648	-15.96
213.034	-52.58
213.419	-13.1
213.805	31.3
214.19	33.12
214.576	31.43
214.961	26.06
215.346	0.84
215.732	21.46
216.117	19.17
216.502	-18.95
216.888	5.84
217.273	-9.08
217.658	-35.87
218.043	15.06
218.428	12.14
218.813	6.99
219.198	-9.5
219.583	-0.39
219.968	18.91
220.353	1.52
220.738	17.25
221.122	15.72
221.507	4.53
221.892	11.05
222.276	20.87
222.661	1.97
223.046	-2.67
223.43	5.85
223.815	-9.04
224.199	5.27
224.583	7.05
224.968	16.25
225.352	-8.87
225.736	15.86
226.121	-10.35
226.505	8.78
226.889	3.94
227.273	7.62
227.657	10.51
228.041	8.74
228.425	3.91
228.809	3.08
229.193	2.25
229.577	5.39
229.961	3.34
230.344	5.68
230.728	6.06
231.112	6.21
231.495	6.07
231.879	5.77
232.263	5.74
232.646	5.13
233.03	6.71
233.413	5.43
233.797	3.67
234.18	3.81
234.563	6.12
234.946	4.1
235.33	8.13
235.713	5.65
236.096	4.07
236.479	5.64
236.862	5.89
237.245	5.91
237.628	4.36
238.011	5.77
238.394	5.42
238.777	7.1
239.16	4.59
239.543	5.17
239.925	7.39
240.308	5.66
240.691	8.53
241.073	6.71
241.456	6.53
241.838	4.65
242.221	5.75
242.603	5.74
242.986	4.94
243.368	5.78
243.75	4.29
244.133	5.28
244.515	5.26
244.897	4.83
245.279	5.62
245.661	4.64
246.043	3.47
246.425	4.83
246.807	5.14
247.189	4.33
247.571	5.44
247.953	5.49
248.335	4.48
248.717	4.92
249.098	4.67
249.48	4.78
249.862	4.86
250.243	4.46
250.625	5.41
251.006	4.69
251.388	5.07
251.769	5.02
252.151	3.89
252.532	4.5
252.913	5.28
253.295	5.12
253.676	4.1
254.057	4.41
254.438	4.87
254.819	4.69
255.2	4.84
255.581	5.52
255.962	3.4
256.343	4.37
256.724	4.4
257.105	5.88
257.486	4.88
257.867	3.63
258.247	5.59
258.628	4.99
259.009	4.02
259.389	4.06
259.77	3.91
260.15	4.33
260.531	4.89
260.911	5.05
261.292	3.98
261.672	3.9
262.052	4.32
262.432	4.29
262.813	4.24
263.193	4.32
263.573	4.42
263.953	5.13
264.333	4.43
264.713	3.96
265.093	3.84
265.473	4.43
265.853	3.24
266.233	2.91
266.612	3.55
266.992	3.5
267.372	4.17
267.752	5.19
268.131	3.4
268.511	4.08
268.89	3.2
269.27	3.84
269.649	3.85
270.029	3.72
270.408	4.26
270.787	3.37
271.167	4.33
271.546	3.79
271.925	4.7
272.304	4.75
272.683	3.62
273.062	4.22
273.441	4.03
273.82	3.69
274.199	3.74
274.578	4.19
274.957	3.93
275.336	4.29
275.715	3.88
276.093	3.73
276.472	4.5
276.851	4.47
277.229	3.1
277.608	4.39
277.986	4.01
278.365	4.09
278.743	3.78
279.122	4.62
279.5	3.62
279.878	3.04
280.257	4.3
280.635	4.27
281.013	3.78
281.391	3.15
281.769	3.77
282.147	4.05
282.525	3.69
282.903	3.87
283.281	4.11
283.659	4.1
284.037	3.91
284.415	3.76
284.792	4.21
285.17	3.65
285.548	3.8
285.925	3.42
286.303	3.72
286.68	3.73
287.058	4.04
287.435	3.84
287.813	3.52
288.19	3.71
288.567	3.75
288.945	4.29
289.322	3.32
289.699	3.94
290.076	3.79
290.453	3.8
290.83	3.55
291.207	4.17
291.584	4.19
291.961	3.91
292.338	3.67
292.715	4.06
293.092	3.78
293.469	3.75
293.845	3.95
294.222	3.71
294.599	3.53
294.975	3.55
295.352	3.68
295.728	4.09
296.105	4.02
296.481	4.01
296.858	3.8
297.234	3.96
297.61	3.94
297.986	4.17
298.363	3.73
298.739	3.74
299.115	3.57
299.491	3.56
299.867	3.91
300.243	3.22
300.619	3.47
300.995	3.81
301.371	4.21
301.746	3.72
302.122	4.07
302.498	4.12
302.874	3.88
303.249	4.59
303.625	3.17
304	4.02
304.376	3.85
304.751	3.52
305.127	3.64
305.502	4.06
305.878	3.1
306.253	3.75
306.628	4.14
307.003	3.77
307.378	3.73
307.754	3.92
308.129	3.65
308.504	4.3
308.879	3.18
309.254	4.69
309.629	3.9
310.003	4.3
310.378	3.63
310.753	3.88
311.128	4.02
311.502	3.24
311.877	3.46
312.252	3.56
312.626	3.62
313.001	3.48
313.375	3.65
313.75	4.42
314.124	4.07
314.498	3.61
314.873	3.94
315.247	4.17
315.621	3.28
315.995	4.3
316.369	4.33
316.743	3.38
317.117	2.83
317.491	3.52
317.865	3.78
318.239	3.86
318.613	4.13
318.987	4.32
319.361	2.84
319.734	3.54
320.108	3.97
320.482	3.68
320.855	3.04
321.229	3.82
321.602	3.86
321.976	3.47
322.349	4.2
322.723	3.97
323.096	3.58
323.469	4.02
323.843	4.55
324.216	3.77
324.589	3.44
324.962	3.86
325.335	4.27
325.708	3.82
326.081	4.14
326.454	4.17
326.827	4.28
327.2	4.04
327.573	3.48
327.945	3.93
328.318	4
328.691	2.89
329.063	3.6
329.436	4.54
329.809	3.94
330.181	3.28
330.553	3.74
330.926	4.48
331.298	3.43
331.671	4.15
332.043	3.63
332.415	4.09
332.787	3.59
333.159	3.84
333.532	3.77
333.904	3.94
334.276	4.36
334.648	3.89
335.02	3.26
335.391	3.98
335.763	3.28
336.135	3.77
336.507	3.77
336.879	3.51
337.25	3.61
337.622	3.82
337.993	3.66
338.365	3.13
338.736	3.77
339.108	3.35
339.479	3.54
339.851	3.29
340.222	3.16
340.593	3.42
340.964	3.51
341.336	4.19
341.707	3.35
342.078	3.36
342.449	3.51
342.82	3.89
343.191	3.84
343.562	4.3
343.933	4.53
344.303	3.9
344.674	3.94
345.045	3.77
345.416	3.88
345.786	3.65
346.157	3.74
346.527	4.16
346.898	3.27
347.268	3.88
347.639	4.26
348.009	3.34
348.38	3.59
348.75	4
349.12	4.04
349.49	3.51
349.861	3.97
350.231	3.57
350.601	4.28
350.971	4.27
351.341	3.62
351.711	3.8
352.081	4.2
352.45	3.77
352.82	4.18
353.19	3.29
353.56	3.43
353.929	3.81
354.299	3.57
354.669	3.75
355.038	3.11
355.408	3.6
355.777	3.92
356.147	3.44
356.516	3.92
356.885	3.55
357.254	3.98
357.624	3.64
357.993	3.77
358.362	3.82
358.731	4.33
359.1	3.66
359.469	3.86
359.838	3.66
360.207	3.69
360.576	4.18
360.945	3.87
361.314	3.93
361.682	3.69
362.051	4.12
362.42	4.24
362.788	3.81
363.157	4.14
363.525	4.01
363.894	3.91
364.262	3.78
364.631	3.61
364.999	3.89
365.367	4.24
365.735	3.61
366.104	3.82
366.472	3.75
366.84	3.98
367.208	4.1
367.576	3.81
367.944	3.92
368.312	4.09
368.68	3.94
369.048	3.96
369.416	4.07
369.783	3.93
370.151	4.07
370.519	3.78
370.886	3.93
371.254	3.93
371.621	4.03
371.989	3.79
372.356	3.84
372.724	3.44
373.091	3.73
373.458	4.02
373.826	4.07
374.193	3.52
374.56	4.04
374.927	3.79
375.294	4.38
375.661	4.2
376.028	4.01
376.395	4.09
376.762	4.76
377.129	3.58
377.496	3.7
377.863	3.97
378.229	4.08
378.596	3.92
378.963	3.99
379.329	4.05
379.696	3.69
380.062	4.11
380.429	4.17
380.795	3.99
381.161	4.03
381.528	4.19
381.894	4.11
382.26	3.79
382.626	4.17
382.993	4.23
383.359	3.96
383.725	3.67
384.091	4.01
384.457	3.91
384.823	4.1
385.188	4.23
385.554	4.02
385.92	3.92
386.286	4.39
386.651	4.2
387.017	4.22
387.383	3.95
387.748	4.26
388.114	4.01
388.479	4.2
388.845	4.04
389.21	3.99
389.575	4.06
389.94	4.16
390.306	4.08
390.671	4.06
391.036	4.41
391.401	3.96
391.766	3.98
392.131	3.94
392.496	4.06
392.861	4.01
393.226	4.19
393.591	4.03
393.956	4.11
394.32	4.05
394.685	3.96
395.05	3.79
395.414	3.96
395.779	3.94
396.143	4.2
396.508	3.94
396.872	4.39
397.236	3.99
397.601	4.15
397.965	3.88
398.329	4.2
398.694	3.98
399.058	4.16
399.422	3.89
399.786	4.02
400.15	3.82
400.514	4.15
400.878	4.01
401.242	3.96
401.605	4.37
401.969	4.11
402.333	4.07
402.697	4.07
403.06	4.09
403.424	4.23
403.787	4.02
404.151	4.28
404.514	3.99
404.878	3.78
405.241	4.18
405.604	3.89
405.968	3.74
406.331	4.22
406.694	4.15
407.057	3.94
407.42	4.16
407.783	3.93
408.146	4.16
408.509	4.04
408.872	4.09
409.235	4.11
409.598	3.78
409.961	4.06
410.323	4.36
410.686	4.23
411.049	3.84
411.411	4.13
411.774	4.06
412.136	4.18
412.499	4.34
412.861	4.06
413.223	4.42
413.586	4.43
413.948	3.93
414.31	4.12
414.672	4.12
415.035	4.14
415.397	4.13
415.759	4.18
416.121	4.02
416.483	4.01
416.845	3.9
417.206	4.03
417.568	3.87
417.93	3.91
418.292	4.01
418.653	4.12
419.015	4.14
419.377	4.07
419.738	4.1
420.1	3.97
420.461	4.12
420.822	3.99
421.184	4.1
421.545	4.27
421.906	3.99
422.267	3.99
422.629	3.94
422.99	4.06
423.351	3.99
423.712	4.04
424.073	3.98
424.434	4.09
424.795	4.22
425.155	3.92
425.516	3.98
425.877	3.98
426.238	4.06
426.598	3.96
426.959	4.03
427.32	4.17
427.68	4.09
428.041	4.21
428.401	4.01
428.761	4.03
429.122	4.06
429.482	4.32
429.842	4.13
430.202	4.1
430.563	4.12
430.923	4.15
431.283	4.08
431.643	4.24
432.003	4.09
432.363	4.19
432.722	3.91
433.082	4.25
433.442	4.18
433.802	4.27
434.161	4.15
434.521	4.21
434.881	3.98
435.24	4.05
435.6	4.09
435.959	4.23
436.319	4.24
436.678	4.36
437.037	4.15
437.396	4.14
437.756	4.16
438.115	4.22
438.474	4.15
438.833	4.37
439.192	4.31
439.551	4.13
439.91	4.02
440.269	4.15
440.628	4.06
440.987	4.02
441.345	4.13
441.704	4.1
442.063	4.2
442.421	4.13
442.78	4.21
443.138	4.06
443.497	4.12
443.855	4.13
444.214	4.18
444.572	4.3
444.93	4.22
445.288	3.98
445.647	4.14
446.005	4.05
446.363	3.94
446.721	4.13
447.079	4.17
447.437	3.98
447.795	4.16
448.153	4.03
448.51	4.08
448.868	4.16
449.226	4.14
449.584	4.04
449.941	4.21
450.299	4.27
450.656	4.24
451.014	4.13
451.371	4.18
451.729	4.26
452.086	4.21
452.443	4.33
452.801	4.22
453.158	4.06
453.515	4.18
453.872	4.08
454.229	4.24
454.586	3.92
454.943	4.17
455.3	4
455.657	4.18
456.014	4.29
456.371	4.1
456.727	4.24
457.084	4.28
457.441	4.19
457.797	4.14
458.154	4.13
458.51	4.02
458.867	4.32
459.223	4.16
459.58	4.09
459.936	4.14
460.292	4.21
460.648	4.17
461.005	4.13
461.361	4.07
461.717	4.21
462.073	4.15
462.429	4.18
462.785	4.16
463.141	4.22
463.496	4.09
463.852	4.4
464.208	4.31
464.564	4.08
464.919	4.34
465.275	4.36
465.631	4.11
465.986	4.19
466.342	4.36
466.697	4.16
467.052	4.45
467.408	4.36
467.763	4.29
468.118	4.22
468.473	4.03
468.829	4.17
469.184	4.09
469.539	4.31
469.894	4.38
470.249	4.21
470.603	4.21
470.958	4.19
471.313	4.47
471.668	4.45
472.023	4.27
472.377	4.12
472.732	4.34
473.086	4.07
473.441	4.34
473.795	4.19
474.15	4.47
474.504	4.03
474.859	4.16
475.213	3.9
475.567	4.29
475.921	4.04
476.275	4.02
476.63	4.19
476.984	4.04
477.338	4.08
477.692	4.12
478.045	4.24
478.399	4.24
478.753	4.08
479.107	4.3
479.461	4.07
479.814	4.25
480.168	4.01
480.521	4.14
480.875	4.36
481.228	4.33
481.582	4.22
481.935	4.23
482.289	4.26
482.642	4.27
482.995	4.14
483.348	4.11
483.701	4.24
484.055	4.13
484.408	4.05
484.761	4.07
485.114	3.98
485.466	3.88
485.819	3.89
486.172	3.9
486.525	3.95
486.878	4
487.23	3.97
487.583	4.07
487.936	4.1
488.288	4
488.641	4.08
488.993	3.94
489.345	3.98
489.698	3.96
490.05	3.97
490.402	3.99
490.754	4.01
491.107	4.01
491.459	4.14
491.811	4.23
492.163	4.1
492.515	4.22
492.866	3.99
493.218	4
493.57	3.9
493.922	4
494.274	4.06
494.625	4.14
494.977	4.25
495.328	4.23
495.68	4.12
496.031	4.22
496.383	4.19
496.734	4.18
497.086	4.2
497.437	4.21
497.788	4.09
498.139	4.08
498.49	4.33
498.842	4.1
499.193	4.18
499.544	4.16
499.894	4.18
500.245	4.34
500.596	4.21
500.947	4.18
501.298	4.28
501.648	4.34
501.999	4.27
502.35	4.29
502.7	4.21
503.051	4.17
503.401	4.2
503.752	4.33
504.102	4.09
504.452	4.18
504.803	4.29
505.153	4.35
505.503	4.25
505.853	4.3
506.203	4.19
506.553	4.09
506.903	4.25
507.253	4.26
507.603	4.2
507.953	4.24
508.303	4.26
508.652	4.29
509.002	4.25
509.352	4.2
509.701	4.25
510.051	4.11
510.4	4.15
510.75	4.19
511.099	4.12
511.449	4.25
511.798	4.11
512.147	4.13
512.496	4.25
512.846	4.17
513.195	4.11
513.544	4.19
513.893	4.25
514.242	4.1
514.591	4.16
514.939	4.17
515.288	4.18
515.637	4.22
515.986	4.14
516.334	4.24
516.683	4.1
517.032	4.22
517.38	4.13
517.729	4.22
518.077	4.2
518.426	4.31
518.774	4.19
519.122	4.09
519.47	4.19
519.819	4.07
520.167	4.1
520.515	4.01
520.863	4.08
521.211	4.13
521.559	4.16
521.907	4.16
522.255	4.23
522.602	4.21
522.95	4.16
523.298	4.16
523.645	4.18
523.993	4.23
524.341	4.27
524.688	4.13
525.036	4.25
525.383	4.18
525.73	4.15
526.078	4.16
526.425	4.06
526.772	4.12
527.119	4.08
527.466	4.08
527.814	3.97
528.161	4.11
528.508	4.13
528.854	4.01
529.201	4.18
529.548	4.02
529.895	3.93
530.242	3.85
530.588	3.84
530.935	3.92
531.282	4.01
531.628	4
531.975	4
532.321	4.02
532.667	3.94
533.014	4.06
533.36	4.07
533.706	4.02
534.052	4.14
534.399	4.05
534.745	4
535.091	3.97
535.437	3.99
535.783	3.94
536.129	4.08
536.474	4.02
536.82	4.07
537.166	4.1
537.512	4.06
537.857	4.14
538.203	4.12
538.549	4.11
538.894	4.04
539.239	4.08
539.585	4.07
539.93	4.22
540.276	4.07
540.621	4.12
540.966	4.08
541.311	4.15
541.656	4.13
542.001	4.06
542.346	4.1
542.691	4.03
543.036	3.87
543.381	3.9
543.726	3.98
544.071	4.03
544.415	4.02
544.76	3.97
545.105	4.03
545.449	4.09
545.794	4.16
546.138	4.02
546.483	4.13
546.827	4.2
547.171	4.1
547.516	4.12
547.86	4.14
548.204	4.05
548.548	4.03
548.892	4.08
549.236	4.04
549.58	4.23
549.924	4.09
550.268	4.19
550.612	3.96
550.956	4.16
551.3	4.35
551.643	4.1
551.987	4.27
552.33	4.16
552.674	4.26
553.017	4.35
553.361	4.22
553.704	4.12
554.048	4.2
554.391	4.01
554.734	4.12
555.077	4.13
555.42	4.17
555.764	4.27
556.107	4.21
556.45	4.1
556.793	4.09
557.135	4.07
557.478	4.06
557.821	4.18
558.164	4.31
558.507	4.26
558.849	4.16
559.192	4.15
559.534	4.26
559.877	4.3
560.219	4.25
560.562	4.26
560.904	4.08
561.246	4.28
561.589	4.33
561.931	4.21
562.273	4.09
562.615	3.93
562.957	4.17
563.299	4.26
563.641	4.19
563.983	4.15
564.325	4.21
564.667	4.25
565.008	4.16
565.35	4.2
565.692	4.16
566.033	4.22
566.375	4.11
566.716	4.07
567.058	4.18
567.399	4.12
567.741	4.09
568.082	4.05
568.423	4.15
568.764	4.08
569.105	4.12
569.447	4.28
569.788	4.22
570.129	4.05
570.47	4.29
570.811	4.02
571.151	4.18
571.492	4.14
571.833	4.26
572.174	4.11
572.514	4.15
572.855	4.28
573.195	4.14
573.536	4
573.876	4.05
574.217	4.04
574.557	4.1
574.898	4.11
575.238	4.12
575.578	4.08
575.918	4.23
576.258	4.27
576.598	4.13
576.938	4.15
577.278	4.06
577.618	4.31
577.958	4.19
578.298	4.15
578.638	4.12
578.977	4.22
579.317	4.06
579.657	4.22
579.996	4.21
580.336	4.38
580.675	4.1
581.014	4.41
581.354	4.25
581.693	4.15
582.032	3.96
582.372	4.32
582.711	4.13
583.05	4.32
583.389	4.23
583.728	4.22
584.067	4.15
584.406	4.54
584.745	4.49
585.083	4.12
585.422	4.42
585.761	4.54
586.1	4.28
586.438	4.14
586.777	4.3
587.115	4.18
587.454	4.28
587.792	4.06
588.13	4.27
588.469	4.24
588.807	4.29
589.145	4.33
589.483	4.31
589.821	4.3
590.159	4.19
590.497	4.23
590.835	4.23
591.173	4.03
591.511	4.21
591.849	4.09
592.187	4.07
592.524	4.13
592.862	4.12
593.2	4.07
593.537	3.85
593.875	4.37
594.212	4.18
594.55	4.13
594.887	4.51
595.224	4.16
595.561	4.3
595.899	4.06
596.236	4.25
596.573	4.39
596.91	4.57
597.247	4.14
597.584	4.2
597.921	4.27
598.258	4.22
598.594	4.18
598.931	4.17
599.268	4.14
599.604	4.12
599.941	4.16
600.277	4.22
600.614	4.3
600.95	4.44
601.287	4.18
601.623	4.31
601.959	4.04
602.296	4.44
602.632	4.28
602.968	4.29
603.304	4.14
603.64	4.44
603.976	4.16
604.312	4.14
604.648	4.12
604.984	4.09
605.319	4.18
605.655	4.04
605.991	4.17
606.326	4.03
606.662	4.04
606.998	4.08
607.333	4.22
607.668	4.1
608.004	4.29
608.339	4.2
608.674	4.12
609.01	4.11
609.345	4.47
609.68	4.34
610.015	3.82
610.35	4.26
610.685	4.23
611.02	4.27
611.355	4.27
611.689	4.16
612.024	4.18
612.359	4.18
612.694	3.97
613.028	4.23
613.363	4.29
613.697	4.37
614.032	4.39
614.366	4.42
614.7	4.17
615.035	4.28
615.369	4.2
615.703	4.36
616.037	4.27
616.371	3.94
616.705	4.13
617.039	3.99
617.373	4.32
617.707	4.09
618.041	4.08
618.375	4.12
618.709	4.21
619.042	4.24
619.376	4.02
619.71	4.27
620.043	4.23
620.377	4.34
620.71	4.1
621.043	3.81
621.377	4.23
621.71	4.49
622.043	4.23
622.376	4.41
622.709	4.37
623.043	4.61
623.376	4.54
623.709	4.36
624.041	4.48
624.374	4.4
624.707	4.23
625.04	4.35
625.373	4.56
625.705	4.25
626.038	4.26
626.37	4.34
626.703	4.43
627.035	3.99
627.368	4.54
627.7	4.38
628.032	4.22
628.365	4.2
628.697	4.07
629.029	4.15
629.361	4
629.693	3.86
630.025	4.03
630.357	4.36
630.689	4.09
631.021	4.33
631.353	4.38
631.684	4.26
632.016	4
632.348	4.48
632.679	3.76
633.011	4.59
633.342	4.51
633.674	4.59
634.005	4.38
634.336	4.4
634.668	4.67
634.999	4.44
635.33	3.99
635.661	4.14
635.992	4.4
636.323	3.87
636.654	4.2
636.985	4.36
637.316	4.35
637.647	4.15
637.977	4.32
638.308	4.31
638.639	4.34
638.969	4.36
639.3	4.27
639.63	4.51
639.961	4.58
640.291	4.04
640.622	4.31
640.952	4.95
641.282	4.01
641.612	4.47
641.943	4.71
642.273	4.61
642.603	4.86
642.933	4.53
643.263	4.45
643.592	4.54
643.922	4.35
644.252	4.84
644.582	3.74
644.911	4.4
645.241	3.98
645.571	4.78
645.9	4.57
646.23	4.14
646.559	4.41
646.888	4.21
647.218	4.35
647.547	3.96
647.876	4.23
648.205	4.42
648.534	4.48
648.863	4.33
649.192	4.54
649.521	4.7
649.85	3.66
650.179	4.46
650.508	4.6
650.837	4.39
651.165	4.33
651.494	4.24
651.822	4.37
652.151	4.55
652.479	4.64
652.808	4.78
653.136	4.45
653.465	4
653.793	4.53
654.121	4.71
654.449	4.19
654.777	4.69
655.105	4.52
655.433	5.2
655.761	4.64
656.089	4.48
656.417	4.73
656.745	4.66
657.073	4.13
657.4	4.31
657.728	3.75
658.056	4.38
658.383	4.01
658.711	4.05
659.038	4.54
659.365	4.79
659.693	4.72
660.02	4.18
660.347	4.71
660.674	4.37
661.001	4.35
661.329	4.47
661.656	4.1
661.982	3.94
662.309	4.59
662.636	4.47
662.963	4.71
663.29	4.5
663.616	4.27
663.943	4.79
664.27	4.82
664.596	5.03
664.923	5.12
665.249	4.02
665.576	4.06
665.902	4.44
666.228	4.69
666.554	4.12
666.881	4.2
667.207	4.8
667.533	4.85
667.859	4.32
668.185	3.8
668.511	4.04
668.837	4.16
669.162	4.98
669.488	3.98
669.814	4.75
670.139	4.34
670.465	3.78
670.791	4.51
671.116	4.32
671.442	4.48
671.767	4.98
672.092	4.97
672.418	4.51
672.743	4.7
673.068	3.75
673.393	4.42
673.718	4.72
674.043	4.49
674.368	3.72
674.693	4.3
675.018	4.51
675.343	3.66
675.667	4.77
675.992	4.83
676.317	4.85
676.641	4.3
676.966	4.32
677.29	4.61
677.615	3.66
677.939	4.5
678.264	4.88
678.588	4.95
678.912	4.64
679.236	4.29
679.56	4.7
679.885	4.88
680.209	4.96
680.532	5.05
680.856	4.3
681.18	4.52
681.504	4.68
681.828	4.68
682.152	4.57
682.475	4.49
682.799	4.47
683.122	4.94
683.446	4.64
683.769	5.9
684.093	4.1
684.416	4.92
684.739	4.96
685.062	5
685.386	5.2
685.709	4.93
686.032	5.08
686.355	4.38
686.678	5.34
687.001	4.73
687.324	4.36
687.646	5.21
687.969	4.42
688.292	4.95
688.614	5
688.937	4.82
689.26	4.47
689.582	3.68
689.904	4.46
690.227	4.88
690.549	4.64
690.871	4.64
691.194	5.53
691.516	4.88
691.838	4.27
692.16	5.16
692.482	4.52
692.804	4.62
