Data from 444_chest_Reflection__1__61.txt Node

Date: Tue Dec 12 18:43:21 CST 2023
User: ToomeyLab
Spectrometer: FLMS14357
Trigger mode: 0
Integration Time (sec): 1.000000E-2
Scans to average: 100
Electric dark correction enabled: true
Nonlinearity correction enabled: false
Boxcar width: 0
XAxis mode: Wavelengths
Number of Pixels in Spectrum: 2048
>>>>>Begin Spectral Data<<<<<
189.047	138.47
189.435	138.47
189.823	138.47
190.211	110.41
190.599	-163.42
190.987	144.09
191.375	-94.38
191.763	-104.07
192.151	38.58
192.538	38.26
192.926	146.22
193.314	49.36
193.702	43.23
194.089	171.6
194.477	-440.14
194.864	-158.93
195.252	742.36
195.639	-66.23
196.027	-0.03
196.414	10.28
196.801	90.86
197.189	326.99
197.576	48.52
197.963	47.04
198.351	35.47
198.738	41.49
199.125	-0.25
199.512	-16.08
199.899	2.64
200.286	10.09
200.673	-24.82
201.06	75.07
201.447	-53.08
201.833	21.41
202.22	29.75
202.607	-105.28
202.994	12.38
203.38	3.71
203.767	5.84
204.154	7.63
204.54	27.67
204.927	-0.38
205.313	20.86
205.699	85.42
206.086	-18.06
206.472	18.98
206.858	3.88
207.245	29.55
207.631	14.73
208.017	43.52
208.403	34.94
208.789	33.99
209.175	18.75
209.561	7.31
209.947	13.43
210.333	30.73
210.719	60.35
211.105	-4.05
211.491	19.18
211.876	19.77
212.262	67.13
212.648	-11.77
213.034	-22.88
213.419	-5.26
213.805	24.71
214.19	34.02
214.576	22.09
214.961	17.02
215.346	27.83
215.732	32.99
216.117	18.22
216.502	1.99
216.888	3.35
217.273	-4.69
217.658	0.34
218.043	-1.52
218.428	3.65
218.813	34.15
219.198	-5.26
219.583	8.53
219.968	23.61
220.353	1.71
220.738	30.23
221.122	13.34
221.507	1.64
221.892	14.65
222.276	15.1
222.661	13.91
223.046	-15.13
223.43	12.68
223.815	12.7
224.199	4.4
224.583	6.48
224.968	10.52
225.352	-10.02
225.736	12.01
226.121	6.87
226.505	7.76
226.889	-1.13
227.273	5.1
227.657	8.46
228.041	12.41
228.425	5.56
228.809	3.26
229.193	3.92
229.577	6.1
229.961	5.43
230.344	6.16
230.728	6.46
231.112	5.08
231.495	5.7
231.879	5.73
232.263	4.31
232.646	5.45
233.03	5.66
233.413	4.95
233.797	3.47
234.18	3.1
234.563	3.87
234.946	7.51
235.33	8.25
235.713	4.68
236.096	4.83
236.479	6.61
236.862	6.6
237.245	5.84
237.628	5.23
238.011	5.63
238.394	6.56
238.777	6.13
239.16	5.53
239.543	3.61
239.925	7.26
240.308	6.64
240.691	8.08
241.073	7.37
241.456	5.39
241.838	6.27
242.221	6.3
242.603	7.24
242.986	4.77
243.368	6.52
243.75	6.03
244.133	5.92
244.515	6.5
244.897	5.83
245.279	6.57
245.661	5.41
246.043	5.91
246.425	7.55
246.807	4.43
247.189	6.81
247.571	6.4
247.953	6.61
248.335	6.46
248.717	6.24
249.098	6.17
249.48	5.92
249.862	6.48
250.243	6.15
250.625	6.66
251.006	6.36
251.388	6.97
251.769	5.65
252.151	6.53
252.532	7.26
252.913	6.81
253.295	6.79
253.676	5.71
254.057	6.05
254.438	6.16
254.819	6.39
255.2	5.51
255.581	6.15
255.962	5.85
256.343	6.8
256.724	6.16
257.105	7.14
257.486	6.63
257.867	6.52
258.247	7.07
258.628	6.35
259.009	5.71
259.389	6.29
259.77	6.15
260.15	5.82
260.531	6.84
260.911	6.28
261.292	5.61
261.672	5.85
262.052	5.56
262.432	5.81
262.813	6.01
263.193	6.03
263.573	5.91
263.953	6.8
264.333	6.73
264.713	5.83
265.093	5.28
265.473	5.93
265.853	4.84
266.233	5.05
266.612	6.05
266.992	6.23
267.372	5.8
267.752	6.38
268.131	5.09
268.511	5.31
268.89	5.23
269.27	5.01
269.649	5.62
270.029	5.37
270.408	5.28
270.787	5.21
271.167	5.69
271.546	5.89
271.925	6.1
272.304	5.74
272.683	5.2
273.062	5.57
273.441	5.84
273.82	5.01
274.199	5.68
274.578	5.19
274.957	4.98
275.336	5.44
275.715	5.58
276.093	5.15
276.472	5.88
276.851	5.9
277.229	5.77
277.608	4.67
277.986	5.04
278.365	5.52
278.743	5.74
279.122	5.71
279.5	4.63
279.878	4.49
280.257	5.2
280.635	5.06
281.013	5.4
281.391	4.87
281.769	5.89
282.147	5.81
282.525	5.03
282.903	5.17
283.281	5.21
283.659	5.37
284.037	5.66
284.415	4.99
284.792	5.68
285.17	4.9
285.548	5.3
285.925	5.88
286.303	4.98
286.68	5.2
287.058	5.56
287.435	5.52
287.813	5.18
288.19	5.5
288.567	5.47
288.945	5.52
289.322	4.74
289.699	5.48
290.076	5.48
290.453	5.89
290.83	5.87
291.207	6.13
291.584	6
291.961	5.97
292.338	5.95
292.715	5.94
293.092	6.23
293.469	6.48
293.845	6.41
294.222	6.1
294.599	6.39
294.975	6.54
295.352	6.32
295.728	6.86
296.105	6.87
296.481	7.03
296.858	6.97
297.234	7.39
297.61	6.94
297.986	7.22
298.363	7.08
298.739	6.88
299.115	6.83
299.491	7.25
299.867	7.14
300.243	6.81
300.619	7.47
300.995	7.68
301.371	7.4
301.746	7.67
302.122	8.32
302.498	7.52
302.874	7.47
303.249	8.2
303.625	7.22
304	7.88
304.376	7.41
304.751	8.19
305.127	8
305.502	8.06
305.878	7.45
306.253	7.47
306.628	7.63
307.003	7.76
307.378	7.85
307.754	7.63
308.129	7.21
308.504	8.63
308.879	8.08
309.254	8.3
309.629	7.75
310.003	8.01
310.378	7.66
310.753	7.59
311.128	7.89
311.502	7.49
311.877	7.71
312.252	7.74
312.626	7.73
313.001	7.91
313.375	7.74
313.75	8.07
314.124	8.14
314.498	7.98
314.873	7.85
315.247	7.9
315.621	7.89
315.995	8.66
316.369	8.51
316.743	7.83
317.117	7.27
317.491	7.78
317.865	8
318.239	8.18
318.613	7.99
318.987	8.84
319.361	7.91
319.734	8.15
320.108	8.38
320.482	8.2
320.855	8.32
321.229	8.2
321.602	7.99
321.976	8.45
322.349	8.02
322.723	7.74
323.096	8.65
323.469	8.57
323.843	8.46
324.216	8.78
324.589	8.38
324.962	8.43
325.335	8.67
325.708	8.35
326.081	8.59
326.454	8.22
326.827	8.48
327.2	7.95
327.573	7.74
327.945	8.43
328.318	8.31
328.691	7.76
329.063	8.32
329.436	8.83
329.809	8.26
330.181	7.79
330.553	7.78
330.926	8.51
331.298	8.51
331.671	8.91
332.043	8.41
332.415	8.85
332.787	8.51
333.159	8.38
333.532	8.53
333.904	8.29
334.276	8.73
334.648	8.18
335.02	8.02
335.391	8.28
335.763	8.14
336.135	7.83
336.507	9.09
336.879	8.24
337.25	8.6
337.622	8.85
337.993	7.86
338.365	8.18
338.736	8.38
339.108	8.32
339.479	8.6
339.851	8.11
340.222	7.93
340.593	9.02
340.964	8.69
341.336	9
341.707	8.38
342.078	8.33
342.449	8.08
342.82	9.02
343.191	8.49
343.562	8.48
343.933	9.03
344.303	8.77
344.674	8.26
345.045	8.66
345.416	8.33
345.786	8.59
346.157	8.23
346.527	8.69
346.898	8.23
347.268	8.64
347.639	8.84
348.009	8.35
348.38	8.38
348.75	8.47
349.12	8.93
349.49	8.43
349.861	8.87
350.231	8.33
350.601	8.73
350.971	8.96
351.341	8.51
351.711	8.63
352.081	8.42
352.45	8.18
352.82	8.55
353.19	8.74
353.56	8.25
353.929	8.93
354.299	8.68
354.669	8.14
355.038	8.15
355.408	8.48
355.777	9.05
356.147	8.92
356.516	8.56
356.885	8.28
357.254	8.8
357.624	8.5
357.993	8.57
358.362	8.68
358.731	8.93
359.1	8.74
359.469	8.61
359.838	8.26
360.207	8.57
360.576	8.85
360.945	8.37
361.314	8.68
361.682	8.56
362.051	8.91
362.42	8.89
362.788	8.55
363.157	8.88
363.525	9.04
363.894	8.78
364.262	8.66
364.631	8.41
364.999	9.03
365.367	8.81
365.735	8.72
366.104	9
366.472	8.15
366.84	9.01
367.208	8.83
367.576	8.81
367.944	9.1
368.312	8.92
368.68	8.89
369.048	8.67
369.416	8.88
369.783	8.82
370.151	8.9
370.519	8.6
370.886	8.88
371.254	8.84
371.621	8.86
371.989	8.64
372.356	8.67
372.724	8.92
373.091	8.73
373.458	8.98
373.826	8.86
374.193	8.5
374.56	8.99
374.927	9.16
375.294	9.27
375.661	9.32
376.028	8.94
376.395	9.11
376.762	9.27
377.129	8.72
377.496	8.72
377.863	9.09
378.229	8.98
378.596	8.75
378.963	8.94
379.329	8.8
379.696	8.75
380.062	9.08
380.429	9.16
380.795	9.1
381.161	9.02
381.528	8.88
381.894	9.41
382.26	8.71
382.626	9.08
382.993	9.17
383.359	8.95
383.725	8.8
384.091	8.81
384.457	9.26
384.823	8.72
385.188	8.95
385.554	9.41
385.92	9.19
386.286	9.27
386.651	9.16
387.017	9.27
387.383	8.84
387.748	9.15
388.114	8.95
388.479	9
388.845	9.28
389.21	9.03
389.575	8.86
389.94	9.11
390.306	9.23
390.671	8.95
391.036	9.09
391.401	9.04
391.766	9.28
392.131	9.27
392.496	9.28
392.861	8.81
393.226	9.52
393.591	9.24
393.956	8.93
394.32	9.32
394.685	9.44
395.05	9.22
395.414	9.09
395.779	9.25
396.143	9.26
396.508	8.94
396.872	9.02
397.236	8.99
397.601	9.06
397.965	9.09
398.329	9.32
398.694	9.06
399.058	9.48
399.422	9.25
399.786	9.07
400.15	8.95
400.514	9.26
400.878	9.16
401.242	9.56
401.605	9.36
401.969	9.05
402.333	9.4
402.697	9.19
403.06	8.98
403.424	9.47
403.787	9.03
404.151	9.34
404.514	9.04
404.878	9.29
405.241	9.2
405.604	9.08
405.968	9.15
406.331	9.24
406.694	9.31
407.057	9.04
407.42	9.23
407.783	9.18
408.146	9.24
408.509	9.23
408.872	9.37
409.235	9.33
409.598	9.14
409.961	9.2
410.323	9.35
410.686	9.25
411.049	9.51
411.411	9.3
411.774	9.23
412.136	9.45
412.499	9.28
412.861	9.57
413.223	9.66
413.586	9.03
413.948	9.17
414.31	9.76
414.672	9.5
415.035	9.51
415.397	9.29
415.759	9.38
416.121	9.27
416.483	9.58
416.845	9.33
417.206	9.67
417.568	9.32
417.93	9.45
418.292	9.14
418.653	9.58
419.015	9.33
419.377	9.37
419.738	9.24
420.1	9.19
420.461	9.38
420.822	9.29
421.184	9.33
421.545	9.43
421.906	9.38
422.267	9.18
422.629	9.28
422.99	9.34
423.351	9.37
423.712	9.19
424.073	9.25
424.434	9.35
424.795	9.42
425.155	9.31
425.516	9.24
425.877	9.31
426.238	9.21
426.598	9.27
426.959	9.41
427.32	9.45
427.68	9.39
428.041	9.56
428.401	9.6
428.761	9.56
429.122	9.61
429.482	9.79
429.842	9.73
430.202	9.49
430.563	9.82
430.923	9.76
431.283	9.31
431.643	9.59
432.003	9.34
432.363	9.79
432.722	9.51
433.082	9.55
433.442	9.57
433.802	9.69
434.161	9.65
434.521	9.76
434.881	9.53
435.24	9.66
435.6	9.6
435.959	9.56
436.319	9.73
436.678	9.64
437.037	9.71
437.396	9.54
437.756	9.74
438.115	9.62
438.474	9.7
438.833	9.8
439.192	9.74
439.551	9.7
439.91	9.53
440.269	9.86
440.628	9.67
440.987	9.49
441.345	9.63
441.704	9.66
442.063	9.69
442.421	9.72
442.78	9.66
443.138	9.72
443.497	9.71
443.855	9.66
444.214	9.84
444.572	9.85
444.93	9.76
445.288	9.67
445.647	9.97
446.005	9.69
446.363	9.69
446.721	9.7
447.079	9.65
447.437	9.63
447.795	9.69
448.153	9.58
448.51	9.8
448.868	9.63
449.226	9.78
449.584	9.78
449.941	9.69
450.299	9.83
450.656	9.69
451.014	9.81
451.371	9.98
451.729	9.87
452.086	9.77
452.443	9.95
452.801	9.97
453.158	9.99
453.515	10.02
453.872	10.02
454.229	10.01
454.586	9.73
454.943	9.91
455.3	9.81
455.657	10
456.014	10
456.371	10.05
456.727	10.02
457.084	9.99
457.441	10.13
457.797	10.03
458.154	9.79
458.51	10.06
458.867	10.02
459.223	10.25
459.58	9.94
459.936	9.86
460.292	9.92
460.648	9.96
461.005	9.98
461.361	10
461.717	10.09
462.073	9.96
462.429	9.86
462.785	9.84
463.141	9.96
463.496	10.09
463.852	10.25
464.208	10.08
464.564	10.02
464.919	10.31
465.275	10.2
465.631	10.25
465.986	10.09
466.342	10.07
466.697	10.26
467.052	10.24
467.408	10.07
467.763	10.19
468.118	10.22
468.473	10.12
468.829	10.28
469.184	9.95
469.539	10.22
469.894	10.18
470.249	10.27
470.603	10.13
470.958	10.28
471.313	10.41
471.668	10.37
472.023	10.2
472.377	10.21
472.732	10.26
473.086	10.29
473.441	10.51
473.795	10.22
474.15	10.22
474.504	10.31
474.859	10.28
475.213	10.18
475.567	10.36
475.921	10.45
476.275	10.06
476.63	10.41
476.984	10.45
477.338	10.35
477.692	10.28
478.045	10.44
478.399	10.45
478.753	10.4
479.107	10.39
479.461	10.39
479.814	10.37
480.168	10.46
480.521	10.36
480.875	10.38
481.228	10.42
481.582	10.42
481.935	10.5
482.289	10.57
482.642	10.48
482.995	10.36
483.348	10.38
483.701	10.5
484.055	10.37
484.408	10.28
484.761	10.18
485.114	10.08
485.466	10.03
485.819	9.98
486.172	9.9
486.525	9.95
486.878	9.98
487.23	10.13
487.583	10.2
487.936	10.31
488.288	10.24
488.641	10.28
488.993	10.24
489.345	10.15
489.698	10.15
490.05	10.14
490.402	10.17
490.754	10.18
491.107	10.35
491.459	10.33
491.811	10.34
492.163	10.46
492.515	10.55
492.866	10.37
493.218	10.36
493.57	10.34
493.922	10.24
494.274	10.26
494.625	10.4
494.977	10.48
495.328	10.65
495.68	10.66
496.031	10.81
496.383	10.63
496.734	10.59
497.086	10.62
497.437	10.76
497.788	10.7
498.139	10.68
498.49	10.79
498.842	10.68
499.193	10.8
499.544	10.66
499.894	10.64
500.245	10.83
500.596	10.78
500.947	10.79
501.298	10.81
501.648	10.82
501.999	10.89
502.35	10.72
502.7	10.82
503.051	10.85
503.401	10.93
503.752	10.88
504.102	10.91
504.452	11.03
504.803	10.94
505.153	10.91
505.503	10.93
505.853	11.14
506.203	10.94
506.553	11.04
506.903	11
507.253	11.08
507.603	11.07
507.953	11
508.303	11.09
508.652	10.99
509.002	10.97
509.352	10.98
509.701	11.19
510.051	11.15
510.4	11.05
510.75	11.01
511.099	10.99
511.449	11.12
511.798	11.13
512.147	11.15
512.496	11.34
512.846	11.17
513.195	11.07
513.544	11.23
513.893	11.2
514.242	11.1
514.591	11.11
514.939	11.26
515.288	11.31
515.637	11.11
515.986	11.23
516.334	11.52
516.683	11.38
517.032	11.41
517.38	11.33
517.729	11.46
518.077	11.47
518.426	11.42
518.774	11.35
519.122	11.31
519.47	11.38
519.819	11.33
520.167	11.27
520.515	11.23
520.863	11.29
521.211	11.22
521.559	11.43
521.907	11.34
522.255	11.49
522.602	11.58
522.95	11.51
523.298	11.58
523.645	11.6
523.993	11.68
524.341	11.68
524.688	11.49
525.036	11.69
525.383	11.63
525.73	11.57
526.078	11.64
526.425	11.52
526.772	11.56
527.119	11.65
527.466	11.64
527.814	11.61
528.161	11.61
528.508	11.65
528.854	11.57
529.201	11.61
529.548	11.56
529.895	11.56
530.242	11.34
530.588	11.32
530.935	11.35
531.282	11.34
531.628	11.34
531.975	11.47
532.321	11.64
532.667	11.71
533.014	11.75
533.36	11.71
533.706	11.77
534.052	11.85
534.399	11.92
534.745	11.78
535.091	11.72
535.437	11.8
535.783	11.74
536.129	11.73
536.474	11.81
536.82	11.88
537.166	12.12
537.512	12.06
537.857	12.15
538.203	11.98
538.549	12.13
538.894	12.04
539.239	12.07
539.585	12.09
539.93	12.17
540.276	12.22
540.621	12.35
540.966	12.16
541.311	12.29
541.656	12.28
542.001	12.31
542.346	12.2
542.691	12.27
543.036	12.05
543.381	11.98
543.726	12.08
544.071	12
544.415	12.07
544.76	12.2
545.105	12.26
545.449	12.42
545.794	12.52
546.138	12.24
546.483	12.46
546.827	12.52
547.171	12.73
547.516	12.58
547.86	12.64
548.204	12.63
548.548	12.6
548.892	12.61
549.236	12.67
549.58	12.72
549.924	12.66
550.268	12.87
550.612	12.7
550.956	12.86
551.3	12.89
551.643	12.89
551.987	13.04
552.33	13
552.674	13.03
553.017	13.18
553.361	13.19
553.704	13.03
554.048	13.11
554.391	13.04
554.734	13.01
555.077	13.38
555.42	13.18
555.764	13.15
556.107	13.3
556.45	13.19
556.793	13.32
557.135	13.38
557.478	13.35
557.821	13.38
558.164	13.26
558.507	13.32
558.849	13.36
559.192	13.51
559.534	13.48
559.877	13.54
560.219	13.5
560.562	13.45
560.904	13.59
561.246	13.43
561.589	13.63
561.931	13.55
562.273	13.49
562.615	13.46
562.957	13.71
563.299	13.65
563.641	13.83
563.983	13.56
564.325	13.95
564.667	13.71
565.008	13.58
565.35	13.68
565.692	13.68
566.033	13.91
566.375	13.86
566.716	13.81
567.058	13.82
567.399	13.89
567.741	13.93
568.082	13.99
568.423	13.88
568.764	13.91
569.105	13.8
569.447	13.99
569.788	14.07
570.129	13.74
570.47	14.03
570.811	14.2
571.151	14.2
571.492	14.31
571.833	14.35
572.174	14.26
572.514	14.06
572.855	14.21
573.195	14.26
573.536	14.29
573.876	14.32
574.217	14.23
574.557	14.28
574.898	14.42
575.238	14.49
575.578	14.34
575.918	14.5
576.258	14.64
576.598	14.45
576.938	14.5
577.278	14.59
577.618	14.58
577.958	14.55
578.298	14.7
578.638	14.68
578.977	14.47
579.317	14.75
579.657	14.68
579.996	14.74
580.336	14.91
580.675	14.76
581.014	14.97
581.354	14.99
581.693	14.76
582.032	14.67
582.372	15.1
582.711	14.95
583.05	15.27
583.389	15.12
583.728	15.21
584.067	15.36
584.406	15.28
584.745	15.16
585.083	15.23
585.422	15.07
585.761	15.41
586.1	15.26
586.438	15.43
586.777	15.22
587.115	15.2
587.454	15.44
587.792	15.17
588.13	15.77
588.469	15.66
588.807	15.6
589.145	15.52
589.483	15.47
589.821	15.96
590.159	15.33
590.497	15.42
590.835	15.58
591.173	15.58
591.511	15.59
591.849	15.7
592.187	15.56
592.524	15.63
592.862	15.67
593.2	15.99
593.537	15.74
593.875	15.94
594.212	15.79
594.55	16.11
594.887	16.25
595.224	16.03
595.561	16.28
595.899	15.85
596.236	15.94
596.573	16.21
596.91	16.01
597.247	16
597.584	16.09
597.921	16.35
598.258	16.29
598.594	16.29
598.931	16.33
599.268	16.26
599.604	16.03
599.941	16.2
600.277	16.15
600.614	16.46
600.95	16.5
601.287	16.39
601.623	16.22
601.959	16.52
602.296	16.71
602.632	16.51
602.968	16.72
603.304	16.51
603.64	16.56
603.976	16.48
604.312	16.72
604.648	16.82
604.984	16.84
605.319	16.75
605.655	16.73
605.991	16.67
606.326	16.5
606.662	16.78
606.998	16.61
607.333	16.68
607.668	16.68
608.004	16.96
608.339	17.05
608.674	16.83
609.01	17.09
609.345	17.01
609.68	17.07
610.015	16.93
610.35	17.06
610.685	17.22
611.02	17.23
611.355	17.09
611.689	17
612.024	17.1
612.359	17.26
612.694	17.21
613.028	17.39
613.363	17.28
613.697	17.21
614.032	17.3
614.366	17.6
614.7	17.15
615.035	17.25
615.369	17.22
615.703	17.5
616.037	17.33
616.371	17.39
616.705	17.75
617.039	17.66
617.373	17.57
617.707	17.43
618.041	17.82
618.375	17.64
618.709	17.8
619.042	18.02
619.376	17.99
619.71	17.56
620.043	17.84
620.377	18.15
620.71	17.98
621.043	17.63
621.377	17.98
621.71	18.17
622.043	18.44
622.376	18.6
622.709	18.03
623.043	18.22
623.376	17.83
623.709	18.39
624.041	18.2
624.374	18.25
624.707	17.93
625.04	17.85
625.373	18.66
625.705	18.55
626.038	18.39
626.37	18.27
626.703	18.57
627.035	18.41
627.368	18.51
627.7	18.3
628.032	18.68
628.365	18.59
628.697	18.66
629.029	18.36
629.361	18.49
629.693	18.43
630.025	18.49
630.357	18.52
630.689	18.55
631.021	18.55
631.353	18.67
631.684	18.57
632.016	18.94
632.348	18.69
632.679	18.61
633.011	19.06
633.342	19.21
633.674	18.64
634.005	18.75
634.336	19.08
634.668	19.6
634.999	19.36
635.33	19.01
635.661	18.91
635.992	18.96
636.323	18.98
636.654	19.15
636.985	18.96
637.316	19.4
637.647	18.91
637.977	19.23
638.308	19.11
638.639	19.4
638.969	19.23
639.3	19.15
639.63	19.49
639.961	19.23
640.291	19.28
640.622	19.12
640.952	19.54
641.282	19.53
641.612	19.35
641.943	19.7
642.273	19.57
642.603	20.02
642.933	19.29
643.263	19.67
643.592	19.8
643.922	19.95
644.252	19.7
644.582	19.04
644.911	19.52
645.241	19.75
645.571	20.44
645.9	19.79
646.23	19.6
646.559	20.29
646.888	19.61
647.218	20.24
647.547	20.12
647.876	19.94
648.205	20.38
648.534	20.27
648.863	20.13
649.192	19.98
649.521	20.51
649.85	19.81
650.179	20
650.508	20.32
650.837	20.45
651.165	20.09
651.494	20.28
651.822	19.95
652.151	20.18
652.479	20.68
652.808	20.64
653.136	20.48
653.465	20.55
653.793	20.18
654.121	20.28
654.449	20.73
654.777	20.57
655.105	20.64
655.433	20.73
655.761	20.9
656.089	20.83
656.417	20.78
656.745	20.87
657.073	20.86
657.4	21.02
657.728	20.37
658.056	20.87
658.383	20.37
658.711	21.02
659.038	21.07
659.365	20.86
659.693	21.07
660.02	20.58
660.347	20.87
660.674	20.8
661.001	21.05
661.329	20.77
661.656	20.8
661.982	21.13
662.309	21.51
662.636	21.13
662.963	21.57
663.29	21.27
663.616	22
663.943	21.46
664.27	21.39
664.596	20.78
664.923	21.24
665.249	21.23
665.576	21.79
665.902	21.77
666.228	21.3
666.554	21.64
666.881	20.15
667.207	21.56
667.533	21.52
667.859	21.29
668.185	21.61
668.511	21.3
668.837	21.41
669.162	21.75
669.488	20.9
669.814	21.35
670.139	21.69
670.465	20.86
670.791	21.55
671.116	21.51
671.442	21.58
671.767	22.15
672.092	22.31
672.418	21.8
672.743	22.35
673.068	21.42
673.393	21.7
673.718	21.68
674.043	22.46
674.368	20.75
674.693	21.87
675.018	21.33
675.343	21.85
675.667	22.07
675.992	21.77
676.317	21.41
676.641	21.7
676.966	21.78
677.29	21.86
677.615	21.91
677.939	22.14
