Data from 0019_crown_Reflection__1__06.txt Node

Date: Thu Oct 20 20:23:46 CDT 2022
User: ToomeyLab
Spectrometer: FLMS14357
Trigger mode: 0
Integration Time (sec): 1.000000E-2
Scans to average: 100
Electric dark correction enabled: true
Nonlinearity correction enabled: false
Boxcar width: 0
XAxis mode: Wavelengths
Number of Pixels in Spectrum: 2048
>>>>>Begin Spectral Data<<<<<
189.047	26.34
189.435	26.34
189.823	26.34
190.211	292.34
190.599	137.61
190.987	-190.57
191.375	-76.3
191.763	206.91
192.151	59.64
192.538	74.32
192.926	54.75
193.314	42.04
193.702	120.97
194.089	189.68
194.477	687.17
194.864	86.21
195.252	558.82
195.639	36.29
196.027	124.71
196.414	61.64
196.801	60.98
197.189	-64.25
197.576	-208.51
197.963	-469.03
198.351	17.21
198.738	19.74
199.125	4.99
199.512	-27.27
199.899	-12.43
200.286	-45.09
200.673	-15.8
201.06	5.28
201.447	15.77
201.833	23.21
202.22	-3.17
202.607	17.46
202.994	28.68
203.38	-16.98
203.767	2.65
204.154	4.65
204.54	-17.03
204.927	6.67
205.313	3.7
205.699	1.88
206.086	-6.48
206.472	6
206.858	22.32
207.245	18.41
207.631	11.15
208.017	3.49
208.403	27.07
208.789	29.09
209.175	9.85
209.561	2.27
209.947	22.98
210.333	3.68
210.719	-4.73
211.105	-36.82
211.491	-0.79
211.876	6.81
212.262	-19.77
212.648	15.23
213.034	-14.76
213.419	14.74
213.805	-5.08
214.19	-27.99
214.576	-11.39
214.961	-14.14
215.346	-20.63
215.732	3.38
216.117	5.46
216.502	2.78
216.888	24.67
217.273	20.26
217.658	-2.7
218.043	-20.97
218.428	1.34
218.813	-28.35
219.198	19.99
219.583	9.04
219.968	-0.29
220.353	-15.24
220.738	8.85
221.122	6.99
221.507	-8.2
221.892	-9.89
222.276	5.15
222.661	4.98
223.046	15.26
223.43	7.38
223.815	-14.15
224.199	3.56
224.583	1.8
224.968	3.29
225.352	7.57
225.736	5.44
226.121	3.65
226.505	6.94
226.889	-0.91
227.273	2.79
227.657	4.6
228.041	5.62
228.425	3.8
228.809	2.99
229.193	3.61
229.577	4.12
229.961	3.44
230.344	4.33
230.728	4.99
231.112	4.4
231.495	3.98
231.879	4.88
232.263	5.65
232.646	3.51
233.03	3.41
233.413	3.19
233.797	3.97
234.18	2.34
234.563	2.25
234.946	3.83
235.33	3.52
235.713	5.52
236.096	3.92
236.479	1.74
236.862	5.71
237.245	4.11
237.628	1.51
238.011	3.5
238.394	3.6
238.777	5.02
239.16	4.68
239.543	2.64
239.925	4.14
240.308	4.61
240.691	2.68
241.073	4.19
241.456	3.25
241.838	3.82
242.221	4.16
242.603	3.93
242.986	4.12
243.368	3.7
243.75	4.11
244.133	4.24
244.515	3.81
244.897	3.78
245.279	3.27
245.661	4.02
246.043	3.72
246.425	3.29
246.807	3.81
247.189	3.66
247.571	3.59
247.953	3.3
248.335	3.58
248.717	3.63
249.098	3.58
249.48	3.61
249.862	3.62
250.243	3.62
250.625	4.52
251.006	4.76
251.388	4.46
251.769	2.74
252.151	3.85
252.532	2.92
252.913	3.24
253.295	3.1
253.676	3.34
254.057	3.81
254.438	4.25
254.819	3.7
255.2	2.48
255.581	4.88
255.962	4.27
256.343	4.85
256.724	3.19
257.105	3.88
257.486	3.76
257.867	3.59
258.247	3.4
258.628	3.06
259.009	3.46
259.389	3.14
259.77	3.62
260.15	3.52
260.531	3.48
260.911	3
261.292	3.22
261.672	3.44
262.052	3.52
262.432	3.45
262.813	3.24
263.193	3.67
263.573	3.05
263.953	2.84
264.333	3.75
264.713	3.41
265.093	3.43
265.473	3.43
265.853	3.51
266.233	3.33
266.612	2.99
266.992	4.05
267.372	3.59
267.752	3.35
268.131	3.37
268.511	3.14
268.89	3.58
269.27	3.71
269.649	3.44
270.029	4.17
270.408	2.78
270.787	2.94
271.167	3.59
271.546	2.75
271.925	3.21
272.304	3.3
272.683	3.22
273.062	3.5
273.441	3.32
273.82	3.12
274.199	3.25
274.578	3.23
274.957	3.78
275.336	3.36
275.715	2.57
276.093	3.73
276.472	3.53
276.851	2.8
277.229	2.74
277.608	3.06
277.986	2.06
278.365	2.94
278.743	3.15
279.122	3.78
279.5	2.13
279.878	3.41
280.257	3.28
280.635	3.62
281.013	3.74
281.391	2.88
281.769	3.11
282.147	3.31
282.525	3.33
282.903	2.86
283.281	2.59
283.659	2.39
284.037	3.19
284.415	3.03
284.792	2.67
285.17	3.04
285.548	3.02
285.925	3.03
286.303	3.3
286.68	3.03
287.058	2.96
287.435	2.95
287.813	2.93
288.19	3.25
288.567	2.71
288.945	3.58
289.322	2.16
289.699	3.33
290.076	3.06
290.453	3.17
290.83	2.92
291.207	3.25
291.584	2.43
291.961	2.96
292.338	2.99
292.715	2.66
293.092	3.42
293.469	3.06
293.845	2.95
294.222	2.88
294.599	3.12
294.975	2.96
295.352	3.29
295.728	2.79
296.105	3.12
296.481	3.1
296.858	3.33
297.234	3.03
297.61	2.57
297.986	2.77
298.363	2.8
298.739	3.18
299.115	3.07
299.491	3.16
299.867	2.86
300.243	2.56
300.619	3
300.995	2.98
301.371	2.72
301.746	3.17
302.122	2.85
302.498	2.89
302.874	2.93
303.249	2.79
303.625	3.03
304	3.34
304.376	2.81
304.751	3
305.127	2.34
305.502	3.02
305.878	2.89
306.253	2.46
306.628	2.97
307.003	3.22
307.378	2.98
307.754	3.24
308.129	2.78
308.504	2.75
308.879	3.07
309.254	2.93
309.629	2.9
310.003	3.71
310.378	3.13
310.753	2.81
311.128	2.66
311.502	2.81
311.877	2.8
312.252	3.08
312.626	2.54
313.001	2.81
313.375	3.2
313.75	2.88
314.124	2.96
314.498	2.77
314.873	2.71
315.247	3.29
315.621	3.02
315.995	3
316.369	2.87
316.743	3.08
317.117	2.86
317.491	3.32
317.865	3.37
318.239	3.13
318.613	3.32
318.987	3.51
319.361	3.11
319.734	3.61
320.108	2.82
320.482	2.69
320.855	2.96
321.229	3.1
321.602	3.2
321.976	2.99
322.349	2.74
322.723	3.31
323.096	2.56
323.469	2.91
323.843	3.3
324.216	3.28
324.589	3.48
324.962	3.53
325.335	2.76
325.708	3.22
326.081	3.48
326.454	2.93
326.827	2.83
327.2	3.48
327.573	3.22
327.945	3.05
328.318	3.05
328.691	2.71
329.063	2.77
329.436	2.25
329.809	2.87
330.181	3.06
330.553	2.57
330.926	2.68
331.298	2.47
331.671	3.24
332.043	3.43
332.415	3.28
332.787	3.01
333.159	2.88
333.532	3.11
333.904	2.76
334.276	3.15
334.648	3.22
335.02	3.03
335.391	2.96
335.763	2.73
336.135	3.12
336.507	3.04
336.879	3.02
337.25	2.88
337.622	2.73
337.993	3.03
338.365	3.02
338.736	3.22
339.108	2.85
339.479	3.34
339.851	3.44
340.222	2.95
340.593	2.67
340.964	3.03
341.336	3.16
341.707	2.89
342.078	3.07
342.449	3.4
342.82	3.11
343.191	2.85
343.562	3.36
343.933	2.96
344.303	3.52
344.674	2.68
345.045	3.14
345.416	3.3
345.786	3.08
346.157	2.92
346.527	3
346.898	3.09
347.268	3
347.639	2.98
348.009	2.7
348.38	3.35
348.75	2.71
349.12	2.59
349.49	3.25
349.861	3.46
350.231	3.1
350.601	3.1
350.971	3.12
351.341	3.55
351.711	3.04
352.081	3.41
352.45	2.94
352.82	2.78
353.19	2.93
353.56	3.23
353.929	3.16
354.299	2.94
354.669	3.05
355.038	2.84
355.408	2.97
355.777	2.84
356.147	3.07
356.516	3.31
356.885	3.07
357.254	3.39
357.624	3.07
357.993	2.96
358.362	3.37
358.731	3.18
359.1	3.46
359.469	3.39
359.838	3.3
360.207	3.53
360.576	3.12
360.945	2.89
361.314	3.17
361.682	3.04
362.051	3.34
362.42	2.72
362.788	3.03
363.157	3.04
363.525	3.29
363.894	3.32
364.262	3.22
364.631	3.29
364.999	2.75
365.367	2.99
365.735	2.98
366.104	3.32
366.472	3.04
366.84	2.97
367.208	3.38
367.576	3.07
367.944	3.77
368.312	3.28
368.68	3.21
369.048	3.12
369.416	3.19
369.783	3.09
370.151	3.17
370.519	3.66
370.886	3.45
371.254	3.3
371.621	3.29
371.989	3.08
372.356	3.44
372.724	3.48
373.091	3.56
373.458	3.51
373.826	3.1
374.193	2.97
374.56	3.46
374.927	3.16
375.294	3.28
375.661	3.34
376.028	3.5
376.395	3.21
376.762	3.04
377.129	3.45
377.496	3.4
377.863	3.45
378.229	3.1
378.596	3.18
378.963	3.5
379.329	3.07
379.696	3.37
380.062	3.44
380.429	3.39
380.795	2.97
381.161	3.45
381.528	3.21
381.894	3.27
382.26	3.15
382.626	3.4
382.993	3.36
383.359	3.33
383.725	3.51
384.091	3.42
384.457	3.15
384.823	3.02
385.188	3.23
385.554	3.44
385.92	3.35
386.286	3.33
386.651	3.26
387.017	3.22
387.383	3.36
387.748	3.4
388.114	3.41
388.479	3.46
388.845	3.38
389.21	3.25
389.575	3.23
389.94	3.62
390.306	3.31
390.671	3.28
391.036	3.56
391.401	3.29
391.766	3.53
392.131	3.51
392.496	2.99
392.861	3.35
393.226	3.44
393.591	3.28
393.956	3.27
394.32	3.45
394.685	3.3
395.05	3.11
395.414	3.37
395.779	3.11
396.143	3.25
396.508	3.32
396.872	3.58
397.236	3.27
397.601	3.43
397.965	3.37
398.329	3.11
398.694	3.46
399.058	3.54
399.422	3.52
399.786	3.14
400.15	3.23
400.514	3.18
400.878	3.58
401.242	3.64
401.605	3.56
401.969	3.47
402.333	3.5
402.697	3.54
403.06	3.27
403.424	3.48
403.787	3.19
404.151	3.41
404.514	3.35
404.878	3.43
405.241	3.39
405.604	3.61
405.968	3.33
406.331	3.5
406.694	3.36
407.057	3.34
407.42	3.22
407.783	3.53
408.146	3.58
408.509	3.52
408.872	3.27
409.235	3.42
409.598	3.41
409.961	3.46
410.323	3.43
410.686	3.3
411.049	3.48
411.411	3.3
411.774	3.5
412.136	3.41
412.499	3.47
412.861	3.33
413.223	3.43
413.586	3.62
413.948	3.57
414.31	3.47
414.672	3.44
415.035	3.53
415.397	3.55
415.759	3.41
416.121	3.14
416.483	3.64
416.845	3.62
417.206	3.37
417.568	3.45
417.93	3.06
418.292	3.54
418.653	3.29
419.015	3.33
419.377	3.32
419.738	3.5
420.1	3.31
420.461	3.37
420.822	3.46
421.184	3.3
421.545	3.3
421.906	3.35
422.267	3.33
422.629	3.4
422.99	3.3
423.351	3.44
423.712	3.32
424.073	3.29
424.434	3.33
424.795	3.28
425.155	3.38
425.516	3.34
425.877	3.35
426.238	3.41
426.598	3.36
426.959	3.47
427.32	3.5
427.68	3.52
428.041	3.43
428.401	3.51
428.761	3.75
429.122	3.54
429.482	3.56
429.842	3.64
430.202	3.53
430.563	3.48
430.923	3.4
431.283	3.7
431.643	3.4
432.003	3.52
432.363	3.55
432.722	3.48
433.082	3.71
433.442	3.6
433.802	3.5
434.161	3.47
434.521	3.38
434.881	3.43
435.24	3.36
435.6	3.66
435.959	3.54
436.319	3.53
436.678	3.44
437.037	3.59
437.396	3.54
437.756	3.57
438.115	3.49
438.474	3.61
438.833	3.36
439.192	3.39
439.551	3.45
439.91	3.51
440.269	3.38
440.628	3.38
440.987	3.57
441.345	3.34
441.704	3.39
442.063	3.44
442.421	3.42
442.78	3.46
443.138	3.63
443.497	3.45
443.855	3.59
444.214	3.49
444.572	3.38
444.93	3.61
445.288	3.44
445.647	3.38
446.005	3.42
446.363	3.47
446.721	3.44
447.079	3.45
447.437	3.36
447.795	3.32
448.153	3.39
448.51	3.41
448.868	3.45
449.226	3.57
449.584	3.67
449.941	3.45
450.299	3.43
450.656	3.59
451.014	3.41
451.371	3.62
451.729	3.66
452.086	3.52
452.443	3.66
452.801	3.62
453.158	3.48
453.515	3.49
453.872	3.37
454.229	3.56
454.586	3.53
454.943	3.65
455.3	3.68
455.657	3.47
456.014	3.64
456.371	3.51
456.727	3.61
457.084	3.54
457.441	3.55
457.797	3.73
458.154	3.58
458.51	3.47
458.867	3.47
459.223	3.65
459.58	3.55
459.936	3.57
460.292	3.52
460.648	3.48
461.005	3.37
461.361	3.24
461.717	3.5
462.073	3.57
462.429	3.59
462.785	3.58
463.141	3.55
463.496	3.6
463.852	3.84
464.208	3.66
464.564	3.73
464.919	3.91
465.275	3.5
465.631	3.68
465.986	3.61
466.342	3.55
466.697	3.49
467.052	3.8
467.408	3.61
467.763	3.67
468.118	3.57
468.473	3.58
468.829	3.57
469.184	3.42
469.539	3.5
469.894	3.59
470.249	3.5
470.603	3.72
470.958	3.6
471.313	3.69
471.668	3.42
472.023	3.58
472.377	3.66
472.732	3.71
473.086	3.64
473.441	3.67
473.795	3.69
474.15	3.59
474.504	3.63
474.859	3.56
475.213	3.79
475.567	3.65
475.921	3.55
476.275	3.69
476.63	3.76
476.984	3.55
477.338	3.54
477.692	3.73
478.045	3.68
478.399	3.59
478.753	3.54
479.107	3.59
479.461	3.53
479.814	3.55
480.168	3.61
480.521	3.44
480.875	3.59
481.228	3.66
481.582	3.55
481.935	3.53
482.289	3.62
482.642	3.59
482.995	3.52
483.348	3.47
483.701	3.51
484.055	3.47
484.408	3.29
484.761	3.24
485.114	3.11
485.466	3.17
485.819	3.33
486.172	3.46
486.525	3.61
486.878	3.63
487.23	3.58
487.583	3.52
487.936	3.43
488.288	3.33
488.641	3.35
488.993	3.29
489.345	3.31
489.698	3.42
490.05	3.52
490.402	3.58
490.754	3.66
491.107	3.59
491.459	3.55
491.811	3.57
492.163	3.5
492.515	3.38
492.866	3.23
493.218	3.29
493.57	3.45
493.922	3.6
494.274	3.71
494.625	3.62
494.977	3.58
495.328	3.7
495.68	3.64
496.031	3.71
496.383	3.59
496.734	3.6
497.086	3.67
497.437	3.56
497.788	3.6
498.139	3.59
498.49	3.47
498.842	3.54
499.193	3.57
499.544	3.61
499.894	3.61
500.245	3.49
500.596	3.6
500.947	3.81
501.298	3.54
501.648	3.71
501.999	3.65
502.35	3.68
502.7	3.65
503.051	3.72
503.401	3.7
503.752	3.45
504.102	3.57
504.452	3.68
504.803	3.82
505.153	3.57
505.503	3.54
505.853	3.54
506.203	3.43
506.553	3.48
506.903	3.63
507.253	3.46
507.603	3.7
507.953	3.6
508.303	3.8
508.652	3.64
509.002	3.58
509.352	3.62
509.701	3.51
510.051	3.62
510.4	3.6
510.75	3.53
511.099	3.55
511.449	3.71
511.798	3.63
512.147	3.55
512.496	3.52
512.846	3.69
513.195	3.49
513.544	3.6
513.893	3.58
514.242	3.63
514.591	3.64
514.939	3.55
515.288	3.74
515.637	3.63
515.986	3.7
516.334	3.63
516.683	3.63
517.032	3.64
517.38	3.53
517.729	3.66
518.077	3.65
518.426	3.5
518.774	3.59
519.122	3.49
519.47	3.49
519.819	3.38
520.167	3.5
520.515	3.54
520.863	3.59
521.211	3.64
521.559	3.7
521.907	3.53
522.255	3.5
522.602	3.57
522.95	3.45
523.298	3.64
523.645	3.58
523.993	3.69
524.341	3.65
524.688	3.57
525.036	3.58
525.383	3.61
525.73	3.56
526.078	3.63
526.425	3.51
526.772	3.53
527.119	3.46
527.466	3.56
527.814	3.56
528.161	3.6
528.508	3.43
528.854	3.55
529.201	3.32
529.548	3.31
529.895	3.2
530.242	3.29
530.588	3.4
530.935	3.48
531.282	3.58
531.628	3.58
531.975	3.65
532.321	3.63
532.667	3.53
533.014	3.62
533.36	3.56
533.706	3.52
534.052	3.34
534.399	3.39
534.745	3.32
535.091	3.36
535.437	3.55
535.783	3.61
536.129	3.65
536.474	3.65
536.82	3.51
537.166	3.56
537.512	3.58
537.857	3.53
538.203	3.54
538.549	3.51
538.894	3.59
539.239	3.67
539.585	3.54
539.93	3.61
540.276	3.6
540.621	3.49
540.966	3.44
541.311	3.5
541.656	3.49
542.001	3.45
542.346	3.38
542.691	3.27
543.036	3.3
543.381	3.44
543.726	3.48
544.071	3.55
544.415	3.47
544.76	3.45
545.105	3.6
545.449	3.52
545.794	3.67
546.138	3.61
546.483	3.66
546.827	3.47
547.171	3.49
547.516	3.53
547.86	3.56
548.204	3.52
548.548	3.48
548.892	3.58
549.236	3.62
549.58	3.6
549.924	3.62
550.268	3.55
550.612	3.68
550.956	3.53
551.3	3.57
551.643	3.56
551.987	3.64
552.33	3.92
552.674	3.66
553.017	3.69
553.361	3.66
553.704	3.65
554.048	3.56
554.391	3.68
554.734	3.53
555.077	3.66
555.42	3.67
555.764	3.68
556.107	3.66
556.45	3.7
556.793	3.75
557.135	3.86
557.478	3.8
557.821	3.64
558.164	3.4
558.507	3.65
558.849	3.65
559.192	3.8
559.534	3.84
559.877	3.58
560.219	3.53
560.562	3.66
560.904	3.85
561.246	3.52
561.589	3.79
561.931	3.76
562.273	3.46
562.615	3.52
562.957	3.58
563.299	3.76
563.641	3.7
563.983	3.69
564.325	3.44
564.667	3.75
565.008	3.64
565.35	3.5
565.692	3.62
566.033	3.84
566.375	3.42
566.716	3.52
567.058	3.46
567.399	3.84
567.741	3.52
568.082	3.51
568.423	3.56
568.764	3.7
569.105	3.66
569.447	3.7
569.788	3.65
570.129	3.64
570.47	3.63
570.811	3.54
571.151	3.55
571.492	3.64
571.833	3.95
572.174	3.58
572.514	3.62
572.855	3.68
573.195	3.46
573.536	3.49
573.876	3.49
574.217	3.4
574.557	3.54
574.898	3.67
575.238	3.88
575.578	3.79
575.918	3.79
576.258	3.6
576.598	3.51
576.938	3.53
577.278	3.71
577.618	3.46
577.958	3.78
578.298	3.76
578.638	3.59
578.977	3.71
579.317	3.43
579.657	3.72
579.996	3.84
580.336	3.67
580.675	3.7
581.014	3.89
581.354	3.83
581.693	3.49
582.032	3.74
582.372	3.45
582.711	3.68
583.05	3.76
583.389	3.66
583.728	3.73
584.067	3.66
584.406	3.5
584.745	3.75
585.083	3.81
585.422	3.64
585.761	3.62
586.1	3.78
586.438	3.81
586.777	3.87
587.115	3.63
587.454	3.63
587.792	3.64
588.13	3.64
588.469	3.68
588.807	3.6
589.145	3.45
589.483	3.59
589.821	3.41
590.159	3.36
590.497	3.66
590.835	3.88
591.173	3.78
591.511	3.73
591.849	3.63
592.187	3.66
592.524	3.69
592.862	3.56
593.2	3.45
593.537	3.98
593.875	3.47
594.212	3.76
594.55	3.69
594.887	3.97
595.224	3.6
595.561	3.86
595.899	3.5
596.236	3.91
596.573	3.64
596.91	3.87
597.247	3.57
597.584	3.7
597.921	3.51
598.258	3.69
598.594	3.47
598.931	3.58
599.268	3.72
599.604	3.53
599.941	3.91
600.277	3.85
600.614	3.69
600.95	3.87
601.287	3.73
601.623	3.71
601.959	3.9
602.296	3.79
602.632	3.63
602.968	3.78
603.304	3.61
603.64	3.63
603.976	3.8
604.312	3.59
604.648	3.7
604.984	3.55
605.319	3.79
605.655	3.55
605.991	3.43
606.326	3.68
606.662	3.48
606.998	3.65
607.333	3.69
607.668	3.62
608.004	3.67
608.339	3.65
608.674	3.68
609.01	3.65
609.345	3.76
609.68	4.02
610.015	3.69
610.35	3.72
610.685	3.3
611.02	3.89
611.355	3.7
611.689	3.67
612.024	3.86
612.359	3.4
612.694	3.71
613.028	3.66
613.363	3.67
613.697	3.97
614.032	4
614.366	4.03
614.7	3.78
615.035	3.8
615.369	3.48
615.703	3.7
616.037	3.96
616.371	3.64
616.705	3.96
617.039	3.98
617.373	3.54
617.707	3.74
618.041	3.85
618.375	3.62
618.709	3.97
619.042	3.9
619.376	3.64
619.71	3.79
620.043	3.77
620.377	3.77
620.71	3.59
621.043	3.94
621.377	3.8
621.71	4.04
622.043	4
622.376	3.88
622.709	3.82
623.043	3.91
623.376	3.82
623.709	3.74
624.041	3.57
624.374	3.81
624.707	3.49
625.04	3.76
625.373	4.16
625.705	3.93
626.038	3.68
626.37	3.84
626.703	3.78
627.035	3.58
627.368	3.79
627.7	3.78
628.032	3.94
628.365	3.77
628.697	3.59
629.029	3.6
629.361	3.79
629.693	3.62
630.025	3.8
630.357	3.72
630.689	3.95
631.021	3.75
631.353	3.63
631.684	3.94
632.016	3.99
632.348	3.84
632.679	4.08
633.011	3.49
633.342	3.82
633.674	3.73
634.005	3.85
634.336	4.01
634.668	3.94
634.999	3.44
635.33	3.39
635.661	3.93
635.992	3.81
636.323	4.07
636.654	3.53
636.985	3.75
637.316	3.68
637.647	3.59
637.977	3.82
638.308	3.61
638.639	3.54
638.969	3.69
639.3	3.95
639.63	4.07
639.961	4.01
640.291	3.85
640.622	3.73
640.952	4.09
641.282	4.27
641.612	4.09
641.943	3.93
642.273	4.36
642.603	3.54
642.933	4.36
643.263	3.91
643.592	3.73
643.922	3.83
644.252	4.07
644.582	3.4
644.911	3.6
645.241	3.94
645.571	4.32
645.9	3.9
646.23	3.45
646.559	3.9
646.888	3.94
647.218	3.96
647.547	4.15
647.876	4.03
648.205	4.36
648.534	3.49
648.863	3.32
649.192	4.28
649.521	4.49
649.85	4.06
650.179	3.84
650.508	3.63
650.837	3.87
651.165	3.66
651.494	4.08
651.822	3.95
652.151	3.78
652.479	4.04
652.808	4.06
653.136	4.02
653.465	3.93
653.793	3.51
654.121	4.42
654.449	4.11
654.777	3.66
655.105	3.99
655.433	4.1
655.761	3.84
656.089	3.58
656.417	4.36
656.745	3.75
657.073	3.47
657.4	3.84
657.728	4.71
658.056	3.86
658.383	4.08
658.711	4.12
659.038	4.15
659.365	3.78
659.693	4
660.02	3.67
660.347	4.12
660.674	4.05
661.001	4.16
661.329	3.93
661.656	3.95
661.982	3.68
662.309	4.09
662.636	3.76
662.963	4.2
663.29	3.82
663.616	3.84
663.943	3.41
664.27	3.96
664.596	3.51
664.923	4.24
665.249	4.25
665.576	4.2
665.902	3.98
666.228	4.81
666.554	3.75
666.881	3.95
667.207	4.29
667.533	3.92
667.859	3.77
668.185	4.04
668.511	3.71
668.837	4.02
669.162	3.43
669.488	3.93
669.814	4.11
670.139	4.36
670.465	4.18
670.791	3.54
671.116	4.45
671.442	4.24
671.767	4.27
672.092	4.2
672.418	3.89
672.743	4.02
673.068	3.72
673.393	3.65
673.718	4.16
674.043	4.75
674.368	4.11
674.693	3.78
675.018	3.32
675.343	4.24
675.667	4.26
675.992	4.17
676.317	4.3
676.641	3.46
676.966	4.87
677.29	4.15
677.615	4.16
677.939	4.31
678.264	4.22
678.588	4.23
678.912	3.17
679.236	4.49
679.56	3.81
679.885	3.77
680.209	4.24
680.532	3.27
680.856	4.32
681.18	3.26
681.504	3.57
681.828	4.69
682.152	3.93
682.475	3.72
682.799	3.63
683.122	4.17
683.446	4.41
683.769	4.31
684.093	4.25
684.416	4.72
684.739	4.27
685.062	4.73
685.386	4.51
685.709	4.13
686.032	4.67
686.355	4.84
686.678	3.68
687.001	4.22
687.324	4.57
687.646	4.99
687.969	4.3
688.292	3.82
688.614	4.52
688.937	3.93
689.26	3.99
689.582	3.83
689.904	4.63
690.227	4.89
690.549	4.14
690.871	4.32
691.194	4.01
691.516	4.21
691.838	3.94
692.16	4.57
692.482	4.34
692.804	4.63
693.126	5.08
