Data from 0019_crown_Reflection__0__05.txt Node

Date: Thu Oct 20 20:23:36 CDT 2022
User: ToomeyLab
Spectrometer: FLMS14357
Trigger mode: 0
Integration Time (sec): 1.000000E-2
Scans to average: 100
Electric dark correction enabled: true
Nonlinearity correction enabled: false
Boxcar width: 0
XAxis mode: Wavelengths
Number of Pixels in Spectrum: 2048
>>>>>Begin Spectral Data<<<<<
189.047	28.31
189.435	28.31
189.823	28.31
190.211	-3002.68
190.599	86.81
190.987	428.3
191.375	-52.9
191.763	168.03
192.151	31.82
192.538	114.79
192.926	296.9
193.314	627.64
193.702	163.99
194.089	236.92
194.477	2744.92
194.864	136.07
195.252	1036.13
195.639	-19.41
196.027	230.62
196.414	23.59
196.801	22.03
197.189	250.07
197.576	108.14
197.963	124.94
198.351	23.46
198.738	15.45
199.125	15.88
199.512	-25.04
199.899	14.53
200.286	-22.38
200.673	1.17
201.06	40.01
201.447	7.06
201.833	24.17
202.22	20.7
202.607	22.31
202.994	24.99
203.38	-2.18
203.767	10.82
204.154	-27.57
204.54	-6.42
204.927	6.54
205.313	-16.29
205.699	33.83
206.086	20.91
206.472	-0.15
206.858	8.64
207.245	25.75
207.631	-24.31
208.017	-0.02
208.403	37.22
208.789	-6.98
209.175	7.91
209.561	-10.61
209.947	27.82
210.333	21.85
210.719	35.74
211.105	-45.88
211.491	-11.23
211.876	0.74
212.262	-38.49
212.648	-4.55
213.034	-1.78
213.419	8.16
213.805	-9.57
214.19	-5.02
214.576	15.36
214.961	-2.28
215.346	-10.86
215.732	16.59
216.117	9.12
216.502	22.23
216.888	13.33
217.273	17.87
217.658	11.57
218.043	-18.7
218.428	-3.53
218.813	-7.81
219.198	9.04
219.583	9.66
219.968	-6.25
220.353	-1.23
220.738	-7.52
221.122	24.75
221.507	6.15
221.892	4.8
222.276	11.64
222.661	-9.25
223.046	7.07
223.43	2.31
223.815	-9.21
224.199	0.68
224.583	1.9
224.968	-6.96
225.352	2.95
225.736	4.07
226.121	10.38
226.505	5.24
226.889	1.47
227.273	0.5
227.657	4.61
228.041	0.34
228.425	0.25
228.809	3.42
229.193	2.65
229.577	2.7
229.961	0.35
230.344	1.29
230.728	1.7
231.112	0.96
231.495	1.9
231.879	2.63
232.263	1.14
232.646	0.86
233.03	-0.02
233.413	0.04
233.797	-1.61
234.18	-0.25
234.563	-1.48
234.946	0.13
235.33	0.23
235.713	3.97
236.096	0.35
236.479	-1.09
236.862	3.82
237.245	1.06
237.628	0.38
238.011	0.1
238.394	1.85
238.777	0.19
239.16	1.48
239.543	1.16
239.925	0.88
240.308	1.83
240.691	0.46
241.073	0
241.456	1.04
241.838	1.07
242.221	1.78
242.603	2.08
242.986	1.28
243.368	1.23
243.75	0.92
244.133	0.92
244.515	1.23
244.897	0.99
245.279	0.83
245.661	1.2
246.043	0.83
246.425	0.52
246.807	1.78
247.189	1.62
247.571	1.22
247.953	1.33
248.335	1.01
248.717	1.11
249.098	1.06
249.48	1.15
249.862	1.35
250.243	0.99
250.625	1.15
251.006	1.94
251.388	1.83
251.769	0.87
252.151	0.75
252.532	1.12
252.913	1.21
253.295	1.26
253.676	1.4
254.057	1.81
254.438	1.1
254.819	2.42
255.2	0.9
255.581	2.25
255.962	0.45
256.343	1.83
256.724	1.81
257.105	0.31
257.486	0.94
257.867	1.52
258.247	0.87
258.628	0.94
259.009	0.7
259.389	0.68
259.77	1.6
260.15	1.07
260.531	1.04
260.911	0.66
261.292	0.86
261.672	1
262.052	1.2
262.432	1.03
262.813	1.04
263.193	0.81
263.573	0.62
263.953	0.9
264.333	1.1
264.713	1.12
265.093	1.61
265.473	1.7
265.853	1.31
266.233	0.6
266.612	0.67
266.992	1.19
267.372	1.65
267.752	1.28
268.131	0.91
268.511	0.83
268.89	1.21
269.27	1.56
269.649	1.22
270.029	1.24
270.408	0.66
270.787	0.67
271.167	1.52
271.546	1.24
271.925	0.81
272.304	1.1
272.683	1.33
273.062	1.14
273.441	1.08
273.82	0.77
274.199	1.19
274.578	1.55
274.957	1.14
275.336	1.1
275.715	1.01
276.093	1.21
276.472	0.94
276.851	1.77
277.229	0.86
277.608	0.43
277.986	0.68
278.365	0.4
278.743	1.05
279.122	1.77
279.5	0.48
279.878	1.34
280.257	0.98
280.635	1.9
281.013	1.54
281.391	1.2
281.769	0.92
282.147	1.46
282.525	0.89
282.903	0.86
283.281	1.09
283.659	0.45
284.037	0.99
284.415	1.6
284.792	1.1
285.17	0.98
285.548	1.04
285.925	0.85
286.303	1.23
286.68	1.05
287.058	0.92
287.435	0.9
287.813	0.9
288.19	1.46
288.567	0.99
288.945	1.05
289.322	0.42
289.699	1.5
290.076	1.55
290.453	0.98
290.83	1.19
291.207	1.34
291.584	0.78
291.961	1.29
292.338	1
292.715	0.37
293.092	1.42
293.469	0.89
293.845	0.69
294.222	0.95
294.599	1.86
294.975	1.36
295.352	1.66
295.728	1.26
296.105	1.15
296.481	1.33
296.858	1.3
297.234	1.01
297.61	0.7
297.986	0.7
298.363	1.07
298.739	1.44
299.115	1.26
299.491	1.32
299.867	0.75
300.243	1.2
300.619	0.96
300.995	0.94
301.371	1.37
301.746	1.42
302.122	1.02
302.498	1.59
302.874	1.28
303.249	0.95
303.625	1.2
304	1.47
304.376	1.15
304.751	0.58
305.127	0.19
305.502	0.85
305.878	1.33
306.253	1.36
306.628	0.98
307.003	0.88
307.378	1.13
307.754	1.09
308.129	1.2
308.504	0.82
308.879	1.37
309.254	1.13
309.629	1.02
310.003	1.26
310.378	1
310.753	1.43
311.128	1.06
311.502	0.83
311.877	1.16
312.252	1.06
312.626	0.97
313.001	1
313.375	1.08
313.75	1.18
314.124	1.32
314.498	1
314.873	0.99
315.247	1.6
315.621	1.16
315.995	1.39
316.369	1.2
316.743	1.51
317.117	1.02
317.491	0.98
317.865	1.33
318.239	1.62
318.613	1.33
318.987	1.13
319.361	1.03
319.734	1.66
320.108	1.8
320.482	0.87
320.855	1.15
321.229	1.62
321.602	1.57
321.976	1.16
322.349	1.2
322.723	1.28
323.096	1.04
323.469	1.72
323.843	1.9
324.216	1.38
324.589	1.58
324.962	1.86
325.335	1.16
325.708	1.23
326.081	1.3
326.454	1
326.827	1.4
327.2	1.05
327.573	1.51
327.945	1.25
328.318	1.35
328.691	1.39
329.063	1.14
329.436	0.64
329.809	1.92
330.181	1.3
330.553	0.58
330.926	0.8
331.298	0.66
331.671	1.59
332.043	1.74
332.415	1.87
332.787	1.28
333.159	1.39
333.532	1.66
333.904	1.02
334.276	1.43
334.648	0.98
335.02	0.99
335.391	1.86
335.763	1.17
336.135	1.29
336.507	0.9
336.879	0.69
337.25	1.05
337.622	1.64
337.993	1.44
338.365	0.93
338.736	1.76
339.108	1.29
339.479	0.96
339.851	1.58
340.222	1.05
340.593	1.47
340.964	1.23
341.336	1.37
341.707	1.09
342.078	1.43
342.449	1.47
342.82	1.61
343.191	0.96
343.562	1.51
343.933	1
344.303	1.71
344.674	0.69
345.045	0.92
345.416	1.22
345.786	1.76
346.157	1.2
346.527	1.09
346.898	1.28
347.268	0.88
347.639	1.13
348.009	0.76
348.38	1.24
348.75	1.04
349.12	1.18
349.49	1.07
349.861	1.65
350.231	1.16
350.601	1.39
350.971	1.43
351.341	1.13
351.711	1.29
352.081	1.72
352.45	1.16
352.82	1.12
353.19	1.54
353.56	0.99
353.929	1.15
354.299	0.9
354.669	1.66
355.038	1.02
355.408	0.98
355.777	1.2
356.147	1.13
356.516	1.73
356.885	1.25
357.254	1.45
357.624	1.29
357.993	1.19
358.362	1.53
358.731	1.38
359.1	1.3
359.469	1.32
359.838	1.25
360.207	1.74
360.576	1.18
360.945	1.02
361.314	1.5
361.682	1.26
362.051	1.1
362.42	1.2
362.788	1.06
363.157	1.18
363.525	1.25
363.894	1.13
364.262	0.99
364.631	1.53
364.999	1.14
365.367	1.05
365.735	1.02
366.104	1.35
366.472	1.29
366.84	1.09
367.208	1.05
367.576	1.35
367.944	1.35
368.312	1.44
368.68	1.75
369.048	1.15
369.416	1.48
369.783	1.26
370.151	1.37
370.519	1.92
370.886	1.56
371.254	1.48
371.621	1.02
371.989	1.14
372.356	1.51
372.724	1.64
373.091	1.27
373.458	1.47
373.826	1.63
374.193	1.28
374.56	1.66
374.927	1.05
375.294	1.64
375.661	1.25
376.028	1.02
376.395	1.16
376.762	1.17
377.129	1.46
377.496	1.3
377.863	1.17
378.229	1.25
378.596	1.18
378.963	1.36
379.329	0.97
379.696	1.35
380.062	1.61
380.429	1.26
380.795	1.2
381.161	1.47
381.528	1.17
381.894	1.03
382.26	1.36
382.626	1.47
382.993	1.37
383.359	1.4
383.725	1.14
384.091	1.22
384.457	0.98
384.823	1.08
385.188	1.13
385.554	1.53
385.92	1.21
386.286	1.39
386.651	1.5
387.017	0.99
387.383	1.17
387.748	1.3
388.114	1.36
388.479	1.38
388.845	1.59
389.21	1.57
389.575	1.01
389.94	1.52
390.306	1.25
390.671	1.28
391.036	1.55
391.401	1.16
391.766	1.27
392.131	1.09
392.496	1.05
392.861	1.65
393.226	1.47
393.591	1.37
393.956	1.07
394.32	1.32
394.685	1.31
395.05	0.99
395.414	1.28
395.779	1.37
396.143	1.43
396.508	1.25
396.872	1.07
397.236	1.47
397.601	1.41
397.965	1.46
398.329	0.98
398.694	1.27
399.058	1.38
399.422	1.14
399.786	1.09
400.15	1.2
400.514	1.01
400.878	1.37
401.242	1.47
401.605	1.39
401.969	1.38
402.333	1.12
402.697	1.52
403.06	1.24
403.424	1.41
403.787	1.24
404.151	1.34
404.514	1.13
404.878	1.17
405.241	1.09
405.604	1.44
405.968	1.08
406.331	1.34
406.694	1.26
407.057	1.04
407.42	1.1
407.783	1.01
408.146	1.52
408.509	1.47
408.872	1.32
409.235	1.11
409.598	1.38
409.961	1.04
410.323	1.23
410.686	1.34
411.049	1.05
411.411	1.5
411.774	1.26
412.136	1.22
412.499	1.38
412.861	1.27
413.223	1.26
413.586	1.43
413.948	1.3
414.31	0.89
414.672	1.44
415.035	1.44
415.397	1.47
415.759	1.21
416.121	1.21
416.483	1.5
416.845	1.46
417.206	1.34
417.568	1.18
417.93	1.01
418.292	1.24
418.653	1.23
419.015	1.31
419.377	1.22
419.738	1.39
420.1	1.23
420.461	1.25
420.822	1.17
421.184	1.21
421.545	1.15
421.906	1.21
422.267	1.18
422.629	1.19
422.99	1.2
423.351	1.26
423.712	1.17
424.073	1.15
424.434	1.2
424.795	1.15
425.155	1.15
425.516	1.08
425.877	1.19
426.238	1.22
426.598	1.12
426.959	1.31
427.32	1.25
427.68	1.15
428.041	1.28
428.401	1.3
428.761	1.42
429.122	1.42
429.482	1.22
429.842	1.35
430.202	1.33
430.563	1.13
430.923	1.28
431.283	1.37
431.643	1.19
432.003	1.47
432.363	1.33
432.722	1.34
433.082	1.31
433.442	1.28
433.802	1.4
434.161	1.36
434.521	1.18
434.881	1.29
435.24	1.2
435.6	1.34
435.959	1.31
436.319	1.51
436.678	1.29
437.037	1.41
437.396	1.36
437.756	1.27
438.115	1.27
438.474	1.43
438.833	1.27
439.192	1.21
439.551	1.24
439.91	1.35
440.269	1.37
440.628	1.26
440.987	1.36
441.345	1.3
441.704	1.37
442.063	1.21
442.421	1.22
442.78	1.29
443.138	1.41
443.497	1.22
443.855	1.4
444.214	1.26
444.572	1.41
444.93	1.31
445.288	1.28
445.647	1.23
446.005	1.32
446.363	1.38
446.721	1.23
447.079	1.23
447.437	1.26
447.795	1.26
448.153	1.31
448.51	1.21
448.868	1.25
449.226	1.22
449.584	1.33
449.941	1.33
450.299	1.23
450.656	1.3
451.014	1.3
451.371	1.4
451.729	1.31
452.086	1.17
452.443	1.39
452.801	1.27
453.158	1.23
453.515	1.18
453.872	1.26
454.229	1.32
454.586	1.4
454.943	1.29
455.3	1.23
455.657	1.29
456.014	1.35
456.371	1.4
456.727	1.42
457.084	1.38
457.441	1.11
457.797	1.5
458.154	1.42
458.51	1.4
458.867	1.26
459.223	1.14
459.58	1.32
459.936	1.22
460.292	1.23
460.648	1.33
461.005	1.26
461.361	1.16
461.717	1.26
462.073	1.23
462.429	1.37
462.785	1.23
463.141	1.28
463.496	1.32
463.852	1.46
464.208	1.17
464.564	1.39
464.919	1.48
465.275	1.28
465.631	1.51
465.986	1.31
466.342	1.24
466.697	1.25
467.052	1.37
467.408	1.31
467.763	1.47
468.118	1.36
468.473	1.33
468.829	1.36
469.184	1.25
469.539	1.31
469.894	1.48
470.249	1.17
470.603	1.44
470.958	1.42
471.313	1.41
471.668	1.24
472.023	1.29
472.377	1.42
472.732	1.32
473.086	1.33
473.441	1.27
473.795	1.47
474.15	1.3
474.504	1.36
474.859	1.43
475.213	1.4
475.567	1.39
475.921	1.35
476.275	1.47
476.63	1.49
476.984	1.4
477.338	1.24
477.692	1.36
478.045	1.48
478.399	1.42
478.753	1.37
479.107	1.32
479.461	1.34
479.814	1.19
480.168	1.29
480.521	1.43
480.875	1.29
481.228	1.36
481.582	1.36
481.935	1.26
482.289	1.28
482.642	1.36
482.995	1.24
483.348	1.25
483.701	1.41
484.055	1.31
484.408	1.17
484.761	1.26
485.114	1.16
485.466	1.19
485.819	1.19
486.172	1.25
486.525	1.34
486.878	1.31
487.23	1.29
487.583	1.22
487.936	1.23
488.288	1.21
488.641	1.29
488.993	1.26
489.345	1.27
489.698	1.29
490.05	1.28
490.402	1.29
490.754	1.37
491.107	1.23
491.459	1.42
491.811	1.43
492.163	1.34
492.515	1.27
492.866	1.25
493.218	1.25
493.57	1.29
493.922	1.38
494.274	1.37
494.625	1.32
494.977	1.32
495.328	1.38
495.68	1.4
496.031	1.39
496.383	1.39
496.734	1.36
497.086	1.37
497.437	1.36
497.788	1.37
498.139	1.39
498.49	1.37
498.842	1.24
499.193	1.33
499.544	1.29
499.894	1.29
500.245	1.29
500.596	1.29
500.947	1.52
501.298	1.5
501.648	1.35
501.999	1.42
502.35	1.41
502.7	1.44
503.051	1.43
503.401	1.26
503.752	1.33
504.102	1.32
504.452	1.45
504.803	1.5
505.153	1.39
505.503	1.38
505.853	1.26
506.203	1.3
506.553	1.38
506.903	1.46
507.253	1.38
507.603	1.34
507.953	1.4
508.303	1.48
508.652	1.42
509.002	1.4
509.352	1.4
509.701	1.33
510.051	1.36
510.4	1.32
510.75	1.25
511.099	1.36
511.449	1.38
511.798	1.42
512.147	1.4
512.496	1.32
512.846	1.34
513.195	1.37
513.544	1.31
513.893	1.37
514.242	1.45
514.591	1.44
514.939	1.33
515.288	1.43
515.637	1.44
515.986	1.31
516.334	1.43
516.683	1.41
517.032	1.46
517.38	1.46
517.729	1.42
518.077	1.37
518.426	1.38
518.774	1.41
519.122	1.3
519.47	1.37
519.819	1.28
520.167	1.35
520.515	1.39
520.863	1.41
521.211	1.44
521.559	1.5
521.907	1.32
522.255	1.36
522.602	1.39
522.95	1.4
523.298	1.4
523.645	1.41
523.993	1.47
524.341	1.46
524.688	1.38
525.036	1.55
525.383	1.45
525.73	1.5
526.078	1.44
526.425	1.48
526.772	1.32
527.119	1.33
527.466	1.35
527.814	1.42
528.161	1.47
528.508	1.36
528.854	1.46
529.201	1.29
529.548	1.33
529.895	1.27
530.242	1.27
530.588	1.33
530.935	1.36
531.282	1.38
531.628	1.33
531.975	1.37
532.321	1.46
532.667	1.31
533.014	1.39
533.36	1.33
533.706	1.38
534.052	1.28
534.399	1.39
534.745	1.33
535.091	1.4
535.437	1.39
535.783	1.42
536.129	1.38
536.474	1.42
536.82	1.39
537.166	1.45
537.512	1.43
537.857	1.5
538.203	1.45
538.549	1.37
538.894	1.37
539.239	1.47
539.585	1.27
539.93	1.4
540.276	1.45
540.621	1.48
540.966	1.53
541.311	1.44
541.656	1.52
542.001	1.41
542.346	1.3
542.691	1.35
543.036	1.29
543.381	1.41
543.726	1.39
544.071	1.4
544.415	1.38
544.76	1.38
545.105	1.52
545.449	1.45
545.794	1.54
546.138	1.47
546.483	1.52
546.827	1.4
547.171	1.45
547.516	1.43
547.86	1.46
548.204	1.51
548.548	1.41
548.892	1.34
549.236	1.51
549.58	1.39
549.924	1.53
550.268	1.52
550.612	1.51
550.956	1.43
551.3	1.55
551.643	1.37
551.987	1.39
552.33	1.86
552.674	1.61
553.017	1.45
553.361	1.56
553.704	1.68
554.048	1.45
554.391	1.55
554.734	1.41
555.077	1.52
555.42	1.51
555.764	1.69
556.107	1.68
556.45	1.74
556.793	1.65
557.135	1.69
557.478	1.77
557.821	1.43
558.164	1.49
558.507	1.49
558.849	1.44
559.192	1.76
559.534	1.71
559.877	1.66
560.219	1.58
560.562	1.67
560.904	1.57
561.246	1.4
561.589	1.38
561.931	1.58
562.273	1.64
562.615	1.43
562.957	1.68
563.299	1.71
563.641	1.59
563.983	1.5
564.325	1.64
564.667	1.69
565.008	1.64
565.35	1.59
565.692	1.73
566.033	1.59
566.375	1.49
566.716	1.51
567.058	1.4
567.399	1.72
567.741	1.52
568.082	1.56
568.423	1.54
568.764	1.6
569.105	1.72
569.447	1.75
569.788	1.47
570.129	1.45
570.47	1.41
570.811	1.54
571.151	1.54
571.492	1.7
571.833	1.74
572.174	1.46
572.514	1.55
572.855	1.74
573.195	1.61
573.536	1.52
573.876	1.55
574.217	1.43
574.557	1.54
574.898	1.55
575.238	1.79
575.578	1.78
575.918	1.64
576.258	1.76
576.598	1.52
576.938	1.5
577.278	1.68
577.618	1.46
577.958	1.81
578.298	1.62
578.638	1.7
578.977	1.58
579.317	1.42
579.657	1.75
579.996	1.59
580.336	1.67
580.675	1.52
581.014	1.74
581.354	1.92
581.693	1.74
582.032	1.76
582.372	1.65
582.711	1.45
583.05	1.75
583.389	1.87
583.728	1.76
584.067	1.67
584.406	1.48
584.745	1.59
585.083	1.76
585.422	1.5
585.761	1.64
586.1	1.53
586.438	1.48
586.777	1.74
587.115	1.77
587.454	1.76
587.792	1.65
588.13	1.76
588.469	1.89
588.807	1.52
589.145	1.43
589.483	1.56
589.821	1.65
590.159	1.49
590.497	1.78
590.835	1.85
591.173	1.76
591.511	1.81
591.849	1.73
592.187	1.7
592.524	1.59
592.862	1.58
593.2	1.54
593.537	1.91
593.875	1.42
594.212	1.58
594.55	1.53
594.887	2.18
595.224	1.63
595.561	1.78
595.899	1.63
596.236	1.79
596.573	1.4
596.91	1.66
597.247	1.74
597.584	1.85
597.921	1.73
598.258	1.67
598.594	1.67
598.931	1.59
599.268	1.6
599.604	1.45
599.941	1.9
600.277	1.8
600.614	1.61
600.95	1.78
601.287	1.63
601.623	1.91
601.959	1.81
602.296	1.53
602.632	1.46
602.968	1.71
603.304	1.69
603.64	1.71
603.976	2.01
604.312	1.67
604.648	1.59
604.984	1.5
605.319	1.79
605.655	1.6
605.991	1.56
606.326	1.65
606.662	1.6
606.998	1.81
607.333	1.61
607.668	1.91
608.004	1.75
608.339	1.62
608.674	1.52
609.01	1.76
609.345	1.54
609.68	2
610.015	1.76
610.35	1.98
610.685	1.6
611.02	1.74
611.355	1.77
611.689	1.79
612.024	1.82
612.359	1.73
612.694	1.94
613.028	1.94
613.363	1.39
613.697	1.81
614.032	1.88
614.366	1.86
614.7	1.88
615.035	1.91
615.369	1.81
615.703	1.58
616.037	1.86
616.371	1.74
616.705	1.95
617.039	1.95
617.373	2.01
617.707	1.86
618.041	1.86
618.375	1.96
618.709	1.99
619.042	1.88
619.376	1.76
619.71	1.87
620.043	1.88
620.377	1.79
620.71	1.68
621.043	2.01
621.377	2.08
621.71	1.82
622.043	2.04
622.376	1.88
622.709	1.77
623.043	2.26
623.376	2.03
623.709	1.79
624.041	1.97
624.374	1.84
624.707	1.91
625.04	1.87
625.373	2.28
625.705	1.89
626.038	1.68
626.37	1.86
626.703	2
627.035	1.67
627.368	1.77
627.7	1.68
628.032	1.92
628.365	1.66
628.697	1.84
629.029	1.7
629.361	2.14
629.693	1.95
630.025	1.7
630.357	1.69
630.689	2.19
631.021	1.46
631.353	1.68
631.684	2.04
632.016	1.97
632.348	1.97
632.679	2.12
633.011	1.8
633.342	2.18
633.674	1.78
634.005	2.12
634.336	2.13
634.668	2.21
634.999	1.61
635.33	1.65
635.661	2.09
635.992	2
636.323	2.44
636.654	1.65
636.985	2.02
637.316	1.97
637.647	1.68
637.977	2.05
638.308	2.12
638.639	1.88
638.969	1.99
639.3	1.78
639.63	2.25
639.961	2.12
640.291	1.98
640.622	1.84
640.952	2.06
641.282	2.27
641.612	2.03
641.943	1.9
642.273	2.49
642.603	1.85
642.933	2.18
643.263	1.53
643.592	1.74
643.922	1.85
644.252	2.26
644.582	1.99
644.911	1.58
645.241	2.53
645.571	1.8
645.9	2.18
646.23	1.78
646.559	1.95
646.888	1.91
647.218	2.12
647.547	2.13
647.876	2.09
648.205	2.23
648.534	2.08
648.863	1.62
649.192	2.11
649.521	2.67
649.85	2.28
650.179	2.36
650.508	2.1
650.837	2.09
651.165	1.5
651.494	2.2
651.822	2.17
652.151	1.89
652.479	2.27
652.808	2.62
653.136	1.82
653.465	1.62
653.793	1.82
654.121	2.29
654.449	2.14
654.777	1.61
655.105	2.54
655.433	2.15
655.761	2.17
656.089	2.12
656.417	2.17
656.745	1.93
657.073	2.24
657.4	2.08
657.728	2.6
658.056	2.65
658.383	2.17
658.711	2.04
659.038	2.36
659.365	2.12
659.693	1.91
660.02	1.9
660.347	2.1
660.674	2.01
661.001	2.24
661.329	1.96
661.656	1.94
661.982	1.83
662.309	2.26
662.636	2.03
662.963	2.09
663.29	1.73
663.616	1.84
663.943	1.96
664.27	2.38
664.596	1.97
664.923	1.71
665.249	1.96
665.576	2.3
665.902	1.87
666.228	2.89
666.554	1.79
666.881	1.88
667.207	2.23
667.533	2.5
667.859	2.29
668.185	2.16
668.511	2.18
668.837	2.16
669.162	2.39
669.488	2.3
669.814	2.44
670.139	2.38
670.465	2.07
670.791	1.51
671.116	2.29
671.442	2.48
671.767	2.86
672.092	2.21
672.418	1.78
672.743	2.75
673.068	1.49
673.393	1.22
673.718	1.9
674.043	2.12
674.368	2.54
674.693	1.88
675.018	2.32
675.343	2.06
675.667	2.62
675.992	2.67
676.317	2.63
676.641	1.51
676.966	2.99
677.29	1.86
677.615	2.02
677.939	2.87
678.264	2.22
678.588	2.77
678.912	1.89
679.236	2.67
679.56	1.64
679.885	2.36
680.209	2.34
680.532	1.69
680.856	2.31
681.18	1.92
681.504	1.8
681.828	2.88
682.152	1.91
682.475	1.84
682.799	1.89
683.122	2.22
683.446	2.52
683.769	2.7
684.093	2.56
684.416	3.11
684.739	2.39
685.062	2.4
685.386	2.91
685.709	2.97
686.032	2.39
686.355	2.73
686.678	1.82
687.001	2.23
687.324	2.5
687.646	2.94
687.969	2.38
688.292	2.01
688.614	2.18
688.937	1.9
689.26	2.12
689.582	1.93
689.904	1.87
690.227	2.31
690.549	1.89
690.871	2.31
691.194	2.36
691.516	2.74
691.838	2.62
692.16	2.45
692.482	2.48
692.804	2.93
