Data from 0019_chest_Reflection__2__02.txt Node

Date: Thu Oct 20 20:21:52 CDT 2022
User: ToomeyLab
Spectrometer: FLMS14357
Trigger mode: 0
Integration Time (sec): 1.000000E-2
Scans to average: 100
Electric dark correction enabled: true
Nonlinearity correction enabled: false
Boxcar width: 0
XAxis mode: Wavelengths
Number of Pixels in Spectrum: 2048
>>>>>Begin Spectral Data<<<<<
189.047	117.6
189.435	117.6
189.823	117.6
190.211	-3018.77
190.599	100.16
190.987	1284.91
191.375	-36.45
191.763	-227.02
192.151	91.81
192.538	-71.63
192.926	311.82
193.314	-371.02
193.702	43.34
194.089	139.71
194.477	80.75
194.864	141.7
195.252	984.03
195.639	97.36
196.027	149.74
196.414	5.62
196.801	-53.34
197.189	103.69
197.576	-137.24
197.963	-110.27
198.351	27.91
198.738	16.15
199.125	45.58
199.512	36.43
199.899	11.17
200.286	-12.37
200.673	22.92
201.06	70.54
201.447	19.27
201.833	18.21
202.22	0.79
202.607	16.65
202.994	26.87
203.38	-29.36
203.767	0.13
204.154	-3.52
204.54	-0.77
204.927	41.4
205.313	17.72
205.699	16.38
206.086	28.58
206.472	17.83
206.858	-3.37
207.245	14.63
207.631	0.42
208.017	9.46
208.403	20.99
208.789	-3.45
209.175	24.53
209.561	-5.98
209.947	16.82
210.333	12.76
210.719	18.4
211.105	-12.84
211.491	-5.8
211.876	10.28
212.262	-23.67
212.648	-19.39
213.034	13.91
213.419	34.69
213.805	5.39
214.19	3.38
214.576	21.75
214.961	5.99
215.346	-2.78
215.732	22.66
216.117	8.4
216.502	18.5
216.888	39.25
217.273	23.39
217.658	22.88
218.043	2.35
218.428	0.53
218.813	5.8
219.198	28.72
219.583	31.73
219.968	8.74
220.353	-1.34
220.738	-2.78
221.122	13.04
221.507	7.1
221.892	7.08
222.276	13.74
222.661	-1.58
223.046	4.29
223.43	5.04
223.815	-3.21
224.199	3.76
224.583	2.53
224.968	8.23
225.352	6.84
225.736	0.85
226.121	7.89
226.505	6.81
226.889	7.22
227.273	2.26
227.657	2.58
228.041	-2.88
228.425	5.8
228.809	3.89
229.193	3.33
229.577	2.68
229.961	1.4
230.344	2.43
230.728	3.02
231.112	2.84
231.495	2.89
231.879	1.73
232.263	2.65
232.646	2.82
233.03	1.45
233.413	3.54
233.797	1.14
234.18	0.59
234.563	1.69
234.946	1.99
235.33	1.69
235.713	3.81
236.096	1.96
236.479	0.31
236.862	4.04
237.245	1.53
237.628	-0.43
238.011	1.43
238.394	1.48
238.777	1.96
239.16	1.7
239.543	3.5
239.925	3.26
240.308	2.74
240.691	2.22
241.073	2.81
241.456	2.43
241.838	1.82
242.221	3.97
242.603	2.99
242.986	3.05
243.368	3.12
243.75	2.27
244.133	2.57
244.515	2.59
244.897	2.51
245.279	2.51
245.661	2.01
246.043	2.33
246.425	2.88
246.807	2.91
247.189	2.67
247.571	2.55
247.953	2.73
248.335	2.5
248.717	2.72
249.098	2.46
249.48	2.66
249.862	2.76
250.243	2.62
250.625	2.94
251.006	3.58
251.388	3.34
251.769	2.45
252.151	3.42
252.532	3.19
252.913	2.83
253.295	2.8
253.676	3.16
254.057	3.37
254.438	3.36
254.819	3.93
255.2	2.27
255.581	3.15
255.962	3.51
256.343	4.35
256.724	3.05
257.105	2.95
257.486	2.2
257.867	2.23
258.247	2.28
258.628	2.16
259.009	2.34
259.389	2.14
259.77	2.76
260.15	2.51
260.531	2.66
260.911	2.34
261.292	2.39
261.672	2.44
262.052	2.66
262.432	3
262.813	2.96
263.193	3.05
263.573	2.44
263.953	2.62
264.333	3.32
264.713	2.81
265.093	2.87
265.473	3.32
265.853	2.92
266.233	2.25
266.612	2.37
266.992	3.28
267.372	3.23
267.752	2.31
268.131	1.86
268.511	2
268.89	3.18
269.27	3.2
269.649	2.66
270.029	2.89
270.408	2.2
270.787	2.47
271.167	3.12
271.546	2.39
271.925	2.7
272.304	2.6
272.683	2.55
273.062	2.79
273.441	3.05
273.82	2.22
274.199	2.33
274.578	2.57
274.957	3.09
275.336	2.58
275.715	1.79
276.093	2.83
276.472	2.66
276.851	2.56
277.229	1.95
277.608	1.89
277.986	2.14
278.365	2.48
278.743	2.35
279.122	3.31
279.5	1.77
279.878	2.6
280.257	2.76
280.635	2.52
281.013	2.92
281.391	2.86
281.769	2.6
282.147	2.85
282.525	2.55
282.903	2.48
283.281	2.31
283.659	2.29
284.037	2.63
284.415	2.72
284.792	2.41
285.17	2.78
285.548	2.42
285.925	2.39
286.303	2.7
286.68	2.33
287.058	2.83
287.435	2.23
287.813	2.25
288.19	2.61
288.567	2.39
288.945	2.91
289.322	2.38
289.699	3.07
290.076	2.85
290.453	2.44
290.83	2.63
291.207	2.71
291.584	2.13
291.961	2.69
292.338	2.62
292.715	2.4
293.092	2.72
293.469	3.13
293.845	3.11
294.222	2.55
294.599	3.44
294.975	2.72
295.352	3.5
295.728	3.52
296.105	3.23
296.481	2.7
296.858	3.25
297.234	3.08
297.61	2.72
297.986	2.67
298.363	3.02
298.739	2.95
299.115	3.11
299.491	3.55
299.867	2.88
300.243	2.86
300.619	3.51
300.995	3.07
301.371	2.9
301.746	3.22
302.122	2.85
302.498	3.32
302.874	3.42
303.249	3.33
303.625	3.43
304	3.16
304.376	3.5
304.751	2.81
305.127	2.24
305.502	3.25
305.878	3.77
306.253	3.56
306.628	3.25
307.003	3.39
307.378	3.88
307.754	3.76
308.129	3.58
308.504	3.2
308.879	3.62
309.254	3.67
309.629	3.62
310.003	3.53
310.378	3.58
310.753	3.8
311.128	3.17
311.502	3.27
311.877	3.47
312.252	3.67
312.626	3.61
313.001	3.44
313.375	4.07
313.75	3.75
314.124	3.64
314.498	3.39
314.873	3.88
315.247	3.52
315.621	3.66
315.995	3.68
316.369	3.86
316.743	3.63
317.117	4.27
317.491	3.25
317.865	4.31
318.239	3.91
318.613	4.04
318.987	4.45
319.361	4.27
319.734	4.58
320.108	4.18
320.482	4.19
320.855	4.27
321.229	4.27
321.602	4.41
321.976	4.36
322.349	3.91
322.723	4.44
323.096	3.85
323.469	3.75
323.843	4.38
324.216	4.06
324.589	3.95
324.962	4.4
325.335	3.67
325.708	3.92
326.081	4.3
326.454	3.68
326.827	4
327.2	4.28
327.573	4.92
327.945	4.08
328.318	3.96
328.691	3.82
329.063	3.61
329.436	3.37
329.809	4.38
330.181	4.59
330.553	3.83
330.926	4.17
331.298	3.28
331.671	4.45
332.043	4.59
332.415	4.12
332.787	4.39
333.159	3.97
333.532	3.88
333.904	3.9
334.276	4.07
334.648	4.11
335.02	4.17
335.391	4.35
335.763	4.21
336.135	4.02
336.507	4.14
336.879	4.07
337.25	3.88
337.622	3.99
337.993	4.65
338.365	3.92
338.736	4.54
339.108	4.1
339.479	4.74
339.851	4.31
340.222	3.59
340.593	3.76
340.964	4.08
341.336	4.24
341.707	4.06
342.078	3.89
342.449	4.31
342.82	3.94
343.191	4.19
343.562	4.46
343.933	4.25
344.303	4.59
344.674	3.35
345.045	3.73
345.416	4.17
345.786	4.35
346.157	3.62
346.527	3.79
346.898	4.06
347.268	4.1
347.639	4.23
348.009	3.92
348.38	4.26
348.75	3.7
349.12	4.32
349.49	4.18
349.861	4.35
350.231	4.05
350.601	4.09
350.971	3.7
351.341	4.21
351.711	4.09
352.081	4.65
352.45	3.95
352.82	4.1
353.19	4.54
353.56	4.02
353.929	4.61
354.299	3.85
354.669	4.3
355.038	4.05
355.408	3.85
355.777	4.13
356.147	4.07
356.516	4.34
356.885	4.1
357.254	4.46
357.624	3.99
357.993	4.21
358.362	3.97
358.731	4.04
359.1	4.43
359.469	4.67
359.838	4.42
360.207	4.64
360.576	3.89
360.945	3.85
361.314	4.36
361.682	3.91
362.051	4.1
362.42	4.1
362.788	4.16
363.157	4.03
363.525	4.32
363.894	4.06
364.262	4.17
364.631	4.32
364.999	4.08
365.367	3.96
365.735	4.35
366.104	4.42
366.472	3.95
366.84	4.15
367.208	4.13
367.576	4.21
367.944	4.51
368.312	4.67
368.68	4.6
369.048	4.08
369.416	4.29
369.783	4.28
370.151	4.44
370.519	4.39
370.886	4.46
371.254	4.61
371.621	4.34
371.989	4.09
372.356	4.44
372.724	4.82
373.091	4.57
373.458	4.4
373.826	4.68
374.193	4.07
374.56	4.59
374.927	4.77
375.294	4.47
375.661	4.71
376.028	4.64
376.395	4.22
376.762	4.4
377.129	4.41
377.496	4.37
377.863	4.4
378.229	4.38
378.596	4.4
378.963	4.42
379.329	4.18
379.696	4.36
380.062	4.67
380.429	4.6
380.795	4.16
381.161	4.3
381.528	3.94
381.894	4.09
382.26	4.27
382.626	4.59
382.993	4.81
383.359	4.35
383.725	4.51
384.091	4.6
384.457	4.03
384.823	4.44
385.188	4.52
385.554	4.52
385.92	4.29
386.286	4.47
386.651	4.51
387.017	4.2
387.383	4.21
387.748	4.11
388.114	4.25
388.479	4.63
388.845	4.6
389.21	4.49
389.575	4.49
389.94	4.73
390.306	4.24
390.671	4.32
391.036	4.62
391.401	4.36
391.766	4.79
392.131	4.46
392.496	4.44
392.861	4.38
393.226	4.41
393.591	4.15
393.956	4.46
394.32	4.55
394.685	4.47
395.05	4.22
395.414	4.46
395.779	4.21
396.143	4.5
396.508	4.43
396.872	4.55
397.236	4.77
397.601	4.69
397.965	4.73
398.329	4.35
398.694	4.39
399.058	4.83
399.422	4.52
399.786	4.58
400.15	4.47
400.514	4.47
400.878	4.71
401.242	4.7
401.605	4.57
401.969	4.6
402.333	4.42
402.697	4.82
403.06	4.45
403.424	4.67
403.787	4.39
404.151	4.56
404.514	4.43
404.878	4.43
405.241	4.49
405.604	4.78
405.968	4.39
406.331	4.67
406.694	4.61
407.057	4.53
407.42	4.62
407.783	4.55
408.146	4.67
408.509	4.79
408.872	4.8
409.235	4.56
409.598	4.72
409.961	4.54
410.323	4.75
410.686	4.57
411.049	4.62
411.411	4.64
411.774	4.65
412.136	4.62
412.499	4.8
412.861	4.75
413.223	4.67
413.586	4.71
413.948	4.81
414.31	4.8
414.672	4.73
415.035	4.74
415.397	4.77
415.759	4.69
416.121	4.42
416.483	5.04
416.845	4.88
417.206	4.65
417.568	4.75
417.93	4.35
418.292	4.7
418.653	4.62
419.015	4.66
419.377	4.62
419.738	4.69
420.1	4.63
420.461	4.74
420.822	4.78
421.184	4.75
421.545	4.61
421.906	4.61
422.267	4.49
422.629	4.77
422.99	4.68
423.351	4.61
423.712	4.59
424.073	4.61
424.434	4.59
424.795	4.65
425.155	4.65
425.516	4.56
425.877	4.6
426.238	4.74
426.598	4.6
426.959	4.7
427.32	4.69
427.68	4.78
428.041	4.91
428.401	5.01
428.761	4.9
429.122	4.87
429.482	5.07
429.842	4.86
430.202	4.96
430.563	4.82
430.923	4.81
431.283	4.99
431.643	4.84
432.003	4.98
432.363	4.83
432.722	4.93
433.082	4.99
433.442	5.01
433.802	4.85
434.161	4.89
434.521	4.88
434.881	4.84
435.24	4.84
435.6	4.82
435.959	5.05
436.319	4.97
436.678	4.96
437.037	5.07
437.396	4.96
437.756	4.99
438.115	4.97
438.474	5.06
438.833	4.83
439.192	4.9
439.551	4.95
439.91	5.06
440.269	5.02
440.628	4.9
440.987	5.06
441.345	4.95
441.704	5.02
442.063	4.98
442.421	5.01
442.78	4.95
443.138	5.02
443.497	5.1
443.855	5.18
444.214	5.05
444.572	5.02
444.93	5.04
445.288	5.04
445.647	4.96
446.005	4.98
446.363	5.01
446.721	4.97
447.079	4.94
447.437	5.05
447.795	4.92
448.153	5.02
448.51	4.94
448.868	5
449.226	5.03
449.584	5.18
449.941	5.1
450.299	5.09
450.656	5.21
451.014	5.18
451.371	5.27
451.729	5.16
452.086	5.07
452.443	5.21
452.801	5.21
453.158	5.19
453.515	5.07
453.872	5.02
454.229	5.09
454.586	5.4
454.943	5.34
455.3	5.27
455.657	5.23
456.014	5.37
456.371	5.34
456.727	5.41
457.084	5.22
457.441	5.3
457.797	5.37
458.154	5.19
458.51	5.27
458.867	5.15
459.223	5.19
459.58	5.31
459.936	5.27
460.292	5.27
460.648	5.32
461.005	5.09
461.361	5.02
461.717	5.24
462.073	5.22
462.429	5.34
462.785	5.3
463.141	5.33
463.496	5.34
463.852	5.62
464.208	5.33
464.564	5.43
464.919	5.57
465.275	5.32
465.631	5.26
465.986	5.49
466.342	5.52
466.697	5.2
467.052	5.57
467.408	5.5
467.763	5.35
468.118	5.61
468.473	5.35
468.829	5.49
469.184	5.34
469.539	5.56
469.894	5.43
470.249	5.34
470.603	5.63
470.958	5.49
471.313	5.61
471.668	5.41
472.023	5.48
472.377	5.62
472.732	5.69
473.086	5.45
473.441	5.54
473.795	5.69
474.15	5.42
474.504	5.38
474.859	5.44
475.213	5.56
475.567	5.51
475.921	5.57
476.275	5.58
476.63	5.66
476.984	5.55
477.338	5.65
477.692	5.7
478.045	5.67
478.399	5.74
478.753	5.64
479.107	5.54
479.461	5.47
479.814	5.39
480.168	5.57
480.521	5.52
480.875	5.55
481.228	5.52
481.582	5.62
481.935	5.46
482.289	5.75
482.642	5.62
482.995	5.49
483.348	5.6
483.701	5.6
484.055	5.53
484.408	5.43
484.761	5.24
485.114	5.13
485.466	5.17
485.819	5.3
486.172	5.41
486.525	5.55
486.878	5.54
487.23	5.52
487.583	5.58
487.936	5.53
488.288	5.41
488.641	5.41
488.993	5.39
489.345	5.41
489.698	5.48
490.05	5.57
490.402	5.64
490.754	5.68
491.107	5.72
491.459	5.7
491.811	5.79
492.163	5.66
492.515	5.52
492.866	5.46
493.218	5.43
493.57	5.64
493.922	5.75
494.274	5.81
494.625	5.88
494.977	5.88
495.328	6.04
495.68	5.93
496.031	6.15
496.383	5.96
496.734	6.06
497.086	5.91
497.437	5.98
497.788	5.83
498.139	5.82
498.49	5.83
498.842	5.9
499.193	5.89
499.544	6.04
499.894	5.95
500.245	5.97
500.596	5.99
500.947	6.09
501.298	6.06
501.648	6.13
501.999	6.05
502.35	6.09
502.7	6.24
503.051	6.17
503.401	6.05
503.752	6.12
504.102	6.01
504.452	6.12
504.803	6.3
505.153	6.04
505.503	6.1
505.853	6.17
506.203	6.11
506.553	6.11
506.903	6.16
507.253	6.16
507.603	6.25
507.953	6.19
508.303	6.41
508.652	6.24
509.002	6.3
509.352	6.22
509.701	6.19
510.051	6.18
510.4	6.18
510.75	6.11
511.099	6.22
511.449	6.14
511.798	6.28
512.147	6.24
512.496	6.29
512.846	6.29
513.195	6.23
513.544	6.31
513.893	6.26
514.242	6.37
514.591	6.4
514.939	6.33
515.288	6.5
515.637	6.32
515.986	6.45
516.334	6.47
516.683	6.46
517.032	6.49
517.38	6.26
517.729	6.53
518.077	6.38
518.426	6.42
518.774	6.51
519.122	6.39
519.47	6.42
519.819	6.32
520.167	6.3
520.515	6.46
520.863	6.46
521.211	6.52
521.559	6.64
521.907	6.43
522.255	6.72
522.602	6.67
522.95	6.55
523.298	6.69
523.645	6.6
523.993	6.76
524.341	6.64
524.688	6.69
525.036	6.78
525.383	6.67
525.73	6.63
526.078	6.63
526.425	6.61
526.772	6.54
527.119	6.51
527.466	6.57
527.814	6.62
528.161	6.83
528.508	6.76
528.854	6.63
529.201	6.54
529.548	6.4
529.895	6.28
530.242	6.41
530.588	6.48
530.935	6.58
531.282	6.69
531.628	6.67
531.975	6.8
532.321	6.89
532.667	6.74
533.014	6.79
533.36	6.94
533.706	6.83
534.052	6.69
534.399	6.6
534.745	6.61
535.091	6.79
535.437	6.9
535.783	6.93
536.129	7.06
536.474	6.98
536.82	7.09
537.166	7.18
537.512	7.06
537.857	6.95
538.203	7.01
538.549	6.97
538.894	7.08
539.239	7.2
539.585	7.08
539.93	7.12
540.276	7.16
540.621	7.27
540.966	7.22
541.311	7.16
541.656	7.28
542.001	7.04
542.346	6.98
542.691	6.88
543.036	6.96
543.381	7.05
543.726	7.12
544.071	7.16
544.415	7.23
544.76	7.31
545.105	7.33
545.449	7.34
545.794	7.43
546.138	7.5
546.483	7.47
546.827	7.49
547.171	7.27
547.516	7.53
547.86	7.49
548.204	7.38
548.548	7.43
548.892	7.55
549.236	7.56
549.58	7.65
549.924	7.61
550.268	7.79
550.612	7.78
550.956	7.69
551.3	7.79
551.643	7.73
551.987	7.73
552.33	8.02
552.674	7.84
553.017	7.66
553.361	7.81
553.704	7.94
554.048	7.78
554.391	7.82
554.734	7.96
555.077	8.01
555.42	7.89
555.764	7.82
556.107	7.94
556.45	8.12
556.793	8.01
557.135	8.16
557.478	8.2
557.821	8.12
558.164	7.87
558.507	8.16
558.849	7.88
559.192	8.34
559.534	8.34
559.877	8.07
560.219	8.21
560.562	8.33
560.904	8.43
561.246	8.11
561.589	8.17
561.931	8.36
562.273	8.21
562.615	8.34
562.957	8.56
563.299	8.57
563.641	8.33
563.983	8.53
564.325	8.22
564.667	8.43
565.008	8.42
565.35	8.47
565.692	8.64
566.033	8.58
566.375	8.33
566.716	8.36
567.058	8.52
567.399	8.59
567.741	8.51
568.082	8.44
568.423	8.54
568.764	8.74
569.105	8.7
569.447	8.8
569.788	8.91
570.129	8.86
570.47	8.68
570.811	8.81
571.151	8.72
571.492	8.78
571.833	9
572.174	8.82
572.514	8.76
572.855	8.82
573.195	8.89
573.536	8.76
573.876	8.67
574.217	8.78
574.557	8.96
574.898	8.94
575.238	9.12
575.578	9.09
575.918	9.12
576.258	9.05
576.598	8.98
576.938	9.02
577.278	9.17
577.618	9.21
577.958	9.41
578.298	9.44
578.638	9.16
578.977	9.1
579.317	9.11
579.657	9.37
579.996	9.48
580.336	9.26
580.675	9.34
581.014	9.63
581.354	9.51
581.693	9.57
582.032	9.62
582.372	9.58
582.711	9.51
583.05	9.78
583.389	9.75
583.728	9.73
584.067	9.65
584.406	9.49
584.745	9.8
585.083	9.76
585.422	9.79
585.761	9.95
586.1	9.87
586.438	9.85
586.777	9.92
587.115	9.7
587.454	10.1
587.792	9.61
588.13	9.93
588.469	10.04
588.807	9.77
589.145	9.94
589.483	9.9
589.821	9.73
590.159	9.82
590.497	9.8
590.835	10.14
591.173	10.12
591.511	10.15
591.849	10.16
592.187	9.94
592.524	10.21
592.862	10.13
593.2	9.99
593.537	10.43
593.875	9.85
594.212	10.47
594.55	10.1
594.887	10.43
595.224	10.08
595.561	10.25
595.899	10.13
596.236	10.38
596.573	10.19
596.91	10.46
597.247	10.52
597.584	10.48
597.921	10.44
598.258	10.37
598.594	10.36
598.931	10.56
599.268	10.58
599.604	10.39
599.941	10.86
600.277	10.86
600.614	10.6
600.95	11.01
601.287	10.5
601.623	10.74
601.959	10.65
602.296	10.84
602.632	10.73
602.968	10.99
603.304	10.95
603.64	10.8
603.976	10.77
604.312	10.89
604.648	10.83
604.984	10.66
605.319	10.82
605.655	10.58
605.991	10.6
606.326	10.85
606.662	10.85
606.998	11.04
607.333	10.94
607.668	11.07
608.004	11.35
608.339	11.26
608.674	11.16
609.01	11.23
609.345	11.1
609.68	11.38
610.015	11.04
610.35	11.45
610.685	10.9
611.02	11.1
611.355	11.25
611.689	11.33
612.024	11.5
612.359	11.37
612.694	11.59
613.028	11.36
613.363	11.3
613.697	11.59
614.032	11.45
614.366	11.76
614.7	11.66
615.035	11.78
615.369	11.75
615.703	11.58
616.037	11.78
616.371	11.8
616.705	11.98
617.039	12.13
617.373	12.08
617.707	11.53
618.041	11.86
618.375	11.54
618.709	11.84
619.042	11.86
619.376	11.86
619.71	12.11
620.043	11.86
620.377	12.07
620.71	11.8
621.043	12.14
621.377	12.21
621.71	12.17
622.043	12.23
622.376	12.17
622.709	12.14
623.043	12.54
623.376	12.12
623.709	12.4
624.041	12.07
624.374	12.63
624.707	11.86
625.04	12.36
625.373	12.5
625.705	12.14
626.038	12.45
626.37	12.26
626.703	12.36
627.035	12.73
627.368	12.21
627.7	12.65
628.032	12.47
628.365	12.26
628.697	12.34
629.029	12.28
629.361	12.52
629.693	12.54
630.025	12.53
630.357	12.5
630.689	12.79
631.021	12.64
631.353	12.78
631.684	12.54
632.016	13.07
632.348	12.78
632.679	13.31
633.011	12.6
633.342	13.14
633.674	12.64
634.005	13.14
634.336	13.02
634.668	12.77
634.999	12.61
635.33	12.4
635.661	12.93
635.992	12.76
636.323	13.7
636.654	12.97
636.985	12.84
637.316	12.96
637.647	12.94
637.977	13.08
638.308	13.2
638.639	13.19
638.969	13.22
639.3	13.08
639.63	13.79
639.961	13.47
640.291	13.34
640.622	13.52
640.952	13.36
641.282	13.38
641.612	13.13
641.943	13.49
642.273	13.87
642.603	13.41
642.933	13.69
643.263	13
643.592	13.38
643.922	13.62
644.252	13.66
644.582	13.52
644.911	13.48
645.241	14.1
645.571	13.46
645.9	13.86
646.23	13.56
646.559	14.32
646.888	13.96
647.218	13.76
647.547	13.9
647.876	14
648.205	14.24
648.534	13.88
648.863	13.89
649.192	13.64
649.521	14.37
649.85	14.44
650.179	14.16
650.508	13.77
650.837	14.23
651.165	14.23
651.494	14.67
651.822	14.25
652.151	13.75
652.479	14.05
652.808	14.5
653.136	13.76
653.465	13.92
653.793	14.29
654.121	14.33
654.449	14.51
654.777	14.12
655.105	14.68
655.433	14.53
655.761	15.06
656.089	14.64
656.417	14.71
656.745	14
657.073	14.5
657.4	14.41
657.728	14.41
658.056	14.54
658.383	14.68
658.711	14.55
659.038	14.42
659.365	14.73
659.693	14.54
660.02	14.31
660.347	14.68
660.674	14.3
661.001	14.7
661.329	14.59
661.656	14.6
661.982	14.77
662.309	14.72
662.636	14.85
662.963	14.58
663.29	14.43
663.616	15.32
663.943	14.77
664.27	14.51
664.596	15
664.923	14.69
665.249	14.54
665.576	15.15
665.902	15.47
666.228	15.62
666.554	14.52
666.881	14.68
667.207	15.18
667.533	15.96
667.859	15.13
668.185	15.28
668.511	14.98
668.837	15.7
669.162	14.88
669.488	14.98
669.814	15.51
670.139	15.24
670.465	15.61
670.791	15.05
671.116	15.95
671.442	15.77
671.767	15.68
672.092	15.5
672.418	15.23
672.743	15.58
673.068	15.69
673.393	15.69
673.718	15.73
674.043	16.15
674.368	15.55
674.693	15.33
675.018	15.82
675.343	15.68
675.667	16.01
675.992	15.98
676.317	15.63
676.641	15.12
676.966	16.62
677.29	15.66
677.615	15.83
677.939	15.77
678.264	16.35
678.588	15.9
678.912	15.34
679.236	16.33
679.56	15.7
679.885	16.07
680.209	16.06
680.532	15.72
680.856	15.81
681.18	15.36
681.504	15.35
681.828	16.42
682.152	15.74
682.475	16.23
682.799	16.13
683.122	16.41
683.446	16.75
683.769	15.81
684.093	16.88
684.416	16.28
684.739	16.76
685.062	16.94
685.386	16.89
685.709	16.99
686.032	17.42
