Data from 0019_forehead_Reflection__2__12.txt Node

Date: Thu Oct 20 20:25:11 CDT 2022
User: ToomeyLab
Spectrometer: FLMS14357
Trigger mode: 0
Integration Time (sec): 1.000000E-2
Scans to average: 100
Electric dark correction enabled: true
Nonlinearity correction enabled: false
Boxcar width: 0
XAxis mode: Wavelengths
Number of Pixels in Spectrum: 2048
>>>>>Begin Spectral Data<<<<<
189.047	52.07
189.435	52.07
189.823	52.07
190.211	-272.03
190.599	112.49
190.987	6569.81
191.375	-51.38
191.763	-60.53
192.151	117.84
192.538	-11.67
192.926	276.42
193.314	275.04
193.702	139.07
194.089	21.41
194.477	1474.87
194.864	90.57
195.252	1078.43
195.639	-28.39
196.027	98.27
196.414	-4.96
196.801	-80.42
197.189	100.53
197.576	276.94
197.963	-25.59
198.351	40.12
198.738	31.94
199.125	25.53
199.512	35.66
199.899	88.5
200.286	-10.16
200.673	41.85
201.06	47.69
201.447	3.31
201.833	93.61
202.22	19.04
202.607	23.27
202.994	32.42
203.38	56.95
203.767	11.39
204.154	0.5
204.54	39.04
204.927	16.38
205.313	35.3
205.699	66
206.086	35.28
206.472	27.76
206.858	50.83
207.245	52.8
207.631	-0.68
208.017	36.34
208.403	26.41
208.789	8.82
209.175	69.73
209.561	5.33
209.947	41.48
210.333	17.41
210.719	15.99
211.105	3.04
211.491	2.68
211.876	46.55
212.262	15.92
212.648	28.69
213.034	8.11
213.419	9.59
213.805	0.94
214.19	37.09
214.576	23.72
214.961	20.63
215.346	-19.51
215.732	22.02
216.117	28.14
216.502	21.66
216.888	33.66
217.273	31.8
217.658	27.31
218.043	-2.54
218.428	19.08
218.813	-17.08
219.198	23.69
219.583	36.63
219.968	16.95
220.353	7.09
220.738	14.67
221.122	20.06
221.507	2.99
221.892	11.64
222.276	7.89
222.661	13.86
223.046	5.13
223.43	18.14
223.815	-3.08
224.199	5.51
224.583	6.57
224.968	6.74
225.352	9.09
225.736	8.17
226.121	7.16
226.505	3.04
226.889	-1.26
227.273	2.56
227.657	7.78
228.041	4.42
228.425	5.86
228.809	4.54
229.193	2.25
229.577	2.61
229.961	0.96
230.344	2.3
230.728	2.12
231.112	2.04
231.495	2.52
231.879	1.78
232.263	3.36
232.646	2.53
233.03	0.42
233.413	1.38
233.797	1.8
234.18	5.63
234.563	2.88
234.946	2.91
235.33	2.64
235.713	4.62
236.096	2.51
236.479	0.56
236.862	4.7
237.245	3.03
237.628	2.86
238.011	1.89
238.394	1.85
238.777	-0.15
239.16	3.08
239.543	1.58
239.925	4.18
240.308	3.33
240.691	3.14
241.073	2.2
241.456	1.68
241.838	2.62
242.221	3.08
242.603	2.17
242.986	1.58
243.368	1.97
243.75	1.87
244.133	1.87
244.515	2.07
244.897	1.9
245.279	1.73
245.661	2.41
246.043	1.84
246.425	2.25
246.807	2.7
247.189	2.08
247.571	1.66
247.953	1.88
248.335	1.88
248.717	1.69
249.098	1.84
249.48	1.63
249.862	2.33
250.243	1.7
250.625	2.17
251.006	2.62
251.388	2.94
251.769	1.59
252.151	2.67
252.532	0.83
252.913	1.54
253.295	2.03
253.676	2.16
254.057	2.13
254.438	2.61
254.819	3.84
255.2	1.43
255.581	2.45
255.962	1.09
256.343	3.2
256.724	2.78
257.105	2
257.486	2.78
257.867	2.8
258.247	2.16
258.628	2.13
259.009	2.16
259.389	1.58
259.77	2.24
260.15	2.3
260.531	2.22
260.911	1.58
261.292	1.67
261.672	1.61
262.052	1.89
262.432	2.36
262.813	2.49
263.193	2.53
263.573	1.8
263.953	1.54
264.333	2.52
264.713	2.07
265.093	2.04
265.473	2.22
265.853	2.61
266.233	2.3
266.612	1.44
266.992	3.17
267.372	2.78
267.752	1.97
268.131	1.67
268.511	1.9
268.89	2.63
269.27	2.37
269.649	1.79
270.029	2.79
270.408	1.74
270.787	2.18
271.167	2.71
271.546	1.88
271.925	1.87
272.304	1.86
272.683	1.59
273.062	2.45
273.441	2.23
273.82	1.97
274.199	2.19
274.578	2.32
274.957	2.49
275.336	1.51
275.715	1.87
276.093	1.85
276.472	2.37
276.851	2.26
277.229	1.5
277.608	1.65
277.986	1.11
278.365	1.73
278.743	2.1
279.122	2.75
279.5	1.44
279.878	1.95
280.257	2.37
280.635	2.64
281.013	2.5
281.391	1.83
281.769	1.75
282.147	1.97
282.525	1.63
282.903	2.71
283.281	1.61
283.659	1.67
284.037	2.06
284.415	1.96
284.792	1.59
285.17	1.87
285.548	1.83
285.925	1.98
286.303	2.23
286.68	1.94
287.058	1.91
287.435	2.06
287.813	1.9
288.19	2.54
288.567	1.88
288.945	2.32
289.322	1.55
289.699	2.73
290.076	2.42
290.453	2.21
290.83	2.36
291.207	2.2
291.584	1.8
291.961	1.97
292.338	2.11
292.715	2.27
293.092	2.65
293.469	2.39
293.845	1.99
294.222	2.57
294.599	2.83
294.975	2.34
295.352	2.58
295.728	2.52
296.105	2.64
296.481	3.01
296.858	2.44
297.234	2.77
297.61	2.31
297.986	2.39
298.363	2.48
298.739	2.85
299.115	2.79
299.491	2.62
299.867	2.43
300.243	2.28
300.619	3.45
300.995	3.4
301.371	2.95
301.746	2.93
302.122	2.89
302.498	3.53
302.874	2.89
303.249	3.18
303.625	2.77
304	2.95
304.376	3.15
304.751	3.23
305.127	2.66
305.502	3.13
305.878	3.09
306.253	3.64
306.628	3.35
307.003	3.4
307.378	3.76
307.754	3.7
308.129	3.29
308.504	3.15
308.879	4.03
309.254	3.61
309.629	4.02
310.003	3.72
310.378	4.1
310.753	3.62
311.128	3.26
311.502	3.84
311.877	3.8
312.252	3.98
312.626	3.67
313.001	3.86
313.375	4.08
313.75	4.18
314.124	4.22
314.498	4.43
314.873	5.06
315.247	4.65
315.621	4.66
315.995	4.52
316.369	4.65
316.743	4.77
317.117	4.46
317.491	4.04
317.865	4.86
318.239	5.46
318.613	5.26
318.987	5.14
319.361	5.04
319.734	5.06
320.108	5.56
320.482	5.19
320.855	5
321.229	5.49
321.602	6.08
321.976	5.1
322.349	5
322.723	5.73
323.096	4.86
323.469	5.42
323.843	5.54
324.216	5.41
324.589	6.16
324.962	6.31
325.335	5.55
325.708	5.85
326.081	5.95
326.454	6.02
326.827	5.56
327.2	6.09
327.573	6.11
327.945	6.11
328.318	5.64
328.691	5.85
329.063	5.67
329.436	6.04
329.809	6.26
330.181	6.96
330.553	6.35
330.926	6.89
331.298	5.87
331.671	6.64
332.043	6.17
332.415	6.9
332.787	7.11
333.159	6.33
333.532	6.97
333.904	6.66
334.276	6.16
334.648	6.89
335.02	6.62
335.391	7.35
335.763	6.81
336.135	7.01
336.507	6.82
336.879	6.6
337.25	6.76
337.622	6.98
337.993	7.44
338.365	6.61
338.736	7.36
339.108	7.08
339.479	7.47
339.851	7.89
340.222	7.51
340.593	7.02
340.964	7.11
341.336	7.63
341.707	7.47
342.078	7.46
342.449	7.8
342.82	7.57
343.191	7.77
343.562	7.65
343.933	7.82
344.303	8
344.674	7.45
345.045	8.49
345.416	7.76
345.786	8.11
346.157	7.85
346.527	7.81
346.898	7.82
347.268	7.99
347.639	7.84
348.009	7.95
348.38	8.41
348.75	8.24
349.12	7.98
349.49	8.34
349.861	8.52
350.231	8.3
350.601	8.78
350.971	8.32
351.341	8.35
351.711	8.74
352.081	9.21
352.45	8.46
352.82	8.53
353.19	8.78
353.56	8.53
353.929	9.23
354.299	8.49
354.669	9.08
355.038	8.84
355.408	8.87
355.777	8.92
356.147	9.18
356.516	9.05
356.885	9.38
357.254	9.59
357.624	8.94
357.993	8.93
358.362	9.07
358.731	9.48
359.1	9.39
359.469	9.29
359.838	9.62
360.207	9.83
360.576	9.26
360.945	9.29
361.314	9.81
361.682	9.44
362.051	9.64
362.42	9.53
362.788	9.66
363.157	9.62
363.525	9.67
363.894	9.87
364.262	9.87
364.631	10.29
364.999	9.64
365.367	9.75
365.735	10.23
366.104	10.18
366.472	10.35
366.84	10.16
367.208	10.55
367.576	10.21
367.944	10.64
368.312	10.48
368.68	10.37
369.048	10.3
369.416	10.7
369.783	10.92
370.151	10.86
370.519	11.03
370.886	10.86
371.254	11.07
371.621	10.79
371.989	10.86
372.356	10.9
372.724	11.13
373.091	11.07
373.458	11.02
373.826	11.37
374.193	11.2
374.56	11.38
374.927	11.19
375.294	11.55
375.661	11.29
376.028	11.37
376.395	11.59
376.762	11.26
377.129	11.52
377.496	11.48
377.863	11.5
378.229	11.72
378.596	11.38
378.963	11.87
379.329	11.45
379.696	12.1
380.062	12.19
380.429	12.32
380.795	11.89
381.161	12.02
381.528	11.83
381.894	12.03
382.26	11.79
382.626	12.06
382.993	12.55
383.359	12.52
383.725	12.66
384.091	12.21
384.457	12.05
384.823	12.33
385.188	12.54
385.554	12.71
385.92	12.68
386.286	12.86
386.651	12.74
387.017	12.41
387.383	12.9
387.748	12.36
388.114	12.98
388.479	13.19
388.845	13.04
389.21	12.92
389.575	13.03
389.94	13.15
390.306	13.13
390.671	12.93
391.036	13.15
391.401	13.29
391.766	13.44
392.131	12.95
392.496	13.2
392.861	13.55
393.226	13.26
393.591	13.3
393.956	13.58
394.32	13.5
394.685	13.73
395.05	13.7
395.414	13.72
395.779	13.69
396.143	13.78
396.508	13.78
396.872	13.56
397.236	14.09
397.601	13.8
397.965	14.09
398.329	13.86
398.694	14.05
399.058	14.46
399.422	14.1
399.786	14.22
400.15	14.13
400.514	14.07
400.878	14.16
401.242	14.78
401.605	14.69
401.969	14.33
402.333	14.63
402.697	14.59
403.06	14.62
403.424	14.64
403.787	14.74
404.151	14.87
404.514	14.61
404.878	14.77
405.241	14.72
405.604	15.07
405.968	14.79
406.331	14.97
406.694	15.16
407.057	15.09
407.42	14.94
407.783	15.21
408.146	15.39
408.509	15.44
408.872	15.37
409.235	15.41
409.598	15.54
409.961	15.69
410.323	15.38
410.686	15.41
411.049	15.59
411.411	15.74
411.774	15.72
412.136	15.76
412.499	15.82
412.861	15.92
413.223	15.98
413.586	16.12
413.948	16.02
414.31	16.08
414.672	16
415.035	16.11
415.397	16
415.759	16.25
416.121	15.89
416.483	16.22
416.845	16.39
417.206	16.12
417.568	16.34
417.93	15.94
418.292	16.32
418.653	16.08
419.015	16.17
419.377	16.17
419.738	16.22
420.1	16.15
420.461	16.37
420.822	16.31
421.184	16.34
421.545	16.44
421.906	16.35
422.267	16.2
422.629	16.38
422.99	16.47
423.351	16.48
423.712	16.58
424.073	16.66
424.434	16.63
424.795	16.65
425.155	16.64
425.516	16.56
425.877	16.6
426.238	16.78
426.598	16.93
426.959	17.01
427.32	17.35
427.68	17.41
428.041	17.59
428.401	17.6
428.761	17.9
429.122	17.66
429.482	17.79
429.842	17.82
430.202	17.94
430.563	18.08
430.923	17.75
431.283	18.02
431.643	17.84
432.003	18.04
432.363	18.15
432.722	18.18
433.082	18.11
433.442	18.27
433.802	18.21
434.161	17.99
434.521	17.94
434.881	17.91
435.24	18.07
435.6	18.35
435.959	18.25
436.319	18.55
436.678	18.69
437.037	18.62
437.396	18.58
437.756	18.69
438.115	18.45
438.474	18.88
438.833	18.81
439.192	18.67
439.551	18.68
439.91	18.88
440.269	18.75
440.628	18.56
440.987	18.55
441.345	18.65
441.704	18.7
442.063	18.75
442.421	18.77
442.78	19.06
443.138	18.98
443.497	19.22
443.855	19.37
444.214	19.23
444.572	19.38
444.93	19.46
445.288	19.38
445.647	19.38
446.005	19.34
446.363	19.26
446.721	19.25
447.079	19.02
447.437	19.05
447.795	19.03
448.153	19.1
448.51	19.15
448.868	19.57
449.226	19.67
449.584	19.79
449.941	19.89
450.299	19.99
450.656	20.14
451.014	20.16
451.371	20.35
451.729	20.02
452.086	20.42
452.443	20.43
452.801	20.5
453.158	20.38
453.515	20.29
453.872	20.31
454.229	20.56
454.586	20.48
454.943	20.44
455.3	20.56
455.657	20.5
456.014	20.72
456.371	20.7
456.727	20.81
457.084	20.79
457.441	20.64
457.797	21.05
458.154	20.96
458.51	21.04
458.867	21.03
459.223	21.03
459.58	20.81
459.936	20.91
460.292	20.7
460.648	20.69
461.005	20.34
461.361	20.37
461.717	20.72
462.073	20.93
462.429	21.17
462.785	21.35
463.141	21.28
463.496	21.39
463.852	21.71
464.208	21.76
464.564	21.71
464.919	21.79
465.275	21.72
465.631	21.79
465.986	21.76
466.342	21.94
466.697	21.82
467.052	22.07
467.408	21.72
467.763	22.12
468.118	21.95
468.473	21.99
468.829	21.85
469.184	21.93
469.539	21.92
469.894	22.29
470.249	22.17
470.603	22.31
470.958	22.41
471.313	22.45
471.668	22.5
472.023	22.43
472.377	22.61
472.732	22.44
473.086	22.54
473.441	22.49
473.795	22.59
474.15	22.63
474.504	22.59
474.859	22.55
475.213	22.84
475.567	22.82
475.921	23.04
476.275	23.05
476.63	23.02
476.984	23.14
477.338	22.94
477.692	23.01
478.045	23.06
478.399	23.06
478.753	23.06
479.107	23.14
479.461	22.94
479.814	22.98
480.168	23.17
480.521	23.26
480.875	23.28
481.228	23.34
481.582	23.35
481.935	23.33
482.289	23.33
482.642	23.26
482.995	23.25
483.348	23.11
483.701	23.26
484.055	23.04
484.408	22.61
484.761	22.21
485.114	21.98
485.466	22.21
485.819	22.4
486.172	22.84
486.525	23.19
486.878	23.31
487.23	23.53
487.583	23.33
487.936	23.15
488.288	23
488.641	22.95
488.993	22.83
489.345	23
489.698	23.12
490.05	23.45
490.402	23.7
490.754	23.95
491.107	24.09
491.459	24.26
491.811	24.34
492.163	24.05
492.515	23.5
492.866	23.26
493.218	23.39
493.57	23.74
493.922	24.02
494.274	24.36
494.625	24.55
494.977	24.72
495.328	25
495.68	24.99
496.031	25.2
496.383	25.15
496.734	25.15
497.086	25.1
497.437	24.94
497.788	24.74
498.139	24.92
498.49	24.89
498.842	24.93
499.193	25.15
499.544	25.34
499.894	25.27
500.245	25.29
500.596	25.39
500.947	25.51
501.298	25.75
501.648	25.57
501.999	25.79
502.35	25.79
502.7	25.86
503.051	25.94
503.401	26.02
503.752	25.82
504.102	25.96
504.452	26.1
504.803	26.03
505.153	25.79
505.503	25.99
505.853	25.98
506.203	26.06
506.553	26.14
506.903	26.36
507.253	26.33
507.603	26.4
507.953	26.35
508.303	26.49
508.652	26.14
509.002	26.37
509.352	26.15
509.701	26.21
510.051	26.07
510.4	26.14
510.75	26.43
511.099	26.48
511.449	26.51
511.798	26.63
512.147	26.75
512.496	26.76
512.846	26.63
513.195	26.64
513.544	26.73
513.893	26.6
514.242	26.93
514.591	27.07
514.939	27.07
515.288	27.17
515.637	27.16
515.986	27.23
516.334	27.42
516.683	27.25
517.032	27.44
517.38	27.57
517.729	27.65
518.077	27.41
518.426	27.3
518.774	27.36
519.122	27.2
519.47	27.05
519.819	26.97
520.167	27.06
520.515	27.14
520.863	27.19
521.211	27.44
521.559	27.46
521.907	27.68
522.255	27.88
522.602	27.89
522.95	27.92
523.298	28.33
523.645	28.11
523.993	28.24
524.341	28.3
524.688	28.13
525.036	28.37
525.383	28.26
525.73	28.23
526.078	28.23
526.425	27.93
526.772	27.9
527.119	27.74
527.466	27.97
527.814	27.93
528.161	28.17
528.508	28.21
528.854	28.04
529.201	27.88
529.548	27.35
529.895	27.06
530.242	27.41
530.588	27.57
530.935	27.71
531.282	27.98
531.628	28.14
531.975	28.41
532.321	28.64
532.667	28.73
533.014	28.73
533.36	28.63
533.706	28.79
534.052	28.39
534.399	28.03
534.745	27.96
535.091	28.22
535.437	28.54
535.783	28.76
536.129	29.08
536.474	29.27
536.82	29.42
537.166	29.33
537.512	29.17
537.857	28.91
538.203	28.97
538.549	29.06
538.894	29.39
539.239	29.58
539.585	29.63
539.93	29.82
540.276	29.79
540.621	30.05
540.966	30
541.311	30.1
541.656	29.9
542.001	29.44
542.346	28.9
542.691	28.68
543.036	28.96
543.381	29.3
543.726	29.54
544.071	29.6
544.415	29.67
544.76	29.79
545.105	30.01
545.449	30.16
545.794	30.27
546.138	30.47
546.483	30.62
546.827	30.36
547.171	30.49
547.516	30.7
547.86	30.52
548.204	30.33
548.548	30.46
548.892	30.77
549.236	30.94
549.58	31.09
549.924	31.05
550.268	31.25
550.612	31.46
550.956	31.45
551.3	31.59
551.643	31.62
551.987	31.6
552.33	31.79
552.674	31.51
553.017	31.65
553.361	31.43
553.704	31.46
554.048	31.34
554.391	31.44
554.734	31.5
555.077	31.72
555.42	31.73
555.764	31.87
556.107	31.96
556.45	31.98
556.793	32.15
557.135	32.11
557.478	32.32
557.821	31.96
558.164	32.16
558.507	32.39
558.849	32.21
559.192	32.44
559.534	32.51
559.877	32.52
560.219	32.58
560.562	32.55
560.904	32.57
561.246	32.72
561.589	32.85
561.931	32.74
562.273	32.58
562.615	32.51
562.957	32.91
563.299	32.76
563.641	33.12
563.983	32.99
564.325	32.94
564.667	33.07
565.008	33.02
565.35	33.05
565.692	32.96
566.033	33.28
566.375	32.88
566.716	32.85
567.058	32.85
567.399	33.15
567.741	33.15
568.082	32.98
568.423	33.16
568.764	33.2
569.105	33.64
569.447	33.69
569.788	33.59
570.129	33.67
570.47	33.54
570.811	33.62
571.151	33.74
571.492	33.68
571.833	33.74
572.174	33.61
572.514	33.78
572.855	33.55
573.195	33.53
573.536	33.47
573.876	33.51
574.217	33.65
574.557	33.89
574.898	33.89
575.238	34.32
575.578	34.19
575.918	33.85
576.258	34.26
576.598	34.02
576.938	34.18
577.278	34.23
577.618	34.37
577.958	34.67
578.298	34.66
578.638	34.59
578.977	34.6
579.317	34.43
579.657	34.78
579.996	34.65
580.336	34.63
580.675	34.82
581.014	35.38
581.354	35.15
581.693	35.11
582.032	35.16
582.372	35.2
582.711	35.05
583.05	35.13
583.389	35.16
583.728	35.27
584.067	35.35
584.406	35.4
584.745	35.21
585.083	35.36
585.422	35.18
585.761	35.58
586.1	35.57
586.438	35.51
586.777	35.63
587.115	35.71
587.454	35.86
587.792	35.6
588.13	35.82
588.469	36.07
588.807	35.7
589.145	36.08
589.483	35.89
589.821	35.86
590.159	35.74
590.497	36.13
590.835	36.1
591.173	35.59
591.511	36
591.849	36.26
592.187	35.9
592.524	36.13
592.862	36.12
593.2	36.11
593.537	36.61
593.875	36.32
594.212	36.44
594.55	36.35
594.887	36.44
595.224	36.35
595.561	36.39
595.899	36.3
596.236	36.65
596.573	36.58
596.91	36.76
597.247	36.49
597.584	36.92
597.921	36.54
598.258	36.33
598.594	36.13
598.931	36.45
599.268	36.68
599.604	36.61
599.941	36.92
600.277	36.94
600.614	36.96
600.95	37.31
601.287	37.06
601.623	37.55
601.959	37.32
602.296	36.94
602.632	37.16
602.968	37.43
603.304	37.43
603.64	37.21
603.976	37.35
604.312	37.44
604.648	37.14
604.984	37.38
605.319	37.42
605.655	37.13
605.991	36.7
606.326	37.04
606.662	37.12
606.998	37.23
607.333	37.58
607.668	37.8
608.004	37.86
608.339	37.92
608.674	38.36
609.01	38.17
609.345	38.28
609.68	38.47
610.015	38.09
610.35	37.95
610.685	37.62
611.02	37.42
611.355	37.81
611.689	38.03
612.024	37.89
612.359	38.06
612.694	38.24
613.028	38.41
613.363	38.48
613.697	38.61
614.032	38.73
614.366	38.71
614.7	38.95
615.035	38.96
615.369	38.68
615.703	38.84
616.037	38.7
616.371	38.99
616.705	38.93
617.039	38.81
617.373	39.12
617.707	38.7
618.041	38.85
618.375	38.63
618.709	39.11
619.042	39.15
619.376	39.12
619.71	39.34
620.043	39.08
620.377	39.1
620.71	39.16
621.043	39.54
621.377	39.44
621.71	39.84
622.043	39.38
622.376	39.57
622.709	39.46
623.043	39.81
623.376	39.25
623.709	39.47
624.041	39.53
624.374	39.81
624.707	39.63
625.04	39.76
625.373	39.88
625.705	39.86
626.038	40.03
626.37	40.05
626.703	39.91
627.035	39.77
627.368	39.55
627.7	39.98
628.032	39.43
628.365	39.69
628.697	39.66
629.029	40.14
629.361	40.02
629.693	39.53
630.025	40.07
630.357	40.16
630.689	39.89
631.021	40.06
631.353	40.03
631.684	40.48
632.016	40.66
632.348	40.71
632.679	40.75
633.011	40.82
633.342	40.2
633.674	40.34
634.005	41.15
634.336	40.56
634.668	40.71
634.999	40.3
635.33	40.29
635.661	40.72
635.992	40.54
636.323	41.48
636.654	40.54
636.985	41.04
637.316	40.62
637.647	40.93
637.977	41.31
638.308	40.92
638.639	41.09
638.969	41.18
639.3	41.22
639.63	41.13
639.961	41.15
640.291	41.26
640.622	40.87
640.952	41.24
641.282	41.95
641.612	41.7
641.943	41.52
642.273	42.14
642.603	41.31
642.933	41.66
643.263	41.21
643.592	40.93
643.922	41.96
644.252	41.88
644.582	41.61
644.911	41.81
645.241	42.27
645.571	42.09
645.9	41.77
646.23	41.44
646.559	42.17
646.888	41.93
647.218	41.62
647.547	42.11
647.876	42.06
648.205	41.93
648.534	42.06
648.863	41.61
649.192	42.14
649.521	42.36
649.85	42.67
650.179	42.49
650.508	42
650.837	42.05
651.165	42.75
651.494	42.62
651.822	42.26
652.151	42.29
652.479	42.47
652.808	41.91
653.136	42.81
653.465	42.01
653.793	42.42
654.121	43.03
654.449	42.8
654.777	42.44
655.105	42.37
655.433	42.86
655.761	42.63
656.089	43.18
656.417	43.1
656.745	42.54
657.073	43.52
657.4	43.29
657.728	42.94
658.056	43.18
658.383	43.42
658.711	42.95
659.038	43.21
659.365	43.3
659.693	42.75
660.02	43.08
660.347	42.87
660.674	42.56
661.001	42.97
661.329	43.35
661.656	42.98
661.982	43.05
662.309	43.64
662.636	43.43
662.963	43.41
663.29	43.22
663.616	43.82
663.943	43.55
664.27	43.92
664.596	43.87
664.923	43.6
665.249	44.32
665.576	44.04
665.902	43.76
666.228	43.81
666.554	43.04
666.881	43.44
667.207	44.12
667.533	43.79
667.859	43.57
668.185	43.63
668.511	42.77
668.837	44.2
669.162	44.04
669.488	44.26
669.814	44.26
670.139	43.76
670.465	43.75
670.791	43.71
671.116	43.81
671.442	44.22
671.767	44.27
