Data from 0019_forehead_Reflection__3__13.txt Node

Date: Thu Oct 20 20:25:25 CDT 2022
User: ToomeyLab
Spectrometer: FLMS14357
Trigger mode: 0
Integration Time (sec): 1.000000E-2
Scans to average: 100
Electric dark correction enabled: true
Nonlinearity correction enabled: false
Boxcar width: 0
XAxis mode: Wavelengths
Number of Pixels in Spectrum: 2048
>>>>>Begin Spectral Data<<<<<
189.047	51.26
189.435	51.26
189.823	51.26
190.211	-1011.88
190.599	150.12
190.987	-424.53
191.375	94.78
191.763	-283.8
192.151	73.29
192.538	1.17
192.926	193.97
193.314	286.6
193.702	115.19
194.089	136.99
194.477	-606.95
194.864	186.16
195.252	282.07
195.639	342.32
196.027	122.94
196.414	-53.49
196.801	61.7
197.189	-29.48
197.576	-439.83
197.963	31.38
198.351	21.39
198.738	34.66
199.125	38.01
199.512	49.88
199.899	83.59
200.286	-8.87
200.673	35.97
201.06	63.09
201.447	60.43
201.833	52.69
202.22	-9.24
202.607	43.03
202.994	51.84
203.38	22.17
203.767	29.53
204.154	13.38
204.54	32.4
204.927	38.04
205.313	19.78
205.699	36.58
206.086	61.59
206.472	40.77
206.858	52.03
207.245	44.62
207.631	25.38
208.017	26.29
208.403	26.01
208.789	38.97
209.175	56.12
209.561	27.3
209.947	40.68
210.333	34.26
210.719	17.53
211.105	18.9
211.491	25.99
211.876	35.78
212.262	16.4
212.648	-6.65
213.034	21.11
213.419	20.11
213.805	16.9
214.19	13.53
214.576	13.69
214.961	5.39
215.346	3.93
215.732	40
216.117	20.72
216.502	25.08
216.888	44.26
217.273	38.59
217.658	38.63
218.043	-2.99
218.428	23.78
218.813	29.73
219.198	34.78
219.583	18.1
219.968	15.7
220.353	8.61
220.738	8.31
221.122	17.74
221.507	27.9
221.892	21.88
222.276	13.6
222.661	-0.6
223.046	13.32
223.43	15.59
223.815	4.04
224.199	6.16
224.583	4.94
224.968	9.18
225.352	7.69
225.736	5.94
226.121	11.39
226.505	10.48
226.889	7.42
227.273	7.62
227.657	10.79
228.041	6.35
228.425	5.93
228.809	4.55
229.193	6.26
229.577	5.1
229.961	4.15
230.344	5.18
230.728	5.42
231.112	4.61
231.495	5.73
231.879	5.98
232.263	7.43
232.646	4.9
233.03	2.59
233.413	5.64
233.797	5.14
234.18	3.69
234.563	4.42
234.946	6.12
235.33	5.39
235.713	6.48
236.096	5.34
236.479	3.61
236.862	6.68
237.245	7.65
237.628	4.62
238.011	3.34
238.394	6.11
238.777	5.53
239.16	7.18
239.543	5.59
239.925	5.53
240.308	6.63
240.691	3.61
241.073	5.27
241.456	5.26
241.838	4.16
242.221	5.64
242.603	5.9
242.986	5.47
243.368	4.44
243.75	5
244.133	5.08
244.515	5.16
244.897	5.41
245.279	5.24
245.661	5.17
246.043	5.18
246.425	5.65
246.807	5.26
247.189	5.37
247.571	4.72
247.953	5.06
248.335	4.69
248.717	4.8
249.098	4.77
249.48	5.02
249.862	5.48
250.243	4.82
250.625	5.79
251.006	6.29
251.388	6.37
251.769	6.11
252.151	5.23
252.532	5.58
252.913	5.18
253.295	4.86
253.676	4.88
254.057	5.46
254.438	6.13
254.819	6.45
255.2	4.96
255.581	4.64
255.962	5.65
256.343	5.87
256.724	6.09
257.105	4.7
257.486	5.74
257.867	5.7
258.247	6.18
258.628	5.48
259.009	5.04
259.389	5.11
259.77	5.93
260.15	5.54
260.531	5.27
260.911	4.7
261.292	4.76
261.672	4.88
262.052	5.48
262.432	5.5
262.813	5.51
263.193	5.46
263.573	4.82
263.953	5.11
264.333	5.35
264.713	5.17
265.093	5.93
265.473	6.53
265.853	4.88
266.233	5.68
266.612	5.46
266.992	6.07
267.372	5.31
267.752	5.05
268.131	5.01
268.511	5.41
268.89	5.38
269.27	5.28
269.649	5.32
270.029	5.29
270.408	5.19
270.787	5.12
271.167	5.65
271.546	5.08
271.925	5.4
272.304	5.29
272.683	4.9
273.062	5.12
273.441	5.5
273.82	4.81
274.199	4.95
274.578	5.22
274.957	5.43
275.336	5.71
275.715	5.05
276.093	5.27
276.472	4.89
276.851	5.3
277.229	4.66
277.608	4.84
277.986	4.81
278.365	4.8
278.743	5.22
279.122	5.6
279.5	4.64
279.878	4.98
280.257	5.29
280.635	5.54
281.013	5.4
281.391	5.42
281.769	4.97
282.147	5.21
282.525	4.85
282.903	5.39
283.281	5.09
283.659	4.78
284.037	5.02
284.415	4.72
284.792	4.88
285.17	4.96
285.548	4.78
285.925	4.86
286.303	5.23
286.68	5.03
287.058	5.14
287.435	4.94
287.813	4.6
288.19	5.31
288.567	5.16
288.945	6.02
289.322	4.45
289.699	5.84
290.076	5.46
290.453	5.37
290.83	5.02
291.207	5.51
291.584	4.93
291.961	5.05
292.338	5.19
292.715	5.5
293.092	5.95
293.469	6.28
293.845	5.92
294.222	5.77
294.599	5.52
294.975	5.54
295.352	6.3
295.728	6.26
296.105	5.96
296.481	5.91
296.858	5.89
297.234	6.2
297.61	5.69
297.986	5.73
298.363	6.09
298.739	6
299.115	6.13
299.491	6.07
299.867	6.3
300.243	6.45
300.619	6.46
300.995	6.53
301.371	5.98
301.746	6.47
302.122	6.3
302.498	6.92
302.874	6.19
303.249	6.55
303.625	6.67
304	6.72
304.376	6.69
304.751	6.93
305.127	6.35
305.502	6.85
305.878	7.09
306.253	7.26
306.628	7.18
307.003	7.53
307.378	7.35
307.754	7.43
308.129	7.33
308.504	7.5
308.879	7.96
309.254	7.54
309.629	7.65
310.003	8
310.378	7.91
310.753	7.93
311.128	7.28
311.502	7.97
311.877	7.95
312.252	7.81
312.626	8.18
313.001	7.91
313.375	8.21
313.75	8.21
314.124	8.36
314.498	8.6
314.873	8.7
315.247	9.06
315.621	9.14
315.995	8.64
316.369	8.95
316.743	9.28
317.117	9.09
317.491	9.4
317.865	9.67
318.239	9.37
318.613	9.76
318.987	10.34
319.361	9.63
319.734	10.11
320.108	9.98
320.482	9.48
320.855	9.56
321.229	9.99
321.602	9.84
321.976	10.24
322.349	10.21
322.723	10.64
323.096	9.79
323.469	10.11
323.843	10.85
324.216	10.58
324.589	10.7
324.962	10.63
325.335	10.09
325.708	10.59
326.081	11.16
326.454	10.5
326.827	10.77
327.2	11.44
327.573	10.93
327.945	10.96
328.318	10.76
328.691	11.1
329.063	10.85
329.436	10.52
329.809	11.4
330.181	11.91
330.553	11.37
330.926	11.31
331.298	11.05
331.671	11.88
332.043	11.67
332.415	11.88
332.787	11.87
333.159	11.55
333.532	11.83
333.904	11.57
334.276	11.79
334.648	11.84
335.02	11.88
335.391	12.04
335.763	12.23
336.135	12.32
336.507	12.06
336.879	12.41
337.25	12.34
337.622	12.57
337.993	12.63
338.365	12.22
338.736	12.75
339.108	12.45
339.479	12.45
339.851	13.37
340.222	12.44
340.593	12.81
340.964	12.83
341.336	13.18
341.707	13.21
342.078	13.08
342.449	13.34
342.82	13.02
343.191	13.4
343.562	13.42
343.933	13.51
344.303	13.7
344.674	13.08
345.045	13.42
345.416	13.55
345.786	13.74
346.157	12.93
346.527	13.43
346.898	13.76
347.268	13.69
347.639	14.23
348.009	13.63
348.38	14.15
348.75	13.51
349.12	13.92
349.49	14.12
349.861	14.01
350.231	14.03
350.601	13.93
350.971	14.15
351.341	14.73
351.711	14.52
352.081	14.71
352.45	14.5
352.82	14.65
353.19	14.86
353.56	14.45
353.929	14.65
354.299	14.54
354.669	15.19
355.038	14.87
355.408	14.88
355.777	14.89
356.147	15.08
356.516	15.3
356.885	15.17
357.254	15.63
357.624	14.99
357.993	15.13
358.362	15.45
358.731	15.57
359.1	15.55
359.469	15.57
359.838	15.56
360.207	15.99
360.576	15.48
360.945	15.25
361.314	15.78
361.682	15.6
362.051	15.96
362.42	15.76
362.788	15.89
363.157	15.65
363.525	15.76
363.894	16.02
364.262	16.32
364.631	16.2
364.999	16.04
365.367	15.97
365.735	16.44
366.104	16.66
366.472	16.36
366.84	16.16
367.208	16.74
367.576	16.5
367.944	17.03
368.312	17.02
368.68	17.09
369.048	16.78
369.416	16.96
369.783	16.82
370.151	17.24
370.519	17.06
370.886	17.47
371.254	17.41
371.621	17.21
371.989	17.23
372.356	17.48
372.724	17.64
373.091	17.91
373.458	17.48
373.826	17.56
374.193	17.85
374.56	18.21
374.927	17.77
375.294	18.04
375.661	18.2
376.028	18.14
376.395	17.96
376.762	17.73
377.129	18.32
377.496	18.3
377.863	18.21
378.229	18.43
378.596	18.34
378.963	18.39
379.329	18.18
379.696	18.59
380.062	18.45
380.429	18.79
380.795	18.51
381.161	18.61
381.528	18.36
381.894	18.48
382.26	18.78
382.626	19.07
382.993	18.84
383.359	19.08
383.725	19.16
384.091	19.07
384.457	18.99
384.823	18.99
385.188	19.36
385.554	19.05
385.92	19.27
386.286	19.52
386.651	19.74
387.017	19.67
387.383	19.74
387.748	19.78
388.114	19.92
388.479	20.14
388.845	19.81
389.21	19.65
389.575	19.64
389.94	20.38
390.306	19.78
390.671	20.09
391.036	20.31
391.401	20.01
391.766	20.73
392.131	20.38
392.496	19.94
392.861	20.4
393.226	20.11
393.591	20.4
393.956	20.47
394.32	20.29
394.685	20.86
395.05	20.75
395.414	20.58
395.779	20.79
396.143	20.94
396.508	20.95
396.872	20.65
397.236	21.26
397.601	21.01
397.965	21.18
398.329	21.16
398.694	21.44
399.058	21.18
399.422	21.2
399.786	21.52
400.15	21.31
400.514	21.45
400.878	21.65
401.242	21.82
401.605	21.81
401.969	21.89
402.333	21.77
402.697	21.97
403.06	21.91
403.424	22
403.787	21.88
404.151	21.96
404.514	21.95
404.878	21.8
405.241	22.05
405.604	22.2
405.968	22.12
406.331	22.33
406.694	22.47
407.057	22.46
407.42	22.35
407.783	22.61
408.146	23
408.509	22.81
408.872	22.91
409.235	22.9
409.598	22.92
409.961	22.82
410.323	22.87
410.686	22.88
411.049	23.1
411.411	23.11
411.774	23.07
412.136	22.91
412.499	23.12
412.861	23.26
413.223	23.37
413.586	23.36
413.948	23.52
414.31	23.58
414.672	23.5
415.035	23.76
415.397	23.74
415.759	23.8
416.121	23.95
416.483	24
416.845	23.75
417.206	23.77
417.568	23.85
417.93	23.74
418.292	23.71
418.653	23.67
419.015	23.53
419.377	23.59
419.738	23.77
420.1	23.67
420.461	23.73
420.822	23.99
421.184	23.87
421.545	23.8
421.906	23.73
422.267	23.69
422.629	23.78
422.99	23.86
423.351	24.03
423.712	24.28
424.073	24.18
424.434	24.36
424.795	24.15
425.155	24.15
425.516	24.16
425.877	24.05
426.238	24.43
426.598	24.62
426.959	24.78
427.32	25
427.68	25.02
428.041	25.19
428.401	25.49
428.761	25.54
429.122	25.49
429.482	25.62
429.842	25.73
430.202	25.74
430.563	25.51
430.923	25.64
431.283	25.77
431.643	25.71
432.003	25.73
432.363	25.99
432.722	25.82
433.082	25.88
433.442	25.66
433.802	25.63
434.161	25.9
434.521	25.61
434.881	25.66
435.24	25.78
435.6	26.09
435.959	26.2
436.319	26.41
436.678	26.63
437.037	26.66
437.396	26.71
437.756	26.45
438.115	26.48
438.474	26.64
438.833	26.67
439.192	26.6
439.551	26.58
439.91	26.8
440.269	26.26
440.628	26.38
440.987	26.6
441.345	26.41
441.704	26.57
442.063	26.54
442.421	26.7
442.78	26.97
443.138	27.14
443.497	27.19
443.855	27.56
444.214	27.48
444.572	27.41
444.93	27.29
445.288	27.35
445.647	27.29
446.005	27.08
446.363	26.94
446.721	27.06
447.079	27.07
447.437	26.93
447.795	27
448.153	27.07
448.51	27.21
448.868	27.36
449.226	27.59
449.584	27.8
449.941	28
450.299	27.83
450.656	28.17
451.014	28.31
451.371	28.6
451.729	28.37
452.086	28.53
452.443	28.65
452.801	28.49
453.158	28.56
453.515	28.56
453.872	28.35
454.229	28.39
454.586	28.63
454.943	28.78
455.3	28.63
455.657	28.43
456.014	28.79
456.371	28.84
456.727	28.91
457.084	28.86
457.441	29.01
457.797	29.41
458.154	29.24
458.51	29.2
458.867	29.28
459.223	29.2
459.58	29.18
459.936	29.07
460.292	28.94
460.648	28.89
461.005	28.63
461.361	28.52
461.717	28.99
462.073	29.4
462.429	29.65
462.785	29.62
463.141	29.6
463.496	29.91
463.852	30.12
464.208	30.02
464.564	29.96
464.919	30.38
465.275	30.16
465.631	30.3
465.986	30.43
466.342	30.2
466.697	30.11
467.052	30.31
467.408	30.37
467.763	30.19
468.118	30.33
468.473	30.29
468.829	30.41
469.184	30.17
469.539	30.36
469.894	30.81
470.249	30.63
470.603	30.79
470.958	30.66
471.313	30.76
471.668	30.91
472.023	31.05
472.377	31.03
472.732	31.09
473.086	30.88
473.441	31.05
473.795	31.14
474.15	30.95
474.504	31.39
474.859	31.22
475.213	31.32
475.567	31.42
475.921	31.38
476.275	31.42
476.63	31.68
476.984	31.76
477.338	31.45
477.692	31.81
478.045	31.66
478.399	31.75
478.753	31.47
479.107	31.73
479.461	31.81
479.814	31.68
480.168	31.89
480.521	31.85
480.875	31.92
481.228	31.95
481.582	32.03
481.935	32.03
482.289	31.98
482.642	31.87
482.995	31.82
483.348	31.81
483.701	31.86
484.055	31.61
484.408	31.27
484.761	30.68
485.114	30.5
485.466	30.77
485.819	31.04
486.172	31.41
486.525	31.71
486.878	32.02
487.23	32.06
487.583	32.1
487.936	31.92
488.288	31.67
488.641	31.48
488.993	31.44
489.345	31.67
489.698	31.7
490.05	32.24
490.402	32.27
490.754	32.77
491.107	32.84
491.459	33.1
491.811	33.13
492.163	32.86
492.515	32.32
492.866	31.88
493.218	32
493.57	32.56
493.922	32.79
494.274	33.16
494.625	33.28
494.977	33.68
495.328	33.73
495.68	34.08
496.031	34.15
496.383	33.98
496.734	33.99
497.086	34.04
497.437	33.97
497.788	33.8
498.139	33.72
498.49	33.7
498.842	33.88
499.193	33.9
499.544	34.13
499.894	34.08
500.245	34.27
500.596	34.37
500.947	34.44
501.298	34.43
501.648	34.67
501.999	34.76
502.35	34.79
502.7	34.91
503.051	34.98
503.401	35
503.752	34.86
504.102	35.15
504.452	35.24
504.803	35.01
505.153	34.99
505.503	34.96
505.853	35.12
506.203	35.21
506.553	35.23
506.903	35.31
507.253	35.46
507.603	35.42
507.953	35.42
508.303	35.37
508.652	35.28
509.002	35.44
509.352	35.25
509.701	35.24
510.051	35.16
510.4	35.29
510.75	35.38
511.099	35.54
511.449	35.64
511.798	35.78
512.147	35.83
512.496	36.06
512.846	35.85
513.195	35.8
513.544	35.88
513.893	35.81
514.242	36
514.591	36.28
514.939	36.31
515.288	36.38
515.637	36.51
515.986	36.58
516.334	36.63
516.683	36.75
517.032	36.5
517.38	36.76
517.729	36.86
518.077	36.74
518.426	36.65
518.774	36.52
519.122	36.46
519.47	36.18
519.819	36.02
520.167	36.31
520.515	36.33
520.863	36.33
521.211	36.62
521.559	36.81
521.907	36.88
522.255	37.1
522.602	37.31
522.95	37.4
523.298	37.54
523.645	37.39
523.993	37.6
524.341	37.38
524.688	37.67
525.036	37.86
525.383	37.64
525.73	37.64
526.078	37.48
526.425	37.11
526.772	37.16
527.119	36.96
527.466	37.26
527.814	37.34
528.161	37.39
528.508	37.46
528.854	37.5
529.201	37.27
529.548	36.59
529.895	36.17
530.242	36.72
530.588	36.83
530.935	36.9
531.282	37.19
531.628	37.44
531.975	37.86
532.321	38.01
532.667	37.93
533.014	38.08
533.36	38.06
533.706	38.13
534.052	37.74
534.399	37.36
534.745	37.32
535.091	37.64
535.437	37.88
535.783	38.22
536.129	38.6
536.474	38.59
536.82	38.88
537.166	39.05
537.512	38.54
537.857	38.21
538.203	38.44
538.549	38.57
538.894	38.81
539.239	39.04
539.585	39.09
539.93	39.25
540.276	39.3
540.621	39.68
540.966	39.6
541.311	39.59
541.656	39.2
542.001	38.84
542.346	38.24
542.691	37.91
543.036	38.27
543.381	38.6
543.726	38.94
544.071	39.05
544.415	39.21
544.76	39.27
545.105	39.61
545.449	39.6
545.794	39.91
546.138	39.96
546.483	40.11
546.827	39.89
547.171	39.79
547.516	40.07
547.86	39.72
548.204	39.73
548.548	39.99
548.892	40.26
549.236	40.44
549.58	40.58
549.924	40.69
550.268	40.92
550.612	41.05
550.956	41.04
551.3	41.4
551.643	41.24
551.987	41.29
552.33	41.49
552.674	41.23
553.017	41.21
553.361	41.18
553.704	41.2
554.048	40.85
554.391	41.07
554.734	41.22
555.077	41.31
555.42	41.41
555.764	41.68
556.107	41.66
556.45	41.83
556.793	41.99
557.135	41.75
557.478	41.81
557.821	41.79
558.164	42.02
558.507	42.2
558.849	41.99
559.192	42.23
559.534	42.2
559.877	42.21
560.219	42.24
560.562	42.19
560.904	42.19
561.246	42.27
561.589	42.51
561.931	42.45
562.273	42.42
562.615	42.28
562.957	42.65
563.299	42.48
563.641	42.64
563.983	42.65
564.325	43.05
564.667	42.75
565.008	42.95
565.35	42.8
565.692	42.68
566.033	42.69
566.375	42.87
566.716	42.62
567.058	42.42
567.399	42.88
567.741	42.32
568.082	42.73
568.423	42.93
568.764	42.89
569.105	43.4
569.447	43.4
569.788	43.27
570.129	43.11
570.47	43.3
570.811	43.38
571.151	43.58
571.492	43.49
571.833	43.38
572.174	43.66
572.514	43.43
572.855	43.21
573.195	43.03
573.536	43.06
573.876	43.49
574.217	43.25
574.557	43.71
574.898	44.17
575.238	43.89
575.578	43.85
575.918	43.64
576.258	43.83
576.598	43.71
576.938	43.82
577.278	43.85
577.618	44.1
577.958	44.53
578.298	44.54
578.638	44.15
578.977	44.61
579.317	44.28
579.657	44.91
579.996	44.64
580.336	44.66
580.675	44.52
581.014	44.92
581.354	44.99
581.693	45.05
582.032	45.24
582.372	45.12
582.711	44.95
583.05	44.99
583.389	45.15
583.728	45.36
584.067	45.28
584.406	45.22
584.745	45.31
585.083	45.23
585.422	45.22
585.761	45.16
586.1	45.3
586.438	45.35
586.777	45.48
587.115	45.35
587.454	45.99
587.792	45.14
588.13	45.59
588.469	45.88
588.807	45.72
589.145	45.59
589.483	45.92
589.821	45.88
590.159	45.71
590.497	45.91
590.835	45.53
591.173	45.68
591.511	45.59
591.849	45.99
592.187	46
592.524	45.96
592.862	46.16
593.2	46.06
593.537	46.39
593.875	46.3
594.212	46.25
594.55	46.45
594.887	46.56
595.224	46.27
595.561	46.19
595.899	46.38
596.236	46.53
596.573	46.46
596.91	46.71
597.247	46.72
597.584	46.62
597.921	46.49
598.258	46.09
598.594	45.94
598.931	46.37
599.268	46.27
599.604	46.65
599.941	46.93
600.277	46.75
600.614	47.13
600.95	47.17
601.287	47.02
601.623	47.6
601.959	46.85
602.296	47.36
602.632	46.89
602.968	47.34
603.304	47.12
603.64	47.33
603.976	47.39
604.312	47.18
604.648	46.9
604.984	47.09
605.319	47.22
605.655	46.98
605.991	46.78
606.326	46.85
606.662	47.4
606.998	47.52
607.333	47.62
607.668	47.96
608.004	48.18
608.339	47.95
608.674	48.1
609.01	47.96
609.345	48.06
609.68	48.25
610.015	48.04
610.35	47.84
610.685	47.36
611.02	47.76
611.355	47.93
611.689	47.69
612.024	47.86
612.359	48.2
612.694	48.33
613.028	48.51
613.363	48.41
613.697	48.89
614.032	48.87
614.366	48.94
614.7	48.79
615.035	48.83
615.369	48.98
615.703	49.12
616.037	48.57
616.371	48.76
616.705	49.02
617.039	49.3
617.373	48.93
617.707	48.93
618.041	49.12
618.375	48.47
618.709	49.32
619.042	49.09
619.376	49.26
619.71	49.78
620.043	49.39
620.377	49.27
620.71	49.25
621.043	49.45
621.377	49.05
621.71	49.62
622.043	49.29
622.376	49.89
622.709	50.02
623.043	49.59
623.376	49.26
623.709	49.66
624.041	49.46
624.374	49.99
624.707	49.46
625.04	50.06
625.373	50.33
625.705	49.61
626.038	49.62
626.37	50.24
626.703	50.2
627.035	49.29
627.368	49.58
627.7	50.03
628.032	49.74
628.365	49.52
628.697	49.87
629.029	49.57
629.361	50.09
629.693	50.05
630.025	50.27
630.357	50.32
630.689	50.21
631.021	50.5
631.353	50.39
631.684	50.73
632.016	50.83
632.348	50.36
632.679	50.69
633.011	50.55
633.342	51.3
633.674	50.61
634.005	51.02
634.336	50.87
634.668	50.78
634.999	50.97
635.33	50.66
635.661	51.07
635.992	51.15
636.323	50.82
636.654	50.61
636.985	50.85
637.316	50.61
637.647	51.18
637.977	51.05
638.308	51.07
638.639	51.3
638.969	51.1
639.3	51.43
639.63	51.72
639.961	51.84
640.291	51.59
640.622	51.06
640.952	51.58
641.282	51.89
641.612	52.14
641.943	51.89
642.273	52.46
642.603	51.78
642.933	51.87
643.263	51.71
643.592	51.75
643.922	52.26
644.252	51.52
644.582	51.89
644.911	51.91
645.241	52.48
645.571	53.1
645.9	52.37
646.23	51.86
646.559	52.17
646.888	52.71
647.218	52.28
647.547	52.4
647.876	52.51
648.205	52.37
648.534	52.63
648.863	52.6
649.192	52.29
649.521	52.51
649.85	52.77
650.179	53.29
650.508	52.02
650.837	51.81
651.165	52.26
651.494	52.82
651.822	52.83
652.151	52.46
652.479	52.88
652.808	52.17
653.136	52.74
653.465	52.76
653.793	52.82
654.121	52.88
654.449	52.86
654.777	52.79
655.105	53.18
655.433	52.64
655.761	53.45
656.089	53.27
656.417	53.31
656.745	53.28
657.073	53.01
657.4	54
657.728	53.97
658.056	53.94
658.383	52.96
658.711	53.32
659.038	53.12
659.365	53.67
659.693	53.49
660.02	53.2
660.347	53.1
660.674	52.92
661.001	53.17
661.329	53.4
661.656	53.12
661.982	53.7
662.309	53.89
662.636	53.66
662.963	54.17
663.29	54.06
663.616	54.23
663.943	54.32
664.27	54.18
664.596	54.3
664.923	53.8
665.249	53.65
665.576	54.47
665.902	54.38
666.228	54.72
666.554	53.42
666.881	53.79
667.207	54.63
667.533	54.88
667.859	54.13
668.185	53.96
668.511	54.78
668.837	54.81
669.162	54.39
669.488	54.58
669.814	54.31
