Data from 0019_crown_Reflection__3__08.txt Node

Date: Thu Oct 20 20:24:07 CDT 2022
User: ToomeyLab
Spectrometer: FLMS14357
Trigger mode: 0
Integration Time (sec): 1.000000E-2
Scans to average: 100
Electric dark correction enabled: true
Nonlinearity correction enabled: false
Boxcar width: 0
XAxis mode: Wavelengths
Number of Pixels in Spectrum: 2048
>>>>>Begin Spectral Data<<<<<
189.047	73.41
189.435	73.41
189.823	73.41
190.211	-2023.37
190.599	168.96
190.987	6579.25
191.375	133.45
191.763	100.85
192.151	91.49
192.538	-50.34
192.926	170.09
193.314	50.75
193.702	195.21
194.089	179.56
194.477	2088.24
194.864	345.01
195.252	712.32
195.639	-11.79
196.027	-56.06
196.414	62.64
196.801	-154.09
197.189	96.41
197.576	463.75
197.963	-263.33
198.351	28.26
198.738	23
199.125	12.84
199.512	11.21
199.899	7.64
200.286	-25.15
200.673	47.64
201.06	29.75
201.447	35.92
201.833	-50.6
202.22	-21.95
202.607	5.72
202.994	26.62
203.38	2.66
203.767	23.94
204.154	-27.31
204.54	28.24
204.927	21.6
205.313	8.93
205.699	12.96
206.086	36.15
206.472	38.9
206.858	45.65
207.245	30.13
207.631	-3.5
208.017	-9.25
208.403	12.27
208.789	16.24
209.175	18.55
209.561	16.08
209.947	2.4
210.333	-15.88
210.719	3.76
211.105	-4.03
211.491	-2
211.876	-23.25
212.262	6.09
212.648	17.86
213.034	-6.82
213.419	14.63
213.805	-5.84
214.19	12.39
214.576	28.13
214.961	-23.89
215.346	1.97
215.732	19.59
216.117	9.63
216.502	26.76
216.888	36.7
217.273	9.58
217.658	26.9
218.043	-9.59
218.428	3.21
218.813	13.39
219.198	3.18
219.583	34.7
219.968	-0.55
220.353	-12.58
220.738	-6.56
221.122	-2.18
221.507	-7.76
221.892	12.95
222.276	7.01
222.661	-7.24
223.046	16.65
223.43	7.51
223.815	-4.28
224.199	6.67
224.583	3.09
224.968	6.12
225.352	12.46
225.736	4.9
226.121	11.87
226.505	6.27
226.889	0.44
227.273	1.91
227.657	4.45
228.041	0.88
228.425	1.84
228.809	1.35
229.193	1.31
229.577	1.42
229.961	1.45
230.344	0.91
230.728	2.1
231.112	1.78
231.495	0.36
231.879	2.29
232.263	1.55
232.646	1.65
233.03	0.41
233.413	3.13
233.797	0.29
234.18	-0.42
234.563	0.77
234.946	1.13
235.33	1.89
235.713	3.46
236.096	0.48
236.479	-0.59
236.862	1.84
237.245	3.05
237.628	0.25
238.011	0.77
238.394	0.51
238.777	1.89
239.16	2.63
239.543	2.6
239.925	1.11
240.308	2.51
240.691	1.21
241.073	0.88
241.456	0.96
241.838	0.87
242.221	2.9
242.603	2.08
242.986	1.49
243.368	1.2
243.75	1.33
244.133	1.57
244.515	1.43
244.897	1.2
245.279	1.66
245.661	1.51
246.043	0.66
246.425	0.71
246.807	2.04
247.189	1.23
247.571	1.22
247.953	1.49
248.335	1.2
248.717	1.34
249.098	1.23
249.48	1.2
249.862	1.44
250.243	1.31
250.625	1.87
251.006	2.29
251.388	2.07
251.769	1.58
252.151	1.04
252.532	1.87
252.913	1.27
253.295	1.53
253.676	1.46
254.057	1.1
254.438	2.59
254.819	1.5
255.2	1.43
255.581	1.29
255.962	1.49
256.343	2.98
256.724	1.77
257.105	1.78
257.486	0.5
257.867	1.64
258.247	1.36
258.628	1
259.009	1.38
259.389	1.03
259.77	1.46
260.15	1.4
260.531	1.44
260.911	1.07
261.292	1.18
261.672	1.19
262.052	1.27
262.432	1.66
262.813	1.62
263.193	1.53
263.573	0.88
263.953	1.45
264.333	1.26
264.713	1.54
265.093	0.7
265.473	2.03
265.853	1.22
266.233	1.09
266.612	0.98
266.992	1.69
267.372	1.57
267.752	1.68
268.131	1.08
268.511	1.12
268.89	1.54
269.27	1.33
269.649	1.31
270.029	1.94
270.408	1.25
270.787	1.07
271.167	1.91
271.546	1.03
271.925	1.72
272.304	1.34
272.683	1.36
273.062	1.55
273.441	1.59
273.82	1.11
274.199	1.36
274.578	1.22
274.957	1.6
275.336	1.52
275.715	1.09
276.093	1.53
276.472	1.49
276.851	1.41
277.229	0.72
277.608	1.06
277.986	1.05
278.365	1.56
278.743	1.46
279.122	2.18
279.5	0.84
279.878	1.47
280.257	1.4
280.635	1.14
281.013	1.29
281.391	1.68
281.769	1.45
282.147	1.91
282.525	1.21
282.903	1.82
283.281	0.96
283.659	0.76
284.037	0.97
284.415	1.82
284.792	0.98
285.17	1.23
285.548	1.05
285.925	1.5
286.303	1.44
286.68	1.16
287.058	1.47
287.435	1.15
287.813	1.18
288.19	1.46
288.567	1.45
288.945	1.45
289.322	0.6
289.699	2.37
290.076	1.5
290.453	1.18
290.83	1.56
291.207	1.25
291.584	0.78
291.961	0.93
292.338	1.31
292.715	1.01
293.092	1.61
293.469	1.7
293.845	1.45
294.222	1.23
294.599	1.68
294.975	1.68
295.352	1.73
295.728	1.96
296.105	1.21
296.481	1.67
296.858	1.48
297.234	1.54
297.61	0.7
297.986	1.17
298.363	1.27
298.739	1.56
299.115	1.38
299.491	1.47
299.867	1.47
300.243	1.13
300.619	1.6
300.995	1.15
301.371	0.81
301.746	1.33
302.122	1.06
302.498	2.3
302.874	1.24
303.249	1.73
303.625	1.26
304	1.82
304.376	2
304.751	0.93
305.127	0.72
305.502	1.37
305.878	1.29
306.253	1.8
306.628	1.74
307.003	1.64
307.378	1.42
307.754	1.76
308.129	1.49
308.504	1.19
308.879	1.81
309.254	1.8
309.629	1.8
310.003	1.45
310.378	1.63
310.753	1.68
311.128	1.08
311.502	1.29
311.877	1.69
312.252	1.37
312.626	1.62
313.001	1.44
313.375	1.85
313.75	1.6
314.124	1.3
314.498	1.39
314.873	1.82
315.247	2.39
315.621	1.79
315.995	1.92
316.369	1.22
316.743	1.7
317.117	1.88
317.491	1.66
317.865	1.9
318.239	1.85
318.613	1.92
318.987	1.94
319.361	1.97
319.734	1.84
320.108	2.15
320.482	1.28
320.855	1.45
321.229	2.03
321.602	2.12
321.976	1.99
322.349	2.09
322.723	1.95
323.096	1.13
323.469	1.82
323.843	2.3
324.216	2.02
324.589	1.09
324.962	1.87
325.335	1.52
325.708	2.09
326.081	1.97
326.454	1.64
326.827	2.07
327.2	2.31
327.573	1.99
327.945	2.02
328.318	1.65
328.691	1.27
329.063	1.42
329.436	1.29
329.809	1.89
330.181	1.88
330.553	1.41
330.926	1.51
331.298	0.81
331.671	2.11
332.043	2.02
332.415	1.9
332.787	2.06
333.159	1.54
333.532	1.94
333.904	1.43
334.276	1.87
334.648	1.67
335.02	1.27
335.391	2
335.763	1.9
336.135	1.83
336.507	1.59
336.879	1.85
337.25	1.4
337.622	1.54
337.993	2.13
338.365	1.33
338.736	1.96
339.108	1.27
339.479	1.5
339.851	2.28
340.222	1.78
340.593	1.44
340.964	1.75
341.336	1.48
341.707	1.75
342.078	1.35
342.449	1.5
342.82	1.77
343.191	1.33
343.562	1.85
343.933	1.73
344.303	2.53
344.674	1.15
345.045	1.82
345.416	1.53
345.786	2.15
346.157	1.25
346.527	1.35
346.898	1.63
347.268	1.69
347.639	1.91
348.009	1.52
348.38	1.71
348.75	1.39
349.12	1.58
349.49	1.14
349.861	1.99
350.231	1.82
350.601	1.64
350.971	1.89
351.341	1.61
351.711	1.62
352.081	2.29
352.45	1.67
352.82	1.48
353.19	1.73
353.56	1.63
353.929	1.51
354.299	1.24
354.669	1.71
355.038	1.75
355.408	1.36
355.777	1.5
356.147	1.8
356.516	1.94
356.885	1.81
357.254	2.08
357.624	1.28
357.993	1.71
358.362	1.7
358.731	1.53
359.1	1.65
359.469	1.76
359.838	1.83
360.207	1.63
360.576	1.68
360.945	1.64
361.314	1.89
361.682	1.47
362.051	1.84
362.42	1.62
362.788	1.53
363.157	1.46
363.525	1.63
363.894	1.56
364.262	1.63
364.631	1.98
364.999	1.34
365.367	1.29
365.735	1.78
366.104	1.77
366.472	1.67
366.84	1.45
367.208	1.96
367.576	1.44
367.944	1.99
368.312	2.06
368.68	1.86
369.048	1.53
369.416	1.92
369.783	1.78
370.151	1.95
370.519	1.92
370.886	1.67
371.254	2.02
371.621	1.91
371.989	1.3
372.356	1.92
372.724	1.75
373.091	1.75
373.458	1.58
373.826	1.94
374.193	1.6
374.56	1.51
374.927	2.06
375.294	1.76
375.661	1.87
376.028	1.67
376.395	1.81
376.762	1.48
377.129	2.2
377.496	1.69
377.863	1.71
378.229	1.53
378.596	1.53
378.963	1.72
379.329	1.34
379.696	1.91
380.062	1.82
380.429	1.66
380.795	1.65
381.161	1.79
381.528	1.27
381.894	1.54
382.26	1.73
382.626	1.85
382.993	1.78
383.359	1.74
383.725	1.53
384.091	1.61
384.457	1.45
384.823	1.62
385.188	1.84
385.554	1.7
385.92	1.73
386.286	1.94
386.651	1.6
387.017	1.67
387.383	1.84
387.748	1.56
388.114	1.61
388.479	1.87
388.845	1.85
389.21	1.5
389.575	1.42
389.94	1.96
390.306	1.42
390.671	1.43
391.036	1.71
391.401	1.8
391.766	1.97
392.131	1.74
392.496	1.52
392.861	1.95
393.226	1.62
393.591	1.46
393.956	1.64
394.32	1.58
394.685	1.65
395.05	1.53
395.414	1.77
395.779	1.54
396.143	1.6
396.508	1.64
396.872	1.51
397.236	1.99
397.601	1.81
397.965	1.74
398.329	1.66
398.694	1.78
399.058	1.95
399.422	1.58
399.786	1.84
400.15	1.47
400.514	1.59
400.878	1.92
401.242	1.96
401.605	1.7
401.969	1.64
402.333	1.49
402.697	1.62
403.06	1.44
403.424	1.72
403.787	1.47
404.151	1.64
404.514	1.54
404.878	1.56
405.241	1.54
405.604	1.74
405.968	1.63
406.331	1.66
406.694	1.75
407.057	1.44
407.42	1.65
407.783	1.5
408.146	1.57
408.509	1.61
408.872	1.76
409.235	1.55
409.598	1.7
409.961	1.39
410.323	1.7
410.686	1.55
411.049	1.62
411.411	1.57
411.774	1.66
412.136	1.65
412.499	1.88
412.861	1.64
413.223	1.81
413.586	1.89
413.948	1.68
414.31	1.91
414.672	1.63
415.035	1.88
415.397	1.62
415.759	1.73
416.121	1.36
416.483	1.93
416.845	1.78
417.206	1.6
417.568	1.72
417.93	1.32
418.292	1.7
418.653	1.49
419.015	1.66
419.377	1.5
419.738	1.65
420.1	1.6
420.461	1.62
420.822	1.73
421.184	1.68
421.545	1.65
421.906	1.62
422.267	1.58
422.629	1.66
422.99	1.57
423.351	1.63
423.712	1.66
424.073	1.53
424.434	1.65
424.795	1.7
425.155	1.64
425.516	1.49
425.877	1.57
426.238	1.66
426.598	1.58
426.959	1.69
427.32	1.76
427.68	1.68
428.041	1.71
428.401	1.78
428.761	1.79
429.122	1.8
429.482	1.9
429.842	1.81
430.202	1.91
430.563	1.68
430.923	1.82
431.283	1.81
431.643	1.88
432.003	2
432.363	1.64
432.722	1.93
433.082	1.86
433.442	1.83
433.802	1.75
434.161	1.73
434.521	1.89
434.881	1.7
435.24	1.65
435.6	1.83
435.959	1.74
436.319	1.68
436.678	1.68
437.037	1.95
437.396	1.64
437.756	1.85
438.115	1.75
438.474	1.91
438.833	1.66
439.192	1.64
439.551	1.71
439.91	1.87
440.269	1.76
440.628	1.56
440.987	1.8
441.345	1.78
441.704	1.68
442.063	1.67
442.421	1.72
442.78	1.64
443.138	1.87
443.497	1.76
443.855	1.78
444.214	1.67
444.572	1.81
444.93	1.72
445.288	1.81
445.647	1.7
446.005	1.63
446.363	1.8
446.721	1.82
447.079	1.58
447.437	1.76
447.795	1.6
448.153	1.75
448.51	1.65
448.868	1.62
449.226	1.72
449.584	1.76
449.941	1.76
450.299	1.78
450.656	1.74
451.014	1.68
451.371	1.82
451.729	1.89
452.086	1.62
452.443	1.79
452.801	1.95
453.158	1.73
453.515	1.73
453.872	1.74
454.229	1.87
454.586	1.82
454.943	1.95
455.3	2.03
455.657	1.71
456.014	1.94
456.371	1.75
456.727	1.73
457.084	1.85
457.441	1.75
457.797	1.91
458.154	1.75
458.51	1.79
458.867	1.86
459.223	1.85
459.58	1.79
459.936	1.83
460.292	1.89
460.648	1.83
461.005	1.75
461.361	1.59
461.717	1.76
462.073	1.67
462.429	1.77
462.785	1.72
463.141	1.82
463.496	1.81
463.852	1.88
464.208	1.7
464.564	1.85
464.919	1.88
465.275	1.71
465.631	1.76
465.986	1.78
466.342	1.74
466.697	1.73
467.052	1.8
467.408	1.87
467.763	1.89
468.118	1.95
468.473	1.79
468.829	1.79
469.184	1.74
469.539	1.83
469.894	1.67
470.249	1.46
470.603	1.86
470.958	1.95
471.313	1.85
471.668	1.9
472.023	1.74
472.377	1.8
472.732	1.95
473.086	1.96
473.441	1.78
473.795	1.87
474.15	1.78
474.504	1.73
474.859	1.98
475.213	1.93
475.567	1.97
475.921	1.84
476.275	1.87
476.63	1.84
476.984	1.92
477.338	1.9
477.692	1.91
478.045	1.87
478.399	1.87
478.753	1.77
479.107	1.82
479.461	1.84
479.814	1.74
480.168	1.88
480.521	1.85
480.875	1.8
481.228	1.89
481.582	1.72
481.935	1.82
482.289	1.86
482.642	1.79
482.995	1.76
483.348	1.84
483.701	1.78
484.055	1.76
484.408	1.72
484.761	1.7
485.114	1.62
485.466	1.64
485.819	1.69
486.172	1.72
486.525	1.84
486.878	1.81
487.23	1.81
487.583	1.77
487.936	1.73
488.288	1.76
488.641	1.76
488.993	1.75
489.345	1.71
489.698	1.77
490.05	1.77
490.402	1.88
490.754	1.84
491.107	1.84
491.459	1.87
491.811	1.86
492.163	1.88
492.515	1.76
492.866	1.72
493.218	1.77
493.57	1.78
493.922	1.86
494.274	1.92
494.625	1.86
494.977	1.85
495.328	1.89
495.68	1.85
496.031	1.92
496.383	1.97
496.734	1.95
497.086	1.81
497.437	1.95
497.788	1.84
498.139	1.88
498.49	1.73
498.842	1.86
499.193	1.82
499.544	1.99
499.894	1.85
500.245	1.77
500.596	1.88
500.947	2.05
501.298	1.99
501.648	1.97
501.999	1.87
502.35	1.98
502.7	2.03
503.051	2.03
503.401	1.91
503.752	1.91
504.102	1.88
504.452	1.89
504.803	2
505.153	1.86
505.503	1.97
505.853	1.84
506.203	1.88
506.553	1.93
506.903	1.85
507.253	1.91
507.603	2
507.953	1.89
508.303	2.07
508.652	1.89
509.002	1.93
509.352	1.96
509.701	1.93
510.051	1.9
510.4	1.82
510.75	1.93
511.099	1.99
511.449	2.04
511.798	1.99
512.147	1.89
512.496	1.85
512.846	1.91
513.195	1.92
513.544	1.98
513.893	1.85
514.242	1.94
514.591	2.06
514.939	2.08
515.288	2.05
515.637	2.02
515.986	2.06
516.334	1.96
516.683	1.94
517.032	1.93
517.38	2.04
517.729	2.04
518.077	1.93
518.426	1.83
518.774	2.01
519.122	1.88
519.47	1.89
519.819	1.88
520.167	1.97
520.515	1.92
520.863	1.93
521.211	1.92
521.559	2.07
521.907	1.94
522.255	1.98
522.602	1.93
522.95	1.9
523.298	2.01
523.645	1.92
523.993	2.06
524.341	2.03
524.688	1.96
525.036	2.08
525.383	1.99
525.73	2.04
526.078	2.03
526.425	2.02
526.772	1.99
527.119	1.9
527.466	1.97
527.814	1.96
528.161	1.98
528.508	1.91
528.854	2.03
529.201	1.88
529.548	1.85
529.895	1.81
530.242	1.8
530.588	1.84
530.935	1.92
531.282	1.96
531.628	1.93
531.975	1.99
532.321	2.06
532.667	1.89
533.014	1.96
533.36	1.97
533.706	2.01
534.052	1.88
534.399	1.91
534.745	1.85
535.091	1.9
535.437	2.01
535.783	2.01
536.129	2.02
536.474	1.96
536.82	1.9
537.166	2.03
537.512	1.99
537.857	2.02
538.203	2.01
538.549	1.95
538.894	2.03
539.239	2.08
539.585	1.95
539.93	2
540.276	2.08
540.621	1.99
540.966	2
541.311	2.1
541.656	2.1
542.001	1.93
542.346	1.91
542.691	1.89
543.036	1.9
543.381	1.97
543.726	2.07
544.071	2.03
544.415	2
544.76	1.99
545.105	2.1
545.449	1.99
545.794	2.09
546.138	2.05
546.483	2.09
546.827	2.03
547.171	1.95
547.516	2.13
547.86	2.11
548.204	2.11
548.548	2.06
548.892	2.16
549.236	2.06
549.58	2.04
549.924	2.11
550.268	2.19
550.612	2.14
550.956	2.04
551.3	2.06
551.643	2.12
551.987	2.2
552.33	2.45
552.674	2.35
553.017	2.19
553.361	2.28
553.704	2.25
554.048	2.15
554.391	2.28
554.734	2.05
555.077	2.08
555.42	2.25
555.764	2.22
556.107	2.23
556.45	2.34
556.793	2.21
557.135	2.26
557.478	2.18
557.821	2.22
558.164	2.01
558.507	2.26
558.849	2.17
559.192	2.25
559.534	2.32
559.877	2.1
560.219	2.2
560.562	2.2
560.904	2.24
561.246	1.98
561.589	2.21
561.931	2.33
562.273	1.91
562.615	2.13
562.957	2.3
563.299	2.26
563.641	2.19
563.983	2.22
564.325	2.23
564.667	2.27
565.008	2.24
565.35	2.16
565.692	2.27
566.033	2.22
566.375	2.23
566.716	2.16
567.058	2.14
567.399	2.35
567.741	2.12
568.082	2.18
568.423	2.19
568.764	2.18
569.105	2.38
569.447	2.35
569.788	2.28
570.129	2.31
570.47	2.31
570.811	2.12
571.151	2.09
571.492	2.44
571.833	2.48
572.174	2.24
572.514	2.36
572.855	2.35
573.195	2.2
573.536	2.2
573.876	2.25
574.217	2.08
574.557	2.2
574.898	2.36
575.238	2.4
575.578	2.3
575.918	2.25
576.258	2.15
576.598	2.26
576.938	2.37
577.278	2.31
577.618	2.29
577.958	2.56
578.298	2.12
578.638	2.3
578.977	2.24
579.317	2.18
579.657	2.33
579.996	2.39
580.336	2.06
580.675	2.27
581.014	2.49
581.354	2.31
581.693	2.36
582.032	2.36
582.372	2.32
582.711	2.21
583.05	2.49
583.389	2.19
583.728	2.25
584.067	2.36
584.406	2.27
584.745	2.36
585.083	2.49
585.422	2.55
585.761	2.71
586.1	2.45
586.438	2.29
586.777	2.29
587.115	2.45
587.454	2.59
587.792	2.47
588.13	2.31
588.469	2.19
588.807	2.24
589.145	2.28
589.483	2.48
589.821	2.09
590.159	2.36
590.497	2.47
590.835	2.6
591.173	2.31
591.511	2.32
591.849	2.51
592.187	2.5
592.524	2.29
592.862	2.49
593.2	2.4
593.537	2.48
593.875	2.1
594.212	2.2
594.55	2.27
594.887	2.48
595.224	2.34
595.561	2.37
595.899	2.53
596.236	2.63
596.573	2
596.91	2.37
597.247	2.32
597.584	2.44
597.921	2.38
598.258	2.43
598.594	2.47
598.931	2.4
599.268	2.35
599.604	2.38
599.941	2.56
600.277	2.28
600.614	2.27
600.95	2.56
601.287	2.51
601.623	2.6
601.959	2.53
602.296	2.46
602.632	2.29
602.968	2.5
603.304	2.26
603.64	2.47
603.976	2.53
604.312	2.52
604.648	2.5
604.984	2.42
605.319	2.49
605.655	2.33
605.991	2.36
606.326	2.38
606.662	2.37
606.998	2.52
607.333	2.28
607.668	2.63
608.004	2.6
608.339	2.42
608.674	2.75
609.01	2.3
609.345	2.36
609.68	2.39
610.015	2.62
610.35	2.58
610.685	2.42
611.02	2.53
611.355	2.59
611.689	2.57
612.024	2.49
612.359	2.53
612.694	2.55
613.028	2.49
613.363	2.38
613.697	2.56
614.032	2.61
614.366	2.57
614.7	2.52
615.035	2.58
615.369	2.44
615.703	2.57
616.037	2.59
616.371	2.59
616.705	2.57
617.039	2.81
617.373	2.91
617.707	2.13
618.041	2.66
618.375	2.19
618.709	2.97
619.042	2.74
619.376	2.4
619.71	2.34
620.043	2.6
620.377	2.47
620.71	2.63
621.043	2.7
621.377	2.78
621.71	3
622.043	2.59
622.376	3.03
622.709	2.76
623.043	3.23
623.376	2.74
623.709	2.53
624.041	2.43
624.374	2.93
624.707	2.57
625.04	2.71
625.373	3.06
625.705	2.79
626.038	2.79
626.37	2.81
626.703	2.79
627.035	3.02
627.368	2.74
627.7	2.89
628.032	2.69
628.365	2.7
628.697	2.46
629.029	2.64
629.361	2.84
629.693	2.57
630.025	2.95
630.357	2.41
630.689	2.72
631.021	2.6
631.353	2.5
631.684	2.61
632.016	2.75
632.348	3.23
632.679	3.08
633.011	2.48
633.342	2.86
633.674	2.69
634.005	2.75
634.336	2.92
634.668	2.93
634.999	2.78
635.33	2.29
635.661	2.51
635.992	2.85
636.323	2.89
636.654	2.42
636.985	2.76
637.316	2.53
637.647	2.85
637.977	3.04
638.308	2.54
638.639	2.85
638.969	2.98
639.3	2.81
639.63	2.95
639.961	2.87
640.291	2.71
640.622	2.81
640.952	3.4
641.282	2.72
641.612	2.66
641.943	2.85
642.273	3.21
642.603	2.54
642.933	2.77
643.263	2.33
643.592	2.31
643.922	2.84
644.252	3.06
644.582	2.52
644.911	2.29
645.241	3.06
645.571	3
645.9	2.91
646.23	3.12
646.559	2.62
646.888	3.08
647.218	2.93
647.547	2.83
647.876	3.23
648.205	3.42
648.534	2.74
648.863	2.88
649.192	3.14
649.521	3.34
649.85	3.05
650.179	2.62
650.508	2.73
650.837	2.75
651.165	2.84
651.494	3.04
651.822	2.75
652.151	2.19
652.479	2.99
652.808	3.47
653.136	3.24
653.465	3.03
653.793	2.97
654.121	2.86
654.449	2.79
654.777	2.57
655.105	2.84
655.433	2.79
655.761	3.17
656.089	2.75
656.417	2.82
656.745	2.32
657.073	3.13
657.4	2.53
657.728	3.96
658.056	2.63
658.383	3.17
658.711	3.06
659.038	2.98
659.365	2.65
659.693	2.55
660.02	2.71
660.347	3.09
660.674	2.72
661.001	3.07
661.329	3.19
661.656	2.96
661.982	2.77
662.309	2.84
662.636	2.84
662.963	2.9
663.29	2.89
663.616	3.37
663.943	2.62
664.27	2.81
664.596	2.8
664.923	2.82
665.249	3.65
665.576	3.57
665.902	2.99
666.228	3.7
666.554	2.64
666.881	3.17
667.207	3
667.533	3.34
667.859	2.96
668.185	3.26
668.511	2.37
668.837	3.55
669.162	2.97
669.488	2.43
669.814	3.06
670.139	2.93
670.465	2.94
670.791	2.55
671.116	3.96
671.442	3.13
671.767	3.46
672.092	3.62
672.418	3.02
672.743	3.13
673.068	3.53
673.393	3.41
673.718	2.79
674.043	2.99
674.368	3.28
674.693	2.23
675.018	2.7
675.343	3.46
675.667	3.52
675.992	3.38
676.317	2.86
676.641	2.47
676.966	4.37
677.29	3.68
677.615	2.53
677.939	3.31
678.264	3.54
678.588	3.17
678.912	2.71
679.236	3.61
679.56	2.8
679.885	3.26
680.209	3.26
680.532	2.6
680.856	2.77
681.18	2.68
681.504	2.77
681.828	3.52
682.152	2.77
682.475	2.73
682.799	3.06
683.122	3.43
683.446	3.56
683.769	2.69
684.093	4.05
684.416	3.61
684.739	3.23
685.062	3.81
685.386	3.19
685.709	4
686.032	3.47
686.355	3.47
686.678	3.83
687.001	3.42
687.324	3.42
687.646	3.33
687.969	3.51
688.292	2.99
688.614	3.3
688.937	2.33
689.26	3.24
689.582	3.05
689.904	3.24
690.227	3.32
690.549	3.64
690.871	3.64
691.194	3.24
691.516	2.94
691.838	3.3
692.16	3.76
692.482	3.43
692.804	3.08
693.126	3.6
