Data from 0019_forehead_Reflection__5__15.txt Node

Date: Thu Oct 20 20:25:59 CDT 2022
User: ToomeyLab
Spectrometer: FLMS14357
Trigger mode: 0
Integration Time (sec): 1.000000E-2
Scans to average: 100
Electric dark correction enabled: true
Nonlinearity correction enabled: false
Boxcar width: 0
XAxis mode: Wavelengths
Number of Pixels in Spectrum: 2048
>>>>>Begin Spectral Data<<<<<
189.047	89.03
189.435	89.03
189.823	89.03
190.211	-1540.23
190.599	93.84
190.987	6513.21
191.375	64.09
191.763	219.27
192.151	-121.29
192.538	-99.47
192.926	295.4
193.314	-56.95
193.702	128.98
194.089	36.08
194.477	1867.38
194.864	182.46
195.252	944.54
195.639	-18.51
196.027	153.72
196.414	85.28
196.801	14.86
197.189	-11.46
197.576	55.73
197.963	103.34
198.351	33.34
198.738	49.94
199.125	42.5
199.512	48.99
199.899	21.2
200.286	21.05
200.673	47.79
201.06	55.29
201.447	41.01
201.833	-2.32
202.22	52.21
202.607	48.49
202.994	31.13
203.38	41.39
203.767	31.65
204.154	32.76
204.54	18.1
204.927	59.74
205.313	56.03
205.699	32.68
206.086	45.89
206.472	27
206.858	23.28
207.245	42.93
207.631	11.63
208.017	16.1
208.403	26.7
208.789	20.06
209.175	59.9
209.561	32.8
209.947	33.25
210.333	55.98
210.719	24.99
211.105	-8.04
211.491	47.16
211.876	52.29
212.262	21.06
212.648	21.21
213.034	38.92
213.419	48.48
213.805	24.57
214.19	25.49
214.576	27.86
214.961	58.87
215.346	15.55
215.732	37.35
216.117	24.64
216.502	40.59
216.888	57.62
217.273	40.79
217.658	42.3
218.043	19.05
218.428	32.41
218.813	13.66
219.198	39.75
219.583	38.11
219.968	-2.95
220.353	20.89
220.738	20.64
221.122	22.24
221.507	15.7
221.892	18.31
222.276	26.09
222.661	12.66
223.046	18.52
223.43	7.42
223.815	4.49
224.199	11.63
224.583	9.6
224.968	19.36
225.352	20.02
225.736	8.11
226.121	14.13
226.505	7.9
226.889	13.62
227.273	4.27
227.657	10.62
228.041	6.04
228.425	6.27
228.809	4.62
229.193	7.07
229.577	6.54
229.961	4.43
230.344	5.22
230.728	5.75
231.112	4.91
231.495	4.7
231.879	7.42
232.263	6.3
232.646	5.11
233.03	3.88
233.413	6.36
233.797	3.36
234.18	6.21
234.563	4.09
234.946	6.28
235.33	6.77
235.713	6.78
236.096	6.61
236.479	3.56
236.862	6.76
237.245	6.86
237.628	4.73
238.011	5.83
238.394	6.71
238.777	4.31
239.16	5.8
239.543	6.66
239.925	6.18
240.308	6.57
240.691	5.77
241.073	6.44
241.456	5.29
241.838	4.82
242.221	5.18
242.603	6.16
242.986	4.99
243.368	4.71
243.75	4.76
244.133	4.9
244.515	5.54
244.897	5.23
245.279	5.54
245.661	4.93
246.043	5.31
246.425	5.89
246.807	6.12
247.189	5.21
247.571	4.63
247.953	4.93
248.335	4.86
248.717	4.92
249.098	4.88
249.48	5.13
249.862	5.02
250.243	5.54
250.625	5.51
251.006	6.47
251.388	7
251.769	4.32
252.151	5.15
252.532	5.92
252.913	5.33
253.295	5.1
253.676	5.23
254.057	5.4
254.438	6.28
254.819	7.05
255.2	5.85
255.581	7.06
255.962	5.27
256.343	8.01
256.724	5.08
257.105	6.19
257.486	5.26
257.867	5.85
258.247	5.42
258.628	5.08
259.009	5.59
259.389	4.42
259.77	5.42
260.15	6
260.531	5.14
260.911	4.83
261.292	4.68
261.672	4.9
262.052	5.43
262.432	5.66
262.813	5.99
263.193	5.23
263.573	5.05
263.953	4.6
264.333	5.45
264.713	5.69
265.093	5.78
265.473	6.22
265.853	5.2
266.233	5.88
266.612	5.13
266.992	6.23
267.372	5.47
267.752	5.46
268.131	4.39
268.511	5.01
268.89	5.32
269.27	5.95
269.649	5.2
270.029	5.97
270.408	4.87
270.787	4.93
271.167	5.71
271.546	4.96
271.925	5.46
272.304	4.93
272.683	4.75
273.062	5.54
273.441	5.21
273.82	4.88
274.199	4.99
274.578	5.31
274.957	5.45
275.336	5.26
275.715	4.84
276.093	5.13
276.472	5.1
276.851	4.79
277.229	4.72
277.608	4.28
277.986	4.79
278.365	5.71
278.743	4.73
279.122	5.63
279.5	4.77
279.878	5.41
280.257	5.22
280.635	5.93
281.013	5.45
281.391	5.08
281.769	5.09
282.147	4.88
282.525	4.67
282.903	5.06
283.281	5.08
283.659	5.03
284.037	5.34
284.415	5.25
284.792	4.72
285.17	5.25
285.548	4.71
285.925	5.07
286.303	5.32
286.68	5.17
287.058	5.41
287.435	4.86
287.813	4.88
288.19	5.13
288.567	5.03
288.945	5.44
289.322	4.83
289.699	5.35
290.076	5.34
290.453	5.42
290.83	5.66
291.207	5.24
291.584	5.01
291.961	5.67
292.338	5.31
292.715	5.76
293.092	6.22
293.469	6.24
293.845	6
294.222	5.43
294.599	6.31
294.975	5.86
295.352	6
295.728	5.84
296.105	6.13
296.481	6.35
296.858	6.36
297.234	5.89
297.61	6.14
297.986	5.78
298.363	5.66
298.739	6.21
299.115	6.26
299.491	6.55
299.867	6.65
300.243	6.37
300.619	6.76
300.995	6.8
301.371	6.43
301.746	6.75
302.122	6.29
302.498	6.95
302.874	6.62
303.249	6.86
303.625	7.36
304	7.34
304.376	6.87
304.751	7.29
305.127	7.3
305.502	7.26
305.878	6.9
306.253	7.48
306.628	7.16
307.003	7.24
307.378	7.94
307.754	7.91
308.129	7.93
308.504	7.13
308.879	8.21
309.254	7.75
309.629	8.35
310.003	8.46
310.378	8.33
310.753	8.35
311.128	7.81
311.502	8.27
311.877	8.27
312.252	8.32
312.626	8.21
313.001	8.33
313.375	8.56
313.75	8.8
314.124	8.91
314.498	9.17
314.873	9.55
315.247	9.39
315.621	9.05
315.995	9.14
316.369	9.29
316.743	9.65
317.117	9.15
317.491	9.39
317.865	10.6
318.239	9.58
318.613	9.77
318.987	10.33
319.361	10.69
319.734	10.19
320.108	10.81
320.482	9.69
320.855	10.76
321.229	10.7
321.602	11.4
321.976	10.85
322.349	10.81
322.723	10.74
323.096	10.91
323.469	10.54
323.843	11.56
324.216	11.17
324.589	11.27
324.962	11.16
325.335	10.53
325.708	11.02
326.081	11.27
326.454	11.39
326.827	11.47
327.2	11.93
327.573	11.79
327.945	11.86
328.318	11.74
328.691	11.79
329.063	11.87
329.436	11.56
329.809	12.05
330.181	12.23
330.553	12.37
330.926	12.33
331.298	12.13
331.671	12.1
332.043	12.07
332.415	12.6
332.787	12.58
333.159	12.27
333.532	12.72
333.904	11.98
334.276	12.87
334.648	12.61
335.02	12.92
335.391	12.83
335.763	12.82
336.135	13.29
336.507	13.1
336.879	13.1
337.25	12.87
337.622	12.91
337.993	13.18
338.365	13.22
338.736	13.81
339.108	12.64
339.479	13.87
339.851	13.86
340.222	13.51
340.593	13.36
340.964	13.91
341.336	14
341.707	14.13
342.078	13.63
342.449	14.23
342.82	13.73
343.191	13.83
343.562	13.99
343.933	13.99
344.303	14.5
344.674	13.94
345.045	14.44
345.416	13.83
345.786	14.48
346.157	14.43
346.527	14.14
346.898	14.55
347.268	14.42
347.639	14.51
348.009	14.66
348.38	15.13
348.75	14.51
349.12	14.79
349.49	15.09
349.861	15.19
350.231	14.75
350.601	15.1
350.971	15.28
351.341	15.15
351.711	15.36
352.081	15.31
352.45	15.2
352.82	15.4
353.19	15.32
353.56	15.8
353.929	15.48
354.299	15.31
354.669	15.65
355.038	15.68
355.408	15.74
355.777	16.01
356.147	15.81
356.516	16.13
356.885	15.95
357.254	16.29
357.624	15.96
357.993	16.03
358.362	16.04
358.731	16.31
359.1	16.27
359.469	16.36
359.838	16.6
360.207	17.07
360.576	16.5
360.945	16.16
361.314	16.43
361.682	16.81
362.051	16.81
362.42	16.25
362.788	16.53
363.157	16.67
363.525	16.44
363.894	17.29
364.262	17.02
364.631	17.28
364.999	16.91
365.367	17.02
365.735	17.35
366.104	17.15
366.472	17.23
366.84	17.63
367.208	17.33
367.576	17.48
367.944	17.69
368.312	17.97
368.68	18.05
369.048	17.44
369.416	18.08
369.783	18.03
370.151	17.98
370.519	18.42
370.886	18.33
371.254	18.31
371.621	18.32
371.989	17.84
372.356	18.18
372.724	18.55
373.091	18.84
373.458	18.31
373.826	18.64
374.193	18.46
374.56	18.6
374.927	18.91
375.294	18.91
375.661	18.72
376.028	18.63
376.395	18.78
376.762	18.79
377.129	18.98
377.496	19.14
377.863	19.07
378.229	19.02
378.596	19.06
378.963	19.25
379.329	19.31
379.696	19.43
380.062	19.8
380.429	19.74
380.795	19.41
381.161	19.69
381.528	19.52
381.894	19.75
382.26	19.56
382.626	19.67
382.993	19.94
383.359	19.86
383.725	20.22
384.091	19.62
384.457	19.57
384.823	19.95
385.188	20.19
385.554	20.36
385.92	20
386.286	20.34
386.651	20.1
387.017	20.36
387.383	20.51
387.748	20.52
388.114	20.51
388.479	20.93
388.845	20.8
389.21	20.75
389.575	20.68
389.94	20.98
390.306	20.57
390.671	20.86
391.036	21.33
391.401	20.64
391.766	21.26
392.131	20.82
392.496	20.9
392.861	21.48
393.226	21.12
393.591	20.99
393.956	21.08
394.32	21.41
394.685	21.5
395.05	21.3
395.414	21.51
395.779	21.52
396.143	21.81
396.508	21.79
396.872	21.67
397.236	22.02
397.601	21.73
397.965	21.91
398.329	21.96
398.694	21.75
399.058	22.06
399.422	22.02
399.786	21.93
400.15	21.87
400.514	22.01
400.878	22.24
401.242	22.42
401.605	22.53
401.969	22.59
402.333	22.63
402.697	22.96
403.06	22.58
403.424	22.79
403.787	22.64
404.151	22.51
404.514	22.61
404.878	22.64
405.241	22.81
405.604	23.06
405.968	22.7
406.331	22.86
406.694	23.05
407.057	22.82
407.42	23.04
407.783	23.27
408.146	23.49
408.509	23.46
408.872	23.38
409.235	23.44
409.598	23.69
409.961	23.53
410.323	23.74
410.686	23.75
411.049	23.54
411.411	23.63
411.774	23.61
412.136	23.77
412.499	23.91
412.861	24.04
413.223	24.04
413.586	24.19
413.948	24.38
414.31	24.29
414.672	24.32
415.035	24.19
415.397	24.22
415.759	24.27
416.121	24.54
416.483	24.4
416.845	24.39
417.206	24.3
417.568	24.38
417.93	24.17
418.292	24.25
418.653	24.48
419.015	24.14
419.377	24.18
419.738	24.34
420.1	23.97
420.461	24.4
420.822	24.31
421.184	24.42
421.545	24.47
421.906	24.23
422.267	24.14
422.629	24.3
422.99	24.55
423.351	24.66
423.712	24.74
424.073	24.8
424.434	24.85
424.795	24.8
425.155	24.5
425.516	24.74
425.877	24.67
426.238	24.86
426.598	25
426.959	25.23
427.32	25.46
427.68	25.61
428.041	25.85
428.401	25.85
428.761	26.14
429.122	26.04
429.482	26.1
429.842	26.15
430.202	26.31
430.563	26.15
430.923	26.23
431.283	26.08
431.643	26.41
432.003	26.53
432.363	26.44
432.722	26.26
433.082	26.36
433.442	26.28
433.802	26.04
434.161	26.22
434.521	26.04
434.881	26.13
435.24	26.24
435.6	26.58
435.959	26.52
436.319	27.01
436.678	26.81
437.037	27.26
437.396	27.13
437.756	27.25
438.115	26.97
438.474	26.85
438.833	26.93
439.192	26.91
439.551	26.89
439.91	27.11
440.269	26.89
440.628	26.86
440.987	26.84
441.345	26.83
441.704	26.84
442.063	27
442.421	27.15
442.78	27.38
443.138	27.53
443.497	27.56
443.855	27.81
444.214	27.66
444.572	27.68
444.93	27.96
445.288	27.68
445.647	27.5
446.005	27.53
446.363	27.26
446.721	27.29
447.079	27.23
447.437	27.27
447.795	27.21
448.153	27.35
448.51	27.42
448.868	27.77
449.226	27.98
449.584	28.27
449.941	28.36
450.299	28.32
450.656	28.62
451.014	28.62
451.371	28.76
451.729	28.5
452.086	28.99
452.443	28.98
452.801	28.86
453.158	28.67
453.515	28.48
453.872	28.62
454.229	28.84
454.586	29.03
454.943	28.89
455.3	29.09
455.657	29.11
456.014	29.21
456.371	29.2
456.727	29.12
457.084	29.41
457.441	29.39
457.797	29.54
458.154	29.43
458.51	29.56
458.867	29.38
459.223	29.13
459.58	29.37
459.936	29.26
460.292	28.99
460.648	28.88
461.005	28.64
461.361	28.85
461.717	29.11
462.073	29.46
462.429	29.65
462.785	29.78
463.141	29.99
463.496	30.15
463.852	30.21
464.208	29.98
464.564	30.25
464.919	30.55
465.275	30.43
465.631	30.41
465.986	30.2
466.342	30.39
466.697	30.25
467.052	30.42
467.408	30.46
467.763	30.55
468.118	30.18
468.473	30.2
468.829	30.37
469.184	30.32
469.539	30.38
469.894	30.61
470.249	30.76
470.603	30.88
470.958	30.84
471.313	31.07
471.668	30.84
472.023	31.01
472.377	31.15
472.732	31.14
473.086	31.08
473.441	31.17
473.795	31.21
474.15	31.27
474.504	31.11
474.859	31.26
475.213	31.47
475.567	31.29
475.921	31.66
476.275	31.54
476.63	31.63
476.984	31.66
477.338	31.79
477.692	31.63
478.045	31.56
478.399	31.46
478.753	31.67
479.107	31.67
479.461	31.57
479.814	31.72
480.168	31.84
480.521	31.86
480.875	31.84
481.228	32.02
481.582	32.08
481.935	31.95
482.289	32.08
482.642	31.9
482.995	31.78
483.348	31.76
483.701	31.79
484.055	31.63
484.408	31.15
484.761	30.48
485.114	30.29
485.466	30.7
485.819	31.15
486.172	31.54
486.525	31.91
486.878	32.21
487.23	32.1
487.583	32.14
487.936	31.86
488.288	31.49
488.641	31.33
488.993	31.35
489.345	31.61
489.698	31.68
490.05	32.15
490.402	32.49
490.754	32.89
491.107	32.9
491.459	33.04
491.811	33.11
492.163	32.65
492.515	32.08
492.866	31.73
493.218	32.07
493.57	32.42
493.922	32.92
494.274	33.19
494.625	33.37
494.977	33.65
495.328	33.93
495.68	33.82
496.031	33.81
496.383	34
496.734	33.93
497.086	33.96
497.437	33.87
497.788	33.56
498.139	33.49
498.49	33.64
498.842	33.67
499.193	33.9
499.544	34.04
499.894	34.13
500.245	34.08
500.596	34.13
500.947	34.49
501.298	34.3
501.648	34.47
501.999	34.57
502.35	34.69
502.7	34.77
503.051	34.65
503.401	34.83
503.752	34.71
504.102	34.8
504.452	35.02
504.803	34.81
505.153	34.78
505.503	34.83
505.853	34.79
506.203	34.91
506.553	35.03
506.903	35.21
507.253	35.12
507.603	35.24
507.953	35.35
508.303	35.26
508.652	35.32
509.002	35.1
509.352	35.03
509.701	34.86
510.051	34.92
510.4	35.23
510.75	35.07
511.099	35.19
511.449	35.28
511.798	35.48
512.147	35.43
512.496	35.65
512.846	35.65
513.195	35.71
513.544	35.54
513.893	35.59
514.242	35.75
514.591	35.81
514.939	35.9
515.288	36.1
515.637	36.2
515.986	36.09
516.334	36.35
516.683	36.38
517.032	36.41
517.38	36.42
517.729	36.54
518.077	36.31
518.426	36.29
518.774	36.37
519.122	36.1
519.47	35.94
519.819	35.69
520.167	35.96
520.515	35.97
520.863	36.1
521.211	36.43
521.559	36.64
521.907	36.71
522.255	36.92
522.602	36.91
522.95	37
523.298	37.37
523.645	37.13
523.993	37.41
524.341	37.22
524.688	37.38
525.036	37.53
525.383	37.46
525.73	37.2
526.078	37.28
526.425	37.01
526.772	36.77
527.119	36.63
527.466	36.93
527.814	37.09
528.161	37.31
528.508	37.21
528.854	37.18
529.201	36.8
529.548	36.03
529.895	35.82
530.242	36.42
530.588	36.7
530.935	36.81
531.282	37.26
531.628	37.21
531.975	37.72
532.321	37.8
532.667	37.75
533.014	37.73
533.36	37.79
533.706	37.71
534.052	37.38
534.399	36.88
534.745	36.92
535.091	37.3
535.437	37.72
535.783	38.06
536.129	38.33
536.474	38.45
536.82	38.55
537.166	38.69
537.512	38.31
537.857	38.02
538.203	38.06
538.549	38.39
538.894	38.56
539.239	38.66
539.585	38.8
539.93	39.25
540.276	39.16
540.621	39.25
540.966	39.27
541.311	39.28
541.656	39.1
542.001	38.43
542.346	37.8
542.691	37.54
543.036	38.02
543.381	38.37
543.726	38.72
544.071	38.89
544.415	38.96
544.76	39.12
545.105	39.52
545.449	39.44
545.794	39.82
546.138	39.53
546.483	39.66
546.827	39.73
547.171	39.54
547.516	39.72
547.86	39.39
548.204	39.28
548.548	39.68
548.892	39.95
549.236	40.1
549.58	40.44
549.924	40.51
550.268	40.68
550.612	40.72
550.956	40.65
551.3	40.8
551.643	40.91
551.987	40.69
552.33	40.85
552.674	40.74
553.017	40.87
553.361	40.89
553.704	40.58
554.048	40.52
554.391	40.83
554.734	40.77
555.077	41.07
555.42	41.27
555.764	41.27
556.107	41.48
556.45	41.38
556.793	41.37
557.135	41.66
557.478	41.67
557.821	41.54
558.164	41.35
558.507	41.57
558.849	41.86
559.192	41.69
559.534	41.63
559.877	41.93
560.219	42.01
560.562	41.76
560.904	41.9
561.246	41.96
561.589	42.14
561.931	41.96
562.273	41.97
562.615	41.89
562.957	42.12
563.299	42.11
563.641	42.3
563.983	42.24
564.325	42.59
564.667	42.37
565.008	42.51
565.35	42.48
565.692	42.1
566.033	42.35
566.375	42.43
566.716	42.04
567.058	42.16
567.399	42.12
567.741	42.1
568.082	42.05
568.423	42.57
568.764	42.78
569.105	42.67
569.447	43.02
569.788	42.69
570.129	42.99
570.47	42.85
570.811	42.76
571.151	43.14
571.492	43.22
571.833	43.24
572.174	43.21
572.514	42.85
572.855	42.86
573.195	42.77
573.536	42.82
573.876	42.85
574.217	43.03
574.557	43.19
574.898	43.37
575.238	43.41
575.578	43.59
575.918	43.35
576.258	43.46
576.598	43.33
576.938	43.4
577.278	43.57
577.618	43.85
577.958	43.86
578.298	44.1
578.638	43.81
578.977	43.87
579.317	43.72
579.657	44.24
579.996	44.15
580.336	44
580.675	43.9
581.014	44.44
581.354	44.36
581.693	44.35
582.032	44.8
582.372	44.69
582.711	44.48
583.05	44.66
583.389	44.35
583.728	44.7
584.067	44.94
584.406	45.05
584.745	44.84
585.083	44.79
585.422	44.92
585.761	44.97
586.1	44.86
586.438	45.09
586.777	45.03
587.115	45.17
587.454	45.22
587.792	45.16
588.13	45.13
588.469	45.15
588.807	45.18
589.145	45.37
589.483	45.13
589.821	45.16
590.159	45.14
590.497	45.49
590.835	45.59
591.173	45.31
591.511	45.63
591.849	45.49
592.187	45.78
592.524	45.68
592.862	45.59
593.2	45.76
593.537	46.36
593.875	45.78
594.212	45.7
594.55	46.06
594.887	45.92
595.224	45.49
595.561	46.03
595.899	46
596.236	46.1
596.573	45.78
596.91	45.71
597.247	46.07
597.584	46.06
597.921	45.94
598.258	45.51
598.594	45.36
598.931	46.09
599.268	45.94
599.604	46.21
599.941	46.16
600.277	46.51
600.614	46.63
600.95	46.29
601.287	46.87
601.623	46.82
601.959	46.57
602.296	46.44
602.632	46.72
602.968	46.99
603.304	47.39
603.64	47.02
603.976	46.88
604.312	46.51
604.648	46.58
604.984	46.61
605.319	46.67
605.655	46.53
605.991	46.19
606.326	46.56
606.662	46.85
606.998	47.08
607.333	47.06
607.668	47.25
608.004	47.51
608.339	47.7
608.674	47.56
609.01	47.39
609.345	47.61
609.68	47.85
610.015	47.48
610.35	47.22
610.685	46.84
611.02	46.83
611.355	47.62
611.689	47.65
612.024	47.95
612.359	47.82
612.694	47.79
613.028	47.74
613.363	48.04
613.697	48.41
614.032	48.19
614.366	48.46
614.7	48.53
615.035	48.43
615.369	48.3
615.703	48.95
616.037	48.43
616.371	48.16
616.705	48.27
617.039	48.97
617.373	48.82
617.707	48.32
618.041	48.3
618.375	47.97
618.709	48.57
619.042	48.69
619.376	48.43
619.71	48.82
620.043	48.7
620.377	49.13
620.71	48.5
621.043	48.95
621.377	48.98
621.71	49.15
622.043	49.04
622.376	48.85
622.709	48.87
623.043	49.34
623.376	49.24
623.709	48.92
624.041	49.24
624.374	49.62
624.707	48.72
625.04	49.5
625.373	49.36
625.705	49.38
626.038	49.56
626.37	49.47
626.703	49.79
627.035	49.6
627.368	49.25
627.7	49.6
628.032	49.27
628.365	49.4
628.697	49.38
629.029	49.52
629.361	49.73
629.693	49.61
630.025	49.97
630.357	49.98
630.689	50.09
631.021	49.89
631.353	49.51
631.684	50.3
632.016	50.37
632.348	50.17
632.679	50.15
633.011	50.24
633.342	50.72
633.674	50.14
634.005	50.24
634.336	50.28
634.668	50.29
634.999	50.45
635.33	49.72
635.661	50.34
635.992	50.15
636.323	50.99
636.654	50.36
636.985	50.69
637.316	50.42
637.647	50.71
637.977	50.66
638.308	50.78
638.639	50.38
638.969	50.86
639.3	50.4
639.63	51.06
639.961	50.88
640.291	51.43
640.622	50.8
640.952	51.45
641.282	51.54
641.612	51.42
641.943	51.21
642.273	51.83
642.603	51.05
642.933	51.13
643.263	51.24
643.592	51.55
643.922	50.97
644.252	51.75
644.582	51.17
644.911	51.24
645.241	52.19
645.571	51.27
645.9	51.61
646.23	51.2
646.559	51.93
646.888	51.83
647.218	51.34
647.547	51.52
647.876	51.92
648.205	51.93
648.534	51.7
648.863	51.29
649.192	51.36
649.521	51.86
649.85	52.08
650.179	52.28
650.508	52.24
650.837	51.28
651.165	52.17
651.494	51.53
651.822	51.96
652.151	51.88
652.479	52.61
652.808	51.99
653.136	52.88
653.465	51.67
653.793	52.07
654.121	51.93
654.449	52.39
654.777	52.09
655.105	52.49
655.433	52.94
655.761	53.23
656.089	52.88
656.417	52.26
656.745	52.89
657.073	52.53
657.4	52.93
657.728	53.34
658.056	53
658.383	52.73
658.711	52.85
659.038	53.38
659.365	53.35
659.693	52.42
660.02	53.43
660.347	52.78
660.674	51.7
661.001	52.59
661.329	52.79
661.656	52.37
661.982	53.31
662.309	54.05
662.636	53.4
662.963	53.97
663.29	53.3
663.616	53.89
663.943	53.85
664.27	53.08
664.596	53.83
664.923	53.64
665.249	53.93
665.576	53.99
665.902	53.33
666.228	53.55
666.554	53.32
666.881	53.69
667.207	53.67
667.533	54.6
667.859	54.29
668.185	53.63
668.511	53.46
668.837	54.09
669.162	54.02
