Data from 0019_chest_Reflection__1__01.txt Node

Date: Thu Oct 20 20:21:35 CDT 2022
User: ToomeyLab
Spectrometer: FLMS14357
Trigger mode: 0
Integration Time (sec): 1.000000E-2
Scans to average: 100
Electric dark correction enabled: true
Nonlinearity correction enabled: false
Boxcar width: 0
XAxis mode: Wavelengths
Number of Pixels in Spectrum: 2048
>>>>>Begin Spectral Data<<<<<
189.047	54.39
189.435	54.39
189.823	54.39
190.211	-783.14
190.599	131.2
190.987	-4520.75
191.375	167.95
191.763	134.02
192.151	39.65
192.538	93.81
192.926	7.4
193.314	-698.83
193.702	95
194.089	214.15
194.477	725.13
194.864	34.64
195.252	597.2
195.639	6.07
196.027	27.85
196.414	-15.02
196.801	31.88
197.189	43.32
197.576	-39.95
197.963	-321.11
198.351	38.44
198.738	21.91
199.125	19.11
199.512	-11.24
199.899	9.67
200.286	-42.81
200.673	44.63
201.06	18.09
201.447	21.21
201.833	22.39
202.22	6.75
202.607	36.01
202.994	33.21
203.38	18.48
203.767	3.3
204.154	-10.63
204.54	2.51
204.927	26.3
205.313	16.43
205.699	-1.77
206.086	21.6
206.472	23.83
206.858	12.57
207.245	13.43
207.631	-0.51
208.017	18.57
208.403	4.89
208.789	-6.43
209.175	39.33
209.561	-13.76
209.947	24.21
210.333	5.97
210.719	21.41
211.105	-34.03
211.491	9.64
211.876	30.63
212.262	-9.1
212.648	-0.83
213.034	22.11
213.419	21.23
213.805	-3.4
214.19	1.03
214.576	23
214.961	24.06
215.346	0.41
215.732	4.48
216.117	18.19
216.502	32.74
216.888	32.46
217.273	17.98
217.658	23.37
218.043	-11.85
218.428	13.13
218.813	7.26
219.198	4.74
219.583	17.96
219.968	8.7
220.353	8.18
220.738	9.08
221.122	0.04
221.507	-2.35
221.892	-1.04
222.276	11.1
222.661	0.35
223.046	10.89
223.43	6.73
223.815	-2.45
224.199	10.76
224.583	-0.96
224.968	2.41
225.352	2.9
225.736	2.59
226.121	1.91
226.505	11.68
226.889	10.48
227.273	3
227.657	6.03
228.041	4.75
228.425	9.12
228.809	2.29
229.193	1.65
229.577	3.57
229.961	1.45
230.344	2.44
230.728	3.71
231.112	2.04
231.495	2.98
231.879	2.22
232.263	2.2
232.646	2.14
233.03	1.17
233.413	3.85
233.797	2.04
234.18	2.15
234.563	3.57
234.946	3.2
235.33	2.58
235.713	3.95
236.096	1.35
236.479	1.28
236.862	3.7
237.245	2.58
237.628	2.37
238.011	1.88
238.394	3.52
238.777	2.72
239.16	3.79
239.543	2.7
239.925	3.48
240.308	3.3
240.691	2.28
241.073	2.7
241.456	2.62
241.838	2.61
242.221	2.93
242.603	3.4
242.986	2.59
243.368	2.72
243.75	2.89
244.133	2.76
244.515	3.25
244.897	2.7
245.279	3.19
245.661	2.05
246.043	2.11
246.425	2.48
246.807	2.7
247.189	3.02
247.571	2.24
247.953	2.99
248.335	2.73
248.717	2.69
249.098	2.57
249.48	2.63
249.862	2.78
250.243	2.57
250.625	3.54
251.006	3.31
251.388	2.77
251.769	2.85
252.151	3.11
252.532	2.36
252.913	2.51
253.295	2.3
253.676	2.31
254.057	3.15
254.438	4.12
254.819	4.07
255.2	2.86
255.581	2.78
255.962	3.33
256.343	3.49
256.724	2.86
257.105	3.37
257.486	3.22
257.867	3.54
258.247	3.22
258.628	2.47
259.009	3.18
259.389	1.48
259.77	3.21
260.15	2.18
260.531	2.84
260.911	2.42
261.292	2.54
261.672	2.46
262.052	2.53
262.432	2.72
262.813	2.93
263.193	3.11
263.573	2.22
263.953	2.38
264.333	2.5
264.713	2.29
265.093	3.05
265.473	3.63
265.853	2.52
266.233	2
266.612	2.68
266.992	3.6
267.372	3.03
267.752	2.04
268.131	2.19
268.511	2.15
268.89	2.41
269.27	2.9
269.649	2.56
270.029	3.22
270.408	2.52
270.787	2.74
271.167	2.81
271.546	2.58
271.925	2.45
272.304	2.46
272.683	2.68
273.062	2.89
273.441	2.73
273.82	2.45
274.199	2.64
274.578	2.65
274.957	2.79
275.336	2.38
275.715	2.11
276.093	2.88
276.472	2.59
276.851	2.98
277.229	1.51
277.608	2.25
277.986	2.61
278.365	2.29
278.743	2.46
279.122	2.32
279.5	2.27
279.878	2.29
280.257	2.44
280.635	2.43
281.013	2.87
281.391	2.51
281.769	2.47
282.147	2.61
282.525	2.71
282.903	2.61
283.281	2.63
283.659	2.03
284.037	2.32
284.415	3.37
284.792	2.37
285.17	2.31
285.548	2.66
285.925	2.54
286.303	2.93
286.68	2.42
287.058	2.52
287.435	2.53
287.813	2.42
288.19	2.83
288.567	2.33
288.945	2.47
289.322	2.03
289.699	3.02
290.076	2.97
290.453	2.72
290.83	2.6
291.207	2.41
291.584	2.3
291.961	2.29
292.338	2.08
292.715	2.29
293.092	2.92
293.469	2.87
293.845	2.64
294.222	2.17
294.599	3.15
294.975	2.82
295.352	2.87
295.728	2.93
296.105	3.06
296.481	2.76
296.858	2.99
297.234	2.45
297.61	2.45
297.986	2.35
298.363	2.52
298.739	3.02
299.115	2.86
299.491	2.8
299.867	2.5
300.243	2.63
300.619	2.8
300.995	2.56
301.371	2.97
301.746	2.59
302.122	2.32
302.498	2.97
302.874	2.85
303.249	2.62
303.625	2.51
304	2.96
304.376	2.59
304.751	2.68
305.127	2.06
305.502	2.09
305.878	2.66
306.253	2.87
306.628	2.27
307.003	2.66
307.378	2.71
307.754	2.74
308.129	3.12
308.504	2.56
308.879	3.57
309.254	2.55
309.629	2.81
310.003	3.17
310.378	3.07
310.753	2.92
311.128	2.46
311.502	2.78
311.877	2.62
312.252	3.09
312.626	2.85
313.001	2.84
313.375	3.16
313.75	3.08
314.124	3.09
314.498	2.71
314.873	2.67
315.247	3.32
315.621	2.7
315.995	2.46
316.369	2.35
316.743	3.43
317.117	2.91
317.491	2.4
317.865	3.55
318.239	3.36
318.613	3.17
318.987	3.34
319.361	2.9
319.734	3.4
320.108	3.38
320.482	3.2
320.855	3.5
321.229	3.34
321.602	3.24
321.976	3.22
322.349	3.19
322.723	3.23
323.096	2.73
323.469	2.75
323.843	3.19
324.216	3.03
324.589	3.22
324.962	3.07
325.335	2.41
325.708	3.12
326.081	3.03
326.454	3.05
326.827	2.76
327.2	3.24
327.573	3.35
327.945	3
328.318	2.84
328.691	3.29
329.063	2.82
329.436	2.48
329.809	2.99
330.181	2.92
330.553	2.95
330.926	2.97
331.298	2.74
331.671	3.28
332.043	3.11
332.415	3.65
332.787	2.96
333.159	2.78
333.532	3.26
333.904	2.93
334.276	3.06
334.648	2.7
335.02	2.95
335.391	3.28
335.763	2.84
336.135	3.13
336.507	2.84
336.879	2.88
337.25	2.62
337.622	3.23
337.993	2.97
338.365	2.59
338.736	2.91
339.108	3.21
339.479	2.6
339.851	3.06
340.222	2.96
340.593	2.97
340.964	2.9
341.336	3.09
341.707	3.09
342.078	2.95
342.449	3.69
342.82	2.73
343.191	3.1
343.562	2.78
343.933	3.09
344.303	3.08
344.674	2.54
345.045	3.29
345.416	2.93
345.786	3.16
346.157	2.97
346.527	2.75
346.898	3.21
347.268	3.26
347.639	3.12
348.009	3.25
348.38	3.12
348.75	2.86
349.12	2.62
349.49	3.03
349.861	3.59
350.231	2.81
350.601	3.16
350.971	2.87
351.341	3.14
351.711	3.48
352.081	3.38
352.45	3.07
352.82	3.13
353.19	3.14
353.56	2.69
353.929	3.12
354.299	2.49
354.669	3.19
355.038	2.95
355.408	3.09
355.777	3.03
356.147	2.89
356.516	3.28
356.885	3.08
357.254	3.4
357.624	2.92
357.993	3.15
358.362	3.13
358.731	3.14
359.1	3.01
359.469	2.86
359.838	3.3
360.207	3.23
360.576	2.95
360.945	2.86
361.314	3
361.682	3.05
362.051	2.85
362.42	2.56
362.788	2.96
363.157	2.99
363.525	3.12
363.894	3.1
364.262	2.94
364.631	3
364.999	2.85
365.367	2.87
365.735	3.17
366.104	3.04
366.472	3.02
366.84	3.01
367.208	3.25
367.576	2.89
367.944	3.56
368.312	3.28
368.68	3.37
369.048	2.88
369.416	3.22
369.783	2.97
370.151	2.98
370.519	3.47
370.886	3.04
371.254	3.34
371.621	3.06
371.989	3
372.356	3.18
372.724	3.4
373.091	3.09
373.458	3.3
373.826	3.19
374.193	3.22
374.56	3.39
374.927	3.29
375.294	3.1
375.661	3.1
376.028	3.34
376.395	3.18
376.762	3.01
377.129	3.28
377.496	3.06
377.863	3.29
378.229	3.05
378.596	2.97
378.963	3.02
379.329	2.89
379.696	3.26
380.062	3.3
380.429	3.17
380.795	3.08
381.161	2.95
381.528	2.99
381.894	3.04
382.26	2.85
382.626	3.19
382.993	3.23
383.359	3.33
383.725	3.09
384.091	2.8
384.457	3.12
384.823	2.95
385.188	3.16
385.554	3.18
385.92	3.08
386.286	3.27
386.651	3.25
387.017	2.89
387.383	3.04
387.748	3.2
388.114	3.08
388.479	3.37
388.845	3.12
389.21	3.03
389.575	3.06
389.94	3.39
390.306	2.85
390.671	2.94
391.036	3.12
391.401	2.75
391.766	3.07
392.131	3.06
392.496	3.06
392.861	3.28
393.226	3.28
393.591	2.92
393.956	3.01
394.32	3.1
394.685	3.11
395.05	3.05
395.414	3.18
395.779	2.95
396.143	3.15
396.508	3.03
396.872	3.15
397.236	3.17
397.601	3.05
397.965	3.1
398.329	2.96
398.694	3.39
399.058	3.14
399.422	3
399.786	3.28
400.15	3.11
400.514	3.15
400.878	2.99
401.242	3.26
401.605	3.29
401.969	3.19
402.333	3.36
402.697	3.42
403.06	3.14
403.424	3.31
403.787	2.7
404.151	3.16
404.514	3.09
404.878	3.23
405.241	3.22
405.604	3.48
405.968	3.01
406.331	3.11
406.694	3.07
407.057	3.17
407.42	3.09
407.783	3.1
408.146	3.24
408.509	3.09
408.872	3.25
409.235	3.21
409.598	3.07
409.961	3.32
410.323	3.32
410.686	3.06
411.049	2.93
411.411	3.27
411.774	3.18
412.136	3.3
412.499	3.3
412.861	3.12
413.223	3.42
413.586	3.27
413.948	3.34
414.31	3.13
414.672	3.12
415.035	3.35
415.397	3.47
415.759	3.41
416.121	3.14
416.483	3.27
416.845	3.34
417.206	3.28
417.568	3.17
417.93	2.91
418.292	3.2
418.653	3.04
419.015	3.28
419.377	3.19
419.738	3.18
420.1	3.13
420.461	3.19
420.822	3.2
421.184	3.07
421.545	3.14
421.906	3.06
422.267	3.1
422.629	3.22
422.99	3.08
423.351	3.2
423.712	3.17
424.073	3.11
424.434	3.15
424.795	3.14
425.155	3.19
425.516	3.14
425.877	3.14
426.238	3.23
426.598	3.11
426.959	3.15
427.32	3.26
427.68	3.23
428.041	3.36
428.401	3.34
428.761	3.38
429.122	3.32
429.482	3.26
429.842	3.28
430.202	3.34
430.563	3.24
430.923	3.28
431.283	3.38
431.643	3.18
432.003	3.34
432.363	3.29
432.722	3.41
433.082	3.32
433.442	3.46
433.802	3.4
434.161	3.3
434.521	3.27
434.881	3.47
435.24	3.24
435.6	3.31
435.959	3.34
436.319	3.32
436.678	3.35
437.037	3.45
437.396	3.35
437.756	3.27
438.115	3.38
438.474	3.46
438.833	3.46
439.192	3.35
439.551	3.37
439.91	3.56
440.269	3.49
440.628	3.28
440.987	3.42
441.345	3.43
441.704	3.36
442.063	3.25
442.421	3.37
442.78	3.27
443.138	3.41
443.497	3.28
443.855	3.48
444.214	3.36
444.572	3.29
444.93	3.35
445.288	3.39
445.647	3.28
446.005	3.3
446.363	3.3
446.721	3.32
447.079	3.29
447.437	3.36
447.795	3.34
448.153	3.41
448.51	3.29
448.868	3.34
449.226	3.43
449.584	3.49
449.941	3.45
450.299	3.35
450.656	3.44
451.014	3.45
451.371	3.41
451.729	3.31
452.086	3.4
452.443	3.56
452.801	3.55
453.158	3.4
453.515	3.44
453.872	3.37
454.229	3.42
454.586	3.4
454.943	3.56
455.3	3.34
455.657	3.38
456.014	3.58
456.371	3.45
456.727	3.48
457.084	3.5
457.441	3.51
457.797	3.68
458.154	3.53
458.51	3.6
458.867	3.33
459.223	3.41
459.58	3.6
459.936	3.48
460.292	3.4
460.648	3.48
461.005	3.39
461.361	3.27
461.717	3.45
462.073	3.4
462.429	3.54
462.785	3.48
463.141	3.55
463.496	3.28
463.852	3.63
464.208	3.64
464.564	3.5
464.919	3.72
465.275	3.42
465.631	3.6
465.986	3.49
466.342	3.4
466.697	3.62
467.052	3.56
467.408	3.65
467.763	3.57
468.118	3.55
468.473	3.44
468.829	3.59
469.184	3.5
469.539	3.42
469.894	3.54
470.249	3.45
470.603	3.66
470.958	3.73
471.313	3.72
471.668	3.57
472.023	3.64
472.377	3.68
472.732	3.64
473.086	3.48
473.441	3.63
473.795	3.64
474.15	3.52
474.504	3.7
474.859	3.71
475.213	3.56
475.567	3.68
475.921	3.74
476.275	3.71
476.63	3.81
476.984	3.69
477.338	3.58
477.692	3.72
478.045	3.7
478.399	3.6
478.753	3.6
479.107	3.61
479.461	3.62
479.814	3.44
480.168	3.7
480.521	3.57
480.875	3.56
481.228	3.61
481.582	3.63
481.935	3.51
482.289	3.57
482.642	3.68
482.995	3.57
483.348	3.53
483.701	3.62
484.055	3.59
484.408	3.47
484.761	3.4
485.114	3.33
485.466	3.33
485.819	3.42
486.172	3.47
486.525	3.57
486.878	3.57
487.23	3.6
487.583	3.57
487.936	3.54
488.288	3.52
488.641	3.52
488.993	3.48
489.345	3.47
489.698	3.49
490.05	3.6
490.402	3.61
490.754	3.71
491.107	3.64
491.459	3.65
491.811	3.8
492.163	3.65
492.515	3.61
492.866	3.52
493.218	3.5
493.57	3.59
493.922	3.68
494.274	3.72
494.625	3.75
494.977	3.73
495.328	3.9
495.68	3.8
496.031	3.98
496.383	3.76
496.734	3.81
497.086	3.83
497.437	3.78
497.788	3.8
498.139	3.83
498.49	3.68
498.842	3.68
499.193	3.82
499.544	3.94
499.894	3.94
500.245	3.77
500.596	3.73
500.947	3.92
501.298	3.89
501.648	3.95
501.999	3.9
502.35	3.92
502.7	4.09
503.051	4
503.401	4.04
503.752	3.92
504.102	3.83
504.452	3.95
504.803	3.95
505.153	3.82
505.503	3.86
505.853	3.86
506.203	3.94
506.553	3.97
506.903	3.99
507.253	3.94
507.603	3.89
507.953	3.95
508.303	4.21
508.652	3.96
509.002	4.03
509.352	4.05
509.701	3.98
510.051	4.05
510.4	3.95
510.75	4
511.099	3.96
511.449	4.03
511.798	4.16
512.147	3.98
512.496	4.01
512.846	3.94
513.195	3.91
513.544	4.11
513.893	4.06
514.242	4.07
514.591	4.07
514.939	4.08
515.288	4.14
515.637	4.21
515.986	4.11
516.334	4.12
516.683	4.06
517.032	4.24
517.38	4.12
517.729	4.26
518.077	4.19
518.426	4.18
518.774	4.27
519.122	4
519.47	4.18
519.819	4.11
520.167	4.16
520.515	4.13
520.863	4.17
521.211	4.24
521.559	4.32
521.907	4.24
522.255	4.21
522.602	4.26
522.95	4.16
523.298	4.35
523.645	4.23
523.993	4.36
524.341	4.32
524.688	4.22
525.036	4.39
525.383	4.4
525.73	4.35
526.078	4.36
526.425	4.22
526.772	4.29
527.119	4.18
527.466	4.26
527.814	4.28
528.161	4.46
528.508	4.36
528.854	4.28
529.201	4.19
529.548	4.17
529.895	4.13
530.242	4.16
530.588	4.14
530.935	4.3
531.282	4.29
531.628	4.31
531.975	4.42
532.321	4.42
532.667	4.45
533.014	4.42
533.36	4.45
533.706	4.47
534.052	4.32
534.399	4.33
534.745	4.33
535.091	4.39
535.437	4.45
535.783	4.55
536.129	4.59
536.474	4.58
536.82	4.56
537.166	4.62
537.512	4.52
537.857	4.61
538.203	4.6
538.549	4.59
538.894	4.63
539.239	4.68
539.585	4.69
539.93	4.77
540.276	4.65
540.621	4.66
540.966	4.79
541.311	4.73
541.656	4.77
542.001	4.66
542.346	4.6
542.691	4.49
543.036	4.5
543.381	4.62
543.726	4.68
544.071	4.72
544.415	4.66
544.76	4.76
545.105	4.79
545.449	4.81
545.794	4.86
546.138	4.92
546.483	4.95
546.827	4.88
547.171	4.82
547.516	4.98
547.86	4.89
548.204	4.98
548.548	4.92
548.892	5.02
549.236	5
549.58	5.11
549.924	5.06
550.268	5.18
550.612	5.13
550.956	5.19
551.3	5.33
551.643	5.17
551.987	5.19
552.33	5.6
552.674	5.37
553.017	5.21
553.361	5.49
553.704	5.27
554.048	5.24
554.391	5.35
554.734	5.41
555.077	5.26
555.42	5.41
555.764	5.42
556.107	5.55
556.45	5.6
556.793	5.49
557.135	5.5
557.478	5.64
557.821	5.6
558.164	5.47
558.507	5.48
558.849	5.48
559.192	5.64
559.534	5.68
559.877	5.64
560.219	5.75
560.562	5.72
560.904	5.67
561.246	5.59
561.589	5.92
561.931	5.66
562.273	5.74
562.615	5.77
562.957	5.91
563.299	5.9
563.641	6.02
563.983	5.84
564.325	5.85
564.667	5.87
565.008	5.94
565.35	5.77
565.692	5.87
566.033	5.92
566.375	5.84
566.716	5.75
567.058	5.73
567.399	6.09
567.741	6.12
568.082	5.94
568.423	6.04
568.764	6.06
569.105	5.99
569.447	6.32
569.788	6.4
570.129	6.15
570.47	6.25
570.811	6.17
571.151	6.17
571.492	6.36
571.833	6.45
572.174	6.23
572.514	6.21
572.855	6.39
573.195	6.29
573.536	6.26
573.876	6.27
574.217	6.34
574.557	6.52
574.898	6.47
575.238	6.75
575.578	6.75
575.918	6.51
576.258	6.39
576.598	6.49
576.938	6.45
577.278	6.66
577.618	6.51
577.958	6.84
578.298	6.71
578.638	6.79
578.977	6.54
579.317	6.53
579.657	6.78
579.996	6.87
580.336	6.75
580.675	6.67
581.014	6.88
581.354	7.02
581.693	7.11
582.032	7.16
582.372	7.01
582.711	6.94
583.05	7.21
583.389	7.08
583.728	7.46
584.067	7.26
584.406	7
584.745	7.23
585.083	7.32
585.422	7.24
585.761	7.45
586.1	7.36
586.438	7.32
586.777	7.45
587.115	7.35
587.454	7.74
587.792	7.3
588.13	7.3
588.469	7.54
588.807	7.24
589.145	7.49
589.483	7.25
589.821	7.47
590.159	7.66
590.497	7.31
590.835	7.62
591.173	7.91
591.511	7.8
591.849	7.66
592.187	7.68
592.524	7.65
592.862	7.56
593.2	7.92
593.537	7.99
593.875	7.77
594.212	7.9
594.55	7.71
594.887	8.31
595.224	7.89
595.561	8.07
595.899	7.8
596.236	8.29
596.573	8.01
596.91	8.31
597.247	8.1
597.584	8.21
597.921	8.3
598.258	8.3
598.594	8.21
598.931	8.25
599.268	8.24
599.604	8.21
599.941	8.4
600.277	8.39
600.614	8.48
600.95	8.71
601.287	8.44
601.623	8.47
601.959	8.62
602.296	8.37
602.632	8.43
602.968	8.73
603.304	8.59
603.64	8.9
603.976	8.52
604.312	8.6
604.648	8.79
604.984	8.66
605.319	8.78
605.655	8.67
605.991	8.51
606.326	8.68
606.662	8.79
606.998	8.89
607.333	8.83
607.668	9
608.004	9.07
608.339	9.08
608.674	8.88
609.01	8.79
609.345	9.13
609.68	9.5
610.015	9.06
610.35	9.49
610.685	9.15
611.02	9.53
611.355	9.19
611.689	9.34
612.024	9.44
612.359	9.39
612.694	9.6
613.028	9.25
613.363	9.34
613.697	9.61
614.032	9.53
614.366	9.85
614.7	10.15
615.035	9.84
615.369	9.43
615.703	9.78
616.037	10.05
616.371	9.68
616.705	9.99
617.039	10.24
617.373	10.04
617.707	9.8
618.041	10.06
618.375	9.87
618.709	10.2
619.042	10.21
619.376	10.36
619.71	10.1
620.043	10.3
620.377	10.02
620.71	10.17
621.043	10.24
621.377	10.3
621.71	10.86
622.043	10.29
622.376	10.44
622.709	10.55
623.043	10.77
623.376	10.5
623.709	10.39
624.041	10.49
624.374	10.68
624.707	10.4
625.04	10.62
625.373	10.8
625.705	10.96
626.038	10.66
626.37	10.89
626.703	10.96
627.035	10.89
627.368	10.86
627.7	10.92
628.032	10.95
628.365	10.79
628.697	10.62
629.029	10.89
629.361	11.44
629.693	10.96
630.025	11.03
630.357	11.05
630.689	11.28
631.021	11.09
631.353	11.06
631.684	11.18
632.016	11.27
632.348	11.63
632.679	11.54
633.011	11.24
633.342	11.92
633.674	11.07
634.005	11.73
634.336	11.73
634.668	11.94
634.999	11.48
635.33	11.28
635.661	11.67
635.992	11.78
636.323	11.73
636.654	11.43
636.985	11.72
637.316	11.88
637.647	12
637.977	11.66
638.308	12.02
638.639	11.9
638.969	11.99
639.3	11.59
639.63	12.12
639.961	11.99
640.291	12.41
640.622	11.87
640.952	12.98
641.282	12.37
641.612	12.65
641.943	12.59
642.273	12.74
642.603	12.07
642.933	12.18
643.263	12.32
643.592	12.02
643.922	12.53
644.252	12.68
644.582	12.16
644.911	12.47
645.241	13.17
645.571	12.73
645.9	12.92
646.23	12.7
646.559	13.47
646.888	12.66
647.218	13.12
647.547	13.1
647.876	12.94
648.205	13.43
648.534	12.92
648.863	12.72
649.192	13.02
649.521	13.14
649.85	13.2
650.179	13.09
650.508	13.05
650.837	13.59
651.165	13.1
651.494	13.18
651.822	13.43
652.151	13.43
652.479	13.58
652.808	13.59
653.136	13.32
653.465	13.26
653.793	13.33
654.121	13.74
654.449	13.91
654.777	13.09
655.105	13.73
655.433	13.93
655.761	13.46
656.089	13.88
656.417	13.65
656.745	13.25
657.073	13.78
657.4	13.64
657.728	14.48
658.056	14.06
658.383	14.26
658.711	14.29
659.038	14.31
659.365	14.27
659.693	14.16
660.02	13.97
660.347	14.25
660.674	14.01
661.001	14.4
661.329	14.27
661.656	14.33
661.982	14.13
662.309	14.47
662.636	14.45
662.963	14.58
663.29	14.47
663.616	14.92
663.943	14.58
664.27	14.82
664.596	15.01
664.923	14.47
665.249	15.16
665.576	14.78
665.902	15.28
666.228	15.35
666.554	14.61
666.881	14.63
667.207	15.58
667.533	15.4
667.859	15.45
668.185	15.18
668.511	15.01
668.837	14.5
669.162	15.27
669.488	15.11
669.814	15.6
670.139	15.46
670.465	14.96
670.791	14.72
671.116	15.75
671.442	15.79
671.767	15.44
672.092	15.44
672.418	15.02
672.743	15.33
673.068	15.35
673.393	15.56
673.718	15.77
674.043	16.16
674.368	15.82
674.693	15.32
675.018	15.62
675.343	16.08
675.667	16.3
675.992	16.07
676.317	15.82
676.641	15.59
676.966	15.55
677.29	16.43
677.615	15.86
677.939	16.55
678.264	16.24
678.588	16.34
678.912	16.23
679.236	17
679.56	15.8
679.885	16
680.209	16.41
680.532	15.64
680.856	15.98
681.18	16.49
681.504	16.05
681.828	16.96
682.152	16.56
682.475	16.14
682.799	16.35
683.122	17.07
683.446	16.87
683.769	17.08
684.093	17.25
684.416	17.23
684.739	17.06
685.062	17.94
685.386	17.28
685.709	17.16
686.032	17.52
686.355	17.45
686.678	17.49
687.001	17.61
687.324	17.23
687.646	17.5
687.969	17.71
688.292	17.53
688.614	17.4
