Data from 0019_chest_Reflection__4__04.txt Node

Date: Thu Oct 20 20:22:20 CDT 2022
User: ToomeyLab
Spectrometer: FLMS14357
Trigger mode: 0
Integration Time (sec): 1.000000E-2
Scans to average: 100
Electric dark correction enabled: true
Nonlinearity correction enabled: false
Boxcar width: 0
XAxis mode: Wavelengths
Number of Pixels in Spectrum: 2048
>>>>>Begin Spectral Data<<<<<
189.047	27.17
189.435	27.17
189.823	27.17
190.211	-537.93
190.599	118.64
190.987	7433.96
191.375	7.02
191.763	-70.59
192.151	84.89
192.538	2.69
192.926	273.91
193.314	-446.9
193.702	107.72
194.089	4.41
194.477	1443.85
194.864	332.05
195.252	1063.31
195.639	-74.83
196.027	-1.77
196.414	30.85
196.801	-40.82
197.189	72.85
197.576	102.1
197.963	-165.93
198.351	23.07
198.738	-11.79
199.125	24.16
199.512	-11.55
199.899	-1.95
200.286	-58.64
200.673	25.34
201.06	10.06
201.447	44.23
201.833	33.9
202.22	-12
202.607	44.18
202.994	15.79
203.38	-1.7
203.767	5.31
204.154	8.61
204.54	-8.05
204.927	17.29
205.313	24.22
205.699	43.62
206.086	11.89
206.472	22.09
206.858	18.51
207.245	17.5
207.631	6.13
208.017	25.48
208.403	16.92
208.789	-3.98
209.175	36.46
209.561	-5.14
209.947	11.71
210.333	31.16
210.719	22.47
211.105	-25.56
211.491	0.71
211.876	-10.13
212.262	-3.33
212.648	16.35
213.034	-15.23
213.419	5.62
213.805	-4.63
214.19	-5.47
214.576	5.17
214.961	8.38
215.346	-0.79
215.732	16.59
216.117	32.56
216.502	6.52
216.888	41.86
217.273	13.08
217.658	11.87
218.043	-6.45
218.428	-3.22
218.813	-10.95
219.198	26.16
219.583	38.62
219.968	1.9
220.353	2.74
220.738	12.47
221.122	0.96
221.507	2.61
221.892	7.69
222.276	14.46
222.661	8.03
223.046	20.67
223.43	7.06
223.815	-2.96
224.199	3
224.583	-4.11
224.968	8.8
225.352	8.08
225.736	3.31
226.121	20.04
226.505	3.34
226.889	4.85
227.273	6.19
227.657	5.25
228.041	5.31
228.425	6.02
228.809	4.68
229.193	4.03
229.577	3.74
229.961	3.77
230.344	4.18
230.728	4.85
231.112	4.4
231.495	4.74
231.879	4.66
232.263	4.99
232.646	4.24
233.03	2.63
233.413	3.7
233.797	2.1
234.18	3.99
234.563	2.93
234.946	4.27
235.33	3.54
235.713	7
236.096	3.7
236.479	3.18
236.862	4.01
237.245	5.62
237.628	4.11
238.011	4.13
238.394	3.53
238.777	5.28
239.16	2.42
239.543	3.8
239.925	4.62
240.308	5.57
240.691	4.86
241.073	4.89
241.456	4.14
241.838	4.69
242.221	5.49
242.603	4.27
242.986	4.09
243.368	4.39
243.75	4.35
244.133	4.15
244.515	4.68
244.897	4.69
245.279	4.2
245.661	4.87
246.043	4.4
246.425	4.48
246.807	4.73
247.189	4.68
247.571	4.52
247.953	4.53
248.335	4.49
248.717	4.36
249.098	3.97
249.48	4.3
249.862	4.84
250.243	4.37
250.625	5.17
251.006	5.9
251.388	4.83
251.769	4.07
252.151	5.13
252.532	5.21
252.913	4.87
253.295	3.68
253.676	4.06
254.057	4.47
254.438	4.34
254.819	5.55
255.2	4.46
255.581	4.61
255.962	4.36
256.343	5.65
256.724	5.18
257.105	3.53
257.486	4.25
257.867	4.49
258.247	3.94
258.628	3.44
259.009	3.84
259.389	4.18
259.77	4.59
260.15	4.45
260.531	4.37
260.911	3.8
261.292	4.07
261.672	4.09
262.052	4.17
262.432	4.53
262.813	4.78
263.193	4.43
263.573	3.64
263.953	4.16
264.333	4.16
264.713	4.01
265.093	4.04
265.473	4.77
265.853	3.91
266.233	3.78
266.612	4.26
266.992	5.37
267.372	4.81
267.752	4.37
268.131	3.57
268.511	3.75
268.89	4
269.27	4.3
269.649	4.35
270.029	4.57
270.408	4.03
270.787	4.35
271.167	4.72
271.546	3.74
271.925	3.78
272.304	3.74
272.683	3.83
273.062	4.02
273.441	3.82
273.82	3.69
274.199	3.98
274.578	3.97
274.957	4.19
275.336	3.47
275.715	3.41
276.093	4.31
276.472	4.42
276.851	4.37
277.229	3.73
277.608	3.63
277.986	3.5
278.365	3.97
278.743	3.96
279.122	4.32
279.5	3.67
279.878	3.77
280.257	3.98
280.635	4.37
281.013	4.38
281.391	4.15
281.769	4.24
282.147	3.85
282.525	3.61
282.903	4.31
283.281	3.69
283.659	3.75
284.037	3.84
284.415	4.15
284.792	3.8
285.17	4.2
285.548	3.82
285.925	4.03
286.303	3.98
286.68	4.06
287.058	4.13
287.435	3.87
287.813	3.72
288.19	3.66
288.567	3.63
288.945	4.31
289.322	3.55
289.699	4.49
290.076	4.66
290.453	4.19
290.83	4.26
291.207	4.16
291.584	3.65
291.961	4.45
292.338	3.96
292.715	3.85
293.092	4.67
293.469	4.67
293.845	4.27
294.222	4.04
294.599	4.42
294.975	4.03
295.352	4.59
295.728	4.58
296.105	4.68
296.481	4.71
296.858	4.7
297.234	4.22
297.61	4.19
297.986	4.32
298.363	4.32
298.739	4.56
299.115	4.63
299.491	4.68
299.867	4.57
300.243	4.54
300.619	5.15
300.995	4.22
301.371	4.32
301.746	4.5
302.122	4.62
302.498	4.87
302.874	4.8
303.249	4.93
303.625	4.99
304	5.1
304.376	5.13
304.751	5.04
305.127	4.31
305.502	4.76
305.878	4.95
306.253	4.99
306.628	5.04
307.003	4.96
307.378	5.05
307.754	5.33
308.129	5.41
308.504	5.15
308.879	5.16
309.254	4.98
309.629	4.97
310.003	5.15
310.378	5.39
310.753	4.94
311.128	5.03
311.502	4.93
311.877	5.23
312.252	4.94
312.626	4.96
313.001	5.05
313.375	5.46
313.75	5
314.124	4.97
314.498	5.04
314.873	5.07
315.247	5.58
315.621	5.18
315.995	5.26
316.369	4.99
316.743	5.42
317.117	4.94
317.491	5.57
317.865	6.07
318.239	5.46
318.613	5.85
318.987	5.46
319.361	5.32
319.734	5.65
320.108	5.74
320.482	4.78
320.855	5.46
321.229	5.51
321.602	5.87
321.976	5.67
322.349	5.29
322.723	5.87
323.096	4.87
323.469	5.44
323.843	5.87
324.216	6.05
324.589	5.48
324.962	5.99
325.335	5.35
325.708	5.5
326.081	5.75
326.454	5.58
326.827	5.67
327.2	5.4
327.573	6.15
327.945	6.07
328.318	5.5
328.691	5.33
329.063	5.18
329.436	5.14
329.809	5.91
330.181	5.85
330.553	5.77
330.926	5.39
331.298	5.12
331.671	6.09
332.043	6.51
332.415	5.96
332.787	5.91
333.159	5.89
333.532	5.78
333.904	5.63
334.276	5.58
334.648	6.12
335.02	5.35
335.391	6.16
335.763	5.67
336.135	5.74
336.507	5.63
336.879	5.66
337.25	5.78
337.622	5.8
337.993	5.88
338.365	5.94
338.736	6
339.108	5.81
339.479	5.8
339.851	6.32
340.222	5.25
340.593	5.56
340.964	6.11
341.336	5.75
341.707	5.86
342.078	5.69
342.449	5.94
342.82	5.63
343.191	5.83
343.562	5.94
343.933	5.83
344.303	6.5
344.674	5.72
345.045	5.83
345.416	5.66
345.786	6.16
346.157	5.89
346.527	5.77
346.898	5.92
347.268	6.09
347.639	5.74
348.009	5.82
348.38	6.32
348.75	6.01
349.12	5.43
349.49	5.78
349.861	6.31
350.231	6.08
350.601	6.18
350.971	5.78
351.341	6.13
351.711	6.01
352.081	6.44
352.45	6.32
352.82	5.7
353.19	6.03
353.56	5.91
353.929	6.39
354.299	5.73
354.669	6.29
355.038	5.62
355.408	6.03
355.777	5.89
356.147	6.18
356.516	6.13
356.885	6.24
357.254	6.47
357.624	5.69
357.993	5.79
358.362	6.11
358.731	6.07
359.1	6.17
359.469	6.16
359.838	6.35
360.207	6.49
360.576	5.97
360.945	5.76
361.314	6.47
361.682	6.26
362.051	6.06
362.42	5.79
362.788	6.05
363.157	5.94
363.525	5.91
363.894	6.16
364.262	5.86
364.631	6.25
364.999	5.84
365.367	5.96
365.735	6.11
366.104	6.29
366.472	6.08
366.84	6.07
367.208	6.18
367.576	6.4
367.944	6.39
368.312	6.46
368.68	6.25
369.048	6.1
369.416	6.19
369.783	6.62
370.151	6.02
370.519	6.44
370.886	6.23
371.254	6.26
371.621	6
371.989	5.91
372.356	6.46
372.724	6.63
373.091	6.51
373.458	6.23
373.826	6.47
374.193	6.52
374.56	6.56
374.927	6.41
375.294	6.13
375.661	6.47
376.028	6.6
376.395	6.34
376.762	6.27
377.129	6.49
377.496	6.24
377.863	6.49
378.229	6.52
378.596	6.25
378.963	6.48
379.329	5.94
379.696	6.58
380.062	6.65
380.429	6.75
380.795	6.45
381.161	6.35
381.528	6.36
381.894	6.22
382.26	6.39
382.626	6.56
382.993	6.51
383.359	6.31
383.725	6.7
384.091	6.29
384.457	6.31
384.823	6.66
385.188	6.51
385.554	6.8
385.92	6.6
386.286	6.79
386.651	6.53
387.017	6.53
387.383	6.49
387.748	6.6
388.114	6.63
388.479	6.46
388.845	6.48
389.21	6.66
389.575	6.56
389.94	6.83
390.306	6.34
390.671	6.42
391.036	6.89
391.401	6.52
391.766	6.71
392.131	6.5
392.496	6.19
392.861	6.81
393.226	6.77
393.591	6.39
393.956	6.53
394.32	6.41
394.685	6.59
395.05	6.36
395.414	6.75
395.779	6.57
396.143	6.73
396.508	6.34
396.872	6.52
397.236	6.97
397.601	6.74
397.965	6.61
398.329	6.7
398.694	6.9
399.058	6.82
399.422	6.79
399.786	6.65
400.15	6.46
400.514	6.65
400.878	6.66
401.242	6.96
401.605	7.03
401.969	6.78
402.333	6.76
402.697	6.75
403.06	6.46
403.424	6.83
403.787	6.63
404.151	6.68
404.514	6.55
404.878	6.66
405.241	6.6
405.604	6.93
405.968	6.71
406.331	6.88
406.694	6.89
407.057	6.53
407.42	6.95
407.783	6.94
408.146	6.76
408.509	7.24
408.872	6.89
409.235	6.72
409.598	6.84
409.961	6.76
410.323	6.76
410.686	6.76
411.049	6.84
411.411	6.95
411.774	7.01
412.136	6.93
412.499	7.06
412.861	6.79
413.223	7.11
413.586	7.11
413.948	6.88
414.31	6.94
414.672	6.98
415.035	7.2
415.397	6.85
415.759	6.71
416.121	7
416.483	6.79
416.845	6.79
417.206	6.79
417.568	6.83
417.93	6.48
418.292	7.05
418.653	6.76
419.015	6.93
419.377	6.82
419.738	7
420.1	6.82
420.461	6.94
420.822	6.85
421.184	6.89
421.545	6.8
421.906	6.8
422.267	6.8
422.629	6.89
422.99	6.86
423.351	6.84
423.712	7.01
424.073	6.85
424.434	6.85
424.795	6.85
425.155	6.96
425.516	6.83
425.877	6.78
426.238	7.03
426.598	6.83
426.959	7.06
427.32	7.07
427.68	7.11
428.041	7.02
428.401	7.06
428.761	7.21
429.122	7.08
429.482	7.34
429.842	7.23
430.202	7.1
430.563	7.06
430.923	7.06
431.283	7.23
431.643	7.13
432.003	7.54
432.363	7.26
432.722	7.3
433.082	7.23
433.442	7.23
433.802	7.23
434.161	7.1
434.521	7.12
434.881	7.11
435.24	7.15
435.6	7.28
435.959	7.1
436.319	7.25
436.678	7.22
437.037	7.34
437.396	7.28
437.756	7.08
438.115	7.18
438.474	7.24
438.833	7.2
439.192	7.19
439.551	7.09
439.91	7.49
440.269	7.29
440.628	7.29
440.987	7.29
441.345	7.18
441.704	7.19
442.063	7.21
442.421	7.29
442.78	7.28
443.138	7.38
443.497	7.27
443.855	7.37
444.214	7.37
444.572	7.39
444.93	7.4
445.288	7.43
445.647	7.33
446.005	7.34
446.363	7.39
446.721	7.27
447.079	7.13
447.437	7.18
447.795	7.22
448.153	7.15
448.51	7.17
448.868	7.28
449.226	7.34
449.584	7.38
449.941	7.37
450.299	7.43
450.656	7.52
451.014	7.49
451.371	7.47
451.729	7.53
452.086	7.44
452.443	7.69
452.801	7.57
453.158	7.66
453.515	7.53
453.872	7.42
454.229	7.63
454.586	7.47
454.943	7.61
455.3	7.68
455.657	7.47
456.014	7.69
456.371	7.65
456.727	7.66
457.084	7.81
457.441	7.64
457.797	7.72
458.154	7.65
458.51	7.64
458.867	7.45
459.223	7.48
459.58	7.6
459.936	7.5
460.292	7.59
460.648	7.53
461.005	7.43
461.361	7.37
461.717	7.57
462.073	7.54
462.429	7.74
462.785	7.52
463.141	7.75
463.496	7.77
463.852	8.02
464.208	7.83
464.564	7.73
464.919	7.86
465.275	7.57
465.631	7.75
465.986	7.68
466.342	7.68
466.697	7.79
467.052	7.8
467.408	7.77
467.763	7.73
468.118	7.79
468.473	7.63
468.829	7.69
469.184	7.69
469.539	7.73
469.894	7.89
470.249	7.73
470.603	7.9
470.958	7.9
471.313	7.94
471.668	7.69
472.023	7.8
472.377	7.85
472.732	8.02
473.086	7.9
473.441	7.68
473.795	7.88
474.15	7.76
474.504	7.87
474.859	7.8
475.213	7.98
475.567	7.94
475.921	7.88
476.275	7.97
476.63	7.95
476.984	8.03
477.338	8.09
477.692	7.97
478.045	7.98
478.399	7.96
478.753	7.86
479.107	8.04
479.461	8.01
479.814	7.89
480.168	7.96
480.521	7.89
480.875	7.92
481.228	7.96
481.582	8.01
481.935	8.08
482.289	8.02
482.642	7.92
482.995	7.92
483.348	7.89
483.701	7.92
484.055	7.91
484.408	7.82
484.761	7.61
485.114	7.5
485.466	7.5
485.819	7.65
486.172	7.75
486.525	7.88
486.878	7.89
487.23	7.95
487.583	7.97
487.936	7.96
488.288	7.87
488.641	7.82
488.993	7.76
489.345	7.78
489.698	7.83
490.05	7.97
490.402	7.94
490.754	8.01
491.107	8.14
491.459	8.23
491.811	8.24
492.163	8.08
492.515	8.03
492.866	7.83
493.218	7.86
493.57	8.03
493.922	8.13
494.274	8.16
494.625	8.24
494.977	8.23
495.328	8.4
495.68	8.32
496.031	8.4
496.383	8.43
496.734	8.41
497.086	8.31
497.437	8.48
497.788	8.37
498.139	8.28
498.49	8.31
498.842	8.32
499.193	8.39
499.544	8.47
499.894	8.44
500.245	8.45
500.596	8.37
500.947	8.59
501.298	8.59
501.648	8.53
501.999	8.45
502.35	8.68
502.7	8.64
503.051	8.76
503.401	8.61
503.752	8.66
504.102	8.51
504.452	8.68
504.803	8.67
505.153	8.75
505.503	8.73
505.853	8.57
506.203	8.7
506.553	8.74
506.903	8.74
507.253	8.64
507.603	8.65
507.953	8.72
508.303	8.98
508.652	8.7
509.002	8.82
509.352	8.76
509.701	8.63
510.051	8.78
510.4	8.72
510.75	8.75
511.099	8.72
511.449	8.84
511.798	8.86
512.147	8.89
512.496	8.85
512.846	8.9
513.195	8.77
513.544	8.9
513.893	8.86
514.242	8.96
514.591	8.9
514.939	8.92
515.288	9.06
515.637	9.06
515.986	9.2
516.334	9.16
516.683	9.13
517.032	9.15
517.38	9.12
517.729	9.18
518.077	9.14
518.426	8.91
518.774	9.18
519.122	9.04
519.47	8.91
519.819	8.98
520.167	8.93
520.515	9.02
520.863	9.1
521.211	9.17
521.559	9.26
521.907	9.07
522.255	9.3
522.602	9.32
522.95	9.31
523.298	9.44
523.645	9.22
523.993	9.49
524.341	9.38
524.688	9.38
525.036	9.56
525.383	9.37
525.73	9.46
526.078	9.31
526.425	9.32
526.772	9.22
527.119	9.22
527.466	9.32
527.814	9.31
528.161	9.47
528.508	9.41
528.854	9.5
529.201	9.28
529.548	9.07
529.895	8.97
530.242	9.12
530.588	9.19
530.935	9.3
531.282	9.34
531.628	9.39
531.975	9.49
532.321	9.62
532.667	9.59
533.014	9.68
533.36	9.57
533.706	9.67
534.052	9.58
534.399	9.47
534.745	9.46
535.091	9.49
535.437	9.66
535.783	9.68
536.129	9.92
536.474	9.85
536.82	9.87
537.166	9.89
537.512	9.89
537.857	9.85
538.203	9.88
538.549	9.92
538.894	9.86
539.239	10.04
539.585	10
539.93	10.09
540.276	10.04
540.621	10.08
540.966	10.25
541.311	10.14
541.656	10.21
542.001	9.96
542.346	9.92
542.691	9.8
543.036	9.85
543.381	9.95
543.726	10.09
544.071	10.05
544.415	10.2
544.76	10.24
545.105	10.44
545.449	10.24
545.794	10.47
546.138	10.52
546.483	10.42
546.827	10.51
547.171	10.42
547.516	10.61
547.86	10.52
548.204	10.49
548.548	10.48
548.892	10.72
549.236	10.66
549.58	10.62
549.924	10.84
550.268	10.75
550.612	10.72
550.956	10.77
551.3	10.93
551.643	10.82
551.987	10.73
552.33	11.25
552.674	10.96
553.017	10.85
553.361	11.03
553.704	11.15
554.048	10.97
554.391	11.03
554.734	10.99
555.077	11.05
555.42	11.23
555.764	11.05
556.107	11.32
556.45	11.35
556.793	11.26
557.135	11.32
557.478	11.37
557.821	11.16
558.164	11.25
558.507	11.44
558.849	11.48
559.192	11.69
559.534	11.56
559.877	11.39
560.219	11.6
560.562	11.46
560.904	11.85
561.246	11.2
561.589	11.71
561.931	11.56
562.273	11.66
562.615	11.7
562.957	11.78
563.299	11.83
563.641	11.92
563.983	11.85
564.325	11.95
564.667	11.8
565.008	11.96
565.35	11.74
565.692	11.88
566.033	12.05
566.375	11.88
566.716	11.69
567.058	11.95
567.399	12.04
567.741	12.02
568.082	12.01
568.423	12.07
568.764	12.23
569.105	12.16
569.447	12.37
569.788	12.34
570.129	12.25
570.47	12.39
570.811	12.33
571.151	12.39
571.492	12.28
571.833	12.5
572.174	12.4
572.514	12.21
572.855	12.45
573.195	12.48
573.536	12.42
573.876	12.43
574.217	12.67
574.557	12.55
574.898	12.77
575.238	12.78
575.578	12.93
575.918	12.65
576.258	12.74
576.598	12.62
576.938	12.83
577.278	12.89
577.618	12.84
577.958	13.23
578.298	13.07
578.638	12.85
578.977	13.21
579.317	12.89
579.657	13.39
579.996	13.21
580.336	13.04
580.675	13.15
581.014	13.36
581.354	13.4
581.693	13.47
582.032	13.48
582.372	13.21
582.711	13.15
583.05	13.59
583.389	13.62
583.728	13.63
584.067	13.41
584.406	13.56
584.745	13.57
585.083	13.71
585.422	13.86
585.761	13.95
586.1	13.72
586.438	13.86
586.777	14.08
587.115	13.94
587.454	14.25
587.792	13.83
588.13	14.05
588.469	14.21
588.807	13.86
589.145	14.26
589.483	14.28
589.821	14.1
590.159	14.21
590.497	14.18
590.835	14.38
591.173	14.48
591.511	14.36
591.849	14.31
592.187	14.43
592.524	14.4
592.862	14.57
593.2	14.59
593.537	14.75
593.875	14.48
594.212	14.92
594.55	14.67
594.887	14.85
595.224	14.4
595.561	14.84
595.899	14.77
596.236	14.78
596.573	14.94
596.91	15.07
597.247	15.01
597.584	14.85
597.921	15.12
598.258	14.98
598.594	14.83
598.931	15.16
599.268	14.95
599.604	14.89
599.941	15.41
600.277	15.26
600.614	15.22
600.95	15.24
601.287	15.6
601.623	15.54
601.959	15.49
602.296	15.44
602.632	15.28
602.968	15.81
603.304	15.74
603.64	15.53
603.976	15.63
604.312	15.83
604.648	15.79
604.984	15.4
605.319	15.72
605.655	15.65
605.991	15.58
606.326	15.77
606.662	15.7
606.998	15.93
607.333	15.9
607.668	16.15
608.004	16.22
608.339	16.12
608.674	16.2
609.01	15.92
609.345	16.15
609.68	16.3
610.015	16.3
610.35	16.54
610.685	16.01
611.02	16.45
611.355	16.55
611.689	16.5
612.024	16.37
612.359	16.5
612.694	16.66
613.028	16.29
613.363	16.39
613.697	17.05
614.032	17.01
614.366	16.77
614.7	16.66
615.035	17.04
615.369	16.89
615.703	16.82
616.037	17.18
616.371	17.04
616.705	16.9
617.039	17.34
617.373	17.27
617.707	17.02
618.041	17.04
618.375	16.78
618.709	17.2
619.042	17.13
619.376	17.07
619.71	17.25
620.043	17.03
620.377	17.49
620.71	17.83
621.043	17.57
621.377	17.41
621.71	18.03
622.043	17.46
622.376	17.88
622.709	18.02
623.043	18.21
623.376	17.76
623.709	17.89
624.041	17.88
624.374	17.8
624.707	17.46
625.04	17.89
625.373	18.38
625.705	17.8
626.038	17.9
626.37	18.48
626.703	18.08
627.035	18.32
627.368	18.23
627.7	18.41
628.032	18.56
628.365	18.29
628.697	18.11
629.029	18.33
629.361	18.6
629.693	18.36
630.025	18.82
630.357	18.5
630.689	18.85
631.021	18.7
631.353	18.56
631.684	18.79
632.016	19.16
632.348	19.17
632.679	19.23
633.011	18.92
633.342	19.06
633.674	18.59
634.005	19.24
634.336	19.26
634.668	18.95
634.999	18.98
635.33	18.99
635.661	19.14
635.992	19.16
636.323	19.62
636.654	19.11
636.985	19.32
637.316	19.55
637.647	19.17
637.977	19.63
638.308	19.76
638.639	19.33
638.969	19.46
639.3	19.55
639.63	19.79
639.961	20
640.291	19.93
640.622	19.96
640.952	20.24
641.282	20.38
641.612	19.99
641.943	19.74
642.273	20.58
642.603	20.24
642.933	20.32
643.263	20.11
643.592	20.11
643.922	20.42
644.252	19.79
644.582	20.42
644.911	20.38
645.241	20.48
645.571	20.77
645.9	20.7
646.23	20.21
646.559	20.6
646.888	20.34
647.218	20.31
647.547	20.81
647.876	20.29
648.205	20.61
648.534	20.5
648.863	20.38
649.192	20.78
649.521	21.17
649.85	20.51
650.179	20.8
650.508	20.74
650.837	20.93
651.165	20.77
651.494	21.33
651.822	21
652.151	21.05
652.479	21.29
652.808	21.49
653.136	21.23
653.465	20.61
653.793	21.67
654.121	21.49
654.449	21.4
654.777	21.12
655.105	21.72
655.433	22.02
655.761	22.05
656.089	21.95
656.417	21.92
656.745	21.58
657.073	21.74
657.4	21.67
657.728	22.3
658.056	21.93
658.383	21.88
658.711	22.29
659.038	22.25
659.365	22.3
659.693	21.5
660.02	22.15
660.347	22.32
660.674	22
661.001	22.19
661.329	22.66
661.656	22.13
661.982	22.36
662.309	22.53
662.636	22.57
662.963	22.62
663.29	22.34
663.616	22.82
663.943	22.89
664.27	22.5
664.596	22.55
664.923	22.88
665.249	22.99
665.576	23.22
665.902	23.1
666.228	22.88
666.554	22.62
666.881	22.7
667.207	23.42
667.533	23.2
667.859	23.02
668.185	22.94
668.511	23.51
668.837	23.02
669.162	22.67
669.488	23.32
669.814	23.23
670.139	22.82
670.465	23.7
670.791	23.55
671.116	23.53
671.442	23.83
671.767	23.48
672.092	23.63
672.418	23.6
672.743	23.35
673.068	23.75
673.393	24.02
673.718	23.76
674.043	24.31
674.368	24.12
674.693	23.6
675.018	23.67
675.343	23.9
675.667	24.24
675.992	23.68
676.317	23.81
676.641	23.64
676.966	24.74
677.29	23.93
677.615	24.08
677.939	24.29
678.264	24.27
678.588	25.52
678.912	24.23
679.236	24.76
679.56	24.14
679.885	24.08
680.209	24.48
680.532	24.11
680.856	24.45
681.18	24.09
681.504	24.28
681.828	24.85
682.152	24.79
682.475	24.51
682.799	24.25
683.122	25.2
