Data from 0019_chest_Reflection__0__00.txt Node

Date: Thu Oct 20 20:21:25 CDT 2022
User: ToomeyLab
Spectrometer: FLMS14357
Trigger mode: 0
Integration Time (sec): 1.000000E-2
Scans to average: 100
Electric dark correction enabled: true
Nonlinearity correction enabled: false
Boxcar width: 0
XAxis mode: Wavelengths
Number of Pixels in Spectrum: 2048
>>>>>Begin Spectral Data<<<<<
189.047	100.06
189.435	100.06
189.823	100.06
190.211	-1275.1
190.599	109.16
190.987	-3139.62
191.375	162.81
191.763	204.6
192.151	151.84
192.538	253.56
192.926	186.27
193.314	85.76
193.702	74.99
194.089	16.61
194.477	1505.88
194.864	247.99
195.252	1617.93
195.639	84.64
196.027	-16.74
196.414	19.29
196.801	-17.89
197.189	29.53
197.576	-106.54
197.963	82.15
198.351	20.43
198.738	0.42
199.125	28.73
199.512	32.53
199.899	-14.22
200.286	-22.05
200.673	9.41
201.06	14.82
201.447	8.87
201.833	-2.8
202.22	-33.18
202.607	26.14
202.994	-11.86
203.38	9.59
203.767	17.47
204.154	-13.25
204.54	36.76
204.927	50.1
205.313	-6.83
205.699	24.93
206.086	19.02
206.472	-7.33
206.858	3.41
207.245	13.17
207.631	-1.81
208.017	28.1
208.403	23.56
208.789	23.84
209.175	63.25
209.561	5.84
209.947	19.18
210.333	6.57
210.719	19.44
211.105	-32.96
211.491	-11.03
211.876	22.74
212.262	-19.9
212.648	-9.19
213.034	7.76
213.419	22.06
213.805	-6.1
214.19	24.41
214.576	8.12
214.961	2.27
215.346	-1.11
215.732	19.27
216.117	34.11
216.502	20.69
216.888	29.48
217.273	10.67
217.658	19.43
218.043	-23.4
218.428	-1.64
218.813	-11.52
219.198	6.48
219.583	45.98
219.968	4.02
220.353	-14.21
220.738	6.29
221.122	5.24
221.507	-5.71
221.892	6.77
222.276	18.24
222.661	5.12
223.046	4.8
223.43	8.95
223.815	-4.68
224.199	2.55
224.583	13.82
224.968	5.36
225.352	6.65
225.736	-3.39
226.121	3.28
226.505	5.2
226.889	6.66
227.273	4.71
227.657	5.42
228.041	3.82
228.425	4.63
228.809	2.2
229.193	3.53
229.577	4.25
229.961	2.48
230.344	3.26
230.728	4.14
231.112	3.99
231.495	2.89
231.879	3.54
232.263	3.2
232.646	3.63
233.03	1.38
233.413	3.81
233.797	2.35
234.18	1.95
234.563	2.72
234.946	2.41
235.33	2.68
235.713	5.07
236.096	1.61
236.479	2.35
236.862	3.57
237.245	1.78
237.628	0.89
238.011	3.12
238.394	3.43
238.777	2.38
239.16	2.08
239.543	3.13
239.925	2.34
240.308	5.13
240.691	4.22
241.073	4
241.456	2.21
241.838	3.02
242.221	4.6
242.603	3.76
242.986	3.33
243.368	3.17
243.75	3.22
244.133	3.09
244.515	2.77
244.897	3.32
245.279	3.33
245.661	4.28
246.043	2.25
246.425	2.14
246.807	3.08
247.189	3.9
247.571	2.91
247.953	3.42
248.335	3.07
248.717	3.32
249.098	3.01
249.48	3.08
249.862	3.17
250.243	3.42
250.625	3.54
251.006	4.5
251.388	4.34
251.769	1.97
252.151	3.75
252.532	3.13
252.913	3.64
253.295	2.97
253.676	2.97
254.057	3.05
254.438	3.81
254.819	4.27
255.2	2.78
255.581	3.8
255.962	2.97
256.343	4.85
256.724	3.59
257.105	3.06
257.486	3.35
257.867	3.55
258.247	3.46
258.628	2.96
259.009	3.32
259.389	2.98
259.77	3.35
260.15	2.69
260.531	3.5
260.911	2.64
261.292	2.71
261.672	2.85
262.052	3.34
262.432	3.25
262.813	3.55
263.193	2.63
263.573	2.99
263.953	2.86
264.333	2.83
264.713	3.39
265.093	3.6
265.473	3.82
265.853	2.94
266.233	2.74
266.612	2.12
266.992	3.99
267.372	3.21
267.752	2.53
268.131	2.9
268.511	2.86
268.89	2.94
269.27	3.28
269.649	3.07
270.029	3.13
270.408	2.75
270.787	2.99
271.167	3.69
271.546	3.16
271.925	3.22
272.304	2.87
272.683	2.81
273.062	3.18
273.441	2.94
273.82	2.6
274.199	3.14
274.578	3.29
274.957	3.38
275.336	3.07
275.715	2.62
276.093	3.21
276.472	3.17
276.851	2.93
277.229	2.31
277.608	2.94
277.986	2.04
278.365	2.59
278.743	3.13
279.122	3.65
279.5	2.55
279.878	2.95
280.257	3.1
280.635	3.49
281.013	3.81
281.391	3.08
281.769	2.84
282.147	3.13
282.525	2.68
282.903	3.34
283.281	2.92
283.659	2.4
284.037	2.96
284.415	3.13
284.792	2.69
285.17	2.62
285.548	2.52
285.925	2.93
286.303	3.05
286.68	2.79
287.058	2.89
287.435	2.83
287.813	2.65
288.19	3.26
288.567	2.73
288.945	3.16
289.322	2.29
289.699	3.2
290.076	3.23
290.453	3.01
290.83	3.01
291.207	2.73
291.584	2.26
291.961	2.93
292.338	2.8
292.715	2.94
293.092	3.53
293.469	3.11
293.845	3.05
294.222	3.03
294.599	3.5
294.975	2.71
295.352	3
295.728	3.43
296.105	2.96
296.481	3.16
296.858	3.35
297.234	3.08
297.61	2.92
297.986	2.93
298.363	3.11
298.739	3.36
299.115	3.17
299.491	3.44
299.867	2.82
300.243	3.32
300.619	3.29
300.995	3.22
301.371	2.87
301.746	2.78
302.122	2.73
302.498	3.36
302.874	3.39
303.249	2.95
303.625	3.27
304	3.2
304.376	3.56
304.751	3.12
305.127	2.07
305.502	3.15
305.878	3.3
306.253	3.17
306.628	3.25
307.003	3.46
307.378	3.32
307.754	3.45
308.129	2.93
308.504	3.59
308.879	3.13
309.254	3.54
309.629	3.61
310.003	3.45
310.378	3.75
310.753	3.09
311.128	2.69
311.502	3.12
311.877	3.67
312.252	3.59
312.626	3.31
313.001	3.27
313.375	3.41
313.75	3.21
314.124	3.11
314.498	3.42
314.873	3.25
315.247	3.52
315.621	3.73
315.995	3.59
316.369	2.97
316.743	4.12
317.117	3.24
317.491	3.33
317.865	3.91
318.239	3.71
318.613	3.55
318.987	3.67
319.361	3.63
319.734	3.43
320.108	3.6
320.482	3.09
320.855	3.41
321.229	3.62
321.602	3.25
321.976	3.31
322.349	3.17
322.723	3.53
323.096	3
323.469	3.38
323.843	3.89
324.216	3.45
324.589	3.39
324.962	3.54
325.335	3.31
325.708	3.6
326.081	3.95
326.454	3.4
326.827	3.55
327.2	3.42
327.573	3.78
327.945	3.34
328.318	3.69
328.691	3.33
329.063	3.36
329.436	3.25
329.809	3.93
330.181	3.31
330.553	3.78
330.926	2.86
331.298	2.82
331.671	3.09
332.043	3.52
332.415	3.64
332.787	3.61
333.159	3.51
333.532	3.68
333.904	2.88
334.276	3.49
334.648	3.12
335.02	3.32
335.391	3.56
335.763	3.49
336.135	3.13
336.507	2.91
336.879	3.34
337.25	3.16
337.622	3.55
337.993	4.04
338.365	3.42
338.736	3.29
339.108	3.43
339.479	3.72
339.851	3.64
340.222	3.47
340.593	3.47
340.964	3.44
341.336	3.4
341.707	3.34
342.078	3.07
342.449	3.12
342.82	3.18
343.191	3.42
343.562	3.59
343.933	3.55
344.303	3.98
344.674	3.27
345.045	3.2
345.416	3.69
345.786	3.24
346.157	3.19
346.527	3.13
346.898	3.18
347.268	3.51
347.639	3.88
348.009	3.44
348.38	3.48
348.75	3.28
349.12	3
349.49	3.27
349.861	4.16
350.231	3.14
350.601	3.3
350.971	3.57
351.341	3.22
351.711	3.14
352.081	3.69
352.45	3.53
352.82	3.21
353.19	3.56
353.56	3.38
353.929	3.48
354.299	3.45
354.669	4.02
355.038	2.96
355.408	3.24
355.777	3.5
356.147	3.72
356.516	3.54
356.885	3.79
357.254	3.7
357.624	3.21
357.993	3.08
358.362	3.4
358.731	3.71
359.1	3.7
359.469	3.68
359.838	3.61
360.207	3.9
360.576	3.39
360.945	2.83
361.314	3.99
361.682	3.33
362.051	3.34
362.42	3.21
362.788	3.27
363.157	3.29
363.525	3.57
363.894	3.51
364.262	3.28
364.631	3.45
364.999	3.38
365.367	3.39
365.735	3.43
366.104	3.54
366.472	3.61
366.84	3.25
367.208	3.56
367.576	3.49
367.944	4.07
368.312	3.73
368.68	3.89
369.048	3.32
369.416	3.71
369.783	3.58
370.151	3.69
370.519	3.81
370.886	3.64
371.254	3.92
371.621	3.74
371.989	3.27
372.356	3.6
372.724	3.59
373.091	3.29
373.458	3.41
373.826	3.55
374.193	3.4
374.56	3.74
374.927	3.61
375.294	3.44
375.661	3.45
376.028	3.56
376.395	3.52
376.762	3.38
377.129	3.98
377.496	3.49
377.863	3.6
378.229	3.47
378.596	3.22
378.963	3.35
379.329	3.59
379.696	3.66
380.062	3.56
380.429	3.38
380.795	3.43
381.161	3.22
381.528	3.5
381.894	3.71
382.26	3.33
382.626	3.67
382.993	3.74
383.359	3.57
383.725	3.27
384.091	3.21
384.457	2.91
384.823	3.34
385.188	3.62
385.554	3.39
385.92	3.64
386.286	3.56
386.651	3.75
387.017	3.2
387.383	3.62
387.748	3.32
388.114	3.77
388.479	3.73
388.845	3.45
389.21	3.6
389.575	3.5
389.94	3.78
390.306	3.47
390.671	3.35
391.036	3.86
391.401	3.4
391.766	3.72
392.131	3.58
392.496	3.18
392.861	3.51
393.226	3.38
393.591	3.66
393.956	3.55
394.32	3.49
394.685	3.36
395.05	3.52
395.414	3.58
395.779	3.58
396.143	3.84
396.508	3.59
396.872	3.47
397.236	3.91
397.601	3.47
397.965	3.72
398.329	3.37
398.694	3.77
399.058	3.9
399.422	3.67
399.786	3.52
400.15	3.35
400.514	3.4
400.878	3.6
401.242	3.83
401.605	3.71
401.969	3.81
402.333	3.47
402.697	3.73
403.06	3.66
403.424	3.72
403.787	3.52
404.151	3.77
404.514	3.2
404.878	3.6
405.241	3.53
405.604	3.87
405.968	3.54
406.331	3.7
406.694	3.47
407.057	3.45
407.42	3.43
407.783	3.61
408.146	3.71
408.509	3.65
408.872	3.9
409.235	3.68
409.598	3.69
409.961	3.77
410.323	3.7
410.686	3.68
411.049	3.5
411.411	3.78
411.774	3.61
412.136	3.77
412.499	3.66
412.861	3.69
413.223	3.7
413.586	3.77
413.948	3.58
414.31	3.77
414.672	3.56
415.035	3.83
415.397	3.78
415.759	3.56
416.121	3.51
416.483	3.75
416.845	3.62
417.206	3.63
417.568	3.62
417.93	3.4
418.292	3.7
418.653	3.69
419.015	3.57
419.377	3.56
419.738	3.72
420.1	3.67
420.461	3.75
420.822	3.62
421.184	3.68
421.545	3.59
421.906	3.5
422.267	3.48
422.629	3.68
422.99	3.57
423.351	3.58
423.712	3.61
424.073	3.6
424.434	3.64
424.795	3.6
425.155	3.66
425.516	3.52
425.877	3.59
426.238	3.76
426.598	3.58
426.959	3.74
427.32	3.67
427.68	3.74
428.041	3.8
428.401	3.83
428.761	3.98
429.122	3.6
429.482	4.02
429.842	3.74
430.202	3.71
430.563	3.77
430.923	3.66
431.283	3.93
431.643	3.84
432.003	3.97
432.363	3.61
432.722	3.72
433.082	3.83
433.442	3.95
433.802	3.8
434.161	3.85
434.521	3.86
434.881	3.75
435.24	3.72
435.6	3.88
435.959	3.9
436.319	3.81
436.678	3.74
437.037	3.92
437.396	3.89
437.756	3.65
438.115	3.8
438.474	3.87
438.833	3.75
439.192	3.74
439.551	3.84
439.91	3.85
440.269	3.85
440.628	3.89
440.987	3.74
441.345	3.83
441.704	3.8
442.063	3.61
442.421	3.74
442.78	3.87
443.138	3.97
443.497	3.88
443.855	3.83
444.214	3.91
444.572	3.85
444.93	3.79
445.288	3.81
445.647	3.72
446.005	3.71
446.363	3.83
446.721	3.86
447.079	3.78
447.437	3.75
447.795	3.71
448.153	3.81
448.51	3.79
448.868	3.75
449.226	3.9
449.584	3.87
449.941	3.91
450.299	4
450.656	4.04
451.014	3.98
451.371	3.8
451.729	3.83
452.086	3.94
452.443	3.98
452.801	4.14
453.158	3.98
453.515	3.86
453.872	3.94
454.229	3.93
454.586	3.91
454.943	4.05
455.3	4.08
455.657	3.82
456.014	4.03
456.371	3.92
456.727	3.97
457.084	3.88
457.441	3.94
457.797	4.11
458.154	3.91
458.51	3.83
458.867	3.81
459.223	3.98
459.58	3.87
459.936	3.91
460.292	3.98
460.648	3.96
461.005	3.69
461.361	3.65
461.717	3.91
462.073	3.85
462.429	4.1
462.785	3.93
463.141	3.98
463.496	3.79
463.852	4.21
464.208	4.08
464.564	4.21
464.919	4.12
465.275	3.82
465.631	4.01
465.986	4.06
466.342	3.96
466.697	3.87
467.052	4.18
467.408	4.04
467.763	3.97
468.118	4.18
468.473	3.97
468.829	3.97
469.184	4.06
469.539	3.99
469.894	4.13
470.249	3.89
470.603	4.11
470.958	4.02
471.313	4.12
471.668	3.89
472.023	4.23
472.377	4.3
472.732	4.16
473.086	4
473.441	4.14
473.795	4.05
474.15	4.07
474.504	4.02
474.859	4.11
475.213	4.04
475.567	4.06
475.921	4.1
476.275	4.13
476.63	4.14
476.984	4.1
477.338	4.13
477.692	4.09
478.045	4.09
478.399	4.21
478.753	4.09
479.107	4.12
479.461	4.11
479.814	4.04
480.168	4.21
480.521	3.93
480.875	4.02
481.228	4.18
481.582	4.24
481.935	4.08
482.289	4.1
482.642	4.08
482.995	4.06
483.348	4.07
483.701	4.07
484.055	3.98
484.408	3.88
484.761	3.82
485.114	3.69
485.466	3.74
485.819	3.86
486.172	4.01
486.525	4.16
486.878	4.09
487.23	4.12
487.583	4.05
487.936	3.96
488.288	3.92
488.641	3.87
488.993	3.93
489.345	3.94
489.698	4.02
490.05	4.13
490.402	4.14
490.754	4.15
491.107	4.18
491.459	4.24
491.811	4.2
492.163	4.14
492.515	4.04
492.866	3.9
493.218	3.91
493.57	4.05
493.922	4.17
494.274	4.23
494.625	4.26
494.977	4.3
495.328	4.26
495.68	4.3
496.031	4.39
496.383	4.34
496.734	4.26
497.086	4.29
497.437	4.3
497.788	4.2
498.139	4.23
498.49	4.2
498.842	4.23
499.193	4.32
499.544	4.35
499.894	4.3
500.245	4.18
500.596	4.27
500.947	4.42
501.298	4.42
501.648	4.49
501.999	4.42
502.35	4.46
502.7	4.47
503.051	4.46
503.401	4.52
503.752	4.4
504.102	4.36
504.452	4.47
504.803	4.44
505.153	4.32
505.503	4.41
505.853	4.3
506.203	4.41
506.553	4.41
506.903	4.47
507.253	4.39
507.603	4.52
507.953	4.71
508.303	4.72
508.652	4.44
509.002	4.47
509.352	4.5
509.701	4.41
510.051	4.43
510.4	4.49
510.75	4.44
511.099	4.46
511.449	4.52
511.798	4.58
512.147	4.52
512.496	4.53
512.846	4.55
513.195	4.52
513.544	4.61
513.893	4.6
514.242	4.57
514.591	4.56
514.939	4.58
515.288	4.58
515.637	4.69
515.986	4.73
516.334	4.71
516.683	4.74
517.032	4.8
517.38	4.62
517.729	4.8
518.077	4.79
518.426	4.56
518.774	4.71
519.122	4.66
519.47	4.59
519.819	4.53
520.167	4.51
520.515	4.67
520.863	4.67
521.211	4.74
521.559	4.78
521.907	4.74
522.255	4.74
522.602	4.69
522.95	4.74
523.298	4.78
523.645	4.74
523.993	4.91
524.341	4.88
524.688	4.74
525.036	4.93
525.383	4.9
525.73	4.85
526.078	4.79
526.425	4.78
526.772	4.7
527.119	4.71
527.466	4.74
527.814	4.78
528.161	4.9
528.508	4.8
528.854	4.83
529.201	4.62
529.548	4.6
529.895	4.47
530.242	4.54
530.588	4.72
530.935	4.8
531.282	4.88
531.628	4.85
531.975	4.92
532.321	5.03
532.667	4.92
533.014	4.96
533.36	4.9
533.706	4.99
534.052	4.82
534.399	4.82
534.745	4.74
535.091	4.86
535.437	4.94
535.783	5.12
536.129	5.13
536.474	5.08
536.82	5.11
537.166	5.18
537.512	5.04
537.857	5.06
538.203	5.12
538.549	5.03
538.894	5.11
539.239	5.34
539.585	5.24
539.93	5.16
540.276	5.17
540.621	5.3
540.966	5.24
541.311	5.27
541.656	5.25
542.001	5.09
542.346	5
542.691	4.96
543.036	5
543.381	5.11
543.726	5.25
544.071	5.34
544.415	5.28
544.76	5.31
545.105	5.38
545.449	5.34
545.794	5.5
546.138	5.47
546.483	5.61
546.827	5.43
547.171	5.45
547.516	5.53
547.86	5.46
548.204	5.45
548.548	5.51
548.892	5.54
549.236	5.58
549.58	5.65
549.924	5.66
550.268	5.75
550.612	5.77
550.956	5.66
551.3	5.87
551.643	5.8
551.987	5.83
552.33	6
552.674	5.91
553.017	5.81
553.361	5.88
553.704	5.89
554.048	5.71
554.391	5.9
554.734	5.85
555.077	5.93
555.42	6
555.764	6.06
556.107	6.09
556.45	6.16
556.793	6.16
557.135	6.06
557.478	6.13
557.821	6.14
558.164	5.99
558.507	6.22
558.849	6.23
559.192	6.42
559.534	6.32
559.877	6.27
560.219	6.25
560.562	6.27
560.904	6.31
561.246	6.13
561.589	6.32
561.931	6.33
562.273	6.29
562.615	6.36
562.957	6.4
563.299	6.4
563.641	6.44
563.983	6.55
564.325	6.4
564.667	6.63
565.008	6.37
565.35	6.56
565.692	6.5
566.033	6.5
566.375	6.35
566.716	6.36
567.058	6.46
567.399	6.58
567.741	6.39
568.082	6.52
568.423	6.55
568.764	6.58
569.105	6.75
569.447	6.82
569.788	6.78
570.129	6.75
570.47	6.81
570.811	6.82
571.151	6.78
571.492	6.86
571.833	7.14
572.174	6.96
572.514	6.8
572.855	6.91
573.195	6.83
573.536	6.79
573.876	6.86
574.217	6.85
574.557	6.85
574.898	6.95
575.238	7.18
575.578	7.23
575.918	7.09
576.258	7
576.598	6.94
576.938	7.29
577.278	7.28
577.618	7.07
577.958	7.49
578.298	7.45
578.638	7.17
578.977	7.33
579.317	7.32
579.657	7.5
579.996	7.46
580.336	7.22
580.675	7.49
581.014	7.62
581.354	7.75
581.693	7.62
582.032	7.61
582.372	7.73
582.711	7.63
583.05	7.59
583.389	7.67
583.728	7.62
584.067	7.73
584.406	7.72
584.745	7.81
585.083	8
585.422	7.81
585.761	7.95
586.1	7.92
586.438	7.71
586.777	7.83
587.115	8.04
587.454	8.33
587.792	7.83
588.13	7.89
588.469	8.06
588.807	8.08
589.145	8.13
589.483	8.04
589.821	8.03
590.159	8.01
590.497	8.11
590.835	8.44
591.173	8.24
591.511	8.17
591.849	8.41
592.187	8.42
592.524	8.21
592.862	8.43
593.2	8.2
593.537	8.55
593.875	8.55
594.212	8.56
594.55	8.56
594.887	8.72
595.224	8.55
595.561	8.68
595.899	8.53
596.236	8.73
596.573	8.55
596.91	8.79
597.247	8.83
597.584	8.63
597.921	8.84
598.258	8.64
598.594	8.72
598.931	8.86
599.268	8.74
599.604	9.03
599.941	9.04
600.277	9.13
600.614	9.06
600.95	9.36
601.287	9.28
601.623	9.04
601.959	9.31
602.296	8.95
602.632	8.99
602.968	9.31
603.304	9.36
603.64	8.98
603.976	9.56
604.312	9.41
604.648	8.96
604.984	9.29
605.319	9.29
605.655	9.31
605.991	9.11
606.326	9.32
606.662	9.34
606.998	9.48
607.333	9.41
607.668	9.66
608.004	9.95
608.339	9.72
608.674	9.63
609.01	9.73
609.345	9.57
609.68	9.97
610.015	9.86
610.35	9.88
610.685	9.72
611.02	9.69
611.355	9.73
611.689	9.92
612.024	9.7
612.359	9.91
612.694	10.08
613.028	9.99
613.363	10.02
613.697	10.61
614.032	10.28
614.366	10.64
614.7	10.45
615.035	10.68
615.369	10.26
615.703	10.29
616.037	10.4
616.371	10.41
616.705	10.69
617.039	10.62
617.373	10.85
617.707	10.54
618.041	10.7
618.375	10.29
618.709	10.66
619.042	10.68
619.376	10.66
619.71	10.4
620.043	10.7
620.377	10.77
620.71	10.68
621.043	10.86
621.377	10.68
621.71	11.14
622.043	11.18
622.376	10.99
622.709	10.8
623.043	11.42
623.376	10.77
623.709	10.91
624.041	11.25
624.374	11.34
624.707	11.13
625.04	11.2
625.373	11.38
625.705	11.17
626.038	11.08
626.37	11.26
626.703	11.56
627.035	11.21
627.368	11.18
627.7	11.91
628.032	11.47
628.365	11.44
628.697	11.29
629.029	11.39
629.361	11.77
629.693	11.8
630.025	11.71
630.357	11.55
630.689	12.19
631.021	11.8
631.353	12.01
631.684	12.02
632.016	12.32
632.348	12.13
632.679	12.12
633.011	11.96
633.342	12.25
633.674	11.99
634.005	12.37
634.336	12.15
634.668	11.9
634.999	12.02
635.33	12.23
635.661	12.47
635.992	12.06
636.323	12.8
636.654	12.16
636.985	12.49
637.316	12.54
637.647	12.49
637.977	12.07
638.308	12.57
638.639	12.38
638.969	12.59
639.3	12.56
639.63	12.72
639.961	12.78
640.291	12.56
640.622	12.52
640.952	13.08
641.282	13.14
641.612	13.07
641.943	13.02
642.273	13.23
642.603	12.87
642.933	12.9
643.263	12.96
643.592	12.55
643.922	13.18
644.252	12.86
644.582	13.04
644.911	12.84
645.241	13.76
645.571	13.16
645.9	13.62
646.23	13.46
646.559	13.47
646.888	13.31
647.218	13.35
647.547	13.44
647.876	13.53
648.205	13.93
648.534	13.84
648.863	13.55
649.192	13.27
649.521	14.17
649.85	14.13
650.179	13.66
650.508	13.68
650.837	13.56
651.165	13.79
651.494	13.68
651.822	13.54
652.151	13.5
652.479	13.84
652.808	14.29
653.136	13.81
653.465	13.88
653.793	13.78
654.121	14.37
654.449	14.29
654.777	13.94
655.105	14.47
655.433	14.42
655.761	14.25
656.089	14.39
656.417	14.05
656.745	13.81
657.073	15.03
657.4	14.07
657.728	14.79
658.056	14.68
658.383	14.89
658.711	14.82
659.038	15.12
659.365	14.65
659.693	14.35
660.02	14.65
660.347	14.74
660.674	14.55
661.001	14.81
661.329	14.99
661.656	14.67
661.982	15.03
662.309	15.16
662.636	15.08
662.963	15.64
663.29	14.94
663.616	15.46
663.943	14.9
664.27	15.04
664.596	15
664.923	15.17
665.249	15.36
665.576	15.83
665.902	15.83
666.228	15.84
666.554	15.32
666.881	15.35
667.207	15.57
667.533	15.72
667.859	16.37
668.185	15.58
668.511	15.27
668.837	15.99
669.162	15.79
669.488	15.51
669.814	15.6
670.139	15.57
670.465	16
670.791	15.37
671.116	16.1
671.442	16.14
671.767	16.12
672.092	16.13
672.418	15.61
672.743	16.18
673.068	16.32
673.393	15.97
673.718	16.55
674.043	15.82
674.368	16.36
674.693	16.16
675.018	15.6
675.343	15.84
675.667	16.38
675.992	16.27
676.317	16.91
676.641	15.29
676.966	17.28
677.29	16.54
677.615	16.56
677.939	17.2
678.264	16.54
678.588	17.3
678.912	16.9
679.236	16.99
679.56	16.52
679.885	16.59
680.209	16.88
680.532	16.64
680.856	16.9
681.18	16.49
681.504	16.35
681.828	17.49
682.152	17.13
682.475	16.34
682.799	16.74
683.122	17.43
683.446	17.32
683.769	17.61
684.093	16.88
684.416	17.52
684.739	17.17
685.062	17.84
685.386	17.58
685.709	17.8
686.032	17.14
686.355	18.42
686.678	17.8
687.001	17.79
687.324	17.33
687.646	17.56
