Data from 0019_crown_Reflection__2__07.txt Node

Date: Thu Oct 20 20:23:56 CDT 2022
User: ToomeyLab
Spectrometer: FLMS14357
Trigger mode: 0
Integration Time (sec): 1.000000E-2
Scans to average: 100
Electric dark correction enabled: true
Nonlinearity correction enabled: false
Boxcar width: 0
XAxis mode: Wavelengths
Number of Pixels in Spectrum: 2048
>>>>>Begin Spectral Data<<<<<
189.047	58.04
189.435	58.04
189.823	58.04
190.211	-1006.51
190.599	131.51
190.987	2862.26
191.375	-35.67
191.763	42.03
192.151	-42.22
192.538	-173.08
192.926	248.54
193.314	417.59
193.702	162.77
194.089	-54.19
194.477	2397.33
194.864	283.12
195.252	1505.04
195.639	97.82
196.027	90.66
196.414	-26.51
196.801	-48
197.189	166.44
197.576	-151.54
197.963	81.09
198.351	19.11
198.738	-4.54
199.125	41.17
199.512	2.64
199.899	-12.97
200.286	14.83
200.673	31.22
201.06	53.43
201.447	38.15
201.833	12.28
202.22	-14.04
202.607	10.91
202.994	3.23
203.38	-9.06
203.767	20.81
204.154	-5.16
204.54	13.42
204.927	10.25
205.313	5.97
205.699	19.72
206.086	18.64
206.472	34.7
206.858	23.27
207.245	-7.94
207.631	-18.7
208.017	21.89
208.403	25.43
208.789	23.54
209.175	18.36
209.561	1.45
209.947	23.57
210.333	16.23
210.719	0.65
211.105	-34.23
211.491	-6.82
211.876	17.53
212.262	-1.84
212.648	23.07
213.034	28.05
213.419	8.27
213.805	-13.25
214.19	14.51
214.576	17.48
214.961	5.4
215.346	7.95
215.732	12.31
216.117	12.57
216.502	32.84
216.888	25.34
217.273	22.74
217.658	28.3
218.043	1.22
218.428	3.79
218.813	18.82
219.198	15.02
219.583	28.79
219.968	-5.05
220.353	-1.12
220.738	6.83
221.122	5.65
221.507	-22.01
221.892	24.29
222.276	2.74
222.661	0.57
223.046	11.71
223.43	10.2
223.815	-12.83
224.199	-2.2
224.583	0.55
224.968	0.68
225.352	1.37
225.736	5.82
226.121	3.44
226.505	6.87
226.889	0.69
227.273	4.95
227.657	4.68
228.041	1.84
228.425	3.91
228.809	3.93
229.193	4.58
229.577	2.11
229.961	3.14
230.344	2.25
230.728	3.36
231.112	2.9
231.495	2.98
231.879	3.22
232.263	3.8
232.646	3.89
233.03	1.47
233.413	1.75
233.797	1.26
234.18	1.3
234.563	0.8
234.946	2.19
235.33	1.86
235.713	4.51
236.096	1.74
236.479	0.59
236.862	4.31
237.245	5.22
237.628	2.76
238.011	1.9
238.394	2.51
238.777	2.68
239.16	2.95
239.543	2.98
239.925	3
240.308	3.23
240.691	1.72
241.073	4.09
241.456	2.06
241.838	2.7
242.221	3.14
242.603	2.78
242.986	2.51
243.368	2.58
243.75	2.69
244.133	2.19
244.515	2.51
244.897	3.07
245.279	2.9
245.661	3.22
246.043	3.02
246.425	2.16
246.807	3.37
247.189	2.74
247.571	2.1
247.953	2.42
248.335	2.24
248.717	2.51
249.098	2.35
249.48	2.31
249.862	2.83
250.243	1.79
250.625	2.57
251.006	2.83
251.388	3.05
251.769	1.68
252.151	2.9
252.532	2.38
252.913	2.22
253.295	2.69
253.676	1.9
254.057	2.37
254.438	2.63
254.819	2.94
255.2	2.54
255.581	3.64
255.962	2.14
256.343	3.43
256.724	1.54
257.105	1.92
257.486	2.1
257.867	2.16
258.247	3.11
258.628	2.63
259.009	2.03
259.389	1.66
259.77	2.93
260.15	2.25
260.531	2.45
260.911	1.94
261.292	2.06
261.672	2.17
262.052	2.12
262.432	2.49
262.813	2.32
263.193	2.3
263.573	2.22
263.953	2.43
264.333	2.42
264.713	2.31
265.093	2.22
265.473	2.93
265.853	1.38
266.233	1.51
266.612	2.06
266.992	2.4
267.372	2.39
267.752	2.66
268.131	2.31
268.511	1.83
268.89	2.17
269.27	2.21
269.649	2.39
270.029	2.52
270.408	2.02
270.787	2.31
271.167	2.33
271.546	1.86
271.925	2.29
272.304	2.3
272.683	2.07
273.062	2.22
273.441	2.71
273.82	2.04
274.199	2.25
274.578	2.51
274.957	2.57
275.336	2.24
275.715	2.35
276.093	2.51
276.472	2.25
276.851	2.23
277.229	1.8
277.608	2
277.986	1.42
278.365	1.86
278.743	2.76
279.122	2.9
279.5	1.31
279.878	1.95
280.257	2.13
280.635	2.69
281.013	2.68
281.391	2.84
281.769	1.64
282.147	2.26
282.525	1.66
282.903	1.79
283.281	2.07
283.659	1.76
284.037	1.84
284.415	2.11
284.792	1.49
285.17	2.07
285.548	2.12
285.925	2.53
286.303	2.23
286.68	1.86
287.058	2.1
287.435	2.19
287.813	1.97
288.19	2.32
288.567	1.62
288.945	2.24
289.322	1.71
289.699	2.48
290.076	2.44
290.453	1.83
290.83	2.18
291.207	2.34
291.584	1.6
291.961	2.03
292.338	1.54
292.715	1.81
293.092	2.49
293.469	2.29
293.845	2.26
294.222	2.29
294.599	2.36
294.975	2.04
295.352	2.48
295.728	2.22
296.105	1.96
296.481	2.27
296.858	2.57
297.234	2.05
297.61	1.58
297.986	1.95
298.363	1.95
298.739	2.45
299.115	2.31
299.491	2.71
299.867	2.23
300.243	1.99
300.619	2.23
300.995	2.05
301.371	1.55
301.746	2.08
302.122	1.76
302.498	2.32
302.874	2.28
303.249	2.21
303.625	1.79
304	2.11
304.376	2.2
304.751	1.97
305.127	1.47
305.502	2.04
305.878	2.22
306.253	1.97
306.628	1.98
307.003	2.38
307.378	2.2
307.754	2.46
308.129	2.18
308.504	1.84
308.879	2.6
309.254	2.61
309.629	2.38
310.003	2.16
310.378	2.14
310.753	2.24
311.128	1.76
311.502	1.88
311.877	2.17
312.252	2.12
312.626	2.22
313.001	2.12
313.375	2.42
313.75	2.59
314.124	2.13
314.498	2.12
314.873	2.24
315.247	2.23
315.621	2.18
315.995	2.23
316.369	2.17
316.743	2.72
317.117	2.05
317.491	2.07
317.865	2.28
318.239	2.32
318.613	2.28
318.987	2.04
319.361	2.55
319.734	2.33
320.108	2.46
320.482	2.13
320.855	2.27
321.229	2.62
321.602	2.34
321.976	2.65
322.349	2.15
322.723	2.47
323.096	2.29
323.469	2.33
323.843	2.42
324.216	2.37
324.589	2.35
324.962	2.13
325.335	2.39
325.708	2.89
326.081	2.76
326.454	2.24
326.827	2.53
327.2	3.42
327.573	2.43
327.945	2.23
328.318	2.34
328.691	2.27
329.063	1.58
329.436	1.78
329.809	2.52
330.181	1.79
330.553	1.99
330.926	2.86
331.298	1.62
331.671	2.59
332.043	2.08
332.415	2.47
332.787	2.62
333.159	2.21
333.532	2.25
333.904	2.22
334.276	2.32
334.648	2.56
335.02	2.37
335.391	2.47
335.763	2.79
336.135	2.36
336.507	2.29
336.879	1.98
337.25	2.2
337.622	2.42
337.993	2.88
338.365	1.96
338.736	2.78
339.108	2.16
339.479	2.13
339.851	2.66
340.222	1.86
340.593	2.08
340.964	1.99
341.336	2.1
341.707	2.33
342.078	2.19
342.449	2.75
342.82	2.58
343.191	2.64
343.562	2.61
343.933	2.32
344.303	2.52
344.674	1.71
345.045	2.3
345.416	2.13
345.786	2.39
346.157	2.07
346.527	2.13
346.898	2.41
347.268	1.89
347.639	2.25
348.009	1.89
348.38	2.5
348.75	2.23
349.12	2.2
349.49	2.2
349.861	3.05
350.231	2.08
350.601	2.75
350.971	1.99
351.341	2.28
351.711	2.28
352.081	2.4
352.45	2.34
352.82	2.36
353.19	2.32
353.56	2.07
353.929	2.51
354.299	2.11
354.669	2.64
355.038	2.48
355.408	1.95
355.777	1.97
356.147	2.34
356.516	2.67
356.885	2.71
357.254	2.65
357.624	2.13
357.993	2.15
358.362	2.33
358.731	2.24
359.1	2.46
359.469	2.49
359.838	2.47
360.207	2.78
360.576	2.56
360.945	1.92
361.314	2.25
361.682	1.92
362.051	2.43
362.42	1.97
362.788	2.19
363.157	2.25
363.525	2.16
363.894	2.29
364.262	2.25
364.631	2.3
364.999	2.28
365.367	2.18
365.735	2.01
366.104	2.12
366.472	2.23
366.84	2.25
367.208	2.49
367.576	2.3
367.944	2.69
368.312	2.46
368.68	2.62
369.048	2.06
369.416	2.59
369.783	2.93
370.151	2.38
370.519	2.33
370.886	2.01
371.254	2.67
371.621	2.36
371.989	2.09
372.356	2.47
372.724	2.84
373.091	2.69
373.458	2.4
373.826	2.28
374.193	2.5
374.56	2.63
374.927	2.36
375.294	2.24
375.661	2.58
376.028	2.46
376.395	2.1
376.762	2.27
377.129	2.45
377.496	2.32
377.863	2.58
378.229	2.28
378.596	2.33
378.963	2.41
379.329	2.17
379.696	2.64
380.062	2.52
380.429	2.28
380.795	2.11
381.161	2.37
381.528	2.23
381.894	2.09
382.26	2.27
382.626	2.35
382.993	2.34
383.359	2.32
383.725	2.29
384.091	2.15
384.457	1.96
384.823	2.31
385.188	2.32
385.554	2.61
385.92	2.59
386.286	2.44
386.651	2.37
387.017	2.15
387.383	2.25
387.748	2.22
388.114	2.37
388.479	2.42
388.845	2.67
389.21	2.42
389.575	2.19
389.94	2.46
390.306	2.2
390.671	2.2
391.036	2.64
391.401	2.54
391.766	2.57
392.131	2.31
392.496	2.18
392.861	2.45
393.226	2.44
393.591	2.42
393.956	2.34
394.32	2.5
394.685	2.5
395.05	2.11
395.414	2.57
395.779	2.23
396.143	2.53
396.508	2.2
396.872	2.32
397.236	2.35
397.601	2.42
397.965	2.44
398.329	2.21
398.694	2.57
399.058	2.28
399.422	2.31
399.786	2.53
400.15	2.25
400.514	2.2
400.878	2.36
401.242	2.65
401.605	2.43
401.969	2.64
402.333	2.19
402.697	2.29
403.06	2.25
403.424	2.49
403.787	2.18
404.151	2.31
404.514	2.19
404.878	2.43
405.241	2.16
405.604	2.78
405.968	2.29
406.331	2.45
406.694	2.35
407.057	2.31
407.42	2.31
407.783	2.4
408.146	2.54
408.509	2.58
408.872	2.38
409.235	2.3
409.598	2.37
409.961	2.25
410.323	2.11
410.686	2.56
411.049	2.25
411.411	2.72
411.774	2.42
412.136	2.53
412.499	2.52
412.861	2.36
413.223	2.69
413.586	2.79
413.948	2.62
414.31	2.49
414.672	2.6
415.035	2.51
415.397	2.28
415.759	2.34
416.121	2.26
416.483	2.54
416.845	2.4
417.206	2.22
417.568	2.38
417.93	2.14
418.292	2.34
418.653	2.36
419.015	2.38
419.377	2.32
419.738	2.3
420.1	2.24
420.461	2.39
420.822	2.48
421.184	2.37
421.545	2.22
421.906	2.22
422.267	2.21
422.629	2.37
422.99	2.27
423.351	2.36
423.712	2.3
424.073	2.27
424.434	2.35
424.795	2.21
425.155	2.25
425.516	2.23
425.877	2.34
426.238	2.4
426.598	2.36
426.959	2.43
427.32	2.46
427.68	2.43
428.041	2.6
428.401	2.42
428.761	2.42
429.122	2.54
429.482	2.55
429.842	2.53
430.202	2.42
430.563	2.31
430.923	2.49
431.283	2.48
431.643	2.41
432.003	2.6
432.363	2.34
432.722	2.64
433.082	2.53
433.442	2.41
433.802	2.5
434.161	2.41
434.521	2.35
434.881	2.48
435.24	2.45
435.6	2.5
435.959	2.52
436.319	2.58
436.678	2.58
437.037	2.62
437.396	2.42
437.756	2.34
438.115	2.35
438.474	2.53
438.833	2.41
439.192	2.56
439.551	2.38
439.91	2.51
440.269	2.43
440.628	2.53
440.987	2.52
441.345	2.47
441.704	2.41
442.063	2.39
442.421	2.43
442.78	2.48
443.138	2.51
443.497	2.42
443.855	2.54
444.214	2.42
444.572	2.54
444.93	2.63
445.288	2.37
445.647	2.4
446.005	2.35
446.363	2.43
446.721	2.46
447.079	2.3
447.437	2.38
447.795	2.33
448.153	2.37
448.51	2.41
448.868	2.38
449.226	2.4
449.584	2.46
449.941	2.53
450.299	2.52
450.656	2.6
451.014	2.55
451.371	2.63
451.729	2.45
452.086	2.5
452.443	2.58
452.801	2.52
453.158	2.61
453.515	2.5
453.872	2.42
454.229	2.57
454.586	2.55
454.943	2.55
455.3	2.69
455.657	2.51
456.014	2.6
456.371	2.5
456.727	2.57
457.084	2.67
457.441	2.34
457.797	2.66
458.154	2.43
458.51	2.47
458.867	2.39
459.223	2.51
459.58	2.47
459.936	2.43
460.292	2.37
460.648	2.54
461.005	2.4
461.361	2.27
461.717	2.37
462.073	2.45
462.429	2.58
462.785	2.33
463.141	2.64
463.496	2.51
463.852	2.77
464.208	2.7
464.564	2.73
464.919	2.7
465.275	2.41
465.631	2.42
465.986	2.63
466.342	2.54
466.697	2.42
467.052	2.43
467.408	2.52
467.763	2.48
468.118	2.5
468.473	2.57
468.829	2.68
469.184	2.66
469.539	2.46
469.894	2.36
470.249	2.29
470.603	2.58
470.958	2.62
471.313	2.65
471.668	2.43
472.023	2.55
472.377	2.4
472.732	2.57
473.086	2.58
473.441	2.48
473.795	2.58
474.15	2.36
474.504	2.58
474.859	2.63
475.213	2.65
475.567	2.54
475.921	2.44
476.275	2.59
476.63	2.59
476.984	2.61
477.338	2.65
477.692	2.72
478.045	2.66
478.399	2.65
478.753	2.59
479.107	2.43
479.461	2.5
479.814	2.52
480.168	2.5
480.521	2.4
480.875	2.6
481.228	2.58
481.582	2.41
481.935	2.58
482.289	2.54
482.642	2.48
482.995	2.51
483.348	2.4
483.701	2.45
484.055	2.41
484.408	2.36
484.761	2.29
485.114	2.14
485.466	2.22
485.819	2.33
486.172	2.45
486.525	2.58
486.878	2.59
487.23	2.54
487.583	2.49
487.936	2.39
488.288	2.37
488.641	2.36
488.993	2.36
489.345	2.37
489.698	2.41
490.05	2.55
490.402	2.56
490.754	2.6
491.107	2.58
491.459	2.61
491.811	2.7
492.163	2.49
492.515	2.35
492.866	2.31
493.218	2.35
493.57	2.43
493.922	2.6
494.274	2.72
494.625	2.65
494.977	2.66
495.328	2.63
495.68	2.63
496.031	2.71
496.383	2.58
496.734	2.6
497.086	2.61
497.437	2.6
497.788	2.6
498.139	2.48
498.49	2.5
498.842	2.61
499.193	2.54
499.544	2.59
499.894	2.65
500.245	2.46
500.596	2.59
500.947	2.69
501.298	2.62
501.648	2.56
501.999	2.62
502.35	2.68
502.7	2.69
503.051	2.73
503.401	2.57
503.752	2.56
504.102	2.57
504.452	2.65
504.803	2.68
505.153	2.62
505.503	2.55
505.853	2.57
506.203	2.48
506.553	2.63
506.903	2.57
507.253	2.61
507.603	2.63
507.953	2.68
508.303	2.95
508.652	2.54
509.002	2.61
509.352	2.6
509.701	2.42
510.051	2.61
510.4	2.48
510.75	2.57
511.099	2.55
511.449	2.63
511.798	2.75
512.147	2.61
512.496	2.67
512.846	2.45
513.195	2.64
513.544	2.59
513.893	2.54
514.242	2.65
514.591	2.65
514.939	2.65
515.288	2.8
515.637	2.63
515.986	2.67
516.334	2.63
516.683	2.64
517.032	2.63
517.38	2.57
517.729	2.72
518.077	2.69
518.426	2.6
518.774	2.69
519.122	2.54
519.47	2.6
519.819	2.51
520.167	2.58
520.515	2.62
520.863	2.58
521.211	2.62
521.559	2.77
521.907	2.6
522.255	2.65
522.602	2.7
522.95	2.48
523.298	2.63
523.645	2.65
523.993	2.7
524.341	2.73
524.688	2.63
525.036	2.77
525.383	2.65
525.73	2.62
526.078	2.73
526.425	2.52
526.772	2.47
527.119	2.46
527.466	2.59
527.814	2.6
528.161	2.7
528.508	2.61
528.854	2.65
529.201	2.52
529.548	2.43
529.895	2.34
530.242	2.42
530.588	2.52
530.935	2.57
531.282	2.69
531.628	2.55
531.975	2.66
532.321	2.67
532.667	2.6
533.014	2.65
533.36	2.58
533.706	2.66
534.052	2.46
534.399	2.51
534.745	2.44
535.091	2.48
535.437	2.6
535.783	2.69
536.129	2.75
536.474	2.7
536.82	2.71
537.166	2.81
537.512	2.62
537.857	2.67
538.203	2.63
538.549	2.6
538.894	2.71
539.239	2.73
539.585	2.71
539.93	2.69
540.276	2.77
540.621	2.69
540.966	2.71
541.311	2.62
541.656	2.67
542.001	2.54
542.346	2.48
542.691	2.46
543.036	2.51
543.381	2.57
543.726	2.67
544.071	2.69
544.415	2.61
544.76	2.67
545.105	2.68
545.449	2.68
545.794	2.82
546.138	2.82
546.483	2.74
546.827	2.64
547.171	2.68
547.516	2.64
547.86	2.66
548.204	2.6
548.548	2.58
548.892	2.65
549.236	2.67
549.58	2.66
549.924	2.79
550.268	2.83
550.612	2.81
550.956	2.73
551.3	2.79
551.643	2.75
551.987	2.92
552.33	3.09
552.674	2.75
553.017	2.7
553.361	2.9
553.704	2.92
554.048	2.61
554.391	2.91
554.734	2.74
555.077	2.77
555.42	2.66
555.764	2.81
556.107	2.86
556.45	2.82
556.793	2.89
557.135	2.57
557.478	2.91
557.821	2.65
558.164	2.61
558.507	2.84
558.849	2.83
559.192	2.85
559.534	3.19
559.877	2.7
560.219	2.82
560.562	2.93
560.904	2.97
561.246	2.68
561.589	2.78
561.931	2.89
562.273	2.84
562.615	2.9
562.957	2.92
563.299	2.87
563.641	2.83
563.983	2.91
564.325	2.79
564.667	2.83
565.008	2.8
565.35	2.92
565.692	2.61
566.033	2.75
566.375	2.77
566.716	2.69
567.058	2.72
567.399	2.92
567.741	2.85
568.082	2.7
568.423	2.69
568.764	2.85
569.105	2.91
569.447	2.97
569.788	2.8
570.129	2.85
570.47	2.88
570.811	2.8
571.151	2.87
571.492	2.92
571.833	2.96
572.174	2.71
572.514	2.77
572.855	2.91
573.195	2.74
573.536	2.79
573.876	2.83
574.217	2.67
574.557	2.88
574.898	3.01
575.238	3.01
575.578	2.92
575.918	2.87
576.258	2.77
576.598	2.8
576.938	2.68
577.278	2.81
577.618	2.79
577.958	3.06
578.298	2.99
578.638	2.77
578.977	2.63
579.317	2.82
579.657	2.84
579.996	2.95
580.336	2.79
580.675	2.6
581.014	3.16
581.354	3.09
581.693	2.92
582.032	2.9
582.372	2.92
582.711	2.97
583.05	3.1
583.389	3.02
583.728	2.98
584.067	2.85
584.406	2.7
584.745	2.87
585.083	2.98
585.422	2.99
585.761	3.01
586.1	2.82
586.438	2.91
586.777	3.07
587.115	3.17
587.454	3.1
587.792	2.78
588.13	2.88
588.469	3.06
588.807	2.85
589.145	3.02
589.483	2.79
589.821	2.82
590.159	2.92
590.497	2.82
590.835	2.95
591.173	3.12
591.511	3.01
591.849	2.87
592.187	2.72
592.524	3.05
592.862	2.92
593.2	3.04
593.537	3.35
593.875	2.62
594.212	3.15
594.55	3.16
594.887	3.25
595.224	2.89
595.561	3.19
595.899	3.05
596.236	3.11
596.573	2.82
596.91	3.11
597.247	3.08
597.584	3.14
597.921	3.02
598.258	2.95
598.594	2.94
598.931	3.11
599.268	2.92
599.604	3.04
599.941	3.17
600.277	2.91
600.614	2.92
600.95	3.01
601.287	2.93
601.623	2.98
601.959	3.04
602.296	2.91
602.632	2.94
602.968	3.13
603.304	2.94
603.64	2.9
603.976	2.97
604.312	2.97
604.648	2.87
604.984	2.96
605.319	3.05
605.655	2.84
605.991	2.81
606.326	3.02
606.662	2.94
606.998	3.06
607.333	2.96
607.668	3.06
608.004	3.28
608.339	3.04
608.674	3.01
609.01	3.28
609.345	3.06
609.68	3.27
610.015	3.21
610.35	3.17
610.685	2.8
611.02	3.01
611.355	2.84
611.689	3.11
612.024	3.05
612.359	3.06
612.694	2.99
613.028	3.12
613.363	2.77
613.697	3.27
614.032	3.16
614.366	3.21
614.7	3.15
615.035	3.05
615.369	3.19
615.703	2.89
616.037	3.08
616.371	3.38
616.705	3.2
617.039	3.18
617.373	3.33
617.707	3.14
618.041	3.31
618.375	3
618.709	3.35
619.042	2.83
619.376	2.91
619.71	3.08
620.043	2.94
620.377	3.29
620.71	3.27
621.043	3.45
621.377	3.16
621.71	3.69
622.043	3.07
622.376	2.98
622.709	3.39
623.043	3.61
623.376	3.17
623.709	2.99
624.041	3.3
624.374	3.56
624.707	3.2
625.04	3.24
625.373	3.44
625.705	3.29
626.038	3.19
626.37	3.15
626.703	2.8
627.035	3.23
627.368	2.81
627.7	3.28
628.032	3.23
628.365	2.97
628.697	2.75
629.029	3.26
629.361	3.29
629.693	3.03
630.025	3.19
630.357	2.99
630.689	3.4
631.021	3.05
631.353	3.01
631.684	3.38
632.016	3
632.348	3.48
632.679	3.45
633.011	2.87
633.342	3.18
633.674	3.24
634.005	3.33
634.336	3.48
634.668	3.54
634.999	3.14
635.33	3.09
635.661	3.38
635.992	3.17
636.323	3.6
636.654	2.94
636.985	3.44
637.316	3.13
637.647	3.02
637.977	3.52
638.308	3.03
638.639	2.83
638.969	2.97
639.3	3.34
639.63	3.69
639.961	3.84
640.291	3.33
640.622	3.18
640.952	3.62
641.282	3.34
641.612	3.51
641.943	3.43
642.273	3.67
642.603	3.16
642.933	3.29
643.263	2.9
643.592	3.38
643.922	3.29
644.252	3.63
644.582	3.58
644.911	3.1
645.241	4
645.571	3.5
645.9	3.04
646.23	3.18
646.559	3.32
646.888	3.27
647.218	3.74
647.547	3.99
647.876	3.44
648.205	3.74
648.534	3.35
648.863	3.02
649.192	3.5
649.521	3.77
649.85	3.67
650.179	3.3
650.508	3.44
650.837	3.66
651.165	2.78
651.494	3.43
651.822	3.46
652.151	3.23
652.479	3.54
652.808	3.66
653.136	3.82
653.465	3.24
653.793	3.1
654.121	3.17
654.449	3.6
654.777	3.07
655.105	3.38
655.433	3.28
655.761	3.28
656.089	3.73
656.417	2.79
656.745	3.31
657.073	3.53
657.4	3.5
657.728	3.73
658.056	3.26
658.383	3.45
658.711	3.7
659.038	3.52
659.365	3.45
659.693	3.21
660.02	3.25
660.347	3.68
660.674	3.21
661.001	3.57
661.329	3.56
661.656	3.47
661.982	3.1
662.309	3.7
662.636	3.03
662.963	3.38
663.29	3.47
663.616	3.49
663.943	3.56
664.27	3.77
664.596	3.33
664.923	3.56
665.249	3.71
665.576	3.56
665.902	4.06
666.228	4.09
666.554	3.6
666.881	3.44
667.207	3.82
667.533	3.73
667.859	3.34
668.185	3.98
668.511	3.58
668.837	3.8
669.162	3.83
669.488	3.33
669.814	3.92
670.139	3.41
670.465	3.25
670.791	3.45
671.116	3.88
671.442	3.86
671.767	3.95
672.092	4.11
672.418	2.95
672.743	3.91
673.068	4.04
673.393	3.87
673.718	3.5
674.043	3.43
674.368	4.14
674.693	3.18
675.018	3.89
675.343	3.26
675.667	3.75
675.992	4.22
676.317	3.68
676.641	2.75
676.966	4.13
677.29	3.89
677.615	3.66
677.939	4.27
678.264	3.52
678.588	4.22
678.912	3.19
679.236	4.47
679.56	3.25
679.885	3.15
680.209	4.41
680.532	3.53
680.856	3.75
681.18	3.38
681.504	3.08
681.828	3.93
682.152	3.76
682.475	3.28
682.799	3.26
683.122	3.93
683.446	4.09
683.769	4.27
684.093	4.22
684.416	4.1
684.739	3.8
685.062	4.14
685.386	4.13
685.709	4.03
686.032	4.3
686.355	4.37
686.678	3.71
687.001	3.81
687.324	4.06
687.646	4.39
687.969	4.25
688.292	4
688.614	3.99
688.937	2.92
689.26	3.07
689.582	3.59
689.904	4
690.227	3.78
690.549	3.64
690.871	3.68
691.194	3.76
691.516	4.39
691.838	4.52
692.16	4.34
692.482	4.35
692.804	4.42
