Data from 0019_forehead_Reflection__0__10.txt Node

Date: Thu Oct 20 20:24:46 CDT 2022
User: ToomeyLab
Spectrometer: FLMS14357
Trigger mode: 0
Integration Time (sec): 1.000000E-2
Scans to average: 100
Electric dark correction enabled: true
Nonlinearity correction enabled: false
Boxcar width: 0
XAxis mode: Wavelengths
Number of Pixels in Spectrum: 2048
>>>>>Begin Spectral Data<<<<<
189.047	70.68
189.435	70.68
189.823	70.68
190.211	-2878.16
190.599	87.61
190.987	135.85
191.375	31.5
191.763	-44.33
192.151	122.46
192.538	-7.07
192.926	168.6
193.314	207.71
193.702	217.12
194.089	48.28
194.477	911.23
194.864	6.62
195.252	1216.81
195.639	-81.21
196.027	113
196.414	29.67
196.801	19.33
197.189	202.43
197.576	-54.25
197.963	12.39
198.351	27.25
198.738	23.15
199.125	33.41
199.512	0.84
199.899	20.72
200.286	43.44
200.673	33.41
201.06	61.49
201.447	48.33
201.833	52.46
202.22	33.86
202.607	37.99
202.994	28.8
203.38	27.7
203.767	11.75
204.154	21.49
204.54	18.43
204.927	27.15
205.313	21.4
205.699	57.2
206.086	42.71
206.472	23.18
206.858	24.7
207.245	32.73
207.631	30.14
208.017	46.47
208.403	23.67
208.789	26.57
209.175	44.46
209.561	34.26
209.947	21.54
210.333	49.6
210.719	14.93
211.105	35.24
211.491	17.64
211.876	48.36
212.262	5.93
212.648	42.69
213.034	46.91
213.419	45.89
213.805	13.8
214.19	43.69
214.576	41.29
214.961	27.91
215.346	1.41
215.732	22.72
216.117	43.98
216.502	20.66
216.888	36.94
217.273	16.35
217.658	52.42
218.043	8.61
218.428	37.71
218.813	7.07
219.198	18.68
219.583	49.71
219.968	25.36
220.353	9.7
220.738	11.98
221.122	40.45
221.507	18.74
221.892	26.07
222.276	16.11
222.661	14.15
223.046	8.89
223.43	16.34
223.815	8.57
224.199	15.53
224.583	9.21
224.968	10.76
225.352	16.58
225.736	7.92
226.121	13.25
226.505	9.53
226.889	8.14
227.273	10.08
227.657	13.11
228.041	11.8
228.425	7.41
228.809	4.83
229.193	5.89
229.577	4.84
229.961	4.08
230.344	4.96
230.728	5.48
231.112	4.83
231.495	4.54
231.879	6.07
232.263	4.7
232.646	5.13
233.03	3.9
233.413	5.12
233.797	3.99
234.18	6.16
234.563	5.09
234.946	4.99
235.33	4.89
235.713	7.99
236.096	5.8
236.479	4.95
236.862	6.82
237.245	7.78
237.628	5.29
238.011	3.89
238.394	5.93
238.777	4.99
239.16	5.56
239.543	6.74
239.925	4.11
240.308	6.1
240.691	4.03
241.073	4.43
241.456	5.38
241.838	5.21
242.221	5.33
242.603	5.74
242.986	4.95
243.368	4.38
243.75	4.96
244.133	4.59
244.515	5
244.897	5.56
245.279	5.71
245.661	5.97
246.043	5.14
246.425	6.67
246.807	5.55
247.189	5.41
247.571	4.37
247.953	4.67
248.335	4.74
248.717	4.73
249.098	4.91
249.48	4.71
249.862	4.93
250.243	5.06
250.625	5.45
251.006	5.36
251.388	6.16
251.769	5.47
252.151	6.21
252.532	5.74
252.913	4.99
253.295	4.8
253.676	5.21
254.057	6.29
254.438	5.87
254.819	6.55
255.2	5.96
255.581	6.24
255.962	5.24
256.343	6.6
256.724	5.99
257.105	4.5
257.486	5.94
257.867	5.28
258.247	5.4
258.628	4.84
259.009	4.74
259.389	4.91
259.77	5.44
260.15	5.13
260.531	5.17
260.911	4.49
261.292	4.54
261.672	4.86
262.052	5.04
262.432	5.23
262.813	5.54
263.193	5.56
263.573	4.76
263.953	4.32
264.333	5.4
264.713	5.71
265.093	6.14
265.473	6.17
265.853	5.74
266.233	5.17
266.612	4.76
266.992	5.32
267.372	5.16
267.752	4.76
268.131	4.72
268.511	4.98
268.89	5.26
269.27	5.32
269.649	5.3
270.029	5.48
270.408	4.9
270.787	4.92
271.167	5.54
271.546	4.68
271.925	5.06
272.304	5.3
272.683	4.82
273.062	5.18
273.441	5.44
273.82	4.88
274.199	4.96
274.578	5.28
274.957	5.35
275.336	5.31
275.715	5.36
276.093	5.34
276.472	5.38
276.851	5.52
277.229	4.85
277.608	5.39
277.986	4.69
278.365	4.42
278.743	5.15
279.122	5.53
279.5	4.56
279.878	4.79
280.257	4.32
280.635	5.14
281.013	5.3
281.391	5.39
281.769	4.79
282.147	5.27
282.525	4.89
282.903	4.98
283.281	5.44
283.659	4.53
284.037	4.66
284.415	5.04
284.792	4.76
285.17	5.26
285.548	4.74
285.925	5.01
286.303	5.03
286.68	5
287.058	5.13
287.435	4.84
287.813	4.66
288.19	5.55
288.567	4.89
288.945	5.64
289.322	4.81
289.699	5.54
290.076	5.17
290.453	5.32
290.83	5.07
291.207	5.26
291.584	4.6
291.961	5.38
292.338	4.97
292.715	5.24
293.092	6.21
293.469	6
293.845	5.9
294.222	5.58
294.599	6.08
294.975	5.86
295.352	6.06
295.728	5.89
296.105	5.91
296.481	6.09
296.858	6.35
297.234	5.99
297.61	5.82
297.986	5.91
298.363	5.93
298.739	6.06
299.115	6.39
299.491	6.45
299.867	6.45
300.243	6.46
300.619	6.51
300.995	6.36
301.371	6.29
301.746	6.95
302.122	6.26
302.498	7.54
302.874	6.9
303.249	6.91
303.625	6.57
304	6.81
304.376	6.79
304.751	6.92
305.127	6.1
305.502	7.3
305.878	7.16
306.253	7.21
306.628	7.42
307.003	7.5
307.378	7.86
307.754	7.87
308.129	7.62
308.504	7.97
308.879	7.81
309.254	7.76
309.629	8.24
310.003	7.57
310.378	7.98
310.753	7.78
311.128	7.49
311.502	8.21
311.877	8.22
312.252	7.96
312.626	8.1
313.001	8.42
313.375	8.8
313.75	8.84
314.124	8.72
314.498	8.73
314.873	9.36
315.247	9.22
315.621	9.71
315.995	9
316.369	9.3
316.743	9.35
317.117	9.19
317.491	9.01
317.865	9.56
318.239	9.64
318.613	10.07
318.987	9.74
319.361	9.71
319.734	10.34
320.108	9.76
320.482	9.71
320.855	10.03
321.229	10.6
321.602	10.73
321.976	10.77
322.349	10.4
322.723	10.79
323.096	10.39
323.469	10.77
323.843	10.96
324.216	11.09
324.589	11.06
324.962	11.1
325.335	10.42
325.708	11.45
326.081	11.06
326.454	11.77
326.827	11.84
327.2	11.44
327.573	11.38
327.945	11.39
328.318	11.44
328.691	11.76
329.063	11.82
329.436	11.41
329.809	11.98
330.181	12.07
330.553	11.88
330.926	11.6
331.298	11.89
331.671	12.88
332.043	12.89
332.415	12.72
332.787	12.55
333.159	12.78
333.532	13.29
333.904	12.39
334.276	12.93
334.648	12.7
335.02	13.07
335.391	12.83
335.763	12.63
336.135	12.75
336.507	13.25
336.879	13.19
337.25	12.91
337.622	13.51
337.993	13.55
338.365	13.51
338.736	13.27
339.108	13.4
339.479	14.07
339.851	14.17
340.222	13.6
340.593	13.57
340.964	13.85
341.336	13.74
341.707	13.92
342.078	14.02
342.449	14.08
342.82	13.96
343.191	13.93
343.562	14.46
343.933	14.7
344.303	14.79
344.674	14.15
345.045	14.39
345.416	14.55
345.786	14.97
346.157	14.21
346.527	14.56
346.898	14.23
347.268	14.86
347.639	14.64
348.009	15.41
348.38	15.11
348.75	15.03
349.12	14.98
349.49	15.5
349.861	15.92
350.231	15.07
350.601	15.36
350.971	15.59
351.341	15.93
351.711	15.93
352.081	15.92
352.45	15.76
352.82	15.56
353.19	16.21
353.56	15.62
353.929	15.86
354.299	15.98
354.669	16.52
355.038	15.79
355.408	16.23
355.777	16.32
356.147	16.34
356.516	16.71
356.885	16.22
357.254	16.3
357.624	16.33
357.993	16.49
358.362	16.37
358.731	16.83
359.1	16.87
359.469	16.71
359.838	16.92
360.207	17.18
360.576	17.03
360.945	16.59
361.314	17.35
361.682	16.81
362.051	17.37
362.42	16.92
362.788	16.89
363.157	17.29
363.525	17.14
363.894	17.25
364.262	17.63
364.631	17.97
364.999	17.95
365.367	17.52
365.735	18.03
366.104	18.16
366.472	18.13
366.84	17.94
367.208	18.18
367.576	18.2
367.944	18.16
368.312	18.31
368.68	18.44
369.048	18.12
369.416	18.67
369.783	18.79
370.151	18.44
370.519	18.77
370.886	18.87
371.254	19.05
371.621	18.93
371.989	18.41
372.356	18.63
372.724	19.25
373.091	19.14
373.458	19.24
373.826	19.19
374.193	19.54
374.56	19.72
374.927	19.25
375.294	19.59
375.661	19.85
376.028	19.55
376.395	19.67
376.762	19.37
377.129	19.81
377.496	19.72
377.863	20.02
378.229	19.91
378.596	19.86
378.963	20.04
379.329	20.15
379.696	20.38
380.062	20.68
380.429	20.39
380.795	20.42
381.161	20.61
381.528	20.59
381.894	20.69
382.26	20.74
382.626	20.61
382.993	20.88
383.359	20.62
383.725	21.16
384.091	20.53
384.457	20.94
384.823	21.22
385.188	21.32
385.554	21.5
385.92	20.97
386.286	21.52
386.651	21.17
387.017	21.57
387.383	21.78
387.748	21.66
388.114	21.87
388.479	21.72
388.845	21.91
389.21	21.5
389.575	21.94
389.94	22.2
390.306	21.89
390.671	21.9
391.036	22.39
391.401	21.99
391.766	22.34
392.131	22.41
392.496	22.25
392.861	22.36
393.226	22.32
393.591	22.6
393.956	22.6
394.32	22.6
394.685	22.91
395.05	22.62
395.414	22.8
395.779	22.78
396.143	23.07
396.508	23.09
396.872	23.3
397.236	23.43
397.601	23.4
397.965	23.65
398.329	23.4
398.694	23.54
399.058	23.66
399.422	23.64
399.786	23.66
400.15	23.53
400.514	23.65
400.878	23.74
401.242	24.08
401.605	24.08
401.969	24.22
402.333	24.03
402.697	24.23
403.06	23.98
403.424	24.44
403.787	24.08
404.151	24.52
404.514	24.08
404.878	24.22
405.241	24.21
405.604	24.56
405.968	24.59
406.331	24.58
406.694	24.7
407.057	24.64
407.42	25.03
407.783	24.85
408.146	25.33
408.509	25.33
408.872	25.45
409.235	25.08
409.598	25.27
409.961	25.47
410.323	25.53
410.686	25.65
411.049	25.2
411.411	25.83
411.774	25.51
412.136	25.57
412.499	25.83
412.861	25.97
413.223	26.05
413.586	26.02
413.948	26.05
414.31	26.01
414.672	26.3
415.035	26.48
415.397	26.15
415.759	26.26
416.121	26.33
416.483	26.26
416.845	26.33
417.206	26.44
417.568	26.13
417.93	26.22
418.292	26.37
418.653	26.21
419.015	26.19
419.377	26.23
419.738	26.21
420.1	26.11
420.461	26.33
420.822	26.5
421.184	26.66
421.545	26.48
421.906	26.35
422.267	26.25
422.629	26.58
422.99	26.45
423.351	26.68
423.712	26.81
424.073	27.11
424.434	27.04
424.795	26.87
425.155	26.95
425.516	26.69
425.877	26.92
426.238	27.14
426.598	27.21
426.959	27.54
427.32	27.79
427.68	27.93
428.041	28.2
428.401	28.34
428.761	28.49
429.122	28.77
429.482	28.48
429.842	28.57
430.202	28.48
430.563	28.67
430.923	28.58
431.283	28.8
431.643	28.47
432.003	28.97
432.363	28.8
432.722	28.84
433.082	28.79
433.442	28.87
433.802	28.49
434.161	28.59
434.521	28.55
434.881	28.65
435.24	28.84
435.6	29.07
435.959	28.97
436.319	29.41
436.678	29.65
437.037	29.72
437.396	29.66
437.756	29.65
438.115	29.56
438.474	29.82
438.833	29.54
439.192	29.58
439.551	29.38
439.91	29.57
440.269	29.6
440.628	29.58
440.987	29.62
441.345	29.77
441.704	29.58
442.063	29.59
442.421	29.95
442.78	30.13
443.138	30.31
443.497	30.41
443.855	30.8
444.214	30.77
444.572	30.72
444.93	30.76
445.288	30.7
445.647	30.54
446.005	30.37
446.363	30.12
446.721	30.45
447.079	30.08
447.437	30.12
447.795	30.05
448.153	30.17
448.51	30.38
448.868	30.73
449.226	30.94
449.584	31.29
449.941	31.42
450.299	31.41
450.656	31.64
451.014	31.68
451.371	32.02
451.729	31.83
452.086	32.16
452.443	31.99
452.801	31.91
453.158	31.72
453.515	31.65
453.872	31.83
454.229	32.1
454.586	32.16
454.943	32.32
455.3	32.2
455.657	32.01
456.014	32.39
456.371	32.29
456.727	32.49
457.084	32.62
457.441	32.65
457.797	32.8
458.154	32.73
458.51	32.82
458.867	32.83
459.223	32.52
459.58	32.81
459.936	32.53
460.292	32.38
460.648	32.08
461.005	31.87
461.361	31.94
461.717	32.57
462.073	32.95
462.429	33.24
462.785	33.16
463.141	33.63
463.496	33.61
463.852	33.9
464.208	33.86
464.564	33.68
464.919	33.89
465.275	33.65
465.631	33.87
465.986	33.92
466.342	33.83
466.697	33.98
467.052	34.17
467.408	33.98
467.763	33.86
468.118	34.07
468.473	33.95
468.829	33.89
469.184	34.15
469.539	34.02
469.894	34.52
470.249	34.55
470.603	34.56
470.958	34.39
471.313	34.68
471.668	34.59
472.023	34.83
472.377	34.65
472.732	34.9
473.086	34.69
473.441	34.83
473.795	34.93
474.15	34.8
474.504	34.93
474.859	34.96
475.213	35.07
475.567	35.4
475.921	35.34
476.275	35.51
476.63	35.43
476.984	35.43
477.338	35.34
477.692	35.3
478.045	35.14
478.399	35.65
478.753	35.62
479.107	35.52
479.461	35.51
479.814	35.54
480.168	35.82
480.521	35.98
480.875	35.95
481.228	36.1
481.582	35.88
481.935	35.82
482.289	36.05
482.642	35.82
482.995	35.68
483.348	35.79
483.701	35.55
484.055	35.43
484.408	34.97
484.761	34.15
485.114	34.02
485.466	34.51
485.819	35.04
486.172	35.8
486.525	36.09
486.878	36.27
487.23	36.29
487.583	36.25
487.936	35.84
488.288	35.31
488.641	35.26
488.993	35.27
489.345	35.54
489.698	35.8
490.05	36.32
490.402	36.69
490.754	36.98
491.107	37.19
491.459	37.16
491.811	37.26
492.163	36.64
492.515	36.23
492.866	35.76
493.218	36.12
493.57	36.72
493.922	37.2
494.274	37.58
494.625	37.96
494.977	38.01
495.328	38.23
495.68	38.25
496.031	38.27
496.383	38.45
496.734	38.55
497.086	38.3
497.437	38.07
497.788	37.93
498.139	37.79
498.49	37.8
498.842	38.03
499.193	38.23
499.544	38.23
499.894	38.51
500.245	38.63
500.596	38.54
500.947	38.9
501.298	38.9
501.648	39.07
501.999	39
502.35	39.08
502.7	39.3
503.051	39.29
503.401	39.56
503.752	39.4
504.102	39.42
504.452	39.64
504.803	39.4
505.153	39.4
505.503	39.5
505.853	39.33
506.203	39.54
506.553	39.57
506.903	39.82
507.253	39.72
507.603	39.9
507.953	39.84
508.303	39.89
508.652	39.77
509.002	39.87
509.352	39.55
509.701	39.56
510.051	39.66
510.4	39.64
510.75	39.62
511.099	40.01
511.449	40.16
511.798	40.25
512.147	40.34
512.496	40.29
512.846	40.29
513.195	40.28
513.544	40.44
513.893	40.23
514.242	40.54
514.591	40.81
514.939	40.87
515.288	41.08
515.637	40.93
515.986	41.13
516.334	41.22
516.683	41.31
517.032	41.35
517.38	41.45
517.729	41.56
518.077	41.42
518.426	41.15
518.774	41.08
519.122	41.03
519.47	40.82
519.819	40.62
520.167	40.81
520.515	40.96
520.863	41.2
521.211	41.37
521.559	41.58
521.907	41.68
522.255	41.91
522.602	42.05
522.95	42.32
523.298	42.32
523.645	42.21
523.993	42.71
524.341	42.43
524.688	42.46
525.036	42.48
525.383	42.45
525.73	42.66
526.078	42.26
526.425	41.77
526.772	41.81
527.119	41.47
527.466	41.89
527.814	42.32
528.161	42.4
528.508	42.5
528.854	42.2
529.201	41.8
529.548	40.95
529.895	40.67
530.242	41.38
530.588	41.9
530.935	42.18
531.282	42.41
531.628	42.54
531.975	42.87
532.321	43.04
532.667	43.15
533.014	43.1
533.36	43.02
533.706	42.89
534.052	42.54
534.399	41.94
534.745	41.81
535.091	42.41
535.437	43
535.783	43.45
536.129	43.86
536.474	43.76
536.82	43.93
537.166	43.83
537.512	43.64
537.857	43.34
538.203	43.34
538.549	43.63
538.894	44.05
539.239	44.22
539.585	44.21
539.93	44.53
540.276	44.61
540.621	44.83
540.966	44.57
541.311	44.69
541.656	44.32
542.001	43.73
542.346	43.06
542.691	42.8
543.036	43.33
543.381	43.83
543.726	44.33
544.071	44.41
544.415	44.61
544.76	44.57
545.105	44.93
545.449	45.22
545.794	45.2
546.138	45.14
546.483	45.44
546.827	45.17
547.171	45.17
547.516	45.36
547.86	45
548.204	44.9
548.548	45.2
548.892	45.76
549.236	45.9
549.58	46.01
549.924	46.26
550.268	46.54
550.612	46.49
550.956	46.75
551.3	46.44
551.643	46.83
551.987	46.86
552.33	46.82
552.674	46.75
553.017	46.45
553.361	46.6
553.704	46.55
554.048	46.26
554.391	46.51
554.734	46.55
555.077	46.86
555.42	46.71
555.764	47.09
556.107	47.12
556.45	46.99
556.793	47.44
557.135	47.49
557.478	47.46
557.821	47.51
558.164	47.51
558.507	47.67
558.849	47.44
559.192	47.61
559.534	47.99
559.877	48.07
560.219	47.87
560.562	47.88
560.904	47.75
561.246	47.84
561.589	48.35
561.931	48.15
562.273	47.96
562.615	47.89
562.957	48.25
563.299	48.18
563.641	48.27
563.983	48.59
564.325	48.6
564.667	48.43
565.008	48.51
565.35	48.46
565.692	48.32
566.033	48.54
566.375	48.18
566.716	48.25
567.058	48.22
567.399	48.31
567.741	48.28
568.082	48.37
568.423	48.82
568.764	48.8
569.105	49.18
569.447	49.23
569.788	49.35
570.129	49.21
570.47	49.08
570.811	49.37
571.151	49.48
571.492	49.22
571.833	49.3
572.174	49.48
572.514	49.29
572.855	48.76
573.195	48.93
573.536	49.18
573.876	49.23
574.217	49.25
574.557	49.61
574.898	49.74
575.238	49.79
575.578	49.99
575.918	49.58
576.258	49.94
576.598	49.65
576.938	49.84
577.278	49.78
577.618	50.08
577.958	50.63
578.298	50.42
578.638	50.1
578.977	50.62
579.317	50.25
579.657	50.94
579.996	50.72
580.336	50.69
580.675	50.69
581.014	51.1
581.354	50.92
581.693	51.23
582.032	51.38
582.372	51.24
582.711	51.16
583.05	51.01
583.389	50.99
583.728	51.26
584.067	51.18
584.406	51.46
584.745	51.41
585.083	51.63
585.422	51.39
585.761	51.51
586.1	51.51
586.438	51.62
586.777	51.84
587.115	51.87
587.454	52.01
587.792	51.57
588.13	52.17
588.469	51.59
588.807	52.04
589.145	52.08
589.483	52.02
589.821	51.94
590.159	52.09
590.497	52.46
590.835	52.19
591.173	51.85
591.511	52.18
591.849	52.31
592.187	52.27
592.524	52.38
592.862	52.42
593.2	52.38
593.537	52.9
593.875	52.8
594.212	52.91
594.55	53.14
594.887	52.6
595.224	52.65
595.561	52.53
595.899	52.39
596.236	53.22
596.573	53
596.91	52.91
597.247	53.24
597.584	53.03
597.921	52.72
598.258	52.63
598.594	52.21
598.931	53.16
599.268	53.03
599.604	53.04
599.941	53.59
600.277	53.64
600.614	54
600.95	53.8
601.287	53.84
601.623	54.18
601.959	53.91
602.296	53.81
602.632	54.05
602.968	53.8
603.304	54.33
603.64	53.8
603.976	53.95
604.312	53.83
604.648	53.1
604.984	53.5
605.319	53.71
605.655	53.56
605.991	53.14
606.326	53.61
606.662	53.57
606.998	54.24
607.333	54.5
607.668	54.78
608.004	55.06
608.339	54.66
608.674	54.92
609.01	54.93
609.345	54.99
609.68	55.19
610.015	54.69
610.35	54.07
610.685	53.91
611.02	53.7
611.355	54.56
611.689	54.65
612.024	54.97
612.359	55.35
612.694	55.42
613.028	55.19
613.363	55.21
613.697	55.74
614.032	56.22
614.366	55.76
614.7	56
615.035	55.92
615.369	55.58
615.703	56.33
616.037	56.13
616.371	56.18
616.705	55.89
617.039	56.11
617.373	55.84
617.707	56.38
618.041	56.08
618.375	55.73
618.709	56.31
619.042	56.14
619.376	55.94
619.71	56.26
620.043	56.11
620.377	56.12
620.71	55.94
621.043	56.57
621.377	56.92
621.71	56.54
622.043	56.51
622.376	56.84
622.709	56.98
623.043	56.7
623.376	56.44
623.709	57.17
624.041	57.18
624.374	56.93
624.707	56.51
625.04	57.35
625.373	57.56
625.705	57.3
626.038	57.53
626.37	57.14
626.703	57.26
627.035	57
627.368	57.02
627.7	56.82
628.032	57.16
628.365	56.57
628.697	56.74
629.029	57.08
629.361	57.54
629.693	57.71
630.025	57.87
630.357	57.47
630.689	58
631.021	57.65
631.353	57.37
631.684	57.86
632.016	57.85
632.348	57.98
632.679	57.84
633.011	57.91
633.342	58.53
633.674	57.51
634.005	58.63
634.336	58.31
634.668	57.84
634.999	57.43
635.33	57.47
635.661	57.86
635.992	58.34
636.323	58.49
636.654	57.71
636.985	58.72
637.316	58.18
637.647	58.54
637.977	59.01
638.308	58.23
638.639	58.54
638.969	58.88
639.3	58.59
639.63	58.76
639.961	59.32
640.291	59.21
640.622	59.36
640.952	59.61
641.282	59.34
641.612	59.36
641.943	59.33
642.273	59.84
642.603	59.44
642.933	59.59
643.263	59.54
643.592	59.62
643.922	59.14
644.252	59.93
644.582	59.76
644.911	59.69
645.241	59.57
645.571	60.15
645.9	59.57
646.23	59.73
646.559	59.66
646.888	59.34
647.218	59.75
647.547	59.65
647.876	60.03
648.205	60.11
648.534	59.86
648.863	59.98
649.192	59.91
649.521	60.28
649.85	60.39
650.179	60.08
650.508	59.71
650.837	60.24
651.165	60.18
651.494	60.19
651.822	60.47
652.151	59.74
652.479	60.54
652.808	60.72
653.136	61.16
653.465	60.24
653.793	60.13
654.121	60.97
654.449	60.75
654.777	60.68
655.105	60.82
655.433	61.39
655.761	61.44
656.089	60.83
656.417	61.13
656.745	61.53
657.073	60.48
657.4	61.55
657.728	61.91
658.056	61.07
658.383	61.1
658.711	61.05
659.038	61.19
659.365	61.8
659.693	61.58
660.02	61.38
660.347	60.72
660.674	60.55
661.001	61.34
661.329	61.6
661.656	61.07
661.982	61.37
662.309	62.43
662.636	61.89
662.963	62.31
663.29	62.27
663.616	62.37
663.943	62
664.27	62.41
664.596	62.59
664.923	62.14
665.249	61.85
665.576	62.74
665.902	62.21
666.228	62.57
666.554	61.55
666.881	61.77
667.207	62.54
667.533	62.29
667.859	62.3
668.185	61.49
668.511	62.24
668.837	62.91
669.162	62.35
669.488	61.95
669.814	61.79
