Data from 21-3_forehead_Reflection__0__115.txt Node

Date: Thu Dec 15 17:23:15 CST 2022
User: ToomeyLab
Spectrometer: FLMS14357
Trigger mode: 0
Integration Time (sec): 1.000000E-2
Scans to average: 100
Electric dark correction enabled: true
Nonlinearity correction enabled: false
Boxcar width: 0
XAxis mode: Wavelengths
Number of Pixels in Spectrum: 2048
>>>>>Begin Spectral Data<<<<<
189.047	11.09
189.435	11.09
189.823	11.09
190.211	-58.38
190.599	79.52
190.987	172.28
191.375	171.28
191.763	200.15
192.151	534.88
192.538	60
192.926	75.37
193.314	64.74
193.702	7.94
194.089	228.84
194.477	-641.06
194.864	46.12
195.252	74.52
195.639	84.14
196.027	72.17
196.414	-19.83
196.801	29.95
197.189	110.09
197.576	-83.67
197.963	-404.72
198.351	20.26
198.738	-17.12
199.125	-64
199.512	0.67
199.899	-8.66
200.286	-30.89
200.673	48.79
201.06	-8.07
201.447	10.77
201.833	-7.82
202.22	13.52
202.607	21.71
202.994	1.66
203.38	-4.15
203.767	10.1
204.154	44.43
204.54	12.8
204.927	18.16
205.313	39.01
205.699	18.29
206.086	29.42
206.472	-18.28
206.858	8.91
207.245	4.51
207.631	-11.74
208.017	32.26
208.403	-44.23
208.789	4.83
209.175	11.14
209.561	-122.27
209.947	-7.24
210.333	-12.56
210.719	46.51
211.105	9.48
211.491	20.52
211.876	-27.08
212.262	0.11
212.648	22.92
213.034	6.47
213.419	-1.12
213.805	-17.13
214.19	-37.73
214.576	-8.89
214.961	3.52
215.346	-46.69
215.732	-31.61
216.117	-3
216.502	10.72
216.888	18.35
217.273	-2.73
217.658	-24.88
218.043	-10.11
218.428	-52.44
218.813	5.69
219.198	-38.9
219.583	-9.07
219.968	2.32
220.353	-28.88
220.738	-1.44
221.122	-11.82
221.507	-9.71
221.892	-10.35
222.276	-17.6
222.661	-8.73
223.046	-10.22
223.43	4.43
223.815	5.49
224.199	1.55
224.583	-1.04
224.968	-3.21
225.352	-4.76
225.736	9
226.121	-0.48
226.505	-5.52
226.889	-2.12
227.273	-9.38
227.657	0.36
228.041	0.44
228.425	-4.44
228.809	0.96
229.193	2.11
229.577	1.67
229.961	3.1
230.344	2.56
230.728	2.91
231.112	3.48
231.495	1.81
231.879	2.64
232.263	2.39
232.646	2.51
233.03	3.71
233.413	0.79
233.797	0.4
234.18	1.23
234.563	4.35
234.946	0.99
235.33	2.3
235.713	3.11
236.096	3.27
236.479	4.68
236.862	1.13
237.245	2.61
237.628	3.08
238.011	3.28
238.394	2.18
238.777	1.47
239.16	4.56
239.543	3.52
239.925	1.99
240.308	1.14
240.691	2.12
241.073	1.26
241.456	3.09
241.838	3.93
242.221	3.17
242.603	3.91
242.986	3.62
243.368	3.82
243.75	3.74
244.133	3.61
244.515	3.29
244.897	3.68
245.279	3.18
245.661	3.87
246.043	3.2
246.425	3.52
246.807	3.98
247.189	3.24
247.571	3.26
247.953	3.73
248.335	3.73
248.717	3.75
249.098	3.71
249.48	3.65
249.862	4.02
250.243	3.7
250.625	3.56
251.006	4.22
251.388	4.05
251.769	3.23
252.151	3.16
252.532	2.7
252.913	3.83
253.295	3.23
253.676	3.24
254.057	3.85
254.438	3.33
254.819	3.92
255.2	4.44
255.581	4.59
255.962	4
256.343	3.61
256.724	3.58
257.105	4.21
257.486	2.42
257.867	3.38
258.247	3.43
258.628	3.84
259.009	3.31
259.389	3.35
259.77	3.47
260.15	4.21
260.531	3.68
260.911	3.53
261.292	3.68
261.672	3.65
262.052	3.65
262.432	3.25
262.813	3.22
263.193	3.97
263.573	3.19
263.953	3.14
264.333	3.5
264.713	3.85
265.093	3.32
265.473	2.61
265.853	3.86
266.233	4.6
266.612	2.32
266.992	3.29
267.372	3.52
267.752	3.65
268.131	3.48
268.511	3.28
268.89	3.73
269.27	3.09
269.649	3.26
270.029	3.08
270.408	3.31
270.787	3.85
271.167	3.97
271.546	3.53
271.925	3.26
272.304	2.96
272.683	2.73
273.062	3.09
273.441	2.9
273.82	3.66
274.199	3.38
274.578	3.5
274.957	3.29
275.336	3.81
275.715	3.63
276.093	2.69
276.472	3.15
276.851	3.23
277.229	3.08
277.608	3.12
277.986	3.55
278.365	3.39
278.743	3.53
279.122	2.91
279.5	3.26
279.878	2.7
280.257	2.98
280.635	2.86
281.013	3.08
281.391	3.4
281.769	3.47
282.147	3.59
282.525	2.64
282.903	2.89
283.281	2.97
283.659	3.4
284.037	3.31
284.415	3.21
284.792	3.71
285.17	3.47
285.548	2.78
285.925	2.8
286.303	3.6
286.68	3.41
287.058	3.16
287.435	3.12
287.813	3.47
288.19	3.15
288.567	3.51
288.945	3.28
289.322	3.33
289.699	3.76
290.076	3.29
290.453	3.25
290.83	3.8
291.207	3.44
291.584	3.93
291.961	3.55
292.338	3.92
292.715	3.48
293.092	4.1
293.469	3.82
293.845	3.56
294.222	4.2
294.599	3.72
294.975	3.19
295.352	3.82
295.728	4.25
296.105	3.95
296.481	4.02
296.858	4.43
297.234	3.69
297.61	4.11
297.986	4.75
298.363	4.28
298.739	4.26
299.115	4.3
299.491	4.13
299.867	4.07
300.243	3.67
300.619	3.99
300.995	4.65
301.371	4.89
301.746	4.74
302.122	3.86
302.498	4.37
302.874	4.6
303.249	4.3
303.625	4.27
304	4.6
304.376	4.79
304.751	4.85
305.127	4.44
305.502	4.58
305.878	5.03
306.253	4.65
306.628	4.51
307.003	4.74
307.378	4.61
307.754	4.68
308.129	4.9
308.504	5.39
308.879	5.2
309.254	5.42
309.629	4.71
310.003	4.6
310.378	5.49
310.753	5.17
311.128	4.71
311.502	5.31
311.877	4.88
312.252	5.35
312.626	5.69
313.001	5.57
313.375	5.3
313.75	5.28
314.124	5.43
314.498	6.01
314.873	5.58
315.247	5.42
315.621	5.08
315.995	5.52
316.369	5.16
316.743	5.48
317.117	5.28
317.491	5.63
317.865	5.57
318.239	5.75
318.613	5.49
318.987	4.99
319.361	5.49
319.734	5.55
320.108	6.08
320.482	5.6
320.855	5.47
321.229	5.82
321.602	6.11
321.976	5.34
322.349	6.23
322.723	6.28
323.096	5.89
323.469	6.05
323.843	5.64
324.216	5.79
324.589	6.57
324.962	5.93
325.335	5.59
325.708	6.02
326.081	6.45
326.454	6.06
326.827	6.28
327.2	5.57
327.573	6.2
327.945	6.1
328.318	6.28
328.691	5.89
329.063	5.64
329.436	5.51
329.809	6.48
330.181	6.93
330.553	6.65
330.926	6.61
331.298	5.78
331.671	6
332.043	6.72
332.415	5.95
332.787	6.48
333.159	5.84
333.532	6.35
333.904	6.41
334.276	6.46
334.648	6.49
335.02	6.29
335.391	6.07
335.763	6.33
336.135	6.6
336.507	5.9
336.879	6.47
337.25	6.69
337.622	6.92
337.993	6.18
338.365	6.55
338.736	6.51
339.108	7.13
339.479	6.41
339.851	6.76
340.222	6.49
340.593	6.4
340.964	6.57
341.336	6.3
341.707	6.67
342.078	6.41
342.449	6.66
342.82	6.7
343.191	6.62
343.562	6.7
343.933	6.95
344.303	6.53
344.674	6.29
345.045	6.73
345.416	6.96
345.786	6.79
346.157	6.64
346.527	6.61
346.898	6.39
347.268	6.94
347.639	6.54
348.009	7.34
348.38	6.86
348.75	6.64
349.12	7.05
349.49	6.63
349.861	6.85
350.231	6.87
350.601	6.79
350.971	7.04
351.341	7.15
351.711	6.87
352.081	6.86
352.45	6.84
352.82	6.57
353.19	6.88
353.56	6.81
353.929	7.19
354.299	7.3
354.669	7.17
355.038	7.32
355.408	6.93
355.777	7.29
356.147	7.17
356.516	6.85
356.885	6.87
357.254	7.08
357.624	6.67
357.993	7.08
358.362	6.99
358.731	7.27
359.1	7.22
359.469	7.24
359.838	7.26
360.207	7.14
360.576	7.33
360.945	7.36
361.314	7.09
361.682	6.92
362.051	7.29
362.42	7.18
362.788	7.28
363.157	7.11
363.525	7.52
363.894	6.91
364.262	7.23
364.631	7.52
364.999	7.13
365.367	7.37
365.735	7.23
366.104	7.28
366.472	7.33
366.84	7.59
367.208	7.54
367.576	7.1
367.944	7.23
368.312	7.21
368.68	7.56
369.048	7.42
369.416	7.41
369.783	7.43
370.151	7.67
370.519	7.78
370.886	7.55
371.254	7.78
371.621	7.83
371.989	7.79
372.356	7.69
372.724	7.43
373.091	7.43
373.458	7.59
373.826	7.79
374.193	7.85
374.56	7.88
374.927	7.79
375.294	8.1
375.661	7.63
376.028	7.87
376.395	7.77
376.762	7.65
377.129	7.86
377.496	8.14
377.863	8.11
378.229	8.04
378.596	8.05
378.963	7.93
379.329	8.06
379.696	7.85
380.062	8.16
380.429	7.78
380.795	8.23
381.161	7.98
381.528	7.8
381.894	7.83
382.26	8
382.626	8.14
382.993	8.26
383.359	7.96
383.725	7.64
384.091	8.23
384.457	7.86
384.823	8.02
385.188	7.91
385.554	8.16
385.92	8.1
386.286	7.86
386.651	7.85
387.017	8.2
387.383	7.98
387.748	8.14
388.114	8.38
388.479	8.05
388.845	8
389.21	8.42
389.575	8.38
389.94	8.27
390.306	8.21
390.671	8.18
391.036	8.17
391.401	8.13
391.766	8.17
392.131	8.7
392.496	8.15
392.861	8.17
393.226	8.13
393.591	8.27
393.956	8.19
394.32	8.47
394.685	8.2
395.05	8.46
395.414	8.28
395.779	8.42
396.143	8.13
396.508	8.29
396.872	8.43
397.236	8.57
397.601	8.58
397.965	8.31
398.329	8.35
398.694	8.13
399.058	8.33
399.422	8.35
399.786	8.25
400.15	8.33
400.514	8.37
400.878	8.42
401.242	8.78
401.605	8.43
401.969	8.25
402.333	8.48
402.697	8.83
403.06	8.44
403.424	8.67
403.787	8.46
404.151	8.53
404.514	8.37
404.878	8.3
405.241	8.42
405.604	8.46
405.968	8.48
406.331	8.53
406.694	8.5
407.057	8.34
407.42	8.41
407.783	8.5
408.146	8.39
408.509	8.53
408.872	8.32
409.235	8.67
409.598	8.62
409.961	8.64
410.323	8.58
410.686	8.51
411.049	8.46
411.411	8.37
411.774	8.15
412.136	8.57
412.499	8.69
412.861	8.23
413.223	8.34
413.586	8.53
413.948	8.88
414.31	8.5
414.672	8.43
415.035	8.82
415.397	8.65
415.759	8.29
416.121	8.75
416.483	8.69
416.845	8.54
417.206	8.58
417.568	8.56
417.93	8.57
418.292	8.46
418.653	8.53
419.015	8.59
419.377	8.54
419.738	8.56
420.1	8.58
420.461	8.44
420.822	8.69
421.184	8.68
421.545	8.66
421.906	8.71
422.267	8.58
422.629	8.49
422.99	8.62
423.351	8.63
423.712	8.72
424.073	8.77
424.434	8.87
424.795	8.67
425.155	8.75
425.516	8.72
425.877	8.84
426.238	8.74
426.598	8.9
426.959	8.99
427.32	8.87
427.68	9.05
428.041	9.05
428.401	9
428.761	9.15
429.122	9.08
429.482	9.27
429.842	9.14
430.202	9.39
430.563	9.24
430.923	9.34
431.283	9.42
431.643	9.52
432.003	9.45
432.363	9.26
432.722	9.38
433.082	9.41
433.442	9.59
433.802	9.34
434.161	9.44
434.521	9.32
434.881	9.44
435.24	9.45
435.6	9.49
435.959	9.65
436.319	9.68
436.678	9.71
437.037	9.72
437.396	9.81
437.756	9.61
438.115	9.79
438.474	9.83
438.833	9.71
439.192	9.59
439.551	9.59
439.91	9.8
440.269	9.72
440.628	9.65
440.987	9.68
441.345	9.79
441.704	9.67
442.063	9.72
442.421	9.68
442.78	9.72
443.138	9.81
443.497	9.82
443.855	9.88
444.214	9.77
444.572	10.13
444.93	9.88
445.288	9.98
445.647	9.85
446.005	9.99
446.363	10.03
446.721	9.97
447.079	9.95
447.437	9.9
447.795	9.99
448.153	9.82
448.51	10.03
448.868	9.98
449.226	10
449.584	10.13
449.941	10.13
450.299	10.17
450.656	10.15
451.014	10.23
451.371	10.36
451.729	10.34
452.086	10.28
452.443	10.61
452.801	10.29
453.158	10.44
453.515	10.29
453.872	10.42
454.229	10.25
454.586	10.46
454.943	10.48
455.3	10.58
455.657	10.56
456.014	10.45
456.371	10.45
456.727	10.65
457.084	10.73
457.441	10.61
457.797	10.47
458.154	10.61
458.51	10.86
458.867	10.57
459.223	10.62
459.58	10.63
459.936	10.74
460.292	10.66
460.648	10.49
461.005	10.5
461.361	10.48
461.717	10.51
462.073	10.68
462.429	10.75
462.785	10.89
463.141	10.81
463.496	10.88
463.852	11.02
464.208	10.76
464.564	10.94
464.919	11.16
465.275	10.9
465.631	11.07
465.986	11.05
466.342	10.99
466.697	11.01
467.052	11.11
467.408	11.26
467.763	11.24
468.118	10.92
468.473	11.15
468.829	11.12
469.184	11.18
469.539	11.18
469.894	11.32
470.249	11.26
470.603	11.43
470.958	11.35
471.313	11.39
471.668	11.38
472.023	11.39
472.377	11.32
472.732	11.31
473.086	11.44
473.441	11.43
473.795	11.49
474.15	11.41
474.504	11.29
474.859	11.2
475.213	11.44
475.567	11.53
475.921	11.5
476.275	11.67
476.63	11.55
476.984	11.43
477.338	11.66
477.692	11.44
478.045	11.34
478.399	11.46
478.753	11.41
479.107	11.63
479.461	11.5
479.814	11.66
480.168	11.54
480.521	11.67
480.875	11.71
481.228	11.77
481.582	11.55
481.935	11.84
482.289	11.56
482.642	11.74
482.995	11.64
483.348	11.52
483.701	11.54
484.055	11.4
484.408	11.44
484.761	11.28
485.114	11.02
485.466	10.91
485.819	11.04
486.172	11.15
486.525	11.29
486.878	11.45
487.23	11.41
487.583	11.59
487.936	11.51
488.288	11.43
488.641	11.35
488.993	11.31
489.345	11.3
489.698	11.4
490.05	11.41
490.402	11.54
490.754	11.65
491.107	11.75
491.459	11.86
491.811	11.85
492.163	11.82
492.515	11.72
492.866	11.64
493.218	11.49
493.57	11.65
493.922	11.7
494.274	11.87
494.625	12.07
494.977	12.15
495.328	12.32
495.68	12.31
496.031	12.27
496.383	12.2
496.734	12.37
497.086	12.37
497.437	12.4
497.788	12.33
498.139	12.18
498.49	12.2
498.842	12.34
499.193	12.24
499.544	12.39
499.894	12.27
500.245	12.47
500.596	12.43
500.947	12.4
501.298	12.43
501.648	12.6
501.999	12.7
502.35	12.53
502.7	12.82
503.051	12.59
503.401	12.8
503.752	12.6
504.102	12.72
504.452	12.73
504.803	12.66
505.153	12.6
505.503	12.55
505.853	12.78
506.203	12.73
506.553	12.85
506.903	12.74
507.253	12.87
507.603	12.88
507.953	12.93
508.303	12.99
508.652	12.76
509.002	12.89
509.352	12.82
509.701	12.75
510.051	12.86
510.4	12.84
510.75	12.79
511.099	12.8
511.449	12.95
511.798	12.94
512.147	12.9
512.496	12.99
512.846	12.9
513.195	12.97
513.544	13.15
513.893	12.98
514.242	12.97
514.591	12.97
514.939	13.23
515.288	13.21
515.637	13.17
515.986	13.14
516.334	13.25
516.683	13.13
517.032	13.16
517.38	13.18
517.729	13.18
518.077	13.26
518.426	13.26
518.774	13.19
519.122	13.09
519.47	13.1
519.819	13
520.167	12.99
520.515	13.13
520.863	13.07
521.211	13.17
521.559	13.26
521.907	13.24
522.255	13.37
522.602	13.4
522.95	13.46
523.298	13.46
523.645	13.41
523.993	13.32
524.341	13.47
524.688	13.44
525.036	13.54
525.383	13.46
525.73	13.37
526.078	13.55
526.425	13.38
526.772	13.22
527.119	13.16
527.466	13.37
527.814	13.23
528.161	13.43
528.508	13.4
528.854	13.26
529.201	13.21
529.548	13.09
529.895	12.89
530.242	12.8
530.588	12.9
530.935	13.07
531.282	13.19
531.628	13.28
531.975	13.37
532.321	13.51
532.667	13.61
533.014	13.64
533.36	13.69
533.706	13.66
534.052	13.6
534.399	13.41
534.745	13.36
535.091	13.22
535.437	13.42
535.783	13.57
536.129	13.61
536.474	13.84
536.82	13.81
537.166	13.84
537.512	13.75
537.857	13.64
538.203	13.6
538.549	13.68
538.894	13.73
539.239	13.93
539.585	13.98
539.93	14.02
540.276	14.18
540.621	14.25
540.966	14.17
541.311	14.13
541.656	13.99
542.001	13.96
542.346	13.74
542.691	13.56
543.036	13.52
543.381	13.66
543.726	13.78
544.071	13.79
544.415	13.98
544.76	13.99
545.105	13.97
545.449	14.07
545.794	14.17
546.138	14.2
546.483	14.21
546.827	14.33
547.171	14.33
547.516	14.28
547.86	14.29
548.204	14.19
548.548	14.28
548.892	14.26
549.236	14.45
549.58	14.52
549.924	14.72
550.268	14.66
550.612	14.71
550.956	14.72
551.3	14.92
551.643	14.82
551.987	14.82
552.33	14.9
552.674	14.65
553.017	15.06
553.361	14.86
553.704	14.93
554.048	14.71
554.391	14.82
554.734	14.67
555.077	14.92
555.42	15.02
555.764	14.87
556.107	15.01
556.45	15
556.793	15.1
557.135	15.12
557.478	15.33
557.821	15.09
558.164	15.2
558.507	15.08
558.849	15.15
559.192	15.2
559.534	15.16
559.877	15.18
560.219	15.13
560.562	15.25
560.904	15.27
561.246	15.24
561.589	15.53
561.931	15.34
562.273	15.34
562.615	15.28
562.957	15.43
563.299	15.39
563.641	15.56
563.983	15.21
564.325	15.49
564.667	15.48
565.008	15.36
565.35	15.52
565.692	15.45
566.033	15.48
566.375	15.46
566.716	15.33
567.058	15.37
567.399	15.31
567.741	15.44
568.082	15.53
568.423	15.37
568.764	15.43
569.105	15.55
569.447	15.46
569.788	15.68
570.129	15.67
570.47	15.55
570.811	15.56
571.151	15.76
571.492	15.74
571.833	15.76
572.174	15.86
572.514	15.62
572.855	15.7
573.195	15.7
573.536	15.78
573.876	15.72
574.217	15.67
574.557	15.68
574.898	15.7
575.238	15.83
575.578	15.93
575.918	15.94
576.258	15.95
576.598	15.95
576.938	15.89
577.278	15.85
577.618	15.81
577.958	16.14
578.298	16.03
578.638	15.84
578.977	16.15
579.317	16.2
579.657	16.24
579.996	16.31
580.336	16.39
580.675	16.17
581.014	16.25
581.354	16.18
581.693	16.45
582.032	16.75
582.372	16.52
582.711	16.33
583.05	16.28
583.389	16.52
583.728	16.61
584.067	16.68
584.406	16.73
584.745	16.56
585.083	16.54
585.422	16.67
585.761	17.06
586.1	16.8
586.438	16.36
586.777	16.83
587.115	16.71
587.454	16.68
587.792	16.78
588.13	16.47
588.469	16.61
588.807	16.6
589.145	16.58
589.483	16.32
589.821	16.59
590.159	16.76
590.497	16.9
590.835	17.02
591.173	16.73
591.511	16.85
591.849	16.92
592.187	16.74
592.524	16.92
592.862	16.85
593.2	16.95
593.537	16.81
593.875	16.77
594.212	17.08
594.55	16.99
594.887	17.15
595.224	16.83
595.561	17.03
595.899	17.04
596.236	17.02
596.573	17.05
596.91	16.89
597.247	17.08
597.584	17.05
597.921	17
598.258	17
598.594	16.85
598.931	16.64
599.268	16.89
599.604	17.16
599.941	16.93
600.277	17.26
600.614	17.19
600.95	17.13
601.287	17.12
601.623	17.14
601.959	17.65
602.296	17.41
602.632	17.17
602.968	17.29
603.304	17.6
603.64	17.34
603.976	17.27
604.312	17.42
604.648	17.1
604.984	17.32
605.319	17.49
605.655	17.31
605.991	17.12
606.326	17.11
606.662	17.08
606.998	17.39
607.333	17.48
607.668	17.46
608.004	17.33
608.339	17.4
608.674	17.75
609.01	17.72
609.345	17.83
609.68	17.55
610.015	17.81
610.35	17.61
610.685	17.34
611.02	17.46
611.355	17.54
611.689	17.57
612.024	17.69
612.359	17.6
612.694	17.75
613.028	17.75
613.363	17.72
613.697	18.03
614.032	17.97
614.366	17.96
614.7	18.09
615.035	17.7
615.369	17.86
615.703	17.95
616.037	17.83
616.371	18.08
616.705	18.02
617.039	18.08
617.373	18.17
617.707	18.24
618.041	17.88
618.375	17.71
618.709	18.28
619.042	18.19
619.376	18.3
619.71	18.47
620.043	18.57
620.377	18.26
620.71	18.22
621.043	18.48
621.377	18.35
621.71	18.44
622.043	17.98
622.376	18.36
622.709	18.36
623.043	18.29
623.376	18.17
623.709	18.89
624.041	18.47
624.374	18.5
624.707	18.15
625.04	18.23
625.373	18.46
625.705	18.63
626.038	18.77
626.37	18.52
626.703	18.67
627.035	18.28
627.368	18.69
627.7	18.81
628.032	18.47
628.365	18.94
628.697	18.78
629.029	18.59
629.361	18.8
629.693	18.52
630.025	18.78
630.357	18.62
630.689	18.64
631.021	18.75
631.353	18.61
631.684	18.78
632.016	18.53
632.348	18.74
632.679	18.66
633.011	18.98
633.342	19.1
633.674	18.91
634.005	19.11
634.336	19.07
634.668	18.97
634.999	18.83
635.33	19.01
635.661	18.93
635.992	19.04
636.323	18.72
636.654	18.85
636.985	18.89
637.316	19.29
637.647	19.12
637.977	19.47
638.308	19.38
638.639	19.35
638.969	19.33
639.3	19.33
639.63	19.18
639.961	19.52
640.291	19.07
640.622	19.2
640.952	19.14
641.282	18.95
641.612	19.51
641.943	19.42
642.273	19.44
642.603	19.4
642.933	19.47
643.263	19.89
643.592	19.48
643.922	20.37
644.252	19.71
644.582	19.34
644.911	19.45
645.241	19.33
645.571	19.28
645.9	20.22
646.23	19.81
646.559	19.17
646.888	19.6
647.218	19.56
647.547	19.95
647.876	19.71
648.205	19.73
648.534	19.82
648.863	19.46
649.192	19.9
649.521	19.81
649.85	19.26
650.179	19.92
650.508	19.59
650.837	19.79
651.165	19.63
651.494	20.01
651.822	20.27
652.151	19.42
652.479	20.15
652.808	20.14
653.136	19.74
653.465	19.97
653.793	19.91
654.121	19.92
654.449	19.75
654.777	19.81
655.105	19.79
655.433	20.21
655.761	19.97
656.089	20.15
656.417	20.46
656.745	20.15
657.073	20.11
657.4	19.66
657.728	19.72
658.056	20.35
658.383	19.95
658.711	20.25
659.038	20.2
659.365	20.44
659.693	20.38
660.02	20.13
660.347	20.12
660.674	20
661.001	20.02
661.329	19.91
661.656	20.12
661.982	19.8
662.309	20.41
662.636	20.51
662.963	20.22
663.29	20.47
663.616	20.6
663.943	20.86
664.27	20.61
664.596	20.28
664.923	20.22
665.249	20.52
665.576	20.58
665.902	20.04
666.228	20.97
666.554	21.07
666.881	20.53
667.207	20.56
667.533	20.47
667.859	20.47
668.185	20.64
668.511	20.71
668.837	20.76
669.162	21.24
669.488	20.37
669.814	20.83
670.139	20.47
670.465	20.99
670.791	20.66
671.116	20.48
671.442	20.16
671.767	20.86
672.092	20.73
672.418	21.01
672.743	20.94
673.068	20.44
673.393	21.42
673.718	20.39
674.043	20.77
674.368	21.2
674.693	21.25
675.018	20.96
675.343	21
675.667	20.82
675.992	20.59
676.317	20.76
676.641	21.29
676.966	21.31
