Data from 21-3_forehead_Reflection__3__118.txt Node

Date: Thu Dec 15 17:23:50 CST 2022
User: ToomeyLab
Spectrometer: FLMS14357
Trigger mode: 0
Integration Time (sec): 1.000000E-2
Scans to average: 100
Electric dark correction enabled: true
Nonlinearity correction enabled: false
Boxcar width: 0
XAxis mode: Wavelengths
Number of Pixels in Spectrum: 2048
>>>>>Begin Spectral Data<<<<<
189.047	386.58
189.435	386.58
189.823	386.58
190.211	-348.55
190.599	224.36
190.987	181.4
191.375	54.57
191.763	172.88
192.151	-2038.08
192.538	188.47
192.926	20.78
193.314	58.85
193.702	688.15
194.089	182.97
194.477	-538.56
194.864	109.19
195.252	88.14
195.639	104.68
196.027	-89.73
196.414	-85.91
196.801	-14.98
197.189	87.08
197.576	-42.68
197.963	-73.77
198.351	23.29
198.738	-56.02
199.125	-48.15
199.512	27.12
199.899	-57.1
200.286	12.23
200.673	30.77
201.06	-60.41
201.447	23.58
201.833	20.94
202.22	7.19
202.607	10.03
202.994	-13.83
203.38	16.17
203.767	-3.4
204.154	51.4
204.54	-29.21
204.927	-11
205.313	34.09
205.699	26.23
206.086	13.04
206.472	49.13
206.858	-6.71
207.245	15.05
207.631	2.03
208.017	8.6
208.403	-30.53
208.789	4.14
209.175	-10.29
209.561	-44.18
209.947	-2.89
210.333	3.49
210.719	25.8
211.105	45.11
211.491	9.72
211.876	-17.58
212.262	33.51
212.648	-22.8
213.034	12.45
213.419	4.16
213.805	-17.88
214.19	-16.28
214.576	-32.92
214.961	23.48
215.346	-25.19
215.732	2.03
216.117	18.28
216.502	-16.56
216.888	-4.39
217.273	3.67
217.658	-14.08
218.043	-20.68
218.428	-31.75
218.813	-5.83
219.198	-30.91
219.583	-11.79
219.968	-27.79
220.353	-3.55
220.738	-8.61
221.122	-4.92
221.507	-5.65
221.892	-32.66
222.276	-20.88
222.661	-5.56
223.046	-8.61
223.43	14.37
223.815	4.09
224.199	6.11
224.583	-0.27
224.968	-4.91
225.352	-6.98
225.736	15.11
226.121	-2.93
226.505	-4.9
226.889	2.92
227.273	-3.41
227.657	4.24
228.041	2.73
228.425	-1.21
228.809	2.9
229.193	1.23
229.577	1.07
229.961	1.86
230.344	2.11
230.728	2.69
231.112	2.76
231.495	0.03
231.879	1.83
232.263	3.64
232.646	1.05
233.03	3
233.413	0.55
233.797	0.52
234.18	0.96
234.563	2.11
234.946	-0.36
235.33	2.31
235.713	1.84
236.096	2.84
236.479	3.33
236.862	2.4
237.245	1.79
237.628	2.68
238.011	1.3
238.394	1.65
238.777	2.98
239.16	2.34
239.543	2.31
239.925	1.9
240.308	2
240.691	1.13
241.073	2.76
241.456	1.9
241.838	2.38
242.221	1.36
242.603	3.37
242.986	2.41
243.368	2.65
243.75	2.91
244.133	2.85
244.515	2.61
244.897	1.99
245.279	2.65
245.661	1.75
246.043	3.27
246.425	2.51
246.807	2.74
247.189	2.05
247.571	2
247.953	2.55
248.335	2.59
248.717	2.64
249.098	2.42
249.48	2.45
249.862	2.31
250.243	2.46
250.625	2.76
251.006	3.13
251.388	3.12
251.769	1.62
252.151	2.92
252.532	2.23
252.913	2.5
253.295	2.64
253.676	2.49
254.057	2.72
254.438	2.43
254.819	2.52
255.2	3.73
255.581	4.62
255.962	2.86
256.343	3.02
256.724	3.28
257.105	2.6
257.486	1.6
257.867	2.36
258.247	2.26
258.628	2.46
259.009	1.98
259.389	1.63
259.77	2.1
260.15	2.66
260.531	2.5
260.911	2.42
261.292	2.56
261.672	2.41
262.052	2.46
262.432	2.45
262.813	2.35
263.193	2.39
263.573	2.63
263.953	2.41
264.333	2.54
264.713	2.12
265.093	2.57
265.473	1.79
265.853	2.45
266.233	2.46
266.612	1.58
266.992	2.53
267.372	2.41
267.752	2.69
268.131	2.13
268.511	2.21
268.89	2.77
269.27	1.88
269.649	2.24
270.029	2.3
270.408	2.56
270.787	2.26
271.167	2.8
271.546	2.78
271.925	2.49
272.304	2.18
272.683	1.66
273.062	2.15
273.441	2.16
273.82	2.69
274.199	2.22
274.578	2.35
274.957	2.22
275.336	2.62
275.715	2.62
276.093	2.15
276.472	1.48
276.851	2.04
277.229	1.99
277.608	1.83
277.986	2.22
278.365	2.44
278.743	2.01
279.122	2.17
279.5	2.53
279.878	2.18
280.257	2.57
280.635	2.36
281.013	1.44
281.391	2.32
281.769	2.57
282.147	2.26
282.525	1.94
282.903	2.09
283.281	2.61
283.659	2.62
284.037	1.91
284.415	2.31
284.792	2.24
285.17	2.2
285.548	1.88
285.925	1.88
286.303	2.5
286.68	2.13
287.058	2.44
287.435	2.18
287.813	2.21
288.19	2.03
288.567	1.93
288.945	2.14
289.322	2.65
289.699	2.45
290.076	2.22
290.453	2.3
290.83	2.61
291.207	2.69
291.584	2.72
291.961	2.53
292.338	2.52
292.715	2.38
293.092	3.03
293.469	2.15
293.845	2.43
294.222	3.34
294.599	2.27
294.975	2.2
295.352	2.37
295.728	2.58
296.105	2.89
296.481	3.13
296.858	2.66
297.234	2.14
297.61	2.67
297.986	2.97
298.363	2.73
298.739	2.89
299.115	3.07
299.491	2.93
299.867	2.85
300.243	2.42
300.619	2.89
300.995	3.01
301.371	3.09
301.746	2.96
302.122	2.65
302.498	2.43
302.874	3.26
303.249	2.36
303.625	2.74
304	3.12
304.376	3.34
304.751	3.43
305.127	2.78
305.502	3.3
305.878	2.98
306.253	2.79
306.628	2.67
307.003	3.09
307.378	3.03
307.754	3.36
308.129	2.87
308.504	3.25
308.879	3.04
309.254	3.44
309.629	3.49
310.003	3.01
310.378	3.91
310.753	3.36
311.128	3.09
311.502	3.21
311.877	3.39
312.252	3.43
312.626	3.68
313.001	3.43
313.375	3.59
313.75	3.65
314.124	3.9
314.498	3.57
314.873	3.37
315.247	3.48
315.621	3.47
315.995	3.43
316.369	3.19
316.743	3.54
317.117	3.34
317.491	3.96
317.865	3.19
318.239	4.06
318.613	3.8
318.987	3.64
319.361	3.99
319.734	2.98
320.108	3.51
320.482	4.14
320.855	3.78
321.229	3.86
321.602	3.81
321.976	3.26
322.349	4.13
322.723	4.3
323.096	3.75
323.469	4
323.843	3.56
324.216	4.1
324.589	3.63
324.962	3.94
325.335	3.63
325.708	4.43
326.081	4.19
326.454	4.08
326.827	4.21
327.2	3.97
327.573	4.56
327.945	3.45
328.318	3.85
328.691	3.89
329.063	3.61
329.436	3.73
329.809	4.25
330.181	4.46
330.553	3.95
330.926	4.46
331.298	4.29
331.671	4.49
332.043	4.38
332.415	3.92
332.787	4.61
333.159	3.97
333.532	4.54
333.904	4.23
334.276	4.34
334.648	4.21
335.02	4.26
335.391	3.87
335.763	4.25
336.135	4.05
336.507	4.13
336.879	3.99
337.25	4.3
337.622	4.31
337.993	4.38
338.365	4.44
338.736	4.76
339.108	4.37
339.479	4.27
339.851	4.65
340.222	4.45
340.593	4.31
340.964	4.32
341.336	4.19
341.707	4.54
342.078	4.31
342.449	4.43
342.82	4.51
343.191	4.48
343.562	4.53
343.933	4.17
344.303	4.74
344.674	4.73
345.045	4.44
345.416	4.68
345.786	4.25
346.157	4.63
346.527	4.2
346.898	4.02
347.268	4.56
347.639	4.38
348.009	4.78
348.38	4.73
348.75	4.64
349.12	4.85
349.49	4.54
349.861	4.77
350.231	4.6
350.601	4.92
350.971	4.32
351.341	4.55
351.711	4.8
352.081	4.56
352.45	4.47
352.82	4.55
353.19	4.88
353.56	4.74
353.929	4.64
354.299	4.67
354.669	5.04
355.038	5.07
355.408	4.55
355.777	5.21
356.147	4.49
356.516	4.91
356.885	4.93
357.254	4.87
357.624	4.32
357.993	4.99
358.362	5.1
358.731	5.17
359.1	5.04
359.469	5.15
359.838	4.97
360.207	4.9
360.576	4.99
360.945	4.95
361.314	4.74
361.682	5.04
362.051	5.07
362.42	5.14
362.788	5.18
363.157	4.84
363.525	5.03
363.894	4.92
364.262	5.01
364.631	5.23
364.999	5.16
365.367	5.07
365.735	4.86
366.104	5.18
366.472	4.85
366.84	5.45
367.208	5.62
367.576	5.14
367.944	5.33
368.312	5.27
368.68	5.39
369.048	4.94
369.416	5.01
369.783	5.26
370.151	5.73
370.519	5.98
370.886	5.38
371.254	5.48
371.621	5.54
371.989	5.69
372.356	5.35
372.724	5.59
373.091	5.25
373.458	5.16
373.826	5.46
374.193	5.41
374.56	5.23
374.927	5.27
375.294	5.69
375.661	5.56
376.028	5.42
376.395	5.81
376.762	5.66
377.129	5.24
377.496	5.43
377.863	5.63
378.229	5.64
378.596	5.68
378.963	5.74
379.329	5.66
379.696	5.55
380.062	5.5
380.429	5.36
380.795	5.66
381.161	5.46
381.528	5.26
381.894	5.53
382.26	5.57
382.626	5.85
382.993	6.05
383.359	5.77
383.725	5.29
384.091	5.77
384.457	5.53
384.823	5.88
385.188	5.91
385.554	5.9
385.92	5.65
386.286	5.81
386.651	5.72
387.017	5.81
387.383	5.86
387.748	5.78
388.114	5.78
388.479	5.75
388.845	5.89
389.21	6.11
389.575	6.48
389.94	6.11
390.306	6.03
390.671	5.83
391.036	5.67
391.401	5.84
391.766	5.96
392.131	6
392.496	5.89
392.861	6.01
393.226	5.77
393.591	6.03
393.956	5.94
394.32	6.26
394.685	5.96
395.05	5.93
395.414	5.96
395.779	5.95
396.143	5.74
396.508	5.86
396.872	5.84
397.236	6.32
397.601	5.95
397.965	6.04
398.329	5.83
398.694	5.79
399.058	5.91
399.422	5.95
399.786	6.04
400.15	5.82
400.514	6
400.878	5.91
401.242	6.07
401.605	6.22
401.969	5.8
402.333	5.93
402.697	6.23
403.06	5.81
403.424	6.15
403.787	6.05
404.151	6.01
404.514	6.17
404.878	5.85
405.241	6.08
405.604	5.91
405.968	6.13
406.331	6.23
406.694	6.05
407.057	5.9
407.42	6.03
407.783	6.18
408.146	6.05
408.509	6.17
408.872	6.04
409.235	6.27
409.598	6.19
409.961	6.14
410.323	6.03
410.686	6.15
411.049	5.95
411.411	6.07
411.774	5.92
412.136	5.99
412.499	6.3
412.861	5.86
413.223	6.07
413.586	6.31
413.948	6.21
414.31	6.2
414.672	6.02
415.035	6
415.397	5.93
415.759	5.82
416.121	6.3
416.483	6.08
416.845	6.18
417.206	6.1
417.568	6.19
417.93	6.24
418.292	6.15
418.653	6.06
419.015	6.09
419.377	6.09
419.738	6.16
420.1	6.2
420.461	6.2
420.822	6.28
421.184	6.13
421.545	6.29
421.906	6.18
422.267	6.24
422.629	6.12
422.99	6.21
423.351	6.23
423.712	6.33
424.073	6.35
424.434	6.47
424.795	6.24
425.155	6.3
425.516	6.29
425.877	6.41
426.238	6.42
426.598	6.52
426.959	6.54
427.32	6.5
427.68	6.56
428.041	6.77
428.401	6.46
428.761	6.93
429.122	6.95
429.482	6.67
429.842	6.68
430.202	6.97
430.563	6.81
430.923	6.87
431.283	6.97
431.643	7.01
432.003	7.06
432.363	7.21
432.722	7.13
433.082	7.06
433.442	7.02
433.802	6.89
434.161	6.98
434.521	7.05
434.881	6.99
435.24	7.13
435.6	7.15
435.959	7.13
436.319	7.17
436.678	7.27
437.037	7.2
437.396	7.21
437.756	7.23
438.115	7.36
438.474	7.33
438.833	7.22
439.192	7.3
439.551	7.21
439.91	7.39
440.269	7.37
440.628	7.28
440.987	7.31
441.345	7.32
441.704	7.3
442.063	7.42
442.421	7.38
442.78	7.49
443.138	7.45
443.497	7.35
443.855	7.59
444.214	7.41
444.572	7.76
444.93	7.58
445.288	7.55
445.647	7.6
446.005	7.65
446.363	7.56
446.721	7.68
447.079	7.55
447.437	7.6
447.795	7.66
448.153	7.7
448.51	7.67
448.868	7.52
449.226	7.7
449.584	7.68
449.941	7.78
450.299	7.87
450.656	7.84
451.014	7.93
451.371	7.95
451.729	8
452.086	8.01
452.443	8.1
452.801	8.05
453.158	8.21
453.515	8.15
453.872	8.06
454.229	7.94
454.586	7.88
454.943	8.17
455.3	8.09
455.657	8.1
456.014	8.37
456.371	8.29
456.727	8.37
457.084	8.32
457.441	8.18
457.797	8.3
458.154	8.35
458.51	8.2
458.867	8.38
459.223	8.17
459.58	8.34
459.936	8.21
460.292	8.29
460.648	8.21
461.005	8.16
461.361	8.2
461.717	8.31
462.073	8.36
462.429	8.29
462.785	8.58
463.141	8.41
463.496	8.61
463.852	8.67
464.208	8.78
464.564	8.54
464.919	8.52
465.275	8.76
465.631	8.92
465.986	8.76
466.342	8.67
466.697	8.7
467.052	8.77
467.408	8.8
467.763	8.83
468.118	8.67
468.473	8.99
468.829	8.75
469.184	8.69
469.539	8.63
469.894	8.84
470.249	8.92
470.603	8.93
470.958	8.89
471.313	9.05
471.668	8.95
472.023	9
472.377	8.98
472.732	9.14
473.086	8.92
473.441	9.14
473.795	9.17
474.15	9.1
474.504	8.98
474.859	8.92
475.213	9.22
475.567	9.19
475.921	9.25
476.275	9.2
476.63	9.32
476.984	9.2
477.338	9.4
477.692	9.15
478.045	9.25
478.399	9.25
478.753	9.19
479.107	9.24
479.461	9.24
479.814	9.26
480.168	9.25
480.521	9.39
480.875	9.35
481.228	9.36
481.582	9.49
481.935	9.48
482.289	9.36
482.642	9.44
482.995	9.23
483.348	9.14
483.701	9.25
484.055	9.13
484.408	9.16
484.761	9
485.114	8.86
485.466	8.81
485.819	8.85
486.172	8.93
486.525	9.06
486.878	9.13
487.23	9.2
487.583	9.33
487.936	9.3
488.288	9.26
488.641	9.17
488.993	9.09
489.345	9.11
489.698	9.18
490.05	9.14
490.402	9.24
490.754	9.32
491.107	9.47
491.459	9.64
491.811	9.52
492.163	9.56
492.515	9.41
492.866	9.32
493.218	9.29
493.57	9.36
493.922	9.44
494.274	9.56
494.625	9.79
494.977	9.74
495.328	9.84
495.68	9.96
496.031	9.97
496.383	9.91
496.734	9.89
497.086	9.94
497.437	9.94
497.788	10.05
498.139	9.86
498.49	9.89
498.842	9.99
499.193	9.94
499.544	9.93
499.894	10.01
500.245	10.07
500.596	10.15
500.947	10.13
501.298	10.06
501.648	10.07
501.999	10.19
502.35	10.18
502.7	10.44
503.051	10.24
503.401	10.2
503.752	10.24
504.102	10.4
504.452	10.34
504.803	10.31
505.153	10.35
505.503	10.26
505.853	10.37
506.203	10.44
506.553	10.38
506.903	10.42
507.253	10.38
507.603	10.46
507.953	10.41
508.303	10.56
508.652	10.27
509.002	10.47
509.352	10.48
509.701	10.36
510.051	10.54
510.4	10.46
510.75	10.3
511.099	10.22
511.449	10.55
511.798	10.37
512.147	10.37
512.496	10.49
512.846	10.46
513.195	10.47
513.544	10.62
513.893	10.51
514.242	10.55
514.591	10.53
514.939	10.65
515.288	10.65
515.637	10.57
515.986	10.74
516.334	10.71
516.683	10.73
517.032	10.71
517.38	10.62
517.729	10.82
518.077	10.86
518.426	10.74
518.774	10.67
519.122	10.62
519.47	10.57
519.819	10.65
520.167	10.48
520.515	10.56
520.863	10.62
521.211	10.6
521.559	10.63
521.907	10.76
522.255	10.71
522.602	10.84
522.95	10.92
523.298	10.91
523.645	10.93
523.993	10.87
524.341	10.94
524.688	10.79
525.036	10.89
525.383	10.95
525.73	10.86
526.078	11.09
526.425	10.78
526.772	10.83
527.119	10.75
527.466	10.79
527.814	10.85
528.161	10.75
528.508	10.8
528.854	10.83
529.201	10.7
529.548	10.64
529.895	10.47
530.242	10.46
530.588	10.51
530.935	10.6
531.282	10.66
531.628	10.77
531.975	10.82
532.321	10.97
532.667	10.99
533.014	11.11
533.36	11.03
533.706	11.06
534.052	11
534.399	10.96
534.745	10.79
535.091	10.71
535.437	10.91
535.783	10.9
536.129	11.03
536.474	11.07
536.82	11.04
537.166	11.14
537.512	11.21
537.857	11.15
538.203	11.15
538.549	11.11
538.894	11.19
539.239	11.26
539.585	11.36
539.93	11.42
540.276	11.52
540.621	11.45
540.966	11.33
541.311	11.53
541.656	11.37
542.001	11.35
542.346	11.1
542.691	11.05
543.036	11.01
543.381	11.1
543.726	11.07
544.071	11.21
544.415	11.27
544.76	11.26
545.105	11.33
545.449	11.45
545.794	11.52
546.138	11.41
546.483	11.59
546.827	11.61
547.171	11.59
547.516	11.72
547.86	11.61
548.204	11.6
548.548	11.46
548.892	11.68
549.236	11.63
549.58	11.81
549.924	11.89
550.268	11.97
550.612	12.06
550.956	12.08
551.3	12.18
551.643	11.92
551.987	12
552.33	12.21
552.674	12.03
553.017	12.08
553.361	12.22
553.704	12.23
554.048	11.91
554.391	12.15
554.734	12.05
555.077	12.17
555.42	12.13
555.764	12.09
556.107	12.15
556.45	12.27
556.793	12.3
557.135	12.41
557.478	12.39
557.821	12.4
558.164	12.49
558.507	12.19
558.849	12.59
559.192	12.24
559.534	12.2
559.877	12.29
560.219	12.42
560.562	12.5
560.904	12.47
561.246	12.54
561.589	12.6
561.931	12.57
562.273	12.66
562.615	12.51
562.957	12.4
563.299	12.64
563.641	12.5
563.983	12.27
564.325	12.54
564.667	12.72
565.008	12.41
565.35	12.37
565.692	12.68
566.033	12.44
566.375	12.44
566.716	12.45
567.058	12.54
567.399	12.67
567.741	12.47
568.082	12.64
568.423	12.5
568.764	12.75
569.105	12.7
569.447	12.61
569.788	12.75
570.129	12.91
570.47	12.82
570.811	12.84
571.151	12.78
571.492	12.67
571.833	12.69
572.174	12.86
572.514	12.91
572.855	12.94
573.195	12.78
573.536	12.9
573.876	12.72
574.217	12.78
574.557	12.71
574.898	12.88
575.238	12.81
575.578	12.9
575.918	12.87
576.258	13.14
576.598	12.79
576.938	12.76
577.278	12.76
577.618	12.93
577.958	12.98
578.298	13.05
578.638	12.95
578.977	13.1
579.317	13.09
579.657	13.21
579.996	13.2
580.336	13.18
580.675	12.99
581.014	13.23
581.354	13.13
581.693	13.27
582.032	13.31
582.372	13.44
582.711	13.35
583.05	13.53
583.389	13.41
583.728	13.46
584.067	13.29
584.406	13.41
584.745	13.6
585.083	13.55
585.422	13.54
585.761	13.53
586.1	13.68
586.438	13.62
586.777	13.69
587.115	13.89
587.454	13.48
587.792	13.61
588.13	13.57
588.469	13.64
588.807	13.73
589.145	13.71
589.483	13.4
589.821	13.6
590.159	13.71
590.497	13.84
590.835	13.7
591.173	13.77
591.511	13.8
591.849	13.82
592.187	13.73
592.524	13.79
592.862	13.95
593.2	13.73
593.537	13.87
593.875	14.09
594.212	13.87
594.55	13.9
594.887	14
595.224	13.98
595.561	13.68
595.899	13.92
596.236	13.99
596.573	13.85
596.91	13.82
597.247	14.05
597.584	14.15
597.921	13.7
598.258	13.74
598.594	13.85
598.931	13.76
599.268	13.79
599.604	13.99
599.941	14.04
600.277	14.09
600.614	13.99
600.95	14.01
601.287	13.91
601.623	14.16
601.959	14.39
602.296	14.27
602.632	13.97
602.968	14.22
603.304	14.17
603.64	14.03
603.976	14.18
604.312	14.29
604.648	14.08
604.984	14.04
605.319	14.21
605.655	14.18
605.991	14.14
606.326	14.25
606.662	13.96
606.998	14.16
607.333	14.04
607.668	14.44
608.004	14.24
608.339	14.13
608.674	14.48
609.01	14.74
609.345	14.29
609.68	14.51
610.015	14.58
610.35	14.35
610.685	14.23
611.02	14.22
611.355	14.25
611.689	14.36
612.024	14.51
612.359	14.44
612.694	14.38
613.028	14.39
613.363	14.69
613.697	14.48
614.032	14.63
614.366	14.61
614.7	14.84
615.035	14.72
615.369	15.01
615.703	14.74
616.037	14.68
616.371	14.78
616.705	14.83
617.039	14.65
617.373	15.22
617.707	14.46
618.041	14.68
618.375	14.74
618.709	14.82
619.042	15.04
619.376	14.74
619.71	14.94
620.043	15.05
620.377	14.85
620.71	14.79
621.043	15.11
621.377	15.21
621.71	15.05
622.043	15.34
622.376	15.14
622.709	15.42
623.043	15.07
623.376	14.85
623.709	15.39
624.041	15.43
624.374	15.03
624.707	15.11
625.04	15.15
625.373	15.22
625.705	15.64
626.038	15.3
626.37	15.2
626.703	15.28
627.035	15.06
627.368	15.49
627.7	15.01
628.032	15
628.365	15.36
628.697	15.35
629.029	14.85
629.361	15.43
629.693	15.26
630.025	15.28
630.357	15.26
630.689	15.45
631.021	15.36
631.353	15.51
631.684	15.27
632.016	15
632.348	15.46
632.679	15.47
633.011	15.52
633.342	15.6
633.674	15.27
634.005	15.52
634.336	15.34
634.668	15.43
634.999	15.69
635.33	15.65
635.661	15.59
635.992	15.45
636.323	15.58
636.654	15.8
636.985	15.59
637.316	15.52
637.647	15.98
637.977	15.64
638.308	15.97
638.639	15.42
638.969	15.72
639.3	15.89
639.63	15.71
639.961	15.92
640.291	15.65
640.622	16.1
640.952	15.67
641.282	15.9
641.612	15.95
641.943	15.89
642.273	15.87
642.603	15.98
642.933	16.04
643.263	16.04
643.592	16.26
643.922	16.43
644.252	16.02
644.582	16.01
644.911	15.98
645.241	15.65
645.571	15.85
645.9	16.17
646.23	16.38
646.559	15.8
646.888	16.19
647.218	16.14
647.547	16.15
647.876	16.47
648.205	16.09
648.534	16.15
648.863	15.32
649.192	16.2
649.521	15.95
649.85	16.43
650.179	16.43
650.508	16.09
650.837	16.51
651.165	16.11
651.494	16.29
651.822	16.64
652.151	16.11
652.479	16.22
652.808	16.25
653.136	15.98
653.465	16.4
653.793	16.63
654.121	16.28
654.449	15.93
654.777	15.96
655.105	16.26
655.433	16.19
655.761	16.43
656.089	16.45
656.417	16.88
656.745	16.82
657.073	16.16
657.4	16.52
657.728	15.82
658.056	16.35
658.383	16.47
658.711	17.06
659.038	16.91
659.365	16.54
659.693	16.72
660.02	16.46
660.347	16.14
660.674	16.4
661.001	16.56
661.329	16.55
661.656	16.36
661.982	16.81
662.309	16.4
662.636	16.76
662.963	17.2
663.29	16.96
663.616	16.69
663.943	16.93
664.27	16.57
664.596	16.94
664.923	16.97
665.249	16.94
665.576	16.94
665.902	16.97
666.228	16.91
666.554	17.29
666.881	16.91
667.207	17.17
667.533	16.58
667.859	16.81
668.185	16.98
668.511	17.36
668.837	17.38
669.162	17.2
669.488	16.84
669.814	16.74
670.139	16.61
670.465	17.63
670.791	16.76
671.116	17.28
671.442	16.42
671.767	17.27
672.092	17.03
672.418	17.01
672.743	17.06
673.068	16.54
673.393	17.49
673.718	17.38
674.043	17.18
674.368	17.04
674.693	17.13
675.018	17.28
675.343	17.67
675.667	17.05
675.992	17.3
676.317	17.21
676.641	17.52
676.966	17.06
677.29	16.96
677.615	16.97
677.939	17.71
678.264	17.23
678.588	17.34
678.912	17.13
679.236	17.42
679.56	17.2
