Data from 21-3_forehead_Reflection__2__117.txt Node

Date: Thu Dec 15 17:23:40 CST 2022
User: ToomeyLab
Spectrometer: FLMS14357
Trigger mode: 0
Integration Time (sec): 1.000000E-2
Scans to average: 100
Electric dark correction enabled: true
Nonlinearity correction enabled: false
Boxcar width: 0
XAxis mode: Wavelengths
Number of Pixels in Spectrum: 2048
>>>>>Begin Spectral Data<<<<<
189.047	481.45
189.435	481.45
189.823	481.45
190.211	638.54
190.599	61.45
190.987	-16.61
191.375	88.16
191.763	-81.42
192.151	-1065.48
192.538	89.83
192.926	28.22
193.314	102.58
193.702	-38.59
194.089	127.02
194.477	-297.5
194.864	50.22
195.252	-57.19
195.639	172.72
196.027	25.79
196.414	-149.36
196.801	29.05
197.189	115.85
197.576	-323.51
197.963	-337.67
198.351	1.72
198.738	-79.95
199.125	-81.25
199.512	40.54
199.899	-35.11
200.286	33.83
200.673	29.58
201.06	38.94
201.447	17.36
201.833	20.61
202.22	16.74
202.607	31.55
202.994	5.29
203.38	83.74
203.767	27.37
204.154	-0.36
204.54	57.22
204.927	28.77
205.313	45.52
205.699	31.34
206.086	28.14
206.472	21.28
206.858	14.89
207.245	7.63
207.631	37.19
208.017	41.38
208.403	-17.71
208.789	31.55
209.175	-14.07
209.561	-102.27
209.947	12.14
210.333	-9.69
210.719	41.54
211.105	17.47
211.491	16.15
211.876	5.98
212.262	27.2
212.648	13.72
213.034	6.16
213.419	-4.87
213.805	-33.2
214.19	-22.39
214.576	-1.69
214.961	7.62
215.346	-35.51
215.732	4.04
216.117	14.04
216.502	-10.1
216.888	-6.87
217.273	30.75
217.658	-20.38
218.043	-15.89
218.428	-9.12
218.813	8.06
219.198	-8.42
219.583	16.19
219.968	-2.4
220.353	4.43
220.738	12.16
221.122	0.37
221.507	-0.59
221.892	-10.66
222.276	-13.07
222.661	-7.57
223.046	1.94
223.43	7.47
223.815	-7.48
224.199	1.47
224.583	-2.92
224.968	4.16
225.352	-2.09
225.736	7.86
226.121	7.64
226.505	-4.36
226.889	4.36
227.273	-2.02
227.657	7.37
228.041	5.8
228.425	1.26
228.809	0.55
229.193	2.92
229.577	1.68
229.961	1.48
230.344	3.02
230.728	2.86
231.112	2.48
231.495	1.15
231.879	0.94
232.263	2.19
232.646	2.91
233.03	3.91
233.413	1.94
233.797	0.3
234.18	1.93
234.563	1.54
234.946	-0.36
235.33	1.76
235.713	2.7
236.096	2.65
236.479	3.08
236.862	2.55
237.245	0.74
237.628	1.19
238.011	2.45
238.394	1.66
238.777	2.74
239.16	4.25
239.543	2.23
239.925	2.89
240.308	-0
240.691	0.07
241.073	1.49
241.456	3.91
241.838	2.48
242.221	2.37
242.603	2.98
242.986	3.2
243.368	2.27
243.75	2.62
244.133	2.8
244.515	2.85
244.897	2.39
245.279	3.1
245.661	3.11
246.043	2.92
246.425	2.73
246.807	2.97
247.189	2.69
247.571	2.68
247.953	2.47
248.335	2.71
248.717	2.66
249.098	2.69
249.48	2.22
249.862	2.9
250.243	2.53
250.625	2.93
251.006	3.35
251.388	2.57
251.769	1.83
252.151	3.12
252.532	2.04
252.913	2.62
253.295	2.49
253.676	2.51
254.057	2.88
254.438	2.83
254.819	2.19
255.2	2.81
255.581	3.74
255.962	4.69
256.343	2.94
256.724	2.91
257.105	2.53
257.486	2.51
257.867	2.2
258.247	2.38
258.628	2.93
259.009	2.62
259.389	2.24
259.77	2.79
260.15	3.33
260.531	2.46
260.911	2.53
261.292	2.73
261.672	2.69
262.052	2.66
262.432	2.39
262.813	2.99
263.193	2.79
263.573	2.39
263.953	1.98
264.333	3.05
264.713	2.98
265.093	2.11
265.473	1.95
265.853	3.15
266.233	2.37
266.612	1.78
266.992	2.14
267.372	2.76
267.752	3.25
268.131	2.78
268.511	2.45
268.89	2.93
269.27	1.71
269.649	2.22
270.029	2.59
270.408	2.47
270.787	2.61
271.167	2.57
271.546	3.37
271.925	2.69
272.304	2.7
272.683	2.34
273.062	2.17
273.441	2.16
273.82	2.59
274.199	2.41
274.578	2.37
274.957	2.57
275.336	2.66
275.715	2.85
276.093	2.39
276.472	1.76
276.851	2.64
277.229	1.98
277.608	2.51
277.986	2.64
278.365	2.45
278.743	2.22
279.122	1.73
279.5	2.24
279.878	2.39
280.257	2.06
280.635	2.63
281.013	2.01
281.391	2.1
281.769	2.94
282.147	2.44
282.525	1.91
282.903	2.03
283.281	2.73
283.659	2.81
284.037	2.14
284.415	2.6
284.792	2.68
285.17	2.03
285.548	2.41
285.925	2.48
286.303	2.77
286.68	2.47
287.058	2.55
287.435	2.32
287.813	2.47
288.19	2.26
288.567	2.6
288.945	2.17
289.322	2.73
289.699	2.73
290.076	2.17
290.453	2.2
290.83	2.84
291.207	2.69
291.584	2.72
291.961	2.76
292.338	2.3
292.715	2.43
293.092	2.51
293.469	2.53
293.845	2.47
294.222	3.15
294.599	2.38
294.975	1.99
295.352	2.62
295.728	2.59
296.105	2.7
296.481	2.93
296.858	2.58
297.234	2.63
297.61	2.92
297.986	2.89
298.363	3.06
298.739	3.04
299.115	2.77
299.491	3.05
299.867	2.49
300.243	2.9
300.619	2.41
300.995	2.62
301.371	3.01
301.746	3.35
302.122	2.43
302.498	2.99
302.874	3.31
303.249	2.7
303.625	2.79
304	3.73
304.376	3.64
304.751	3.06
305.127	3.14
305.502	3.21
305.878	3.74
306.253	3.09
306.628	3.35
307.003	3.14
307.378	2.98
307.754	3.83
308.129	3.29
308.504	3.34
308.879	3.68
309.254	3.79
309.629	3.18
310.003	3.3
310.378	3.18
310.753	3.57
311.128	3.36
311.502	3.42
311.877	3.59
312.252	3.47
312.626	3.5
313.001	3.6
313.375	3.81
313.75	3.5
314.124	3.91
314.498	3.71
314.873	3.61
315.247	3.16
315.621	3.63
315.995	3.47
316.369	3.61
316.743	3.32
317.117	3.51
317.491	3.69
317.865	3.46
318.239	4.04
318.613	3.71
318.987	3.28
319.361	3.95
319.734	3.76
320.108	3.68
320.482	4.3
320.855	3.89
321.229	3.78
321.602	3.7
321.976	3.4
322.349	4.73
322.723	3.8
323.096	4.3
323.469	3.88
323.843	3.52
324.216	3.77
324.589	3.76
324.962	4.1
325.335	3.81
325.708	3.62
326.081	4.04
326.454	3.95
326.827	4.1
327.2	3.79
327.573	4.62
327.945	3.87
328.318	4.32
328.691	4.09
329.063	3.89
329.436	3.82
329.809	4.41
330.181	4.94
330.553	4.68
330.926	4.39
331.298	4.09
331.671	4.12
332.043	4.2
332.415	4.56
332.787	4.64
333.159	4.13
333.532	4.28
333.904	5.04
334.276	4.76
334.648	4.09
335.02	4.24
335.391	3.96
335.763	4.59
336.135	4.53
336.507	4.1
336.879	4.52
337.25	4.06
337.622	4.88
337.993	4.7
338.365	4.67
338.736	4.26
339.108	4.7
339.479	4.08
339.851	4.78
340.222	5
340.593	4.51
340.964	4.68
341.336	4.5
341.707	4.6
342.078	3.89
342.449	4.55
342.82	4.87
343.191	4.7
343.562	4.43
343.933	4.24
344.303	4.51
344.674	4.44
345.045	4.8
345.416	5.03
345.786	4.62
346.157	4.69
346.527	4.39
346.898	3.96
347.268	4.64
347.639	4.34
348.009	4.86
348.38	4.62
348.75	4.87
349.12	4.75
349.49	4.72
349.861	5.21
350.231	4.59
350.601	4.81
350.971	4.6
351.341	4.68
351.711	4.77
352.081	4.7
352.45	4.37
352.82	4.56
353.19	4.44
353.56	4.7
353.929	4.64
354.299	4.78
354.669	4.95
355.038	5.35
355.408	4.66
355.777	4.7
356.147	4.72
356.516	4.62
356.885	4.87
357.254	4.66
357.624	4.8
357.993	4.85
358.362	4.76
358.731	5.34
359.1	4.86
359.469	5.11
359.838	4.98
360.207	5.07
360.576	5.3
360.945	5.18
361.314	4.69
361.682	4.96
362.051	5.07
362.42	5.01
362.788	5.14
363.157	4.74
363.525	4.96
363.894	4.97
364.262	5.14
364.631	5.1
364.999	5.14
365.367	4.92
365.735	5.31
366.104	4.97
366.472	5.02
366.84	5.18
367.208	5.31
367.576	5.11
367.944	5.16
368.312	5.05
368.68	5.62
369.048	4.98
369.416	5.29
369.783	5.18
370.151	5.26
370.519	5.85
370.886	5.37
371.254	5.74
371.621	5.53
371.989	5.5
372.356	5.13
372.724	5.07
373.091	5.15
373.458	5.47
373.826	5.68
374.193	5.45
374.56	5.2
374.927	5.17
375.294	5.69
375.661	5.58
376.028	5.56
376.395	5.46
376.762	5.02
377.129	5.19
377.496	5.61
377.863	5.34
378.229	5.64
378.596	5.69
378.963	5.46
379.329	5.62
379.696	5.45
380.062	5.56
380.429	5.6
380.795	5.71
381.161	5.31
381.528	5.29
381.894	5.33
382.26	5.57
382.626	5.66
382.993	5.6
383.359	5.45
383.725	5.31
384.091	5.5
384.457	5.35
384.823	5.44
385.188	5.61
385.554	5.64
385.92	5.59
386.286	5.85
386.651	5.67
387.017	5.78
387.383	5.62
387.748	5.85
388.114	5.88
388.479	5.74
388.845	5.56
389.21	5.84
389.575	5.76
389.94	5.92
390.306	5.67
390.671	5.65
391.036	5.91
391.401	5.68
391.766	5.96
392.131	5.81
392.496	5.8
392.861	5.66
393.226	5.6
393.591	5.77
393.956	5.88
394.32	5.87
394.685	5.88
395.05	5.81
395.414	5.87
395.779	5.84
396.143	5.53
396.508	5.7
396.872	5.81
397.236	5.89
397.601	6.01
397.965	5.8
398.329	5.65
398.694	5.81
399.058	5.48
399.422	5.63
399.786	5.47
400.15	5.78
400.514	5.87
400.878	5.94
401.242	5.72
401.605	5.72
401.969	5.91
402.333	5.71
402.697	6.05
403.06	5.78
403.424	5.97
403.787	5.61
404.151	5.69
404.514	5.87
404.878	5.53
405.241	5.78
405.604	5.67
405.968	5.91
406.331	5.93
406.694	5.78
407.057	5.7
407.42	5.77
407.783	5.88
408.146	5.72
408.509	6.14
408.872	5.83
409.235	6
409.598	5.84
409.961	5.92
410.323	6.02
410.686	5.76
411.049	5.89
411.411	5.81
411.774	5.71
412.136	5.71
412.499	6.08
412.861	5.67
413.223	5.9
413.586	6.01
413.948	6.22
414.31	5.89
414.672	5.82
415.035	6.09
415.397	5.71
415.759	5.76
416.121	6.13
416.483	5.86
416.845	5.88
417.206	5.87
417.568	5.93
417.93	5.86
418.292	5.81
418.653	5.68
419.015	5.86
419.377	5.79
419.738	5.9
420.1	5.87
420.461	5.72
420.822	5.95
421.184	5.94
421.545	6.05
421.906	5.99
422.267	5.88
422.629	5.95
422.99	5.96
423.351	5.88
423.712	5.99
424.073	6.18
424.434	6.19
424.795	6.1
425.155	6.1
425.516	6.03
425.877	6.21
426.238	6.14
426.598	6.19
426.959	6.25
427.32	6.25
427.68	6.34
428.041	6.5
428.401	6.29
428.761	6.45
429.122	6.49
429.482	6.44
429.842	6.43
430.202	6.5
430.563	6.61
430.923	6.54
431.283	6.68
431.643	6.72
432.003	6.6
432.363	6.83
432.722	6.65
433.082	6.78
433.442	6.82
433.802	6.64
434.161	6.81
434.521	6.8
434.881	6.74
435.24	6.79
435.6	6.87
435.959	6.82
436.319	7.06
436.678	6.88
437.037	6.92
437.396	6.85
437.756	6.94
438.115	6.96
438.474	7.07
438.833	7.13
439.192	7.15
439.551	7.11
439.91	7.15
440.269	7.05
440.628	7.04
440.987	7.08
441.345	7
441.704	7.1
442.063	7.06
442.421	7.02
442.78	7
443.138	7.14
443.497	7.08
443.855	7.37
444.214	7.04
444.572	7.3
444.93	7.3
445.288	7.19
445.647	7.15
446.005	7.33
446.363	7.4
446.721	7.37
447.079	7.25
447.437	7.36
447.795	7.33
448.153	7.32
448.51	7.42
448.868	7.31
449.226	7.44
449.584	7.39
449.941	7.6
450.299	7.53
450.656	7.55
451.014	7.64
451.371	7.71
451.729	7.55
452.086	7.71
452.443	7.62
452.801	7.7
453.158	7.89
453.515	7.6
453.872	7.73
454.229	7.63
454.586	7.77
454.943	7.91
455.3	7.82
455.657	7.85
456.014	7.91
456.371	7.96
456.727	8.18
457.084	8.06
457.441	8.04
457.797	8.02
458.154	7.99
458.51	8.01
458.867	7.99
459.223	7.94
459.58	8.04
459.936	7.99
460.292	7.84
460.648	7.87
461.005	7.87
461.361	7.9
461.717	7.89
462.073	7.98
462.429	8.14
462.785	8.25
463.141	8.18
463.496	8.19
463.852	8.33
464.208	8.27
464.564	8.17
464.919	8.41
465.275	8.32
465.631	8.54
465.986	8.4
466.342	8.38
466.697	8.42
467.052	8.52
467.408	8.59
467.763	8.47
468.118	8.35
468.473	8.43
468.829	8.53
469.184	8.54
469.539	8.6
469.894	8.68
470.249	8.57
470.603	8.66
470.958	8.86
471.313	8.62
471.668	8.6
472.023	8.68
472.377	8.73
472.732	8.75
473.086	8.71
473.441	8.86
473.795	8.98
474.15	8.64
474.504	8.72
474.859	8.71
475.213	8.98
475.567	8.86
475.921	8.98
476.275	9
476.63	8.93
476.984	8.8
477.338	8.98
477.692	8.9
478.045	8.9
478.399	8.85
478.753	8.99
479.107	8.94
479.461	8.88
479.814	8.88
480.168	8.94
480.521	9.07
480.875	9.13
481.228	9.03
481.582	9.01
481.935	9.11
482.289	9
482.642	9.17
482.995	9.05
483.348	8.91
483.701	8.92
484.055	8.96
484.408	8.87
484.761	8.66
485.114	8.54
485.466	8.51
485.819	8.54
486.172	8.61
486.525	8.74
486.878	8.82
487.23	8.95
487.583	9.02
487.936	8.92
488.288	8.88
488.641	8.82
488.993	8.8
489.345	8.78
489.698	8.84
490.05	8.86
490.402	8.92
490.754	9
491.107	9.2
491.459	9.27
491.811	9.24
492.163	9.27
492.515	9.11
492.866	8.98
493.218	8.98
493.57	9.09
493.922	9.13
494.274	9.28
494.625	9.39
494.977	9.35
495.328	9.54
495.68	9.57
496.031	9.51
496.383	9.6
496.734	9.59
497.086	9.7
497.437	9.77
497.788	9.59
498.139	9.59
498.49	9.64
498.842	9.68
499.193	9.7
499.544	9.71
499.894	9.69
500.245	9.8
500.596	9.82
500.947	9.87
501.298	9.85
501.648	9.88
501.999	9.93
502.35	9.79
502.7	10.18
503.051	9.96
503.401	10.05
503.752	9.86
504.102	10.15
504.452	10.12
504.803	10.09
505.153	10.13
505.503	10.01
505.853	10.24
506.203	10.12
506.553	10.12
506.903	10.14
507.253	10.12
507.603	10.12
507.953	10.15
508.303	10.24
508.652	10.07
509.002	10.17
509.352	10.14
509.701	10
510.051	10.17
510.4	10.16
510.75	10.09
511.099	10.04
511.449	10.21
511.798	10.26
512.147	10.22
512.496	10.24
512.846	10.28
513.195	10.23
513.544	10.19
513.893	10.25
514.242	10.18
514.591	10.25
514.939	10.4
515.288	10.43
515.637	10.29
515.986	10.4
516.334	10.43
516.683	10.43
517.032	10.56
517.38	10.43
517.729	10.49
518.077	10.5
518.426	10.54
518.774	10.49
519.122	10.46
519.47	10.4
519.819	10.45
520.167	10.31
520.515	10.32
520.863	10.33
521.211	10.4
521.559	10.35
521.907	10.58
522.255	10.5
522.602	10.63
522.95	10.56
523.298	10.65
523.645	10.78
523.993	10.78
524.341	10.65
524.688	10.76
525.036	10.76
525.383	10.74
525.73	10.77
526.078	10.77
526.425	10.53
526.772	10.57
527.119	10.57
527.466	10.6
527.814	10.56
528.161	10.56
528.508	10.62
528.854	10.58
529.201	10.44
529.548	10.37
529.895	10.23
530.242	10.18
530.588	10.27
530.935	10.32
531.282	10.35
531.628	10.45
531.975	10.55
532.321	10.61
532.667	10.76
533.014	10.91
533.36	10.84
533.706	10.8
534.052	10.75
534.399	10.66
534.745	10.52
535.091	10.49
535.437	10.61
535.783	10.67
536.129	10.8
536.474	10.97
536.82	10.96
537.166	10.83
537.512	10.97
537.857	10.96
538.203	10.87
538.549	10.88
538.894	11.03
539.239	10.97
539.585	11.08
539.93	11.23
540.276	11.26
540.621	11.27
540.966	11.25
541.311	11.42
541.656	11.15
542.001	11.12
542.346	11.04
542.691	10.74
543.036	10.84
543.381	10.94
543.726	10.89
544.071	10.99
544.415	11.03
544.76	11.06
545.105	11.24
545.449	11.11
545.794	11.31
546.138	11.38
546.483	11.5
546.827	11.37
547.171	11.33
547.516	11.5
547.86	11.38
548.204	11.39
548.548	11.38
548.892	11.54
549.236	11.55
549.58	11.58
549.924	11.78
550.268	11.69
550.612	11.77
550.956	11.91
551.3	12.1
551.643	11.98
551.987	12.14
552.33	12.02
552.674	11.8
553.017	12.04
553.361	12.07
553.704	12.04
554.048	11.96
554.391	11.97
554.734	11.94
555.077	11.91
555.42	11.95
555.764	12.08
556.107	12.15
556.45	12.07
556.793	12.27
557.135	12.17
557.478	12.22
557.821	12.21
558.164	12.33
558.507	12.39
558.849	12.53
559.192	12.37
559.534	12.21
559.877	12.26
560.219	12.23
560.562	12.38
560.904	12.42
561.246	12.27
561.589	12.4
561.931	12.35
562.273	12.49
562.615	12.48
562.957	12.43
563.299	12.44
563.641	12.49
563.983	12.37
564.325	12.54
564.667	12.51
565.008	12.41
565.35	12.37
565.692	12.64
566.033	12.66
566.375	12.48
566.716	12.56
567.058	12.46
567.399	12.66
567.741	12.51
568.082	12.47
568.423	12.46
568.764	12.55
569.105	12.48
569.447	12.53
569.788	12.62
570.129	12.66
570.47	12.79
570.811	12.58
571.151	12.77
571.492	12.67
571.833	12.7
572.174	12.87
572.514	12.69
572.855	12.78
573.195	12.73
573.536	12.86
573.876	12.76
574.217	12.73
574.557	12.7
574.898	12.91
575.238	12.88
575.578	12.93
575.918	12.93
576.258	13.06
576.598	12.8
576.938	12.85
577.278	13.04
577.618	12.81
577.958	12.92
578.298	13.13
578.638	13.06
578.977	13.16
579.317	13.3
579.657	13.12
579.996	13.29
580.336	13.25
580.675	13.42
581.014	13.47
581.354	13.25
581.693	13.27
582.032	13.48
582.372	13.53
582.711	13.65
583.05	13.25
583.389	13.53
583.728	13.67
584.067	13.38
584.406	13.77
584.745	13.53
585.083	13.67
585.422	13.45
585.761	13.9
586.1	13.71
586.438	13.62
586.777	13.74
587.115	13.57
587.454	13.62
587.792	13.87
588.13	13.89
588.469	13.87
588.807	13.74
589.145	13.88
589.483	13.71
589.821	13.99
590.159	13.84
590.497	13.66
590.835	13.87
591.173	13.97
591.511	13.84
591.849	14.23
592.187	13.73
592.524	14.03
592.862	13.51
593.2	13.86
593.537	13.96
593.875	14
594.212	14.06
594.55	13.85
594.887	14.05
595.224	14.04
595.561	13.93
595.899	13.93
596.236	13.99
596.573	14.12
596.91	14.3
597.247	14.1
597.584	14.07
597.921	14.15
598.258	14.08
598.594	14.02
598.931	14
599.268	13.88
599.604	14.05
599.941	14.28
600.277	14.13
600.614	14.27
600.95	14.17
601.287	14.18
601.623	14.23
601.959	14.71
602.296	14.41
602.632	14.32
602.968	14.59
603.304	14.24
603.64	14.4
603.976	14.23
604.312	14.4
604.648	14.19
604.984	14.45
605.319	14.35
605.655	14.14
605.991	14.08
606.326	14.43
606.662	14.24
606.998	14.54
607.333	14.49
607.668	14.57
608.004	14.5
608.339	14.4
608.674	14.69
609.01	14.9
609.345	14.6
609.68	14.69
610.015	14.48
610.35	14.56
610.685	14.22
611.02	14.66
611.355	14.55
611.689	14.64
612.024	14.72
612.359	14.78
612.694	14.93
613.028	14.56
613.363	14.91
613.697	14.78
614.032	14.9
614.366	14.84
614.7	15.14
615.035	15
615.369	15.1
615.703	14.95
616.037	14.79
616.371	15.25
616.705	15.36
617.039	15.54
617.373	15.42
617.707	15.18
618.041	15.18
618.375	14.83
618.709	15.39
619.042	15.28
619.376	15.24
619.71	15.27
620.043	15.35
620.377	15.45
620.71	15.14
621.043	15.34
621.377	15.18
621.71	15.49
622.043	15.65
622.376	15.3
622.709	15.89
623.043	15.53
623.376	15.34
623.709	15.72
624.041	15.29
624.374	15.37
624.707	15.79
625.04	15.87
625.373	15.34
625.705	15.85
626.038	15.56
626.37	15.62
626.703	15.61
627.035	15.3
627.368	15.86
627.7	15.6
628.032	15.87
628.365	15.62
628.697	15.61
629.029	15.45
629.361	15.91
629.693	15.64
630.025	15.51
630.357	15.81
630.689	15.63
631.021	15.68
631.353	15.72
631.684	15.59
632.016	15.42
632.348	15.99
632.679	15.96
633.011	16.02
633.342	16.07
633.674	15.76
634.005	16.11
634.336	16.13
634.668	16.14
634.999	15.75
635.33	15.89
635.661	16.03
635.992	16.16
636.323	16.04
636.654	16.08
636.985	15.92
637.316	16.11
637.647	16.13
637.977	16.21
638.308	16.36
638.639	16.41
638.969	16.07
639.3	16.35
639.63	16.24
639.961	16.55
640.291	16.43
640.622	16.55
640.952	16.27
641.282	16.05
641.612	16.04
641.943	16.35
642.273	16.37
642.603	16.71
642.933	16.69
643.263	16.79
643.592	16.68
643.922	16.41
644.252	16.44
644.582	16.81
644.911	16.78
645.241	16.18
645.571	16.77
645.9	16.7
646.23	16.6
646.559	16.46
646.888	16.96
647.218	16.77
647.547	16.78
647.876	16.89
648.205	16.55
648.534	16.71
648.863	17.05
649.192	17.12
649.521	17.01
649.85	17.14
650.179	17.4
650.508	16.63
650.837	17.09
651.165	16.55
651.494	17.15
651.822	17.11
652.151	16.39
652.479	17.12
652.808	17.21
653.136	16.71
653.465	16.87
653.793	16.79
654.121	17.04
654.449	16.85
654.777	16.84
655.105	16.37
655.433	17.75
655.761	17.07
656.089	17.09
656.417	17.12
656.745	17.66
657.073	17.09
657.4	17.17
657.728	17.52
658.056	17.23
658.383	16.87
658.711	17.34
659.038	17.28
659.365	17.64
659.693	16.88
660.02	17.11
660.347	17.56
660.674	16.75
661.001	16.87
661.329	17.4
661.656	17.07
661.982	17.12
662.309	17.44
662.636	17.28
662.963	17.15
663.29	17.94
663.616	17.16
663.943	17.61
664.27	17.79
664.596	17.53
664.923	17.99
665.249	18.15
665.576	17.93
665.902	17.28
666.228	18.02
666.554	18.19
666.881	17.52
667.207	17.43
667.533	17.49
667.859	17.52
668.185	18.07
668.511	18.18
668.837	17.97
669.162	18.25
669.488	17.42
669.814	17.84
670.139	18.04
670.465	17.75
670.791	17.43
671.116	17.67
671.442	17.29
671.767	17.97
672.092	17.6
672.418	17.84
672.743	17.73
673.068	17.6
673.393	18.07
673.718	17.87
674.043	17.53
674.368	18.04
674.693	18.23
675.018	18.55
675.343	18.31
675.667	18.36
675.992	18.17
676.317	17.66
676.641	18.18
676.966	18.39
677.29	18.19
677.615	18.07
677.939	18.55
678.264	17.88
678.588	18.74
678.912	18.34
679.236	18.3
679.56	17.96
679.885	18.06
680.209	18.76
