Data from 21-3_crown_Reflection__3__113.txt Node

Date: Thu Dec 15 17:22:14 CST 2022
User: ToomeyLab
Spectrometer: FLMS14357
Trigger mode: 0
Integration Time (sec): 1.000000E-2
Scans to average: 100
Electric dark correction enabled: true
Nonlinearity correction enabled: false
Boxcar width: 0
XAxis mode: Wavelengths
Number of Pixels in Spectrum: 2048
>>>>>Begin Spectral Data<<<<<
189.047	-98.02
189.435	-98.02
189.823	-98.02
190.211	359.15
190.599	148.76
190.987	289.12
191.375	41.97
191.763	32.53
192.151	71.17
192.538	93.32
192.926	13.39
193.314	26.5
193.702	-154.35
194.089	96.29
194.477	-469.13
194.864	43.7
195.252	-13.8
195.639	217.09
196.027	-68.05
196.414	-110.46
196.801	60.32
197.189	68.43
197.576	-17.75
197.963	-73.03
198.351	24.46
198.738	-108.72
199.125	-77.08
199.512	38.37
199.899	12.82
200.286	22.21
200.673	38.56
201.06	5.95
201.447	23.5
201.833	27.19
202.22	56.07
202.607	-12.78
202.994	-16.38
203.38	23.18
203.767	-7.49
204.154	31.12
204.54	20.61
204.927	14.27
205.313	20.03
205.699	15.44
206.086	12.72
206.472	54.02
206.858	36.1
207.245	-0.19
207.631	14.57
208.017	25.52
208.403	-52.03
208.789	-2.67
209.175	-2.24
209.561	-108.27
209.947	11.24
210.333	-6.12
210.719	-2.77
211.105	45.57
211.491	1.24
211.876	-10.4
212.262	31.5
212.648	9.73
213.034	-4.16
213.419	-19.69
213.805	-24.82
214.19	-31.46
214.576	5.59
214.961	9.69
215.346	7.53
215.732	12.46
216.117	7.64
216.502	-8.12
216.888	-3.17
217.273	20.98
217.658	9.19
218.043	6.19
218.428	19.44
218.813	8.25
219.198	-24.67
219.583	3.33
219.968	17.49
220.353	-12.99
220.738	0.03
221.122	6.29
221.507	4.92
221.892	-31.61
222.276	-13.33
222.661	-0.91
223.046	-27.23
223.43	19.63
223.815	10.72
224.199	5.66
224.583	5.17
224.968	-3.37
225.352	-13.58
225.736	5.04
226.121	-1.44
226.505	-5.61
226.889	3.23
227.273	-2.8
227.657	5.55
228.041	3.98
228.425	-2.44
228.809	1.69
229.193	4.6
229.577	2.8
229.961	4.15
230.344	4.62
230.728	4.89
231.112	4.4
231.495	3.57
231.879	4.12
232.263	4.06
232.646	2.9
233.03	4.55
233.413	4.24
233.797	2.01
234.18	3.13
234.563	3.81
234.946	1.12
235.33	4.28
235.713	4.63
236.096	5.64
236.479	5.21
236.862	0.96
237.245	3.81
237.628	5.26
238.011	4.49
238.394	2.43
238.777	4.27
239.16	3.7
239.543	4.94
239.925	4.68
240.308	1.55
240.691	3.95
241.073	4.11
241.456	4.21
241.838	3.38
242.221	4.11
242.603	4.42
242.986	3.93
243.368	4.45
243.75	4.39
244.133	4.67
244.515	3.67
244.897	3.73
245.279	3.58
245.661	4.15
246.043	4.09
246.425	6
246.807	4.06
247.189	4.29
247.571	3.63
247.953	3.85
248.335	4.07
248.717	4.04
249.098	4.23
249.48	4.25
249.862	4.32
250.243	4.31
250.625	4.01
251.006	4.45
251.388	3.97
251.769	3.23
252.151	3.71
252.532	3.74
252.913	4.53
253.295	3.96
253.676	4.01
254.057	3.61
254.438	4.37
254.819	3.85
255.2	3.69
255.581	4.56
255.962	4.38
256.343	4.8
256.724	4.02
257.105	3.76
257.486	3.4
257.867	2.36
258.247	4.6
258.628	3.79
259.009	4.07
259.389	3.04
259.77	3.47
260.15	4.43
260.531	4.07
260.911	3.73
261.292	3.94
261.672	3.81
262.052	3.72
262.432	3.59
262.813	3.75
263.193	3.58
263.573	3.25
263.953	3.28
264.333	3.63
264.713	3.87
265.093	3.46
265.473	3.47
265.853	4.03
266.233	3.58
266.612	3.53
266.992	3.71
267.372	3.93
267.752	4.43
268.131	3.81
268.511	3.93
268.89	4.57
269.27	3.35
269.649	3.78
270.029	3.56
270.408	3.33
270.787	3.76
271.167	4.16
271.546	4.84
271.925	3.81
272.304	3.34
272.683	3.34
273.062	3.24
273.441	2.99
273.82	3.61
274.199	3.34
274.578	3.99
274.957	3.5
275.336	4.14
275.715	3.63
276.093	3.19
276.472	3.06
276.851	3.2
277.229	3.14
277.608	3.04
277.986	4.05
278.365	3.91
278.743	3.37
279.122	3.18
279.5	3.06
279.878	3.31
280.257	3.6
280.635	3.18
281.013	3.46
281.391	2.95
281.769	3.8
282.147	3.36
282.525	3.07
282.903	3.12
283.281	3.79
283.659	3.84
284.037	3.39
284.415	3.73
284.792	3.85
285.17	3.3
285.548	2.96
285.925	3.09
286.303	3.57
286.68	3.61
287.058	3.59
287.435	3.46
287.813	3.48
288.19	3.53
288.567	3.14
288.945	3.19
289.322	3.91
289.699	3.67
290.076	3.22
290.453	2.99
290.83	3.45
291.207	3.54
291.584	3.4
291.961	3.31
292.338	3.31
292.715	3.09
293.092	4.05
293.469	3.43
293.845	3.27
294.222	3.69
294.599	3.88
294.975	2.92
295.352	3.39
295.728	3.88
296.105	3.5
296.481	3.58
296.858	3.85
297.234	3.16
297.61	3.35
297.986	3.79
298.363	3.54
298.739	3.54
299.115	3.39
299.491	3.49
299.867	3.36
300.243	2.82
300.619	3.06
300.995	3.24
301.371	3.39
301.746	3.74
302.122	2.85
302.498	3.38
302.874	3.17
303.249	3.6
303.625	2.92
304	3.63
304.376	3.88
304.751	3.89
305.127	3.42
305.502	3.24
305.878	3.55
306.253	3.27
306.628	3.66
307.003	3.34
307.378	3.44
307.754	3.22
308.129	3.1
308.504	3.15
308.879	3.26
309.254	3.96
309.629	3.25
310.003	2.78
310.378	3.43
310.753	3.17
311.128	3.09
311.502	3.39
311.877	2.98
312.252	3.33
312.626	3.59
313.001	3.68
313.375	3.51
313.75	3.33
314.124	3.54
314.498	3.45
314.873	3.32
315.247	3.5
315.621	2.96
315.995	3.25
316.369	2.82
316.743	3.13
317.117	3.53
317.491	3.34
317.865	2.69
318.239	3.37
318.613	3.03
318.987	2.89
319.361	2.94
319.734	2.9
320.108	2.85
320.482	3.59
320.855	3.21
321.229	3.17
321.602	3.25
321.976	2.92
322.349	4.1
322.723	3.15
323.096	2.89
323.469	3.33
323.843	2.9
324.216	3.08
324.589	3.51
324.962	2.96
325.335	2.81
325.708	3.13
326.081	3.14
326.454	3.51
326.827	3.24
327.2	2.8
327.573	3.53
327.945	2.77
328.318	2.85
328.691	3.13
329.063	2.87
329.436	2.86
329.809	3.4
330.181	3.67
330.553	3.74
330.926	3.42
331.298	3.04
331.671	3.17
332.043	3.41
332.415	3.69
332.787	3.79
333.159	3
333.532	3.24
333.904	3.17
334.276	3.6
334.648	3.19
335.02	3.47
335.391	3.1
335.763	2.93
336.135	3.19
336.507	2.81
336.879	3.54
337.25	3.2
337.622	3.53
337.993	3.8
338.365	3.61
338.736	3.34
339.108	3.41
339.479	3.06
339.851	3.42
340.222	3.48
340.593	3.35
340.964	3.24
341.336	2.95
341.707	3.34
342.078	3.34
342.449	3.19
342.82	3.06
343.191	3.09
343.562	2.83
343.933	3.14
344.303	3.19
344.674	3.33
345.045	3.61
345.416	3.62
345.786	3.3
346.157	3.72
346.527	3.26
346.898	2.77
347.268	3.22
347.639	3
348.009	3.1
348.38	3.22
348.75	3.32
349.12	3.4
349.49	3.39
349.861	3.17
350.231	3.25
350.601	3.6
350.971	3.22
351.341	3.51
351.711	3.35
352.081	3.16
352.45	2.96
352.82	2.71
353.19	3.41
353.56	3
353.929	3.42
354.299	3.46
354.669	2.9
355.038	3.49
355.408	3.59
355.777	3.31
356.147	3.02
356.516	3.25
356.885	3.15
357.254	3.22
357.624	2.85
357.993	3.41
358.362	3.21
358.731	3.63
359.1	3.14
359.469	3.27
359.838	3.37
360.207	3.28
360.576	3.59
360.945	3.53
361.314	3.19
361.682	3.01
362.051	3.35
362.42	3.07
362.788	3.32
363.157	3.05
363.525	3.27
363.894	3
364.262	3.35
364.631	3.57
364.999	3.22
365.367	3.51
365.735	3.12
366.104	3.22
366.472	3.14
366.84	3.26
367.208	3.64
367.576	3.37
367.944	3.44
368.312	3.23
368.68	3.3
369.048	3.11
369.416	3.09
369.783	3.25
370.151	3.51
370.519	3.72
370.886	3.35
371.254	3.3
371.621	3.65
371.989	3.71
372.356	3.38
372.724	3.33
373.091	3.29
373.458	3.04
373.826	3.49
374.193	3.68
374.56	3.53
374.927	3.24
375.294	3.57
375.661	3.36
376.028	3.34
376.395	3.26
376.762	3.09
377.129	3.21
377.496	3.46
377.863	3.43
378.229	3.47
378.596	3.4
378.963	3.43
379.329	3.31
379.696	3.37
380.062	3.33
380.429	3.3
380.795	3.67
381.161	3.02
381.528	2.97
381.894	3.35
382.26	3.53
382.626	3.58
382.993	3.63
383.359	3.54
383.725	3.34
384.091	3.38
384.457	3.15
384.823	3.4
385.188	3.85
385.554	3.33
385.92	3.11
386.286	3.39
386.651	3.45
387.017	3.48
387.383	3.4
387.748	3.72
388.114	3.62
388.479	3.38
388.845	3.28
389.21	3.34
389.575	3.91
389.94	3.66
390.306	3.29
390.671	3.62
391.036	3.31
391.401	3.71
391.766	3.56
392.131	3.59
392.496	3.31
392.861	3.38
393.226	3.28
393.591	3.38
393.956	3.41
394.32	3.66
394.685	3.62
395.05	3.65
395.414	3.49
395.779	3.76
396.143	3.28
396.508	3.39
396.872	3.5
397.236	3.7
397.601	3.48
397.965	3.66
398.329	3.44
398.694	3.25
399.058	3.48
399.422	3.53
399.786	3.27
400.15	3.5
400.514	3.52
400.878	3.48
401.242	3.64
401.605	3.58
401.969	3.46
402.333	3.25
402.697	3.68
403.06	3.43
403.424	3.68
403.787	3.49
404.151	3.54
404.514	3.69
404.878	3.44
405.241	3.56
405.604	3.45
405.968	3.57
406.331	3.67
406.694	3.43
407.057	3.37
407.42	3.65
407.783	3.62
408.146	3.69
408.509	3.65
408.872	3.57
409.235	3.64
409.598	3.55
409.961	3.6
410.323	3.4
410.686	3.44
411.049	3.7
411.411	3.54
411.774	3.48
412.136	3.5
412.499	3.6
412.861	3.23
413.223	3.49
413.586	3.55
413.948	3.58
414.31	3.54
414.672	3.48
415.035	3.77
415.397	3.59
415.759	3.49
416.121	3.7
416.483	3.61
416.845	3.7
417.206	3.54
417.568	3.49
417.93	3.57
418.292	3.41
418.653	3.49
419.015	3.53
419.377	3.46
419.738	3.62
420.1	3.51
420.461	3.44
420.822	3.57
421.184	3.68
421.545	3.56
421.906	3.52
422.267	3.5
422.629	3.55
422.99	3.5
423.351	3.45
423.712	3.6
424.073	3.63
424.434	3.66
424.795	3.51
425.155	3.52
425.516	3.48
425.877	3.59
426.238	3.49
426.598	3.58
426.959	3.6
427.32	3.56
427.68	3.53
428.041	3.63
428.401	3.52
428.761	3.73
429.122	3.69
429.482	3.69
429.842	3.64
430.202	3.77
430.563	3.69
430.923	3.77
431.283	3.93
431.643	3.65
432.003	3.64
432.363	3.72
432.722	3.73
433.082	3.64
433.442	3.85
433.802	3.81
434.161	3.65
434.521	3.52
434.881	3.72
435.24	3.62
435.6	3.78
435.959	3.71
436.319	3.85
436.678	3.74
437.037	3.69
437.396	3.72
437.756	3.65
438.115	3.66
438.474	3.84
438.833	3.79
439.192	3.67
439.551	3.77
439.91	3.73
440.269	3.82
440.628	3.71
440.987	3.7
441.345	3.75
441.704	3.66
442.063	3.77
442.421	3.71
442.78	3.75
443.138	3.69
443.497	3.53
443.855	3.78
444.214	3.67
444.572	3.93
444.93	3.76
445.288	3.79
445.647	3.57
446.005	3.77
446.363	3.77
446.721	3.76
447.079	3.68
447.437	3.78
447.795	3.77
448.153	3.66
448.51	3.73
448.868	3.77
449.226	3.69
449.584	3.75
449.941	3.82
450.299	3.76
450.656	3.78
451.014	3.77
451.371	3.88
451.729	3.81
452.086	3.68
452.443	3.83
452.801	3.83
453.158	3.98
453.515	3.8
453.872	3.8
454.229	3.76
454.586	3.84
454.943	3.89
455.3	4.03
455.657	3.72
456.014	3.93
456.371	3.88
456.727	4.09
457.084	3.85
457.441	3.91
457.797	3.91
458.154	3.85
458.51	3.82
458.867	3.74
459.223	3.83
459.58	4.09
459.936	3.94
460.292	3.85
460.648	3.8
461.005	3.8
461.361	3.71
461.717	3.71
462.073	3.85
462.429	3.91
462.785	3.97
463.141	3.91
463.496	4.07
463.852	4.09
464.208	3.92
464.564	3.83
464.919	3.97
465.275	4
465.631	3.99
465.986	3.92
466.342	3.87
466.697	4.05
467.052	4.02
467.408	3.88
467.763	3.84
468.118	3.71
468.473	3.84
468.829	3.94
469.184	4.06
469.539	3.76
469.894	4.05
470.249	3.93
470.603	4.02
470.958	4.14
471.313	4.09
471.668	3.9
472.023	4.05
472.377	4.04
472.732	4.07
473.086	3.99
473.441	4.02
473.795	4.08
474.15	3.96
474.504	4.06
474.859	3.83
475.213	4.02
475.567	3.8
475.921	4.16
476.275	3.98
476.63	4.03
476.984	3.95
477.338	3.96
477.692	3.97
478.045	4.06
478.399	3.94
478.753	3.87
479.107	3.99
479.461	3.94
479.814	3.95
480.168	4.01
480.521	4.1
480.875	4.03
481.228	3.89
481.582	3.94
481.935	4.23
482.289	3.98
482.642	4.02
482.995	3.92
483.348	3.92
483.701	4
484.055	3.88
484.408	3.93
484.761	3.78
485.114	3.65
485.466	3.64
485.819	3.65
486.172	3.72
486.525	3.79
486.878	3.87
487.23	3.9
487.583	3.91
487.936	3.84
488.288	3.82
488.641	3.73
488.993	3.72
489.345	3.74
489.698	3.77
490.05	3.79
490.402	3.83
490.754	3.89
491.107	3.9
491.459	4.05
491.811	3.93
492.163	3.9
492.515	3.81
492.866	3.77
493.218	3.78
493.57	3.83
493.922	3.84
494.274	3.96
494.625	4.03
494.977	4.1
495.328	4.12
495.68	4.1
496.031	3.99
496.383	4.05
496.734	4
497.086	4.11
497.437	4.03
497.788	4.09
498.139	4.07
498.49	4.02
498.842	4.02
499.193	4
499.544	4.03
499.894	4.02
500.245	4.02
500.596	4.12
500.947	4.06
501.298	4.04
501.648	4.06
501.999	4.27
502.35	3.9
502.7	4.2
503.051	4.15
503.401	4.14
503.752	3.99
504.102	3.95
504.452	4.04
504.803	4.04
505.153	4.09
505.503	4.02
505.853	4.06
506.203	4.02
506.553	4.05
506.903	4.13
507.253	3.98
507.603	4.11
507.953	4.08
508.303	4.09
508.652	3.85
509.002	4.11
509.352	4.14
509.701	3.95
510.051	4.09
510.4	4.08
510.75	3.98
511.099	3.87
511.449	4.1
511.798	4.01
512.147	4.03
512.496	4.08
512.846	4.06
513.195	4.1
513.544	4.14
513.893	4.05
514.242	3.97
514.591	4.11
514.939	4.17
515.288	4.1
515.637	4.09
515.986	4.1
516.334	4.18
516.683	4.19
517.032	4.11
517.38	3.97
517.729	4.11
518.077	4.03
518.426	4.08
518.774	4.06
519.122	4.01
519.47	3.95
519.819	4.06
520.167	4.03
520.515	4.05
520.863	3.97
521.211	4.05
521.559	4.03
521.907	4.13
522.255	4.07
522.602	4.1
522.95	4.13
523.298	4.11
523.645	4.09
523.993	4.06
524.341	4.19
524.688	4.14
525.036	4.1
525.383	4.06
525.73	4.01
526.078	4.17
526.425	4.07
526.772	3.98
527.119	4.03
527.466	4.05
527.814	3.97
528.161	4.07
528.508	3.98
528.854	3.97
529.201	3.91
529.548	3.9
529.895	3.83
530.242	3.81
530.588	3.83
530.935	3.87
531.282	3.89
531.628	3.97
531.975	3.97
532.321	4.04
532.667	4.06
533.014	4.13
533.36	4.05
533.706	4.02
534.052	4.03
534.399	3.96
534.745	3.84
535.091	3.89
535.437	3.97
535.783	4
536.129	4
536.474	4.13
536.82	4.11
537.166	3.96
537.512	4.02
537.857	4.01
538.203	4.04
538.549	3.91
538.894	4.09
539.239	4.11
539.585	4.18
539.93	4.19
540.276	4.08
540.621	4.19
540.966	4.13
541.311	4.27
541.656	4.05
542.001	3.99
542.346	3.94
542.691	3.89
543.036	3.89
543.381	3.93
543.726	4.05
544.071	4.05
544.415	4.03
544.76	4.01
545.105	3.98
545.449	4.06
545.794	4.13
546.138	4.04
546.483	4.15
546.827	4.01
547.171	4.09
547.516	4.15
547.86	4.22
548.204	4.08
548.548	4.05
548.892	4.03
549.236	4.07
549.58	4.13
549.924	4.28
550.268	4.25
550.612	4.28
550.956	4.35
551.3	4.43
551.643	4.16
551.987	4.2
552.33	4.42
552.674	4.26
553.017	4.29
553.361	4.21
553.704	4.31
554.048	4.18
554.391	4.17
554.734	4.01
555.077	4.25
555.42	4.24
555.764	4.19
556.107	4.29
556.45	4.25
556.793	4.35
557.135	4.43
557.478	4.29
557.821	4.29
558.164	4.22
558.507	4.25
558.849	4.37
559.192	4.3
559.534	4.21
559.877	4.27
560.219	4.31
560.562	4.21
560.904	4.34
561.246	4.2
561.589	4.44
561.931	4.18
562.273	4.18
562.615	4.13
562.957	4.24
563.299	4.31
563.641	4.34
563.983	4.03
564.325	4.23
564.667	4.26
565.008	4.25
565.35	4.06
565.692	4.17
566.033	4.14
566.375	4.24
566.716	4.17
567.058	4.15
567.399	4.21
567.741	4.22
568.082	4.08
568.423	4.06
568.764	4.27
569.105	4.19
569.447	4.14
569.788	4.18
570.129	4.27
570.47	4.23
570.811	4.01
571.151	4.12
571.492	4.25
571.833	4.17
572.174	4.26
572.514	4.17
572.855	4.29
573.195	4.22
573.536	4.24
573.876	4.26
574.217	4.22
574.557	4.21
574.898	4.14
575.238	4.29
575.578	4.27
575.918	4.25
576.258	4.54
576.598	4.19
576.938	4.21
577.278	4.25
577.618	4.16
577.958	4.32
578.298	4.3
578.638	4.23
578.977	4.36
579.317	4.27
579.657	4.34
579.996	4.47
580.336	4.45
580.675	4.38
581.014	4.38
581.354	4.18
581.693	4.32
582.032	4.38
582.372	4.39
582.711	4.35
583.05	4.15
583.389	4.45
583.728	4.52
584.067	4.26
584.406	4.3
584.745	4.24
585.083	4.19
585.422	4.39
585.761	4.31
586.1	4.43
586.438	4.25
586.777	4.36
587.115	4.4
587.454	4.39
587.792	4.2
588.13	4.33
588.469	4.04
588.807	4.36
589.145	4.37
589.483	4.05
589.821	4.3
590.159	4.38
590.497	4.4
590.835	4.37
591.173	4.27
591.511	4.41
591.849	4.43
592.187	4.22
592.524	4.28
592.862	4.02
593.2	4.54
593.537	4.28
593.875	4.12
594.212	4.32
594.55	4.43
594.887	4.4
595.224	4.6
595.561	4.32
595.899	4.41
596.236	4.54
596.573	4.29
596.91	4.39
597.247	4.26
597.584	4.45
597.921	4.48
598.258	4.4
598.594	4.17
598.931	4.19
599.268	4.08
599.604	4.35
599.941	4.3
600.277	4.32
600.614	4.27
600.95	4.1
601.287	4.01
601.623	4.19
601.959	4.64
602.296	4.22
602.632	4.14
602.968	4.21
603.304	4.38
603.64	4.51
603.976	4.06
604.312	4.31
604.648	4.24
604.984	4.37
605.319	4.22
605.655	4.27
605.991	4.21
606.326	4.23
606.662	4.22
606.998	4.34
607.333	4.16
607.668	4.32
608.004	4.3
608.339	4.04
608.674	4.23
609.01	4.49
609.345	4.21
609.68	4.08
610.015	4.38
610.35	4.27
610.685	3.88
611.02	4.16
611.355	4.16
611.689	4.16
612.024	4.47
612.359	4.38
612.694	4.24
613.028	4.13
613.363	4.32
613.697	4.24
614.032	4.29
614.366	4.28
614.7	4.42
615.035	4.25
615.369	4.43
615.703	4.27
616.037	4.3
616.371	4.29
616.705	4.44
617.039	4.21
617.373	4.68
617.707	4.52
618.041	4.23
618.375	3.98
618.709	4.42
619.042	4.2
619.376	4.26
619.71	4.28
620.043	4.45
620.377	4.3
620.71	4.36
621.043	4.54
621.377	4.29
621.71	4.33
622.043	4.27
622.376	4.39
622.709	4.88
623.043	4.19
623.376	4.18
623.709	4.64
624.041	4.39
624.374	4.42
624.707	4.52
625.04	4.26
625.373	4.38
625.705	4.95
626.038	4.35
626.37	4.22
626.703	4.37
627.035	4.1
627.368	4.34
627.7	4.33
628.032	4.26
628.365	4.44
628.697	4.45
629.029	4.15
629.361	4.31
629.693	4.19
630.025	4.31
630.357	4.16
630.689	4.57
631.021	4.46
631.353	4.65
631.684	4.27
632.016	4.06
632.348	4.26
632.679	4.7
633.011	4.3
633.342	4.39
633.674	4.03
634.005	4.19
634.336	4.56
634.668	4.41
634.999	4.12
635.33	4.51
635.661	4.41
635.992	4.33
636.323	4.38
636.654	4.07
636.985	4.13
637.316	4.2
637.647	4.62
637.977	4.48
638.308	4.57
638.639	4.23
638.969	4.28
639.3	4.27
639.63	4.12
639.961	4.34
640.291	4.34
640.622	4.28
640.952	4.31
641.282	4.13
641.612	4.31
641.943	4.33
642.273	4.21
642.603	4.7
642.933	4.63
643.263	4.56
643.592	4.61
643.922	5.07
644.252	4.5
644.582	4.49
644.911	4.28
645.241	4.51
645.571	4.51
645.9	4.68
646.23	4.43
646.559	4.47
646.888	4.67
647.218	4.52
647.547	4.44
647.876	4.4
648.205	4.13
648.534	4.42
648.863	4.35
649.192	4.36
649.521	4.19
649.85	4.32
650.179	4.19
650.508	4.15
650.837	4.57
651.165	4.86
651.494	4.28
651.822	4.49
652.151	3.98
652.479	4.2
652.808	4.31
653.136	3.82
653.465	4.2
653.793	4.16
654.121	4.57
654.449	3.87
654.777	4.12
655.105	4.45
655.433	4.77
655.761	4.34
656.089	4.14
656.417	4.62
656.745	4.56
657.073	4.59
657.4	4.38
657.728	3.98
658.056	4.36
658.383	4.13
658.711	4.79
659.038	4.57
659.365	5
659.693	4.4
660.02	4.13
660.347	4.25
660.674	3.98
661.001	4.14
661.329	4.19
661.656	3.9
661.982	3.76
662.309	4.54
662.636	4.55
662.963	4.48
663.29	4.4
663.616	4.18
663.943	4.4
664.27	4.26
664.596	4.5
664.923	4.7
665.249	4.83
665.576	4
665.902	4.31
666.228	4.9
666.554	4.88
666.881	4.21
667.207	4.18
667.533	4.35
667.859	3.88
668.185	4.12
668.511	5.03
668.837	4.3
669.162	4.67
669.488	3.5
669.814	4.24
670.139	3.65
670.465	4.73
670.791	3.92
671.116	4.17
671.442	3.89
671.767	4.37
672.092	4.48
672.418	4.02
672.743	3.91
673.068	4.18
673.393	4.25
673.718	3.58
674.043	3.5
674.368	4.52
674.693	4.33
675.018	4.54
675.343	4.68
675.667	4.46
675.992	4.41
676.317	3.88
676.641	4.48
676.966	4.62
677.29	3.55
677.615	4.67
677.939	4.82
678.264	4.19
678.588	4.55
678.912	4.66
679.236	4.03
679.56	4.18
679.885	4.32
680.209	4.38
680.532	4.81
680.856	4.33
681.18	4.95
681.504	4.02
681.828	4.13
682.152	4.24
682.475	4.35
682.799	4.08
683.122	4.44
683.446	3.74
683.769	4.29
684.093	4.15
684.416	3.71
684.739	3.99
685.062	4.71
685.386	4.59
685.709	3.94
686.032	4.08
686.355	4.67
686.678	4.97
687.001	3.65
687.324	4.49
687.646	5.11
687.969	4.63
688.292	4.33
688.614	4.77
688.937	4.36
689.26	5.03
689.582	5.03
689.904	4.56
690.227	4.47
690.549	4.9
690.871	3.89
691.194	4.04
691.516	4.16
691.838	4.34
692.16	4.29
692.482	3.84
