Data from 21-3_forehead_Reflection__1__116.txt Node

Date: Thu Dec 15 17:23:30 CST 2022
User: ToomeyLab
Spectrometer: FLMS14357
Trigger mode: 0
Integration Time (sec): 1.000000E-2
Scans to average: 100
Electric dark correction enabled: true
Nonlinearity correction enabled: false
Boxcar width: 0
XAxis mode: Wavelengths
Number of Pixels in Spectrum: 2048
>>>>>Begin Spectral Data<<<<<
189.047	-150.53
189.435	-150.53
189.823	-150.53
190.211	-16.57
190.599	142.33
190.987	352.98
191.375	42.73
191.763	166.86
192.151	-1227.76
192.538	98.21
192.926	-14.25
193.314	54.24
193.702	374.02
194.089	214.84
194.477	286.71
194.864	77.05
195.252	24.39
195.639	244.2
196.027	129.6
196.414	-42.88
196.801	40.5
197.189	-31.07
197.576	54.84
197.963	72.82
198.351	23.18
198.738	-25.29
199.125	-6.05
199.512	22.11
199.899	-26.06
200.286	8.15
200.673	31.88
201.06	4.02
201.447	18.1
201.833	-9.38
202.22	13.33
202.607	-8.29
202.994	-18.16
203.38	25.7
203.767	19.16
204.154	9.05
204.54	-3.15
204.927	-1.23
205.313	25.31
205.699	45.39
206.086	34.89
206.472	27.15
206.858	12.87
207.245	14.97
207.631	15.28
208.017	28.6
208.403	-44.17
208.789	-3.9
209.175	18.7
209.561	-57.54
209.947	-14.92
210.333	-23.68
210.719	26.31
211.105	37.82
211.491	0.53
211.876	-40.28
212.262	7.48
212.648	4.34
213.034	1.68
213.419	9.25
213.805	-38.03
214.19	-4.17
214.576	4.74
214.961	25.44
215.346	10.94
215.732	-19.27
216.117	9.01
216.502	13.85
216.888	44.39
217.273	9.67
217.658	-7.33
218.043	-21.48
218.428	-45.59
218.813	4.28
219.198	-14.32
219.583	-3.74
219.968	13.17
220.353	-29.07
220.738	21.7
221.122	-3.45
221.507	-10.2
221.892	-17.52
222.276	-21.4
222.661	-9.35
223.046	-6.7
223.43	19.62
223.815	3.44
224.199	0.52
224.583	0.71
224.968	-2.23
225.352	-7.83
225.736	10.72
226.121	4.84
226.505	-5.62
226.889	5.44
227.273	-2.53
227.657	3.37
228.041	2.81
228.425	1.59
228.809	-1.85
229.193	3.61
229.577	2.49
229.961	1.9
230.344	3.23
230.728	3.85
231.112	3.81
231.495	1.29
231.879	2.51
232.263	2.81
232.646	1.53
233.03	3.67
233.413	4.06
233.797	3.42
234.18	3.57
234.563	0.93
234.946	1.27
235.33	1.66
235.713	3.53
236.096	3.38
236.479	4.01
236.862	2.46
237.245	2.46
237.628	4.47
238.011	3.59
238.394	4.03
238.777	2.97
239.16	3.4
239.543	4.25
239.925	3.6
240.308	2.36
240.691	3
241.073	2.83
241.456	2.32
241.838	3.54
242.221	3.67
242.603	4.05
242.986	3.99
243.368	3.78
243.75	3.33
244.133	3.76
244.515	3.5
244.897	3.3
245.279	3.43
245.661	3.1
246.043	3.4
246.425	3.3
246.807	3.3
247.189	3.18
247.571	2.89
247.953	3.57
248.335	3.75
248.717	3.77
249.098	3.83
249.48	3.29
249.862	3.8
250.243	3.8
250.625	4.4
251.006	4.09
251.388	3.88
251.769	3.08
252.151	4.25
252.532	2.61
252.913	3.84
253.295	3.86
253.676	4.27
254.057	3.23
254.438	3.64
254.819	3.04
255.2	3.97
255.581	5.3
255.962	3.91
256.343	3.79
256.724	2.82
257.105	3.59
257.486	2.82
257.867	3.58
258.247	3.47
258.628	3.81
259.009	3.32
259.389	3.39
259.77	3.54
260.15	4.18
260.531	3.76
260.911	3.46
261.292	3.5
261.672	3.57
262.052	3.28
262.432	3.14
262.813	3.12
263.193	3.74
263.573	3.06
263.953	3.23
264.333	3.84
264.713	3.43
265.093	3.12
265.473	3.13
265.853	3.55
266.233	2.7
266.612	2.53
266.992	3.36
267.372	3.52
267.752	3.78
268.131	3.06
268.511	3.56
268.89	4.39
269.27	2.98
269.649	3.64
270.029	3.35
270.408	3.29
270.787	3.33
271.167	3.72
271.546	4.26
271.925	3.87
272.304	2.95
272.683	3.36
273.062	2.95
273.441	3.04
273.82	3.16
274.199	3.18
274.578	3.34
274.957	2.85
275.336	3.29
275.715	3.76
276.093	3.12
276.472	2.69
276.851	3.64
277.229	3.25
277.608	3.15
277.986	3.5
278.365	3.63
278.743	3.25
279.122	3.09
279.5	3.66
279.878	3.37
280.257	3.17
280.635	3.23
281.013	2.97
281.391	3.47
281.769	3.86
282.147	3.01
282.525	3.49
282.903	3.17
283.281	3.43
283.659	3.19
284.037	3.22
284.415	2.99
284.792	3.61
285.17	3.35
285.548	3.1
285.925	3.03
286.303	3.79
286.68	3.67
287.058	3.44
287.435	3.32
287.813	3.3
288.19	2.97
288.567	3.3
288.945	3.17
289.322	3.24
289.699	3.51
290.076	3.32
290.453	3.4
290.83	3.47
291.207	3.26
291.584	3.84
291.961	3.71
292.338	3.18
292.715	3.37
293.092	3.74
293.469	3.87
293.845	3.75
294.222	3.7
294.599	3.13
294.975	2.94
295.352	3.75
295.728	3.82
296.105	3.92
296.481	4.22
296.858	3.84
297.234	3.48
297.61	3.94
297.986	4.21
298.363	3.95
298.739	4.16
299.115	4.05
299.491	4.24
299.867	3.77
300.243	3.99
300.619	3.98
300.995	4.05
301.371	4.51
301.746	4
302.122	3.78
302.498	3.86
302.874	4.33
303.249	3.96
303.625	4.11
304	4.7
304.376	4.61
304.751	4.64
305.127	4.1
305.502	4.37
305.878	4.35
306.253	4.19
306.628	4.28
307.003	4.04
307.378	4.3
307.754	4.84
308.129	4.49
308.504	5.17
308.879	4.86
309.254	5
309.629	4.95
310.003	4.86
310.378	4.75
310.753	4.91
311.128	4.65
311.502	4.81
311.877	4.53
312.252	4.76
312.626	5.14
313.001	4.97
313.375	4.82
313.75	4.84
314.124	5.26
314.498	5.33
314.873	4.51
315.247	5.03
315.621	4.72
315.995	4.71
316.369	4.88
316.743	4.73
317.117	5.08
317.491	5.49
317.865	4.46
318.239	5.77
318.613	5.08
318.987	4.93
319.361	5.49
319.734	4.92
320.108	5.38
320.482	5.24
320.855	5.02
321.229	5.52
321.602	5.47
321.976	5.11
322.349	5.81
322.723	5.48
323.096	4.87
323.469	5.43
323.843	5.08
324.216	5.23
324.589	5.44
324.962	5.01
325.335	4.99
325.708	5.51
326.081	5.32
326.454	5.36
326.827	5.6
327.2	5.12
327.573	5.77
327.945	5.17
328.318	5.11
328.691	5.36
329.063	5.37
329.436	5.24
329.809	5.49
330.181	6.38
330.553	5.81
330.926	5.7
331.298	5.22
331.671	5.55
332.043	5.48
332.415	5.57
332.787	5.89
333.159	5.13
333.532	6.16
333.904	5.87
334.276	5.75
334.648	5.47
335.02	4.96
335.391	5.67
335.763	5.29
336.135	5.83
336.507	5.38
336.879	5.88
337.25	5.87
337.622	5.69
337.993	6.17
338.365	5.65
338.736	5.79
339.108	5.62
339.479	5.67
339.851	6.23
340.222	6.46
340.593	5.84
340.964	5.9
341.336	5.63
341.707	5.6
342.078	5.43
342.449	5.68
342.82	5.8
343.191	5.61
343.562	6
343.933	5.69
344.303	5.47
344.674	5.81
345.045	6.07
345.416	6.13
345.786	5.92
346.157	5.88
346.527	5.78
346.898	5.53
347.268	5.97
347.639	5.68
348.009	6.11
348.38	5.59
348.75	6.21
349.12	6.31
349.49	6.31
349.861	5.96
350.231	6.09
350.601	5.91
350.971	5.75
351.341	6.07
351.711	6.02
352.081	5.66
352.45	5.68
352.82	5.69
353.19	5.99
353.56	5.88
353.929	5.86
354.299	5.96
354.669	6.05
355.038	6.31
355.408	5.88
355.777	6.18
356.147	5.85
356.516	5.98
356.885	6.29
357.254	5.97
357.624	5.59
357.993	6.07
358.362	6.22
358.731	6.28
359.1	5.98
359.469	6.27
359.838	6.24
360.207	6.08
360.576	6.33
360.945	6.67
361.314	6.05
361.682	5.89
362.051	6.12
362.42	6
362.788	6.35
363.157	5.96
363.525	6.11
363.894	5.95
364.262	6.06
364.631	6.15
364.999	6.15
365.367	6.17
365.735	6.01
366.104	6.02
366.472	6.3
366.84	6.1
367.208	6.47
367.576	6.41
367.944	6.09
368.312	6.32
368.68	6.46
369.048	6.46
369.416	6.17
369.783	6.26
370.151	6.51
370.519	6.86
370.886	6.76
371.254	6.54
371.621	6.42
371.989	6.72
372.356	6.19
372.724	6.14
373.091	6.3
373.458	6.45
373.826	6.32
374.193	6.58
374.56	6.35
374.927	6.42
375.294	6.65
375.661	6.64
376.028	6.41
376.395	6.52
376.762	6.34
377.129	6.34
377.496	6.64
377.863	6.88
378.229	6.63
378.596	6.37
378.963	6.6
379.329	6.75
379.696	6.42
380.062	6.44
380.429	6.42
380.795	6.48
381.161	6.43
381.528	6.26
381.894	6.46
382.26	6.51
382.626	6.7
382.993	7.01
383.359	6.48
383.725	6.31
384.091	6.75
384.457	6.49
384.823	6.78
385.188	6.5
385.554	6.55
385.92	6.53
386.286	6.69
386.651	6.56
387.017	6.76
387.383	6.77
387.748	6.67
388.114	6.78
388.479	6.73
388.845	6.32
389.21	6.85
389.575	6.81
389.94	6.91
390.306	7.08
390.671	6.88
391.036	6.71
391.401	6.7
391.766	6.84
392.131	6.92
392.496	6.87
392.861	6.75
393.226	6.4
393.591	6.75
393.956	6.86
394.32	6.88
394.685	6.7
395.05	6.71
395.414	6.51
395.779	6.69
396.143	6.58
396.508	6.66
396.872	6.56
397.236	7.04
397.601	6.73
397.965	6.86
398.329	6.92
398.694	6.45
399.058	6.8
399.422	6.73
399.786	6.8
400.15	6.8
400.514	6.79
400.878	6.53
401.242	6.88
401.605	6.49
401.969	6.67
402.333	6.46
402.697	6.85
403.06	6.75
403.424	6.81
403.787	6.62
404.151	6.79
404.514	6.9
404.878	6.51
405.241	6.65
405.604	6.59
405.968	6.73
406.331	6.66
406.694	6.89
407.057	6.48
407.42	6.73
407.783	6.77
408.146	6.7
408.509	6.72
408.872	6.71
409.235	7.02
409.598	6.83
409.961	6.83
410.323	6.71
410.686	6.79
411.049	6.74
411.411	6.74
411.774	6.8
412.136	6.44
412.499	6.9
412.861	6.39
413.223	6.74
413.586	6.97
413.948	6.8
414.31	6.69
414.672	6.76
415.035	6.95
415.397	6.69
415.759	6.71
416.121	6.75
416.483	6.98
416.845	6.63
417.206	6.89
417.568	6.69
417.93	6.78
418.292	6.76
418.653	6.62
419.015	6.68
419.377	6.65
419.738	6.78
420.1	6.7
420.461	6.65
420.822	6.78
421.184	6.82
421.545	6.82
421.906	6.87
422.267	6.74
422.629	6.69
422.99	6.82
423.351	6.7
423.712	6.82
424.073	6.89
424.434	7.03
424.795	6.97
425.155	6.87
425.516	6.87
425.877	6.92
426.238	6.91
426.598	6.95
426.959	7.03
427.32	7.01
427.68	7.11
428.041	7.09
428.401	6.96
428.761	7.23
429.122	7.28
429.482	7.23
429.842	7.36
430.202	7.38
430.563	7.2
430.923	7.38
431.283	7.41
431.643	7.39
432.003	7.15
432.363	7.29
432.722	7.44
433.082	7.24
433.442	7.39
433.802	7.43
434.161	7.49
434.521	7.42
434.881	7.42
435.24	7.46
435.6	7.49
435.959	7.49
436.319	7.48
436.678	7.53
437.037	7.56
437.396	7.62
437.756	7.45
438.115	7.71
438.474	7.65
438.833	7.66
439.192	7.6
439.551	7.63
439.91	7.74
440.269	7.6
440.628	7.7
440.987	7.58
441.345	7.49
441.704	7.64
442.063	7.58
442.421	7.69
442.78	7.6
443.138	7.74
443.497	7.71
443.855	7.77
444.214	7.66
444.572	7.96
444.93	7.88
445.288	7.85
445.647	7.7
446.005	7.71
446.363	7.77
446.721	7.9
447.079	7.68
447.437	7.81
447.795	7.78
448.153	7.74
448.51	7.84
448.868	7.75
449.226	7.9
449.584	7.85
449.941	7.92
450.299	7.83
450.656	7.98
451.014	8.02
451.371	8.01
451.729	8.1
452.086	8.03
452.443	8.16
452.801	8.1
453.158	8.25
453.515	7.98
453.872	8.13
454.229	7.78
454.586	7.98
454.943	8.31
455.3	8.09
455.657	8.09
456.014	8.19
456.371	8.37
456.727	8.25
457.084	8.41
457.441	8.33
457.797	8.16
458.154	8.29
458.51	8.41
458.867	8.46
459.223	8.2
459.58	8.3
459.936	8.34
460.292	8.29
460.648	8.15
461.005	8.2
461.361	8.15
461.717	8.17
462.073	8.33
462.429	8.36
462.785	8.44
463.141	8.4
463.496	8.56
463.852	8.63
464.208	8.5
464.564	8.47
464.919	8.57
465.275	8.52
465.631	8.59
465.986	8.67
466.342	8.67
466.697	8.61
467.052	8.81
467.408	8.74
467.763	8.62
468.118	8.52
468.473	8.6
468.829	8.66
469.184	8.68
469.539	8.63
469.894	8.74
470.249	8.8
470.603	8.87
470.958	8.76
471.313	8.9
471.668	8.76
472.023	8.74
472.377	8.83
472.732	8.8
473.086	8.74
473.441	8.9
473.795	9.12
474.15	9.06
474.504	8.85
474.859	8.71
475.213	8.96
475.567	8.75
475.921	8.88
476.275	8.81
476.63	8.85
476.984	8.75
477.338	9.16
477.692	9.05
478.045	8.97
478.399	8.96
478.753	8.83
479.107	9.11
479.461	8.95
479.814	8.95
480.168	9.01
480.521	9.07
480.875	9.08
481.228	9.07
481.582	9.03
481.935	9.16
482.289	9.07
482.642	9.14
482.995	8.97
483.348	8.94
483.701	8.95
484.055	8.83
484.408	8.74
484.761	8.62
485.114	8.48
485.466	8.45
485.819	8.44
486.172	8.56
486.525	8.66
486.878	8.76
487.23	8.8
487.583	8.92
487.936	8.84
488.288	8.83
488.641	8.77
488.993	8.75
489.345	8.71
489.698	8.76
490.05	8.8
490.402	8.83
490.754	8.96
491.107	9
491.459	9.18
491.811	9.17
492.163	9.09
492.515	8.98
492.866	8.81
493.218	8.89
493.57	8.95
493.922	9
494.274	9.15
494.625	9.27
494.977	9.35
495.328	9.36
495.68	9.41
496.031	9.5
496.383	9.49
496.734	9.31
497.086	9.42
497.437	9.46
497.788	9.47
498.139	9.39
498.49	9.45
498.842	9.51
499.193	9.38
499.544	9.4
499.894	9.5
500.245	9.52
500.596	9.61
500.947	9.56
501.298	9.57
501.648	9.54
501.999	9.72
502.35	9.43
502.7	9.75
503.051	9.72
503.401	9.71
503.752	9.62
504.102	9.63
504.452	9.61
504.803	9.69
505.153	9.79
505.503	9.69
505.853	9.72
506.203	9.79
506.553	9.75
506.903	9.85
507.253	9.8
507.603	9.9
507.953	9.91
508.303	9.88
508.652	9.82
509.002	9.86
509.352	9.84
509.701	9.64
510.051	9.82
510.4	9.88
510.75	9.74
511.099	9.72
511.449	9.8
511.798	9.69
512.147	9.74
512.496	9.91
512.846	9.77
513.195	9.83
513.544	9.85
513.893	9.78
514.242	9.88
514.591	9.83
514.939	9.89
515.288	10.07
515.637	9.98
515.986	9.94
516.334	10
516.683	10.14
517.032	9.96
517.38	9.97
517.729	10.04
518.077	10.02
518.426	10.09
518.774	10.03
519.122	9.9
519.47	9.74
519.819	9.92
520.167	9.8
520.515	9.83
520.863	9.93
521.211	9.93
521.559	9.96
521.907	10
522.255	10.01
522.602	10.02
522.95	10.14
523.298	10.12
523.645	10.1
523.993	10.15
524.341	10.13
524.688	10.11
525.036	10.12
525.383	10.22
525.73	10.01
526.078	10.24
526.425	10.1
526.772	10
527.119	9.98
527.466	10.05
527.814	10
528.161	10.06
528.508	10.08
528.854	10.07
529.201	9.92
529.548	9.86
529.895	9.67
530.242	9.65
530.588	9.67
530.935	9.76
531.282	9.82
531.628	9.94
531.975	10
532.321	10.08
532.667	10.31
533.014	10.28
533.36	10.27
533.706	10.16
534.052	10.17
534.399	10.07
534.745	9.99
535.091	9.95
535.437	10.07
535.783	10.09
536.129	10.23
536.474	10.32
536.82	10.44
537.166	10.34
537.512	10.33
537.857	10.39
538.203	10.27
538.549	10.37
538.894	10.43
539.239	10.39
539.585	10.49
539.93	10.49
540.276	10.6
540.621	10.6
540.966	10.69
541.311	10.63
541.656	10.44
542.001	10.5
542.346	10.38
542.691	10.19
543.036	10.16
543.381	10.22
543.726	10.31
544.071	10.35
544.415	10.42
544.76	10.46
545.105	10.47
545.449	10.59
545.794	10.74
546.138	10.64
546.483	10.75
546.827	10.64
547.171	10.78
547.516	10.74
547.86	10.69
548.204	10.65
548.548	10.6
548.892	10.66
549.236	10.84
549.58	10.81
549.924	11.07
550.268	10.96
550.612	11.02
550.956	11.16
551.3	11.24
551.643	11.03
551.987	11.24
552.33	11.41
552.674	11.14
553.017	11.13
553.361	11.23
553.704	11.15
554.048	11.25
554.391	11.11
554.734	11
555.077	11.19
555.42	11.08
555.764	11.17
556.107	11.25
556.45	11.37
556.793	11.29
557.135	11.52
557.478	11.44
557.821	11.47
558.164	11.4
558.507	11.33
558.849	11.47
559.192	11.39
559.534	11.37
559.877	11.45
560.219	11.49
560.562	11.31
560.904	11.65
561.246	11.35
561.589	11.62
561.931	11.41
562.273	11.42
562.615	11.38
562.957	11.48
563.299	11.49
563.641	11.35
563.983	11.24
564.325	11.6
564.667	11.64
565.008	11.58
565.35	11.38
565.692	11.6
566.033	11.53
566.375	11.65
566.716	11.39
567.058	11.64
567.399	11.63
567.741	11.56
568.082	11.49
568.423	11.44
568.764	11.63
569.105	11.78
569.447	11.62
569.788	11.59
570.129	11.78
570.47	11.76
570.811	11.73
571.151	11.72
571.492	11.66
571.833	11.64
572.174	11.78
572.514	11.93
572.855	11.79
573.195	11.76
573.536	11.86
573.876	11.51
574.217	11.67
574.557	11.62
574.898	11.65
575.238	11.82
575.578	11.69
575.918	11.78
576.258	12.02
576.598	11.76
576.938	11.77
577.278	11.79
577.618	11.81
577.958	11.89
578.298	11.97
578.638	11.84
578.977	11.97
579.317	12
579.657	11.83
579.996	12.15
580.336	12.04
580.675	12.09
581.014	12.2
581.354	12.25
581.693	12.24
582.032	12.35
582.372	12.19
582.711	12.29
583.05	12.22
583.389	12.26
583.728	12.3
584.067	12.31
584.406	12.49
584.745	12.19
585.083	12.39
585.422	12.52
585.761	12.47
586.1	12.41
586.438	12.23
586.777	12.27
587.115	12.54
587.454	12.24
587.792	12.24
588.13	12.34
588.469	12.29
588.807	12.62
589.145	12.35
589.483	12.14
589.821	12.31
590.159	12.6
590.497	12.73
590.835	12.61
591.173	12.47
591.511	12.65
591.849	12.6
592.187	12.58
592.524	12.57
592.862	12.52
593.2	12.73
593.537	12.52
593.875	12.38
594.212	12.77
594.55	12.66
594.887	12.72
595.224	12.75
595.561	12.68
595.899	12.5
596.236	12.65
596.573	12.5
596.91	12.66
597.247	12.68
597.584	12.75
597.921	12.72
598.258	12.68
598.594	12.63
598.931	12.52
599.268	12.51
599.604	12.63
599.941	12.75
600.277	12.68
600.614	12.91
600.95	12.8
601.287	12.82
601.623	12.59
601.959	13.11
602.296	13.09
602.632	12.64
602.968	13.16
603.304	12.93
603.64	12.8
603.976	12.68
604.312	12.75
604.648	12.92
604.984	12.9
605.319	13.05
605.655	12.84
605.991	12.72
606.326	12.86
606.662	12.55
606.998	12.93
607.333	13
607.668	12.92
608.004	12.96
608.339	12.82
608.674	13
609.01	13.39
609.345	13.18
609.68	13
610.015	13.17
610.35	13.13
610.685	12.98
611.02	12.97
611.355	12.92
611.689	13.03
612.024	13.04
612.359	13.12
612.694	13.25
613.028	13.19
613.363	13.19
613.697	13.3
614.032	13.21
614.366	13.12
614.7	13.53
615.035	13.24
615.369	13.53
615.703	13.59
616.037	13.21
616.371	13.28
616.705	13.57
617.039	13.8
617.373	13.66
617.707	13.48
618.041	13.45
618.375	13.02
618.709	13.55
619.042	13.56
619.376	13.82
619.71	13.74
620.043	13.91
620.377	13.57
620.71	13.67
621.043	13.86
621.377	13.77
621.71	13.77
622.043	13.76
622.376	13.66
622.709	14.02
623.043	13.74
623.376	13.87
623.709	14.05
624.041	13.87
624.374	13.7
624.707	13.87
625.04	13.64
625.373	13.51
625.705	14.1
626.038	13.83
626.37	13.87
626.703	13.73
627.035	13.73
627.368	14.08
627.7	13.98
628.032	13.75
628.365	13.82
628.697	13.67
629.029	13.61
629.361	13.91
629.693	13.9
630.025	14.06
630.357	13.68
630.689	13.82
631.021	14.12
631.353	13.84
631.684	13.93
632.016	13.64
632.348	13.96
632.679	13.94
633.011	14.13
633.342	14.04
633.674	13.93
634.005	13.94
634.336	14.06
634.668	14.17
634.999	13.87
635.33	13.79
635.661	14.1
635.992	14.13
636.323	14.18
636.654	14.02
636.985	14.12
637.316	14.03
637.647	14.23
637.977	14.05
638.308	14.78
638.639	14.05
638.969	14.3
639.3	14.37
639.63	14.48
639.961	14.39
640.291	13.82
640.622	14.39
640.952	14.31
641.282	14.03
641.612	14.05
641.943	14.08
642.273	14.53
642.603	14.69
642.933	14.33
643.263	14.68
643.592	14.94
643.922	14.98
644.252	14.74
644.582	14.7
644.911	14.31
645.241	14.12
645.571	14.39
645.9	14.97
646.23	14.77
646.559	13.97
646.888	14.87
647.218	14.94
647.547	14.48
647.876	14.58
648.205	14.71
648.534	14.62
648.863	14.78
649.192	14.65
649.521	14.44
649.85	14.69
650.179	14.56
650.508	14.2
650.837	15.1
651.165	14.9
651.494	14.58
651.822	14.67
652.151	14.57
652.479	14.88
652.808	14.67
653.136	14.22
653.465	14.43
653.793	14.73
654.121	14.98
654.449	14.6
654.777	14.54
655.105	14.71
655.433	15.11
655.761	14.81
656.089	15.4
656.417	15.67
656.745	15.39
657.073	15.09
657.4	14.79
657.728	14.88
658.056	14.84
658.383	14.9
658.711	15.4
659.038	15.06
659.365	15.07
659.693	15.01
660.02	15.11
660.347	14.87
660.674	14.85
661.001	14.85
661.329	14.78
661.656	14.65
661.982	14.75
662.309	15.3
662.636	14.97
662.963	14.75
663.29	15.05
663.616	14.81
663.943	15.34
664.27	15.08
664.596	15.37
664.923	15.58
665.249	15.61
665.576	15.56
665.902	15.4
666.228	15.66
666.554	15.89
666.881	15.09
667.207	15.19
667.533	15.18
667.859	14.72
668.185	15.28
668.511	15.57
668.837	15.32
669.162	15.76
669.488	15.06
669.814	15.2
670.139	14.8
670.465	15.73
670.791	14.78
671.116	15.48
671.442	14.86
671.767	15.63
672.092	15.39
672.418	15.7
672.743	15.12
673.068	15.45
673.393	15.41
673.718	15.47
674.043	15.41
674.368	15.56
674.693	15.99
675.018	15.66
675.343	15.66
675.667	15.86
675.992	15.38
676.317	15.39
676.641	15.89
676.966	16.02
677.29	15.24
677.615	15.45
677.939	16.15
678.264	15.37
678.588	16.03
678.912	15.03
679.236	15.57
679.56	15.62
679.885	15.18
680.209	15.92
680.532	16.15
680.856	15.75
681.18	16.35
681.504	15.68
681.828	15.28
