Data from 21-3_forehead_Reflection__4__119.txt Node

Date: Thu Dec 15 17:24:09 CST 2022
User: ToomeyLab
Spectrometer: FLMS14357
Trigger mode: 0
Integration Time (sec): 1.000000E-2
Scans to average: 100
Electric dark correction enabled: true
Nonlinearity correction enabled: false
Boxcar width: 0
XAxis mode: Wavelengths
Number of Pixels in Spectrum: 2048
>>>>>Begin Spectral Data<<<<<
189.047	335.47
189.435	335.47
189.823	335.47
190.211	-11.37
190.599	157.34
190.987	249.47
191.375	301.73
191.763	284.35
192.151	-2353.38
192.538	74.62
192.926	58.91
193.314	70.13
193.702	92.18
194.089	154.66
194.477	-337.76
194.864	120.3
195.252	-4.51
195.639	182.88
196.027	88.63
196.414	-218.77
196.801	79.5
197.189	10.95
197.576	135.31
197.963	-104.62
198.351	26.23
198.738	-37.49
199.125	-25.34
199.512	49.15
199.899	-38.6
200.286	-22.18
200.673	50.33
201.06	-9.2
201.447	6.56
201.833	33.85
202.22	5.95
202.607	9.64
202.994	31.17
203.38	-1.78
203.767	37.33
204.154	43.37
204.54	58.66
204.927	24.01
205.313	16.26
205.699	18.17
206.086	28.94
206.472	64.81
206.858	-20.07
207.245	6.61
207.631	28.72
208.017	51.31
208.403	-15.38
208.789	14.19
209.175	40.06
209.561	-147.23
209.947	-19.42
210.333	-0.95
210.719	10.38
211.105	17.2
211.491	28.52
211.876	-13.02
212.262	22.72
212.648	13.81
213.034	14.05
213.419	3.31
213.805	-20.4
214.19	-10.93
214.576	-10.7
214.961	10.96
215.346	-31.21
215.732	9.38
216.117	11.72
216.502	-1.63
216.888	26.33
217.273	-11.96
217.658	1.29
218.043	0.56
218.428	-10.31
218.813	4.09
219.198	-6.74
219.583	-0.67
219.968	8.74
220.353	-12.91
220.738	-0.43
221.122	-18.85
221.507	0.75
221.892	-3.47
222.276	-14.2
222.661	-1.07
223.046	1.1
223.43	19.85
223.815	0.4
224.199	-2.93
224.583	14.28
224.968	-1.29
225.352	-4.43
225.736	-1.4
226.121	-3.39
226.505	-1.33
226.889	1.68
227.273	4.59
227.657	3.06
228.041	4.12
228.425	-1.12
228.809	3.25
229.193	2.01
229.577	2.8
229.961	1.49
230.344	3.26
230.728	2.23
231.112	3.46
231.495	0.74
231.879	1.49
232.263	1.63
232.646	2.03
233.03	3.31
233.413	3.12
233.797	0.29
234.18	3.48
234.563	2.19
234.946	0.69
235.33	0.92
235.713	2.79
236.096	2.97
236.479	2.27
236.862	1.77
237.245	1.4
237.628	2.38
238.011	1.6
238.394	2.68
238.777	1.83
239.16	2.83
239.543	3.62
239.925	1.91
240.308	1.58
240.691	3.11
241.073	1.35
241.456	3.55
241.838	2.94
242.221	1.81
242.603	3.03
242.986	2.1
243.368	2.96
243.75	2.92
244.133	2.92
244.515	2.7
244.897	2.79
245.279	2.12
245.661	2.37
246.043	3.06
246.425	2.77
246.807	2.7
247.189	2.48
247.571	1.96
247.953	2.25
248.335	2.54
248.717	2.73
249.098	2.66
249.48	2.3
249.862	2.65
250.243	2.5
250.625	2.69
251.006	3.51
251.388	3.08
251.769	2.64
252.151	2.67
252.532	2.71
252.913	2.27
253.295	2.54
253.676	2.97
254.057	2.54
254.438	2.19
254.819	2.74
255.2	3.66
255.581	3.88
255.962	3.69
256.343	2.52
256.724	3.25
257.105	2.48
257.486	1.18
257.867	2.96
258.247	3.69
258.628	2.36
259.009	2.5
259.389	1.49
259.77	1.78
260.15	3.25
260.531	2.69
260.911	2.38
261.292	2.53
261.672	2.48
262.052	2.51
262.432	2.05
262.813	2.98
263.193	2.22
263.573	2.52
263.953	2.29
264.333	2.87
264.713	2.3
265.093	2.52
265.473	1.38
265.853	2.63
266.233	2.38
266.612	1.91
266.992	2.26
267.372	2.2
267.752	3.05
268.131	2.31
268.511	2.64
268.89	3.01
269.27	2.19
269.649	2.25
270.029	2.2
270.408	2.59
270.787	2.57
271.167	2.82
271.546	2.97
271.925	2.21
272.304	2.53
272.683	2.3
273.062	2.29
273.441	2.4
273.82	2.57
274.199	2.01
274.578	3.1
274.957	2.4
275.336	2.11
275.715	2.88
276.093	2.19
276.472	2.06
276.851	2.2
277.229	2.24
277.608	2.28
277.986	2.78
278.365	2.87
278.743	2.69
279.122	2.68
279.5	2.49
279.878	1.94
280.257	2.51
280.635	2.95
281.013	1.96
281.391	2.07
281.769	2.62
282.147	2.29
282.525	2.04
282.903	2.04
283.281	2.98
283.659	2.39
284.037	2.15
284.415	2.16
284.792	2.41
285.17	1.94
285.548	2.31
285.925	2.27
286.303	2.85
286.68	2.25
287.058	2.44
287.435	2.43
287.813	2.3
288.19	1.94
288.567	2.48
288.945	2.25
289.322	2.5
289.699	2.62
290.076	2.17
290.453	1.98
290.83	2.58
291.207	2.66
291.584	2.57
291.961	2.55
292.338	2.69
292.715	2.61
293.092	3.28
293.469	2.27
293.845	2.52
294.222	2.78
294.599	2.58
294.975	2.25
295.352	2.81
295.728	2.87
296.105	2.55
296.481	3.28
296.858	2.91
297.234	2.54
297.61	2.5
297.986	3.3
298.363	2.88
298.739	3.03
299.115	2.93
299.491	3.04
299.867	2.68
300.243	2.77
300.619	2.49
300.995	2.82
301.371	3.36
301.746	3.14
302.122	2.47
302.498	3.07
302.874	2.83
303.249	3.13
303.625	2.83
304	3.27
304.376	3.4
304.751	3.06
305.127	2.64
305.502	3.67
305.878	3.59
306.253	2.89
306.628	3.53
307.003	2.97
307.378	3.56
307.754	2.88
308.129	3.17
308.504	3.06
308.879	3.28
309.254	3.17
309.629	3.3
310.003	3.15
310.378	3.87
310.753	3.28
311.128	3.14
311.502	3.26
311.877	3.38
312.252	3.21
312.626	3.85
313.001	3.52
313.375	3.74
313.75	3.56
314.124	3.88
314.498	3.52
314.873	3.21
315.247	3.34
315.621	3.44
315.995	3.77
316.369	3.42
316.743	2.96
317.117	3.38
317.491	3.4
317.865	3.01
318.239	3.71
318.613	3.35
318.987	3.08
319.361	3.75
319.734	3.59
320.108	3.96
320.482	3.63
320.855	3.77
321.229	3.21
321.602	3.7
321.976	3.45
322.349	4.38
322.723	3.7
323.096	3.96
323.469	4.06
323.843	3.33
324.216	3.05
324.589	4.11
324.962	3.57
325.335	3.55
325.708	3.85
326.081	3.92
326.454	4.19
326.827	3.91
327.2	3.29
327.573	4.08
327.945	3.68
328.318	3.72
328.691	3.92
329.063	3.69
329.436	3.6
329.809	3.9
330.181	4.92
330.553	4.21
330.926	4.45
331.298	3.92
331.671	4.22
332.043	3.34
332.415	4.25
332.787	4.08
333.159	3.73
333.532	3.95
333.904	4.27
334.276	4.3
334.648	3.79
335.02	4.16
335.391	3.94
335.763	3.94
336.135	4.32
336.507	3.84
336.879	4.18
337.25	4.39
337.622	4.7
337.993	3.99
338.365	4.08
338.736	3.82
339.108	3.88
339.479	3.79
339.851	4.34
340.222	4.37
340.593	4.43
340.964	4.44
341.336	4.15
341.707	3.99
342.078	3.97
342.449	4.26
342.82	4.35
343.191	4.2
343.562	4.11
343.933	3.98
344.303	4.26
344.674	4.1
345.045	4.03
345.416	4.55
345.786	3.91
346.157	4.39
346.527	4.34
346.898	4.09
347.268	4.09
347.639	4.13
348.009	4.44
348.38	4.25
348.75	4.55
349.12	4.57
349.49	4.1
349.861	4.67
350.231	4.13
350.601	4.36
350.971	4.21
351.341	4.7
351.711	4.3
352.081	4.14
352.45	4.1
352.82	3.77
353.19	4.11
353.56	4.13
353.929	4.06
354.299	4.44
354.669	4.33
355.038	4.74
355.408	4.28
355.777	4.62
356.147	4.25
356.516	4.46
356.885	4.64
357.254	4.07
357.624	3.98
357.993	4.12
358.362	4.69
358.731	4.72
359.1	4.26
359.469	4.68
359.838	4.25
360.207	4.42
360.576	4.63
360.945	4.61
361.314	4.51
361.682	4.22
362.051	4.57
362.42	4.46
362.788	4.58
363.157	4.55
363.525	4.32
363.894	4.42
364.262	4.65
364.631	4.56
364.999	4.73
365.367	4.5
365.735	4.32
366.104	4.46
366.472	4.65
366.84	4.79
367.208	4.85
367.576	4.53
367.944	4.68
368.312	4.51
368.68	4.74
369.048	4.74
369.416	4.63
369.783	4.84
370.151	5.17
370.519	5.16
370.886	4.73
371.254	4.97
371.621	4.99
371.989	5.24
372.356	4.8
372.724	4.73
373.091	4.75
373.458	4.52
373.826	4.95
374.193	4.69
374.56	5.03
374.927	4.81
375.294	4.82
375.661	4.89
376.028	4.68
376.395	4.95
376.762	4.77
377.129	4.81
377.496	4.79
377.863	5.04
378.229	5.2
378.596	5.04
378.963	5.1
379.329	4.9
379.696	4.82
380.062	5.03
380.429	4.75
380.795	5.3
381.161	4.59
381.528	4.96
381.894	5
382.26	4.96
382.626	5.2
382.993	5.22
383.359	5.1
383.725	4.76
384.091	5.03
384.457	5.08
384.823	5.11
385.188	5.19
385.554	5.19
385.92	4.99
386.286	5.03
386.651	4.94
387.017	5.21
387.383	5.23
387.748	5.26
388.114	5.29
388.479	4.97
388.845	4.92
389.21	5.47
389.575	5.53
389.94	5.3
390.306	5.17
390.671	5.05
391.036	5.28
391.401	5.22
391.766	5.24
392.131	5.28
392.496	5.1
392.861	5.14
393.226	5
393.591	5.13
393.956	5.15
394.32	5.22
394.685	5.1
395.05	5.22
395.414	5.23
395.779	5.35
396.143	5.02
396.508	5.19
396.872	4.94
397.236	5.27
397.601	5.47
397.965	5.36
398.329	5.19
398.694	5
399.058	5.3
399.422	5.1
399.786	5.15
400.15	5.13
400.514	5.56
400.878	5.17
401.242	5.33
401.605	5.24
401.969	5.22
402.333	4.95
402.697	5.33
403.06	5.29
403.424	5.21
403.787	5.28
404.151	5.15
404.514	5.24
404.878	5.03
405.241	5.16
405.604	5.28
405.968	5.35
406.331	5.22
406.694	5.21
407.057	5.19
407.42	5.46
407.783	5.36
408.146	5.3
408.509	5.19
408.872	5.37
409.235	5.43
409.598	5.32
409.961	5.25
410.323	5.25
410.686	5.3
411.049	5.43
411.411	5.37
411.774	5.25
412.136	5.17
412.499	5.46
412.861	4.98
413.223	5.04
413.586	5.41
413.948	5.23
414.31	5.22
414.672	5.37
415.035	5.4
415.397	5.37
415.759	5.08
416.121	5.38
416.483	5.37
416.845	5.38
417.206	5.32
417.568	5.29
417.93	5.24
418.292	5.21
418.653	5.21
419.015	5.36
419.377	5.31
419.738	5.35
420.1	5.25
420.461	5.29
420.822	5.43
421.184	5.34
421.545	5.38
421.906	5.45
422.267	5.28
422.629	5.29
422.99	5.34
423.351	5.33
423.712	5.44
424.073	5.41
424.434	5.52
424.795	5.41
425.155	5.42
425.516	5.45
425.877	5.46
426.238	5.49
426.598	5.44
426.959	5.53
427.32	5.47
427.68	5.61
428.041	5.63
428.401	5.63
428.761	5.83
429.122	5.76
429.482	5.85
429.842	5.71
430.202	5.87
430.563	5.76
430.923	5.76
431.283	5.91
431.643	5.98
432.003	5.82
432.363	5.95
432.722	6.13
433.082	5.91
433.442	6.08
433.802	5.97
434.161	5.89
434.521	5.99
434.881	5.91
435.24	5.93
435.6	5.99
435.959	6.13
436.319	6.02
436.678	6.15
437.037	6.14
437.396	6.22
437.756	6.11
438.115	6.22
438.474	6.07
438.833	6.3
439.192	6.05
439.551	6.05
439.91	6.28
440.269	6.26
440.628	6.26
440.987	6.09
441.345	6.1
441.704	6.23
442.063	6.12
442.421	6.2
442.78	6.31
443.138	6.18
443.497	6.26
443.855	6.37
444.214	6.26
444.572	6.57
444.93	6.4
445.288	6.41
445.647	6.29
446.005	6.42
446.363	6.39
446.721	6.37
447.079	6.31
447.437	6.39
447.795	6.33
448.153	6.25
448.51	6.37
448.868	6.37
449.226	6.36
449.584	6.43
449.941	6.56
450.299	6.48
450.656	6.58
451.014	6.56
451.371	6.7
451.729	6.62
452.086	6.52
452.443	6.86
452.801	6.6
453.158	6.68
453.515	6.62
453.872	6.74
454.229	6.47
454.586	6.64
454.943	6.74
455.3	6.76
455.657	6.7
456.014	6.85
456.371	6.86
456.727	6.89
457.084	6.93
457.441	6.91
457.797	6.86
458.154	6.87
458.51	6.82
458.867	6.96
459.223	6.83
459.58	6.98
459.936	6.82
460.292	6.67
460.648	6.77
461.005	6.73
461.361	6.67
461.717	6.75
462.073	6.84
462.429	6.98
462.785	7.02
463.141	6.99
463.496	7.2
463.852	7.17
464.208	7.14
464.564	7.09
464.919	7.07
465.275	7.11
465.631	7.33
465.986	7.26
466.342	7.17
466.697	7.13
467.052	7.3
467.408	7.38
467.763	7.2
468.118	7.18
468.473	7.05
468.829	7.12
469.184	7.26
469.539	7.11
469.894	7.27
470.249	7.23
470.603	7.46
470.958	7.4
471.313	7.51
471.668	7.43
472.023	7.38
472.377	7.22
472.732	7.5
473.086	7.46
473.441	7.39
473.795	7.62
474.15	7.4
474.504	7.55
474.859	7.3
475.213	7.6
475.567	7.46
475.921	7.48
476.275	7.65
476.63	7.52
476.984	7.47
477.338	7.57
477.692	7.5
478.045	7.67
478.399	7.53
478.753	7.5
479.107	7.46
479.461	7.55
479.814	7.59
480.168	7.49
480.521	7.58
480.875	7.59
481.228	7.6
481.582	7.55
481.935	7.69
482.289	7.64
482.642	7.78
482.995	7.67
483.348	7.54
483.701	7.57
484.055	7.5
484.408	7.44
484.761	7.28
485.114	7.12
485.466	7.06
485.819	7.17
486.172	7.23
486.525	7.38
486.878	7.49
487.23	7.51
487.583	7.6
487.936	7.61
488.288	7.53
488.641	7.42
488.993	7.33
489.345	7.36
489.698	7.39
490.05	7.46
490.402	7.57
490.754	7.66
491.107	7.7
491.459	7.83
491.811	7.83
492.163	7.83
492.515	7.71
492.866	7.57
493.218	7.49
493.57	7.6
493.922	7.65
494.274	7.89
494.625	8.01
494.977	8.06
495.328	8.06
495.68	8
496.031	8.02
496.383	7.97
496.734	8
497.086	8.23
497.437	8.16
497.788	8.23
498.139	8.15
498.49	8.13
498.842	8.16
499.193	8.06
499.544	8.14
499.894	8.18
500.245	8.18
500.596	8.19
500.947	8.13
501.298	8.36
501.648	8.33
501.999	8.34
502.35	8.24
502.7	8.57
503.051	8.33
503.401	8.42
503.752	8.41
504.102	8.45
504.452	8.39
504.803	8.34
505.153	8.42
505.503	8.46
505.853	8.53
506.203	8.46
506.553	8.43
506.903	8.43
507.253	8.47
507.603	8.57
507.953	8.44
508.303	8.59
508.652	8.43
509.002	8.47
509.352	8.55
509.701	8.41
510.051	8.51
510.4	8.49
510.75	8.49
511.099	8.42
511.449	8.53
511.798	8.52
512.147	8.46
512.496	8.54
512.846	8.47
513.195	8.45
513.544	8.51
513.893	8.48
514.242	8.51
514.591	8.53
514.939	8.66
515.288	8.73
515.637	8.58
515.986	8.73
516.334	8.65
516.683	8.75
517.032	8.73
517.38	8.63
517.729	8.64
518.077	8.77
518.426	8.79
518.774	8.66
519.122	8.61
519.47	8.64
519.819	8.65
520.167	8.55
520.515	8.56
520.863	8.64
521.211	8.68
521.559	8.69
521.907	8.71
522.255	8.75
522.602	8.86
522.95	8.94
523.298	8.82
523.645	8.95
523.993	8.91
524.341	8.98
524.688	8.94
525.036	8.88
525.383	8.85
525.73	8.85
526.078	8.84
526.425	8.82
526.772	8.74
527.119	8.73
527.466	8.78
527.814	8.78
528.161	8.81
528.508	8.87
528.854	8.86
529.201	8.69
529.548	8.56
529.895	8.46
530.242	8.4
530.588	8.45
530.935	8.59
531.282	8.67
531.628	8.82
531.975	8.84
532.321	8.89
532.667	9.03
533.014	8.94
533.36	9.09
533.706	9.07
534.052	8.96
534.399	8.91
534.745	8.68
535.091	8.71
535.437	8.83
535.783	8.93
536.129	9.15
536.474	9.21
536.82	9.17
537.166	9.12
537.512	9.13
537.857	9.07
538.203	9.03
538.549	8.99
538.894	9.15
539.239	9.26
539.585	9.32
539.93	9.37
540.276	9.53
540.621	9.49
540.966	9.39
541.311	9.35
541.656	9.32
542.001	9.15
542.346	9.06
542.691	8.9
543.036	8.85
543.381	9.04
543.726	9.18
544.071	9.24
544.415	9.27
544.76	9.24
545.105	9.27
545.449	9.35
545.794	9.43
546.138	9.41
546.483	9.53
546.827	9.51
547.171	9.5
547.516	9.54
547.86	9.58
548.204	9.41
548.548	9.47
548.892	9.38
549.236	9.63
549.58	9.64
549.924	9.71
550.268	9.84
550.612	9.93
550.956	9.96
551.3	10.17
551.643	9.9
551.987	10.02
552.33	10.02
552.674	9.89
553.017	10.04
553.361	10.03
553.704	10.06
554.048	9.96
554.391	10.04
554.734	9.77
555.077	9.83
555.42	9.99
555.764	10.15
556.107	10.12
556.45	10.13
556.793	10.25
557.135	10.29
557.478	10.19
557.821	10.12
558.164	10.35
558.507	10.19
558.849	10.32
559.192	10.22
559.534	10.18
559.877	10.18
560.219	10.43
560.562	10.15
560.904	10.51
561.246	10.13
561.589	10.52
561.931	10.27
562.273	10.33
562.615	10.27
562.957	10.4
563.299	10.32
563.641	10.42
563.983	10.22
564.325	10.35
564.667	10.35
565.008	10.36
565.35	10.32
565.692	10.57
566.033	10.47
566.375	10.43
566.716	10.3
567.058	10.31
567.399	10.43
567.741	10.2
568.082	10.3
568.423	10.4
568.764	10.32
569.105	10.54
569.447	10.42
569.788	10.31
570.129	10.58
570.47	10.44
570.811	10.56
571.151	10.57
571.492	10.51
571.833	10.54
572.174	10.67
572.514	10.73
572.855	10.5
573.195	10.52
573.536	10.58
573.876	10.51
574.217	10.52
574.557	10.49
574.898	10.44
575.238	10.67
575.578	10.83
575.918	10.71
576.258	10.91
576.598	10.54
576.938	10.48
577.278	10.62
577.618	10.8
577.958	10.83
578.298	10.91
578.638	10.83
578.977	10.91
579.317	10.82
579.657	10.97
579.996	11.1
580.336	11
580.675	10.94
581.014	11.25
581.354	11.02
581.693	11.1
582.032	11.14
582.372	11.12
582.711	11.15
583.05	11.2
583.389	11.26
583.728	11.48
584.067	11.19
584.406	11.17
584.745	11.25
585.083	11.27
585.422	11.36
585.761	11.38
586.1	11.24
586.438	11.29
586.777	11.24
587.115	11.25
587.454	11.29
587.792	11.21
588.13	11.44
588.469	11.44
588.807	11.33
589.145	11.35
589.483	11.06
589.821	11.41
590.159	11.48
590.497	11.55
590.835	11.33
591.173	11.65
591.511	11.51
591.849	11.54
592.187	11.37
592.524	11.45
592.862	11.45
593.2	11.55
593.537	11.41
593.875	11.55
594.212	11.72
594.55	11.43
594.887	11.5
595.224	11.47
595.561	11.45
595.899	11.54
596.236	11.59
596.573	11.61
596.91	11.72
597.247	11.6
597.584	11.75
597.921	11.39
598.258	11.56
598.594	11.26
598.931	11.3
599.268	11.31
599.604	11.7
599.941	11.79
600.277	11.67
600.614	11.97
600.95	11.74
601.287	11.59
601.623	11.66
601.959	11.99
602.296	11.89
602.632	11.96
602.968	11.88
603.304	12.04
603.64	11.82
603.976	11.65
604.312	11.87
604.648	12.02
604.984	11.95
605.319	11.86
605.655	11.79
605.991	11.8
606.326	11.69
606.662	11.45
606.998	11.93
607.333	11.97
607.668	11.99
608.004	11.88
608.339	11.87
608.674	12.04
609.01	12.15
609.345	11.9
609.68	12.07
610.015	12.23
610.35	11.96
610.685	11.76
611.02	11.84
611.355	11.95
611.689	12.01
612.024	12.05
612.359	12.23
612.694	12.29
613.028	12.14
613.363	12.61
613.697	12.37
614.032	12.21
614.366	12.27
614.7	12.39
615.035	12.41
615.369	12.79
615.703	12.36
616.037	12.5
616.371	12.2
616.705	12.61
617.039	12.67
617.373	12.44
617.707	12.33
618.041	12.25
618.375	12.29
618.709	12.48
619.042	12.55
619.376	12.46
619.71	12.72
620.043	12.76
620.377	12.77
620.71	12.42
621.043	12.64
621.377	12.78
621.71	12.8
622.043	13
622.376	12.78
622.709	12.91
623.043	12.46
623.376	12.63
623.709	13
624.041	12.9
624.374	13.13
624.707	12.85
625.04	12.79
625.373	12.88
625.705	13.08
626.038	12.85
626.37	12.69
626.703	12.62
627.035	12.71
627.368	12.9
627.7	12.65
628.032	12.77
628.365	12.68
628.697	12.7
629.029	12.59
629.361	13
629.693	12.79
630.025	12.62
630.357	12.96
630.689	12.95
631.021	13.1
631.353	13.24
631.684	12.88
632.016	12.53
632.348	12.74
632.679	13.2
633.011	13
633.342	13.07
633.674	13.13
634.005	13.23
634.336	13.1
634.668	13.24
634.999	13.01
635.33	12.98
635.661	12.99
635.992	13.07
636.323	13.1
636.654	13.23
636.985	13.29
637.316	13.19
637.647	13.13
637.977	13.6
638.308	13.47
638.639	13.1
638.969	13.19
639.3	13.45
639.63	13.39
639.961	13.55
640.291	13.22
640.622	13.46
640.952	13.14
641.282	13.05
641.612	13.38
641.943	13.37
642.273	13.33
642.603	13.51
642.933	13.75
643.263	13.5
643.592	13.97
643.922	13.79
644.252	13.86
644.582	13.79
644.911	13.37
645.241	13.4
645.571	13.64
645.9	13.82
646.23	14.21
646.559	13.58
646.888	13.93
647.218	13.5
647.547	14.09
647.876	13.54
648.205	13.92
648.534	14.16
648.863	13.26
649.192	13.91
649.521	13.66
649.85	14.14
650.179	14.09
650.508	13.64
650.837	14.05
651.165	14.14
651.494	14.23
651.822	13.98
652.151	13.49
652.479	14.11
652.808	13.94
653.136	13.42
653.465	13.39
653.793	14.01
654.121	13.67
654.449	13.61
654.777	13.44
655.105	13.71
655.433	14.6
655.761	13.64
656.089	14.14
656.417	13.81
656.745	14.33
657.073	14.19
657.4	13.99
657.728	13.92
658.056	14.02
658.383	14.25
658.711	14.26
659.038	14.34
659.365	14.13
659.693	13.91
660.02	14.04
660.347	13.99
660.674	13.6
661.001	13.81
661.329	13.8
661.656	13.76
661.982	13.86
662.309	14.25
662.636	14.05
662.963	14.29
663.29	14.31
663.616	13.92
663.943	14.31
664.27	14.12
664.596	14.49
664.923	14.01
665.249	14.66
665.576	14.63
665.902	13.83
666.228	13.97
666.554	14.94
666.881	14.19
667.207	14.28
667.533	13.89
667.859	13.78
668.185	14.52
668.511	14.49
668.837	14.65
669.162	14.61
669.488	14.48
669.814	14.55
670.139	14.2
670.465	14.12
670.791	14.02
671.116	14.07
671.442	14.27
671.767	14.61
672.092	14.52
672.418	15.02
672.743	14.65
673.068	14.48
673.393	15.02
673.718	14.39
674.043	14.64
674.368	14.6
674.693	14.89
675.018	14.9
675.343	15.31
675.667	14.71
675.992	14.76
676.317	14.57
676.641	15.03
676.966	14.99
677.29	14.38
677.615	14.36
677.939	15.14
678.264	14.3
678.588	14.81
678.912	14.86
679.236	15.37
679.56	14.55
679.885	14.78
680.209	14.9
680.532	15.16
680.856	14.8
681.18	15.13
681.504	14.49
681.828	14.87
682.152	14.57
682.475	14.97
682.799	14.53
683.122	14.64
