Data from 21-3_crown_Reflection__4__114.txt Node

Date: Thu Dec 15 17:22:24 CST 2022
User: ToomeyLab
Spectrometer: FLMS14357
Trigger mode: 0
Integration Time (sec): 1.000000E-2
Scans to average: 100
Electric dark correction enabled: true
Nonlinearity correction enabled: false
Boxcar width: 0
XAxis mode: Wavelengths
Number of Pixels in Spectrum: 2048
>>>>>Begin Spectral Data<<<<<
189.047	120.19
189.435	120.19
189.823	120.19
190.211	-1.16
190.599	145.51
190.987	119.06
191.375	132.72
191.763	263.2
192.151	-709.61
192.538	52.01
192.926	54.07
193.314	83.27
193.702	125.85
194.089	-247.84
194.477	10.19
194.864	22.65
195.252	-16.28
195.639	196.1
196.027	-82.4
196.414	-138.19
196.801	59.44
197.189	136.43
197.576	198.23
197.963	-244.49
198.351	9.88
198.738	-147.33
199.125	-54.45
199.512	45.3
199.899	-52.18
200.286	-7.04
200.673	18.65
201.06	-22.64
201.447	3.69
201.833	14.64
202.22	-11.8
202.607	-9.63
202.994	-8.9
203.38	-5.43
203.767	-23.32
204.154	16.52
204.54	1.38
204.927	-10.57
205.313	17.82
205.699	18.89
206.086	2.12
206.472	40.7
206.858	4.08
207.245	0.05
207.631	-30.36
208.017	27.09
208.403	-76.24
208.789	8.21
209.175	21.73
209.561	-124.54
209.947	4.76
210.333	27.87
210.719	35.85
211.105	27.33
211.491	22.64
211.876	-8.46
212.262	-12.88
212.648	-7.36
213.034	-14.15
213.419	-22.04
213.805	-24.83
214.19	-27.96
214.576	-18.05
214.961	-23.53
215.346	-39.61
215.732	2.19
216.117	-19.39
216.502	-3.46
216.888	-37.57
217.273	-26.75
217.658	-0.73
218.043	-41.8
218.428	2.87
218.813	9.54
219.198	-54.32
219.583	-37.99
219.968	-5.38
220.353	-11.08
220.738	5.09
221.122	7.42
221.507	-25.43
221.892	-28.17
222.276	-7.33
222.661	-0.33
223.046	-9.13
223.43	8.59
223.815	-9.4
224.199	-3.17
224.583	1.51
224.968	-0.13
225.352	-16.49
225.736	-2.32
226.121	-8.99
226.505	-3.13
226.889	-0.81
227.273	-6.73
227.657	1.31
228.041	-2.46
228.425	-5.41
228.809	-0.69
229.193	3.05
229.577	2.4
229.961	1.26
230.344	2.45
230.728	2.71
231.112	3.33
231.495	0.84
231.879	3.07
232.263	3.55
232.646	1.41
233.03	2.56
233.413	2.61
233.797	1.29
234.18	-0.58
234.563	1.36
234.946	0.02
235.33	2.35
235.713	2.48
236.096	4.08
236.479	3.3
236.862	0.7
237.245	1.84
237.628	1.26
238.011	2.51
238.394	2.19
238.777	2.39
239.16	3.09
239.543	2.73
239.925	0.86
240.308	3.08
240.691	1.51
241.073	1.59
241.456	2.48
241.838	2.9
242.221	3.11
242.603	2.94
242.986	2.2
243.368	3.15
243.75	2.61
244.133	2.91
244.515	2.77
244.897	2.11
245.279	1.76
245.661	1.6
246.043	2.25
246.425	1.95
246.807	2.01
247.189	2.27
247.571	2.34
247.953	2.54
248.335	2.66
248.717	2.56
249.098	2.59
249.48	2.2
249.862	2.76
250.243	2.51
250.625	2.83
251.006	3.41
251.388	2.12
251.769	0.84
252.151	2.8
252.532	2.28
252.913	2.45
253.295	2.39
253.676	2.81
254.057	2.3
254.438	2.71
254.819	2.34
255.2	2.9
255.581	2.37
255.962	3.57
256.343	2.14
256.724	2.14
257.105	2.49
257.486	1.57
257.867	1.96
258.247	2.84
258.628	2.69
259.009	2.02
259.389	1.86
259.77	2.58
260.15	3.22
260.531	2.49
260.911	2.42
261.292	2.55
261.672	2.5
262.052	2.61
262.432	2.15
262.813	2.45
263.193	2.41
263.573	2.14
263.953	1.92
264.333	2.31
264.713	2.99
265.093	1.78
265.473	1.52
265.853	3.04
266.233	1.94
266.612	1.95
266.992	2.14
267.372	2.73
267.752	2.97
268.131	2.33
268.511	2.1
268.89	3
269.27	1.87
269.649	2.06
270.029	2.3
270.408	2.2
270.787	2.08
271.167	2.61
271.546	2.74
271.925	2.63
272.304	2.28
272.683	2.44
273.062	2.33
273.441	2.17
273.82	2.31
274.199	2.45
274.578	2.71
274.957	2.32
275.336	2.3
275.715	2.1
276.093	2.27
276.472	1.91
276.851	2.08
277.229	2.42
277.608	1.72
277.986	2.45
278.365	3.31
278.743	2.41
279.122	2.44
279.5	3.04
279.878	2.04
280.257	1.95
280.635	2.7
281.013	2.04
281.391	1.95
281.769	2.94
282.147	2.17
282.525	2.58
282.903	2.2
283.281	2.37
283.659	2.16
284.037	2.18
284.415	2.25
284.792	2.12
285.17	1.84
285.548	2.42
285.925	2.14
286.303	2.83
286.68	2.28
287.058	2.16
287.435	2.21
287.813	2.6
288.19	2.26
288.567	2.6
288.945	2.07
289.322	2.28
289.699	2.57
290.076	2.54
290.453	1.72
290.83	2.65
291.207	2.65
291.584	2.46
291.961	2.65
292.338	2.05
292.715	2.27
293.092	2.52
293.469	2.34
293.845	2.08
294.222	2.54
294.599	1.87
294.975	1.49
295.352	2.52
295.728	2.48
296.105	2.4
296.481	2.4
296.858	2.31
297.234	2.29
297.61	2.61
297.986	2.62
298.363	2.55
298.739	2.65
299.115	2.57
299.491	2.7
299.867	2.13
300.243	2.19
300.619	2.21
300.995	2.34
301.371	2.63
301.746	2.23
302.122	2.15
302.498	2.3
302.874	2.11
303.249	2.22
303.625	1.84
304	2.47
304.376	2.61
304.751	2.71
305.127	2.29
305.502	2.75
305.878	2.82
306.253	2.25
306.628	2.74
307.003	2.21
307.378	2.31
307.754	2.05
308.129	2.22
308.504	2.37
308.879	2.8
309.254	2.51
309.629	2.51
310.003	2.48
310.378	2.41
310.753	2.9
311.128	2.08
311.502	2.44
311.877	2.43
312.252	2.7
312.626	2.81
313.001	2.44
313.375	2.77
313.75	2.33
314.124	2.66
314.498	2.71
314.873	2.16
315.247	2.19
315.621	2.17
315.995	2.29
316.369	1.88
316.743	2.07
317.117	2.35
317.491	2.33
317.865	2.13
318.239	3.02
318.613	2.15
318.987	2.62
319.361	2.48
319.734	2.17
320.108	2.77
320.482	2.66
320.855	2.45
321.229	2.18
321.602	1.92
321.976	2.07
322.349	2.77
322.723	1.99
323.096	2.4
323.469	1.99
323.843	1.95
324.216	2.35
324.589	2.5
324.962	2.17
325.335	2.28
325.708	2.62
326.081	2.8
326.454	2.5
326.827	2.39
327.2	2.25
327.573	2.58
327.945	2.26
328.318	1.89
328.691	2.27
329.063	1.96
329.436	2.05
329.809	2.61
330.181	2.87
330.553	2.45
330.926	2.63
331.298	2.43
331.671	2.64
332.043	2.18
332.415	2.53
332.787	2.47
333.159	2.11
333.532	2.36
333.904	2.79
334.276	2.1
334.648	2.62
335.02	2.09
335.391	1.94
335.763	2.3
336.135	2.12
336.507	2.12
336.879	2.26
337.25	2.35
337.622	2.27
337.993	2.52
338.365	2.25
338.736	2.2
339.108	2.7
339.479	2.19
339.851	2.54
340.222	2.71
340.593	1.78
340.964	2.4
341.336	2.19
341.707	2.11
342.078	2.04
342.449	2.56
342.82	2.36
343.191	2.48
343.562	2.55
343.933	2.29
344.303	2.65
344.674	2.25
345.045	2.38
345.416	2.73
345.786	2.32
346.157	2.26
346.527	2.5
346.898	2.23
347.268	2.38
347.639	1.85
348.009	2.47
348.38	1.84
348.75	2.42
349.12	2.64
349.49	2.28
349.861	2.61
350.231	2.12
350.601	2.36
350.971	1.66
351.341	2.42
351.711	2.48
352.081	2.43
352.45	1.81
352.82	1.96
353.19	2.2
353.56	2.05
353.929	2.31
354.299	2.49
354.669	2.2
355.038	2.41
355.408	2.43
355.777	2.42
356.147	1.99
356.516	2.4
356.885	2.55
357.254	1.92
357.624	2.07
357.993	2.51
358.362	2.55
358.731	2.71
359.1	2.23
359.469	2.35
359.838	2.29
360.207	2.5
360.576	2.55
360.945	2.41
361.314	2.29
361.682	2.13
362.051	2.62
362.42	2.36
362.788	2.31
363.157	2.5
363.525	2.56
363.894	2.17
364.262	2.16
364.631	2.63
364.999	2.56
365.367	2.39
365.735	2.07
366.104	2.25
366.472	2.4
366.84	2.35
367.208	2.75
367.576	2.14
367.944	2.29
368.312	2.2
368.68	2.56
369.048	2.36
369.416	2.27
369.783	2.2
370.151	2.29
370.519	2.72
370.886	2.29
371.254	2.56
371.621	2.69
371.989	2.57
372.356	2.6
372.724	2.35
373.091	2.46
373.458	2.1
373.826	2.47
374.193	2.43
374.56	2.6
374.927	2.26
375.294	2.52
375.661	2.57
376.028	2.35
376.395	2.45
376.762	2.71
377.129	2.33
377.496	2.41
377.863	2.55
378.229	2.54
378.596	2.5
378.963	2.31
379.329	2.21
379.696	2.38
380.062	2.64
380.429	2.06
380.795	2.7
381.161	2.15
381.528	2.12
381.894	2.24
382.26	2.25
382.626	2.63
382.993	2.74
383.359	2.47
383.725	2.21
384.091	2.55
384.457	2.54
384.823	2.41
385.188	2.57
385.554	2.38
385.92	2.35
386.286	2.38
386.651	2.32
387.017	2.63
387.383	2.27
387.748	2.56
388.114	2.59
388.479	2.37
388.845	2.44
389.21	2.78
389.575	2.65
389.94	2.5
390.306	2.35
390.671	2.68
391.036	2.32
391.401	2.45
391.766	2.19
392.131	2.62
392.496	2.37
392.861	2.41
393.226	2.35
393.591	2.53
393.956	2.61
394.32	2.47
394.685	2.67
395.05	2.45
395.414	2.56
395.779	2.73
396.143	2.36
396.508	2.45
396.872	2.45
397.236	2.8
397.601	2.55
397.965	2.59
398.329	2.67
398.694	2.26
399.058	2.56
399.422	2.17
399.786	2.49
400.15	2.62
400.514	2.45
400.878	2.35
401.242	2.54
401.605	2.45
401.969	2.47
402.333	2.56
402.697	2.85
403.06	2.48
403.424	2.62
403.787	2.53
404.151	2.28
404.514	2.41
404.878	2.55
405.241	2.65
405.604	2.4
405.968	2.6
406.331	2.53
406.694	2.47
407.057	2.42
407.42	2.41
407.783	2.55
408.146	2.45
408.509	2.56
408.872	2.78
409.235	2.63
409.598	2.6
409.961	2.77
410.323	2.45
410.686	2.43
411.049	2.47
411.411	2.66
411.774	2.46
412.136	2.62
412.499	2.63
412.861	2.23
413.223	2.46
413.586	2.81
413.948	2.47
414.31	2.64
414.672	2.52
415.035	2.64
415.397	2.57
415.759	2.34
416.121	2.68
416.483	2.6
416.845	2.6
417.206	2.59
417.568	2.38
417.93	2.72
418.292	2.41
418.653	2.39
419.015	2.54
419.377	2.45
419.738	2.49
420.1	2.5
420.461	2.47
420.822	2.49
421.184	2.5
421.545	2.65
421.906	2.57
422.267	2.43
422.629	2.53
422.99	2.55
423.351	2.52
423.712	2.51
424.073	2.53
424.434	2.61
424.795	2.45
425.155	2.53
425.516	2.5
425.877	2.54
426.238	2.61
426.598	2.56
426.959	2.6
427.32	2.51
427.68	2.53
428.041	2.63
428.401	2.42
428.761	2.69
429.122	2.6
429.482	2.77
429.842	2.66
430.202	2.62
430.563	2.65
430.923	2.6
431.283	2.61
431.643	2.69
432.003	2.63
432.363	2.66
432.722	2.55
433.082	2.64
433.442	2.8
433.802	2.69
434.161	2.62
434.521	2.69
434.881	2.59
435.24	2.7
435.6	2.57
435.959	2.76
436.319	2.64
436.678	2.77
437.037	2.71
437.396	2.71
437.756	2.62
438.115	2.63
438.474	2.78
438.833	2.69
439.192	2.73
439.551	2.62
439.91	2.81
440.269	2.52
440.628	2.67
440.987	2.6
441.345	2.71
441.704	2.56
442.063	2.59
442.421	2.69
442.78	2.68
443.138	2.63
443.497	2.61
443.855	2.66
444.214	2.58
444.572	2.69
444.93	2.67
445.288	2.7
445.647	2.5
446.005	2.68
446.363	2.64
446.721	2.72
447.079	2.66
447.437	2.67
447.795	2.74
448.153	2.68
448.51	2.69
448.868	2.71
449.226	2.75
449.584	2.68
449.941	2.73
450.299	2.57
450.656	2.59
451.014	2.78
451.371	2.76
451.729	2.65
452.086	2.64
452.443	2.83
452.801	2.69
453.158	2.89
453.515	2.69
453.872	2.64
454.229	2.52
454.586	2.57
454.943	2.77
455.3	2.72
455.657	2.68
456.014	2.7
456.371	2.73
456.727	2.89
457.084	2.91
457.441	2.84
457.797	2.68
458.154	2.67
458.51	2.82
458.867	2.78
459.223	2.62
459.58	2.76
459.936	2.75
460.292	2.7
460.648	2.58
461.005	2.62
461.361	2.64
461.717	2.7
462.073	2.75
462.429	2.74
462.785	2.94
463.141	2.71
463.496	2.77
463.852	2.88
464.208	2.86
464.564	2.72
464.919	2.62
465.275	2.82
465.631	3.01
465.986	2.67
466.342	2.78
466.697	2.68
467.052	2.92
467.408	2.84
467.763	2.7
468.118	2.83
468.473	2.77
468.829	2.74
469.184	2.88
469.539	2.72
469.894	2.85
470.249	2.84
470.603	2.93
470.958	2.94
471.313	2.85
471.668	2.77
472.023	2.86
472.377	2.74
472.732	2.87
473.086	2.73
473.441	2.87
473.795	3
474.15	2.75
474.504	2.75
474.859	2.64
475.213	2.85
475.567	2.75
475.921	2.95
476.275	2.88
476.63	2.8
476.984	2.65
477.338	2.86
477.692	2.82
478.045	2.9
478.399	2.89
478.753	2.76
479.107	2.82
479.461	2.81
479.814	2.87
480.168	2.84
480.521	2.89
480.875	2.82
481.228	2.78
481.582	2.81
481.935	2.81
482.289	2.9
482.642	2.97
482.995	2.74
483.348	2.77
483.701	2.79
484.055	2.76
484.408	2.81
484.761	2.69
485.114	2.63
485.466	2.59
485.819	2.66
486.172	2.73
486.525	2.74
486.878	2.82
487.23	2.79
487.583	2.78
487.936	2.78
488.288	2.78
488.641	2.73
488.993	2.67
489.345	2.67
489.698	2.75
490.05	2.76
490.402	2.75
490.754	2.81
491.107	2.79
491.459	2.85
491.811	2.82
492.163	2.79
492.515	2.78
492.866	2.73
493.218	2.71
493.57	2.76
493.922	2.8
494.274	2.92
494.625	2.96
494.977	2.79
495.328	2.96
495.68	2.89
496.031	2.92
496.383	2.92
496.734	2.83
497.086	3.02
497.437	2.99
497.788	2.96
498.139	2.82
498.49	2.95
498.842	2.96
499.193	2.82
499.544	2.95
499.894	2.88
500.245	2.92
500.596	2.92
500.947	2.87
501.298	2.9
501.648	2.96
501.999	2.95
502.35	2.75
502.7	3.15
503.051	2.97
503.401	2.99
503.752	2.87
504.102	2.88
504.452	2.72
504.803	2.92
505.153	3.04
505.503	2.97
505.853	3.03
506.203	2.99
506.553	2.91
506.903	3.01
507.253	2.93
507.603	2.97
507.953	3
508.303	3.04
508.652	2.86
509.002	3.03
509.352	2.9
509.701	2.85
510.051	2.99
510.4	3.07
510.75	2.95
511.099	2.87
511.449	3.09
511.798	2.93
512.147	2.94
512.496	3.09
512.846	2.95
513.195	2.95
513.544	3.03
513.893	2.95
514.242	2.94
514.591	2.97
514.939	3.05
515.288	3.02
515.637	3.01
515.986	2.96
516.334	3.01
516.683	3.07
517.032	2.9
517.38	2.86
517.729	2.92
518.077	2.98
518.426	3.03
518.774	2.97
519.122	3.02
519.47	2.91
519.819	2.91
520.167	2.87
520.515	3
520.863	2.92
521.211	3.04
521.559	2.99
521.907	2.96
522.255	3
522.602	2.97
522.95	3.04
523.298	2.95
523.645	2.99
523.993	3.04
524.341	3.05
524.688	3.05
525.036	3.07
525.383	3.03
525.73	2.94
526.078	3.05
526.425	3.07
526.772	2.97
527.119	2.91
527.466	2.98
527.814	2.98
528.161	3.14
528.508	3.04
528.854	2.99
529.201	2.91
529.548	2.93
529.895	2.82
530.242	2.82
530.588	2.84
530.935	2.93
531.282	2.92
531.628	3.02
531.975	2.96
532.321	3.08
532.667	3.02
533.014	3.13
533.36	3.05
533.706	3.05
534.052	3.06
534.399	3.06
534.745	2.95
535.091	2.9
535.437	2.96
535.783	2.97
536.129	3.01
536.474	3.12
536.82	3.14
537.166	2.99
537.512	3.04
537.857	3.05
538.203	2.99
538.549	2.96
538.894	3.05
539.239	3.12
539.585	3.09
539.93	3.19
540.276	3.02
540.621	3.09
540.966	3.02
541.311	3.1
541.656	3
542.001	2.99
542.346	3.01
542.691	2.93
543.036	2.92
543.381	2.94
543.726	3.03
544.071	3.05
544.415	3.08
544.76	3.07
545.105	3.12
545.449	3.11
545.794	3.1
546.138	3.02
546.483	3.16
546.827	3.12
547.171	3.07
547.516	3.04
547.86	3.13
548.204	3.12
548.548	3.11
548.892	3.12
549.236	3
549.58	3.2
549.924	3.33
550.268	3.27
550.612	3.21
550.956	3.31
551.3	3.45
551.643	3.3
551.987	3.22
552.33	3.41
552.674	3.1
553.017	3.31
553.361	3.28
553.704	3.33
554.048	3.14
554.391	3.24
554.734	3.12
555.077	3.22
555.42	3.12
555.764	3.27
556.107	3.31
556.45	3.26
556.793	3.34
557.135	3.25
557.478	3.3
557.821	3.23
558.164	3.31
558.507	3.33
558.849	3.3
559.192	3.18
559.534	3.28
559.877	3.28
560.219	3.18
560.562	3.26
560.904	3.51
561.246	3.26
561.589	3.38
561.931	3.33
562.273	3.16
562.615	3.17
562.957	3.23
563.299	3.41
563.641	3.28
563.983	3.19
564.325	3.3
564.667	3.34
565.008	3.18
565.35	3.13
565.692	3.23
566.033	3.19
566.375	3.27
566.716	3.38
567.058	3.21
567.399	3.29
567.741	3.35
568.082	3.23
568.423	3.2
568.764	3.27
569.105	3.24
569.447	3.23
569.788	3.14
570.129	3.43
570.47	3.2
570.811	3.24
571.151	3.15
571.492	3.24
571.833	3.2
572.174	3.41
572.514	3.27
572.855	3.43
573.195	3.12
573.536	3.3
573.876	3.17
574.217	3.23
574.557	3.29
574.898	3.32
575.238	3.3
575.578	3.35
575.918	3.29
576.258	3.45
576.598	3.23
576.938	3.21
577.278	3.34
577.618	3.33
577.958	3.3
578.298	3.43
578.638	3.24
578.977	3.36
579.317	3.33
579.657	3.42
579.996	3.48
580.336	3.5
580.675	3.28
581.014	3.21
581.354	3.28
581.693	3.55
582.032	3.53
582.372	3.46
582.711	3.64
583.05	3.39
583.389	3.39
583.728	3.61
584.067	3.33
584.406	3.41
584.745	3.29
585.083	3.41
585.422	3.52
585.761	3.62
586.1	3.62
586.438	3.4
586.777	3.36
587.115	3.54
587.454	3.22
587.792	3.43
588.13	3.28
588.469	3.34
588.807	3.34
589.145	3.39
589.483	3.19
589.821	3.45
590.159	3.57
590.497	3.44
590.835	3.67
591.173	3.57
591.511	3.72
591.849	3.55
592.187	3.36
592.524	3.62
592.862	3.35
593.2	3.45
593.537	3.46
593.875	3.54
594.212	3.48
594.55	3.32
594.887	3.79
595.224	3.66
595.561	3.44
595.899	3.47
596.236	3.48
596.573	3.3
596.91	3.31
597.247	3.64
597.584	3.45
597.921	3.31
598.258	3.63
598.594	3.45
598.931	3.32
599.268	3.17
599.604	3.61
599.941	3.72
600.277	3.39
600.614	3.36
600.95	3.31
601.287	3.3
601.623	3.28
601.959	3.8
602.296	3.64
602.632	3.49
602.968	3.5
603.304	3.58
603.64	3.44
603.976	3.32
604.312	3.29
604.648	3.39
604.984	3.54
605.319	3.45
605.655	3.53
605.991	3.3
606.326	3.36
606.662	3.33
606.998	3.6
607.333	3.46
607.668	3.39
608.004	3.58
608.339	3.32
608.674	3.54
609.01	3.78
609.345	3.49
609.68	3.41
610.015	3.56
610.35	3.53
610.685	3.26
611.02	3.42
611.355	3.41
611.689	3.43
612.024	3.64
612.359	3.42
612.694	3.72
613.028	3.6
613.363	3.52
613.697	3.58
614.032	3.63
614.366	3.45
614.7	3.71
615.035	3.73
615.369	3.84
615.703	3.77
616.037	3.77
616.371	3.62
616.705	3.47
617.039	3.39
617.373	3.74
617.707	3.41
618.041	3.08
618.375	3.14
618.709	3.72
619.042	3.55
619.376	3.5
619.71	3.35
620.043	3.67
620.377	3.66
620.71	3.59
621.043	3.89
621.377	3.7
621.71	3.92
622.043	3.64
622.376	3.83
622.709	3.92
623.043	3.59
623.376	3.62
623.709	3.76
624.041	3.69
624.374	3.82
624.707	3.61
625.04	3.37
625.373	3.75
625.705	3.8
626.038	3.78
626.37	3.53
626.703	3.69
627.035	3.47
627.368	4.02
627.7	3.66
628.032	3.38
628.365	3.78
628.697	3.82
629.029	3.41
629.361	3.75
629.693	3.46
630.025	3.79
630.357	3.8
630.689	3.61
631.021	3.86
631.353	3.77
631.684	3.49
632.016	3.14
632.348	3.42
632.679	3.85
633.011	3.63
633.342	3.79
633.674	3.74
634.005	3.66
634.336	3.79
634.668	3.8
634.999	3.4
635.33	3.62
635.661	3.51
635.992	3.77
636.323	3.83
636.654	3.84
636.985	3.92
637.316	3.59
637.647	3.83
637.977	3.71
638.308	3.85
638.639	3.58
638.969	3.61
639.3	3.38
639.63	3.18
639.961	4.07
640.291	3.37
640.622	3.95
640.952	3.87
641.282	3.25
641.612	3.3
641.943	3.33
642.273	3.56
642.603	3.94
642.933	3.75
643.263	3.74
643.592	3.74
643.922	4.02
644.252	3.6
644.582	3.95
644.911	4.01
645.241	3.48
645.571	3.64
645.9	3.94
646.23	3.77
646.559	3.11
646.888	3.77
647.218	3.74
647.547	3.76
647.876	3.27
648.205	3.41
648.534	4.09
648.863	3.86
649.192	4.07
649.521	3.78
649.85	3.99
650.179	3.84
650.508	3.29
650.837	3.89
651.165	3.8
651.494	4.05
651.822	4.23
652.151	3.17
652.479	3.66
652.808	3.79
653.136	3.54
653.465	3.64
653.793	3.82
654.121	3.83
654.449	3.15
654.777	3.39
655.105	3.24
655.433	4.25
655.761	3.87
656.089	4.05
656.417	4.15
656.745	3.77
657.073	3.62
657.4	3.52
657.728	3.43
658.056	3.52
658.383	3.7
658.711	3.77
659.038	4.1
659.365	4.24
659.693	4
660.02	4.05
660.347	3.7
660.674	3.28
661.001	4
661.329	3.66
661.656	3.49
661.982	3.69
662.309	3.67
662.636	3.75
662.963	3.85
663.29	3.85
663.616	3.47
663.943	3.85
664.27	3.61
664.596	3.32
664.923	3.89
665.249	3.67
665.576	3.33
665.902	3.27
666.228	4.29
666.554	4.44
666.881	3.55
667.207	3.79
667.533	4.25
667.859	3.7
668.185	3.65
668.511	4.03
668.837	4.14
669.162	4.08
669.488	3.47
669.814	3.52
670.139	3.3
670.465	3.98
670.791	3.39
671.116	3.87
671.442	3.04
671.767	3.73
672.092	3.61
672.418	3.88
672.743	4.09
673.068	3.66
673.393	4.25
673.718	3.35
674.043	3.72
674.368	3.83
674.693	3.75
675.018	3.94
675.343	4.19
675.667	4.36
675.992	3.63
676.317	3.56
676.641	3.84
676.966	3.87
677.29	2.93
677.615	3.43
677.939	4.05
678.264	3.8
678.588	3.6
678.912	3.62
679.236	3.95
679.56	3.64
679.885	4.03
680.209	4.36
680.532	3.91
680.856	4.26
681.18	4.63
681.504	3.56
681.828	3.47
682.152	3.74
682.475	3.57
682.799	3.56
683.122	4.26
683.446	2.8
683.769	4.12
684.093	3.6
684.416	3.43
684.739	3.76
685.062	4.11
685.386	4.32
685.709	4.11
686.032	3.87
686.355	3.68
686.678	4.61
687.001	3.92
687.324	3.99
687.646	3.43
687.969	4.24
688.292	3.58
688.614	3.98
688.937	3.73
689.26	4.79
689.582	3.82
689.904	4.12
690.227	4.29
690.549	4.75
690.871	4.38
691.194	3.44
691.516	3.66
691.838	4.08
692.16	3.18
