Data from 21-3_crown_Reflection__2__112.txt Node

Date: Thu Dec 15 17:22:05 CST 2022
User: ToomeyLab
Spectrometer: FLMS14357
Trigger mode: 0
Integration Time (sec): 1.000000E-2
Scans to average: 100
Electric dark correction enabled: true
Nonlinearity correction enabled: false
Boxcar width: 0
XAxis mode: Wavelengths
Number of Pixels in Spectrum: 2048
>>>>>Begin Spectral Data<<<<<
189.047	-24.62
189.435	-24.62
189.823	-24.62
190.211	1135.07
190.599	217.87
190.987	180
191.375	48.3
191.763	216.73
192.151	-946.26
192.538	-34.95
192.926	12.42
193.314	0.05
193.702	227.62
194.089	-97.12
194.477	-164.94
194.864	112.47
195.252	26.54
195.639	129.06
196.027	54.06
196.414	-5.37
196.801	55.64
197.189	53.34
197.576	264.33
197.963	-59.08
198.351	-29.01
198.738	56.37
199.125	-102.98
199.512	20.82
199.899	-33.86
200.286	-15.39
200.673	22.62
201.06	-12.74
201.447	-12.15
201.833	8.37
202.22	15.78
202.607	-33.61
202.994	2.48
203.38	0.24
203.767	1.68
204.154	10.48
204.54	3.58
204.927	29.79
205.313	23.32
205.699	26.67
206.086	32.03
206.472	28.05
206.858	-34.84
207.245	4.62
207.631	7.66
208.017	45.97
208.403	-47.84
208.789	12.28
209.175	36.07
209.561	-35.64
209.947	-12.75
210.333	-12.88
210.719	13.22
211.105	40.1
211.491	-8.15
211.876	-23.33
212.262	25.82
212.648	26.36
213.034	-22.64
213.419	-5.89
213.805	-16.47
214.19	-25.09
214.576	-23.44
214.961	-0.35
215.346	16.38
215.732	3.08
216.117	-0.24
216.502	-39.95
216.888	-3.9
217.273	-3.05
217.658	-18.18
218.043	-25.76
218.428	-55.44
218.813	7.91
219.198	-29.91
219.583	-0.74
219.968	6.01
220.353	-7.27
220.738	-2.13
221.122	4.79
221.507	-14.41
221.892	-21.71
222.276	-35.67
222.661	-8.86
223.046	-15.54
223.43	2.01
223.815	-8.56
224.199	-2.92
224.583	1.22
224.968	-0.11
225.352	1.81
225.736	9.68
226.121	-0.7
226.505	-10.53
226.889	4.04
227.273	-5.2
227.657	4.04
228.041	-1.23
228.425	-4.63
228.809	1.8
229.193	3.35
229.577	1.37
229.961	0.67
230.344	2.72
230.728	2.95
231.112	2.58
231.495	1.11
231.879	1.75
232.263	2.46
232.646	0.82
233.03	3.71
233.413	1.42
233.797	1.69
234.18	4.41
234.563	1.44
234.946	3
235.33	1.3
235.713	2.92
236.096	3.63
236.479	3.24
236.862	0.87
237.245	2.33
237.628	1.79
238.011	1.88
238.394	1.33
238.777	3.7
239.16	3.94
239.543	3.17
239.925	1.96
240.308	0.5
240.691	3.13
241.073	1.92
241.456	2.57
241.838	2.4
242.221	2.68
242.603	2.7
242.986	2.49
243.368	3.11
243.75	2.56
244.133	2.79
244.515	2.14
244.897	2.61
245.279	2.36
245.661	2.82
246.043	2.2
246.425	2.88
246.807	2.45
247.189	2.15
247.571	2.17
247.953	2.44
248.335	2.8
248.717	2.56
249.098	2.84
249.48	2.58
249.862	3.18
250.243	2.76
250.625	2.72
251.006	3.72
251.388	2.94
251.769	2.01
252.151	2.98
252.532	2.31
252.913	2.71
253.295	2.47
253.676	3.02
254.057	2.53
254.438	3.22
254.819	2.36
255.2	3.07
255.581	3.11
255.962	3.64
256.343	2.92
256.724	2.78
257.105	3.16
257.486	1.97
257.867	1.9
258.247	2.29
258.628	2.17
259.009	2.44
259.389	2.01
259.77	2.72
260.15	3.07
260.531	2.73
260.911	2.71
261.292	2.59
261.672	2.58
262.052	2.71
262.432	2.58
262.813	2.96
263.193	2.84
263.573	2.3
263.953	2.52
264.333	2.39
264.713	2.29
265.093	2.15
265.473	1.67
265.853	2.91
266.233	1.92
266.612	2.12
266.992	1.67
267.372	2.2
267.752	2.45
268.131	2.32
268.511	2.34
268.89	2.63
269.27	1.82
269.649	2.48
270.029	2.72
270.408	1.53
270.787	2.67
271.167	2.3
271.546	3.32
271.925	2.84
272.304	2.51
272.683	2.13
273.062	2.33
273.441	2.06
273.82	2.43
274.199	2.35
274.578	2.38
274.957	2.27
275.336	2.63
275.715	2.45
276.093	2.16
276.472	2.45
276.851	2.31
277.229	2.66
277.608	1.85
277.986	2.58
278.365	2.66
278.743	2.45
279.122	2.22
279.5	2.82
279.878	1.92
280.257	2.77
280.635	2.37
281.013	2.02
281.391	2.42
281.769	2.57
282.147	1.93
282.525	1.65
282.903	2.06
283.281	2.91
283.659	2.77
284.037	2.42
284.415	2.15
284.792	2.62
285.17	2.58
285.548	2.28
285.925	2.41
286.303	2.85
286.68	2.16
287.058	2.59
287.435	2.34
287.813	2.49
288.19	2.42
288.567	2.5
288.945	2.33
289.322	2.45
289.699	2.51
290.076	2.03
290.453	1.94
290.83	2.59
291.207	2.47
291.584	3.17
291.961	2.02
292.338	2.49
292.715	2.05
293.092	2.88
293.469	2.64
293.845	2.51
294.222	2.86
294.599	2.15
294.975	1.94
295.352	2.61
295.728	2.45
296.105	2.51
296.481	2.75
296.858	2.51
297.234	2.31
297.61	2.16
297.986	2.99
298.363	2.66
298.739	2.81
299.115	2.76
299.491	3
299.867	2.61
300.243	2.35
300.619	2.44
300.995	2.55
301.371	2.48
301.746	2.59
302.122	2.01
302.498	2.31
302.874	2.6
303.249	2.71
303.625	2.28
304	2.83
304.376	2.97
304.751	2.78
305.127	2.54
305.502	2.65
305.878	3.12
306.253	2.24
306.628	2.86
307.003	2.27
307.378	2.5
307.754	2.99
308.129	2.54
308.504	2.48
308.879	2.64
309.254	3.06
309.629	2.84
310.003	2.28
310.378	2.88
310.753	2.27
311.128	2.57
311.502	2.68
311.877	2.67
312.252	2.51
312.626	2.89
313.001	2.46
313.375	2.65
313.75	2.79
314.124	2.72
314.498	3.02
314.873	2.05
315.247	2.48
315.621	2.42
315.995	2.38
316.369	2.63
316.743	2.63
317.117	2.97
317.491	2.37
317.865	2.57
318.239	3.49
318.613	2.53
318.987	2.42
319.361	2.47
319.734	2.63
320.108	2.7
320.482	3.13
320.855	2.77
321.229	2.43
321.602	2.42
321.976	1.45
322.349	3.22
322.723	2.62
323.096	2.48
323.469	2.85
323.843	2.29
324.216	2.75
324.589	2.65
324.962	2.52
325.335	2.11
325.708	2.56
326.081	3.16
326.454	2.83
326.827	2.82
327.2	2.41
327.573	3.13
327.945	2.26
328.318	2.43
328.691	2.64
329.063	2.66
329.436	2.11
329.809	2.92
330.181	3.5
330.553	2.55
330.926	2.94
331.298	2.69
331.671	3.1
332.043	2.67
332.415	2.72
332.787	2.58
333.159	2.61
333.532	2.65
333.904	2.77
334.276	2.77
334.648	2.71
335.02	2.8
335.391	2.27
335.763	2.87
336.135	2.77
336.507	2.82
336.879	2.5
337.25	3.13
337.622	2.44
337.993	2.85
338.365	2.75
338.736	3.06
339.108	2.42
339.479	2.65
339.851	2.35
340.222	2.66
340.593	2.63
340.964	2.91
341.336	2.42
341.707	2.69
342.078	2.22
342.449	2.61
342.82	2.66
343.191	2.55
343.562	2.54
343.933	2.59
344.303	2.63
344.674	2.97
345.045	2.51
345.416	2.96
345.786	2.61
346.157	2.73
346.527	2.62
346.898	2.6
347.268	2.84
347.639	2.26
348.009	2.94
348.38	2.38
348.75	3.04
349.12	3
349.49	2.88
349.861	2.58
350.231	2.89
350.601	2.88
350.971	2.57
351.341	2.93
351.711	2.57
352.081	2.44
352.45	2.24
352.82	2.31
353.19	2.39
353.56	2.52
353.929	2.84
354.299	2.76
354.669	2.69
355.038	2.76
355.408	2.44
355.777	2.74
356.147	2.39
356.516	2.6
356.885	2.72
357.254	2.63
357.624	2.47
357.993	2.89
358.362	2.67
358.731	2.78
359.1	2.9
359.469	2.73
359.838	2.57
360.207	2.44
360.576	3.04
360.945	2.97
361.314	2.88
361.682	2.52
362.051	2.52
362.42	2.41
362.788	2.54
363.157	2.51
363.525	2.74
363.894	2.54
364.262	2.75
364.631	2.8
364.999	2.77
365.367	2.67
365.735	2.68
366.104	2.44
366.472	2.55
366.84	2.73
367.208	2.65
367.576	2.53
367.944	3.02
368.312	2.58
368.68	3.07
369.048	2.55
369.416	2.66
369.783	2.58
370.151	3.2
370.519	3.16
370.886	3.04
371.254	2.96
371.621	2.78
371.989	2.84
372.356	2.67
372.724	2.73
373.091	2.81
373.458	2.47
373.826	3.06
374.193	2.92
374.56	2.93
374.927	2.57
375.294	2.78
375.661	2.84
376.028	2.82
376.395	2.88
376.762	2.7
377.129	2.6
377.496	2.71
377.863	2.83
378.229	2.91
378.596	3.03
378.963	2.75
379.329	2.8
379.696	2.65
380.062	2.76
380.429	2.57
380.795	2.61
381.161	2.73
381.528	2.32
381.894	2.74
382.26	2.63
382.626	2.58
382.993	2.9
383.359	2.76
383.725	2.47
384.091	3.01
384.457	2.52
384.823	2.75
385.188	2.86
385.554	2.76
385.92	2.8
386.286	2.69
386.651	2.61
387.017	2.85
387.383	2.6
387.748	2.74
388.114	2.89
388.479	2.67
388.845	2.48
389.21	3.03
389.575	2.95
389.94	3.12
390.306	2.86
390.671	2.86
391.036	2.62
391.401	2.79
391.766	2.87
392.131	2.87
392.496	2.84
392.861	2.63
393.226	2.74
393.591	2.87
393.956	2.65
394.32	2.83
394.685	2.68
395.05	2.82
395.414	2.8
395.779	3.05
396.143	2.71
396.508	2.94
396.872	2.9
397.236	3.11
397.601	3.01
397.965	2.79
398.329	2.87
398.694	2.63
399.058	2.64
399.422	2.6
399.786	2.77
400.15	2.8
400.514	3.05
400.878	2.74
401.242	2.74
401.605	2.76
401.969	2.51
402.333	2.63
402.697	2.92
403.06	2.95
403.424	2.89
403.787	2.69
404.151	2.84
404.514	2.81
404.878	2.56
405.241	2.73
405.604	2.71
405.968	2.86
406.331	2.95
406.694	2.93
407.057	2.67
407.42	2.79
407.783	2.73
408.146	2.82
408.509	2.88
408.872	2.8
409.235	2.96
409.598	2.87
409.961	3.1
410.323	2.83
410.686	2.67
411.049	2.93
411.411	2.67
411.774	2.89
412.136	2.73
412.499	2.93
412.861	2.49
413.223	2.73
413.586	2.84
413.948	3.05
414.31	2.84
414.672	2.79
415.035	2.86
415.397	2.59
415.759	2.83
416.121	2.91
416.483	2.85
416.845	2.87
417.206	2.92
417.568	2.94
417.93	2.75
418.292	2.77
418.653	2.57
419.015	2.73
419.377	2.84
419.738	2.85
420.1	2.81
420.461	2.68
420.822	2.78
421.184	2.86
421.545	2.88
421.906	2.81
422.267	2.73
422.629	2.8
422.99	2.74
423.351	2.71
423.712	2.8
424.073	2.86
424.434	2.89
424.795	2.76
425.155	2.66
425.516	2.87
425.877	2.84
426.238	2.82
426.598	2.84
426.959	2.75
427.32	2.75
427.68	2.94
428.041	2.88
428.401	2.75
428.761	2.89
429.122	2.79
429.482	2.84
429.842	2.89
430.202	2.87
430.563	2.94
430.923	2.94
431.283	3.04
431.643	3.07
432.003	2.92
432.363	3.04
432.722	2.82
433.082	2.76
433.442	2.97
433.802	2.95
434.161	2.91
434.521	3.02
434.881	2.92
435.24	2.95
435.6	2.97
435.959	2.96
436.319	3
436.678	3.01
437.037	2.99
437.396	3
437.756	2.87
438.115	2.88
438.474	2.96
438.833	2.94
439.192	2.92
439.551	2.9
439.91	3.05
440.269	2.97
440.628	2.94
440.987	3.05
441.345	3.01
441.704	3.02
442.063	2.92
442.421	3
442.78	3.01
443.138	3.05
443.497	2.99
443.855	3.13
444.214	2.84
444.572	3.1
444.93	2.96
445.288	3.03
445.647	2.84
446.005	3.03
446.363	2.96
446.721	2.9
447.079	2.93
447.437	2.96
447.795	3.02
448.153	2.94
448.51	3.03
448.868	2.94
449.226	3.03
449.584	2.98
449.941	2.94
450.299	3.02
450.656	2.87
451.014	3.08
451.371	3.12
451.729	3.07
452.086	3.03
452.443	3.1
452.801	3.03
453.158	3.23
453.515	3.01
453.872	3.06
454.229	2.94
454.586	2.91
454.943	3
455.3	3.1
455.657	3.05
456.014	3.01
456.371	3.22
456.727	3.27
457.084	3.18
457.441	3.13
457.797	2.94
458.154	3.09
458.51	2.98
458.867	3.2
459.223	2.98
459.58	3.02
459.936	3.05
460.292	2.85
460.648	2.92
461.005	3.01
461.361	2.99
461.717	2.99
462.073	3.15
462.429	3.11
462.785	3.17
463.141	3.14
463.496	3.1
463.852	3.21
464.208	3.07
464.564	3.04
464.919	3.12
465.275	3.05
465.631	3.23
465.986	3.16
466.342	3.02
466.697	3.06
467.052	3.18
467.408	3.28
467.763	3.23
468.118	2.99
468.473	3.12
468.829	3
469.184	3.16
469.539	3.02
469.894	3.18
470.249	3.16
470.603	3.16
470.958	3.2
471.313	3.35
471.668	3.19
472.023	3.24
472.377	3.04
472.732	3.3
473.086	3.09
473.441	3.13
473.795	3.3
474.15	3.15
474.504	3.15
474.859	3.12
475.213	3.15
475.567	3.2
475.921	3.13
476.275	3.26
476.63	3.16
476.984	2.92
477.338	3.28
477.692	3.29
478.045	3.26
478.399	3.17
478.753	3.21
479.107	3.23
479.461	3.07
479.814	3.19
480.168	3.24
480.521	3.27
480.875	3.18
481.228	3.28
481.582	3.22
481.935	3.29
482.289	3.23
482.642	3.41
482.995	3.05
483.348	3.23
483.701	3.18
484.055	3.16
484.408	3.16
484.761	3.01
485.114	2.95
485.466	2.95
485.819	2.99
486.172	3
486.525	3.1
486.878	3.13
487.23	3.1
487.583	3.17
487.936	3.09
488.288	3.09
488.641	3.05
488.993	3.05
489.345	3.06
489.698	3.01
490.05	3.06
490.402	3.09
490.754	3.15
491.107	3.14
491.459	3.25
491.811	3.23
492.163	3.17
492.515	3.1
492.866	3.02
493.218	3.08
493.57	3.1
493.922	3.15
494.274	3.25
494.625	3.25
494.977	3.24
495.328	3.29
495.68	3.27
496.031	3.24
496.383	3.16
496.734	3.24
497.086	3.27
497.437	3.39
497.788	3.38
498.139	3.28
498.49	3.28
498.842	3.29
499.193	3.2
499.544	3.29
499.894	3.22
500.245	3.33
500.596	3.37
500.947	3.39
501.298	3.3
501.648	3.28
501.999	3.31
502.35	3.14
502.7	3.32
503.051	3.29
503.401	3.28
503.752	3.35
504.102	3.23
504.452	3.27
504.803	3.3
505.153	3.34
505.503	3.27
505.853	3.44
506.203	3.35
506.553	3.31
506.903	3.45
507.253	3.33
507.603	3.37
507.953	3.28
508.303	3.46
508.652	3.22
509.002	3.38
509.352	3.39
509.701	3.25
510.051	3.3
510.4	3.41
510.75	3.32
511.099	3.21
511.449	3.36
511.798	3.27
512.147	3.31
512.496	3.46
512.846	3.26
513.195	3.39
513.544	3.5
513.893	3.35
514.242	3.29
514.591	3.34
514.939	3.41
515.288	3.43
515.637	3.36
515.986	3.33
516.334	3.36
516.683	3.43
517.032	3.36
517.38	3.4
517.729	3.35
518.077	3.4
518.426	3.44
518.774	3.36
519.122	3.37
519.47	3.32
519.819	3.33
520.167	3.27
520.515	3.36
520.863	3.28
521.211	3.29
521.559	3.24
521.907	3.39
522.255	3.38
522.602	3.39
522.95	3.35
523.298	3.4
523.645	3.51
523.993	3.45
524.341	3.44
524.688	3.44
525.036	3.4
525.383	3.37
525.73	3.22
526.078	3.37
526.425	3.41
526.772	3.37
527.119	3.3
527.466	3.42
527.814	3.34
528.161	3.37
528.508	3.31
528.854	3.29
529.201	3.32
529.548	3.27
529.895	3.19
530.242	3.2
530.588	3.2
530.935	3.24
531.282	3.29
531.628	3.36
531.975	3.28
532.321	3.4
532.667	3.39
533.014	3.43
533.36	3.36
533.706	3.31
534.052	3.43
534.399	3.35
534.745	3.27
535.091	3.21
535.437	3.32
535.783	3.29
536.129	3.34
536.474	3.43
536.82	3.42
537.166	3.41
537.512	3.41
537.857	3.39
538.203	3.41
538.549	3.32
538.894	3.42
539.239	3.39
539.585	3.46
539.93	3.49
540.276	3.5
540.621	3.42
540.966	3.47
541.311	3.48
541.656	3.35
542.001	3.41
542.346	3.33
542.691	3.23
543.036	3.32
543.381	3.33
543.726	3.37
544.071	3.42
544.415	3.4
544.76	3.42
545.105	3.34
545.449	3.46
545.794	3.48
546.138	3.38
546.483	3.44
546.827	3.46
547.171	3.52
547.516	3.46
547.86	3.42
548.204	3.51
548.548	3.42
548.892	3.49
549.236	3.41
549.58	3.56
549.924	3.58
550.268	3.55
550.612	3.55
550.956	3.66
551.3	3.65
551.643	3.53
551.987	3.65
552.33	3.78
552.674	3.64
553.017	3.63
553.361	3.67
553.704	3.68
554.048	3.47
554.391	3.62
554.734	3.35
555.077	3.52
555.42	3.54
555.764	3.6
556.107	3.52
556.45	3.62
556.793	3.67
557.135	3.63
557.478	3.79
557.821	3.64
558.164	3.82
558.507	3.58
558.849	3.64
559.192	3.63
559.534	3.47
559.877	3.69
560.219	3.49
560.562	3.6
560.904	3.85
561.246	3.59
561.589	3.91
561.931	3.77
562.273	3.61
562.615	3.66
562.957	3.54
563.299	3.59
563.641	3.66
563.983	3.48
564.325	3.72
564.667	3.61
565.008	3.55
565.35	3.51
565.692	3.73
566.033	3.71
566.375	3.64
566.716	3.52
567.058	3.56
567.399	3.59
567.741	3.66
568.082	3.69
568.423	3.57
568.764	3.55
569.105	3.63
569.447	3.66
569.788	3.63
570.129	3.52
570.47	3.6
570.811	3.61
571.151	3.62
571.492	3.66
571.833	3.67
572.174	3.64
572.514	3.63
572.855	3.79
573.195	3.5
573.536	3.71
573.876	3.72
574.217	3.66
574.557	3.56
574.898	3.63
575.238	3.72
575.578	3.77
575.918	3.72
576.258	3.77
576.598	3.55
576.938	3.68
577.278	3.7
577.618	3.61
577.958	3.73
578.298	3.62
578.638	3.75
578.977	3.8
579.317	3.68
579.657	3.66
579.996	3.88
580.336	3.78
580.675	3.6
581.014	3.87
581.354	3.7
581.693	3.73
582.032	3.91
582.372	3.76
582.711	3.85
583.05	3.79
583.389	3.64
583.728	3.96
584.067	3.76
584.406	3.78
584.745	3.72
585.083	3.84
585.422	3.82
585.761	4.08
586.1	3.96
586.438	3.69
586.777	3.68
587.115	4.06
587.454	3.6
587.792	3.82
588.13	3.63
588.469	3.85
588.807	3.81
589.145	3.82
589.483	3.55
589.821	3.83
590.159	3.92
590.497	3.84
590.835	4.06
591.173	4.05
591.511	4.01
591.849	3.85
592.187	3.71
592.524	3.75
592.862	3.8
593.2	3.79
593.537	3.73
593.875	3.88
594.212	3.77
594.55	3.76
594.887	3.68
595.224	3.8
595.561	3.91
595.899	3.73
596.236	3.86
596.573	3.76
596.91	3.83
597.247	4
597.584	3.8
597.921	3.82
598.258	3.86
598.594	3.69
598.931	3.66
599.268	3.67
599.604	3.87
599.941	3.8
600.277	3.74
600.614	3.92
600.95	3.86
601.287	3.81
601.623	3.56
601.959	4.1
602.296	3.9
602.632	3.81
602.968	3.66
603.304	3.83
603.64	3.77
603.976	3.6
604.312	3.64
604.648	4.14
604.984	3.83
605.319	4
605.655	3.84
605.991	3.7
606.326	3.75
606.662	3.7
606.998	3.85
607.333	3.82
607.668	3.85
608.004	3.96
608.339	3.78
608.674	3.81
609.01	3.95
609.345	3.82
609.68	3.91
610.015	4.03
610.35	3.96
610.685	3.52
611.02	3.67
611.355	3.8
611.689	3.91
612.024	3.83
612.359	3.92
612.694	3.89
613.028	3.97
613.363	4.05
613.697	3.93
614.032	3.88
614.366	3.91
614.7	3.95
615.035	4.14
615.369	4.12
615.703	4.06
616.037	3.82
616.371	3.84
616.705	3.93
617.039	4.12
617.373	4.15
617.707	3.86
618.041	3.72
618.375	3.6
618.709	3.82
619.042	3.72
619.376	3.82
619.71	4.05
620.043	4.08
620.377	4.02
620.71	3.94
621.043	4.06
621.377	4.2
621.71	4.2
622.043	3.94
622.376	4.11
622.709	4.61
623.043	3.89
623.376	3.95
623.709	4.14
624.041	3.98
624.374	3.93
624.707	3.93
625.04	4.13
625.373	4.07
625.705	4.04
626.038	4.34
626.37	3.79
626.703	4.23
627.035	4.16
627.368	4.11
627.7	3.93
628.032	3.87
628.365	4.31
628.697	4.12
629.029	4.03
629.361	4.23
629.693	3.92
630.025	3.98
630.357	4.24
630.689	4.06
631.021	4.22
631.353	3.95
631.684	3.85
632.016	3.4
632.348	4
632.679	4.03
633.011	4.02
633.342	4.13
633.674	3.94
634.005	4.2
634.336	4.15
634.668	4.02
634.999	3.89
635.33	3.93
635.661	3.81
635.992	4.28
636.323	4.06
636.654	4.12
636.985	4.06
637.316	3.91
637.647	4.13
637.977	4.19
638.308	4.25
638.639	3.95
638.969	3.97
639.3	4.32
639.63	4.07
639.961	4.32
640.291	4.17
640.622	4.25
640.952	4.52
641.282	3.91
641.612	3.98
641.943	4.21
642.273	3.99
642.603	4.03
642.933	4.26
643.263	4.34
643.592	4.16
643.922	4.51
644.252	3.89
644.582	4.37
644.911	4.31
645.241	3.84
645.571	4.03
645.9	4.25
646.23	4.61
646.559	4.07
646.888	4.3
647.218	4.12
647.547	3.85
647.876	3.79
648.205	3.74
648.534	4.25
648.863	4.13
649.192	4.06
649.521	3.94
649.85	4.42
650.179	4.48
650.508	4.02
650.837	4.12
651.165	4.42
651.494	4.12
651.822	4.14
652.151	3.72
652.479	4.44
652.808	4.7
653.136	3.94
653.465	3.82
653.793	3.83
654.121	4.44
654.449	3.9
654.777	3.74
655.105	3.5
655.433	4.59
655.761	3.86
656.089	4.16
656.417	4.54
656.745	4.56
657.073	3.91
657.4	3.64
657.728	3.99
658.056	4.38
658.383	4.05
658.711	4.32
659.038	4.48
659.365	4.06
659.693	4.24
660.02	4.11
660.347	4.11
660.674	3.84
661.001	4.28
661.329	4.37
661.656	3.64
661.982	4.09
662.309	4.29
662.636	4.01
662.963	4.22
663.29	4.11
663.616	4.14
663.943	4.24
664.27	4.41
664.596	4.22
664.923	4.55
665.249	4.43
665.576	3.57
665.902	3.89
666.228	4.5
666.554	4.9
666.881	3.75
667.207	3.94
667.533	4.07
667.859	4.28
668.185	4.15
668.511	4.42
668.837	4.02
669.162	4.22
669.488	3.35
669.814	4.25
670.139	3.64
670.465	4.95
670.791	3.99
671.116	3.75
671.442	3.85
671.767	4.29
672.092	4.06
672.418	4.38
672.743	4.06
673.068	4.07
673.393	4.46
673.718	3.5
674.043	3.91
674.368	4.56
674.693	4.13
675.018	4.01
675.343	4.35
675.667	4.25
675.992	4.21
676.317	4.07
676.641	4.59
676.966	4.33
677.29	3.59
677.615	4.36
677.939	4.91
678.264	3.85
678.588	4.28
678.912	4.47
679.236	4.07
679.56	4.32
679.885	4.38
680.209	4.58
680.532	4.64
680.856	4.68
681.18	4.86
681.504	4.14
681.828	3.96
682.152	4.3
682.475	4.56
682.799	4.39
683.122	4.15
683.446	3.78
683.769	4.25
684.093	4.31
684.416	4.58
684.739	4.51
685.062	4.29
685.386	4.31
685.709	4.66
686.032	4.78
686.355	4.19
686.678	4.9
687.001	4.4
687.324	4.55
687.646	4.56
687.969	4.17
688.292	4.52
688.614	4.69
688.937	4.54
689.26	4.89
689.582	4.59
689.904	4.86
690.227	4.67
690.549	5.19
690.871	4.44
691.194	4.37
691.516	4.13
691.838	4.75
