Data from 0158_chest_Reflection__4__70.txt Node

Date: Fri Sep 22 20:52:46 CDT 2023
User: ToomeyLab
Spectrometer: FLMS14357
Trigger mode: 0
Integration Time (sec): 1.000000E-2
Scans to average: 100
Electric dark correction enabled: true
Nonlinearity correction enabled: false
Boxcar width: 0
XAxis mode: Wavelengths
Number of Pixels in Spectrum: 2048
>>>>>Begin Spectral Data<<<<<
189.047	-29.97
189.435	-29.97
189.823	-29.97
190.211	206.21
190.599	12.26
190.987	37.17
191.375	-3363.49
191.763	32.44
192.151	58.03
192.538	30.5
192.926	198.24
193.314	1.65
193.702	332.87
194.089	70.88
194.477	-45.39
194.864	44.94
195.252	337.57
195.639	71.29
196.027	226.01
196.414	-90.76
196.801	283.82
197.189	135.09
197.576	385.06
197.963	-237.16
198.351	9.69
198.738	41.4
199.125	40.01
199.512	50.06
199.899	48.27
200.286	39.76
200.673	12.74
201.06	21.46
201.447	46.4
201.833	-14.36
202.22	21.66
202.607	19.88
202.994	37.84
203.38	24.75
203.767	40.57
204.154	57.5
204.54	59.81
204.927	-7.71
205.313	13.11
205.699	41.54
206.086	73.02
206.472	30.22
206.858	34.89
207.245	-5.98
207.631	46.18
208.017	29.92
208.403	23.77
208.789	20.85
209.175	54.41
209.561	26.63
209.947	45.52
210.333	49.71
210.719	-6.27
211.105	52.78
211.491	30.93
211.876	24.55
212.262	12.84
212.648	39.71
213.034	29.54
213.419	20.41
213.805	10.2
214.19	17.14
214.576	2.59
214.961	36.73
215.346	11.98
215.732	34.12
216.117	6.82
216.502	25.23
216.888	13.69
217.273	26.42
217.658	11.66
218.043	18.82
218.428	21.84
218.813	25.45
219.198	-0.65
219.583	-6.33
219.968	8.63
220.353	31.26
220.738	26.27
221.122	-4.18
221.507	18.43
221.892	3.92
222.276	20.16
222.661	-13.01
223.046	29.82
223.43	23.59
223.815	7.34
224.199	8.04
224.583	9.75
224.968	14.76
225.352	7.24
225.736	9.51
226.121	4.09
226.505	8.93
226.889	5.62
227.273	13.27
227.657	8.73
228.041	2.06
228.425	8.41
228.809	7.03
229.193	0.73
229.577	6.65
229.961	6.12
230.344	5.27
230.728	2.41
231.112	3.53
231.495	3.39
231.879	3.46
232.263	3.6
232.646	2.62
233.03	5.38
233.413	4.8
233.797	4.91
234.18	3.94
234.563	5.66
234.946	3.26
235.33	3.17
235.713	3.96
236.096	3.14
236.479	3.71
236.862	6.67
237.245	4.97
237.628	3.46
238.011	4.21
238.394	4.39
238.777	6.81
239.16	4.86
239.543	6
239.925	5.18
240.308	4.56
240.691	4.72
241.073	5.6
241.456	6.03
241.838	3.73
242.221	4.21
242.603	4.95
242.986	4.12
243.368	3.96
243.75	4.63
244.133	4.26
244.515	3.78
244.897	3.38
245.279	3.62
245.661	3.45
246.043	3.66
246.425	2.72
246.807	4.57
247.189	3.02
247.571	4.05
247.953	4.7
248.335	4.22
248.717	4.2
249.098	3.97
249.48	3.73
249.862	3.78
250.243	3.7
250.625	4.12
251.006	3.76
251.388	3.99
251.769	4
252.151	3.2
252.532	3.9
252.913	3.45
253.295	5.15
253.676	3.38
254.057	3.95
254.438	4.69
254.819	3.65
255.2	4.11
255.581	4.02
255.962	4.84
256.343	3.68
256.724	2.86
257.105	3.94
257.486	4.62
257.867	3.98
258.247	5.33
258.628	4.34
259.009	4.61
259.389	2.91
259.77	4.66
260.15	4.19
260.531	3.1
260.911	3.62
261.292	3.45
261.672	3.5
262.052	3.55
262.432	3.7
262.813	3.7
263.193	3.44
263.573	3.94
263.953	3.01
264.333	4.11
264.713	3.59
265.093	3.99
265.473	4.01
265.853	2.97
266.233	4.19
266.612	3.75
266.992	4.19
267.372	4.02
267.752	4.4
268.131	3.07
268.511	3.69
268.89	3.7
269.27	3.54
269.649	3.75
270.029	3.49
270.408	3.29
270.787	3.63
271.167	3.85
271.546	3.07
271.925	3.35
272.304	3.34
272.683	3.93
273.062	3.54
273.441	3.41
273.82	3.69
274.199	3.47
274.578	3.63
274.957	3.78
275.336	3.32
275.715	3.34
276.093	3.35
276.472	3.21
276.851	3.49
277.229	2.81
277.608	3.87
277.986	3.2
278.365	3.7
278.743	3.86
279.122	3.28
279.5	3.7
279.878	3.55
280.257	4.5
280.635	3.72
281.013	3.45
281.391	3.06
281.769	3.23
282.147	3.41
282.525	3.7
282.903	3.6
283.281	3.1
283.659	3.49
284.037	3.07
284.415	3.66
284.792	3.21
285.17	3.71
285.548	3.65
285.925	3.38
286.303	3.33
286.68	3.21
287.058	3.39
287.435	3.51
287.813	3.36
288.19	3.09
288.567	3.77
288.945	3.23
289.322	3.52
289.699	3.47
290.076	3.52
290.453	3.31
290.83	3.13
291.207	3.45
291.584	3.44
291.961	3.07
292.338	3.62
292.715	3.8
293.092	3.43
293.469	3.44
293.845	3.36
294.222	3.66
294.599	3.77
294.975	3.93
295.352	3.2
295.728	3.83
296.105	3.59
296.481	3.56
296.858	3.42
297.234	3.7
297.61	3.88
297.986	3.54
298.363	3.7
298.739	3.54
299.115	3.85
299.491	3.44
299.867	3.47
300.243	3.48
300.619	3.87
300.995	3.87
301.371	4.14
301.746	4.07
302.122	3.49
302.498	3.35
302.874	3.42
303.249	3.23
303.625	3.68
304	3.86
304.376	3.93
304.751	3.44
305.127	3.63
305.502	4.12
305.878	3.72
306.253	3.82
306.628	3.54
307.003	3.73
307.378	3.7
307.754	3.72
308.129	3.53
308.504	3.47
308.879	3.76
309.254	3.94
309.629	4.05
310.003	4.48
310.378	4.31
310.753	3.75
311.128	4.02
311.502	3.95
311.877	3.55
312.252	3.75
312.626	3.53
313.001	4.01
313.375	4.31
313.75	3.95
314.124	4.08
314.498	3.65
314.873	4.05
315.247	3.81
315.621	4.16
315.995	3.87
316.369	4.17
316.743	3.8
317.117	4.12
317.491	3.95
317.865	3.68
318.239	4.18
318.613	4.08
318.987	3.59
319.361	4.06
319.734	4.21
320.108	4.37
320.482	3.6
320.855	4.28
321.229	4.23
321.602	3.84
321.976	3.86
322.349	3.58
322.723	4.3
323.096	4.71
323.469	3.93
323.843	4.3
324.216	4.78
324.589	4.57
324.962	3.69
325.335	4.15
325.708	3.78
326.081	4.3
326.454	3.68
326.827	3.89
327.2	4.19
327.573	5.02
327.945	4.08
328.318	4.37
328.691	4.29
329.063	4.25
329.436	4.31
329.809	4.13
330.181	4.07
330.553	3.98
330.926	4.32
331.298	4.48
331.671	4.44
332.043	4.11
332.415	4.63
332.787	4.44
333.159	3.86
333.532	4.25
333.904	3.91
334.276	4.01
334.648	3.81
335.02	3.94
335.391	4.18
335.763	4.6
336.135	4.54
336.507	4.55
336.879	3.84
337.25	3.79
337.622	4.47
337.993	4.19
338.365	4.37
338.736	4.32
339.108	4.78
339.479	4.04
339.851	3.98
340.222	3.96
340.593	4.02
340.964	3.95
341.336	4.01
341.707	4.22
342.078	4.26
342.449	4.39
342.82	4.19
343.191	3.68
343.562	4.2
343.933	4.23
344.303	3.81
344.674	4.46
345.045	4.49
345.416	4.37
345.786	3.91
346.157	4.25
346.527	4.12
346.898	3.97
347.268	4.34
347.639	4.03
348.009	4.2
348.38	4.55
348.75	4.24
349.12	4.07
349.49	4.41
349.861	3.95
350.231	4.37
350.601	4.12
350.971	4.23
351.341	4.01
351.711	4.09
352.081	4.2
352.45	4.03
352.82	4.59
353.19	4.34
353.56	4.23
353.929	4.54
354.299	4.2
354.669	4.31
355.038	4.26
355.408	4.11
355.777	4.72
356.147	3.92
356.516	4.57
356.885	4.26
357.254	4.74
357.624	4.07
357.993	4.12
358.362	4.08
358.731	4.15
359.1	4.13
359.469	4.25
359.838	3.89
360.207	3.96
360.576	4.23
360.945	4.16
361.314	4.14
361.682	4.44
362.051	4.41
362.42	4.18
362.788	3.94
363.157	4.36
363.525	4.16
363.894	4.14
364.262	4.1
364.631	3.99
364.999	3.96
365.367	4.46
365.735	4.53
366.104	4.17
366.472	4.5
366.84	4.31
367.208	4.49
367.576	4.49
367.944	4.33
368.312	4.58
368.68	4.53
369.048	4.31
369.416	4.31
369.783	4.21
370.151	4.42
370.519	4.36
370.886	4.52
371.254	4.6
371.621	4.16
371.989	4.45
372.356	4.36
372.724	4.54
373.091	4.16
373.458	4.72
373.826	4.32
374.193	4.41
374.56	4.31
374.927	4.59
375.294	4
375.661	4.42
376.028	4.28
376.395	4.38
376.762	4.17
377.129	4.33
377.496	4.85
377.863	4.47
378.229	4.38
378.596	4.42
378.963	4.79
379.329	4.36
379.696	4.52
380.062	4.21
380.429	4.58
380.795	4.57
381.161	4.4
381.528	4.2
381.894	4.12
382.26	4.55
382.626	4.54
382.993	4.59
383.359	4.21
383.725	4.42
384.091	4.38
384.457	4.41
384.823	4.4
385.188	4.37
385.554	4.69
385.92	4.22
386.286	4.24
386.651	4.36
387.017	4.59
387.383	4.57
387.748	4.48
388.114	4.2
388.479	4.6
388.845	4.1
389.21	4.42
389.575	4.69
389.94	4.22
390.306	4.4
390.671	4.59
391.036	4.16
391.401	4.47
391.766	4.3
392.131	4.43
392.496	4.56
392.861	4.37
393.226	4.88
393.591	4.72
393.956	4.47
394.32	4.4
394.685	4.51
395.05	4.6
395.414	4.54
395.779	4.58
396.143	4.56
396.508	4.49
396.872	4.38
397.236	4.64
397.601	4.43
397.965	4.67
398.329	4.5
398.694	4.43
399.058	4.48
399.422	4.46
399.786	4.32
400.15	4.55
400.514	4.73
400.878	4.58
401.242	4.53
401.605	4.4
401.969	4.19
402.333	4.66
402.697	4.41
403.06	4.63
403.424	4.67
403.787	4.75
404.151	4.62
404.514	4.85
404.878	4.6
405.241	4.6
405.604	4.82
405.968	4.56
406.331	4.58
406.694	4.48
407.057	4.24
407.42	4.58
407.783	4.49
408.146	4.44
408.509	4.45
408.872	4.47
409.235	4.66
409.598	4.48
409.961	4.81
410.323	4.71
410.686	4.76
411.049	4.85
411.411	4.98
411.774	4.62
412.136	4.49
412.499	4.5
412.861	4.48
413.223	4.6
413.586	4.54
413.948	4.53
414.31	4.57
414.672	4.44
415.035	4.54
415.397	4.82
415.759	4.79
416.121	4.85
416.483	4.61
416.845	4.43
417.206	4.56
417.568	4.71
417.93	4.59
418.292	4.68
418.653	4.52
419.015	4.44
419.377	4.54
419.738	4.63
420.1	4.49
420.461	4.62
420.822	4.34
421.184	4.43
421.545	4.42
421.906	4.46
422.267	4.44
422.629	4.61
422.99	4.49
423.351	4.42
423.712	4.34
424.073	4.44
424.434	4.58
424.795	4.55
425.155	4.68
425.516	4.55
425.877	4.5
426.238	4.38
426.598	4.46
426.959	4.57
427.32	4.53
427.68	4.53
428.041	4.51
428.401	4.63
428.761	4.62
429.122	4.59
429.482	4.74
429.842	4.57
430.202	4.71
430.563	4.57
430.923	4.73
431.283	4.72
431.643	4.71
432.003	4.78
432.363	4.84
432.722	4.79
433.082	4.83
433.442	4.68
433.802	4.85
434.161	4.6
434.521	4.89
434.881	4.77
435.24	4.66
435.6	4.6
435.959	4.54
436.319	4.67
436.678	4.83
437.037	4.8
437.396	4.64
437.756	4.84
438.115	4.78
438.474	4.66
438.833	4.77
439.192	4.73
439.551	4.72
439.91	4.78
440.269	4.7
440.628	4.39
440.987	4.7
441.345	4.79
441.704	4.64
442.063	4.68
442.421	4.74
442.78	4.72
443.138	4.67
443.497	4.66
443.855	4.76
444.214	4.61
444.572	4.86
444.93	4.75
445.288	4.83
445.647	4.96
446.005	4.76
446.363	4.56
446.721	4.68
447.079	4.67
447.437	4.76
447.795	4.74
448.153	4.58
448.51	4.61
448.868	4.75
449.226	4.72
449.584	4.63
449.941	4.54
450.299	4.84
450.656	4.78
451.014	4.81
451.371	4.79
451.729	4.77
452.086	4.77
452.443	4.73
452.801	4.83
453.158	4.81
453.515	5.08
453.872	4.9
454.229	4.85
454.586	4.88
454.943	4.73
455.3	4.79
455.657	4.79
456.014	4.78
456.371	4.87
456.727	4.97
457.084	4.87
457.441	4.88
457.797	4.9
458.154	5.05
458.51	4.84
458.867	4.92
459.223	4.91
459.58	4.98
459.936	4.93
460.292	4.95
460.648	4.91
461.005	4.76
461.361	4.94
461.717	4.65
462.073	4.71
462.429	4.65
462.785	4.72
463.141	4.81
463.496	5.01
463.852	4.83
464.208	4.91
464.564	5.07
464.919	4.93
465.275	4.92
465.631	5.1
465.986	5.05
466.342	5.01
466.697	5.19
467.052	4.98
467.408	4.97
467.763	5.05
468.118	5.11
468.473	4.93
468.829	5.01
469.184	4.9
469.539	4.91
469.894	5.01
470.249	5
470.603	4.87
470.958	5.01
471.313	5.08
471.668	5.02
472.023	5.19
472.377	4.97
472.732	5.07
473.086	5.16
473.441	4.87
473.795	5.36
474.15	4.93
474.504	5.08
474.859	5.06
475.213	4.91
475.567	4.92
475.921	5.01
476.275	5.05
476.63	5
476.984	4.96
477.338	5.23
477.692	5.04
478.045	5.15
478.399	5.17
478.753	5.05
479.107	5.08
479.461	4.96
479.814	5.16
480.168	5.04
480.521	5.18
480.875	5.25
481.228	5.02
481.582	4.99
481.935	5.07
482.289	5.04
482.642	5.05
482.995	5
483.348	5.06
483.701	4.97
484.055	5
484.408	5.05
484.761	5.12
485.114	4.98
485.466	4.9
485.819	4.81
486.172	4.71
486.525	4.74
486.878	4.81
487.23	4.87
487.583	4.94
487.936	4.95
488.288	5.04
488.641	5.08
488.993	4.97
489.345	4.9
489.698	4.91
490.05	4.93
490.402	4.92
490.754	4.89
491.107	5.01
491.459	5.04
491.811	5.05
492.163	5.06
492.515	5.1
492.866	5.12
493.218	5.04
493.57	5
493.922	4.98
494.274	4.95
494.625	5.05
494.977	5.11
495.328	5.16
495.68	5.26
496.031	5.17
496.383	5.28
496.734	5.3
497.086	5.21
497.437	5.44
497.788	5.34
498.139	5.33
498.49	5.29
498.842	5.24
499.193	5.1
499.544	5.28
499.894	5.28
500.245	5.22
500.596	5.34
500.947	5.27
501.298	5.33
501.648	5.36
501.999	5.43
502.35	5.35
502.7	5.33
503.051	5.42
503.401	5.32
503.752	5.37
504.102	5.44
504.452	5.41
504.803	5.36
505.153	5.51
505.503	5.35
505.853	5.55
506.203	5.4
506.553	5.42
506.903	5.43
507.253	5.34
507.603	5.46
507.953	5.58
508.303	5.55
508.652	5.52
509.002	5.59
509.352	5.39
509.701	5.61
510.051	5.48
510.4	5.47
510.75	5.44
511.099	5.37
511.449	5.42
511.798	5.55
512.147	5.48
512.496	5.53
512.846	5.47
513.195	5.55
513.544	5.54
513.893	5.65
514.242	5.38
514.591	5.58
514.939	5.53
515.288	5.45
515.637	5.52
515.986	5.64
516.334	5.67
516.683	5.67
517.032	5.8
517.38	5.79
517.729	5.61
518.077	5.67
518.426	5.63
518.774	5.67
519.122	5.67
519.47	5.67
519.819	5.63
520.167	5.62
520.515	5.65
520.863	5.53
521.211	5.6
521.559	5.67
521.907	5.73
522.255	5.73
522.602	5.69
522.95	5.71
523.298	5.77
523.645	5.78
523.993	5.75
524.341	5.87
524.688	5.79
525.036	5.7
525.383	5.87
525.73	5.9
526.078	5.84
526.425	5.76
526.772	5.96
527.119	5.88
527.466	5.72
527.814	5.71
528.161	5.64
528.508	5.8
528.854	5.8
529.201	5.76
529.548	5.78
529.895	5.8
530.242	5.72
530.588	5.67
530.935	5.57
531.282	5.57
531.628	5.67
531.975	5.69
532.321	5.7
532.667	5.77
533.014	5.9
533.36	5.93
533.706	6.02
534.052	5.94
534.399	5.93
534.745	5.87
535.091	5.85
535.437	5.78
535.783	5.75
536.129	5.83
536.474	5.86
536.82	5.87
537.166	6.07
537.512	6.04
537.857	6.1
538.203	6.09
538.549	6
538.894	6.02
539.239	6.01
539.585	6.08
539.93	6.16
540.276	6.04
540.621	6.08
540.966	6.16
541.311	6.36
541.656	6.08
542.001	6.07
542.346	6.26
542.691	6.24
543.036	6.14
543.381	6.07
543.726	6
544.071	6.05
544.415	6.02
544.76	6.09
545.105	6.12
545.449	6.17
545.794	6.24
546.138	6.33
546.483	6.27
546.827	6.27
547.171	6.36
547.516	6.54
547.86	6.48
548.204	6.37
548.548	6.37
548.892	6.51
549.236	6.4
549.58	6.52
549.924	6.45
550.268	6.59
550.612	6.51
550.956	6.58
551.3	6.57
551.643	6.65
551.987	6.63
552.33	6.68
552.674	6.81
553.017	6.64
553.361	6.82
553.704	6.8
554.048	6.78
554.391	6.8
554.734	6.81
555.077	6.71
555.42	6.76
555.764	6.83
556.107	6.89
556.45	6.81
556.793	6.87
557.135	6.87
557.478	6.76
557.821	6.97
558.164	6.93
558.507	7.06
558.849	6.87
559.192	7.09
559.534	7.11
559.877	7.05
560.219	6.98
560.562	7.13
560.904	7.07
561.246	7.15
561.589	7.06
561.931	7.15
562.273	6.94
562.615	7.13
562.957	7.03
563.299	7.28
563.641	7.03
563.983	7.23
564.325	7.32
564.667	7.29
565.008	7.22
565.35	7.21
565.692	7.17
566.033	7.47
566.375	7.34
566.716	7.21
567.058	7.21
567.399	7.35
567.741	7.51
568.082	7.39
568.423	7.35
568.764	7.6
569.105	7.19
569.447	7.47
569.788	7.35
570.129	7.62
570.47	7.5
570.811	7.49
571.151	7.54
571.492	7.55
571.833	7.45
572.174	7.5
572.514	7.77
572.855	7.56
573.195	7.55
573.536	7.58
573.876	7.65
574.217	7.68
574.557	7.62
574.898	7.69
575.238	7.61
575.578	7.71
575.918	7.78
576.258	7.77
576.598	7.87
576.938	7.83
577.278	7.9
577.618	7.77
577.958	7.96
578.298	7.85
578.638	7.72
578.977	7.96
579.317	8.1
579.657	7.93
579.996	7.93
580.336	8.05
580.675	8.14
581.014	7.98
581.354	7.89
581.693	8.2
582.032	8.01
582.372	8.23
582.711	8.2
583.05	8.14
583.389	8.15
583.728	8.47
584.067	8.33
584.406	8.3
584.745	8.08
585.083	8.49
585.422	8.43
585.761	8.33
586.1	8.27
586.438	8.4
586.777	8.54
587.115	8.49
587.454	8.29
587.792	8.51
588.13	8.49
588.469	8.26
588.807	8.61
589.145	8.72
589.483	8.6
589.821	8.81
590.159	8.7
590.497	8.76
590.835	8.58
591.173	8.41
591.511	8.71
591.849	8.75
592.187	8.78
592.524	8.7
592.862	8.71
593.2	8.59
593.537	8.37
593.875	8.93
594.212	9.18
594.55	9.21
594.887	8.9
595.224	9.05
595.561	8.97
595.899	8.97
596.236	9.19
596.573	9.18
596.91	8.92
597.247	8.95
597.584	9.18
597.921	9.36
598.258	9.41
598.594	9.05
598.931	9.1
599.268	9.01
599.604	9.25
599.941	9.17
600.277	9.05
600.614	9.09
600.95	9.26
601.287	9.33
601.623	9.37
601.959	9.56
602.296	9.29
602.632	9.04
602.968	9.35
603.304	9.56
603.64	9.4
603.976	9.42
604.312	9.49
604.648	9.44
604.984	9.41
605.319	9.51
605.655	9.43
605.991	9.65
606.326	9.33
606.662	9.47
606.998	9.55
607.333	9.7
607.668	9.51
608.004	9.85
608.339	9.59
608.674	9.57
609.01	9.78
609.345	9.84
609.68	9.73
610.015	9.7
610.35	9.86
610.685	10.01
611.02	9.76
611.355	9.94
611.689	9.9
612.024	10.03
612.359	9.99
612.694	10.06
613.028	9.87
613.363	9.81
613.697	9.86
614.032	10.11
614.366	10.02
614.7	9.87
615.035	9.91
615.369	10.12
615.703	10.3
616.037	10.01
616.371	10.37
616.705	10.31
617.039	10.42
617.373	10.38
617.707	10.04
618.041	10.56
618.375	10.33
618.709	10.5
619.042	10.22
619.376	10.57
619.71	10.5
620.043	10.56
620.377	10.26
620.71	10.7
621.043	11.13
621.377	10.43
621.71	10.66
622.043	10.75
622.376	10.98
622.709	10.61
623.043	10.76
623.376	10.81
623.709	10.77
624.041	10.33
624.374	10.76
624.707	10.9
625.04	10.87
625.373	10.76
625.705	10.97
626.038	10.93
626.37	11.41
626.703	11.29
627.035	10.96
627.368	10.98
627.7	11.4
628.032	11.2
628.365	11.29
628.697	10.95
629.029	11.01
629.361	11
629.693	11.49
630.025	10.99
630.357	11
630.689	11.35
631.021	11.21
631.353	10.95
631.684	11.2
632.016	11.62
632.348	11.27
632.679	10.72
633.011	11
633.342	11.38
633.674	11.82
634.005	11.37
634.336	11.57
634.668	11.41
634.999	11.41
635.33	11.82
635.661	11.69
635.992	11.34
636.323	11.56
636.654	11.63
636.985	11.47
637.316	11.49
637.647	11.74
637.977	11.19
638.308	11.99
638.639	11.33
638.969	11.95
639.3	11.89
639.63	12.2
639.961	11.75
640.291	11.75
640.622	11.9
640.952	11.97
641.282	12.1
641.612	12.04
641.943	12.22
642.273	12.39
642.603	11.79
642.933	12.11
643.263	11.34
643.592	11.95
643.922	12.3
644.252	12.11
644.582	12.76
644.911	11.67
645.241	12.39
645.571	12.28
645.9	12.37
646.23	12.14
646.559	12.32
646.888	12.97
647.218	12.36
647.547	12.49
647.876	12.15
648.205	12.45
648.534	12.5
648.863	12.35
649.192	12.06
649.521	12.62
649.85	12.22
650.179	12.58
650.508	12.26
650.837	12.86
651.165	12.66
651.494	12.45
651.822	12.33
652.151	12.52
652.479	12.98
652.808	12.45
653.136	12.78
653.465	12.64
653.793	12.63
654.121	13.26
654.449	12.29
654.777	12.72
655.105	12.96
655.433	12.88
655.761	12.81
656.089	12.96
656.417	12.63
656.745	12.77
657.073	13.22
657.4	13.35
657.728	13.23
658.056	12.94
658.383	13.19
658.711	13.13
659.038	12.81
659.365	13.39
659.693	12.94
660.02	13.51
660.347	13.61
660.674	13.08
661.001	13.39
661.329	13.19
661.656	13.33
661.982	12.84
662.309	13.34
662.636	13.17
662.963	13.2
663.29	13.41
663.616	13.46
663.943	13.42
664.27	13.13
664.596	13.69
664.923	13.35
665.249	13.98
665.576	12.75
665.902	13.74
666.228	13.2
666.554	13.56
666.881	13.89
667.207	13.66
667.533	13.57
667.859	14.2
668.185	14.13
668.511	13.71
668.837	13.51
669.162	13.83
669.488	13.84
669.814	13.77
670.139	13.64
670.465	14.04
670.791	13.94
671.116	13.64
671.442	14.26
671.767	13.52
672.092	14.31
672.418	14.84
672.743	14.24
673.068	14.3
673.393	14.03
673.718	14.18
674.043	14.09
674.368	14.53
674.693	14.24
675.018	14.16
675.343	14.14
675.667	14.34
675.992	13.8
676.317	14.71
676.641	14.17
676.966	14.31
677.29	14.75
677.615	14.39
677.939	14.42
678.264	14.58
678.588	15.63
678.912	14.7
679.236	15.21
679.56	14.3
679.885	14.14
680.209	15.65
680.532	14.73
680.856	14.07
681.18	14.53
681.504	14.56
681.828	14.6
682.152	14.53
682.475	15.27
682.799	15.49
683.122	14.9
683.446	14.78
683.769	15
684.093	15.27
684.416	15
684.739	15.08
685.062	15.54
685.386	15.12
685.709	15.06
686.032	15.05
686.355	14.91
686.678	14.87
687.001	14.78
687.324	15.49
687.646	15.32
687.969	15.71
