Data from 0158_crown_Reflection__0__71.txt Node

Date: Fri Sep 22 20:53:37 CDT 2023
User: ToomeyLab
Spectrometer: FLMS14357
Trigger mode: 0
Integration Time (sec): 1.000000E-2
Scans to average: 100
Electric dark correction enabled: true
Nonlinearity correction enabled: false
Boxcar width: 0
XAxis mode: Wavelengths
Number of Pixels in Spectrum: 2048
>>>>>Begin Spectral Data<<<<<
189.047	-71.42
189.435	-71.42
189.823	-71.42
190.211	-135.47
190.599	-178.4
190.987	70.52
191.375	-895.24
191.763	124.37
192.151	82.67
192.538	1455.32
192.926	105.49
193.314	-71.2
193.702	166.97
194.089	75.4
194.477	77.97
194.864	57.59
195.252	291.27
195.639	187.8
196.027	173.76
196.414	-69.57
196.801	-1791.91
197.189	167.89
197.576	360.44
197.963	348.48
198.351	32.14
198.738	-2.07
199.125	27.46
199.512	-1.64
199.899	36.2
200.286	40.31
200.673	8.99
201.06	26.83
201.447	67.63
201.833	64.72
202.22	20.73
202.607	43.94
202.994	35.85
203.38	15.93
203.767	3.78
204.154	62.77
204.54	26.46
204.927	16.77
205.313	13.39
205.699	44.82
206.086	41.66
206.472	28.17
206.858	42.09
207.245	32.08
207.631	40.73
208.017	37.96
208.403	31.95
208.789	37.61
209.175	19.44
209.561	36.32
209.947	35.21
210.333	36.92
210.719	18.09
211.105	44.14
211.491	28.29
211.876	31.62
212.262	18.91
212.648	19.12
213.034	10.85
213.419	20.84
213.805	27.23
214.19	-4.55
214.576	28.97
214.961	49.24
215.346	23.81
215.732	36.6
216.117	11.69
216.502	26.39
216.888	28.18
217.273	40.95
217.658	13.09
218.043	17.29
218.428	32.28
218.813	7.04
219.198	31.22
219.583	11.68
219.968	6.21
220.353	44.88
220.738	9.04
221.122	13.04
221.507	21.85
221.892	12.75
222.276	4.25
222.661	-12.04
223.046	27.56
223.43	29.7
223.815	12.16
224.199	10.06
224.583	17.29
224.968	16.72
225.352	1
225.736	13.4
226.121	14.77
226.505	16.47
226.889	14.17
227.273	8.3
227.657	13.72
228.041	13.37
228.425	13.27
228.809	9.36
229.193	13.89
229.577	10.74
229.961	10.93
230.344	11.28
230.728	8.69
231.112	10.15
231.495	9.34
231.879	9.31
232.263	8.85
232.646	9.29
233.03	8.22
233.413	11.45
233.797	9.35
234.18	9.19
234.563	10.68
234.946	10.54
235.33	8.01
235.713	9.63
236.096	9.92
236.479	8.67
236.862	11.48
237.245	10.31
237.628	10.64
238.011	9.47
238.394	10.12
238.777	9.66
239.16	9
239.543	12.06
239.925	10.42
240.308	10.17
240.691	9.27
241.073	10.19
241.456	10.55
241.838	8.59
242.221	9.64
242.603	9.68
242.986	8.55
243.368	8.15
243.75	9.09
244.133	9.17
244.515	8.03
244.897	8.4
245.279	8.07
245.661	7.91
246.043	8.11
246.425	8.68
246.807	8.41
247.189	8.06
247.571	8.17
247.953	8.53
248.335	8.46
248.717	8.1
249.098	8.05
249.48	7.8
249.862	7.95
250.243	8.01
250.625	8.1
251.006	7.68
251.388	8.07
251.769	8.47
252.151	8.44
252.532	7.53
252.913	8.11
253.295	8.54
253.676	8.04
254.057	7.98
254.438	8.01
254.819	7.45
255.2	7.73
255.581	7.08
255.962	8.41
256.343	7.55
256.724	7.2
257.105	8.06
257.486	7.56
257.867	7.57
258.247	9.3
258.628	7.02
259.009	7.4
259.389	7.51
259.77	7.9
260.15	7.82
260.531	7.46
260.911	6.99
261.292	7.31
261.672	6.93
262.052	6.75
262.432	6.76
262.813	7.16
263.193	6.76
263.573	7.21
263.953	7.12
264.333	7.21
264.713	6.96
265.093	7.39
265.473	7.09
265.853	6.96
266.233	7.6
266.612	7.26
266.992	7.23
267.372	7.31
267.752	6.75
268.131	6.45
268.511	6.82
268.89	7.47
269.27	6.48
269.649	6.75
270.029	6.31
270.408	7.14
270.787	7.38
271.167	7.12
271.546	6.69
271.925	7.18
272.304	6.63
272.683	6.38
273.062	7.08
273.441	6.71
273.82	6.79
274.199	6.95
274.578	6.75
274.957	6.38
275.336	5.93
275.715	6.64
276.093	6.38
276.472	6.5
276.851	6.69
277.229	5.6
277.608	7.23
277.986	6.18
278.365	6.47
278.743	6.83
279.122	6.64
279.5	6.93
279.878	6.14
280.257	7.16
280.635	6.23
281.013	7.18
281.391	6.42
281.769	6.49
282.147	6.38
282.525	6.33
282.903	6.81
283.281	6.21
283.659	6.42
284.037	5.7
284.415	6.4
284.792	6.06
285.17	6.02
285.548	6.46
285.925	6.49
286.303	6.24
286.68	5.77
287.058	6.11
287.435	6.36
287.813	5.91
288.19	5.73
288.567	6
288.945	5.78
289.322	6.16
289.699	5.93
290.076	6.46
290.453	5.54
290.83	5.77
291.207	5.83
291.584	5.76
291.961	5.69
292.338	6.23
292.715	6.16
293.092	5.87
293.469	6.25
293.845	5.73
294.222	5.92
294.599	5.92
294.975	6.44
295.352	6.47
295.728	5.93
296.105	5.91
296.481	6.12
296.858	6.26
297.234	5.85
297.61	5.96
297.986	5.79
298.363	5.76
298.739	5.64
299.115	5.72
299.491	5.88
299.867	5.67
300.243	5.64
300.619	5.46
300.995	5.68
301.371	5.95
301.746	5.87
302.122	6.24
302.498	5.98
302.874	5.82
303.249	5.65
303.625	5.56
304	6.04
304.376	5.97
304.751	5.81
305.127	5.91
305.502	6.16
305.878	5.91
306.253	5.82
306.628	5.64
307.003	6.1
307.378	5.83
307.754	5.72
308.129	5.7
308.504	5.58
308.879	6.39
309.254	5.62
309.629	5.65
310.003	6.04
310.378	6.13
310.753	6.36
311.128	5.86
311.502	6.15
311.877	5.14
312.252	5.41
312.626	5.77
313.001	5.84
313.375	6.01
313.75	5.86
314.124	6.04
314.498	5.63
314.873	6.27
315.247	6.03
315.621	6.01
315.995	5.82
316.369	5.61
316.743	6.05
317.117	6.03
317.491	6.3
317.865	5.84
318.239	6.16
318.613	5.85
318.987	5.9
319.361	5.94
319.734	5.72
320.108	5.89
320.482	5.73
320.855	5.76
321.229	6.46
321.602	5.57
321.976	6.01
322.349	5.58
322.723	5.98
323.096	6.13
323.469	5.78
323.843	6.1
324.216	6.37
324.589	5.96
324.962	5.85
325.335	5.9
325.708	5.94
326.081	6.1
326.454	5.27
326.827	5.86
327.2	5.54
327.573	6.18
327.945	6.11
328.318	5.86
328.691	6.21
329.063	6.08
329.436	6.35
329.809	6.14
330.181	5.99
330.553	5.47
330.926	5.61
331.298	6.35
331.671	5.99
332.043	5.25
332.415	5.84
332.787	6.19
333.159	5.89
333.532	5.96
333.904	6.34
334.276	5.72
334.648	5.42
335.02	5.62
335.391	5.83
335.763	5.92
336.135	5.96
336.507	6.07
336.879	5.56
337.25	6.33
337.622	6.52
337.993	6.07
338.365	6.26
338.736	6.4
339.108	5.73
339.479	5.98
339.851	5.58
340.222	5.87
340.593	5.74
340.964	5.84
341.336	5.94
341.707	6.18
342.078	6.33
342.449	6.07
342.82	5.94
343.191	5.79
343.562	6.19
343.933	5.9
344.303	6.05
344.674	5.66
345.045	6.08
345.416	6.55
345.786	5.69
346.157	6.24
346.527	5.95
346.898	5.95
347.268	5.67
347.639	5.88
348.009	6.14
348.38	6.11
348.75	6.39
349.12	6.04
349.49	6.29
349.861	6.12
350.231	6.09
350.601	6.33
350.971	6.93
351.341	6.12
351.711	6.4
352.081	6.19
352.45	6.05
352.82	6.61
353.19	6.4
353.56	6.13
353.929	6.41
354.299	6.55
354.669	6.11
355.038	6.07
355.408	6.05
355.777	6.88
356.147	6.1
356.516	6.33
356.885	6.11
357.254	6.59
357.624	5.83
357.993	6.5
358.362	6.29
358.731	6.22
359.1	6.24
359.469	6.44
359.838	6.14
360.207	5.97
360.576	6.47
360.945	6.28
361.314	6.43
361.682	6.59
362.051	6.8
362.42	6.5
362.788	6.07
363.157	6.37
363.525	6.52
363.894	6.09
364.262	6.18
364.631	6.24
364.999	6.24
365.367	6.52
365.735	6.31
366.104	6.51
366.472	6.57
366.84	6.3
367.208	7.11
367.576	6.66
367.944	6.43
368.312	6.66
368.68	6.54
369.048	6.62
369.416	6.46
369.783	6.35
370.151	6.54
370.519	6.14
370.886	6.53
371.254	6.76
371.621	6.18
371.989	6.57
372.356	6.41
372.724	6.89
373.091	6.76
373.458	6.6
373.826	6.44
374.193	6.82
374.56	6.68
374.927	6.66
375.294	6.67
375.661	6.54
376.028	6.54
376.395	6.93
376.762	6.59
377.129	6.82
377.496	7.06
377.863	6.53
378.229	6.54
378.596	6.74
378.963	6.93
379.329	6.56
379.696	6.77
380.062	6.44
380.429	6.69
380.795	6.68
381.161	6.67
381.528	6.52
381.894	6.38
382.26	6.75
382.626	6.98
382.993	6.92
383.359	6.61
383.725	6.71
384.091	6.71
384.457	6.81
384.823	6.67
385.188	6.85
385.554	6.85
385.92	7.23
386.286	6.89
386.651	6.74
387.017	6.99
387.383	6.63
387.748	6.81
388.114	6.78
388.479	6.97
388.845	6.5
389.21	6.46
389.575	7.07
389.94	6.5
390.306	6.96
390.671	7.18
391.036	6.8
391.401	7
391.766	6.95
392.131	6.81
392.496	7.06
392.861	6.67
393.226	7.06
393.591	7.08
393.956	6.92
394.32	6.77
394.685	6.89
395.05	7.07
395.414	7.07
395.779	6.84
396.143	7.09
396.508	6.95
396.872	6.97
397.236	6.96
397.601	7.01
397.965	6.95
398.329	6.79
398.694	6.84
399.058	6.89
399.422	6.93
399.786	7.02
400.15	6.91
400.514	7.09
400.878	6.87
401.242	7.2
401.605	7.14
401.969	6.93
402.333	7
402.697	7.03
403.06	7.11
403.424	6.61
403.787	7.02
404.151	6.8
404.514	7.01
404.878	7.09
405.241	7.23
405.604	7.08
405.968	7.15
406.331	6.89
406.694	6.88
407.057	6.76
407.42	6.93
407.783	7
408.146	7.07
408.509	7.06
408.872	6.94
409.235	6.92
409.598	7.01
409.961	7.24
410.323	7.28
410.686	7.16
411.049	7.36
411.411	7.32
411.774	7.13
412.136	6.94
412.499	7.08
412.861	7.1
413.223	7.16
413.586	7.12
413.948	7.32
414.31	7.11
414.672	7.16
415.035	6.93
415.397	7.21
415.759	7.36
416.121	7.07
416.483	7.08
416.845	7.22
417.206	7.12
417.568	7.11
417.93	6.98
418.292	7.11
418.653	7.16
419.015	7.2
419.377	6.88
419.738	7.11
420.1	6.93
420.461	7.05
420.822	7.08
421.184	7.1
421.545	6.97
421.906	6.97
422.267	6.95
422.629	7.14
422.99	6.93
423.351	6.87
423.712	6.82
424.073	6.94
424.434	7.06
424.795	7.09
425.155	7.02
425.516	6.97
425.877	6.93
426.238	6.83
426.598	6.91
426.959	6.85
427.32	7.01
427.68	7
428.041	6.95
428.401	7.01
428.761	7.16
429.122	7.14
429.482	7.12
429.842	6.99
430.202	7.09
430.563	7.27
430.923	7.21
431.283	7.24
431.643	7.18
432.003	7.23
432.363	7.35
432.722	7.36
433.082	7.37
433.442	7.23
433.802	7.27
434.161	7.27
434.521	7.22
434.881	7.12
435.24	7.13
435.6	7.03
435.959	7.05
436.319	7.1
436.678	7.29
437.037	7.23
437.396	7.05
437.756	7.18
438.115	7.15
438.474	7.22
438.833	7.31
439.192	7.12
439.551	7.22
439.91	7.33
440.269	7.17
440.628	7.07
440.987	7.19
441.345	7.18
441.704	7.26
442.063	7.09
442.421	7.11
442.78	7.13
443.138	7.17
443.497	7.12
443.855	7.16
444.214	7.02
444.572	7.24
444.93	7.17
445.288	7.14
445.647	7.2
446.005	7.04
446.363	7.07
446.721	7.28
447.079	6.95
447.437	7.11
447.795	7.28
448.153	7.02
448.51	7.14
448.868	7.08
449.226	7
449.584	7.03
449.941	7.01
450.299	7.22
450.656	7.29
451.014	7.24
451.371	7.17
451.729	7.2
452.086	7.17
452.443	7.23
452.801	7.28
453.158	7.17
453.515	7.28
453.872	7.17
454.229	7.22
454.586	7.29
454.943	7.2
455.3	7.16
455.657	7.22
456.014	7.24
456.371	7.29
456.727	7.45
457.084	7.23
457.441	7.13
457.797	7.28
458.154	7.33
458.51	7.13
458.867	7.2
459.223	7.36
459.58	7.38
459.936	7.39
460.292	7.27
460.648	7.37
461.005	7.26
461.361	7.34
461.717	7.02
462.073	7.18
462.429	6.88
462.785	7.09
463.141	7.06
463.496	7.26
463.852	7.18
464.208	7.23
464.564	7.39
464.919	7.23
465.275	7.4
465.631	7.46
465.986	7.41
466.342	7.46
466.697	7.44
467.052	7.17
467.408	7.27
467.763	7.17
468.118	7.44
468.473	7.25
468.829	7.3
469.184	7.32
469.539	7.36
469.894	7.42
470.249	7.27
470.603	7.24
470.958	7.39
471.313	7.36
471.668	7.37
472.023	7.38
472.377	7.29
472.732	7.2
473.086	7.31
473.441	7.16
473.795	7.49
474.15	7.13
474.504	7.24
474.859	7.44
475.213	7.07
475.567	7.05
475.921	7.36
476.275	7.19
476.63	7.13
476.984	7.09
477.338	7.42
477.692	7.43
478.045	7.42
478.399	7.36
478.753	7.15
479.107	7.25
479.461	7.2
479.814	7.44
480.168	7.26
480.521	7.37
480.875	7.35
481.228	7.2
481.582	7.1
481.935	7.19
482.289	7.14
482.642	7.1
482.995	7.14
483.348	7.25
483.701	7.17
484.055	7.1
484.408	7.04
484.761	7.06
485.114	6.96
485.466	6.9
485.819	6.75
486.172	6.68
486.525	6.73
486.878	6.73
487.23	6.79
487.583	6.84
487.936	6.86
488.288	6.98
488.641	6.9
488.993	6.83
489.345	6.79
489.698	6.82
490.05	6.85
490.402	6.77
490.754	6.78
491.107	6.84
491.459	6.92
491.811	6.84
492.163	6.9
492.515	6.99
492.866	7.03
493.218	6.97
493.57	6.97
493.922	6.81
494.274	6.79
494.625	6.83
494.977	6.88
495.328	7.06
495.68	7
496.031	6.99
496.383	7.13
496.734	7.08
497.086	7
497.437	7.2
497.788	7.03
498.139	7.1
498.49	7.25
498.842	6.92
499.193	7.04
499.544	7.02
499.894	6.95
500.245	7.02
500.596	7.05
500.947	7.05
501.298	7.12
501.648	7.11
501.999	7.14
502.35	7
502.7	7.2
503.051	7.08
503.401	7.05
503.752	7.09
504.102	7.04
504.452	7.05
504.803	6.95
505.153	7.15
505.503	6.99
505.853	7.07
506.203	7.03
506.553	7.11
506.903	7.12
507.253	6.92
507.603	7.07
507.953	7.03
508.303	7.01
508.652	7.19
509.002	7.15
509.352	6.94
509.701	7.11
510.051	7.06
510.4	7.02
510.75	6.76
511.099	6.82
511.449	6.87
511.798	6.98
512.147	6.94
512.496	6.9
512.846	6.87
513.195	6.95
513.544	7.03
513.893	6.99
514.242	6.84
514.591	6.9
514.939	6.94
515.288	6.77
515.637	6.81
515.986	6.87
516.334	6.92
516.683	6.95
517.032	6.97
517.38	6.98
517.729	6.97
518.077	7.01
518.426	6.91
518.774	6.88
519.122	6.86
519.47	6.88
519.819	6.77
520.167	6.88
520.515	6.83
520.863	6.7
521.211	6.68
521.559	6.75
521.907	6.78
522.255	6.81
522.602	6.79
522.95	6.87
523.298	6.92
523.645	6.88
523.993	6.8
524.341	6.83
524.688	6.95
525.036	6.77
525.383	6.94
525.73	6.89
526.078	6.87
526.425	6.67
526.772	6.8
527.119	6.76
527.466	6.56
527.814	6.54
528.161	6.54
528.508	6.58
528.854	6.68
529.201	6.66
529.548	6.64
529.895	6.49
530.242	6.49
530.588	6.43
530.935	6.34
531.282	6.31
531.628	6.36
531.975	6.36
532.321	6.4
532.667	6.49
533.014	6.49
533.36	6.61
533.706	6.6
534.052	6.63
534.399	6.6
534.745	6.56
535.091	6.5
535.437	6.43
535.783	6.38
536.129	6.39
536.474	6.42
536.82	6.39
537.166	6.53
537.512	6.58
537.857	6.55
538.203	6.69
538.549	6.5
538.894	6.35
539.239	6.44
539.585	6.44
539.93	6.55
540.276	6.45
540.621	6.56
540.966	6.67
541.311	6.64
541.656	6.5
542.001	6.56
542.346	6.53
542.691	6.64
543.036	6.45
543.381	6.32
543.726	6.29
544.071	6.29
544.415	6.24
544.76	6.24
545.105	6.24
545.449	6.3
545.794	6.33
546.138	6.42
546.483	6.46
546.827	6.32
547.171	6.4
547.516	6.44
547.86	6.5
548.204	6.42
548.548	6.4
548.892	6.41
549.236	6.31
549.58	6.36
549.924	6.42
550.268	6.52
550.612	6.45
550.956	6.45
551.3	6.45
551.643	6.59
551.987	6.51
552.33	6.59
552.674	6.49
553.017	6.43
553.361	6.53
553.704	6.53
554.048	6.55
554.391	6.52
554.734	6.47
555.077	6.47
555.42	6.38
555.764	6.53
556.107	6.31
556.45	6.3
556.793	6.55
557.135	6.41
557.478	6.4
557.821	6.3
558.164	6.26
558.507	6.35
558.849	6.22
559.192	6.53
559.534	6.35
559.877	6.42
560.219	6.45
560.562	6.48
560.904	6.42
561.246	6.6
561.589	6.36
561.931	6.35
562.273	6.25
562.615	6.35
562.957	6.25
563.299	6.31
563.641	6.33
563.983	6.36
564.325	6.29
564.667	6.31
565.008	6.23
565.35	6.4
565.692	6.39
566.033	6.39
566.375	6.17
566.716	6.43
567.058	6.26
567.399	6.42
567.741	6.3
568.082	6.19
568.423	6.23
568.764	6.37
569.105	6.11
569.447	6.23
569.788	6.09
570.129	6.15
570.47	6.36
570.811	6.22
571.151	6.28
571.492	6.14
571.833	6.06
572.174	6.25
572.514	6.23
572.855	6.27
573.195	6.05
573.536	6.17
573.876	6.04
574.217	6.14
574.557	6.07
574.898	6.16
575.238	6.05
575.578	6.16
575.918	6.25
576.258	6.02
576.598	6.04
576.938	6.05
577.278	6.2
577.618	5.98
577.958	6.23
578.298	6.18
578.638	6.07
578.977	6.15
579.317	6.19
579.657	6.15
579.996	6.11
580.336	6.1
580.675	6.29
581.014	5.94
581.354	6.12
581.693	6.35
582.032	6.18
582.372	6.31
582.711	6.17
583.05	6.1
583.389	6.15
583.728	6.09
584.067	6.03
584.406	6.09
584.745	6.08
585.083	6.44
585.422	6.5
585.761	6.12
586.1	5.96
586.438	6.11
586.777	6.21
587.115	6.23
587.454	6.07
587.792	6.08
588.13	6.14
588.469	5.97
588.807	6.31
589.145	6.06
589.483	6.04
589.821	5.98
590.159	6.15
590.497	6.09
590.835	6.06
591.173	6.01
591.511	6.1
591.849	6.15
592.187	6.01
592.524	6.28
592.862	5.97
593.2	5.99
593.537	6.02
593.875	6.12
594.212	6
594.55	6.17
594.887	6
595.224	6.1
595.561	6.12
595.899	6.31
596.236	6.14
596.573	6.17
596.91	6.01
597.247	5.89
597.584	6.16
597.921	6.1
598.258	6.09
598.594	5.93
598.931	5.83
599.268	5.89
599.604	5.97
599.941	5.91
600.277	5.81
600.614	6.01
600.95	6.14
601.287	5.96
601.623	6.08
601.959	5.99
602.296	6.14
602.632	5.79
602.968	5.83
603.304	5.91
603.64	5.83
603.976	6
604.312	6.01
604.648	5.85
604.984	5.89
605.319	5.78
605.655	5.82
605.991	5.84
606.326	5.99
606.662	5.76
606.998	5.65
607.333	5.81
607.668	5.82
608.004	5.82
608.339	5.8
608.674	5.82
609.01	5.88
609.345	5.76
609.68	5.89
610.015	5.89
610.35	6
610.685	5.95
611.02	5.91
611.355	6.08
611.689	5.84
612.024	5.83
612.359	6.01
612.694	5.99
613.028	5.83
613.363	5.53
613.697	5.76
614.032	5.78
614.366	5.69
614.7	5.98
615.035	5.76
615.369	5.74
615.703	5.89
616.037	5.99
616.371	5.95
616.705	6.02
617.039	5.76
617.373	6.03
617.707	5.91
618.041	6.23
618.375	6.04
618.709	5.92
619.042	6.02
619.376	5.78
619.71	5.87
620.043	5.64
620.377	5.89
620.71	5.91
621.043	5.56
621.377	5.53
621.71	5.91
622.043	5.77
622.376	6.13
622.709	5.53
623.043	5.83
623.376	6.02
623.709	5.68
624.041	5.79
624.374	5.94
624.707	5.74
625.04	6.22
625.373	5.78
625.705	5.67
626.038	5.69
626.37	5.75
626.703	5.99
627.035	5.54
627.368	5.83
627.7	6.05
628.032	5.8
628.365	6.03
628.697	5.66
629.029	5.85
629.361	5.55
629.693	5.81
630.025	5.86
630.357	5.68
630.689	5.44
631.021	5.72
631.353	5.61
631.684	6
632.016	5.79
632.348	6.09
632.679	5.77
633.011	5.73
633.342	5.99
633.674	6.12
634.005	5.49
634.336	6.19
634.668	5.93
634.999	5.91
635.33	5.85
635.661	6.15
635.992	5.85
636.323	5.88
636.654	5.94
636.985	5.73
637.316	5.77
637.647	5.92
637.977	5.24
638.308	6.27
638.639	5.32
638.969	5.92
639.3	5.53
639.63	5.92
639.961	5.69
640.291	5.91
640.622	5.98
640.952	5.96
641.282	5.57
641.612	5.56
641.943	6.27
642.273	5.74
642.603	5.68
642.933	5.68
643.263	5.18
643.592	5.94
643.922	5.63
644.252	5.97
644.582	6.16
644.911	5.93
645.241	5.93
645.571	5.54
645.9	5.59
646.23	6.11
646.559	5.74
646.888	6.05
647.218	5.78
647.547	6.17
647.876	5.58
648.205	5.47
648.534	6.1
648.863	5.64
649.192	5.24
649.521	5.91
649.85	5.64
650.179	5.71
650.508	5.66
650.837	6
651.165	6.06
651.494	5.99
651.822	6.08
652.151	4.99
652.479	5.8
652.808	5.45
653.136	5.88
653.465	6.12
653.793	5.58
654.121	6.51
654.449	5.59
654.777	5.58
655.105	6.2
655.433	6.02
655.761	6.01
656.089	5.83
656.417	5.39
656.745	5.66
657.073	5.45
657.4	6.12
657.728	5.97
658.056	5.52
658.383	5.8
658.711	5.35
659.038	5.38
659.365	5.79
659.693	5.45
660.02	6.04
660.347	6.19
660.674	5.39
661.001	5.6
661.329	6.06
661.656	5.79
661.982	5.64
662.309	5.89
662.636	5.71
662.963	6.1
663.29	5.76
663.616	6.25
663.943	5.83
664.27	5.61
664.596	5.4
664.923	5.76
665.249	6
665.576	5.49
665.902	6.16
666.228	5.61
666.554	5.55
666.881	6.41
667.207	5.68
667.533	5.69
667.859	6.1
668.185	6.02
668.511	6.26
668.837	5.69
669.162	6.27
669.488	5.92
669.814	5.85
670.139	5.84
670.465	6.15
670.791	5.66
671.116	5.52
671.442	6.57
671.767	5.12
672.092	6.41
672.418	6.2
672.743	6.16
673.068	5.75
673.393	5.95
673.718	6.05
674.043	5.87
674.368	5.97
674.693	5.92
675.018	5.96
675.343	5.58
675.667	5.91
675.992	5.54
676.317	6.36
676.641	5.79
676.966	6.58
677.29	6.14
677.615	5.63
677.939	6.04
678.264	6.03
678.588	5.82
678.912	5.89
679.236	6.47
679.56	5.88
679.885	5.96
680.209	6.42
680.532	5.66
680.856	5.82
681.18	6.04
681.504	5.97
681.828	6.1
682.152	5.8
682.475	6.64
682.799	6.42
683.122	5.97
683.446	6.23
683.769	5.86
684.093	6.04
684.416	6.02
684.739	5.92
685.062	6.75
685.386	5.76
685.709	5.65
686.032	5.86
686.355	5.92
686.678	6.24
687.001	6.42
687.324	6.38
687.646	5.77
687.969	6.45
688.292	5.98
688.614	6.79
688.937	5.63
689.26	5.43
689.582	6.5
689.904	6.26
690.227	6.99
690.549	6.31
690.871	5.66
691.194	5.66
691.516	5.93
691.838	5.76
692.16	5.9
