Data from 0158_chest_Reflection__2__68.txt Node

Date: Fri Sep 22 20:52:22 CDT 2023
User: ToomeyLab
Spectrometer: FLMS14357
Trigger mode: 0
Integration Time (sec): 1.000000E-2
Scans to average: 100
Electric dark correction enabled: true
Nonlinearity correction enabled: false
Boxcar width: 0
XAxis mode: Wavelengths
Number of Pixels in Spectrum: 2048
>>>>>Begin Spectral Data<<<<<
189.047	-160.18
189.435	-160.18
189.823	-160.18
190.211	-176.55
190.599	198.7
190.987	37.87
191.375	-3893.65
191.763	-35.89
192.151	118.19
192.538	897.16
192.926	64.26
193.314	-19.42
193.702	279.98
194.089	31.43
194.477	134.06
194.864	49.94
195.252	49.1
195.639	90.26
196.027	30.46
196.414	-25.59
196.801	-841.04
197.189	-14.56
197.576	278.44
197.963	64.14
198.351	-7.28
198.738	0.91
199.125	-18.94
199.512	3.91
199.899	47.29
200.286	18.54
200.673	-3.18
201.06	17.45
201.447	59.76
201.833	-20.23
202.22	13.34
202.607	23.09
202.994	51.74
203.38	13.93
203.767	44.66
204.154	37.28
204.54	8.51
204.927	33.6
205.313	8.83
205.699	44.28
206.086	59.16
206.472	46.13
206.858	24.33
207.245	0.23
207.631	40.4
208.017	21.06
208.403	15.09
208.789	19.17
209.175	40.96
209.561	28.63
209.947	36.02
210.333	50.75
210.719	19.06
211.105	49.43
211.491	16.08
211.876	25.58
212.262	13.62
212.648	24.2
213.034	25.47
213.419	9.84
213.805	11.9
214.19	25.01
214.576	51.71
214.961	1.45
215.346	8.74
215.732	12.43
216.117	26.77
216.502	28.99
216.888	21.79
217.273	24.79
217.658	9.79
218.043	15.34
218.428	24.51
218.813	1.36
219.198	29.52
219.583	8.75
219.968	4.97
220.353	22.14
220.738	19.56
221.122	11.28
221.507	1.47
221.892	6.38
222.276	4.6
222.661	-20.27
223.046	17.24
223.43	19.66
223.815	8.81
224.199	4.12
224.583	10.53
224.968	12.85
225.352	-2.37
225.736	4.98
226.121	4.59
226.505	8.4
226.889	6.24
227.273	5.67
227.657	8.14
228.041	7.95
228.425	8.88
228.809	-0.1
229.193	3.62
229.577	2.91
229.961	2.06
230.344	3.79
230.728	1.17
231.112	2.45
231.495	2.05
231.879	1.58
232.263	1.98
232.646	1.96
233.03	1.2
233.413	2.76
233.797	1.78
234.18	4.04
234.563	6.39
234.946	3.27
235.33	2.53
235.713	1.13
236.096	3.02
236.479	2.98
236.862	2.99
237.245	2.98
237.628	3.76
238.011	2.43
238.394	3.92
238.777	3.04
239.16	2.39
239.543	4.21
239.925	5.05
240.308	1.71
240.691	2.74
241.073	3.83
241.456	3.28
241.838	1.51
242.221	2.3
242.603	3.42
242.986	2.14
243.368	2.06
243.75	2.99
244.133	2.83
244.515	2.32
244.897	1.96
245.279	2.06
245.661	2.21
246.043	2.13
246.425	2.16
246.807	2.7
247.189	0.61
247.571	2.42
247.953	2.1
248.335	2.37
248.717	2.42
249.098	2.29
249.48	1.99
249.862	1.77
250.243	2
250.625	2.45
251.006	1.78
251.388	2.52
251.769	2.56
252.151	2.2
252.532	1.91
252.913	2.44
253.295	3.68
253.676	3.26
254.057	3.08
254.438	2.66
254.819	2.24
255.2	1.78
255.581	2.19
255.962	2.69
256.343	2.32
256.724	2.34
257.105	3.06
257.486	2.2
257.867	2.93
258.247	3.79
258.628	3.35
259.009	2.37
259.389	2.55
259.77	2.81
260.15	2.96
260.531	2.08
260.911	2.08
261.292	1.98
261.672	1.87
262.052	1.95
262.432	2.26
262.813	2.55
263.193	1.85
263.573	2.53
263.953	2
264.333	2.61
264.713	1.87
265.093	1.79
265.473	1.93
265.853	2.12
266.233	2.51
266.612	1.78
266.992	2.94
267.372	2.57
267.752	2.72
268.131	2.53
268.511	1.71
268.89	2.42
269.27	2.32
269.649	2.23
270.029	1.89
270.408	2.62
270.787	2.75
271.167	2.51
271.546	1.89
271.925	1.74
272.304	2.31
272.683	2.47
273.062	2.78
273.441	2.03
273.82	2.45
274.199	2.2
274.578	2.55
274.957	2.13
275.336	2.09
275.715	2.44
276.093	1.92
276.472	1.73
276.851	1.71
277.229	2.13
277.608	2.42
277.986	1.89
278.365	1.74
278.743	2.07
279.122	2.34
279.5	2.25
279.878	2.03
280.257	2.5
280.635	1.98
281.013	2.65
281.391	1.91
281.769	2.42
282.147	2.16
282.525	2.1
282.903	2.13
283.281	2.02
283.659	2.67
284.037	2.18
284.415	2.31
284.792	2.2
285.17	2.24
285.548	2.35
285.925	2.44
286.303	2.11
286.68	1.57
287.058	1.9
287.435	2.11
287.813	1.9
288.19	1.73
288.567	2.3
288.945	2.05
289.322	1.82
289.699	2.38
290.076	2.2
290.453	1.84
290.83	2.04
291.207	1.93
291.584	1.82
291.961	2.07
292.338	2.41
292.715	2.1
293.092	2.18
293.469	1.86
293.845	2.22
294.222	2.5
294.599	2.6
294.975	2.42
295.352	2.33
295.728	2.27
296.105	2.52
296.481	1.87
296.858	2.24
297.234	2.21
297.61	2.01
297.986	1.99
298.363	2.05
298.739	2.11
299.115	2.49
299.491	2.14
299.867	1.96
300.243	2.25
300.619	2.26
300.995	1.6
301.371	2.45
301.746	2.61
302.122	1.93
302.498	2.12
302.874	2.35
303.249	2.37
303.625	2.33
304	2.55
304.376	2.4
304.751	2.54
305.127	2.07
305.502	2.77
305.878	2.57
306.253	2.27
306.628	2.41
307.003	2.52
307.378	2.58
307.754	2.02
308.129	2.41
308.504	2.62
308.879	2.47
309.254	2.47
309.629	2.61
310.003	2.65
310.378	3.17
310.753	2.28
311.128	2.19
311.502	2.74
311.877	2.1
312.252	2.35
312.626	2.39
313.001	2.58
313.375	2.8
313.75	2.86
314.124	2.76
314.498	2.33
314.873	2.75
315.247	2.97
315.621	2.81
315.995	3.1
316.369	2.68
316.743	2.52
317.117	2.86
317.491	3.03
317.865	2.13
318.239	2.72
318.613	3.23
318.987	2.87
319.361	2.41
319.734	2.84
320.108	2.8
320.482	2.61
320.855	3.15
321.229	3.52
321.602	2.87
321.976	2.84
322.349	3
322.723	2.83
323.096	2.67
323.469	3.2
323.843	2.62
324.216	2.88
324.589	2.99
324.962	2.66
325.335	2.46
325.708	2.72
326.081	2.86
326.454	2.52
326.827	2.87
327.2	2.89
327.573	3.12
327.945	2.79
328.318	2.97
328.691	3.05
329.063	2.82
329.436	3.04
329.809	2.82
330.181	2.57
330.553	2.41
330.926	2.61
331.298	2.95
331.671	3.22
332.043	1.93
332.415	2.86
332.787	3.52
333.159	2.6
333.532	2.59
333.904	2.96
334.276	2.49
334.648	2.71
335.02	2.51
335.391	3.04
335.763	3.1
336.135	2.76
336.507	3.06
336.879	2.02
337.25	2.94
337.622	3.34
337.993	2.84
338.365	3.16
338.736	3.22
339.108	2.72
339.479	3.08
339.851	2.37
340.222	2.53
340.593	2.84
340.964	2.61
341.336	2.86
341.707	3.2
342.078	2.94
342.449	3.19
342.82	2.82
343.191	2.1
343.562	2.83
343.933	2.85
344.303	3
344.674	3.3
345.045	2.92
345.416	3.34
345.786	2.81
346.157	3.05
346.527	2.77
346.898	2.59
347.268	2.98
347.639	3.09
348.009	2.32
348.38	2.78
348.75	3.42
349.12	3.12
349.49	3.08
349.861	2.83
350.231	3.08
350.601	3.27
350.971	3.06
351.341	2.89
351.711	2.67
352.081	2.83
352.45	2.67
352.82	3.14
353.19	3
353.56	2.79
353.929	3.1
354.299	3.11
354.669	2.83
355.038	3.01
355.408	2.82
355.777	3.05
356.147	3.23
356.516	3.37
356.885	2.92
357.254	3.61
357.624	2.55
357.993	2.87
358.362	2.88
358.731	2.96
359.1	3.03
359.469	2.93
359.838	2.65
360.207	2.73
360.576	3.03
360.945	3.02
361.314	2.98
361.682	2.97
362.051	3.22
362.42	2.75
362.788	2.71
363.157	2.76
363.525	2.77
363.894	2.87
364.262	2.97
364.631	2.57
364.999	2.72
365.367	3.03
365.735	3.02
366.104	3.25
366.472	3.17
366.84	2.83
367.208	3.31
367.576	2.99
367.944	3.1
368.312	3
368.68	3.06
369.048	3.07
369.416	3.25
369.783	2.85
370.151	2.65
370.519	3.03
370.886	3.02
371.254	3.41
371.621	3.18
371.989	2.7
372.356	3.11
372.724	3.16
373.091	2.85
373.458	2.92
373.826	3.44
374.193	3.12
374.56	3.06
374.927	3.21
375.294	3.09
375.661	3.18
376.028	3.08
376.395	3.55
376.762	2.89
377.129	3.26
377.496	3.25
377.863	3.17
378.229	3.06
378.596	3.04
378.963	3.37
379.329	2.98
379.696	3.16
380.062	2.81
380.429	3.02
380.795	3.29
381.161	3.03
381.528	3.11
381.894	2.59
382.26	3
382.626	3.21
382.993	3.43
383.359	2.84
383.725	3.2
384.091	3.25
384.457	3.11
384.823	2.72
385.188	3.34
385.554	3.11
385.92	3.42
386.286	3
386.651	3.4
387.017	3.18
387.383	3.03
387.748	3.19
388.114	3.3
388.479	3.04
388.845	3.1
389.21	3.05
389.575	3.32
389.94	3.02
390.306	3.42
390.671	3.58
391.036	2.83
391.401	3.06
391.766	3.23
392.131	3.23
392.496	2.98
392.861	3.17
393.226	3.2
393.591	3.05
393.956	3.22
394.32	2.93
394.685	3.26
395.05	3.44
395.414	3.08
395.779	3.03
396.143	3.27
396.508	3.03
396.872	2.96
397.236	3.21
397.601	3.04
397.965	3.33
398.329	3.25
398.694	3.15
399.058	3.06
399.422	3.18
399.786	3.33
400.15	3.25
400.514	3.47
400.878	3.17
401.242	3.45
401.605	2.92
401.969	3.01
402.333	3.31
402.697	3.18
403.06	3.22
403.424	3.14
403.787	3.32
404.151	3.06
404.514	3.28
404.878	3.37
405.241	3.49
405.604	3.22
405.968	3.31
406.331	3.15
406.694	3.04
407.057	3.1
407.42	3.21
407.783	3.31
408.146	3.14
408.509	3.24
408.872	3.02
409.235	3.15
409.598	3.14
409.961	3.54
410.323	3.48
410.686	3.21
411.049	3.41
411.411	3.52
411.774	3.26
412.136	3.4
412.499	3.04
412.861	3.25
413.223	3.16
413.586	3.11
413.948	3.15
414.31	3.26
414.672	3.48
415.035	3.3
415.397	3.58
415.759	3.63
416.121	3.12
416.483	3.37
416.845	3.07
417.206	3.23
417.568	3.43
417.93	3.15
418.292	3.28
418.653	3.02
419.015	3.19
419.377	3.2
419.738	3.29
420.1	3.18
420.461	3.1
420.822	3.12
421.184	3.12
421.545	3.17
421.906	3.07
422.267	3.15
422.629	3.22
422.99	3.21
423.351	3.11
423.712	3.13
424.073	3.1
424.434	3.15
424.795	3.17
425.155	3.13
425.516	3.15
425.877	3.14
426.238	3.06
426.598	3.13
426.959	3.11
427.32	3.28
427.68	3.13
428.041	3.01
428.401	3.13
428.761	3.36
429.122	3.23
429.482	3.28
429.842	3.13
430.202	3.21
430.563	3.42
430.923	3.41
431.283	3.35
431.643	3.51
432.003	3.24
432.363	3.41
432.722	3.46
433.082	3.44
433.442	3.22
433.802	3.46
434.161	3.06
434.521	3.29
434.881	3.24
435.24	3.26
435.6	3.13
435.959	3.14
436.319	3.37
436.678	3.33
437.037	3.28
437.396	3.37
437.756	3.28
438.115	3.42
438.474	3.3
438.833	3.39
439.192	3.38
439.551	3.29
439.91	3.51
440.269	3.4
440.628	3.1
440.987	3.39
441.345	3.4
441.704	3.35
442.063	3.28
442.421	3.24
442.78	3.18
443.138	3.29
443.497	3.28
443.855	3.22
444.214	3.12
444.572	3.34
444.93	3.24
445.288	3.33
445.647	3.32
446.005	3.33
446.363	3.23
446.721	3.36
447.079	3.19
447.437	3.23
447.795	3.34
448.153	3.21
448.51	3.24
448.868	3.25
449.226	3.27
449.584	3.32
449.941	3.29
450.299	3.31
450.656	3.33
451.014	3.48
451.371	3.35
451.729	3.27
452.086	3.4
452.443	3.43
452.801	3.41
453.158	3.33
453.515	3.38
453.872	3.42
454.229	3.45
454.586	3.51
454.943	3.45
455.3	3.43
455.657	3.43
456.014	3.32
456.371	3.36
456.727	3.54
457.084	3.42
457.441	3.38
457.797	3.43
458.154	3.32
458.51	3.39
458.867	3.46
459.223	3.34
459.58	3.53
459.936	3.46
460.292	3.49
460.648	3.54
461.005	3.41
461.361	3.44
461.717	3.31
462.073	3.38
462.429	3.26
462.785	3.35
463.141	3.46
463.496	3.53
463.852	3.38
464.208	3.37
464.564	3.59
464.919	3.45
465.275	3.63
465.631	3.68
465.986	3.51
466.342	3.51
466.697	3.7
467.052	3.45
467.408	3.45
467.763	3.54
468.118	3.7
468.473	3.39
468.829	3.5
469.184	3.54
469.539	3.48
469.894	3.62
470.249	3.58
470.603	3.62
470.958	3.6
471.313	3.58
471.668	3.47
472.023	3.5
472.377	3.45
472.732	3.51
473.086	3.74
473.441	3.51
473.795	3.85
474.15	3.61
474.504	3.44
474.859	3.75
475.213	3.27
475.567	3.35
475.921	3.52
476.275	3.63
476.63	3.45
476.984	3.43
477.338	3.68
477.692	3.49
478.045	3.71
478.399	3.7
478.753	3.46
479.107	3.5
479.461	3.41
479.814	3.58
480.168	3.65
480.521	3.67
480.875	3.65
481.228	3.55
481.582	3.4
481.935	3.6
482.289	3.55
482.642	3.5
482.995	3.5
483.348	3.55
483.701	3.64
484.055	3.57
484.408	3.48
484.761	3.55
485.114	3.37
485.466	3.39
485.819	3.3
486.172	3.33
486.525	3.29
486.878	3.29
487.23	3.39
487.583	3.46
487.936	3.42
488.288	3.5
488.641	3.52
488.993	3.38
489.345	3.45
489.698	3.38
490.05	3.41
490.402	3.4
490.754	3.41
491.107	3.39
491.459	3.46
491.811	3.51
492.163	3.54
492.515	3.54
492.866	3.49
493.218	3.55
493.57	3.6
493.922	3.41
494.274	3.47
494.625	3.43
494.977	3.57
495.328	3.63
495.68	3.67
496.031	3.66
496.383	3.83
496.734	3.71
497.086	3.59
497.437	3.7
497.788	3.77
498.139	3.71
498.49	3.81
498.842	3.55
499.193	3.63
499.544	3.68
499.894	3.6
500.245	3.67
500.596	3.74
500.947	3.8
501.298	3.78
501.648	3.71
501.999	3.82
502.35	3.87
502.7	3.78
503.051	3.85
503.401	3.87
503.752	3.78
504.102	3.9
504.452	3.67
504.803	3.88
505.153	3.83
505.503	3.91
505.853	4.03
506.203	3.71
506.553	3.91
506.903	3.77
507.253	3.79
507.603	3.94
507.953	4.01
508.303	3.86
508.652	3.68
509.002	3.91
509.352	3.9
509.701	3.95
510.051	3.97
510.4	3.93
510.75	3.86
511.099	3.69
511.449	3.85
511.798	3.88
512.147	3.93
512.496	3.92
512.846	3.82
513.195	3.88
513.544	4.02
513.893	3.9
514.242	3.83
514.591	3.98
514.939	4.01
515.288	3.8
515.637	3.94
515.986	3.97
516.334	4.02
516.683	4.09
517.032	4.13
517.38	4.03
517.729	3.95
518.077	4
518.426	3.92
518.774	4
519.122	3.96
519.47	3.93
519.819	3.96
520.167	3.96
520.515	4.01
520.863	3.95
521.211	3.92
521.559	3.97
521.907	3.97
522.255	3.94
522.602	4.01
522.95	3.99
523.298	4.1
523.645	4.12
523.993	4
524.341	4.13
524.688	4.16
525.036	4.24
525.383	4.21
525.73	4.18
526.078	4.14
526.425	4.07
526.772	4.1
527.119	4.09
527.466	4.04
527.814	4.03
528.161	4
528.508	4.07
528.854	4.07
529.201	4.11
529.548	4.08
529.895	4.03
530.242	3.96
530.588	3.97
530.935	3.9
531.282	3.89
531.628	3.98
531.975	3.94
532.321	3.98
532.667	4.09
533.014	4.16
533.36	4.18
533.706	4.24
534.052	4.23
534.399	4.18
534.745	4.22
535.091	4.14
535.437	4.08
535.783	4.07
536.129	4.15
536.474	4.19
536.82	4.11
537.166	4.26
537.512	4.28
537.857	4.25
538.203	4.39
538.549	4.36
538.894	4.22
539.239	4.26
539.585	4.27
539.93	4.47
540.276	4.26
540.621	4.41
540.966	4.46
541.311	4.48
541.656	4.26
542.001	4.5
542.346	4.45
542.691	4.43
543.036	4.4
543.381	4.34
543.726	4.31
544.071	4.34
544.415	4.3
544.76	4.32
545.105	4.33
545.449	4.36
545.794	4.45
546.138	4.53
546.483	4.53
546.827	4.5
547.171	4.58
547.516	4.68
547.86	4.58
548.204	4.56
548.548	4.66
548.892	4.64
549.236	4.58
549.58	4.59
549.924	4.73
550.268	4.82
550.612	4.7
550.956	4.77
551.3	4.83
551.643	4.81
551.987	4.85
552.33	4.91
552.674	4.8
553.017	4.73
553.361	4.85
553.704	4.88
554.048	4.93
554.391	5.06
554.734	4.94
555.077	4.96
555.42	4.89
555.764	4.88
556.107	5.01
556.45	4.94
556.793	4.99
557.135	5.07
557.478	5.11
557.821	5.11
558.164	5.15
558.507	5.34
558.849	4.95
559.192	5.45
559.534	5.4
559.877	5.15
560.219	5.14
560.562	5.22
560.904	5.32
561.246	5.32
561.589	5.33
561.931	5.16
562.273	5.11
562.615	5.27
562.957	5.23
563.299	5.45
563.641	5.42
563.983	5.49
564.325	5.21
564.667	5.4
565.008	5.37
565.35	5.33
565.692	5.4
566.033	5.47
566.375	5.51
566.716	5.36
567.058	5.48
567.399	5.5
567.741	5.49
568.082	5.47
568.423	5.51
568.764	5.65
569.105	5.27
569.447	5.48
569.788	5.45
570.129	5.72
570.47	5.75
570.811	5.67
571.151	5.66
571.492	5.78
571.833	5.62
572.174	5.6
572.514	5.67
572.855	5.72
573.195	5.65
573.536	5.82
573.876	5.75
574.217	5.64
574.557	5.79
574.898	5.87
575.238	5.78
575.578	5.83
575.918	5.77
576.258	5.77
576.598	5.89
576.938	5.94
577.278	5.94
577.618	5.87
577.958	6.02
578.298	6.18
578.638	5.86
578.977	6.12
579.317	6.22
579.657	6.07
579.996	6.05
580.336	6.17
580.675	6.12
581.014	6.06
581.354	6.18
581.693	6.34
582.032	6.24
582.372	6.39
582.711	6.17
583.05	6.49
583.389	6.37
583.728	6.56
584.067	6.21
584.406	6.43
584.745	6.31
585.083	6.66
585.422	6.38
585.761	6.27
586.1	6.46
586.438	6.55
586.777	6.45
587.115	6.47
587.454	6.33
587.792	6.62
588.13	6.83
588.469	6.67
588.807	6.75
589.145	6.71
589.483	6.74
589.821	6.58
590.159	6.78
590.497	6.87
590.835	6.93
591.173	6.71
591.511	6.91
591.849	7.04
592.187	6.84
592.524	7
592.862	7.22
593.2	6.67
593.537	6.88
593.875	7.06
594.212	7.01
594.55	7.43
594.887	6.94
595.224	7.27
595.561	7.16
595.899	7.2
596.236	7.47
596.573	7.18
596.91	7.18
597.247	7.02
597.584	7.36
597.921	7.55
598.258	7.35
598.594	7.33
598.931	7.17
599.268	7.13
599.604	7.53
599.941	7.33
600.277	7.27
600.614	7.42
600.95	7.5
601.287	7.41
601.623	7.45
601.959	7.74
602.296	7.56
602.632	7.47
602.968	7.71
603.304	7.66
603.64	7.67
603.976	7.91
604.312	7.89
604.648	7.82
604.984	7.74
605.319	7.54
605.655	7.72
605.991	7.84
606.326	7.9
606.662	7.73
606.998	7.79
607.333	7.78
607.668	7.7
608.004	8.02
608.339	7.82
608.674	7.95
609.01	7.98
609.345	8.01
609.68	8.42
610.015	8.01
610.35	8.31
610.685	8.47
611.02	8.04
611.355	8.38
611.689	8.02
612.024	8.2
612.359	8.17
612.694	8.2
613.028	8.35
613.363	8.27
613.697	8.44
614.032	8.32
614.366	8.42
614.7	8.45
615.035	8.53
615.369	8.63
615.703	8.75
616.037	8.77
616.371	8.73
616.705	9.21
617.039	8.86
617.373	8.95
617.707	8.9
618.041	8.8
618.375	8.63
618.709	9.07
619.042	9.01
619.376	9.12
619.71	9.09
620.043	8.81
620.377	8.71
620.71	8.85
621.043	9.12
621.377	8.97
621.71	9.24
622.043	9.29
622.376	9.67
622.709	9.6
623.043	9.16
623.376	9.43
623.709	9.72
624.041	9.61
624.374	9.38
624.707	9.69
625.04	9.64
625.373	8.99
625.705	9.37
626.038	9.45
626.37	9.51
626.703	9.38
627.035	9.52
627.368	9.68
627.7	9.98
628.032	9.9
628.365	9.61
628.697	9.7
629.029	9.73
629.361	9.63
629.693	9.9
630.025	9.65
630.357	9.67
630.689	9.61
631.021	9.72
631.353	9.79
631.684	9.77
632.016	10.08
632.348	10.06
632.679	10.1
633.011	9.75
633.342	10.25
633.674	10.36
634.005	10.25
634.336	10.37
634.668	10.34
634.999	10.22
635.33	10.3
635.661	10.42
635.992	10.42
636.323	10.51
636.654	10.06
636.985	10.22
637.316	10.39
637.647	10.46
637.977	10.32
638.308	10.87
638.639	10.61
638.969	10.79
639.3	10.35
639.63	11.16
639.961	10.76
640.291	10.55
640.622	11.31
640.952	11.01
641.282	10.84
641.612	10.72
641.943	11.05
642.273	10.56
642.603	10.89
642.933	10.69
643.263	10.73
643.592	11.32
643.922	11.34
644.252	10.98
644.582	11.7
644.911	11.1
645.241	11.16
645.571	11.15
645.9	10.94
646.23	11.59
646.559	10.85
646.888	11.84
647.218	11.01
647.547	11.24
647.876	11.07
648.205	11.39
648.534	11.64
648.863	11.76
649.192	11.39
649.521	12.09
649.85	11.53
650.179	11.78
650.508	11.43
650.837	11.87
651.165	11.95
651.494	11.87
651.822	12.15
652.151	12.21
652.479	12.12
652.808	11.79
653.136	12.48
653.465	12.27
653.793	11.86
654.121	12.31
654.449	11.84
654.777	12.24
655.105	12.47
655.433	12.14
655.761	12.68
656.089	12.36
656.417	12.31
656.745	12.36
657.073	12.59
657.4	13.19
657.728	12.52
658.056	12.38
658.383	12.93
658.711	12.19
659.038	12.76
659.365	12.73
659.693	12.29
660.02	12.78
660.347	13.02
660.674	12.29
661.001	12.51
661.329	13.06
661.656	12.88
661.982	13.16
662.309	13.13
662.636	12.81
662.963	12.58
663.29	13.29
663.616	13.33
663.943	13.33
664.27	13.16
664.596	12.92
664.923	13.2
665.249	13.48
665.576	13.17
665.902	13.03
666.228	13.32
666.554	13.02
666.881	13.48
667.207	13.55
667.533	13.76
667.859	13.55
668.185	13.56
668.511	13.9
668.837	13.48
669.162	13.8
669.488	13.65
669.814	13.53
670.139	13.7
670.465	14.34
670.791	13.61
671.116	13.85
671.442	14.21
671.767	13.66
672.092	14.36
672.418	14.45
672.743	13.81
673.068	14.7
673.393	13.88
673.718	14.43
674.043	14.69
674.368	14.3
674.693	14.06
675.018	14.57
675.343	14.29
675.667	14.86
675.992	14.8
676.317	14.85
676.641	14.74
676.966	14.82
677.29	14.43
677.615	14.97
677.939	15.1
678.264	14.15
678.588	15.56
678.912	15.16
679.236	15.37
679.56	14.38
679.885	14.94
680.209	15.44
680.532	14.96
680.856	14.8
681.18	15.18
681.504	15.21
681.828	14.93
682.152	14.86
682.475	15.25
682.799	15.06
683.122	15.11
683.446	14.97
683.769	15.34
684.093	15.36
684.416	15.37
684.739	15.49
685.062	15.52
685.386	15.88
685.709	15.67
686.032	15.37
686.355	15.82
686.678	16.01
687.001	15.37
687.324	16.33
687.646	15.93
687.969	17.07
688.292	15.52
688.614	15.71
688.937	15.53
