Data from 0158_forehead_Reflection__0__76.txt Node

Date: Fri Sep 22 20:54:46 CDT 2023
User: ToomeyLab
Spectrometer: FLMS14357
Trigger mode: 0
Integration Time (sec): 1.000000E-2
Scans to average: 100
Electric dark correction enabled: true
Nonlinearity correction enabled: false
Boxcar width: 0
XAxis mode: Wavelengths
Number of Pixels in Spectrum: 2048
>>>>>Begin Spectral Data<<<<<
189.047	7.53
189.435	7.53
189.823	7.53
190.211	-83.37
190.599	-38.39
190.987	13.78
191.375	126.98
191.763	-9.73
192.151	146.12
192.538	2269.5
192.926	172.8
193.314	144.64
193.702	462.16
194.089	73.3
194.477	150.88
194.864	42.62
195.252	-207.86
195.639	61.52
196.027	160.96
196.414	-93.56
196.801	-4171.1
197.189	-12.8
197.576	653.61
197.963	150.39
198.351	17.99
198.738	40.24
199.125	29.93
199.512	33.75
199.899	62.71
200.286	-2.37
200.673	33.28
201.06	39.14
201.447	36.97
201.833	22.28
202.22	55.25
202.607	23.47
202.994	41.78
203.38	26.23
203.767	6.48
204.154	54.6
204.54	55.52
204.927	31.6
205.313	13.72
205.699	67.66
206.086	58.78
206.472	46.46
206.858	39.99
207.245	14.64
207.631	23.9
208.017	12.33
208.403	24.42
208.789	42.86
209.175	45.73
209.561	25.49
209.947	45.18
210.333	37.75
210.719	16.97
211.105	44.16
211.491	38.62
211.876	30.88
212.262	18.66
212.648	47.81
213.034	27.14
213.419	27.73
213.805	21.1
214.19	26.47
214.576	36.25
214.961	42.93
215.346	17.97
215.732	22.69
216.117	26.37
216.502	45.25
216.888	14.82
217.273	36.91
217.658	11.85
218.043	26.61
218.428	28.56
218.813	8.33
219.198	14.32
219.583	16.22
219.968	1.97
220.353	41.9
220.738	13.28
221.122	3.04
221.507	13.26
221.892	16.38
222.276	16.1
222.661	-19.71
223.046	23.43
223.43	20.31
223.815	8.85
224.199	7.89
224.583	7.21
224.968	14.64
225.352	0.95
225.736	18.68
226.121	17.08
226.505	10.67
226.889	7.78
227.273	9.38
227.657	7.54
228.041	1.06
228.425	3.92
228.809	2.56
229.193	2.31
229.577	5.65
229.961	3.14
230.344	3.35
230.728	0.46
231.112	2.42
231.495	1.46
231.879	1.87
232.263	1.47
232.646	1.31
233.03	1.97
233.413	1.99
233.797	1.81
234.18	0.62
234.563	2.19
234.946	5.91
235.33	0.97
235.713	0.92
236.096	1.91
236.479	0.87
236.862	3.93
237.245	3.52
237.628	2.98
238.011	2.81
238.394	3.11
238.777	4.7
239.16	3.89
239.543	3.99
239.925	2.11
240.308	2.46
240.691	2.57
241.073	2.97
241.456	4.71
241.838	0.49
242.221	1.46
242.603	2.87
242.986	2.16
243.368	1.13
243.75	2.43
244.133	2.29
244.515	1.78
244.897	1.21
245.279	1.52
245.661	1.52
246.043	2.34
246.425	0.7
246.807	1.2
247.189	0.32
247.571	2.16
247.953	1.94
248.335	2
248.717	1.72
249.098	1.49
249.48	1.19
249.862	1.24
250.243	1.36
250.625	1.61
251.006	1.55
251.388	1.62
251.769	2.47
252.151	1.75
252.532	1.46
252.913	1.44
253.295	2.98
253.676	1.61
254.057	1.47
254.438	2.11
254.819	1.16
255.2	1.76
255.581	1.57
255.962	2
256.343	1.84
256.724	2.08
257.105	2.28
257.486	1.25
257.867	2.13
258.247	2.72
258.628	1.73
259.009	1.92
259.389	1.71
259.77	2.12
260.15	2.93
260.531	1.38
260.911	1.91
261.292	1.55
261.672	1.4
262.052	1.71
262.432	1.57
262.813	1.71
263.193	1.37
263.573	2.31
263.953	1.4
264.333	1.86
264.713	1.22
265.093	1.16
265.473	2.16
265.853	1.23
266.233	1.96
266.612	1.98
266.992	2.59
267.372	1.96
267.752	2.15
268.131	1.89
268.511	1.49
268.89	1.84
269.27	1.34
269.649	1.96
270.029	1.58
270.408	2.04
270.787	1.76
271.167	1.97
271.546	1.8
271.925	1.57
272.304	1.29
272.683	2.21
273.062	2
273.441	1.77
273.82	2.25
274.199	1.87
274.578	1.48
274.957	1.41
275.336	1.41
275.715	1.5
276.093	0.72
276.472	1.72
276.851	1.52
277.229	1
277.608	2.08
277.986	1.48
278.365	1.62
278.743	1.47
279.122	1.6
279.5	2.04
279.878	1.1
280.257	2.52
280.635	1.7
281.013	2.05
281.391	1.79
281.769	1.74
282.147	1.78
282.525	1.66
282.903	2.11
283.281	1.7
283.659	1.98
284.037	1.29
284.415	1.95
284.792	1.37
285.17	1.35
285.548	1.73
285.925	1.67
286.303	1.72
286.68	1.44
287.058	1.56
287.435	1.49
287.813	1.47
288.19	1
288.567	1.81
288.945	1.48
289.322	1.51
289.699	1.6
290.076	1.79
290.453	1.39
290.83	1.44
291.207	1.77
291.584	1.32
291.961	1.46
292.338	1.64
292.715	1.92
293.092	1.49
293.469	1.86
293.845	1.55
294.222	1.91
294.599	1.52
294.975	2.05
295.352	2.01
295.728	2.18
296.105	1.56
296.481	1.61
296.858	1.65
297.234	1.62
297.61	1.82
297.986	1.69
298.363	2.01
298.739	1.62
299.115	1.79
299.491	1.77
299.867	1.66
300.243	1.46
300.619	1.79
300.995	1.96
301.371	1.99
301.746	2
302.122	1.66
302.498	1.31
302.874	1.68
303.249	1.73
303.625	1.6
304	2.2
304.376	2.26
304.751	1.94
305.127	1.87
305.502	2.23
305.878	2.07
306.253	2.27
306.628	1.9
307.003	2.32
307.378	1.77
307.754	1.96
308.129	2.23
308.504	1.64
308.879	1.77
309.254	1.82
309.629	1.82
310.003	2.3
310.378	2.89
310.753	2.32
311.128	1.99
311.502	2.08
311.877	1.59
312.252	1.89
312.626	2.25
313.001	2.14
313.375	2.08
313.75	2.38
314.124	2.76
314.498	1.93
314.873	2.52
315.247	2.29
315.621	2.1
315.995	2.65
316.369	2.38
316.743	2.48
317.117	2.44
317.491	2.63
317.865	2.18
318.239	2.64
318.613	2.68
318.987	2.8
319.361	2.34
319.734	2.29
320.108	2.65
320.482	2.01
320.855	2.47
321.229	2.87
321.602	2.48
321.976	2.8
322.349	2.78
322.723	2.91
323.096	2.76
323.469	2.64
323.843	3
324.216	3.05
324.589	3.16
324.962	2.83
325.335	3
325.708	2.66
326.081	3.18
326.454	2.33
326.827	2.84
327.2	2.84
327.573	2.77
327.945	2.48
328.318	2.87
328.691	2.94
329.063	2.74
329.436	2.88
329.809	2.87
330.181	2.49
330.553	2.37
330.926	3.1
331.298	2.88
331.671	3.1
332.043	2.51
332.415	2.96
332.787	2.92
333.159	2.66
333.532	2.59
333.904	3.4
334.276	3.57
334.648	2.79
335.02	2.97
335.391	3.13
335.763	3.52
336.135	3.19
336.507	2.87
336.879	2.82
337.25	3.16
337.622	3.68
337.993	3.46
338.365	3.22
338.736	3.4
339.108	3.02
339.479	2.82
339.851	3.1
340.222	3.17
340.593	3.08
340.964	2.89
341.336	3.13
341.707	3.29
342.078	3.15
342.449	3.45
342.82	3.34
343.191	3.12
343.562	3.11
343.933	3.49
344.303	3.4
344.674	3.74
345.045	3.16
345.416	3.97
345.786	3.15
346.157	3.21
346.527	3.15
346.898	3.41
347.268	3.28
347.639	3.17
348.009	3.12
348.38	3.52
348.75	3.81
349.12	3.17
349.49	3.58
349.861	3.26
350.231	3.45
350.601	3.47
350.971	3.59
351.341	3.21
351.711	3.46
352.081	3.3
352.45	3.4
352.82	3.79
353.19	3.73
353.56	3.34
353.929	3.75
354.299	3.48
354.669	3.21
355.038	3.52
355.408	3.43
355.777	3.87
356.147	3.75
356.516	3.99
356.885	3.32
357.254	3.84
357.624	3.78
357.993	3.82
358.362	3.79
358.731	3.35
359.1	3.46
359.469	3.67
359.838	3.2
360.207	3.42
360.576	3.77
360.945	3.62
361.314	3.67
361.682	3.63
362.051	3.76
362.42	3.76
362.788	3.51
363.157	3.83
363.525	3.68
363.894	3.44
364.262	3.86
364.631	3.62
364.999	3.67
365.367	3.92
365.735	3.83
366.104	3.68
366.472	3.93
366.84	3.79
367.208	4.08
367.576	3.82
367.944	3.97
368.312	4.03
368.68	3.91
369.048	4.08
369.416	4.04
369.783	3.71
370.151	3.85
370.519	4.12
370.886	3.8
371.254	4.18
371.621	3.82
371.989	3.97
372.356	4.12
372.724	4.38
373.091	4.22
373.458	4.3
373.826	4.06
374.193	4.56
374.56	4.14
374.927	4.19
375.294	4.21
375.661	4.1
376.028	4.23
376.395	4.22
376.762	4.26
377.129	4.06
377.496	4.55
377.863	4.44
378.229	4.18
378.596	4.05
378.963	4.58
379.329	4.46
379.696	4.47
380.062	4.21
380.429	4.27
380.795	4.4
381.161	4.16
381.528	4.31
381.894	3.99
382.26	4.72
382.626	4.32
382.993	4.58
383.359	4.29
383.725	4.45
384.091	4.54
384.457	4.47
384.823	4.67
385.188	4.66
385.554	4.51
385.92	4.68
386.286	4.61
386.651	4.56
387.017	4.85
387.383	4.45
387.748	4.29
388.114	4.48
388.479	4.42
388.845	4.15
389.21	4.33
389.575	5.02
389.94	4.21
390.306	4.77
390.671	5.12
391.036	4.57
391.401	4.76
391.766	4.71
392.131	4.67
392.496	4.81
392.861	4.61
393.226	5.17
393.591	4.98
393.956	4.71
394.32	4.78
394.685	4.71
395.05	5.12
395.414	4.82
395.779	4.96
396.143	4.92
396.508	4.85
396.872	4.94
397.236	4.79
397.601	4.69
397.965	5.01
398.329	4.86
398.694	4.97
399.058	5.01
399.422	4.9
399.786	5.12
400.15	5.01
400.514	5.16
400.878	5.05
401.242	5.28
401.605	4.96
401.969	4.66
402.333	5.12
402.697	4.96
403.06	5.24
403.424	5.19
403.787	5.34
404.151	5.19
404.514	5.24
404.878	5.26
405.241	5.46
405.604	5.3
405.968	5.42
406.331	5.43
406.694	5.23
407.057	5.09
407.42	5.34
407.783	5.2
408.146	5.31
408.509	5.1
408.872	5.27
409.235	5.42
409.598	4.99
409.961	5.45
410.323	5.37
410.686	5.48
411.049	5.58
411.411	5.88
411.774	5.43
412.136	5.41
412.499	5.37
412.861	5.48
413.223	5.64
413.586	5.56
413.948	5.37
414.31	5.4
414.672	5.45
415.035	5.63
415.397	5.73
415.759	6.08
416.121	5.65
416.483	5.69
416.845	5.45
417.206	5.48
417.568	5.49
417.93	5.77
418.292	5.64
418.653	5.58
419.015	5.79
419.377	5.59
419.738	5.63
420.1	5.5
420.461	5.69
420.822	5.49
421.184	5.65
421.545	5.6
421.906	5.61
422.267	5.61
422.629	5.66
422.99	5.58
423.351	5.58
423.712	5.58
424.073	5.64
424.434	5.75
424.795	5.77
425.155	5.72
425.516	5.71
425.877	5.79
426.238	5.63
426.598	5.64
426.959	5.75
427.32	5.87
427.68	5.83
428.041	5.87
428.401	5.96
428.761	6.02
429.122	6.03
429.482	5.98
429.842	6
430.202	5.9
430.563	6.06
430.923	6.34
431.283	6.24
431.643	6.27
432.003	6.29
432.363	6.26
432.722	6.28
433.082	6.33
433.442	6.25
433.802	6.32
434.161	6.34
434.521	6.33
434.881	6.31
435.24	6.17
435.6	6.07
435.959	6.12
436.319	6.28
436.678	6.37
437.037	6.41
437.396	6.42
437.756	6.44
438.115	6.56
438.474	6.43
438.833	6.62
439.192	6.52
439.551	6.44
439.91	6.62
440.269	6.54
440.628	6.3
440.987	6.46
441.345	6.53
441.704	6.66
442.063	6.43
442.421	6.5
442.78	6.57
443.138	6.6
443.497	6.49
443.855	6.58
444.214	6.42
444.572	6.77
444.93	6.73
445.288	6.75
445.647	6.7
446.005	6.75
446.363	6.64
446.721	6.7
447.079	6.65
447.437	6.81
447.795	6.7
448.153	6.64
448.51	6.64
448.868	6.62
449.226	6.67
449.584	6.71
449.941	6.79
450.299	6.88
450.656	6.85
451.014	7
451.371	6.9
451.729	7.08
452.086	6.93
452.443	7.15
452.801	7.07
453.158	7.02
453.515	7.26
453.872	7.19
454.229	6.98
454.586	7.09
454.943	7.02
455.3	7.12
455.657	7.12
456.014	7.21
456.371	7.29
456.727	7.39
457.084	7.3
457.441	7.35
457.797	7.37
458.154	7.25
458.51	7.4
458.867	7.39
459.223	7.56
459.58	7.45
459.936	7.42
460.292	7.47
460.648	7.53
461.005	7.35
461.361	7.32
461.717	7.09
462.073	7.24
462.429	7.15
462.785	7.33
463.141	7.32
463.496	7.61
463.852	7.78
464.208	7.64
464.564	7.7
464.919	7.69
465.275	7.74
465.631	8.01
465.986	7.86
466.342	7.78
466.697	7.85
467.052	7.66
467.408	7.84
467.763	7.81
468.118	7.99
468.473	7.9
468.829	7.8
469.184	7.88
469.539	7.92
469.894	7.94
470.249	7.99
470.603	7.76
470.958	7.85
471.313	7.98
471.668	7.96
472.023	8.14
472.377	8.1
472.732	8.04
473.086	8.16
473.441	7.96
473.795	8.42
474.15	8.06
474.504	8.17
474.859	8.35
475.213	8
475.567	8.02
475.921	8.28
476.275	8.22
476.63	8.27
476.984	8.27
477.338	8.4
477.692	8.35
478.045	8.4
478.399	8.41
478.753	8.23
479.107	8.41
479.461	8.38
479.814	8.36
480.168	8.54
480.521	8.51
480.875	8.54
481.228	8.4
481.582	8.33
481.935	8.45
482.289	8.47
482.642	8.42
482.995	8.42
483.348	8.48
483.701	8.49
484.055	8.33
484.408	8.36
484.761	8.37
485.114	8.22
485.466	8.14
485.819	7.92
486.172	7.82
486.525	7.85
486.878	8.05
487.23	8.15
487.583	8.29
487.936	8.39
488.288	8.42
488.641	8.46
488.993	8.37
489.345	8.29
489.698	8.25
490.05	8.26
490.402	8.3
490.754	8.34
491.107	8.41
491.459	8.58
491.811	8.7
492.163	8.69
492.515	8.79
492.866	8.81
493.218	8.64
493.57	8.64
493.922	8.38
494.274	8.45
494.625	8.63
494.977	8.83
495.328	8.94
495.68	9.11
496.031	9.01
496.383	9.29
496.734	9.29
497.086	9.17
497.437	9.21
497.788	9.33
498.139	9.25
498.49	9.31
498.842	9.07
499.193	9.18
499.544	9.25
499.894	9.26
500.245	9.33
500.596	9.3
500.947	9.38
501.298	9.48
501.648	9.51
501.999	9.51
502.35	9.52
502.7	9.73
503.051	9.72
503.401	9.6
503.752	9.65
504.102	9.67
504.452	9.77
504.803	9.71
505.153	9.68
505.503	9.73
505.853	9.77
506.203	9.65
506.553	9.85
506.903	9.82
507.253	9.81
507.603	9.83
507.953	9.8
508.303	9.98
508.652	9.83
509.002	9.89
509.352	9.77
509.701	9.97
510.051	9.83
510.4	9.9
510.75	9.8
511.099	9.78
511.449	9.95
511.798	9.96
512.147	9.94
512.496	9.92
512.846	9.82
513.195	9.99
513.544	10.13
513.893	10.1
514.242	9.99
514.591	10.07
514.939	10.13
515.288	10.12
515.637	10.11
515.986	10.2
516.334	10.24
516.683	10.22
517.032	10.47
517.38	10.35
517.729	10.39
518.077	10.34
518.426	10.38
518.774	10.4
519.122	10.37
519.47	10.29
519.819	10.19
520.167	10.32
520.515	10.21
520.863	10.11
521.211	10.06
521.559	10.24
521.907	10.36
522.255	10.52
522.602	10.54
522.95	10.53
523.298	10.47
523.645	10.66
523.993	10.51
524.341	10.6
524.688	10.68
525.036	10.67
525.383	10.75
525.73	10.76
526.078	10.7
526.425	10.67
526.772	10.82
527.119	10.55
527.466	10.49
527.814	10.38
528.161	10.28
528.508	10.4
528.854	10.55
529.201	10.66
529.548	10.58
529.895	10.57
530.242	10.35
530.588	10.19
530.935	10.03
531.282	10.05
531.628	10.31
531.975	10.44
532.321	10.53
532.667	10.7
533.014	10.75
533.36	10.94
533.706	10.85
534.052	10.91
534.399	10.89
534.745	10.84
535.091	10.71
535.437	10.63
535.783	10.52
536.129	10.72
536.474	10.85
536.82	10.89
537.166	11.16
537.512	11.12
537.857	11.08
538.203	11.21
538.549	11.01
538.894	10.93
539.239	10.97
539.585	11.1
539.93	11.28
540.276	11.37
540.621	11.39
540.966	11.4
541.311	11.62
541.656	11.41
542.001	11.63
542.346	11.44
542.691	11.37
543.036	11.19
543.381	10.98
543.726	10.91
544.071	10.99
544.415	11.07
544.76	11.22
545.105	11.3
545.449	11.25
545.794	11.36
546.138	11.28
546.483	11.56
546.827	11.59
547.171	11.72
547.516	11.86
547.86	11.72
548.204	11.82
548.548	11.68
548.892	11.79
549.236	11.63
549.58	11.77
549.924	11.87
550.268	12.08
550.612	11.87
550.956	12.05
551.3	12.21
551.643	12.19
551.987	12.16
552.33	12.34
552.674	12.28
553.017	12.25
553.361	12.23
553.704	12.34
554.048	12.44
554.391	12.4
554.734	12.34
555.077	12.23
555.42	12.19
555.764	12.23
556.107	12.4
556.45	12.21
556.793	12.41
557.135	12.57
557.478	12.3
557.821	12.41
558.164	12.47
558.507	12.8
558.849	12.56
559.192	12.8
559.534	12.95
559.877	12.71
560.219	12.5
560.562	12.84
560.904	12.8
561.246	12.84
561.589	12.9
561.931	12.64
562.273	12.73
562.615	12.66
562.957	12.81
563.299	12.95
563.641	12.88
563.983	12.84
564.325	13.03
564.667	12.86
565.008	12.93
565.35	13.05
565.692	13.01
566.033	13.07
566.375	13.07
566.716	12.88
567.058	12.92
567.399	13.01
567.741	13.12
568.082	12.93
568.423	13.05
568.764	13.05
569.105	12.77
569.447	12.96
569.788	13.17
570.129	13.18
570.47	13.42
570.811	13.11
571.151	13.18
571.492	13.15
571.833	13.07
572.174	13.2
572.514	13.25
572.855	13.27
573.195	13.14
573.536	13.26
573.876	13.16
574.217	13.3
574.557	13.19
574.898	13.44
575.238	13.24
575.578	13.34
575.918	13.42
576.258	13.25
576.598	13.33
576.938	13.38
577.278	13.48
577.618	13.34
577.958	13.47
578.298	13.61
578.638	13.58
578.977	13.59
579.317	13.6
579.657	13.56
579.996	13.75
580.336	13.86
580.675	13.86
581.014	13.48
581.354	13.72
581.693	13.99
582.032	14.02
582.372	14.18
582.711	14.01
583.05	14.17
583.389	14.15
583.728	13.85
584.067	13.81
584.406	14.07
584.745	13.86
585.083	14.35
585.422	14.11
585.761	14.16
586.1	14.39
586.438	14.02
586.777	14.23
587.115	14.41
587.454	14.1
587.792	14.53
588.13	14.18
588.469	14.26
588.807	14.44
589.145	14.4
589.483	14.57
589.821	14.31
590.159	14.28
590.497	14.84
590.835	14.49
591.173	14.32
591.511	14.35
591.849	14.38
592.187	14.42
592.524	14.53
592.862	14.46
593.2	14.22
593.537	14.2
593.875	14.59
594.212	14.53
594.55	14.82
594.887	14.6
595.224	14.81
595.561	14.62
595.899	14.91
596.236	14.92
596.573	14.77
596.91	14.68
597.247	14.64
597.584	14.82
597.921	14.78
598.258	14.79
598.594	14.69
598.931	14.67
599.268	14.54
599.604	14.55
599.941	14.66
600.277	14.64
600.614	14.85
600.95	14.93
601.287	14.92
601.623	15.03
601.959	15.02
602.296	14.96
602.632	14.77
602.968	14.92
603.304	14.95
603.64	14.91
603.976	15.26
604.312	15.09
604.648	15.1
604.984	15.23
605.319	14.85
605.655	14.76
605.991	14.95
606.326	15.17
606.662	14.84
606.998	14.84
607.333	15.04
607.668	15
608.004	15.3
608.339	15.1
608.674	15.16
609.01	15.41
609.345	15.27
609.68	15.49
610.015	15.44
610.35	15.35
610.685	15.79
611.02	15.22
611.355	15.38
611.689	15.17
612.024	15.33
612.359	15.42
612.694	15.25
613.028	15.38
613.363	15.48
613.697	15.43
614.032	15.67
614.366	15.35
614.7	15.58
615.035	15.67
615.369	15.63
615.703	15.77
616.037	15.71
616.371	15.63
616.705	15.93
617.039	15.86
617.373	15.96
617.707	15.75
618.041	16.26
618.375	15.86
618.709	15.68
619.042	16.18
619.376	16.34
619.71	16.1
620.043	15.96
620.377	15.66
620.71	16.26
621.043	16.22
621.377	16.01
621.71	15.97
622.043	16.31
622.376	16.37
622.709	16.39
623.043	15.68
623.376	16.14
623.709	16.3
624.041	16.23
624.374	16.18
624.707	16.64
625.04	16.46
625.373	15.65
625.705	16.36
626.038	16.2
626.37	16.63
626.703	16.37
627.035	16.42
627.368	16.14
627.7	16.47
628.032	16.5
628.365	16.48
628.697	16.44
629.029	16.39
629.361	16.31
629.693	16.28
630.025	16.2
630.357	16.39
630.689	16.16
631.021	16.31
631.353	16.59
631.684	16.39
632.016	16.4
632.348	16.58
632.679	16.47
633.011	16.54
633.342	16.8
633.674	16.76
634.005	16.5
634.336	16.66
634.668	16.7
634.999	16.97
635.33	17
635.661	16.92
635.992	16.77
636.323	16.52
636.654	16.63
636.985	16.52
637.316	16.78
637.647	16.82
637.977	16.53
638.308	17.12
638.639	16.54
638.969	17.28
639.3	16.93
639.63	17.18
639.961	16.99
640.291	17.25
640.622	17.13
640.952	17.19
641.282	17.14
641.612	17.03
641.943	17.24
642.273	17.38
642.603	17.28
642.933	17.39
643.263	17.04
643.592	17.32
643.922	17.71
644.252	16.88
644.582	17.61
644.911	17.33
645.241	17.69
645.571	17.19
645.9	17.41
646.23	17.32
646.559	17.65
646.888	17.89
647.218	17.2
647.547	17.19
647.876	16.91
648.205	17.45
648.534	17.35
648.863	17.17
649.192	17.29
649.521	17.32
649.85	17.54
650.179	17.46
650.508	17.46
650.837	17.25
651.165	17.64
651.494	17.33
651.822	17.59
652.151	17.31
652.479	17.85
652.808	17.21
653.136	17.76
653.465	17.57
653.793	17.27
654.121	17.8
654.449	17.33
654.777	18.08
655.105	17.74
655.433	17.61
655.761	17.89
656.089	17.97
656.417	18.34
656.745	17.82
657.073	17.83
657.4	18.48
657.728	18.26
658.056	17.65
658.383	18.02
658.711	17.78
659.038	17.71
659.365	18.26
659.693	17.75
660.02	18.33
660.347	17.89
660.674	17.68
661.001	17.94
661.329	17.88
661.656	17.94
661.982	17.71
662.309	18.07
662.636	18.16
662.963	18.28
663.29	18.33
663.616	18.14
663.943	18.46
664.27	18.03
664.596	18.06
664.923	17.97
665.249	18.2
665.576	18.04
665.902	18.57
666.228	18.39
666.554	18.02
666.881	18.79
667.207	19.1
667.533	18.4
667.859	19.09
668.185	18.83
668.511	19.26
668.837	18.49
669.162	18.31
669.488	18.65
669.814	18.47
670.139	18.21
670.465	19.02
670.791	18.92
671.116	18.72
671.442	18.87
671.767	18.04
672.092	18.79
672.418	20.04
672.743	18.8
673.068	19.14
673.393	18.47
673.718	19.13
674.043	19.01
674.368	18.81
674.693	19
675.018	18.83
675.343	18.92
675.667	19.23
675.992	18.24
676.317	19.16
676.641	18.99
676.966	19.75
677.29	18.52
677.615	19.62
677.939	19.14
678.264	18.94
678.588	19.54
678.912	18.67
679.236	18.75
679.56	19.2
679.885	18.51
680.209	19.31
680.532	18.4
680.856	18.87
681.18	18.86
