Data from 0158_forehead_Reflection__2__78.txt Node

Date: Fri Sep 22 20:55:07 CDT 2023
User: ToomeyLab
Spectrometer: FLMS14357
Trigger mode: 0
Integration Time (sec): 1.000000E-2
Scans to average: 100
Electric dark correction enabled: true
Nonlinearity correction enabled: false
Boxcar width: 0
XAxis mode: Wavelengths
Number of Pixels in Spectrum: 2048
>>>>>Begin Spectral Data<<<<<
189.047	16.19
189.435	16.19
189.823	16.19
190.211	456.11
190.599	-23.58
190.987	76.77
191.375	-86.77
191.763	107.2
192.151	107.29
192.538	-502.13
192.926	188.45
193.314	23.49
193.702	316.03
194.089	11.85
194.477	190.01
194.864	12.58
195.252	83.94
195.639	98.34
196.027	163
196.414	-22.79
196.801	-224.28
197.189	-104.75
197.576	612.86
197.963	154.22
198.351	33.75
198.738	38.08
199.125	41.94
199.512	54.49
199.899	57.06
200.286	27.17
200.673	11.85
201.06	67
201.447	64.66
201.833	8.28
202.22	49.33
202.607	40.83
202.994	66.16
203.38	58.83
203.767	36.41
204.154	34.45
204.54	24.14
204.927	23.88
205.313	8.3
205.699	61.03
206.086	45.55
206.472	49.65
206.858	85.94
207.245	-11.18
207.631	49.26
208.017	25.41
208.403	16.73
208.789	47.61
209.175	51.37
209.561	46.72
209.947	57.72
210.333	24.59
210.719	7.19
211.105	33.63
211.491	14.62
211.876	55.35
212.262	11.96
212.648	40.1
213.034	34.94
213.419	36.11
213.805	19.39
214.19	23.96
214.576	57.4
214.961	16.57
215.346	24.25
215.732	40.77
216.117	30.16
216.502	49.91
216.888	31.02
217.273	43.09
217.658	17.62
218.043	25.34
218.428	26.86
218.813	-1.08
219.198	-1.03
219.583	22.65
219.968	28.82
220.353	25.91
220.738	30.1
221.122	13.42
221.507	9.08
221.892	17.53
222.276	10.39
222.661	-6.66
223.046	17.86
223.43	27.58
223.815	9.52
224.199	11.14
224.583	20.25
224.968	11.17
225.352	8.41
225.736	9.36
226.121	8.91
226.505	7.8
226.889	8.58
227.273	5.93
227.657	2.38
228.041	7.81
228.425	10.77
228.809	6.52
229.193	4.13
229.577	5.83
229.961	4.71
230.344	3.87
230.728	0.77
231.112	2.94
231.495	1.85
231.879	2.17
232.263	1.4
232.646	2.58
233.03	3.39
233.413	2.94
233.797	2.94
234.18	2.4
234.563	5.11
234.946	4.17
235.33	0.89
235.713	0.86
236.096	2.96
236.479	1.24
236.862	4.42
237.245	3.82
237.628	3.87
238.011	5
238.394	1.74
238.777	3.56
239.16	2.15
239.543	4.03
239.925	5.77
240.308	3.7
240.691	3.1
241.073	4.64
241.456	1.92
241.838	3.3
242.221	2.68
242.603	3.01
242.986	1.87
243.368	2.09
243.75	1.84
244.133	2.11
244.515	1.65
244.897	1.42
245.279	1.64
245.661	2
246.043	2.77
246.425	1.74
246.807	3.13
247.189	1.48
247.571	2.53
247.953	2.61
248.335	2.24
248.717	1.73
249.098	2
249.48	1.74
249.862	1.57
250.243	1.7
250.625	2.09
251.006	1.61
251.388	2.27
251.769	2.18
252.151	1.93
252.532	2.66
252.913	3.67
253.295	2.68
253.676	2.38
254.057	2.52
254.438	2.37
254.819	1.91
255.2	2.56
255.581	2.02
255.962	3.02
256.343	1.94
256.724	1.5
257.105	2.8
257.486	2.15
257.867	2.77
258.247	2.25
258.628	2.25
259.009	2.61
259.389	1.44
259.77	2.83
260.15	2.38
260.531	2.42
260.911	2.27
261.292	1.75
261.672	1.53
262.052	1.96
262.432	1.91
262.813	1.9
263.193	1.97
263.573	2.59
263.953	2.1
264.333	2.31
264.713	2.2
265.093	1.83
265.473	2.31
265.853	2.15
266.233	2.81
266.612	1.31
266.992	2.88
267.372	2.7
267.752	2.86
268.131	1.69
268.511	2.11
268.89	2.5
269.27	2.12
269.649	2.02
270.029	2.22
270.408	2.1
270.787	2.03
271.167	1.91
271.546	1.93
271.925	1.59
272.304	1.37
272.683	2.31
273.062	2.55
273.441	1.99
273.82	2.42
274.199	2.1
274.578	2.03
274.957	2.01
275.336	2.28
275.715	2.08
276.093	2.19
276.472	1.89
276.851	1.94
277.229	1.67
277.608	2.12
277.986	1.78
278.365	2.32
278.743	2.56
279.122	2.18
279.5	2.17
279.878	1.97
280.257	2.4
280.635	2.22
281.013	2.18
281.391	2.03
281.769	2.07
282.147	2.74
282.525	2
282.903	2.53
283.281	1.83
283.659	2.27
284.037	1.74
284.415	1.93
284.792	1.95
285.17	1.96
285.548	2.35
285.925	2.38
286.303	1.78
286.68	1.78
287.058	1.81
287.435	1.53
287.813	2.13
288.19	1.28
288.567	2
288.945	1.6
289.322	1.88
289.699	2.1
290.076	2.26
290.453	1.87
290.83	1.79
291.207	1.76
291.584	1.83
291.961	1.82
292.338	2.05
292.715	2.06
293.092	1.74
293.469	1.87
293.845	2.4
294.222	2.37
294.599	2.41
294.975	2.42
295.352	2.49
295.728	2.02
296.105	2.6
296.481	2.13
296.858	2.34
297.234	2.18
297.61	2.11
297.986	2.34
298.363	2.05
298.739	1.86
299.115	2.14
299.491	2.26
299.867	2.16
300.243	1.93
300.619	2.17
300.995	2.03
301.371	2.62
301.746	2.83
302.122	2.81
302.498	2.32
302.874	2.25
303.249	2.18
303.625	2.22
304	2.55
304.376	2.72
304.751	2.99
305.127	2.56
305.502	3.1
305.878	2.47
306.253	2.51
306.628	2.18
307.003	2.69
307.378	2.84
307.754	2.51
308.129	2.2
308.504	2.81
308.879	3.02
309.254	3.15
309.629	3.22
310.003	3.14
310.378	3.1
310.753	3.24
311.128	2.83
311.502	2.61
311.877	2.62
312.252	2.84
312.626	2.64
313.001	3.07
313.375	2.9
313.75	3.15
314.124	3.14
314.498	2.59
314.873	2.9
315.247	3.43
315.621	3.38
315.995	3.21
316.369	2.91
316.743	3.18
317.117	3.63
317.491	3.25
317.865	3.25
318.239	3.62
318.613	3.92
318.987	3.3
319.361	3.78
319.734	3.14
320.108	4.27
320.482	3.29
320.855	3.28
321.229	4.01
321.602	4.23
321.976	3.48
322.349	3.15
322.723	3.81
323.096	4.45
323.469	4.44
323.843	4.19
324.216	3.71
324.589	3.77
324.962	3.99
325.335	3.68
325.708	4.04
326.081	4.49
326.454	3.41
326.827	4.13
327.2	3.64
327.573	4.37
327.945	4.54
328.318	4.44
328.691	3.83
329.063	4.39
329.436	4.4
329.809	4.6
330.181	4.58
330.553	4.18
330.926	4.18
331.298	5.06
331.671	5.13
332.043	4.16
332.415	4.51
332.787	4.68
333.159	4.35
333.532	4.32
333.904	4.62
334.276	4.1
334.648	4.73
335.02	4.35
335.391	4.69
335.763	5.05
336.135	5.32
336.507	4.64
336.879	4.47
337.25	4.86
337.622	5.44
337.993	4.77
338.365	5.29
338.736	5.3
339.108	5.59
339.479	4.96
339.851	4.81
340.222	4.73
340.593	4.71
340.964	5.05
341.336	5.14
341.707	4.85
342.078	5.22
342.449	5.35
342.82	4.66
343.191	5.32
343.562	5.15
343.933	4.98
344.303	5.36
344.674	5.57
345.045	5.07
345.416	5.75
345.786	5.3
346.157	5.38
346.527	5.13
346.898	5.27
347.268	5.53
347.639	5.46
348.009	5.26
348.38	5.62
348.75	6.26
349.12	5.65
349.49	5.87
349.861	5.79
350.231	5.67
350.601	5.63
350.971	6.11
351.341	5.78
351.711	5.68
352.081	5.85
352.45	5.79
352.82	6.16
353.19	6.24
353.56	5.99
353.929	6.09
354.299	5.97
354.669	5.87
355.038	5.95
355.408	6
355.777	6.43
356.147	5.9
356.516	6.39
356.885	6.14
357.254	6.43
357.624	6.14
357.993	6.27
358.362	6.28
358.731	6.14
359.1	6.23
359.469	6.24
359.838	6.22
360.207	6
360.576	6.52
360.945	6.35
361.314	6.64
361.682	6.76
362.051	6.64
362.42	6.46
362.788	6.26
363.157	6.78
363.525	6.45
363.894	6.58
364.262	6.42
364.631	6.56
364.999	6.52
365.367	7.23
365.735	6.6
366.104	6.82
366.472	7.21
366.84	6.78
367.208	7.37
367.576	6.92
367.944	7.19
368.312	6.83
368.68	7.04
369.048	7.28
369.416	7.29
369.783	7.28
370.151	7.25
370.519	7.45
370.886	7.32
371.254	7.6
371.621	7.13
371.989	7.54
372.356	7.43
372.724	7.69
373.091	7.39
373.458	7.65
373.826	7.77
374.193	7.71
374.56	7.99
374.927	7.92
375.294	7.83
375.661	7.68
376.028	7.97
376.395	8.19
376.762	8.01
377.129	8.15
377.496	8.31
377.863	7.92
378.229	7.81
378.596	8.06
378.963	8.46
379.329	8.01
379.696	8.48
380.062	7.86
380.429	8.24
380.795	8.42
381.161	8.24
381.528	8.46
381.894	7.9
382.26	8.36
382.626	8.64
382.993	8.66
383.359	8.37
383.725	8.33
384.091	8.61
384.457	8.56
384.823	8.52
385.188	8.9
385.554	8.78
385.92	9.18
386.286	8.84
386.651	8.71
387.017	8.98
387.383	8.91
387.748	9.01
388.114	9.1
388.479	9.18
388.845	8.73
389.21	8.89
389.575	9.45
389.94	9.18
390.306	9.35
390.671	10.01
391.036	9.1
391.401	9.25
391.766	9.5
392.131	9.4
392.496	9.85
392.861	9.24
393.226	9.62
393.591	9.65
393.956	9.71
394.32	9.6
394.685	9.44
395.05	9.79
395.414	9.75
395.779	9.73
396.143	9.92
396.508	9.89
396.872	9.76
397.236	9.99
397.601	9.87
397.965	10.12
398.329	10.1
398.694	10.02
399.058	10.39
399.422	10.06
399.786	10.34
400.15	10.24
400.514	10.36
400.878	10.19
401.242	10.56
401.605	10.29
401.969	10.32
402.333	10.51
402.697	10.46
403.06	10.34
403.424	10.59
403.787	10.79
404.151	10.77
404.514	10.84
404.878	10.81
405.241	10.84
405.604	11.02
405.968	11.04
406.331	10.92
406.694	11.04
407.057	10.79
407.42	11.15
407.783	10.92
408.146	11.05
408.509	10.93
408.872	11.2
409.235	11.22
409.598	11.28
409.961	11.55
410.323	11.48
410.686	11.48
411.049	11.62
411.411	11.6
411.774	11.55
412.136	11.55
412.499	11.62
412.861	11.84
413.223	11.81
413.586	11.64
413.948	11.78
414.31	11.93
414.672	12.23
415.035	11.99
415.397	12.16
415.759	12.38
416.121	12.04
416.483	12.29
416.845	11.78
417.206	12.15
417.568	12.18
417.93	12.33
418.292	12.38
418.653	12.11
419.015	12.18
419.377	12.16
419.738	12.23
420.1	12.11
420.461	12.22
420.822	12.3
421.184	12.28
421.545	12.27
421.906	12.35
422.267	12.33
422.629	12.42
422.99	12.28
423.351	12.3
423.712	12.39
424.073	12.46
424.434	12.56
424.795	12.6
425.155	12.77
425.516	12.82
425.877	12.66
426.238	12.75
426.598	12.78
426.959	12.81
427.32	12.81
427.68	12.89
428.041	13.1
428.401	13.31
428.761	13.41
429.122	13.41
429.482	13.55
429.842	13.34
430.202	13.76
430.563	13.77
430.923	13.87
431.283	13.93
431.643	13.88
432.003	13.93
432.363	13.88
432.722	13.96
433.082	14.23
433.442	14.08
433.802	14.19
434.161	14.05
434.521	13.97
434.881	14.22
435.24	14.06
435.6	14.13
435.959	14.02
436.319	14.22
436.678	14.31
437.037	14.46
437.396	14.32
437.756	14.54
438.115	14.75
438.474	14.59
438.833	14.78
439.192	14.84
439.551	14.57
439.91	14.74
440.269	14.77
440.628	14.65
440.987	14.77
441.345	14.98
441.704	15.03
442.063	14.99
442.421	14.84
442.78	14.91
443.138	15.03
443.497	14.87
443.855	15.22
444.214	15.14
444.572	15.3
444.93	15.52
445.288	15.51
445.647	15.53
446.005	15.54
446.363	15.46
446.721	15.52
447.079	15.34
447.437	15.59
447.795	15.62
448.153	15.38
448.51	15.48
448.868	15.5
449.226	15.61
449.584	15.6
449.941	15.73
450.299	15.94
450.656	16.02
451.014	16.13
451.371	16.25
451.729	16.36
452.086	16.24
452.443	16.27
452.801	16.35
453.158	16.62
453.515	16.76
453.872	16.51
454.229	16.71
454.586	16.58
454.943	16.74
455.3	16.82
455.657	16.82
456.014	17
456.371	17.01
456.727	17.05
457.084	17.02
457.441	16.83
457.797	17.21
458.154	17.37
458.51	17.18
458.867	17.27
459.223	17.51
459.58	17.66
459.936	17.44
460.292	17.55
460.648	17.49
461.005	17.43
461.361	17.5
461.717	17.16
462.073	17.24
462.429	17.24
462.785	17.16
463.141	17.53
463.496	17.65
463.852	17.75
464.208	17.67
464.564	18.06
464.919	18.09
465.275	18.51
465.631	18.57
465.986	18.46
466.342	18.45
466.697	18.54
467.052	18.18
467.408	18.41
467.763	18.54
468.118	18.81
468.473	18.54
468.829	18.61
469.184	18.71
469.539	18.81
469.894	18.62
470.249	18.61
470.603	18.9
470.958	18.97
471.313	19.03
471.668	18.95
472.023	19.1
472.377	19.23
472.732	18.94
473.086	19.31
473.441	19.03
473.795	19.55
474.15	19.42
474.504	19.29
474.859	19.6
475.213	19.25
475.567	19.44
475.921	19.59
476.275	19.77
476.63	19.74
476.984	19.67
477.338	20.04
477.692	20.08
478.045	19.98
478.399	20.14
478.753	19.73
479.107	19.97
479.461	20.03
479.814	20.14
480.168	20.14
480.521	20.22
480.875	20.27
481.228	20.18
481.582	20.2
481.935	20.3
482.289	20.41
482.642	20.43
482.995	20.42
483.348	20.35
483.701	20.29
484.055	20.33
484.408	20.24
484.761	20.23
485.114	20
485.466	19.79
485.819	19.43
486.172	19.41
486.525	19.42
486.878	19.63
487.23	19.85
487.583	20.03
487.936	20.15
488.288	20.34
488.641	20.45
488.993	20.34
489.345	20.2
489.698	20.07
490.05	20.21
490.402	20.24
490.754	20.3
491.107	20.49
491.459	20.78
491.811	20.83
492.163	21.12
492.515	21.13
492.866	21.29
493.218	21.2
493.57	20.97
493.922	20.64
494.274	20.7
494.625	21.05
494.977	21.18
495.328	21.46
495.68	21.84
496.031	21.89
496.383	22.14
496.734	22.31
497.086	22.25
497.437	22.5
497.788	22.31
498.139	22.4
498.49	22.41
498.842	22.21
499.193	22.25
499.544	22.33
499.894	22.3
500.245	22.55
500.596	22.51
500.947	22.62
501.298	22.71
501.648	22.78
501.999	22.91
502.35	23.09
502.7	23.07
503.051	23.18
503.401	23.24
503.752	23.21
504.102	23.16
504.452	23.4
504.803	23.42
505.153	23.31
505.503	23.55
505.853	23.68
506.203	23.62
506.553	23.53
506.903	23.61
507.253	23.52
507.603	23.64
507.953	23.71
508.303	23.76
508.652	23.8
509.002	24.1
509.352	24.02
509.701	23.97
510.051	23.99
510.4	24.05
510.75	23.81
511.099	23.77
511.449	24.04
511.798	23.91
512.147	23.89
512.496	24.11
512.846	24.08
513.195	24.25
513.544	24.26
513.893	24.37
514.242	24.39
514.591	24.5
514.939	24.47
515.288	24.45
515.637	24.58
515.986	24.55
516.334	24.75
516.683	24.88
517.032	24.94
517.38	24.91
517.729	24.94
518.077	25.02
518.426	25.23
518.774	25.13
519.122	25.17
519.47	25.09
519.819	25.01
520.167	25.05
520.515	24.82
520.863	24.73
521.211	24.79
521.559	24.73
521.907	25.04
522.255	25.03
522.602	25.11
522.95	25.45
523.298	25.41
523.645	25.61
523.993	25.73
524.341	25.56
524.688	25.93
525.036	25.98
525.383	25.87
525.73	26.12
526.078	25.98
526.425	26.04
526.772	26
527.119	25.85
527.466	25.64
527.814	25.69
528.161	25.53
528.508	25.77
528.854	25.74
529.201	25.8
529.548	25.79
529.895	25.71
530.242	25.51
530.588	25.2
530.935	24.94
531.282	25.18
531.628	25.37
531.975	25.44
532.321	25.66
532.667	25.76
533.014	26.17
533.36	26.3
533.706	26.34
534.052	26.43
534.399	26.44
534.745	26.45
535.091	26.22
535.437	25.97
535.783	25.97
536.129	26.15
536.474	26.29
536.82	26.59
537.166	26.68
537.512	26.94
537.857	27.01
538.203	27.1
538.549	26.9
538.894	26.64
539.239	27
539.585	27
539.93	27.19
540.276	27.24
540.621	27.6
540.966	27.6
541.311	27.68
541.656	27.89
542.001	27.95
542.346	27.87
542.691	27.66
543.036	27.25
543.381	26.95
543.726	26.87
544.071	26.99
544.415	27.16
544.76	27.21
545.105	27.27
545.449	27.49
545.794	27.54
546.138	27.76
546.483	27.98
546.827	27.95
547.171	28.22
547.516	28.36
547.86	28.33
548.204	28.41
548.548	28.38
548.892	28.35
549.236	28.31
549.58	28.21
549.924	28.65
550.268	28.93
550.612	29.02
550.956	29.02
551.3	29.11
551.643	29.28
551.987	29.57
552.33	29.66
552.674	29.65
553.017	29.44
553.361	29.5
553.704	29.66
554.048	29.73
554.391	29.66
554.734	29.61
555.077	29.52
555.42	29.54
555.764	29.69
556.107	29.74
556.45	29.84
556.793	30.07
557.135	29.84
557.478	30
557.821	30.24
558.164	30.22
558.507	30.43
558.849	30.1
559.192	30.39
559.534	30.57
559.877	30.6
560.219	30.48
560.562	30.46
560.904	30.42
561.246	30.7
561.589	30.79
561.931	30.81
562.273	30.6
562.615	30.56
562.957	30.77
563.299	30.94
563.641	30.73
563.983	30.99
564.325	30.89
564.667	30.87
565.008	30.91
565.35	30.74
565.692	31.08
566.033	30.96
566.375	30.94
566.716	31.08
567.058	31.13
567.399	31.16
567.741	31.2
568.082	30.96
568.423	31.07
568.764	31.27
569.105	30.85
569.447	31.11
569.788	31.24
570.129	31.34
570.47	31.67
570.811	31.38
571.151	31.37
571.492	31.55
571.833	31.53
572.174	31.56
572.514	31.55
572.855	31.8
573.195	31.79
573.536	31.66
573.876	31.69
574.217	31.56
574.557	31.75
574.898	31.46
575.238	31.68
575.578	31.79
575.918	32.02
576.258	31.74
576.598	32.17
576.938	32.09
577.278	32.29
577.618	31.94
577.958	32.16
578.298	32.3
578.638	32.23
578.977	32.53
579.317	32.53
579.657	32.35
579.996	32.7
580.336	32.74
580.675	32.74
581.014	32.57
581.354	32.63
581.693	32.83
582.032	32.94
582.372	33.32
582.711	33.32
583.05	33.22
583.389	33.14
583.728	33.26
584.067	33.17
584.406	33.11
584.745	33.39
585.083	33.52
585.422	33.37
585.761	33.88
586.1	33.57
586.438	33.49
586.777	33.52
587.115	33.82
587.454	33.47
587.792	33.98
588.13	33.6
588.469	34
588.807	34.03
589.145	33.85
589.483	34.04
589.821	33.91
590.159	33.72
590.497	34.16
590.835	33.96
591.173	33.82
591.511	33.96
591.849	34.14
592.187	34.32
592.524	34.15
592.862	34.18
593.2	33.9
593.537	34.11
593.875	34.35
594.212	34.25
594.55	34.54
594.887	34.59
595.224	34.41
595.561	34.66
595.899	34.58
596.236	34.61
596.573	34.76
596.91	34.63
597.247	34.64
597.584	34.49
597.921	34.86
598.258	34.62
598.594	34.63
598.931	34.53
599.268	34.38
599.604	34.38
599.941	34.18
600.277	34.37
600.614	34.48
600.95	34.77
601.287	34.81
601.623	34.87
601.959	34.92
602.296	35.12
602.632	34.89
602.968	35.06
603.304	35.46
603.64	35.36
603.976	35.34
604.312	35.46
604.648	35.32
604.984	35.23
605.319	34.93
605.655	34.72
605.991	35.22
606.326	35.18
606.662	35.23
606.998	35.13
607.333	35.1
607.668	35.03
608.004	35.19
608.339	35.18
608.674	35.58
609.01	35.5
609.345	35.66
609.68	35.86
610.015	35.58
610.35	35.55
610.685	36.05
611.02	35.88
611.355	35.84
611.689	35.52
612.024	35.69
612.359	35.68
612.694	35.52
613.028	35.69
613.363	36.23
613.697	35.91
614.032	36.16
614.366	35.93
614.7	36.18
615.035	36.24
615.369	36.04
615.703	36.27
616.037	36.65
616.371	36.55
616.705	36.7
617.039	36.73
617.373	36.77
617.707	36.62
618.041	37.15
618.375	36.74
618.709	36.64
619.042	36.73
619.376	36.85
619.71	36.76
620.043	36.82
620.377	36.71
620.71	36.91
621.043	37.2
621.377	37.35
621.71	37.29
622.043	37.13
622.376	36.9
622.709	36.96
623.043	37.04
623.376	37.48
623.709	37.24
624.041	37.12
624.374	37.3
624.707	37.45
625.04	37.38
625.373	37.17
625.705	37.63
626.038	37.72
626.37	37.63
626.703	37.57
627.035	37.23
627.368	37.39
627.7	37.49
628.032	37.71
628.365	37.61
628.697	37.62
629.029	37.87
629.361	37.25
629.693	37.82
630.025	37.5
630.357	37.54
630.689	37.74
631.021	37.77
631.353	38.12
631.684	38.13
632.016	38.17
632.348	38.4
632.679	37.76
633.011	38.26
633.342	37.69
633.674	38.23
634.005	38.13
634.336	38.05
634.668	38.09
634.999	37.82
635.33	38.46
635.661	38.48
635.992	38.33
636.323	38.07
636.654	38.34
636.985	37.98
637.316	38.64
637.647	38.62
637.977	38.13
638.308	38.27
638.639	38.89
638.969	38.56
639.3	38.64
639.63	38.78
639.961	38.64
640.291	39.04
640.622	38.88
640.952	38.76
641.282	38.57
641.612	38.83
641.943	39.3
642.273	38.98
642.603	39.38
642.933	38.99
643.263	38.75
643.592	38.87
643.922	39.04
644.252	38.95
644.582	39.12
644.911	38.67
645.241	39.19
645.571	39.15
645.9	39.05
646.23	39.48
646.559	38.88
646.888	39.5
647.218	39.5
647.547	39.6
647.876	39.4
648.205	39.72
648.534	39.08
648.863	39.39
649.192	39
649.521	39.51
649.85	39.35
650.179	39.84
650.508	39.03
650.837	39.74
651.165	39.52
651.494	39.54
651.822	39.46
652.151	39.11
652.479	39.89
652.808	39.68
653.136	39.04
653.465	40.04
653.793	40.47
654.121	39.83
654.449	39.38
654.777	39.73
655.105	40.03
655.433	40.29
655.761	40.26
656.089	39.39
656.417	39.86
656.745	40.11
657.073	39.92
657.4	40.5
657.728	40.13
658.056	40.34
658.383	40.5
658.711	39.93
659.038	39.83
659.365	40.3
659.693	40.4
660.02	40.29
660.347	40.81
660.674	40.49
661.001	40.77
661.329	39.77
661.656	39.94
661.982	39.9
662.309	40.29
662.636	40.54
662.963	40.38
663.29	40.67
663.616	40.24
663.943	40.98
664.27	40.85
664.596	41.03
664.923	40.11
665.249	41
665.576	40.42
665.902	40.86
666.228	40.85
666.554	40.95
666.881	41.17
667.207	41.08
667.533	40.94
667.859	41.2
668.185	41.2
668.511	41.44
668.837	41.22
669.162	41.41
669.488	40.74
669.814	41.12
670.139	41.87
670.465	41.56
670.791	40.81
671.116	40.98
671.442	41.35
671.767	41.1
672.092	40.68
672.418	41.75
672.743	41.37
673.068	41.28
673.393	41.85
673.718	41.61
674.043	40.95
674.368	41.62
