Data from 0158_chest_Reflection__1__67.txt Node

Date: Fri Sep 22 20:52:10 CDT 2023
User: ToomeyLab
Spectrometer: FLMS14357
Trigger mode: 0
Integration Time (sec): 1.000000E-2
Scans to average: 100
Electric dark correction enabled: true
Nonlinearity correction enabled: false
Boxcar width: 0
XAxis mode: Wavelengths
Number of Pixels in Spectrum: 2048
>>>>>Begin Spectral Data<<<<<
189.047	-38.81
189.435	-38.81
189.823	-38.81
190.211	348.5
190.599	289.05
190.987	-14.78
191.375	-3239.68
191.763	22.89
192.151	77.61
192.538	105.67
192.926	79.05
193.314	59.49
193.702	-19.12
194.089	44.3
194.477	155.74
194.864	35.52
195.252	107.99
195.639	17.32
196.027	-25.73
196.414	53.22
196.801	853.76
197.189	193.44
197.576	643.62
197.963	-219.58
198.351	21.17
198.738	53.42
199.125	25.18
199.512	105.36
199.899	61.36
200.286	22.62
200.673	45.31
201.06	33.37
201.447	55.74
201.833	-30.2
202.22	25.99
202.607	35.49
202.994	51.45
203.38	23.66
203.767	36.81
204.154	41.97
204.54	42.06
204.927	21.36
205.313	4.08
205.699	45.21
206.086	43.67
206.472	49.94
206.858	12.71
207.245	-0.86
207.631	18.67
208.017	2.91
208.403	19.39
208.789	50.32
209.175	25.46
209.561	44.72
209.947	42.91
210.333	44.72
210.719	19.83
211.105	42.86
211.491	55.43
211.876	33.81
212.262	19.98
212.648	38.85
213.034	36.08
213.419	26.22
213.805	22.71
214.19	6.04
214.576	12.61
214.961	15.94
215.346	-1.95
215.732	20.56
216.117	14.63
216.502	40.39
216.888	22.2
217.273	29.05
217.658	13.23
218.043	22.85
218.428	30.2
218.813	-14.05
219.198	46.13
219.583	2.22
219.968	3.37
220.353	31.13
220.738	6.19
221.122	-6.09
221.507	15.9
221.892	33.52
222.276	23.77
222.661	-24.45
223.046	15.1
223.43	17.41
223.815	8.74
224.199	2.56
224.583	16.1
224.968	17.85
225.352	8.3
225.736	12.53
226.121	13.29
226.505	18.87
226.889	12.91
227.273	5.58
227.657	9.22
228.041	6.23
228.425	10.2
228.809	4.51
229.193	8.01
229.577	6.23
229.961	7.05
230.344	8.01
230.728	3.65
231.112	5.6
231.495	4.87
231.879	5.15
232.263	3.65
232.646	5.28
233.03	4.91
233.413	6.17
233.797	5.7
234.18	4.16
234.563	6.34
234.946	5.69
235.33	5.74
235.713	4.85
236.096	4.75
236.479	4.79
236.862	6.36
237.245	6.87
237.628	7.79
238.011	5.68
238.394	6.42
238.777	6.35
239.16	4.44
239.543	7.29
239.925	6.1
240.308	4.76
240.691	5.3
241.073	7.29
241.456	6.15
241.838	4.51
242.221	5.1
242.603	4.85
242.986	4.65
243.368	5.17
243.75	4.67
244.133	4.87
244.515	4.41
244.897	4.68
245.279	4.83
245.661	4.28
246.043	4.74
246.425	4.5
246.807	5.36
247.189	4.07
247.571	5.2
247.953	4.85
248.335	4.86
248.717	4.66
249.098	4.36
249.48	4.3
249.862	4.21
250.243	4.54
250.625	4.67
251.006	3.92
251.388	4.44
251.769	4.66
252.151	4.52
252.532	4.1
252.913	4.77
253.295	5.41
253.676	4.92
254.057	4.77
254.438	4.98
254.819	4.45
255.2	4.89
255.581	4.27
255.962	5.53
256.343	3.82
256.724	3.72
257.105	5.2
257.486	5.36
257.867	4.81
258.247	5.26
258.628	4.85
259.009	4.1
259.389	4.38
259.77	4.84
260.15	5.25
260.531	3.84
260.911	4.37
261.292	4.34
261.672	3.89
262.052	4.15
262.432	4.03
262.813	4.31
263.193	4.27
263.573	4.86
263.953	3.45
264.333	4.14
264.713	4.67
265.093	4.17
265.473	4.82
265.853	4
266.233	3.98
266.612	4.35
266.992	4.3
267.372	5.01
267.752	4.44
268.131	3.91
268.511	4.17
268.89	4.4
269.27	3.7
269.649	4.44
270.029	4.22
270.408	4.05
270.787	4.54
271.167	4.19
271.546	3.8
271.925	4.12
272.304	3.64
272.683	4.01
273.062	4.87
273.441	3.97
273.82	4.44
274.199	4.33
274.578	4.34
274.957	3.89
275.336	4
275.715	3.97
276.093	3.64
276.472	4.16
276.851	4.42
277.229	3.64
277.608	4.51
277.986	4.18
278.365	4.3
278.743	4.16
279.122	4.25
279.5	4.48
279.878	4.19
280.257	4.68
280.635	3.9
281.013	4.66
281.391	3.75
281.769	4.31
282.147	3.96
282.525	4.17
282.903	4.19
283.281	4.23
283.659	3.94
284.037	3.79
284.415	4.52
284.792	3.95
285.17	4.16
285.548	4.38
285.925	4.11
286.303	4.05
286.68	3.82
287.058	4.02
287.435	4.18
287.813	3.93
288.19	3.72
288.567	3.96
288.945	3.98
289.322	3.88
289.699	3.79
290.076	4.27
290.453	3.92
290.83	3.6
291.207	4.21
291.584	3.41
291.961	3.62
292.338	3.94
292.715	4.35
293.092	3.83
293.469	4.11
293.845	3.71
294.222	3.85
294.599	3.87
294.975	4.13
295.352	4.52
295.728	4.38
296.105	4.63
296.481	4.38
296.858	3.96
297.234	3.75
297.61	3.97
297.986	4.23
298.363	3.73
298.739	3.99
299.115	4.12
299.491	4.01
299.867	4.14
300.243	3.86
300.619	4.18
300.995	4.17
301.371	4.16
301.746	4.48
302.122	4.01
302.498	3.86
302.874	3.88
303.249	4.11
303.625	3.9
304	3.9
304.376	3.8
304.751	4.3
305.127	4.42
305.502	4.21
305.878	4.59
306.253	4.68
306.628	4.22
307.003	4.59
307.378	4.02
307.754	4.01
308.129	3.99
308.504	4.02
308.879	3.75
309.254	4.26
309.629	3.71
310.003	4.5
310.378	4.87
310.753	4.15
311.128	3.7
311.502	4.47
311.877	4.01
312.252	4.08
312.626	3.94
313.001	4.6
313.375	4.19
313.75	4.37
314.124	4.41
314.498	3.53
314.873	4.42
315.247	4.71
315.621	4.18
315.995	4.04
316.369	4.01
316.743	4.35
317.117	4.67
317.491	4.96
317.865	3.84
318.239	4.22
318.613	4.87
318.987	3.97
319.361	4.46
319.734	4.81
320.108	4.48
320.482	4.36
320.855	4.22
321.229	4.76
321.602	4.41
321.976	4.09
322.349	4.11
322.723	4.54
323.096	4.9
323.469	4.66
323.843	3.72
324.216	4.95
324.589	4.93
324.962	4.12
325.335	4.47
325.708	4.4
326.081	4.58
326.454	3.78
326.827	4.63
327.2	4.22
327.573	4.93
327.945	4.9
328.318	4.7
328.691	4.7
329.063	4.4
329.436	4.64
329.809	4.59
330.181	4.53
330.553	4.22
330.926	4.54
331.298	4.98
331.671	4.82
332.043	3.96
332.415	4.77
332.787	4.52
333.159	4.37
333.532	4.32
333.904	4.03
334.276	4.2
334.648	3.66
335.02	4.48
335.391	4.63
335.763	4.83
336.135	4.47
336.507	4.75
336.879	3.86
337.25	4.04
337.622	4.8
337.993	4.36
338.365	4.68
338.736	4.78
339.108	4.92
339.479	4.46
339.851	4.14
340.222	4.34
340.593	4.38
340.964	4.02
341.336	4.27
341.707	4.27
342.078	4.91
342.449	4.66
342.82	4.25
343.191	4.08
343.562	4.48
343.933	4.69
344.303	4.5
344.674	4.79
345.045	4.4
345.416	4.81
345.786	4.38
346.157	4.43
346.527	4.21
346.898	4.53
347.268	4.3
347.639	4.46
348.009	4.47
348.38	4.57
348.75	5.12
349.12	4.49
349.49	5.05
349.861	4.76
350.231	4.52
350.601	4.69
350.971	4.63
351.341	4
351.711	4.11
352.081	4.16
352.45	4.28
352.82	4.78
353.19	4.64
353.56	4.56
353.929	4.63
354.299	4.66
354.669	4.31
355.038	4.35
355.408	4.66
355.777	4.65
356.147	4.64
356.516	4.79
356.885	4.57
357.254	4.8
357.624	4.06
357.993	4.41
358.362	4.35
358.731	4.53
359.1	4.33
359.469	4.49
359.838	4.22
360.207	4.16
360.576	4.45
360.945	4.46
361.314	4.81
361.682	4.83
362.051	4.92
362.42	4.39
362.788	4.39
363.157	4.71
363.525	4.58
363.894	4.4
364.262	4.3
364.631	4.4
364.999	4.38
365.367	4.38
365.735	4.52
366.104	4.43
366.472	4.7
366.84	4.31
367.208	5.04
367.576	4.59
367.944	4.57
368.312	4.52
368.68	4.32
369.048	4.83
369.416	4.75
369.783	4.4
370.151	4.6
370.519	4.51
370.886	4.58
371.254	4.71
371.621	4.41
371.989	4.59
372.356	4.68
372.724	4.67
373.091	4.74
373.458	4.79
373.826	4.75
374.193	4.69
374.56	4.51
374.927	5.01
375.294	4.46
375.661	4.59
376.028	4.69
376.395	4.82
376.762	4.58
377.129	4.65
377.496	4.78
377.863	4.74
378.229	4.56
378.596	4.76
378.963	4.99
379.329	4.59
379.696	4.99
380.062	4.4
380.429	4.54
380.795	4.69
381.161	4.67
381.528	4.6
381.894	4.37
382.26	4.67
382.626	4.5
382.993	4.88
383.359	4.29
383.725	4.42
384.091	5.02
384.457	4.62
384.823	4.65
385.188	4.74
385.554	4.6
385.92	4.84
386.286	4.59
386.651	4.61
387.017	4.64
387.383	4.53
387.748	4.73
388.114	4.71
388.479	4.42
388.845	4.22
389.21	4.25
389.575	4.9
389.94	4.63
390.306	4.73
390.671	4.98
391.036	4.51
391.401	4.65
391.766	4.59
392.131	4.38
392.496	4.7
392.861	4.6
393.226	5.04
393.591	4.65
393.956	4.71
394.32	4.45
394.685	4.62
395.05	4.89
395.414	4.53
395.779	4.72
396.143	4.54
396.508	4.57
396.872	4.55
397.236	4.74
397.601	4.61
397.965	4.92
398.329	4.63
398.694	4.75
399.058	4.9
399.422	4.71
399.786	4.79
400.15	4.95
400.514	5.05
400.878	4.73
401.242	4.76
401.605	4.68
401.969	4.49
402.333	4.72
402.697	4.7
403.06	4.83
403.424	4.7
403.787	4.71
404.151	4.83
404.514	4.73
404.878	4.7
405.241	4.82
405.604	4.67
405.968	4.83
406.331	4.72
406.694	4.76
407.057	4.57
407.42	4.62
407.783	4.74
408.146	4.52
408.509	4.61
408.872	4.74
409.235	4.78
409.598	4.67
409.961	5.19
410.323	4.79
410.686	4.96
411.049	4.9
411.411	5.02
411.774	4.81
412.136	4.9
412.499	4.75
412.861	4.84
413.223	4.8
413.586	4.92
413.948	4.82
414.31	4.81
414.672	4.76
415.035	4.68
415.397	4.99
415.759	5.18
416.121	4.85
416.483	4.81
416.845	4.6
417.206	4.7
417.568	4.68
417.93	4.59
418.292	4.89
418.653	4.68
419.015	4.66
419.377	4.76
419.738	4.73
420.1	4.54
420.461	4.61
420.822	4.71
421.184	4.81
421.545	4.66
421.906	4.76
422.267	4.54
422.629	4.66
422.99	4.68
423.351	4.53
423.712	4.53
424.073	4.6
424.434	4.74
424.795	4.65
425.155	4.71
425.516	4.59
425.877	4.62
426.238	4.51
426.598	4.61
426.959	4.6
427.32	4.63
427.68	4.68
428.041	4.63
428.401	4.81
428.761	4.77
429.122	4.74
429.482	4.76
429.842	4.74
430.202	4.71
430.563	4.88
430.923	4.84
431.283	5.05
431.643	4.79
432.003	4.97
432.363	4.96
432.722	4.92
433.082	5
433.442	4.83
433.802	4.98
434.161	4.68
434.521	4.94
434.881	4.83
435.24	4.77
435.6	4.57
435.959	4.62
436.319	4.66
436.678	4.86
437.037	4.81
437.396	4.78
437.756	4.85
438.115	4.91
438.474	4.97
438.833	4.87
439.192	4.88
439.551	4.81
439.91	4.91
440.269	4.9
440.628	4.67
440.987	4.82
441.345	4.96
441.704	4.87
442.063	4.81
442.421	4.73
442.78	4.84
443.138	4.77
443.497	4.84
443.855	4.82
444.214	4.68
444.572	4.89
444.93	4.68
445.288	4.83
445.647	4.75
446.005	4.69
446.363	4.79
446.721	4.8
447.079	4.68
447.437	4.87
447.795	4.96
448.153	4.66
448.51	4.74
448.868	4.7
449.226	4.74
449.584	4.78
449.941	4.64
450.299	4.84
450.656	4.86
451.014	4.94
451.371	4.93
451.729	4.83
452.086	4.77
452.443	4.89
452.801	4.99
453.158	4.83
453.515	5.04
453.872	4.8
454.229	4.88
454.586	5
454.943	4.86
455.3	5.04
455.657	4.92
456.014	4.81
456.371	5.08
456.727	5.06
457.084	4.84
457.441	4.88
457.797	5.04
458.154	4.93
458.51	4.8
458.867	4.99
459.223	5.04
459.58	4.89
459.936	4.97
460.292	4.94
460.648	5.02
461.005	4.96
461.361	4.87
461.717	4.58
462.073	4.81
462.429	4.8
462.785	4.77
463.141	4.88
463.496	4.93
463.852	4.93
464.208	4.96
464.564	5.12
464.919	5
465.275	5.31
465.631	5.15
465.986	5.16
466.342	5.01
466.697	5.15
467.052	5.06
467.408	4.99
467.763	5.09
468.118	5.17
468.473	4.94
468.829	4.87
469.184	4.89
469.539	5
469.894	4.98
470.249	5.08
470.603	4.93
470.958	5.21
471.313	5.07
471.668	5.02
472.023	5
472.377	4.96
472.732	5.01
473.086	5.12
473.441	4.86
473.795	5.4
474.15	5.03
474.504	4.94
474.859	5.18
475.213	4.83
475.567	4.94
475.921	5.12
476.275	5.12
476.63	5.22
476.984	4.98
477.338	5.37
477.692	5.11
478.045	5.21
478.399	5.06
478.753	5.01
479.107	4.94
479.461	5
479.814	5.15
480.168	5.13
480.521	5.15
480.875	5.13
481.228	5.03
481.582	5.01
481.935	5.07
482.289	5.02
482.642	4.95
482.995	5.05
483.348	5.09
483.701	5
484.055	5.02
484.408	4.92
484.761	5.1
485.114	4.87
485.466	4.87
485.819	4.72
486.172	4.71
486.525	4.65
486.878	4.74
487.23	4.79
487.583	4.87
487.936	4.9
488.288	4.96
488.641	4.94
488.993	4.9
489.345	4.92
489.698	4.82
490.05	4.79
490.402	4.88
490.754	4.78
491.107	4.82
491.459	4.97
491.811	4.94
492.163	4.96
492.515	5.05
492.866	5.07
493.218	4.98
493.57	4.97
493.922	4.83
494.274	4.92
494.625	4.9
494.977	4.94
495.328	5.07
495.68	5.1
496.031	5.06
496.383	5.23
496.734	5.25
497.086	5.03
497.437	5.13
497.788	5.13
498.139	5.26
498.49	5.24
498.842	5.14
499.193	5.03
499.544	5.13
499.894	5.11
500.245	5.21
500.596	5.3
500.947	5.27
501.298	5.22
501.648	5.25
501.999	5.32
502.35	5.25
502.7	5.47
503.051	5.35
503.401	5.27
503.752	5.31
504.102	5.18
504.452	5.29
504.803	5.22
505.153	5.24
505.503	5.3
505.853	5.42
506.203	5.27
506.553	5.5
506.903	5.34
507.253	5.17
507.603	5.42
507.953	5.47
508.303	5.4
508.652	5.33
509.002	5.54
509.352	5.45
509.701	5.46
510.051	5.39
510.4	5.42
510.75	5.3
511.099	5.25
511.449	5.38
511.798	5.43
512.147	5.35
512.496	5.38
512.846	5.33
513.195	5.49
513.544	5.46
513.893	5.43
514.242	5.38
514.591	5.44
514.939	5.38
515.288	5.37
515.637	5.37
515.986	5.46
516.334	5.49
516.683	5.44
517.032	5.62
517.38	5.45
517.729	5.48
518.077	5.46
518.426	5.5
518.774	5.56
519.122	5.43
519.47	5.54
519.819	5.5
520.167	5.58
520.515	5.41
520.863	5.36
521.211	5.43
521.559	5.49
521.907	5.42
522.255	5.53
522.602	5.54
522.95	5.53
523.298	5.62
523.645	5.64
523.993	5.55
524.341	5.57
524.688	5.59
525.036	5.57
525.383	5.57
525.73	5.69
526.078	5.57
526.425	5.67
526.772	5.69
527.119	5.68
527.466	5.59
527.814	5.53
528.161	5.49
528.508	5.61
528.854	5.57
529.201	5.65
529.548	5.62
529.895	5.56
530.242	5.46
530.588	5.43
530.935	5.33
531.282	5.34
531.628	5.5
531.975	5.38
532.321	5.5
532.667	5.6
533.014	5.58
533.36	5.56
533.706	5.72
534.052	5.75
534.399	5.65
534.745	5.75
535.091	5.54
535.437	5.55
535.783	5.6
536.129	5.61
536.474	5.65
536.82	5.62
537.166	5.93
537.512	5.81
537.857	5.87
538.203	5.86
538.549	5.8
538.894	5.78
539.239	5.82
539.585	5.82
539.93	5.88
540.276	5.86
540.621	5.82
540.966	5.93
541.311	6.06
541.656	6.05
542.001	5.97
542.346	6.12
542.691	6.06
543.036	5.86
543.381	5.78
543.726	5.76
544.071	5.77
544.415	5.85
544.76	5.78
545.105	5.84
545.449	5.9
545.794	6
546.138	6.06
546.483	6.06
546.827	6.13
547.171	6.18
547.516	6.18
547.86	6.28
548.204	6.24
548.548	6.19
548.892	6.24
549.236	6.11
549.58	6.11
549.924	6.29
550.268	6.16
550.612	6.21
550.956	6.34
551.3	6.53
551.643	6.35
551.987	6.4
552.33	6.46
552.674	6.36
553.017	6.29
553.361	6.35
553.704	6.58
554.048	6.55
554.391	6.6
554.734	6.55
555.077	6.41
555.42	6.43
555.764	6.48
556.107	6.52
556.45	6.47
556.793	6.52
557.135	6.71
557.478	6.51
557.821	6.59
558.164	6.71
558.507	6.77
558.849	6.62
559.192	6.74
559.534	6.91
559.877	6.83
560.219	6.75
560.562	6.88
560.904	6.61
561.246	7
561.589	6.9
561.931	6.71
562.273	6.76
562.615	6.86
562.957	6.83
563.299	6.88
563.641	7.06
563.983	7.1
564.325	7.11
564.667	7.05
565.008	7
565.35	7.08
565.692	7.25
566.033	7.08
566.375	7.2
566.716	7.01
567.058	7.14
567.399	7.33
567.741	7.21
568.082	6.95
568.423	7.15
568.764	7.29
569.105	6.84
569.447	7.09
569.788	6.97
570.129	7.26
570.47	7.43
570.811	7.27
571.151	7.28
571.492	7.24
571.833	7.26
572.174	7.2
572.514	7.35
572.855	7.51
573.195	7.23
573.536	7.47
573.876	7.38
574.217	7.31
574.557	7.35
574.898	7.43
575.238	7.41
575.578	7.57
575.918	7.5
576.258	7.25
576.598	7.67
576.938	7.47
577.278	7.58
577.618	7.38
577.958	7.44
578.298	7.73
578.638	7.73
578.977	7.85
579.317	7.68
579.657	7.76
579.996	7.84
580.336	8.06
580.675	7.99
581.014	7.76
581.354	7.7
581.693	7.98
582.032	7.93
582.372	7.93
582.711	8.11
583.05	7.94
583.389	8
583.728	8.09
584.067	8.06
584.406	8.04
584.745	7.98
585.083	8.35
585.422	8.42
585.761	8.06
586.1	8.27
586.438	8.27
586.777	8.25
587.115	8.35
587.454	8.29
587.792	8.41
588.13	8.53
588.469	8.36
588.807	8.34
589.145	8.28
589.483	8.42
589.821	8.36
590.159	8.37
590.497	8.54
590.835	8.44
591.173	8.33
591.511	8.37
591.849	8.65
592.187	8.52
592.524	8.73
592.862	8.44
593.2	8.5
593.537	8.7
593.875	8.57
594.212	8.54
594.55	8.99
594.887	8.55
595.224	8.85
595.561	8.87
595.899	8.92
596.236	9.17
596.573	9.2
596.91	9.14
597.247	8.98
597.584	9
597.921	9.06
598.258	8.78
598.594	8.93
598.931	8.97
599.268	9.03
599.604	9.05
599.941	8.91
600.277	8.9
600.614	9.12
600.95	9.19
601.287	9.03
601.623	9.19
601.959	9.46
602.296	9.12
602.632	9.1
602.968	9.15
603.304	9.22
603.64	9.23
603.976	9.39
604.312	9.56
604.648	9.45
604.984	9.5
605.319	9.44
605.655	9.32
605.991	9.6
606.326	9.52
606.662	9.56
606.998	9.56
607.333	9.62
607.668	9.6
608.004	9.83
608.339	9.57
608.674	9.92
609.01	9.7
609.345	9.74
609.68	9.88
610.015	10.03
610.35	9.89
610.685	10.27
611.02	9.86
611.355	10.12
611.689	9.73
612.024	10.01
612.359	10.08
612.694	9.86
613.028	9.91
613.363	9.91
613.697	10.1
614.032	10.19
614.366	10.18
614.7	10.01
615.035	10.05
615.369	10.35
615.703	10.18
616.037	10.16
616.371	10.65
616.705	10.66
617.039	10.36
617.373	10.25
617.707	10.29
618.041	10.59
618.375	10.49
618.709	10.49
619.042	10.67
619.376	10.67
619.71	10.55
620.043	10.9
620.377	10.53
620.71	10.64
621.043	10.93
621.377	10.76
621.71	10.94
622.043	11.11
622.376	11
622.709	10.99
623.043	10.87
623.376	10.62
623.709	10.88
624.041	10.84
624.374	11.31
624.707	11.14
625.04	11.13
625.373	10.63
625.705	11.08
626.038	10.99
626.37	11.34
626.703	11.33
627.035	11.02
627.368	11.54
627.7	11.53
628.032	11.52
628.365	11.4
628.697	11.56
629.029	11.4
629.361	11.39
629.693	11.55
630.025	11.6
630.357	11.52
630.689	11.64
631.021	11.77
631.353	11.54
631.684	11.74
632.016	12.06
632.348	11.94
632.679	11.51
633.011	11.84
633.342	11.96
633.674	12.35
634.005	11.59
634.336	12.06
634.668	12.01
634.999	12.12
635.33	12.17
635.661	12.12
635.992	12.17
636.323	11.97
636.654	12.09
636.985	11.95
637.316	12.15
637.647	12.03
637.977	11.91
638.308	12.45
638.639	12.38
638.969	12.2
639.3	12.24
639.63	12.51
639.961	12.14
640.291	12.47
640.622	12.7
640.952	12.28
641.282	12.42
641.612	12.58
641.943	12.82
642.273	12.86
642.603	12.32
642.933	12.33
643.263	12.15
643.592	12.91
643.922	12.72
644.252	12.9
644.582	13.05
644.911	12.55
645.241	13.17
645.571	12.81
645.9	12.97
646.23	13.32
646.559	13.23
646.888	13.4
647.218	12.78
647.547	12.89
647.876	13.19
648.205	12.95
648.534	12.87
648.863	13.29
649.192	12.91
649.521	13.43
649.85	13.44
650.179	12.73
650.508	13.17
650.837	13.65
651.165	13.2
651.494	13.37
651.822	13.34
652.151	13.04
652.479	13.37
652.808	13.5
653.136	13.95
653.465	13.63
653.793	13.67
654.121	13.83
654.449	13.6
654.777	14.11
655.105	14.19
655.433	13.91
655.761	13.89
656.089	14.01
656.417	13.78
656.745	13.95
657.073	13.95
657.4	14.2
657.728	13.78
658.056	13.78
658.383	14.65
658.711	14.31
659.038	13.94
659.365	14.49
659.693	14.47
660.02	14.64
660.347	14.49
660.674	14.03
661.001	14.03
661.329	13.91
661.656	14.34
661.982	14.34
662.309	14.18
662.636	14.63
662.963	14.46
663.29	14.51
663.616	14.53
663.943	14.64
664.27	14.43
664.596	14.51
664.923	14.71
665.249	14.76
665.576	14.66
665.902	14.79
666.228	15
666.554	13.78
666.881	14.91
667.207	14.85
667.533	13.93
667.859	14.99
668.185	15.4
668.511	15.5
668.837	14.53
669.162	15.53
669.488	15.3
669.814	15.25
670.139	15.64
670.465	15.12
670.791	15.34
671.116	14.92
671.442	15.61
671.767	14.81
672.092	15.45
672.418	15.82
672.743	15.5
673.068	15.99
673.393	15.57
673.718	15.88
674.043	15.82
674.368	15.12
674.693	15.39
675.018	15.55
675.343	16
675.667	16.02
675.992	15.9
676.317	15.82
676.641	15.99
676.966	16.54
677.29	15.33
677.615	15.66
677.939	16.11
678.264	15.69
678.588	16.26
678.912	16.35
679.236	16.24
679.56	16.31
679.885	16.2
680.209	16.95
680.532	15.93
680.856	15.91
681.18	16.93
681.504	16.66
681.828	16.56
682.152	15.9
682.475	16.81
682.799	16.2
683.122	16.32
683.446	16.48
683.769	16.44
684.093	16.73
684.416	16.08
684.739	16.6
685.062	16.98
685.386	16.93
685.709	17.04
686.032	16.96
686.355	16.96
686.678	17.11
687.001	16.64
687.324	17.76
687.646	16.8
687.969	17.08
