Data from 0158_chest_Reflection__0__66.txt Node

Date: Fri Sep 22 20:51:58 CDT 2023
User: ToomeyLab
Spectrometer: FLMS14357
Trigger mode: 0
Integration Time (sec): 1.000000E-2
Scans to average: 100
Electric dark correction enabled: true
Nonlinearity correction enabled: false
Boxcar width: 0
XAxis mode: Wavelengths
Number of Pixels in Spectrum: 2048
>>>>>Begin Spectral Data<<<<<
189.047	-8.79
189.435	-8.79
189.823	-8.79
190.211	-168.34
190.599	-7.93
190.987	100.57
191.375	-1502.65
191.763	-1.28
192.151	234.27
192.538	3920.57
192.926	143.24
193.314	117.05
193.702	376.89
194.089	70.82
194.477	-73.75
194.864	85.79
195.252	-16.52
195.639	149.28
196.027	132.41
196.414	-66.44
196.801	-1946.82
197.189	-49.92
197.576	681.31
197.963	4.87
198.351	1.25
198.738	-0.46
199.125	17.39
199.512	73.92
199.899	40.91
200.286	39.9
200.673	3.24
201.06	43.58
201.447	76.8
201.833	-53.63
202.22	53.65
202.607	5.89
202.994	22.24
203.38	43.02
203.767	-11.71
204.154	58.34
204.54	35.42
204.927	49.77
205.313	7.45
205.699	37.28
206.086	73.71
206.472	58.48
206.858	31.28
207.245	7.26
207.631	23.52
208.017	20.83
208.403	11.49
208.789	24.56
209.175	44.3
209.561	35.11
209.947	36.31
210.333	33.94
210.719	9.4
211.105	37.23
211.491	6.81
211.876	21.91
212.262	23.92
212.648	55.5
213.034	35.19
213.419	33.55
213.805	15.56
214.19	11.24
214.576	44.86
214.961	24.39
215.346	9.59
215.732	40.79
216.117	8.97
216.502	41.63
216.888	36.43
217.273	20.92
217.658	4.23
218.043	27.86
218.428	25.79
218.813	-10.24
219.198	27.77
219.583	11.26
219.968	6.43
220.353	33.12
220.738	-3.57
221.122	10.65
221.507	2.97
221.892	8.62
222.276	1.6
222.661	-14.81
223.046	10.88
223.43	30.18
223.815	-1.21
224.199	3.72
224.583	11.55
224.968	14.2
225.352	12.4
225.736	8.91
226.121	5.85
226.505	1.02
226.889	3.97
227.273	6.55
227.657	4.51
228.041	6.48
228.425	9.16
228.809	1.8
229.193	3.57
229.577	5.22
229.961	5.1
230.344	3.41
230.728	1.8
231.112	2.43
231.495	1.76
231.879	2.3
232.263	1.94
232.646	3.05
233.03	2.02
233.413	2.23
233.797	2.9
234.18	2.28
234.563	6.61
234.946	5.2
235.33	1.06
235.713	2.56
236.096	2.67
236.479	2.26
236.862	3.44
237.245	2.92
237.628	4.36
238.011	3.67
238.394	3.09
238.777	4.29
239.16	3.86
239.543	3.89
239.925	3.87
240.308	2.51
240.691	4.61
241.073	5.35
241.456	2.84
241.838	2.08
242.221	2.68
242.603	3
242.986	2.12
243.368	2.18
243.75	3.58
244.133	2.74
244.515	2.22
244.897	2.2
245.279	2.39
245.661	2.66
246.043	2.98
246.425	2.61
246.807	2.95
247.189	0.89
247.571	2.45
247.953	3.24
248.335	2.41
248.717	2.35
249.098	2.46
249.48	2.2
249.862	2.13
250.243	2.55
250.625	2.77
251.006	2.16
251.388	2.66
251.769	2.84
252.151	2.59
252.532	3.09
252.913	2.76
253.295	3.57
253.676	3.04
254.057	2.44
254.438	3.19
254.819	2.01
255.2	2.65
255.581	2.32
255.962	3.4
256.343	2.6
256.724	2.62
257.105	2.86
257.486	2.53
257.867	2.05
258.247	3.27
258.628	3.94
259.009	2.72
259.389	2.62
259.77	2.33
260.15	3.38
260.531	2.44
260.911	2.02
261.292	2.18
261.672	2.08
262.052	2.21
262.432	2.24
262.813	2.12
263.193	2.04
263.573	3.05
263.953	2.67
264.333	2.95
264.713	2.52
265.093	2.52
265.473	2.19
265.853	2.32
266.233	2.09
266.612	2.44
266.992	2.98
267.372	2.24
267.752	3.36
268.131	2.31
268.511	2.4
268.89	2.07
269.27	2.2
269.649	2.14
270.029	2.53
270.408	2.38
270.787	3.15
271.167	2.1
271.546	2.12
271.925	2.33
272.304	2.14
272.683	2.35
273.062	2.78
273.441	2.38
273.82	2.55
274.199	2.42
274.578	2.46
274.957	2.37
275.336	2.19
275.715	2.35
276.093	1.9
276.472	2.38
276.851	2.6
277.229	1.55
277.608	2.8
277.986	1.98
278.365	1.91
278.743	2.37
279.122	2.38
279.5	2.57
279.878	1.89
280.257	2.56
280.635	1.88
281.013	3.12
281.391	1.97
281.769	2.36
282.147	2.03
282.525	2.34
282.903	2.65
283.281	2.05
283.659	2.87
284.037	2.36
284.415	2.49
284.792	2.39
285.17	2.11
285.548	2.69
285.925	2.15
286.303	2.22
286.68	1.83
287.058	2.11
287.435	2.27
287.813	2.19
288.19	1.84
288.567	2.34
288.945	2.27
289.322	2.44
289.699	2.74
290.076	2.85
290.453	1.88
290.83	2.03
291.207	2.31
291.584	1.98
291.961	2.4
292.338	2.32
292.715	2.54
293.092	2.2
293.469	2.52
293.845	2.44
294.222	2.77
294.599	2.46
294.975	2.97
295.352	2.57
295.728	2.96
296.105	2.94
296.481	2.77
296.858	2.45
297.234	2.49
297.61	2.92
297.986	2.61
298.363	3.03
298.739	2.85
299.115	2.78
299.491	2.73
299.867	2.74
300.243	2.66
300.619	2.29
300.995	2.3
301.371	2.59
301.746	2.62
302.122	2.83
302.498	2.69
302.874	2.72
303.249	2.62
303.625	1.95
304	2.9
304.376	3.06
304.751	3.03
305.127	2.71
305.502	2.96
305.878	2.29
306.253	2.64
306.628	2.63
307.003	3.1
307.378	3.19
307.754	2.55
308.129	2.99
308.504	3.07
308.879	3.27
309.254	2.99
309.629	2.83
310.003	3.27
310.378	3.6
310.753	2.8
311.128	3.41
311.502	3.3
311.877	2.57
312.252	2.88
312.626	2.71
313.001	3.29
313.375	3.08
313.75	3.36
314.124	3.45
314.498	2.88
314.873	3
315.247	3.14
315.621	3
315.995	3.18
316.369	3.34
316.743	2.74
317.117	3.59
317.491	3.44
317.865	2.87
318.239	2.98
318.613	3.27
318.987	3.57
319.361	3.27
319.734	3
320.108	3.37
320.482	2.98
320.855	3.09
321.229	3.68
321.602	3.75
321.976	3.13
322.349	3.48
322.723	3.17
323.096	3.53
323.469	2.92
323.843	3.67
324.216	3.64
324.589	3.29
324.962	2.81
325.335	2.93
325.708	3
326.081	3.47
326.454	2.87
326.827	3.31
327.2	3.37
327.573	3.97
327.945	3.2
328.318	3.58
328.691	3.38
329.063	2.75
329.436	3.94
329.809	3.83
330.181	3.6
330.553	3.68
330.926	3.17
331.298	3.45
331.671	3.95
332.043	3
332.415	3.7
332.787	3.56
333.159	3.26
333.532	3.18
333.904	3.62
334.276	3.13
334.648	2.76
335.02	3.45
335.391	3.16
335.763	3.81
336.135	3.85
336.507	3.72
336.879	3.23
337.25	3.42
337.622	3.45
337.993	3.48
338.365	3.83
338.736	3.61
339.108	3.51
339.479	3.51
339.851	3.14
340.222	3.08
340.593	3.49
340.964	3.08
341.336	3.32
341.707	3.28
342.078	3.63
342.449	3.69
342.82	3.29
343.191	2.83
343.562	3.57
343.933	3.44
344.303	3.29
344.674	3.71
345.045	3.26
345.416	3.91
345.786	3.31
346.157	3.08
346.527	3.35
346.898	3.27
347.268	3.32
347.639	3.74
348.009	3.14
348.38	3.59
348.75	3.48
349.12	3.43
349.49	3.76
349.861	3.28
350.231	3.6
350.601	3.88
350.971	3.94
351.341	2.93
351.711	3.49
352.081	3.37
352.45	3.37
352.82	3.92
353.19	3.93
353.56	3.64
353.929	3.6
354.299	3.77
354.669	3.34
355.038	3.23
355.408	3.23
355.777	3.68
356.147	3.43
356.516	3.65
356.885	3.63
357.254	3.91
357.624	3.3
357.993	3.56
358.362	3.63
358.731	3.63
359.1	3.55
359.469	3.74
359.838	3.36
360.207	3.37
360.576	3.6
360.945	3.67
361.314	3.61
361.682	3.57
362.051	3.63
362.42	3.64
362.788	3.28
363.157	3.74
363.525	3.52
363.894	3.29
364.262	3.44
364.631	3.5
364.999	3.57
365.367	3.85
365.735	3.65
366.104	3.77
366.472	4.04
366.84	3.28
367.208	3.85
367.576	3.68
367.944	3.43
368.312	3.74
368.68	3.71
369.048	3.69
369.416	3.84
369.783	3.41
370.151	3.52
370.519	3.82
370.886	3.79
371.254	3.65
371.621	3.58
371.989	3.74
372.356	3.61
372.724	3.48
373.091	3.84
373.458	3.53
373.826	3.48
374.193	3.99
374.56	4.19
374.927	4.1
375.294	3.94
375.661	3.44
376.028	3.77
376.395	4.05
376.762	3.39
377.129	3.81
377.496	4.01
377.863	3.92
378.229	3.96
378.596	3.83
378.963	4.15
379.329	3.89
379.696	4.01
380.062	3.5
380.429	3.96
380.795	3.86
381.161	3.66
381.528	3.75
381.894	3.16
382.26	3.87
382.626	3.86
382.993	4.17
383.359	3.5
383.725	3.64
384.091	4.04
384.457	4
384.823	3.7
385.188	3.82
385.554	4.16
385.92	4.22
386.286	4.02
386.651	3.83
387.017	4.03
387.383	3.43
387.748	3.79
388.114	4.18
388.479	4.05
388.845	3.83
389.21	3.91
389.575	4.19
389.94	3.73
390.306	3.87
390.671	4.5
391.036	3.61
391.401	4.09
391.766	3.81
392.131	3.93
392.496	3.87
392.861	3.82
393.226	4.24
393.591	4.12
393.956	3.88
394.32	3.79
394.685	3.88
395.05	4.05
395.414	4.11
395.779	3.87
396.143	4.17
396.508	3.85
396.872	3.93
397.236	3.9
397.601	3.94
397.965	4.15
398.329	3.82
398.694	4.14
399.058	3.84
399.422	3.84
399.786	4.08
400.15	4.22
400.514	4.1
400.878	4.1
401.242	4.09
401.605	3.96
401.969	3.91
402.333	3.86
402.697	3.84
403.06	3.89
403.424	3.95
403.787	4.25
404.151	4.02
404.514	4.06
404.878	4.19
405.241	4.2
405.604	4.22
405.968	4.16
406.331	4.01
406.694	4.09
407.057	4.01
407.42	4.26
407.783	4.11
408.146	4.13
408.509	3.82
408.872	4.11
409.235	4.31
409.598	4.06
409.961	4.42
410.323	4.33
410.686	4.07
411.049	4.33
411.411	4.34
411.774	4.28
412.136	4.05
412.499	4.2
412.861	4.24
413.223	4.28
413.586	4.22
413.948	4.11
414.31	3.98
414.672	4.35
415.035	4.21
415.397	4.4
415.759	4.47
416.121	3.93
416.483	4.34
416.845	4.48
417.206	4.19
417.568	4.11
417.93	4.37
418.292	4.27
418.653	4.06
419.015	4.33
419.377	4.11
419.738	4.22
420.1	4.07
420.461	4.13
420.822	4.17
421.184	4.23
421.545	4.13
421.906	4.18
422.267	3.99
422.629	4.23
422.99	4.06
423.351	4.12
423.712	3.97
424.073	4.1
424.434	4.11
424.795	4.15
425.155	4.3
425.516	4.12
425.877	4.14
426.238	4.08
426.598	4.13
426.959	4.15
427.32	4.22
427.68	4.07
428.041	4.03
428.401	4.26
428.761	4.43
429.122	4.25
429.482	4.26
429.842	4.25
430.202	4.39
430.563	4.34
430.923	4.36
431.283	4.42
431.643	4.43
432.003	4.43
432.363	4.42
432.722	4.39
433.082	4.38
433.442	4.34
433.802	4.39
434.161	4.39
434.521	4.37
434.881	4.42
435.24	4.32
435.6	4.39
435.959	4.13
436.319	4.32
436.678	4.45
437.037	4.48
437.396	4.18
437.756	4.41
438.115	4.48
438.474	4.39
438.833	4.3
439.192	4.38
439.551	4.43
439.91	4.4
440.269	4.47
440.628	4.37
440.987	4.46
441.345	4.41
441.704	4.57
442.063	4.44
442.421	4.51
442.78	4.33
443.138	4.51
443.497	4.43
443.855	4.37
444.214	4.33
444.572	4.45
444.93	4.52
445.288	4.62
445.647	4.58
446.005	4.32
446.363	4.41
446.721	4.55
447.079	4.32
447.437	4.48
447.795	4.56
448.153	4.33
448.51	4.41
448.868	4.36
449.226	4.4
449.584	4.43
449.941	4.43
450.299	4.54
450.656	4.54
451.014	4.58
451.371	4.52
451.729	4.48
452.086	4.49
452.443	4.56
452.801	4.66
453.158	4.63
453.515	4.72
453.872	4.49
454.229	4.73
454.586	4.64
454.943	4.6
455.3	4.68
455.657	4.57
456.014	4.64
456.371	4.72
456.727	4.77
457.084	4.74
457.441	4.54
457.797	4.78
458.154	4.78
458.51	4.52
458.867	4.85
459.223	4.7
459.58	4.83
459.936	4.87
460.292	4.82
460.648	4.84
461.005	4.63
461.361	4.85
461.717	4.42
462.073	4.57
462.429	4.49
462.785	4.57
463.141	4.59
463.496	4.78
463.852	4.8
464.208	4.86
464.564	4.88
464.919	4.92
465.275	5
465.631	4.86
465.986	4.86
466.342	5
466.697	4.96
467.052	4.82
467.408	4.83
467.763	4.78
468.118	5.04
468.473	4.91
468.829	4.91
469.184	4.83
469.539	4.94
469.894	4.77
470.249	4.98
470.603	4.67
470.958	4.76
471.313	4.96
471.668	5.03
472.023	5.04
472.377	5.02
472.732	4.93
473.086	5.16
473.441	4.72
473.795	5.33
474.15	4.95
474.504	4.91
474.859	5.1
475.213	4.76
475.567	4.86
475.921	4.95
476.275	4.94
476.63	4.96
476.984	4.93
477.338	5
477.692	5.13
478.045	5.08
478.399	5.02
478.753	5.09
479.107	5
479.461	4.93
479.814	5.14
480.168	5.03
480.521	5.12
480.875	5.02
481.228	5.04
481.582	5.01
481.935	4.97
482.289	5.01
482.642	5
482.995	5.05
483.348	5.01
483.701	5.18
484.055	4.98
484.408	5.02
484.761	5.01
485.114	4.94
485.466	4.81
485.819	4.71
486.172	4.68
486.525	4.68
486.878	4.75
487.23	4.79
487.583	4.88
487.936	4.91
488.288	4.99
488.641	5
488.993	4.93
489.345	4.83
489.698	4.82
490.05	4.9
490.402	4.91
490.754	4.85
491.107	4.87
491.459	4.98
491.811	5.02
492.163	5.14
492.515	5.15
492.866	5.07
493.218	5.05
493.57	5.07
493.922	4.95
494.274	4.97
494.625	5.01
494.977	5.15
495.328	5.24
495.68	5.29
496.031	5.28
496.383	5.31
496.734	5.3
497.086	5.25
497.437	5.44
497.788	5.34
498.139	5.52
498.49	5.47
498.842	5.31
499.193	5.27
499.544	5.3
499.894	5.26
500.245	5.31
500.596	5.42
500.947	5.44
501.298	5.47
501.648	5.42
501.999	5.46
502.35	5.39
502.7	5.52
503.051	5.45
503.401	5.54
503.752	5.56
504.102	5.46
504.452	5.5
504.803	5.53
505.153	5.48
505.503	5.52
505.853	5.52
506.203	5.47
506.553	5.5
506.903	5.54
507.253	5.57
507.603	5.49
507.953	5.71
508.303	5.58
508.652	5.59
509.002	5.75
509.352	5.62
509.701	5.78
510.051	5.51
510.4	5.5
510.75	5.71
511.099	5.45
511.449	5.65
511.798	5.67
512.147	5.62
512.496	5.59
512.846	5.73
513.195	5.68
513.544	5.81
513.893	5.71
514.242	5.69
514.591	5.71
514.939	5.7
515.288	5.6
515.637	5.73
515.986	5.67
516.334	5.67
516.683	5.82
517.032	5.92
517.38	5.85
517.729	5.83
518.077	5.94
518.426	5.9
518.774	5.86
519.122	5.81
519.47	5.86
519.819	5.79
520.167	5.88
520.515	5.81
520.863	5.77
521.211	5.71
521.559	5.86
521.907	5.91
522.255	5.87
522.602	5.93
522.95	5.83
523.298	5.98
523.645	6.04
523.993	5.99
524.341	6.02
524.688	6.04
525.036	6.09
525.383	5.89
525.73	6.16
526.078	6.02
526.425	6.07
526.772	6.14
527.119	5.97
527.466	6.04
527.814	5.94
528.161	5.91
528.508	6
528.854	6.05
529.201	6.02
529.548	6.01
529.895	5.95
530.242	5.93
530.588	5.82
530.935	5.74
531.282	5.79
531.628	5.87
531.975	5.91
532.321	5.91
532.667	6.06
533.014	6.11
533.36	6.18
533.706	6.19
534.052	6.27
534.399	6.24
534.745	6.2
535.091	6.1
535.437	6.08
535.783	5.99
536.129	6.11
536.474	6.22
536.82	6.11
537.166	6.42
537.512	6.41
537.857	6.33
538.203	6.41
538.549	6.28
538.894	6.31
539.239	6.29
539.585	6.36
539.93	6.47
540.276	6.46
540.621	6.55
540.966	6.54
541.311	6.58
541.656	6.49
542.001	6.54
542.346	6.64
542.691	6.62
543.036	6.41
543.381	6.34
543.726	6.34
544.071	6.35
544.415	6.38
544.76	6.42
545.105	6.44
545.449	6.49
545.794	6.62
546.138	6.59
546.483	6.74
546.827	6.64
547.171	6.8
547.516	6.86
547.86	6.84
548.204	6.78
548.548	6.81
548.892	6.82
549.236	6.73
549.58	6.72
549.924	6.78
550.268	6.97
550.612	7.03
550.956	6.95
551.3	7.02
551.643	6.92
551.987	7.14
552.33	7.33
552.674	7.11
553.017	7.01
553.361	6.99
553.704	7.15
554.048	7.34
554.391	7.2
554.734	7.09
555.077	7.06
555.42	7.07
555.764	7.18
556.107	7.26
556.45	7.18
556.793	7.27
557.135	7.39
557.478	7.3
557.821	7.52
558.164	7.48
558.507	7.59
558.849	7.32
559.192	7.55
559.534	7.71
559.877	7.36
560.219	7.42
560.562	7.49
560.904	7.5
561.246	7.9
561.589	7.63
561.931	7.54
562.273	7.48
562.615	7.68
562.957	7.58
563.299	7.69
563.641	7.72
563.983	7.8
564.325	7.78
564.667	7.81
565.008	7.81
565.35	7.9
565.692	7.74
566.033	7.79
566.375	7.81
566.716	7.65
567.058	7.84
567.399	7.99
567.741	8.01
568.082	7.8
568.423	7.86
568.764	7.99
569.105	7.81
569.447	7.79
569.788	7.74
570.129	8.12
570.47	8.23
570.811	7.96
571.151	8.07
571.492	7.98
571.833	7.9
572.174	8.17
572.514	8.07
572.855	8.02
573.195	8.06
573.536	8.04
573.876	8.05
574.217	8.1
574.557	8.13
574.898	8.19
575.238	8.2
575.578	8.16
575.918	8.26
576.258	8.11
576.598	8.4
576.938	8.27
577.278	8.39
577.618	8.14
577.958	8.38
578.298	8.53
578.638	8.33
578.977	8.6
579.317	8.54
579.657	8.5
579.996	8.47
580.336	8.55
580.675	8.77
581.014	8.51
581.354	8.53
581.693	8.64
582.032	8.65
582.372	9
582.711	8.71
583.05	8.76
583.389	8.9
583.728	8.76
584.067	8.82
584.406	8.81
584.745	8.75
585.083	9.05
585.422	8.82
585.761	8.72
586.1	8.96
586.438	9.09
586.777	8.96
587.115	9.08
587.454	8.92
587.792	9.27
588.13	9.29
588.469	9.47
588.807	9.17
589.145	9.22
589.483	9.09
589.821	9.02
590.159	9.28
590.497	9.5
590.835	9.3
591.173	9.06
591.511	9.41
591.849	9.37
592.187	9.18
592.524	9.37
592.862	9.47
593.2	9.29
593.537	9.24
593.875	9.39
594.212	9.43
594.55	9.58
594.887	9.34
595.224	9.66
595.561	9.76
595.899	9.78
596.236	9.95
596.573	9.68
596.91	9.6
597.247	9.57
597.584	9.73
597.921	9.81
598.258	9.82
598.594	9.55
598.931	9.7
599.268	9.65
599.604	9.83
599.941	9.66
600.277	9.7
600.614	9.93
600.95	9.68
601.287	9.85
601.623	9.98
601.959	10.18
602.296	10.23
602.632	10.02
602.968	10.08
603.304	10.18
603.64	9.87
603.976	10.25
604.312	10.19
604.648	10.17
604.984	9.99
605.319	10
605.655	9.93
605.991	10.16
606.326	10.41
606.662	10.09
606.998	10.03
607.333	10.08
607.668	10.01
608.004	10.32
608.339	10.19
608.674	10.49
609.01	10.34
609.345	10.49
609.68	10.61
610.015	10.55
610.35	10.47
610.685	10.76
611.02	10.5
611.355	10.55
611.689	10.4
612.024	10.67
612.359	10.43
612.694	10.54
613.028	10.65
613.363	10.67
613.697	10.71
614.032	10.86
614.366	10.79
614.7	10.74
615.035	10.91
615.369	10.64
615.703	10.5
616.037	10.93
616.371	11.12
616.705	11.14
617.039	11.33
617.373	11.06
617.707	10.95
618.041	11.19
618.375	10.81
618.709	11.21
619.042	11.2
619.376	11.24
619.71	11.43
620.043	11.02
620.377	11.25
620.71	11.52
621.043	11.28
621.377	11.22
621.71	11.37
622.043	11.44
622.376	11.51
622.709	11.49
623.043	11.26
623.376	11.51
623.709	11.93
624.041	11.5
624.374	11.51
624.707	11.67
625.04	11.74
625.373	11.47
625.705	11.86
626.038	12.16
626.37	11.66
626.703	11.62
627.035	12.07
627.368	11.64
627.7	12.25
628.032	11.88
628.365	11.8
628.697	11.54
629.029	11.84
629.361	11.87
629.693	11.76
630.025	11.83
630.357	11.59
630.689	11.67
631.021	11.8
631.353	12.08
631.684	11.93
632.016	12.18
632.348	12.09
632.679	12.1
633.011	11.87
633.342	12.44
633.674	12.11
634.005	11.95
634.336	12.48
634.668	11.96
634.999	12.04
635.33	12.32
635.661	12.26
635.992	12.32
636.323	12.11
636.654	12.61
636.985	12.12
637.316	12.34
637.647	12.48
637.977	12.15
638.308	12.77
638.639	12.42
638.969	13.01
639.3	12.7
639.63	12.99
639.961	12.38
640.291	12.39
640.622	12.93
640.952	12.72
641.282	12.4
641.612	12.46
641.943	12.95
642.273	12.89
642.603	12.58
642.933	12.83
643.263	12.46
643.592	13.08
643.922	13.11
644.252	12.81
644.582	13.04
644.911	13.07
645.241	13.09
645.571	13
645.9	13.58
646.23	13.22
646.559	12.9
646.888	13.38
647.218	13.18
647.547	13.12
647.876	13.35
648.205	13.45
648.534	13.44
648.863	13.39
649.192	12.63
649.521	13.44
649.85	13.48
650.179	13.97
650.508	13.38
650.837	13.96
651.165	13.13
651.494	13.6
651.822	13.71
652.151	13.61
652.479	13.86
652.808	13.48
653.136	13.9
653.465	13.84
653.793	13.82
654.121	13.73
654.449	13.14
654.777	13.75
655.105	14.12
655.433	13.9
655.761	14.12
656.089	13.9
656.417	13.78
656.745	13.39
657.073	14
657.4	14.2
657.728	13.93
658.056	13.92
658.383	14.24
658.711	13.89
659.038	14
659.365	14.02
659.693	14.21
660.02	14.5
660.347	14.09
660.674	13.87
661.001	13.89
661.329	13.84
661.656	14.35
661.982	13.61
662.309	14.24
662.636	14.11
662.963	14.07
663.29	14.5
663.616	14.05
663.943	14.63
664.27	14.23
664.596	14.58
664.923	14.6
665.249	14.34
665.576	14.11
665.902	14.81
666.228	14.01
666.554	14.15
666.881	15.43
667.207	14.86
667.533	14.7
667.859	14.98
668.185	15.11
668.511	14.78
668.837	14.8
669.162	14.83
669.488	14.7
669.814	15.04
670.139	15.17
670.465	15.5
670.791	14.99
671.116	14.83
671.442	14.99
671.767	14.55
672.092	14.93
672.418	16
672.743	15.5
673.068	15.05
673.393	14.8
673.718	15.6
674.043	15.75
674.368	14.96
674.693	14.86
675.018	14.99
675.343	15.8
675.667	15.75
675.992	15.73
676.317	15.49
676.641	15.41
676.966	15.42
677.29	15.49
677.615	15.29
677.939	15.71
678.264	15.41
678.588	15.49
678.912	15.75
679.236	15.45
679.56	15.61
679.885	15.89
680.209	16.41
680.532	15.04
680.856	15.31
681.18	15.31
681.504	15.72
681.828	15.39
682.152	15.41
682.475	16.66
682.799	15.83
683.122	15.83
683.446	15.9
683.769	16.31
684.093	16.32
684.416	15.72
684.739	16.14
685.062	16.69
685.386	16.14
685.709	15.57
686.032	15.8
686.355	16.36
686.678	15.95
687.001	16.22
687.324	16.39
