Data from 0158_forehead_Reflection__1__77.txt Node

Date: Fri Sep 22 20:54:57 CDT 2023
User: ToomeyLab
Spectrometer: FLMS14357
Trigger mode: 0
Integration Time (sec): 1.000000E-2
Scans to average: 100
Electric dark correction enabled: true
Nonlinearity correction enabled: false
Boxcar width: 0
XAxis mode: Wavelengths
Number of Pixels in Spectrum: 2048
>>>>>Begin Spectral Data<<<<<
189.047	231.63
189.435	231.63
189.823	231.63
190.211	-8.42
190.599	41.42
190.987	108.69
191.375	-257.14
191.763	-32.6
192.151	182.53
192.538	-185.82
192.926	182.78
193.314	87.67
193.702	228.64
194.089	120.01
194.477	41.24
194.864	141.22
195.252	170.15
195.639	209.03
196.027	6.4
196.414	69.5
196.801	5.78
197.189	151.36
197.576	904.25
197.963	-149.52
198.351	35.08
198.738	87.91
199.125	28.85
199.512	35.16
199.899	96.04
200.286	60.8
200.673	13.89
201.06	122.26
201.447	54.95
201.833	16.36
202.22	20.5
202.607	33.15
202.994	48.4
203.38	52.25
203.767	80.6
204.154	72.26
204.54	45.91
204.927	39.27
205.313	43.48
205.699	75.45
206.086	69.19
206.472	50.18
206.858	41.71
207.245	21.88
207.631	50.09
208.017	49.89
208.403	36.58
208.789	44.54
209.175	39.13
209.561	47.99
209.947	47.37
210.333	42.9
210.719	21.38
211.105	39.43
211.491	37.16
211.876	58.76
212.262	24.32
212.648	45.27
213.034	38.52
213.419	22.99
213.805	52.24
214.19	20.36
214.576	36.72
214.961	64.78
215.346	23.7
215.732	26.99
216.117	17.64
216.502	52.77
216.888	33.4
217.273	40.27
217.658	9.97
218.043	31.11
218.428	28.32
218.813	11.68
219.198	29.03
219.583	18.07
219.968	26.07
220.353	34.32
220.738	12.84
221.122	13.38
221.507	26.82
221.892	23.85
222.276	17.3
222.661	22.02
223.046	29.22
223.43	25.84
223.815	10.75
224.199	2.48
224.583	11.41
224.968	11.26
225.352	11.86
225.736	14.67
226.121	24.06
226.505	14.27
226.889	11.7
227.273	0.05
227.657	9.82
228.041	6.88
228.425	12.13
228.809	6.52
229.193	2.11
229.577	5.44
229.961	6.62
230.344	4.66
230.728	2.02
231.112	3.21
231.495	2.71
231.879	2.92
232.263	1.99
232.646	4.54
233.03	3.96
233.413	4.16
233.797	4.36
234.18	3.84
234.563	6.93
234.946	4.59
235.33	2.39
235.713	3.77
236.096	2.37
236.479	2.89
236.862	5.1
237.245	3.87
237.628	3.18
238.011	4.6
238.394	4.02
238.777	5.19
239.16	4.87
239.543	5.58
239.925	5.24
240.308	5.29
240.691	3.89
241.073	4.14
241.456	4.9
241.838	2.55
242.221	2.88
242.603	2.97
242.986	2.18
243.368	2.63
243.75	3.19
244.133	3.34
244.515	2.22
244.897	2.15
245.279	2.27
245.661	2.13
246.043	3.43
246.425	2.57
246.807	2.89
247.189	2.03
247.571	3.14
247.953	3.28
248.335	2.59
248.717	2.31
249.098	2.35
249.48	2.35
249.862	2.22
250.243	2.52
250.625	2.77
251.006	1.76
251.388	2.39
251.769	3.08
252.151	2.58
252.532	2.37
252.913	2.74
253.295	3.52
253.676	3.13
254.057	3.15
254.438	3.6
254.819	2.14
255.2	3.14
255.581	3.19
255.962	3.79
256.343	2.78
256.724	2.37
257.105	3.88
257.486	3.82
257.867	3.92
258.247	3.86
258.628	3.52
259.009	2.87
259.389	3.21
259.77	3.69
260.15	3.28
260.531	3.34
260.911	2.62
261.292	2.35
261.672	2.38
262.052	2.3
262.432	2.37
262.813	2.49
263.193	2.25
263.573	2.79
263.953	2.39
264.333	2.49
264.713	2.93
265.093	2.09
265.473	2.52
265.853	2.04
266.233	2.86
266.612	2.27
266.992	3.12
267.372	3.83
267.752	3.17
268.131	2.87
268.511	2.32
268.89	2.87
269.27	2.47
269.649	2.89
270.029	2.85
270.408	2.63
270.787	2.73
271.167	2.84
271.546	2.1
271.925	2.88
272.304	2.6
272.683	2.5
273.062	3.53
273.441	2.56
273.82	2.72
274.199	2.78
274.578	2.76
274.957	2.37
275.336	2.34
275.715	2.34
276.093	2.71
276.472	2.4
276.851	3
277.229	2.35
277.608	2.43
277.986	2.71
278.365	2.69
278.743	2.44
279.122	2.76
279.5	2.93
279.878	2.53
280.257	3.03
280.635	2.57
281.013	3.14
281.391	3.03
281.769	1.98
282.147	2.7
282.525	2.43
282.903	2.92
283.281	2.6
283.659	2.51
284.037	2.33
284.415	2.49
284.792	2.49
285.17	2.72
285.548	3.32
285.925	3.14
286.303	2.74
286.68	2.21
287.058	2.58
287.435	2.44
287.813	2.44
288.19	1.8
288.567	2.52
288.945	2.31
289.322	2.57
289.699	2.72
290.076	2.69
290.453	2.46
290.83	2.34
291.207	2.25
291.584	2.37
291.961	2.35
292.338	2.65
292.715	2.74
293.092	2.5
293.469	2.63
293.845	2.44
294.222	3.05
294.599	3
294.975	2.99
295.352	2.92
295.728	3.07
296.105	3.15
296.481	2.65
296.858	3.06
297.234	2.88
297.61	2.57
297.986	2.8
298.363	2.73
298.739	2.54
299.115	2.75
299.491	2.89
299.867	2.67
300.243	2.59
300.619	2.76
300.995	2.84
301.371	3.09
301.746	3.37
302.122	3.14
302.498	2.9
302.874	2.75
303.249	3.21
303.625	3.12
304	3.36
304.376	2.92
304.751	3.45
305.127	3.32
305.502	3.82
305.878	3.59
306.253	3.58
306.628	3.61
307.003	3.64
307.378	3.42
307.754	3.62
308.129	3.81
308.504	3.3
308.879	3.67
309.254	3.7
309.629	3.75
310.003	3.97
310.378	4.15
310.753	3.81
311.128	3.68
311.502	3.41
311.877	3.21
312.252	3.33
312.626	3.6
313.001	4.01
313.375	4.03
313.75	3.84
314.124	3.9
314.498	3.54
314.873	3.61
315.247	4.28
315.621	3.96
315.995	3.94
316.369	4.21
316.743	3.58
317.117	4.41
317.491	4.64
317.865	4.4
318.239	3.94
318.613	4.8
318.987	4.38
319.361	3.96
319.734	4.29
320.108	4.28
320.482	4.14
320.855	4.47
321.229	5.11
321.602	4.33
321.976	4.58
322.349	4.7
322.723	5.11
323.096	4.39
323.469	5.06
323.843	4.49
324.216	5.09
324.589	4.72
324.962	4.78
325.335	4.8
325.708	4.66
326.081	5.26
326.454	4.63
326.827	4.94
327.2	5.08
327.573	5.31
327.945	4.83
328.318	5.11
328.691	5.15
329.063	4.94
329.436	5.33
329.809	5.1
330.181	5.87
330.553	5.73
330.926	5.1
331.298	5.76
331.671	5.85
332.043	5.12
332.415	5.5
332.787	5.52
333.159	4.82
333.532	5.07
333.904	5.56
334.276	5.52
334.648	5.14
335.02	5.73
335.391	5.44
335.763	6.09
336.135	5.68
336.507	6.09
336.879	5.47
337.25	5.77
337.622	5.82
337.993	6.27
338.365	6.5
338.736	6.11
339.108	6.04
339.479	5.87
339.851	5.63
340.222	5.71
340.593	6.07
340.964	5.45
341.336	5.61
341.707	6.06
342.078	6.19
342.449	6.31
342.82	6.05
343.191	6.01
343.562	5.97
343.933	6.01
344.303	6.35
344.674	6.37
345.045	6.21
345.416	6.63
345.786	6.2
346.157	6.61
346.527	6.56
346.898	6.43
347.268	6.21
347.639	6.67
348.009	6.53
348.38	6.46
348.75	6.92
349.12	6.55
349.49	6.79
349.861	6.61
350.231	6.98
350.601	6.87
350.971	6.91
351.341	7
351.711	6.74
352.081	6.76
352.45	6.96
352.82	7.25
353.19	7.26
353.56	7.28
353.929	6.8
354.299	7.04
354.669	7.09
355.038	6.97
355.408	7.21
355.777	7.84
356.147	7.47
356.516	7.42
356.885	7.24
357.254	7.5
357.624	6.77
357.993	7.4
358.362	7.28
358.731	7.19
359.1	7.4
359.469	7.46
359.838	7.21
360.207	7.52
360.576	7.47
360.945	7.69
361.314	7.89
361.682	7.91
362.051	7.85
362.42	7.82
362.788	7.46
363.157	7.61
363.525	7.72
363.894	7.85
364.262	7.75
364.631	7.78
364.999	7.71
365.367	8.3
365.735	8.1
366.104	8.09
366.472	8.49
366.84	8.27
367.208	8.51
367.576	8.43
367.944	8.23
368.312	8.6
368.68	8.24
369.048	8.44
369.416	8.38
369.783	8.35
370.151	8.32
370.519	8.71
370.886	8.55
371.254	8.64
371.621	8.61
371.989	8.75
372.356	8.67
372.724	8.97
373.091	8.72
373.458	9
373.826	8.78
374.193	9
374.56	8.94
374.927	9.11
375.294	9.05
375.661	8.85
376.028	9.59
376.395	9.46
376.762	8.87
377.129	9.78
377.496	9.78
377.863	9.44
378.229	9.37
378.596	9.55
378.963	9.91
379.329	9.56
379.696	9.64
380.062	9.49
380.429	9.79
380.795	9.74
381.161	9.89
381.528	10.01
381.894	9.42
382.26	9.78
382.626	10.02
382.993	10.11
383.359	9.88
383.725	9.98
384.091	10.14
384.457	10.04
384.823	10.1
385.188	10.25
385.554	10.4
385.92	10.48
386.286	10.3
386.651	10.43
387.017	10.45
387.383	10.43
387.748	10.47
388.114	10.57
388.479	10.61
388.845	10.38
389.21	10.2
389.575	10.89
389.94	10.88
390.306	10.67
390.671	11.35
391.036	10.49
391.401	10.93
391.766	10.94
392.131	10.85
392.496	11.15
392.861	11.02
393.226	11.3
393.591	11.24
393.956	11.17
394.32	10.94
394.685	11.02
395.05	11.39
395.414	11.48
395.779	11.59
396.143	11.39
396.508	11.3
396.872	11.36
397.236	11.7
397.601	11.27
397.965	11.9
398.329	11.76
398.694	11.64
399.058	11.65
399.422	11.9
399.786	11.88
400.15	11.83
400.514	11.95
400.878	11.71
401.242	12.06
401.605	12.01
401.969	11.96
402.333	12.23
402.697	12.1
403.06	12.12
403.424	12.33
403.787	12.47
404.151	12.28
404.514	12.62
404.878	12.56
405.241	12.66
405.604	12.65
405.968	12.71
406.331	12.54
406.694	12.71
407.057	12.39
407.42	12.59
407.783	12.93
408.146	12.82
408.509	12.87
408.872	12.6
409.235	12.98
409.598	13.13
409.961	13.25
410.323	13.38
410.686	13.29
411.049	13.52
411.411	13.36
411.774	13.08
412.136	13.08
412.499	13.38
412.861	13.41
413.223	13.31
413.586	13.49
413.948	13.52
414.31	13.58
414.672	13.82
415.035	13.74
415.397	14.06
415.759	14.02
416.121	13.8
416.483	13.97
416.845	13.97
417.206	13.86
417.568	14.06
417.93	14.14
418.292	13.81
418.653	14.01
419.015	13.99
419.377	13.99
419.738	14.02
420.1	13.96
420.461	13.97
420.822	14.07
421.184	14.02
421.545	14.12
421.906	14.17
422.267	14.18
422.629	14.36
422.99	14.29
423.351	14.04
423.712	14.14
424.073	14.16
424.434	14.35
424.795	14.48
425.155	14.57
425.516	14.51
425.877	14.66
426.238	14.52
426.598	14.6
426.959	14.77
427.32	14.85
427.68	14.78
428.041	14.86
428.401	15.05
428.761	15.21
429.122	15.33
429.482	15.46
429.842	15.3
430.202	15.6
430.563	15.65
430.923	15.6
431.283	15.63
431.643	15.88
432.003	15.7
432.363	16
432.722	15.96
433.082	16.06
433.442	16.01
433.802	16.01
434.161	16.09
434.521	16.13
434.881	16.04
435.24	16.09
435.6	16
435.959	16.08
436.319	16.22
436.678	16.43
437.037	16.28
437.396	16.55
437.756	16.47
438.115	16.6
438.474	16.59
438.833	16.71
439.192	16.62
439.551	16.72
439.91	16.83
440.269	16.85
440.628	16.72
440.987	16.86
441.345	16.88
441.704	17.06
442.063	16.84
442.421	16.77
442.78	16.86
443.138	16.97
443.497	17.06
443.855	17.15
444.214	16.98
444.572	17.51
444.93	17.34
445.288	17.46
445.647	17.7
446.005	17.43
446.363	17.41
446.721	17.6
447.079	17.46
447.437	17.55
447.795	17.71
448.153	17.48
448.51	17.47
448.868	17.67
449.226	17.56
449.584	17.66
449.941	17.56
450.299	17.91
450.656	17.89
451.014	18.03
451.371	18.04
451.729	18.25
452.086	18.34
452.443	18.33
452.801	18.54
453.158	18.53
453.515	18.76
453.872	18.56
454.229	18.69
454.586	18.65
454.943	18.59
455.3	18.84
455.657	18.94
456.014	19.03
456.371	18.91
456.727	19.14
457.084	18.89
457.441	18.95
457.797	19.33
458.154	19.38
458.51	19.33
458.867	19.47
459.223	19.42
459.58	19.55
459.936	19.59
460.292	19.56
460.648	19.6
461.005	19.53
461.361	19.42
461.717	19.21
462.073	19.1
462.429	19
462.785	19.28
463.141	19.6
463.496	19.74
463.852	19.86
464.208	19.98
464.564	20.32
464.919	20.29
465.275	20.45
465.631	20.57
465.986	20.32
466.342	20.62
466.697	20.38
467.052	20.38
467.408	20.51
467.763	20.77
468.118	20.97
468.473	20.76
468.829	20.83
469.184	20.87
469.539	20.81
469.894	21.05
470.249	20.96
470.603	21.02
470.958	21.04
471.313	21.25
471.668	21.09
472.023	21.34
472.377	21.23
472.732	21.38
473.086	21.57
473.441	21.25
473.795	21.76
474.15	21.51
474.504	21.59
474.859	21.66
475.213	21.65
475.567	21.62
475.921	21.71
476.275	21.83
476.63	21.98
476.984	22.04
477.338	22.21
477.692	22.11
478.045	22.29
478.399	22.1
478.753	22
479.107	22.18
479.461	22.21
479.814	22.19
480.168	22.43
480.521	22.3
480.875	22.32
481.228	22.52
481.582	22.39
481.935	22.5
482.289	22.63
482.642	22.55
482.995	22.6
483.348	22.56
483.701	22.5
484.055	22.48
484.408	22.28
484.761	22.42
485.114	22.15
485.466	21.8
485.819	21.51
486.172	21.48
486.525	21.52
486.878	21.76
487.23	22.04
487.583	22.16
487.936	22.37
488.288	22.45
488.641	22.61
488.993	22.41
489.345	22.24
489.698	22.29
490.05	22.24
490.402	22.36
490.754	22.5
491.107	22.61
491.459	22.88
491.811	23.1
492.163	23.21
492.515	23.32
492.866	23.45
493.218	23.19
493.57	23.03
493.922	22.73
494.274	22.87
494.625	23.16
494.977	23.34
495.328	23.63
495.68	23.88
496.031	23.97
496.383	24.32
496.734	24.38
497.086	24.54
497.437	24.67
497.788	24.56
498.139	24.71
498.49	24.78
498.842	24.57
499.193	24.4
499.544	24.6
499.894	24.6
500.245	24.71
500.596	24.7
500.947	24.85
501.298	25.13
501.648	25.16
501.999	25.3
502.35	25.24
502.7	25.51
503.051	25.57
503.401	25.54
503.752	25.52
504.102	25.69
504.452	25.58
504.803	25.79
505.153	25.52
505.503	25.81
505.853	25.87
506.203	25.68
506.553	25.79
506.903	25.99
507.253	25.99
507.603	26.05
507.953	26.36
508.303	26.25
508.652	26.17
509.002	26.48
509.352	26.25
509.701	26.38
510.051	26.25
510.4	26.1
510.75	26.28
511.099	25.95
511.449	26.25
511.798	26.33
512.147	26.42
512.496	26.42
512.846	26.24
513.195	26.54
513.544	26.52
513.893	26.7
514.242	26.6
514.591	26.78
514.939	26.71
515.288	26.68
515.637	26.91
515.986	27.02
516.334	27.16
516.683	27.15
517.032	27.34
517.38	27.29
517.729	27.31
518.077	27.34
518.426	27.48
518.774	27.54
519.122	27.42
519.47	27.45
519.819	27.27
520.167	27.24
520.515	27.15
520.863	27.08
521.211	27
521.559	27.21
521.907	27.38
522.255	27.46
522.602	27.65
522.95	27.82
523.298	27.84
523.645	28.03
523.993	28.21
524.341	28.02
524.688	28.23
525.036	28.25
525.383	28.3
525.73	28.43
526.078	28.23
526.425	28.29
526.772	28.44
527.119	28.19
527.466	27.98
527.814	27.88
528.161	27.74
528.508	28.01
528.854	27.98
529.201	28.21
529.548	27.99
529.895	27.95
530.242	27.65
530.588	27.41
530.935	27.24
531.282	27.41
531.628	27.59
531.975	27.7
532.321	27.98
532.667	28.15
533.014	28.36
533.36	28.46
533.706	28.61
534.052	28.81
534.399	28.8
534.745	28.83
535.091	28.56
535.437	28.2
535.783	28.34
536.129	28.48
536.474	28.53
536.82	28.7
537.166	29.14
537.512	29.15
537.857	29.35
538.203	29.29
538.549	29.3
538.894	29.1
539.239	29.21
539.585	29.35
539.93	29.58
540.276	29.63
540.621	29.9
540.966	29.98
541.311	30.09
541.656	30.15
542.001	30.27
542.346	30.33
542.691	29.83
543.036	29.6
543.381	29.17
543.726	29.15
544.071	29.17
544.415	29.25
544.76	29.42
545.105	29.58
545.449	29.81
545.794	29.85
546.138	30
546.483	30.35
546.827	30.42
547.171	30.56
547.516	30.79
547.86	30.56
548.204	30.78
548.548	30.84
548.892	30.74
549.236	30.55
549.58	30.64
549.924	30.83
550.268	31.37
550.612	31.22
550.956	31.49
551.3	31.65
551.643	31.69
551.987	31.81
552.33	32.05
552.674	32.14
553.017	31.74
553.361	31.96
553.704	31.99
554.048	32.25
554.391	32.08
554.734	32.19
555.077	31.98
555.42	31.96
555.764	32.05
556.107	32.22
556.45	32.27
556.793	32.42
557.135	32.43
557.478	32.78
557.821	32.5
558.164	32.59
558.507	32.83
558.849	32.71
559.192	32.7
559.534	33.15
559.877	32.84
560.219	33.05
560.562	33.06
560.904	33.21
561.246	33.22
561.589	33.1
561.931	33.17
562.273	32.8
562.615	33
562.957	33.32
563.299	33.31
563.641	33.34
563.983	33.23
564.325	33.52
564.667	33.44
565.008	33.44
565.35	33.39
565.692	33.5
566.033	33.62
566.375	33.62
566.716	33.62
567.058	33.82
567.399	33.81
567.741	33.78
568.082	33.45
568.423	33.5
568.764	33.6
569.105	33.23
569.447	33.56
569.788	33.68
570.129	33.89
570.47	33.81
570.811	33.88
571.151	33.96
571.492	34.18
571.833	33.91
572.174	33.76
572.514	34.11
572.855	34.31
573.195	34.09
573.536	34.1
573.876	34.15
574.217	33.96
574.557	34.12
574.898	34.03
575.238	34.28
575.578	34.23
575.918	34.44
576.258	34.1
576.598	34.63
576.938	34.6
577.278	34.59
577.618	34.59
577.958	34.44
578.298	34.64
578.638	34.64
578.977	34.78
579.317	35.07
579.657	34.83
579.996	35.12
580.336	35.24
580.675	35.01
581.014	35.22
581.354	35.47
581.693	35.49
582.032	35.65
582.372	35.57
582.711	35.7
583.05	35.44
583.389	35.49
583.728	35.55
584.067	35.9
584.406	35.82
584.745	35.59
585.083	36.11
585.422	36.01
585.761	36.15
586.1	36.19
586.438	36.04
586.777	36.14
587.115	36.44
587.454	36.16
587.792	36.45
588.13	36.06
588.469	36.24
588.807	36.19
589.145	36.3
589.483	36.32
589.821	36.48
590.159	36.39
590.497	36.82
590.835	36.5
591.173	36.32
591.511	36.39
591.849	36.44
592.187	36.41
592.524	36.61
592.862	36.67
593.2	36.4
593.537	37.04
593.875	37.06
594.212	36.97
594.55	36.81
594.887	36.77
595.224	37.16
595.561	37.06
595.899	37.25
596.236	37.02
596.573	37.07
596.91	37.25
597.247	36.9
597.584	36.97
597.921	37.19
598.258	37.02
598.594	37.05
598.931	36.97
599.268	36.53
599.604	36.68
599.941	36.44
600.277	36.71
600.614	37.04
600.95	37.35
601.287	37.3
601.623	37.46
601.959	37.42
602.296	37.27
602.632	37.29
602.968	37.6
603.304	37.89
603.64	37.84
603.976	37.96
604.312	37.84
604.648	37.66
604.984	37.51
605.319	37.44
605.655	37.81
605.991	37.5
606.326	37.72
606.662	37.55
606.998	37.37
607.333	37.45
607.668	37.49
608.004	37.82
608.339	37.81
608.674	38.18
609.01	37.97
609.345	37.89
609.68	38.32
610.015	38.04
610.35	38.32
610.685	38.46
611.02	38.33
611.355	38.47
611.689	38.18
612.024	38.04
612.359	38.33
612.694	38.16
613.028	38.12
613.363	38.18
613.697	38.16
614.032	38.67
614.366	38.62
614.7	38.72
615.035	38.97
615.369	38.89
615.703	38.99
616.037	38.97
616.371	39.33
616.705	38.95
617.039	39.05
617.373	39.56
617.707	39.46
618.041	39.17
618.375	38.66
618.709	39.02
619.042	39.06
619.376	39.4
619.71	39.46
620.043	39.74
620.377	39.46
620.71	39.49
621.043	39.42
621.377	39.71
621.71	39.72
622.043	39.64
622.376	39.85
622.709	39.79
623.043	39.87
623.376	39.92
623.709	39.71
624.041	39.89
624.374	40.37
624.707	40.26
625.04	40.4
625.373	40.13
625.705	40.1
626.038	40.25
626.37	40.31
626.703	40.02
627.035	40.23
627.368	40.2
627.7	40
628.032	40.19
628.365	40.21
628.697	39.95
629.029	40.26
629.361	39.91
629.693	40.1
630.025	40.13
630.357	39.89
630.689	40.08
631.021	40.49
631.353	40.31
631.684	40.37
632.016	40.59
632.348	40.52
632.679	40.65
633.011	40.52
633.342	41.11
633.674	41.22
634.005	40.29
634.336	40.7
634.668	40.95
634.999	40.81
635.33	41.23
635.661	41
635.992	41.01
636.323	40.77
636.654	41.07
636.985	40.69
637.316	40.73
637.647	40.75
637.977	40.54
638.308	40.94
638.639	40.88
638.969	41.18
639.3	41.17
639.63	41.26
639.961	41.59
640.291	41.62
640.622	42.02
640.952	40.85
641.282	41.24
641.612	41.39
641.943	41.78
642.273	41.89
642.603	41.36
642.933	41.7
643.263	40.63
643.592	41.96
643.922	42.05
644.252	41.58
644.582	42.14
644.911	41.48
645.241	41.54
645.571	41.72
645.9	41.7
646.23	41.82
646.559	41.98
646.888	41.91
647.218	41.17
647.547	41.91
647.876	41.7
648.205	42.08
648.534	42.07
648.863	41.73
649.192	41.82
649.521	42.02
649.85	42.21
650.179	42.12
650.508	42.28
650.837	42.24
651.165	42.05
651.494	42.39
651.822	42.12
652.151	42.41
652.479	42.67
652.808	42.19
653.136	42.34
653.465	42.82
653.793	42.4
654.121	42.66
654.449	42.39
654.777	42.58
655.105	42.23
655.433	42.31
655.761	42.45
656.089	42.64
656.417	42.96
656.745	42.69
657.073	42.59
657.4	43.07
657.728	42.67
658.056	42.84
658.383	42.93
658.711	43.02
659.038	43.09
659.365	42.89
659.693	42.98
660.02	42.75
660.347	42.94
660.674	42.5
661.001	42.34
661.329	42.98
661.656	42.92
661.982	42.77
662.309	42.46
662.636	43.14
662.963	42.91
663.29	43.35
663.616	43.17
663.943	43.16
664.27	42.31
664.596	43.01
664.923	43.37
665.249	43.63
665.576	43.49
665.902	43.38
666.228	43.17
666.554	43.28
666.881	43.8
667.207	43.48
667.533	43.44
667.859	43.71
668.185	43.64
668.511	43.53
668.837	44.28
669.162	43.52
669.488	43.11
669.814	43.09
670.139	43.99
670.465	43.44
670.791	43.21
671.116	43.87
671.442	44.05
671.767	43.45
672.092	43.9
672.418	44.01
672.743	44.27
673.068	44.21
673.393	44.03
