Data from 0158_crown_Reflection__4__75.txt Node

Date: Fri Sep 22 20:54:15 CDT 2023
User: ToomeyLab
Spectrometer: FLMS14357
Trigger mode: 0
Integration Time (sec): 1.000000E-2
Scans to average: 100
Electric dark correction enabled: true
Nonlinearity correction enabled: false
Boxcar width: 0
XAxis mode: Wavelengths
Number of Pixels in Spectrum: 2048
>>>>>Begin Spectral Data<<<<<
189.047	-13.87
189.435	-13.87
189.823	-13.87
190.211	-502.2
190.599	46.43
190.987	19.11
191.375	-130.16
191.763	46.81
192.151	68.81
192.538	2401.42
192.926	115.03
193.314	188.07
193.702	-0.49
194.089	76.1
194.477	193.24
194.864	40.55
195.252	18.79
195.639	-37.04
196.027	108.76
196.414	-8.57
196.801	-2186.13
197.189	-21.87
197.576	503.86
197.963	400.52
198.351	14.94
198.738	32.59
199.125	-36.66
199.512	25.22
199.899	51.49
200.286	-12.03
200.673	36
201.06	32.38
201.447	67.59
201.833	-1.24
202.22	53.44
202.607	30.09
202.994	35.96
203.38	31.98
203.767	40.91
204.154	33.02
204.54	13.18
204.927	-10.86
205.313	18.17
205.699	44.16
206.086	57.85
206.472	43.31
206.858	58.52
207.245	-3.38
207.631	3.24
208.017	42.44
208.403	6.56
208.789	28.75
209.175	58.99
209.561	40.99
209.947	31.65
210.333	34.47
210.719	-5.48
211.105	49.47
211.491	7.01
211.876	33.63
212.262	13.31
212.648	32.37
213.034	25.82
213.419	31.27
213.805	-7.85
214.19	10.46
214.576	40.7
214.961	29.05
215.346	-18.27
215.732	27.94
216.117	3.06
216.502	44.35
216.888	15.13
217.273	17.07
217.658	-0.41
218.043	27.45
218.428	33.71
218.813	-15.36
219.198	-0.42
219.583	27
219.968	-3.68
220.353	26.67
220.738	22.67
221.122	2.3
221.507	3.25
221.892	3.86
222.276	5.86
222.661	-24.87
223.046	14.75
223.43	23.06
223.815	7.04
224.199	5.4
224.583	13.29
224.968	16.74
225.352	9.2
225.736	15.71
226.121	15.39
226.505	17.65
226.889	13.6
227.273	6.25
227.657	12.71
228.041	10.21
228.425	18.56
228.809	10.84
229.193	13.26
229.577	11.89
229.961	9.71
230.344	10
230.728	9.27
231.112	10.34
231.495	9.49
231.879	9.69
232.263	9.16
232.646	9.62
233.03	9.06
233.413	9.68
233.797	9.52
234.18	8.4
234.563	11.16
234.946	8.6
235.33	8.77
235.713	8.12
236.096	9.19
236.479	9.44
236.862	10.86
237.245	9.64
237.628	11.33
238.011	10.48
238.394	10.97
238.777	10.41
239.16	9.94
239.543	10.68
239.925	10.82
240.308	9.32
240.691	9.98
241.073	11.27
241.456	10.23
241.838	8.87
242.221	8.75
242.603	8.7
242.986	7.97
243.368	8.4
243.75	8.79
244.133	9.77
244.515	8.32
244.897	8.47
245.279	8.37
245.661	8.21
246.043	9.05
246.425	8.1
246.807	9.26
247.189	6.7
247.571	8.53
247.953	8.18
248.335	8.48
248.717	8.01
249.098	8.1
249.48	7.73
249.862	7.79
250.243	7.73
250.625	8.06
251.006	7.62
251.388	8.14
251.769	8.19
252.151	8.19
252.532	8.03
252.913	8.1
253.295	8.57
253.676	6.91
254.057	7.75
254.438	8.18
254.819	7.32
255.2	7.34
255.581	7.7
255.962	8.21
256.343	7.09
256.724	5.88
257.105	8.32
257.486	7.47
257.867	7.25
258.247	6.98
258.628	8.13
259.009	7.06
259.389	7.03
259.77	7.92
260.15	8.02
260.531	6.89
260.911	6.64
261.292	7.08
261.672	6.79
262.052	7.2
262.432	6.98
262.813	6.92
263.193	6.75
263.573	7.49
263.953	7.22
264.333	7.03
264.713	7.05
265.093	6.79
265.473	6.59
265.853	6.45
266.233	6.9
266.612	6.94
266.992	6.79
267.372	6.69
267.752	7
268.131	6.62
268.511	6.26
268.89	6.99
269.27	6.34
269.649	6.73
270.029	6.69
270.408	6.64
270.787	6.66
271.167	6.68
271.546	6.45
271.925	6
272.304	6.39
272.683	6.52
273.062	6.68
273.441	6.61
273.82	6.89
274.199	6.43
274.578	6.63
274.957	6.22
275.336	6.3
275.715	6.34
276.093	6.41
276.472	5.86
276.851	6.57
277.229	6.53
277.608	6.68
277.986	6.11
278.365	6.78
278.743	6.43
279.122	6.47
279.5	6.74
279.878	5.77
280.257	6.9
280.635	6.21
281.013	6.72
281.391	5.48
281.769	6.19
282.147	6.77
282.525	6.24
282.903	6.38
283.281	6.76
283.659	6.37
284.037	5.76
284.415	6.3
284.792	6.58
285.17	6.02
285.548	6.63
285.925	6.18
286.303	6.02
286.68	5.8
287.058	5.91
287.435	6.01
287.813	6.04
288.19	5.68
288.567	6.16
288.945	5.93
289.322	6.01
289.699	5.95
290.076	6.17
290.453	5.95
290.83	5.76
291.207	5.92
291.584	6.2
291.961	6.03
292.338	6.13
292.715	6.29
293.092	5.88
293.469	6.31
293.845	6.13
294.222	6.17
294.599	6.89
294.975	6.53
295.352	6.49
295.728	6.06
296.105	6.14
296.481	6.06
296.858	6.33
297.234	6.11
297.61	6.48
297.986	6.2
298.363	5.91
298.739	6.14
299.115	6.07
299.491	6.19
299.867	6.17
300.243	5.64
300.619	6.05
300.995	5.84
301.371	5.86
301.746	6.07
302.122	6.03
302.498	5.74
302.874	5.71
303.249	5.77
303.625	6.12
304	6.15
304.376	6.02
304.751	5.75
305.127	6.05
305.502	6.1
305.878	5.46
306.253	6.68
306.628	5.79
307.003	5.93
307.378	6.04
307.754	6.29
308.129	6.01
308.504	6.1
308.879	6.12
309.254	5.62
309.629	5.92
310.003	6.23
310.378	6.48
310.753	6.2
311.128	6.36
311.502	6.12
311.877	5.72
312.252	5.93
312.626	6.22
313.001	6.37
313.375	6.05
313.75	6.39
314.124	6.6
314.498	5.95
314.873	5.82
315.247	6.17
315.621	6.72
315.995	6.02
316.369	6.47
316.743	6.41
317.117	6.58
317.491	6.36
317.865	5.34
318.239	6.21
318.613	6.67
318.987	6.26
319.361	5.87
319.734	5.96
320.108	6.74
320.482	6.29
320.855	6.3
321.229	6.8
321.602	6.7
321.976	6.5
322.349	5.56
322.723	6.84
323.096	6.17
323.469	6.14
323.843	5.74
324.216	6.4
324.589	6.61
324.962	5.89
325.335	6.47
325.708	6.08
326.081	6.45
326.454	5.87
326.827	6.51
327.2	6.3
327.573	6.58
327.945	6.34
328.318	5.98
328.691	6.41
329.063	5.98
329.436	6.03
329.809	6.71
330.181	6.49
330.553	6.34
330.926	6.08
331.298	6.77
331.671	6.65
332.043	6.03
332.415	6.26
332.787	6.55
333.159	6.3
333.532	6.14
333.904	6.25
334.276	5.86
334.648	6.06
335.02	6.35
335.391	6.4
335.763	6.57
336.135	6.37
336.507	6.63
336.879	6.17
337.25	6.35
337.622	6.97
337.993	6.34
338.365	6.26
338.736	6.7
339.108	6.54
339.479	6.15
339.851	5.93
340.222	6.39
340.593	6.45
340.964	6.28
341.336	6.64
341.707	5.97
342.078	6.49
342.449	6.54
342.82	6.22
343.191	6.02
343.562	6.42
343.933	6.52
344.303	6.5
344.674	6.99
345.045	6.45
345.416	7.01
345.786	6.18
346.157	6.6
346.527	6.55
346.898	6.25
347.268	6.34
347.639	6.5
348.009	6.26
348.38	6.44
348.75	6.83
349.12	6.33
349.49	6.82
349.861	6.47
350.231	6.38
350.601	6.29
350.971	6.77
351.341	6.52
351.711	6.6
352.081	6.47
352.45	6.75
352.82	6.64
353.19	7
353.56	6.54
353.929	6.6
354.299	6.88
354.669	6.83
355.038	6.28
355.408	6.86
355.777	7.11
356.147	6.62
356.516	6.95
356.885	6.64
357.254	6.97
357.624	6.42
357.993	6.85
358.362	6.54
358.731	6.64
359.1	6.57
359.469	6.78
359.838	6.09
360.207	6.43
360.576	6.75
360.945	6.81
361.314	6.94
361.682	6.8
362.051	6.77
362.42	6.6
362.788	6.63
363.157	6.95
363.525	6.65
363.894	6.68
364.262	6.72
364.631	6.69
364.999	6.5
365.367	7.11
365.735	6.83
366.104	6.84
366.472	6.96
366.84	6.87
367.208	7
367.576	6.84
367.944	6.73
368.312	7.05
368.68	7.18
369.048	7.12
369.416	6.97
369.783	6.86
370.151	6.87
370.519	6.96
370.886	6.85
371.254	6.91
371.621	6.73
371.989	6.79
372.356	7.22
372.724	6.95
373.091	6.95
373.458	6.82
373.826	7.2
374.193	7.3
374.56	7.01
374.927	7.22
375.294	7.26
375.661	6.88
376.028	7.34
376.395	6.99
376.762	6.72
377.129	7.31
377.496	7.52
377.863	7.38
378.229	6.99
378.596	7.18
378.963	7.42
379.329	7.08
379.696	7.33
380.062	6.95
380.429	7.01
380.795	7.14
381.161	6.97
381.528	7.14
381.894	6.93
382.26	6.83
382.626	7.05
382.993	7.35
383.359	6.78
383.725	6.75
384.091	7.02
384.457	7.25
384.823	6.87
385.188	7.28
385.554	7.07
385.92	7.27
386.286	7.38
386.651	7.23
387.017	7.07
387.383	7.23
387.748	7.16
388.114	7.28
388.479	7.27
388.845	7.15
389.21	6.8
389.575	7.38
389.94	7
390.306	7.34
390.671	7.53
391.036	7.04
391.401	7.05
391.766	7.19
392.131	7.11
392.496	7.33
392.861	7.24
393.226	7.42
393.591	7.3
393.956	7.27
394.32	7.1
394.685	7.11
395.05	7.25
395.414	7.3
395.779	7.38
396.143	7.11
396.508	7.17
396.872	7.4
397.236	7.17
397.601	7.31
397.965	7.48
398.329	7.3
398.694	7.21
399.058	7.36
399.422	7.18
399.786	7.34
400.15	7.4
400.514	7.1
400.878	7.5
401.242	7.54
401.605	7.13
401.969	7.31
402.333	7.33
402.697	7.09
403.06	7.25
403.424	7.34
403.787	7.5
404.151	7.23
404.514	7.55
404.878	7.19
405.241	7.61
405.604	7.49
405.968	7.52
406.331	7.28
406.694	7.28
407.057	7.13
407.42	7.56
407.783	7.39
408.146	7.32
408.509	7.33
408.872	7.35
409.235	7.12
409.598	7.16
409.961	7.45
410.323	7.29
410.686	7.36
411.049	7.57
411.411	7.41
411.774	7.32
412.136	7.41
412.499	7.3
412.861	7.41
413.223	7.32
413.586	7.45
413.948	7.4
414.31	7.29
414.672	7.33
415.035	7.55
415.397	7.65
415.759	7.79
416.121	7.37
416.483	7.27
416.845	7.32
417.206	7.43
417.568	7.13
417.93	7.34
418.292	7.54
418.653	7.33
419.015	7.43
419.377	7.27
419.738	7.49
420.1	7.35
420.461	7.33
420.822	7.32
421.184	7.31
421.545	7.34
421.906	7.31
422.267	7.12
422.629	7.36
422.99	7.3
423.351	7.17
423.712	7.17
424.073	7.27
424.434	7.3
424.795	7.29
425.155	7.34
425.516	7.2
425.877	7.27
426.238	6.99
426.598	7.33
426.959	7.28
427.32	7.21
427.68	7.23
428.041	7.2
428.401	7.44
428.761	7.51
429.122	7.36
429.482	7.47
429.842	7.28
430.202	7.42
430.563	7.63
430.923	7.65
431.283	7.41
431.643	7.41
432.003	7.43
432.363	7.71
432.722	7.71
433.082	7.6
433.442	7.43
433.802	7.68
434.161	7.58
434.521	7.42
434.881	7.4
435.24	7.25
435.6	7.23
435.959	7.23
436.319	7.3
436.678	7.36
437.037	7.36
437.396	7.35
437.756	7.44
438.115	7.43
438.474	7.39
438.833	7.54
439.192	7.58
439.551	7.48
439.91	7.52
440.269	7.43
440.628	7.26
440.987	7.43
441.345	7.42
441.704	7.53
442.063	7.45
442.421	7.33
442.78	7.34
443.138	7.38
443.497	7.28
443.855	7.35
444.214	7.32
444.572	7.55
444.93	7.45
445.288	7.43
445.647	7.33
446.005	7.41
446.363	7.4
446.721	7.63
447.079	7.22
447.437	7.44
447.795	7.43
448.153	7.29
448.51	7.31
448.868	7.31
449.226	7.41
449.584	7.25
449.941	7.19
450.299	7.39
450.656	7.34
451.014	7.49
451.371	7.5
451.729	7.38
452.086	7.34
452.443	7.5
452.801	7.36
453.158	7.38
453.515	7.45
453.872	7.49
454.229	7.51
454.586	7.48
454.943	7.38
455.3	7.43
455.657	7.43
456.014	7.43
456.371	7.39
456.727	7.6
457.084	7.51
457.441	7.44
457.797	7.35
458.154	7.59
458.51	7.6
458.867	7.38
459.223	7.38
459.58	7.38
459.936	7.63
460.292	7.53
460.648	7.63
461.005	7.4
461.361	7.55
461.717	7.24
462.073	7.32
462.429	7.26
462.785	7.2
463.141	7.22
463.496	7.4
463.852	7.46
464.208	7.44
464.564	7.57
464.919	7.44
465.275	7.6
465.631	7.54
465.986	7.53
466.342	7.51
466.697	7.4
467.052	7.45
467.408	7.45
467.763	7.28
468.118	7.61
468.473	7.47
468.829	7.32
469.184	7.48
469.539	7.46
469.894	7.41
470.249	7.31
470.603	7.3
470.958	7.38
471.313	7.46
471.668	7.45
472.023	7.43
472.377	7.55
472.732	7.32
473.086	7.61
473.441	7.03
473.795	7.46
474.15	7.46
474.504	7.46
474.859	7.5
475.213	7.21
475.567	7.35
475.921	7.35
476.275	7.46
476.63	7.45
476.984	7.34
477.338	7.56
477.692	7.34
478.045	7.47
478.399	7.33
478.753	7.33
479.107	7.25
479.461	7.31
479.814	7.45
480.168	7.49
480.521	7.4
480.875	7.44
481.228	7.42
481.582	7.14
481.935	7.48
482.289	7.29
482.642	7.35
482.995	7.31
483.348	7.22
483.701	7.17
484.055	7.25
484.408	7.18
484.761	7.22
485.114	7.1
485.466	6.98
485.819	6.91
486.172	6.85
486.525	6.83
486.878	6.8
487.23	6.87
487.583	6.9
487.936	6.97
488.288	7.02
488.641	7.03
488.993	6.95
489.345	6.96
489.698	6.95
490.05	6.9
490.402	6.92
490.754	6.88
491.107	6.89
491.459	6.98
491.811	7
492.163	6.99
492.515	7.08
492.866	7.03
493.218	6.98
493.57	7.03
493.922	6.91
494.274	6.89
494.625	6.89
494.977	6.94
495.328	7.04
495.68	7.06
496.031	7.13
496.383	7.2
496.734	7.19
497.086	7.08
497.437	7.2
497.788	7.05
498.139	6.91
498.49	7.25
498.842	7.03
499.193	7.03
499.544	7.18
499.894	7.06
500.245	7.11
500.596	7.11
500.947	7.15
501.298	7.09
501.648	7.1
501.999	7.2
502.35	7.14
502.7	7.16
503.051	7.03
503.401	7.14
503.752	6.99
504.102	7
504.452	7.04
504.803	7.18
505.153	7.05
505.503	6.98
505.853	7.06
506.203	7.01
506.553	6.99
506.903	7.03
507.253	6.97
507.603	7.04
507.953	7.14
508.303	7.13
508.652	7.02
509.002	7.11
509.352	6.99
509.701	7.13
510.051	7.04
510.4	7
510.75	7.03
511.099	6.8
511.449	6.9
511.798	6.99
512.147	6.9
512.496	6.89
512.846	6.9
513.195	6.9
513.544	6.96
513.893	6.97
514.242	6.8
514.591	6.96
514.939	6.89
515.288	6.79
515.637	6.99
515.986	6.94
516.334	6.86
516.683	6.9
517.032	7
517.38	6.83
517.729	6.76
518.077	6.98
518.426	6.95
518.774	6.82
519.122	6.88
519.47	6.8
519.819	6.72
520.167	6.92
520.515	6.8
520.863	6.71
521.211	6.63
521.559	6.73
521.907	6.81
522.255	6.68
522.602	6.81
522.95	6.73
523.298	6.79
523.645	6.8
523.993	6.85
524.341	6.71
524.688	6.85
525.036	6.74
525.383	6.85
525.73	6.88
526.078	6.87
526.425	6.64
526.772	6.74
527.119	6.62
527.466	6.57
527.814	6.51
528.161	6.61
528.508	6.63
528.854	6.65
529.201	6.63
529.548	6.64
529.895	6.53
530.242	6.57
530.588	6.45
530.935	6.39
531.282	6.37
531.628	6.38
531.975	6.35
532.321	6.39
532.667	6.52
533.014	6.55
533.36	6.5
533.706	6.55
534.052	6.63
534.399	6.55
534.745	6.53
535.091	6.51
535.437	6.47
535.783	6.39
536.129	6.46
536.474	6.46
536.82	6.36
537.166	6.47
537.512	6.55
537.857	6.47
538.203	6.59
538.549	6.53
538.894	6.4
539.239	6.56
539.585	6.49
539.93	6.55
540.276	6.49
540.621	6.51
540.966	6.51
541.311	6.58
541.656	6.52
542.001	6.54
542.346	6.57
542.691	6.58
543.036	6.5
543.381	6.39
543.726	6.29
544.071	6.3
544.415	6.28
544.76	6.27
545.105	6.28
545.449	6.31
545.794	6.44
546.138	6.43
546.483	6.48
546.827	6.43
547.171	6.34
547.516	6.53
547.86	6.5
548.204	6.47
548.548	6.51
548.892	6.41
549.236	6.37
549.58	6.38
549.924	6.4
550.268	6.56
550.612	6.49
550.956	6.5
551.3	6.47
551.643	6.6
551.987	6.48
552.33	6.72
552.674	6.62
553.017	6.33
553.361	6.4
553.704	6.57
554.048	6.37
554.391	6.49
554.734	6.66
555.077	6.4
555.42	6.52
555.764	6.46
556.107	6.3
556.45	6.52
556.793	6.34
557.135	6.44
557.478	6.28
557.821	6.46
558.164	6.6
558.507	6.68
558.849	6.39
559.192	6.63
559.534	6.3
559.877	6.52
560.219	6.43
560.562	6.46
560.904	6.45
561.246	6.47
561.589	6.55
561.931	6.26
562.273	6.18
562.615	6.55
562.957	6.55
563.299	6.42
563.641	6.44
563.983	6.46
564.325	6.39
564.667	6.37
565.008	6.19
565.35	6.37
565.692	6.26
566.033	6.44
566.375	6.29
566.716	6.39
567.058	6.48
567.399	6.28
567.741	6.54
568.082	6.18
568.423	6.33
568.764	6.38
569.105	6.36
569.447	6.34
569.788	6.17
570.129	6.34
570.47	6.42
570.811	6.4
571.151	6.45
571.492	6.24
571.833	6
572.174	6.34
572.514	6.35
572.855	6.25
573.195	6.16
573.536	6.28
573.876	6.23
574.217	6.17
574.557	6.2
574.898	6.32
575.238	6.25
575.578	6.25
575.918	6.27
576.258	6.08
576.598	6.2
576.938	6.44
577.278	6.3
577.618	6.09
577.958	6.31
578.298	6.37
578.638	6.11
578.977	6.3
579.317	6.12
579.657	6.11
579.996	6.21
580.336	6.39
580.675	6.3
581.014	6.18
581.354	6.13
581.693	6.22
582.032	6.15
582.372	6.33
582.711	6.35
583.05	6.06
583.389	6.09
583.728	6.25
584.067	6.3
584.406	6.28
584.745	6.07
585.083	6.49
585.422	6.42
585.761	6.3
586.1	6.26
586.438	6.15
586.777	6.02
587.115	6.35
587.454	6.08
587.792	6.37
588.13	6.39
588.469	6.23
588.807	6.44
589.145	6.51
589.483	6.36
589.821	6.22
590.159	6.18
590.497	6.18
590.835	6.4
591.173	6.14
591.511	6.21
591.849	6.42
592.187	6.03
592.524	6.24
592.862	6.27
593.2	6.21
593.537	6.1
593.875	5.86
594.212	6.08
594.55	6.21
594.887	6.29
595.224	6.25
595.561	6.28
595.899	6.35
596.236	6.49
596.573	6.44
596.91	6.12
597.247	6.04
597.584	6.45
597.921	6.29
598.258	6.26
598.594	6.2
598.931	6.05
599.268	6.22
599.604	6.35
599.941	6.26
600.277	5.94
600.614	6
600.95	6.38
601.287	6.3
601.623	6.24
601.959	6.26
602.296	6.33
602.632	6.1
602.968	6.05
603.304	6.29
603.64	6.18
603.976	6.25
604.312	6.19
604.648	6
604.984	6.24
605.319	6.28
605.655	5.98
605.991	5.95
606.326	6.16
606.662	6.1
606.998	5.91
607.333	6.05
607.668	6.11
608.004	6.19
608.339	6
608.674	6.14
609.01	6.06
609.345	5.91
609.68	6.15
610.015	6.15
610.35	5.98
610.685	6.32
611.02	6.29
611.355	6.34
611.689	5.96
612.024	6.07
612.359	6.01
612.694	6.08
613.028	6.01
613.363	6.04
613.697	6.08
614.032	6.17
614.366	6.09
614.7	5.98
615.035	6.05
615.369	6.22
615.703	6.03
616.037	6.09
616.371	6.36
616.705	6.33
617.039	6.1
617.373	6.18
617.707	6.27
618.041	6.39
618.375	6.24
618.709	6.1
619.042	6.22
619.376	6.39
619.71	6.27
620.043	6.07
620.377	5.91
620.71	5.94
621.043	6.38
621.377	6.03
621.71	6.11
622.043	5.81
622.376	6.51
622.709	6.31
623.043	6.26
623.376	5.99
623.709	6.16
624.041	6.07
624.374	6.13
624.707	6.55
625.04	6.53
625.373	6.17
625.705	6.14
626.038	6.11
626.37	6.28
626.703	6.17
627.035	6.18
627.368	6.23
627.7	6.43
628.032	6.52
628.365	6
628.697	6.36
629.029	6.21
629.361	6.08
629.693	6.26
630.025	6.16
630.357	6.07
630.689	6.2
631.021	5.9
631.353	6.08
631.684	6.05
632.016	6.44
632.348	6.24
632.679	6.13
633.011	5.9
633.342	6.5
633.674	6.61
634.005	6.02
634.336	6.23
634.668	6.47
634.999	6.2
635.33	6.61
635.661	6.37
635.992	5.93
636.323	6.13
636.654	5.95
636.985	5.82
637.316	5.84
637.647	6.08
637.977	5.79
638.308	6.24
638.639	6.17
638.969	6.32
639.3	6.3
639.63	6.48
639.961	5.93
640.291	5.83
640.622	6.66
640.952	6.5
641.282	6.31
641.612	6.4
641.943	6.4
642.273	6.47
642.603	5.69
642.933	6.45
643.263	5.39
643.592	6.34
643.922	6.25
644.252	6.39
644.582	6.15
644.911	6.04
645.241	6.5
645.571	6.27
645.9	6.28
646.23	6.68
646.559	6.36
646.888	6.42
647.218	6.33
647.547	6.1
647.876	6.16
648.205	6.44
648.534	6.95
648.863	6.22
649.192	5.51
649.521	6.42
649.85	6.09
650.179	6.34
650.508	6.21
650.837	6.33
651.165	6.05
651.494	5.96
651.822	5.73
652.151	5.82
652.479	6.26
652.808	6.3
653.136	6.7
653.465	6.34
653.793	6.02
654.121	6.38
654.449	6.26
654.777	6.23
655.105	6.48
655.433	6.08
655.761	6.78
656.089	6.07
656.417	6.18
656.745	6.3
657.073	6.62
657.4	6.83
657.728	6.51
658.056	6.22
658.383	6.62
658.711	6.19
659.038	5.74
659.365	6.01
659.693	5.87
660.02	6.12
660.347	6.45
660.674	5.9
661.001	6.14
661.329	6.24
661.656	6.59
661.982	6.16
662.309	6.65
662.636	6.04
662.963	6.33
663.29	6.29
663.616	6.36
663.943	6.63
664.27	6.49
664.596	6.14
664.923	5.96
665.249	6.31
665.576	5.95
665.902	6.13
666.228	6.69
666.554	6.2
666.881	6.44
667.207	6.83
667.533	6.2
667.859	6.57
668.185	7.01
668.511	6.8
668.837	6.62
669.162	7.07
669.488	6.28
669.814	6.16
670.139	6.08
670.465	6.44
670.791	6.46
671.116	6.53
671.442	6.43
671.767	6.21
672.092	7
672.418	7.13
672.743	6.04
673.068	6.61
673.393	6.11
673.718	6.85
674.043	6.96
674.368	6.75
674.693	6.18
675.018	6.22
675.343	6.57
675.667	6.7
675.992	6.51
676.317	6.33
676.641	6.67
676.966	6.69
677.29	5.77
677.615	6.67
677.939	7.22
678.264	6.34
678.588	6.69
678.912	7.09
679.236	7.02
679.56	6.8
679.885	6.52
680.209	6.9
680.532	6.08
680.856	6.02
681.18	6.9
681.504	6.69
681.828	6.77
682.152	6.17
682.475	7.17
682.799	6.79
683.122	6.4
683.446	6.66
683.769	6.39
684.093	7.24
684.416	6.88
684.739	6.98
685.062	7.02
685.386	6.91
685.709	6.85
686.032	6.55
686.355	6.26
686.678	6.65
687.001	6.67
687.324	6.7
687.646	7.06
687.969	7.04
688.292	6.51
688.614	7.05
688.937	6.63
689.26	6.71
689.582	6.81
689.904	6.89
690.227	7.64
690.549	6.86
690.871	6.7
691.194	6.86
691.516	6.55
691.838	7
692.16	6.92
692.482	6.88
692.804	6.71
693.126	6.33
693.448	6.43
