Data from 0158_crown_Reflection__3__74.txt Node

Date: Fri Sep 22 20:54:05 CDT 2023
User: ToomeyLab
Spectrometer: FLMS14357
Trigger mode: 0
Integration Time (sec): 1.000000E-2
Scans to average: 100
Electric dark correction enabled: true
Nonlinearity correction enabled: false
Boxcar width: 0
XAxis mode: Wavelengths
Number of Pixels in Spectrum: 2048
>>>>>Begin Spectral Data<<<<<
189.047	135.46
189.435	135.46
189.823	135.46
190.211	-388.58
190.599	344.86
190.987	18.44
191.375	-1242.86
191.763	-5.73
192.151	45.17
192.538	-202.13
192.926	55.58
193.314	50.11
193.702	742.31
194.089	80.04
194.477	-45.95
194.864	105.01
195.252	111.06
195.639	95.27
196.027	167.78
196.414	-169.72
196.801	-1330.06
197.189	57.87
197.576	102.57
197.963	-439.77
198.351	32.51
198.738	75.67
199.125	32.81
199.512	5.97
199.899	73.1
200.286	16.29
200.673	-11.71
201.06	6.79
201.447	63.64
201.833	-9.77
202.22	44.52
202.607	40.33
202.994	40.7
203.38	26.21
203.767	17.24
204.154	42.9
204.54	14.08
204.927	30.42
205.313	11.34
205.699	40.95
206.086	45.22
206.472	35.56
206.858	26.53
207.245	-4.51
207.631	45.87
208.017	19.39
208.403	30.51
208.789	73.51
209.175	30.29
209.561	38.08
209.947	62.66
210.333	63.02
210.719	7.86
211.105	56.4
211.491	15.43
211.876	54.56
212.262	37.97
212.648	37.97
213.034	29.9
213.419	37.09
213.805	43.16
214.19	12.65
214.576	31.1
214.961	43.99
215.346	17.48
215.732	20.23
216.117	25.86
216.502	42.05
216.888	27.39
217.273	44.94
217.658	9.85
218.043	19.2
218.428	37.78
218.813	-23.99
219.198	16.17
219.583	17.09
219.968	16.08
220.353	40.79
220.738	26.69
221.122	7.68
221.507	8.09
221.892	10.34
222.276	3.69
222.661	-18.94
223.046	18.83
223.43	31.37
223.815	11.33
224.199	9.12
224.583	10.91
224.968	17.94
225.352	6.25
225.736	15.72
226.121	5.28
226.505	7.94
226.889	4.93
227.273	5.97
227.657	9.3
228.041	6.71
228.425	12.37
228.809	8.57
229.193	10.48
229.577	6.44
229.961	7.84
230.344	9.68
230.728	5.13
231.112	6.75
231.495	5.96
231.879	5.51
232.263	6.47
232.646	6.45
233.03	5.59
233.413	5.85
233.797	7.17
234.18	6.54
234.563	9.24
234.946	8.42
235.33	4.97
235.713	5.32
236.096	6.49
236.479	6.2
236.862	8.53
237.245	6.08
237.628	6.46
238.011	7.17
238.394	6.58
238.777	7.44
239.16	6.42
239.543	6.57
239.925	6.75
240.308	8.78
240.691	7.34
241.073	7.39
241.456	6.53
241.838	6.21
242.221	5.99
242.603	6.17
242.986	5.23
243.368	5.86
243.75	5.85
244.133	5.92
244.515	6.22
244.897	5.45
245.279	5.83
245.661	5.71
246.043	5.25
246.425	6.17
246.807	5.31
247.189	4.99
247.571	6.32
247.953	5.94
248.335	6.01
248.717	5.85
249.098	5.61
249.48	5.5
249.862	5.59
250.243	5.33
250.625	5.66
251.006	5.14
251.388	6.26
251.769	6.01
252.151	5.67
252.532	5.49
252.913	6.44
253.295	7.29
253.676	5.76
254.057	5.49
254.438	6.01
254.819	5.15
255.2	5.19
255.581	4.76
255.962	5.78
256.343	5.87
256.724	6.33
257.105	5.64
257.486	6.32
257.867	5.21
258.247	5.56
258.628	5.63
259.009	5.52
259.389	5.7
259.77	5.02
260.15	6.03
260.531	4.96
260.911	5.25
261.292	5.41
261.672	4.75
262.052	5.05
262.432	4.98
262.813	5.1
263.193	4.85
263.573	5.58
263.953	4.69
264.333	5.25
264.713	5.6
265.093	5.01
265.473	5.09
265.853	4.88
266.233	5.67
266.612	4.67
266.992	5.46
267.372	5.31
267.752	5.3
268.131	4.82
268.511	5.26
268.89	5.73
269.27	4.79
269.649	4.67
270.029	5.13
270.408	4.95
270.787	5.25
271.167	5.07
271.546	4.64
271.925	4.63
272.304	4.86
272.683	4.6
273.062	4.9
273.441	4.93
273.82	5.1
274.199	5
274.578	4.56
274.957	4.85
275.336	4.66
275.715	4.9
276.093	4.61
276.472	4.5
276.851	4.97
277.229	4.3
277.608	5.24
277.986	4.51
278.365	4.83
278.743	4.79
279.122	4.81
279.5	5.08
279.878	4.77
280.257	5.73
280.635	4.32
281.013	5.44
281.391	4.26
281.769	5.1
282.147	4.53
282.525	4.35
282.903	4.83
283.281	4.91
283.659	5.01
284.037	4.85
284.415	4.78
284.792	4.86
285.17	5.16
285.548	4.87
285.925	4.49
286.303	4.6
286.68	4.63
287.058	4.51
287.435	4.57
287.813	4.35
288.19	4.19
288.567	4.54
288.945	4.48
289.322	4.63
289.699	4.68
290.076	4.44
290.453	4.43
290.83	4.54
291.207	4.56
291.584	4.44
291.961	4.13
292.338	4.72
292.715	5.01
293.092	4.98
293.469	4.81
293.845	4.96
294.222	4.86
294.599	4.68
294.975	5.48
295.352	4.99
295.728	4.9
296.105	4.8
296.481	4.82
296.858	5.46
297.234	4.93
297.61	4.92
297.986	4.94
298.363	4.84
298.739	5.25
299.115	5.26
299.491	4.97
299.867	5.11
300.243	4.26
300.619	4.82
300.995	4.83
301.371	5.17
301.746	5.04
302.122	4.61
302.498	4.61
302.874	4.57
303.249	5.08
303.625	4.43
304	5.48
304.376	5.01
304.751	5.23
305.127	5.06
305.502	5.08
305.878	5.05
306.253	5.49
306.628	4.58
307.003	5.19
307.378	4.75
307.754	4.79
308.129	5.03
308.504	5.16
308.879	5.02
309.254	4.96
309.629	4.95
310.003	5.26
310.378	5.12
310.753	5.19
311.128	5.06
311.502	5.43
311.877	4.52
312.252	5.33
312.626	5.29
313.001	5.55
313.375	5.32
313.75	5.46
314.124	5.45
314.498	4.54
314.873	5.12
315.247	5.27
315.621	5.19
315.995	5.23
316.369	5.13
316.743	5.14
317.117	4.93
317.491	5.54
317.865	5.1
318.239	5.24
318.613	5.16
318.987	5.19
319.361	5
319.734	5.01
320.108	5.45
320.482	5.12
320.855	4.86
321.229	5.7
321.602	5.58
321.976	5.28
322.349	5.24
322.723	5.2
323.096	5.5
323.469	5.69
323.843	4.95
324.216	5.93
324.589	5.49
324.962	4.75
325.335	5.26
325.708	5.32
326.081	5.5
326.454	4.93
326.827	5.03
327.2	5.4
327.573	5.49
327.945	4.77
328.318	5.13
328.691	5.43
329.063	4.99
329.436	4.99
329.809	5.28
330.181	5.17
330.553	4.97
330.926	5.3
331.298	5.67
331.671	5.62
332.043	4.62
332.415	5.35
332.787	5.74
333.159	4.95
333.532	4.84
333.904	5.38
334.276	5.27
334.648	4.65
335.02	4.98
335.391	5.15
335.763	5.8
336.135	5.25
336.507	5.22
336.879	4.99
337.25	5.62
337.622	5.27
337.993	5.2
338.365	5.16
338.736	5.45
339.108	5.26
339.479	4.86
339.851	4.78
340.222	5.29
340.593	5.23
340.964	4.84
341.336	5.37
341.707	5.34
342.078	5.47
342.449	5.27
342.82	5.1
343.191	4.62
343.562	4.9
343.933	4.94
344.303	5.04
344.674	5.48
345.045	5.34
345.416	5.14
345.786	5.24
346.157	5.18
346.527	5.01
346.898	5.16
347.268	5.11
347.639	4.85
348.009	4.89
348.38	5.09
348.75	5.59
349.12	5.02
349.49	5.37
349.861	5.19
350.231	5.35
350.601	5
350.971	5.43
351.341	5.08
351.711	5.16
352.081	4.98
352.45	5.01
352.82	5.5
353.19	5.46
353.56	5.12
353.929	5.43
354.299	5.17
354.669	5.39
355.038	4.97
355.408	5.1
355.777	5.71
356.147	5.51
356.516	5.52
356.885	5.2
357.254	5.33
357.624	4.98
357.993	5.1
358.362	5.09
358.731	5.26
359.1	4.83
359.469	5.12
359.838	4.85
360.207	4.93
360.576	5.14
360.945	5.15
361.314	5.17
361.682	5.17
362.051	5.17
362.42	5.2
362.788	4.94
363.157	5.15
363.525	5.06
363.894	5.07
364.262	5.13
364.631	5.13
364.999	5.03
365.367	5.21
365.735	5.19
366.104	5.14
366.472	5.56
366.84	5.34
367.208	5.24
367.576	5.34
367.944	5.16
368.312	5.26
368.68	5.32
369.048	5.12
369.416	5.09
369.783	5.15
370.151	5.23
370.519	5.08
370.886	5.22
371.254	5.61
371.621	5.33
371.989	5.14
372.356	5.44
372.724	5.6
373.091	5.35
373.458	5.44
373.826	5.25
374.193	5.43
374.56	5.35
374.927	5.54
375.294	5.54
375.661	5.28
376.028	5.45
376.395	5.12
376.762	4.97
377.129	5.52
377.496	5.73
377.863	5.52
378.229	5.51
378.596	5.42
378.963	5.58
379.329	5.39
379.696	5.64
380.062	5.18
380.429	5.32
380.795	5.39
381.161	5.2
381.528	5.51
381.894	4.95
382.26	5.45
382.626	5.47
382.993	5.62
383.359	4.91
383.725	5.23
384.091	5.37
384.457	5.54
384.823	5.61
385.188	5.49
385.554	5.28
385.92	5.74
386.286	5.39
386.651	5.42
387.017	5.45
387.383	5.45
387.748	5.34
388.114	5.38
388.479	5.4
388.845	5.25
389.21	5.09
389.575	5.61
389.94	5.28
390.306	5.72
390.671	5.86
391.036	5.06
391.401	5.29
391.766	5.37
392.131	5.33
392.496	5.37
392.861	5.24
393.226	5.58
393.591	5.28
393.956	5.39
394.32	5.3
394.685	5.25
395.05	5.6
395.414	5.44
395.779	5.44
396.143	5.53
396.508	5.2
396.872	5.27
397.236	5.43
397.601	5.47
397.965	5.61
398.329	5.58
398.694	5.37
399.058	5.31
399.422	5.62
399.786	5.46
400.15	5.76
400.514	5.5
400.878	5.61
401.242	5.55
401.605	5.21
401.969	5.2
402.333	5.57
402.697	5.28
403.06	5.45
403.424	5.48
403.787	5.54
404.151	5.52
404.514	5.57
404.878	5.72
405.241	5.73
405.604	5.6
405.968	5.69
406.331	5.47
406.694	5.61
407.057	5.54
407.42	5.63
407.783	5.58
408.146	5.59
408.509	5.74
408.872	5.44
409.235	5.43
409.598	5.23
409.961	5.7
410.323	5.67
410.686	5.5
411.049	5.86
411.411	5.8
411.774	5.67
412.136	5.53
412.499	5.39
412.861	5.6
413.223	5.65
413.586	5.52
413.948	5.9
414.31	5.44
414.672	5.89
415.035	5.54
415.397	5.56
415.759	6.22
416.121	5.46
416.483	5.59
416.845	5.46
417.206	5.53
417.568	5.58
417.93	5.48
418.292	5.56
418.653	5.36
419.015	5.7
419.377	5.51
419.738	5.59
420.1	5.38
420.461	5.49
420.822	5.49
421.184	5.44
421.545	5.51
421.906	5.57
422.267	5.4
422.629	5.56
422.99	5.54
423.351	5.47
423.712	5.34
424.073	5.38
424.434	5.54
424.795	5.6
425.155	5.57
425.516	5.56
425.877	5.54
426.238	5.41
426.598	5.42
426.959	5.47
427.32	5.55
427.68	5.41
428.041	5.44
428.401	5.5
428.761	5.59
429.122	5.71
429.482	5.66
429.842	5.43
430.202	5.62
430.563	5.76
430.923	5.71
431.283	5.8
431.643	5.67
432.003	5.67
432.363	5.8
432.722	5.76
433.082	5.64
433.442	5.85
433.802	5.7
434.161	5.74
434.521	5.65
434.881	5.75
435.24	5.62
435.6	5.51
435.959	5.54
436.319	5.63
436.678	5.71
437.037	5.78
437.396	5.58
437.756	5.62
438.115	5.63
438.474	5.75
438.833	5.89
439.192	5.63
439.551	5.72
439.91	5.81
440.269	5.87
440.628	5.47
440.987	5.67
441.345	5.9
441.704	6.03
442.063	5.6
442.421	5.57
442.78	5.74
443.138	5.69
443.497	5.65
443.855	5.72
444.214	5.68
444.572	5.84
444.93	5.92
445.288	5.9
445.647	5.82
446.005	5.77
446.363	5.66
446.721	5.76
447.079	5.54
447.437	5.79
447.795	5.86
448.153	5.73
448.51	5.77
448.868	5.59
449.226	5.66
449.584	5.75
449.941	5.64
450.299	5.82
450.656	5.78
451.014	5.84
451.371	5.7
451.729	5.78
452.086	5.78
452.443	5.84
452.801	5.74
453.158	5.68
453.515	6.04
453.872	5.86
454.229	5.94
454.586	5.84
454.943	5.72
455.3	5.8
455.657	5.86
456.014	5.8
456.371	5.99
456.727	5.98
457.084	5.87
457.441	5.74
457.797	6.01
458.154	5.89
458.51	5.84
458.867	5.82
459.223	5.77
459.58	5.99
459.936	6.01
460.292	6
460.648	6.01
461.005	5.92
461.361	5.91
461.717	5.66
462.073	5.75
462.429	5.57
462.785	5.8
463.141	5.86
463.496	5.87
463.852	5.94
464.208	5.82
464.564	5.94
464.919	6.04
465.275	5.98
465.631	6.16
465.986	6.17
466.342	6.08
466.697	6.12
467.052	6.04
467.408	6.17
467.763	5.91
468.118	6.17
468.473	5.98
468.829	6.07
469.184	5.84
469.539	5.93
469.894	5.87
470.249	5.83
470.603	5.92
470.958	5.94
471.313	6.05
471.668	6.13
472.023	6.01
472.377	5.97
472.732	6.08
473.086	6.2
473.441	5.87
473.795	6.21
474.15	6.16
474.504	5.87
474.859	5.94
475.213	5.85
475.567	6.01
475.921	6.05
476.275	6.03
476.63	5.84
476.984	5.95
477.338	5.99
477.692	6.19
478.045	6.31
478.399	6.09
478.753	6.06
479.107	6.22
479.461	6
479.814	6.25
480.168	6.04
480.521	6.15
480.875	6.24
481.228	6.19
481.582	6.05
481.935	6
482.289	6.02
482.642	5.89
482.995	5.92
483.348	6.06
483.701	6.02
484.055	6
484.408	5.94
484.761	6.02
485.114	5.84
485.466	5.81
485.819	5.72
486.172	5.71
486.525	5.72
486.878	5.71
487.23	5.73
487.583	5.84
487.936	5.9
488.288	5.97
488.641	5.91
488.993	5.91
489.345	5.87
489.698	5.82
490.05	5.87
490.402	5.85
490.754	5.79
491.107	5.78
491.459	5.94
491.811	5.94
492.163	6.03
492.515	6
492.866	6.06
493.218	6.07
493.57	5.98
493.922	5.88
494.274	5.97
494.625	5.93
494.977	6.03
495.328	6.05
495.68	6.13
496.031	6.01
496.383	6.18
496.734	6.18
497.086	6.03
497.437	6.1
497.788	6.15
498.139	6.2
498.49	6.25
498.842	6.13
499.193	6.11
499.544	6.19
499.894	6.12
500.245	6.2
500.596	6.2
500.947	6.28
501.298	6.11
501.648	6.23
501.999	6.25
502.35	6.2
502.7	6.2
503.051	6.22
503.401	6.44
503.752	6.27
504.102	6.21
504.452	6.37
504.803	6.28
505.153	6.26
505.503	6.29
505.853	6.27
506.203	6.23
506.553	6.29
506.903	6.27
507.253	6.2
507.603	6.29
507.953	6.3
508.303	6.27
508.652	6.23
509.002	6.3
509.352	6.29
509.701	6.25
510.051	6.19
510.4	6.19
510.75	6.26
511.099	6.1
511.449	6.27
511.798	6.31
512.147	6.18
512.496	6.3
512.846	6.17
513.195	6.33
513.544	6.24
513.893	6.35
514.242	6.26
514.591	6.31
514.939	6.29
515.288	6.21
515.637	6.17
515.986	6.12
516.334	6.35
516.683	6.39
517.032	6.43
517.38	6.32
517.729	6.23
518.077	6.22
518.426	6.36
518.774	6.33
519.122	6.23
519.47	6.31
519.819	6.28
520.167	6.34
520.515	6.29
520.863	6.16
521.211	6.14
521.559	6.19
521.907	6.17
522.255	6.22
522.602	6.29
522.95	6.25
523.298	6.42
523.645	6.37
523.993	6.36
524.341	6.27
524.688	6.35
525.036	6.34
525.383	6.36
525.73	6.34
526.078	6.26
526.425	6.3
526.772	6.41
527.119	6.36
527.466	6.22
527.814	6.22
528.161	6.24
528.508	6.23
528.854	6.22
529.201	6.25
529.548	6.27
529.895	6.24
530.242	6.16
530.588	6.07
530.935	6.01
531.282	6.02
531.628	6.11
531.975	6.02
532.321	6.07
532.667	6.19
533.014	6.21
533.36	6.23
533.706	6.31
534.052	6.32
534.399	6.33
534.745	6.28
535.091	6.2
535.437	6.22
535.783	6.21
536.129	6.15
536.474	6.24
536.82	6.19
537.166	6.27
537.512	6.32
537.857	6.31
538.203	6.34
538.549	6.25
538.894	6.29
539.239	6.33
539.585	6.34
539.93	6.39
540.276	6.3
540.621	6.49
540.966	6.45
541.311	6.48
541.656	6.39
542.001	6.44
542.346	6.38
542.691	6.45
543.036	6.39
543.381	6.26
543.726	6.15
544.071	6.23
544.415	6.16
544.76	6.15
545.105	6.22
545.449	6.18
545.794	6.34
546.138	6.3
546.483	6.4
546.827	6.37
547.171	6.46
547.516	6.57
547.86	6.47
548.204	6.47
548.548	6.42
548.892	6.56
549.236	6.41
549.58	6.44
549.924	6.51
550.268	6.55
550.612	6.41
550.956	6.5
551.3	6.63
551.643	6.48
551.987	6.55
552.33	6.65
552.674	6.49
553.017	6.51
553.361	6.48
553.704	6.65
554.048	6.64
554.391	6.55
554.734	6.54
555.077	6.35
555.42	6.43
555.764	6.45
556.107	6.57
556.45	6.62
556.793	6.26
557.135	6.47
557.478	6.5
557.821	6.65
558.164	6.65
558.507	6.66
558.849	6.56
559.192	6.8
559.534	6.66
559.877	6.76
560.219	6.58
560.562	6.66
560.904	6.78
561.246	6.74
561.589	6.71
561.931	6.67
562.273	6.52
562.615	6.53
562.957	6.41
563.299	6.71
563.641	6.72
563.983	6.63
564.325	6.66
564.667	6.75
565.008	6.51
565.35	6.69
565.692	6.77
566.033	6.74
566.375	6.59
566.716	6.75
567.058	6.65
567.399	6.79
567.741	6.87
568.082	6.67
568.423	6.68
568.764	6.78
569.105	6.45
569.447	6.64
569.788	6.61
570.129	6.77
570.47	6.65
570.811	6.58
571.151	6.76
571.492	6.6
571.833	6.69
572.174	6.68
572.514	6.79
572.855	6.75
573.195	6.59
573.536	6.73
573.876	6.75
574.217	6.68
574.557	6.79
574.898	6.69
575.238	6.6
575.578	6.72
575.918	6.69
576.258	6.54
576.598	6.86
576.938	6.8
577.278	6.91
577.618	6.68
577.958	6.76
578.298	6.78
578.638	6.78
578.977	6.77
579.317	6.8
579.657	6.91
579.996	6.94
580.336	6.77
580.675	6.98
581.014	6.67
581.354	6.7
581.693	6.92
582.032	7.03
582.372	6.87
582.711	7
583.05	6.82
583.389	6.83
583.728	6.69
584.067	6.89
584.406	7.01
584.745	6.69
585.083	7.08
585.422	6.93
585.761	6.72
586.1	6.81
586.438	6.86
586.777	6.92
587.115	6.93
587.454	6.71
587.792	7.02
588.13	7.06
588.469	6.74
588.807	7.01
589.145	7.1
589.483	7.04
589.821	6.93
590.159	6.98
590.497	6.89
590.835	6.87
591.173	6.92
591.511	6.92
591.849	6.96
592.187	6.98
592.524	6.89
592.862	6.8
593.2	6.68
593.537	6.88
593.875	6.91
594.212	7.08
594.55	7.26
594.887	6.91
595.224	7.16
595.561	7.21
595.899	7.25
596.236	7.23
596.573	7.25
596.91	6.99
597.247	6.92
597.584	7.13
597.921	7.12
598.258	7.16
598.594	7.03
598.931	7.02
599.268	7.06
599.604	7.04
599.941	7.02
600.277	6.74
600.614	6.92
600.95	6.97
601.287	6.84
601.623	7.09
601.959	7.24
602.296	6.95
602.632	7.05
602.968	6.99
603.304	7.13
603.64	6.82
603.976	7.06
604.312	7.06
604.648	6.97
604.984	7.26
605.319	7.12
605.655	6.86
605.991	7.08
606.326	7.04
606.662	7.02
606.998	6.9
607.333	7.18
607.668	6.96
608.004	7.18
608.339	6.92
608.674	7.17
609.01	7
609.345	7.16
609.68	7.35
610.015	7.14
610.35	6.94
610.685	7.52
611.02	7.22
611.355	7.33
611.689	7.1
612.024	7.21
612.359	7.14
612.694	6.97
613.028	6.95
613.363	7.02
613.697	6.94
614.032	6.94
614.366	7.09
614.7	7.07
615.035	7.28
615.369	7.16
615.703	7.06
616.037	7.31
616.371	7.34
616.705	7.47
617.039	7.22
617.373	7.28
617.707	7.13
618.041	7.32
618.375	7.06
618.709	6.89
619.042	7.33
619.376	7.53
619.71	7.24
620.043	6.8
620.377	7.31
620.71	7.32
621.043	7.63
621.377	7.32
621.71	7.55
622.043	6.93
622.376	7.54
622.709	7.25
623.043	7.34
623.376	7.65
623.709	7.7
624.041	7.35
624.374	7.23
624.707	7.46
625.04	7.34
625.373	7.04
625.705	7.3
626.038	7.29
626.37	7.41
626.703	7.44
627.035	7.66
627.368	7.46
627.7	7.63
628.032	7.54
628.365	7.65
628.697	7.42
629.029	7.32
629.361	7.39
629.693	7.45
630.025	7.35
630.357	7.07
630.689	7.56
631.021	7.26
631.353	7.73
631.684	7.66
632.016	7.54
632.348	7.69
632.679	7.56
633.011	7.65
633.342	7.39
633.674	7.67
634.005	7.35
634.336	7.38
634.668	7.72
634.999	7.8
635.33	7.98
635.661	7.67
635.992	7.46
636.323	7.37
636.654	7.49
636.985	7.17
637.316	7.45
637.647	7.64
637.977	7.14
638.308	7.68
638.639	7.61
638.969	7.51
639.3	7.42
639.63	7.62
639.961	7.72
640.291	7.84
640.622	7.81
640.952	7.55
641.282	7.42
641.612	7.55
641.943	7.72
642.273	7.73
642.603	7.87
642.933	7.65
643.263	7.24
643.592	7.36
643.922	7.54
644.252	7.71
644.582	7.72
644.911	7.68
645.241	7.92
645.571	7.38
645.9	7.82
646.23	8.17
646.559	7.82
646.888	8.32
647.218	7.69
647.547	7.37
647.876	7.83
648.205	7.71
648.534	8.59
648.863	7.6
649.192	7.41
649.521	8.03
649.85	8.05
650.179	8.03
650.508	7.28
650.837	7.72
651.165	7.82
651.494	8.05
651.822	7.77
652.151	7.48
652.479	7.14
652.808	7.79
653.136	8.21
653.465	7.9
653.793	8.08
654.121	8.39
654.449	7.39
654.777	8.18
655.105	7.75
655.433	7.5
655.761	8.59
656.089	7.69
656.417	7.4
656.745	7.91
657.073	8.27
657.4	8.51
657.728	8.18
658.056	8.06
658.383	8.5
658.711	7.76
659.038	7.86
659.365	8.04
659.693	8.06
660.02	7.83
660.347	7.79
660.674	7.55
661.001	7.95
661.329	7.82
661.656	7.95
661.982	7.75
662.309	8.13
662.636	7.96
662.963	7.92
663.29	8.07
663.616	7.77
663.943	7.87
664.27	8.08
664.596	7.87
664.923	7.88
665.249	7.56
665.576	7.16
665.902	8.31
666.228	8.08
666.554	7.73
666.881	8.58
667.207	8.01
667.533	8.06
667.859	8.51
668.185	7.92
668.511	8.26
668.837	7.8
669.162	7.95
669.488	8.23
669.814	7.87
670.139	8.08
670.465	8.46
670.791	8.19
671.116	8.07
671.442	8.6
671.767	7.93
672.092	8.78
672.418	8.88
672.743	8.43
673.068	8.78
673.393	7.83
673.718	8.66
674.043	8.71
674.368	8.42
674.693	8.23
675.018	8.08
675.343	8.61
675.667	8.07
675.992	8.17
676.317	8.57
676.641	8.4
676.966	8.23
677.29	8.08
677.615	9.04
677.939	8.6
678.264	8.06
678.588	9.01
678.912	8.53
679.236	8.49
679.56	8.49
679.885	8
680.209	8.81
680.532	8.6
680.856	8.09
681.18	8.29
681.504	8.54
681.828	8.5
682.152	8.09
682.475	8.9
682.799	8.6
683.122	8.68
683.446	8.5
683.769	8.32
684.093	8.88
684.416	8.81
684.739	8.71
685.062	9.05
685.386	8.01
685.709	8.63
686.032	8.23
686.355	8.19
686.678	8.56
687.001	8.92
687.324	9.04
687.646	8.88
687.969	8.7
688.292	8.61
688.614	9.18
688.937	8.76
689.26	8.21
689.582	8.56
689.904	8.8
690.227	9.03
690.549	9.46
690.871	8.86
691.194	9.07
691.516	8.38
691.838	9.07
692.16	8.99
692.482	8.72
