Data from 0158_crown_Reflection__2__73.txt Node

Date: Fri Sep 22 20:53:55 CDT 2023
User: ToomeyLab
Spectrometer: FLMS14357
Trigger mode: 0
Integration Time (sec): 1.000000E-2
Scans to average: 100
Electric dark correction enabled: true
Nonlinearity correction enabled: false
Boxcar width: 0
XAxis mode: Wavelengths
Number of Pixels in Spectrum: 2048
>>>>>Begin Spectral Data<<<<<
189.047	43.55
189.435	43.55
189.823	43.55
190.211	-635.67
190.599	-106.62
190.987	76.55
191.375	-582.01
191.763	86.97
192.151	102.36
192.538	683.69
192.926	41.19
193.314	-104.5
193.702	144.83
194.089	127.18
194.477	-69.53
194.864	37.38
195.252	32.25
195.639	147.72
196.027	83.26
196.414	-236.42
196.801	242.77
197.189	155.09
197.576	248.07
197.963	288.6
198.351	19.16
198.738	7.12
199.125	20.02
199.512	58.81
199.899	36.02
200.286	3.21
200.673	14.96
201.06	43.75
201.447	52.72
201.833	-25.88
202.22	17.81
202.607	26.41
202.994	32.68
203.38	6.43
203.767	67.88
204.154	43.82
204.54	32.33
204.927	20.5
205.313	-0.65
205.699	48.94
206.086	24.76
206.472	42.3
206.858	22.89
207.245	-13.01
207.631	34.84
208.017	41.18
208.403	20.67
208.789	22.12
209.175	43.99
209.561	32.47
209.947	39.78
210.333	45.53
210.719	16.77
211.105	35.97
211.491	21.21
211.876	18.9
212.262	26.56
212.648	49.57
213.034	47.04
213.419	9.35
213.805	8.02
214.19	7.04
214.576	31.71
214.961	48.17
215.346	10.97
215.732	7.05
216.117	7.51
216.502	47.69
216.888	17.97
217.273	29.35
217.658	11.54
218.043	-4.9
218.428	26.22
218.813	2.27
219.198	9.23
219.583	30.61
219.968	1.56
220.353	32.28
220.738	14.48
221.122	13.55
221.507	1.52
221.892	6.79
222.276	21.64
222.661	-9.37
223.046	7.7
223.43	24.52
223.815	3.74
224.199	-0.96
224.583	13.55
224.968	16.83
225.352	6.5
225.736	14.62
226.121	9.59
226.505	13.88
226.889	12.86
227.273	11.26
227.657	6.12
228.041	5.86
228.425	10.36
228.809	5.58
229.193	7.61
229.577	11.6
229.961	7.48
230.344	7.18
230.728	5.21
231.112	7
231.495	5.86
231.879	5.93
232.263	5.78
232.646	6
233.03	5.97
233.413	7.38
233.797	6.84
234.18	7.11
234.563	5.54
234.946	8.54
235.33	4.59
235.713	5.79
236.096	6.89
236.479	6.02
236.862	7.15
237.245	7.43
237.628	7.24
238.011	8.07
238.394	7.5
238.777	6.56
239.16	7.99
239.543	9.14
239.925	8.25
240.308	6.09
240.691	5.1
241.073	6.39
241.456	6.75
241.838	6.34
242.221	6.2
242.603	6.82
242.986	5.74
243.368	5.65
243.75	6.44
244.133	6.82
244.515	6.12
244.897	5.76
245.279	6.19
245.661	5.62
246.043	5.42
246.425	5.12
246.807	5.19
247.189	5.24
247.571	6.62
247.953	6.53
248.335	6.04
248.717	6.32
249.098	5.87
249.48	5.64
249.862	5.59
250.243	5.66
250.625	6.14
251.006	5.82
251.388	5.52
251.769	6.4
252.151	6.21
252.532	5.93
252.913	6.43
253.295	6.82
253.676	5.99
254.057	5.73
254.438	6.37
254.819	5.22
255.2	5.9
255.581	5.94
255.962	6.31
256.343	5.5
256.724	4.6
257.105	5.69
257.486	5.42
257.867	5.49
258.247	5.37
258.628	6.24
259.009	4.79
259.389	4.7
259.77	5.58
260.15	5.72
260.531	5.25
260.911	5.02
261.292	5.16
261.672	5.2
262.052	5.05
262.432	5.04
262.813	5.36
263.193	5.19
263.573	5.37
263.953	5.37
264.333	5.37
264.713	5.08
265.093	5.15
265.473	5.3
265.853	4.15
266.233	4.64
266.612	5.11
266.992	5.28
267.372	5.53
267.752	5.49
268.131	4.98
268.511	4.7
268.89	5.16
269.27	4.91
269.649	5.04
270.029	4.98
270.408	5.2
270.787	4.9
271.167	4.92
271.546	4.84
271.925	4.74
272.304	4.73
272.683	4.77
273.062	5.33
273.441	5
273.82	5.21
274.199	5.22
274.578	5.39
274.957	4.72
275.336	4.89
275.715	4.99
276.093	4.74
276.472	4.37
276.851	4.96
277.229	4.65
277.608	5.45
277.986	4.57
278.365	4.7
278.743	4.61
279.122	4.98
279.5	4.99
279.878	4.35
280.257	5.22
280.635	4.35
281.013	4.69
281.391	4.32
281.769	4.66
282.147	4.87
282.525	4.99
282.903	4.87
283.281	5.22
283.659	4.67
284.037	4.38
284.415	4.5
284.792	4.62
285.17	5.02
285.548	5.02
285.925	4.53
286.303	4.51
286.68	4.21
287.058	4.57
287.435	4.56
287.813	4.36
288.19	4.2
288.567	4.9
288.945	4.3
289.322	4.59
289.699	4.77
290.076	4.6
290.453	4.45
290.83	4.25
291.207	4.65
291.584	4.27
291.961	4.48
292.338	4.42
292.715	4.75
293.092	4.49
293.469	4.35
293.845	4.27
294.222	4.24
294.599	4.75
294.975	5.08
295.352	4.86
295.728	4.81
296.105	4.77
296.481	4.8
296.858	4.48
297.234	4.56
297.61	4.56
297.986	4.67
298.363	4.55
298.739	4.47
299.115	4.86
299.491	4.58
299.867	4.51
300.243	4.34
300.619	4.68
300.995	4.54
301.371	4.93
301.746	4.65
302.122	4.28
302.498	4.49
302.874	4.72
303.249	4.19
303.625	4.46
304	4.95
304.376	5.01
304.751	4.47
305.127	4.66
305.502	5.6
305.878	4.77
306.253	4.76
306.628	4.21
307.003	4.61
307.378	4.45
307.754	4.71
308.129	4.88
308.504	4.57
308.879	4.75
309.254	5.39
309.629	4.4
310.003	4.95
310.378	5.24
310.753	4.76
311.128	4.58
311.502	4.81
311.877	3.91
312.252	4.59
312.626	4.6
313.001	4.56
313.375	4.39
313.75	4.9
314.124	5.18
314.498	4.11
314.873	4.7
315.247	4.93
315.621	4.84
315.995	5.02
316.369	4.82
316.743	4.48
317.117	4.6
317.491	5.1
317.865	4.25
318.239	4.16
318.613	4.8
318.987	4.34
319.361	4.61
319.734	4.49
320.108	4.79
320.482	4.47
320.855	4.98
321.229	5.03
321.602	4.77
321.976	4.66
322.349	4.78
322.723	4.67
323.096	4.84
323.469	4.51
323.843	4.62
324.216	5.03
324.589	4.75
324.962	4.39
325.335	5.25
325.708	4.23
326.081	4.7
326.454	4.09
326.827	4.75
327.2	4.8
327.573	5.06
327.945	4.58
328.318	4.87
328.691	5.4
329.063	4.73
329.436	5.02
329.809	4.96
330.181	5.1
330.553	4.51
330.926	5.17
331.298	5.1
331.671	4.55
332.043	4.1
332.415	4.81
332.787	5.34
333.159	4.29
333.532	4.3
333.904	4.81
334.276	4.67
334.648	4.38
335.02	4.41
335.391	5.05
335.763	5.17
336.135	4.09
336.507	5.17
336.879	4.59
337.25	4.66
337.622	5.01
337.993	4.68
338.365	5.33
338.736	5.17
339.108	4.75
339.479	4.7
339.851	4.85
340.222	4.77
340.593	4.53
340.964	4.12
341.336	4.61
341.707	4.53
342.078	4.87
342.449	4.76
342.82	4.68
343.191	4.44
343.562	4.82
343.933	4.55
344.303	4.79
344.674	4.92
345.045	4.59
345.416	4.81
345.786	5.09
346.157	4.9
346.527	5.14
346.898	4.82
347.268	4.43
347.639	4.69
348.009	4.92
348.38	4.69
348.75	5.15
349.12	4.89
349.49	5.23
349.861	4.78
350.231	5.11
350.601	4.97
350.971	5.16
351.341	4.58
351.711	4.54
352.081	4.79
352.45	4.56
352.82	4.81
353.19	5.18
353.56	4.61
353.929	4.72
354.299	5
354.669	4.57
355.038	4.71
355.408	4.92
355.777	5.14
356.147	5.14
356.516	4.85
356.885	4.77
357.254	5.27
357.624	4.45
357.993	4.8
358.362	4.89
358.731	4.88
359.1	4.81
359.469	5.06
359.838	4.73
360.207	4.56
360.576	5.08
360.945	4.89
361.314	4.95
361.682	4.95
362.051	4.96
362.42	4.77
362.788	4.69
363.157	4.81
363.525	4.65
363.894	4.79
364.262	4.62
364.631	4.58
364.999	4.96
365.367	5.11
365.735	4.73
366.104	4.91
366.472	4.93
366.84	4.93
367.208	5.06
367.576	4.95
367.944	5.04
368.312	5.33
368.68	5.12
369.048	4.84
369.416	5.09
369.783	4.7
370.151	4.65
370.519	5
370.886	4.98
371.254	5.31
371.621	4.93
371.989	5.11
372.356	4.89
372.724	5.24
373.091	5.21
373.458	5.29
373.826	4.82
374.193	5.07
374.56	5.07
374.927	5.2
375.294	5.08
375.661	5
376.028	5.51
376.395	5.3
376.762	5.02
377.129	5.24
377.496	5.31
377.863	4.84
378.229	5.11
378.596	5.19
378.963	5.17
379.329	5.22
379.696	5.32
380.062	4.99
380.429	4.97
380.795	4.97
381.161	4.86
381.528	4.89
381.894	4.87
382.26	5.31
382.626	5.02
382.993	5.13
383.359	4.83
383.725	4.98
384.091	5.23
384.457	4.97
384.823	5.06
385.188	5.26
385.554	5.23
385.92	5.43
386.286	5.25
386.651	5
387.017	5.3
387.383	5.26
387.748	5.34
388.114	5.12
388.479	5.32
388.845	4.86
389.21	4.88
389.575	5.37
389.94	5.13
390.306	5.26
390.671	5.65
391.036	4.95
391.401	5.11
391.766	5.07
392.131	5.11
392.496	5.25
392.861	4.84
393.226	5.21
393.591	5.3
393.956	5.22
394.32	5.13
394.685	5.23
395.05	5.5
395.414	5.23
395.779	5.3
396.143	5.37
396.508	5.26
396.872	5.09
397.236	5.41
397.601	5.37
397.965	5.21
398.329	5.51
398.694	5.23
399.058	5.3
399.422	5.32
399.786	5.28
400.15	5.53
400.514	5.49
400.878	5.26
401.242	5.48
401.605	5.18
401.969	5.07
402.333	5.43
402.697	5.25
403.06	5.27
403.424	5.25
403.787	5.29
404.151	5.61
404.514	5.36
404.878	5.45
405.241	5.28
405.604	5.46
405.968	5.5
406.331	5.44
406.694	5.41
407.057	5.19
407.42	5.34
407.783	5.33
408.146	5.51
408.509	5.44
408.872	5.37
409.235	5.3
409.598	5.37
409.961	5.6
410.323	5.72
410.686	5.49
411.049	5.47
411.411	5.58
411.774	5.46
412.136	5.32
412.499	5.39
412.861	5.46
413.223	5.67
413.586	5.42
413.948	5.6
414.31	5.45
414.672	5.3
415.035	5.37
415.397	5.64
415.759	5.74
416.121	5.41
416.483	5.48
416.845	5.29
417.206	5.37
417.568	5.44
417.93	5.36
418.292	5.62
418.653	5.34
419.015	5.56
419.377	5.38
419.738	5.46
420.1	5.49
420.461	5.41
420.822	5.43
421.184	5.35
421.545	5.38
421.906	5.38
422.267	5.26
422.629	5.43
422.99	5.39
423.351	5.31
423.712	5.31
424.073	5.32
424.434	5.4
424.795	5.44
425.155	5.41
425.516	5.4
425.877	5.34
426.238	5.2
426.598	5.3
426.959	5.29
427.32	5.45
427.68	5.37
428.041	5.39
428.401	5.57
428.761	5.57
429.122	5.47
429.482	5.54
429.842	5.4
430.202	5.41
430.563	5.61
430.923	5.73
431.283	5.66
431.643	5.68
432.003	5.63
432.363	5.9
432.722	5.55
433.082	5.67
433.442	5.42
433.802	5.73
434.161	5.53
434.521	5.48
434.881	5.68
435.24	5.61
435.6	5.45
435.959	5.54
436.319	5.41
436.678	5.7
437.037	5.55
437.396	5.51
437.756	5.64
438.115	5.6
438.474	5.66
438.833	5.78
439.192	5.66
439.551	5.57
439.91	5.9
440.269	5.58
440.628	5.49
440.987	5.57
441.345	5.72
441.704	5.68
442.063	5.55
442.421	5.58
442.78	5.56
443.138	5.62
443.497	5.6
443.855	5.59
444.214	5.52
444.572	5.81
444.93	5.77
445.288	5.62
445.647	5.69
446.005	5.69
446.363	5.58
446.721	5.68
447.079	5.47
447.437	5.55
447.795	5.78
448.153	5.5
448.51	5.64
448.868	5.55
449.226	5.63
449.584	5.55
449.941	5.56
450.299	5.76
450.656	5.7
451.014	5.7
451.371	5.66
451.729	5.59
452.086	5.65
452.443	5.74
452.801	5.77
453.158	5.74
453.515	5.79
453.872	5.7
454.229	5.75
454.586	5.71
454.943	5.89
455.3	5.71
455.657	5.71
456.014	5.82
456.371	5.82
456.727	5.73
457.084	5.79
457.441	5.72
457.797	5.72
458.154	5.85
458.51	5.84
458.867	5.97
459.223	5.76
459.58	5.89
459.936	5.87
460.292	5.85
460.648	5.96
461.005	5.87
461.361	5.84
461.717	5.56
462.073	5.71
462.429	5.58
462.785	5.77
463.141	5.71
463.496	5.77
463.852	5.83
464.208	5.72
464.564	5.89
464.919	5.79
465.275	5.93
465.631	5.97
465.986	6.08
466.342	5.97
466.697	6.08
467.052	5.86
467.408	5.95
467.763	5.89
468.118	6.1
468.473	5.82
468.829	5.79
469.184	5.84
469.539	5.85
469.894	5.73
470.249	5.86
470.603	5.72
470.958	5.92
471.313	6.01
471.668	6
472.023	5.87
472.377	5.88
472.732	5.66
473.086	6.07
473.441	5.86
473.795	6.12
474.15	5.75
474.504	5.79
474.859	6.03
475.213	5.85
475.567	5.71
475.921	5.82
476.275	6
476.63	5.77
476.984	5.8
477.338	6.02
477.692	5.9
478.045	6.05
478.399	6
478.753	5.81
479.107	5.95
479.461	5.91
479.814	5.96
480.168	5.97
480.521	6.01
480.875	6.04
481.228	5.86
481.582	6
481.935	5.94
482.289	5.89
482.642	5.79
482.995	5.84
483.348	5.96
483.701	5.76
484.055	5.84
484.408	5.76
484.761	5.81
485.114	5.74
485.466	5.64
485.819	5.51
486.172	5.49
486.525	5.49
486.878	5.52
487.23	5.6
487.583	5.65
487.936	5.75
488.288	5.73
488.641	5.75
488.993	5.65
489.345	5.63
489.698	5.62
490.05	5.61
490.402	5.64
490.754	5.67
491.107	5.69
491.459	5.76
491.811	5.82
492.163	5.79
492.515	5.82
492.866	5.81
493.218	5.77
493.57	5.74
493.922	5.61
494.274	5.63
494.625	5.71
494.977	5.76
495.328	5.88
495.68	5.87
496.031	5.8
496.383	5.91
496.734	6.03
497.086	5.94
497.437	6.04
497.788	6
498.139	5.94
498.49	6.04
498.842	5.81
499.193	5.82
499.544	5.91
499.894	5.77
500.245	5.83
500.596	5.87
500.947	5.97
501.298	6.06
501.648	5.98
501.999	6.02
502.35	5.96
502.7	6.01
503.051	5.89
503.401	5.96
503.752	6.04
504.102	6.03
504.452	5.91
504.803	5.85
505.153	6
505.503	6.01
505.853	6.15
506.203	5.93
506.553	6.11
506.903	5.98
507.253	5.93
507.603	6.04
507.953	6.03
508.303	6.07
508.652	6.02
509.002	6.08
509.352	6.01
509.701	6.08
510.051	5.92
510.4	6.02
510.75	5.91
511.099	5.8
511.449	5.92
511.798	5.93
512.147	5.97
512.496	5.86
512.846	5.91
513.195	5.97
513.544	5.94
513.893	5.99
514.242	5.84
514.591	5.99
514.939	6.02
515.288	5.92
515.637	5.93
515.986	5.8
516.334	6.07
516.683	5.94
517.032	6.08
517.38	5.89
517.729	5.89
518.077	6.09
518.426	5.99
518.774	5.88
519.122	5.91
519.47	6.09
519.819	5.91
520.167	5.98
520.515	5.97
520.863	5.88
521.211	5.81
521.559	5.83
521.907	5.84
522.255	5.91
522.602	5.93
522.95	5.97
523.298	5.99
523.645	6.11
523.993	5.93
524.341	5.89
524.688	5.98
525.036	5.84
525.383	6.01
525.73	6.1
526.078	5.95
526.425	5.92
526.772	5.98
527.119	5.91
527.466	5.72
527.814	5.8
528.161	5.79
528.508	5.84
528.854	5.83
529.201	5.9
529.548	5.78
529.895	5.77
530.242	5.68
530.588	5.62
530.935	5.52
531.282	5.56
531.628	5.67
531.975	5.68
532.321	5.69
532.667	5.73
533.014	5.82
533.36	5.84
533.706	5.88
534.052	5.94
534.399	5.87
534.745	5.76
535.091	5.64
535.437	5.7
535.783	5.65
536.129	5.72
536.474	5.73
536.82	5.7
537.166	5.84
537.512	5.91
537.857	5.85
538.203	5.95
538.549	5.76
538.894	5.7
539.239	5.77
539.585	5.83
539.93	5.91
540.276	5.92
540.621	5.95
540.966	5.99
541.311	6
541.656	5.82
542.001	5.9
542.346	5.92
542.691	5.82
543.036	5.78
543.381	5.77
543.726	5.61
544.071	5.67
544.415	5.65
544.76	5.65
545.105	5.71
545.449	5.77
545.794	5.82
546.138	5.83
546.483	5.79
546.827	5.83
547.171	5.83
547.516	5.99
547.86	5.86
548.204	5.88
548.548	5.9
548.892	5.92
549.236	5.7
549.58	5.76
549.924	5.9
550.268	6.02
550.612	5.89
550.956	5.95
551.3	6
551.643	5.95
551.987	5.9
552.33	6.02
552.674	5.97
553.017	6.01
553.361	5.88
553.704	6.02
554.048	5.85
554.391	5.98
554.734	5.96
555.077	5.76
555.42	5.89
555.764	5.83
556.107	5.96
556.45	5.96
556.793	5.9
557.135	5.9
557.478	5.74
557.821	5.89
558.164	5.93
558.507	6.06
558.849	5.84
559.192	6.12
559.534	5.97
559.877	6.07
560.219	5.94
560.562	6.05
560.904	6.09
561.246	6.18
561.589	5.96
561.931	5.97
562.273	5.92
562.615	5.96
562.957	5.93
563.299	6.19
563.641	6.06
563.983	6.03
564.325	6.03
564.667	6.06
565.008	5.95
565.35	6.01
565.692	5.92
566.033	5.99
566.375	5.95
566.716	5.97
567.058	6.09
567.399	5.95
567.741	6.16
568.082	5.95
568.423	5.94
568.764	6.01
569.105	5.75
569.447	5.91
569.788	5.76
570.129	6.03
570.47	6
570.811	5.98
571.151	5.92
571.492	5.9
571.833	5.76
572.174	5.94
572.514	5.83
572.855	5.85
573.195	5.83
573.536	5.91
573.876	5.99
574.217	5.85
574.557	5.82
574.898	5.99
575.238	5.92
575.578	6.01
575.918	5.92
576.258	5.9
576.598	5.96
576.938	5.94
577.278	5.9
577.618	5.8
577.958	5.86
578.298	5.98
578.638	5.73
578.977	5.93
579.317	6.06
579.657	5.78
579.996	6.06
580.336	6.17
580.675	6.06
581.014	6.03
581.354	5.91
581.693	5.92
582.032	5.83
582.372	6
582.711	5.95
583.05	6.05
583.389	5.82
583.728	5.77
584.067	6.08
584.406	5.91
584.745	5.77
585.083	6.31
585.422	5.94
585.761	6.05
586.1	5.98
586.438	6.12
586.777	5.89
587.115	6.16
587.454	5.87
587.792	6.19
588.13	6.01
588.469	5.82
588.807	5.92
589.145	6.1
589.483	5.84
589.821	5.8
590.159	6.13
590.497	6.19
590.835	6.06
591.173	5.9
591.511	5.97
591.849	5.97
592.187	6.02
592.524	5.91
592.862	6.07
593.2	5.82
593.537	5.62
593.875	6.02
594.212	6.04
594.55	6.23
594.887	6.02
595.224	5.89
595.561	6.2
595.899	6.12
596.236	6.09
596.573	6.15
596.91	6.06
597.247	6.05
597.584	6.04
597.921	6.07
598.258	6.1
598.594	6.12
598.931	5.89
599.268	5.74
599.604	6.08
599.941	5.97
600.277	5.81
600.614	5.85
600.95	5.93
601.287	5.89
601.623	5.94
601.959	5.88
602.296	5.91
602.632	5.77
602.968	5.99
603.304	5.95
603.64	6.13
603.976	6.03
604.312	6
604.648	6.19
604.984	5.9
605.319	5.81
605.655	5.96
605.991	6.04
606.326	5.99
606.662	5.83
606.998	5.82
607.333	6.01
607.668	5.95
608.004	5.93
608.339	5.93
608.674	6.15
609.01	6.14
609.345	6.08
609.68	5.97
610.015	5.98
610.35	6.08
610.685	6.1
611.02	6.28
611.355	6.08
611.689	5.74
612.024	6.11
612.359	6.04
612.694	5.82
613.028	5.94
613.363	5.93
613.697	5.86
614.032	6.04
614.366	6
614.7	6.07
615.035	6.23
615.369	6.08
615.703	5.89
616.037	6.08
616.371	6.42
616.705	6.3
617.039	6.34
617.373	5.93
617.707	6.04
618.041	6.32
618.375	6.15
618.709	5.94
619.042	6.23
619.376	6.24
619.71	6.17
620.043	5.58
620.377	5.96
620.71	6.11
621.043	6.27
621.377	6.09
621.71	5.83
622.043	6.13
622.376	6.45
622.709	6.02
623.043	6.14
623.376	5.94
623.709	6.37
624.041	6.03
624.374	6.32
624.707	6.14
625.04	6.36
625.373	5.78
625.705	6.04
626.038	6.17
626.37	6.29
626.703	6.21
627.035	5.96
627.368	5.95
627.7	6.03
628.032	6.41
628.365	6.17
628.697	6.27
629.029	6.06
629.361	6.04
629.693	6.15
630.025	6.02
630.357	5.79
630.689	6.04
631.021	6.11
631.353	6.03
631.684	5.85
632.016	6.28
632.348	5.98
632.679	5.85
633.011	6.23
633.342	6.2
633.674	6.43
634.005	5.9
634.336	6.31
634.668	6.3
634.999	6.01
635.33	6.24
635.661	6.13
635.992	5.92
636.323	6.01
636.654	6.29
636.985	6.03
637.316	6.31
637.647	6.2
637.977	5.79
638.308	6.21
638.639	6.24
638.969	6.34
639.3	6.07
639.63	6.39
639.961	5.86
640.291	6.15
640.622	6.61
640.952	6.11
641.282	6.42
641.612	6.35
641.943	6.33
642.273	6.45
642.603	6.22
642.933	6.29
643.263	5.68
643.592	6.2
643.922	6.61
644.252	6.21
644.582	6.69
644.911	6.22
645.241	6.64
645.571	6.18
645.9	6.13
646.23	6.61
646.559	6.36
646.888	6.52
647.218	6.28
647.547	6.15
647.876	6.12
648.205	5.67
648.534	6.45
648.863	6.08
649.192	5.73
649.521	6.56
649.85	6.43
650.179	6.25
650.508	6.18
650.837	6.34
651.165	6.23
651.494	6.16
651.822	6.07
652.151	6.2
652.479	6.52
652.808	6.09
653.136	6.59
653.465	6.24
653.793	6.16
654.121	6.85
654.449	5.97
654.777	6.03
655.105	6.17
655.433	6.13
655.761	6.49
656.089	6.39
656.417	6.68
656.745	6.07
657.073	6.49
657.4	6.87
657.728	6.47
658.056	6.35
658.383	6.71
658.711	6.4
659.038	6.18
659.365	6.23
659.693	6.22
660.02	6.33
660.347	6.34
660.674	6.47
661.001	6.12
661.329	6.44
661.656	6.76
661.982	6.26
662.309	6.62
662.636	6.5
662.963	6.11
663.29	6.89
663.616	6.31
663.943	6.54
664.27	6.45
664.596	6.7
664.923	6.58
665.249	6.59
665.576	6.49
665.902	6.23
666.228	6.63
666.554	6.21
666.881	6.36
667.207	6.74
667.533	6.04
667.859	6.61
668.185	6.42
668.511	6.43
668.837	5.89
669.162	6.59
669.488	6.69
669.814	6.52
670.139	6.62
670.465	7.11
670.791	6.61
671.116	6.36
671.442	6.63
671.767	5.88
672.092	6.84
672.418	7.49
672.743	6.71
673.068	6.95
673.393	6.02
673.718	6.63
674.043	6.61
674.368	6.5
674.693	6.48
675.018	6.14
675.343	6.85
675.667	6.71
675.992	6.78
676.317	7.47
676.641	6.37
676.966	6.82
677.29	6.54
677.615	6.88
677.939	7.29
678.264	6.8
678.588	7.09
678.912	7.34
679.236	7.09
679.56	6.48
679.885	6.45
680.209	6.79
680.532	5.65
680.856	6.52
681.18	6.74
681.504	7.1
681.828	6.9
682.152	6.42
682.475	7.24
682.799	6.66
683.122	6.48
683.446	6.67
683.769	6.42
684.093	7.21
684.416	6.91
684.739	6.52
685.062	7.37
685.386	6.69
685.709	6.27
686.032	6.6
686.355	6.42
686.678	7.18
687.001	7.34
687.324	7.24
687.646	6.85
687.969	7.3
688.292	7.27
688.614	7.07
688.937	6.74
689.26	7.19
689.582	6.64
689.904	7.35
690.227	7.37
690.549	7.28
690.871	6.55
691.194	7.03
691.516	7.27
691.838	7.52
692.16	6.68
692.482	7.05
692.804	6.86
693.126	6.03
693.448	7.41
