Data from 0158_forehead_Reflection__3__79.txt Node

Date: Fri Sep 22 20:55:21 CDT 2023
User: ToomeyLab
Spectrometer: FLMS14357
Trigger mode: 0
Integration Time (sec): 1.000000E-2
Scans to average: 100
Electric dark correction enabled: true
Nonlinearity correction enabled: false
Boxcar width: 0
XAxis mode: Wavelengths
Number of Pixels in Spectrum: 2048
>>>>>Begin Spectral Data<<<<<
189.047	133.29
189.435	133.29
189.823	133.29
190.211	290.18
190.599	224.93
190.987	63.96
191.375	-529.1
191.763	78.13
192.151	87.19
192.538	1923.4
192.926	92.72
193.314	196.58
193.702	448.49
194.089	199.96
194.477	-143.56
194.864	104.89
195.252	30.38
195.639	-61.23
196.027	160.59
196.414	-94.45
196.801	-3121.39
197.189	340.91
197.576	852.23
197.963	-199.83
198.351	34.5
198.738	66.43
199.125	-0.57
199.512	73.65
199.899	88.58
200.286	57.58
200.673	38.55
201.06	69.63
201.447	33.45
201.833	-19
202.22	43.61
202.607	35.01
202.994	41.21
203.38	45.68
203.767	9.88
204.154	65.61
204.54	46.02
204.927	11.99
205.313	27.48
205.699	31.57
206.086	55.37
206.472	41.76
206.858	44.82
207.245	10.09
207.631	43.52
208.017	17.52
208.403	39.31
208.789	64.04
209.175	42.25
209.561	41.63
209.947	50.51
210.333	61.47
210.719	16.58
211.105	35.95
211.491	23.65
211.876	73.99
212.262	31.98
212.648	28.62
213.034	64.79
213.419	18.32
213.805	42.23
214.19	19.84
214.576	40.97
214.961	24.78
215.346	43.53
215.732	25.23
216.117	23.71
216.502	61.6
216.888	35.57
217.273	25.34
217.658	25.95
218.043	26.44
218.428	33.77
218.813	8.12
219.198	10.7
219.583	29.83
219.968	31.53
220.353	38.12
220.738	39.17
221.122	20.77
221.507	5.3
221.892	7.41
222.276	26.51
222.661	1.92
223.046	26.94
223.43	28.93
223.815	9.5
224.199	5.72
224.583	11.22
224.968	23.86
225.352	4.85
225.736	19.6
226.121	13.66
226.505	14.03
226.889	10.05
227.273	11.93
227.657	15.92
228.041	7.55
228.425	9.05
228.809	2.89
229.193	3.97
229.577	6.69
229.961	7.57
230.344	6.21
230.728	3.77
231.112	4.44
231.495	3.2
231.879	4.37
232.263	3.67
232.646	4.66
233.03	3.39
233.413	4.73
233.797	5.15
234.18	4.69
234.563	7.14
234.946	5.63
235.33	5.39
235.713	3.44
236.096	4.11
236.479	3.71
236.862	4.99
237.245	5.3
237.628	5.24
238.011	4.9
238.394	5.04
238.777	6.83
239.16	5.54
239.543	6.04
239.925	6.16
240.308	3.74
240.691	4.89
241.073	4.55
241.456	4.41
241.838	3.48
242.221	4.45
242.603	5.02
242.986	4.11
243.368	3.43
243.75	4.01
244.133	4.44
244.515	3.28
244.897	3.44
245.279	3.32
245.661	3.52
246.043	4
246.425	3.1
246.807	5.07
247.189	2.68
247.571	4.57
247.953	4.02
248.335	3.57
248.717	3.53
249.098	3.72
249.48	3.23
249.862	3.11
250.243	3.64
250.625	4.03
251.006	3.35
251.388	3.67
251.769	4.18
252.151	3.8
252.532	4.03
252.913	4.62
253.295	4.87
253.676	4.01
254.057	4
254.438	4.09
254.819	3.61
255.2	3.68
255.581	3.57
255.962	5.06
256.343	4.14
256.724	2.61
257.105	4.35
257.486	4.1
257.867	3.89
258.247	4.28
258.628	5.02
259.009	4.43
259.389	3.49
259.77	4.14
260.15	4.54
260.531	3.56
260.911	3.82
261.292	3.32
261.672	3.21
262.052	3.41
262.432	3.57
262.813	3.34
263.193	3.15
263.573	3.62
263.953	3.35
264.333	3.74
264.713	3.64
265.093	3.47
265.473	3.55
265.853	3.87
266.233	3.97
266.612	3.11
266.992	4.07
267.372	4.44
267.752	4.3
268.131	3.93
268.511	3.32
268.89	3.86
269.27	3.83
269.649	3.89
270.029	3.67
270.408	3.87
270.787	3.79
271.167	3.7
271.546	3.03
271.925	3.8
272.304	3.36
272.683	4.14
273.062	3.83
273.441	3.6
273.82	3.88
274.199	3.6
274.578	3.5
274.957	3.39
275.336	3.49
275.715	3.21
276.093	3.55
276.472	3.39
276.851	3.94
277.229	3.18
277.608	3.79
277.986	3.57
278.365	4.07
278.743	3.7
279.122	3.85
279.5	3.65
279.878	3.28
280.257	4.29
280.635	3.75
281.013	3.92
281.391	2.99
281.769	3.95
282.147	4.22
282.525	3.29
282.903	3.84
283.281	3.76
283.659	3.43
284.037	3.69
284.415	3.59
284.792	3.35
285.17	3.85
285.548	4.31
285.925	3.79
286.303	3.73
286.68	2.95
287.058	3.43
287.435	3.15
287.813	3.54
288.19	3.41
288.567	3.62
288.945	3.2
289.322	3.55
289.699	3.63
290.076	3.93
290.453	3.56
290.83	3.24
291.207	3.54
291.584	3.04
291.961	3.84
292.338	3.61
292.715	3.24
293.092	3.54
293.469	3.35
293.845	3.92
294.222	4.24
294.599	4.32
294.975	4.23
295.352	4.1
295.728	4.07
296.105	4.13
296.481	3.77
296.858	4.12
297.234	3.86
297.61	3.84
297.986	4.15
298.363	3.84
298.739	4.27
299.115	4.06
299.491	4.08
299.867	4.09
300.243	3.79
300.619	3.94
300.995	4.47
301.371	4.62
301.746	4.37
302.122	4.04
302.498	4.12
302.874	4.5
303.249	4.42
303.625	4.4
304	4.89
304.376	4.67
304.751	4.74
305.127	4.98
305.502	5.04
305.878	5.08
306.253	4.87
306.628	4.85
307.003	4.85
307.378	5.01
307.754	4.86
308.129	5.1
308.504	5.09
308.879	5.36
309.254	5.62
309.629	4.98
310.003	5.43
310.378	5.2
310.753	5.2
311.128	5.3
311.502	5.21
311.877	5.22
312.252	5.06
312.626	5.39
313.001	5.3
313.375	5.69
313.75	5.41
314.124	5.94
314.498	5.27
314.873	5.4
315.247	5.78
315.621	5.52
315.995	5.46
316.369	5.52
316.743	5.5
317.117	6.12
317.491	6.58
317.865	5.45
318.239	5.82
318.613	6.43
318.987	6.53
319.361	5.94
319.734	6.29
320.108	6.57
320.482	5.94
320.855	6.22
321.229	6.89
321.602	6.48
321.976	6.17
322.349	6.15
322.723	6.63
323.096	6.59
323.469	6.51
323.843	6.3
324.216	7.21
324.589	7.02
324.962	6.8
325.335	6.84
325.708	6.78
326.081	7.25
326.454	6.92
326.827	7.11
327.2	7.35
327.573	7.7
327.945	7.18
328.318	6.86
328.691	7.18
329.063	7.25
329.436	7.46
329.809	7.46
330.181	7.39
330.553	7.35
330.926	7.38
331.298	7.92
331.671	7.93
332.043	7.5
332.415	7.44
332.787	7.77
333.159	7.36
333.532	7.14
333.904	7.63
334.276	8.07
334.648	7.56
335.02	7.83
335.391	7.73
335.763	8.29
336.135	8.36
336.507	8.04
336.879	7.94
337.25	8.57
337.622	8.46
337.993	8.52
338.365	8.95
338.736	8.69
339.108	8.36
339.479	8.87
339.851	8.29
340.222	8.32
340.593	8.24
340.964	7.93
341.336	8.27
341.707	8.3
342.078	8.43
342.449	8.81
342.82	8.73
343.191	8.03
343.562	8.66
343.933	8.62
344.303	8.86
344.674	8.76
345.045	8.64
345.416	9.41
345.786	8.94
346.157	9.11
346.527	8.5
346.898	9.11
347.268	8.86
347.639	8.83
348.009	9.16
348.38	9.43
348.75	9.71
349.12	9.31
349.49	9.7
349.861	9.32
350.231	9.48
350.601	9.65
350.971	9.95
351.341	9.55
351.711	9.92
352.081	9.39
352.45	9.8
352.82	10.26
353.19	9.78
353.56	9.9
353.929	10.14
354.299	10.23
354.669	9.75
355.038	10.16
355.408	10.07
355.777	10.31
356.147	10.12
356.516	10.87
356.885	10.11
357.254	10.62
357.624	10.03
357.993	10.41
358.362	10.54
358.731	10.16
359.1	10.23
359.469	10.54
359.838	10.2
360.207	10.36
360.576	10.41
360.945	10.33
361.314	11.02
361.682	10.83
362.051	10.91
362.42	10.64
362.788	10.44
363.157	10.92
363.525	10.84
363.894	10.94
364.262	10.89
364.631	10.97
364.999	10.67
365.367	11.24
365.735	11.02
366.104	11.38
366.472	11.55
366.84	11.3
367.208	11.67
367.576	11.46
367.944	11.25
368.312	11.69
368.68	11.64
369.048	12.05
369.416	11.95
369.783	11.81
370.151	12.08
370.519	12.07
370.886	11.84
371.254	12.25
371.621	11.93
371.989	12.21
372.356	12.2
372.724	12.34
373.091	12.29
373.458	12.08
373.826	12.28
374.193	12.32
374.56	12.24
374.927	12.33
375.294	12.6
375.661	12.85
376.028	12.77
376.395	12.91
376.762	12.47
377.129	13.14
377.496	13.32
377.863	12.83
378.229	13.02
378.596	13.27
378.963	13.33
379.329	12.79
379.696	13.36
380.062	12.72
380.429	13.58
380.795	13.31
381.161	13.04
381.528	13.37
381.894	13.24
382.26	13.44
382.626	13.58
382.993	13.8
383.359	13.42
383.725	13.52
384.091	13.89
384.457	13.55
384.823	13.53
385.188	14.1
385.554	14.26
385.92	14.27
386.286	14.14
386.651	14.3
387.017	14.07
387.383	14.43
387.748	14.17
388.114	14.25
388.479	14.39
388.845	14.56
389.21	14.52
389.575	14.75
389.94	14.4
390.306	14.53
390.671	15.02
391.036	14.55
391.401	14.75
391.766	14.92
392.131	14.96
392.496	15.07
392.861	14.78
393.226	15.26
393.591	14.74
393.956	15.02
394.32	14.92
394.685	15.14
395.05	15.42
395.414	15.38
395.779	15.55
396.143	15.48
396.508	15.24
396.872	15.35
397.236	15.66
397.601	15.36
397.965	15.87
398.329	15.82
398.694	15.92
399.058	15.79
399.422	15.88
399.786	16.23
400.15	16.23
400.514	16.21
400.878	15.89
401.242	15.96
401.605	16.13
401.969	16.03
402.333	16.3
402.697	16.25
403.06	16.37
403.424	16.44
403.787	16.61
404.151	16.8
404.514	17.02
404.878	16.95
405.241	16.91
405.604	17.06
405.968	17.11
406.331	16.75
406.694	16.83
407.057	16.69
407.42	17.11
407.783	16.95
408.146	17.01
408.509	17.17
408.872	17.27
409.235	17.31
409.598	17.19
409.961	17.72
410.323	17.4
410.686	17.69
411.049	17.67
411.411	17.82
411.774	17.58
412.136	17.68
412.499	17.81
412.861	18.03
413.223	17.92
413.586	17.99
413.948	17.9
414.31	17.98
414.672	18.15
415.035	18.08
415.397	18.5
415.759	18.65
416.121	18.15
416.483	18.48
416.845	18.32
417.206	18.55
417.568	18.49
417.93	18.63
418.292	18.27
418.653	18.38
419.015	18.59
419.377	18.56
419.738	18.71
420.1	18.71
420.461	18.66
420.822	18.76
421.184	18.52
421.545	18.61
421.906	18.75
422.267	18.6
422.629	18.78
422.99	18.83
423.351	18.71
423.712	18.6
424.073	18.79
424.434	18.97
424.795	18.98
425.155	19.24
425.516	19.18
425.877	19.19
426.238	19
426.598	19.03
426.959	19.23
427.32	19.26
427.68	19.46
428.041	19.58
428.401	19.85
428.761	19.78
429.122	20
429.482	20.1
429.842	20.01
430.202	20.21
430.563	20.43
430.923	20.5
431.283	20.65
431.643	20.54
432.003	20.58
432.363	20.91
432.722	20.6
433.082	20.74
433.442	20.73
433.802	21.02
434.161	20.85
434.521	20.68
434.881	20.92
435.24	20.93
435.6	20.83
435.959	20.78
436.319	20.85
436.678	21.07
437.037	21.31
437.396	21.25
437.756	21.48
438.115	21.6
438.474	21.46
438.833	21.64
439.192	21.51
439.551	21.49
439.91	21.73
440.269	21.67
440.628	21.62
440.987	21.77
441.345	21.81
441.704	21.84
442.063	21.74
442.421	21.7
442.78	21.73
443.138	21.84
443.497	21.92
443.855	21.98
444.214	22.08
444.572	22.28
444.93	22.26
445.288	22.39
445.647	22.45
446.005	22.41
446.363	22.46
446.721	22.57
447.079	22.4
447.437	22.7
447.795	22.6
448.153	22.28
448.51	22.3
448.868	22.33
449.226	22.47
449.584	22.36
449.941	22.64
450.299	22.93
450.656	23.06
451.014	23.19
451.371	23.25
451.729	23.38
452.086	23.46
452.443	23.46
452.801	23.73
453.158	23.75
453.515	23.92
453.872	23.7
454.229	23.9
454.586	23.91
454.943	23.75
455.3	23.85
455.657	24
456.014	23.98
456.371	24.13
456.727	24.26
457.084	24.16
457.441	24.09
457.797	24.44
458.154	24.51
458.51	24.37
458.867	24.63
459.223	24.65
459.58	24.83
459.936	24.92
460.292	24.82
460.648	24.77
461.005	24.78
461.361	24.81
461.717	24.38
462.073	24.27
462.429	24.34
462.785	24.5
463.141	24.69
463.496	24.94
463.852	25.06
464.208	25.28
464.564	25.38
464.919	25.53
465.275	25.63
465.631	25.8
465.986	25.68
466.342	25.74
466.697	25.66
467.052	25.53
467.408	25.86
467.763	25.87
468.118	26.11
468.473	26.01
468.829	26.02
469.184	26.15
469.539	26.11
469.894	26.25
470.249	26.33
470.603	26.04
470.958	26.53
471.313	26.63
471.668	26.6
472.023	26.42
472.377	26.62
472.732	26.62
473.086	26.73
473.441	26.73
473.795	26.86
474.15	26.87
474.504	26.92
474.859	26.85
475.213	27.06
475.567	26.81
475.921	27.1
476.275	27.35
476.63	27.37
476.984	27.42
477.338	27.47
477.692	27.33
478.045	27.68
478.399	27.6
478.753	27.53
479.107	27.6
479.461	27.36
479.814	27.58
480.168	27.74
480.521	27.65
480.875	27.75
481.228	27.84
481.582	27.69
481.935	27.81
482.289	28.02
482.642	27.91
482.995	28.14
483.348	28.05
483.701	27.78
484.055	27.88
484.408	27.92
484.761	27.67
485.114	27.62
485.466	27.34
485.819	26.88
486.172	26.94
486.525	27.02
486.878	27.12
487.23	27.36
487.583	27.47
487.936	27.81
488.288	27.93
488.641	28.06
488.993	27.94
489.345	27.67
489.698	27.7
490.05	27.72
490.402	27.8
490.754	27.94
491.107	28.08
491.459	28.4
491.811	28.51
492.163	28.78
492.515	28.9
492.866	28.96
493.218	28.82
493.57	28.67
493.922	28.38
494.274	28.43
494.625	28.63
494.977	28.8
495.328	29.12
495.68	29.52
496.031	29.54
496.383	29.91
496.734	30.04
497.086	29.99
497.437	30.08
497.788	30.16
498.139	30.14
498.49	30.25
498.842	30.17
499.193	29.95
499.544	30.2
499.894	30.07
500.245	30.23
500.596	30.36
500.947	30.36
501.298	30.46
501.648	30.83
501.999	30.86
502.35	30.75
502.7	31.05
503.051	31.23
503.401	31.13
503.752	31.17
504.102	31.31
504.452	31.47
504.803	31.36
505.153	31.32
505.503	31.58
505.853	31.47
506.203	31.31
506.553	31.52
506.903	31.52
507.253	31.71
507.603	31.76
507.953	31.94
508.303	31.85
508.652	31.83
509.002	32.07
509.352	31.92
509.701	32
510.051	31.98
510.4	31.87
510.75	31.88
511.099	31.9
511.449	31.9
511.798	32.03
512.147	32.06
512.496	31.88
512.846	32.16
513.195	32.37
513.544	32.47
513.893	32.39
514.242	32.48
514.591	32.33
514.939	32.56
515.288	32.42
515.637	32.69
515.986	32.66
516.334	32.81
516.683	32.99
517.032	33.21
517.38	33.04
517.729	33.1
518.077	33.24
518.426	33.4
518.774	33.14
519.122	33.25
519.47	33.29
519.819	33.09
520.167	33.03
520.515	33.06
520.863	32.73
521.211	32.82
521.559	32.97
521.907	33.06
522.255	33.18
522.602	33.22
522.95	33.51
523.298	33.67
523.645	33.88
523.993	34.14
524.341	33.83
524.688	34.12
525.036	34.17
525.383	34.08
525.73	34.19
526.078	34.28
526.425	34.27
526.772	34.36
527.119	34.25
527.466	33.96
527.814	33.75
528.161	33.75
528.508	33.76
528.854	33.82
529.201	33.99
529.548	33.96
529.895	33.95
530.242	33.83
530.588	33.43
530.935	33.24
531.282	33.39
531.628	33.53
531.975	33.6
532.321	33.75
532.667	34.08
533.014	34.39
533.36	34.54
533.706	34.67
534.052	34.63
534.399	34.75
534.745	34.68
535.091	34.43
535.437	34.38
535.783	34.28
536.129	34.49
536.474	34.65
536.82	34.81
537.166	35.04
537.512	35.15
537.857	35.44
538.203	35.37
538.549	35.23
538.894	35.11
539.239	35.23
539.585	35.36
539.93	35.45
540.276	35.59
540.621	35.91
540.966	36.06
541.311	36.37
541.656	36.05
542.001	36.34
542.346	36.22
542.691	36.3
543.036	35.8
543.381	35.37
543.726	35.26
544.071	35.28
544.415	35.42
544.76	35.59
545.105	35.7
545.449	36.05
545.794	36.09
546.138	36.27
546.483	36.38
546.827	36.58
547.171	36.78
547.516	37.06
547.86	36.82
548.204	36.97
548.548	37.09
548.892	37.01
549.236	36.83
549.58	36.96
549.924	37.18
550.268	37.29
550.612	37.51
550.956	37.59
551.3	37.56
551.643	37.94
551.987	38.01
552.33	38.26
552.674	38.19
553.017	38.25
553.361	38.35
553.704	38.33
554.048	38.28
554.391	38.38
554.734	38.22
555.077	38.32
555.42	38.16
555.764	38.14
556.107	38.32
556.45	38.46
556.793	38.52
557.135	38.65
557.478	38.87
557.821	38.87
558.164	38.92
558.507	38.97
558.849	39.02
559.192	39.14
559.534	39.22
559.877	39.05
560.219	39.09
560.562	39.36
560.904	39.18
561.246	39.41
561.589	39.7
561.931	39.3
562.273	39.28
562.615	39.47
562.957	39.83
563.299	39.8
563.641	39.78
563.983	39.87
564.325	39.83
564.667	39.65
565.008	39.58
565.35	39.39
565.692	39.88
566.033	39.72
566.375	39.84
566.716	40.21
567.058	40.14
567.399	39.98
567.741	40.15
568.082	40.15
568.423	39.81
568.764	39.9
569.105	39.83
569.447	40.08
569.788	39.89
570.129	40.23
570.47	40.33
570.811	40.27
571.151	40.51
571.492	40.56
571.833	40.5
572.174	40.61
572.514	40.54
572.855	40.55
573.195	40.78
573.536	40.72
573.876	40.56
574.217	40.51
574.557	40.54
574.898	40.5
575.238	40.56
575.578	40.89
575.918	41.13
576.258	40.78
576.598	41.23
576.938	40.76
577.278	41.02
577.618	41.13
577.958	40.99
578.298	41.21
578.638	41.3
578.977	41.43
579.317	41.47
579.657	41.45
579.996	41.84
580.336	41.82
580.675	42.01
581.014	41.55
581.354	41.79
581.693	41.96
582.032	42.29
582.372	42.08
582.711	42.29
583.05	42.32
583.389	41.98
583.728	42.38
584.067	42.36
584.406	42.33
584.745	42.53
585.083	42.32
585.422	42.38
585.761	42.6
586.1	42.63
586.438	42.76
586.777	42.75
587.115	42.79
587.454	42.81
587.792	43.17
588.13	42.58
588.469	43.22
588.807	42.73
589.145	43.2
589.483	43.41
589.821	43.48
590.159	43.21
590.497	43.33
590.835	43.35
591.173	42.9
591.511	43.08
591.849	43.24
592.187	43.13
592.524	43.4
592.862	43.52
593.2	43.28
593.537	43.35
593.875	43.62
594.212	43.7
594.55	43.56
594.887	43.59
595.224	43.9
595.561	43.9
595.899	43.81
596.236	44.22
596.573	44.18
596.91	44.02
597.247	43.75
597.584	43.77
597.921	44.03
598.258	43.89
598.594	43.81
598.931	43.95
599.268	43.71
599.604	43.54
599.941	43.61
600.277	43.72
600.614	43.83
600.95	43.87
601.287	44.34
601.623	44.56
601.959	44.6
602.296	44.15
602.632	44.37
602.968	44.33
603.304	44.63
603.64	44.61
603.976	44.95
604.312	44.93
604.648	44.34
604.984	44.73
605.319	44.98
605.655	44.65
605.991	44.43
606.326	44.52
606.662	44.62
606.998	44.4
607.333	44.51
607.668	44.46
608.004	44.8
608.339	44.79
608.674	44.81
609.01	45.13
609.345	45.2
609.68	45.44
610.015	45.65
610.35	45.47
610.685	45.2
611.02	45.27
611.355	45.3
611.689	44.82
612.024	45.36
612.359	45.26
612.694	45.17
613.028	45.36
613.363	45.78
613.697	45.42
614.032	45.42
614.366	45.69
614.7	45.75
615.035	45.79
615.369	45.55
615.703	46.48
616.037	46.28
616.371	46.02
616.705	46.15
617.039	46.4
617.373	46.77
617.707	46.32
618.041	46.17
618.375	46.45
618.709	46.46
619.042	46.01
619.376	46.67
619.71	46.43
620.043	46.43
620.377	46.78
620.71	46.81
621.043	46.92
621.377	46.73
621.71	46.95
622.043	46.53
622.376	46.96
622.709	46.88
623.043	47.02
623.376	47.21
623.709	47.18
624.041	47.06
624.374	46.74
624.707	47.35
625.04	47.39
625.373	46.86
625.705	47.5
626.038	47.25
626.37	47.74
626.703	47.59
627.035	47.58
627.368	47.22
627.7	46.97
628.032	47.35
628.365	47.36
628.697	47.39
629.029	47.38
629.361	47.41
629.693	47.46
630.025	47.08
630.357	47.36
630.689	47.87
631.021	47.62
631.353	47.36
631.684	47.78
632.016	48.1
632.348	47.89
632.679	47.98
633.011	47.97
633.342	48.3
633.674	47.99
634.005	47.88
634.336	48.13
634.668	48.01
634.999	48.33
635.33	48.3
635.661	48.33
635.992	48.55
636.323	47.97
636.654	48.49
636.985	47.99
637.316	47.99
637.647	48.43
637.977	48.38
638.308	48.59
638.639	47.93
638.969	48.5
639.3	48.44
639.63	48.92
639.961	48.98
640.291	48.81
640.622	48.82
640.952	48.77
641.282	49.15
641.612	48.87
641.943	48.85
642.273	48.94
642.603	49.02
642.933	48.86
643.263	48.75
643.592	49.03
643.922	49.24
644.252	48.86
644.582	48.98
644.911	48.88
645.241	49.97
645.571	48.74
645.9	49.35
646.23	49.06
646.559	49.69
646.888	50.25
647.218	49.1
647.547	49.26
647.876	48.76
648.205	49.6
648.534	49.95
648.863	48.93
649.192	49.58
649.521	49.56
649.85	49.38
650.179	49.86
650.508	49.56
650.837	49.77
651.165	49.6
651.494	49.72
651.822	49.75
652.151	49.5
652.479	49.93
652.808	49.54
653.136	50.38
653.465	50.11
653.793	50.7
654.121	50.08
654.449	50.19
654.777	50.36
655.105	50.3
655.433	49.65
655.761	50.17
656.089	50.37
656.417	50.28
656.745	50.4
657.073	50.18
657.4	50.38
657.728	50.97
658.056	50.6
658.383	50.47
658.711	50.73
659.038	50.99
659.365	50.94
659.693	50.71
660.02	51.23
660.347	50.21
660.674	50.54
661.001	50.57
661.329	50.61
661.656	50.7
661.982	50.44
662.309	50.53
662.636	50.75
662.963	50.52
663.29	51.17
663.616	51
663.943	50.9
664.27	50.66
664.596	50.67
664.923	51.51
665.249	51.22
665.576	51.23
665.902	51.3
666.228	50.51
666.554	51.58
666.881	51.4
667.207	52.11
667.533	50.72
667.859	51.86
668.185	51.26
668.511	51.46
668.837	51.46
669.162	51.7
669.488	51.25
669.814	51.59
670.139	51.37
670.465	51.68
670.791	51.63
671.116	52.03
