Data from 0158_crown_Reflection__1__72.txt Node

Date: Fri Sep 22 20:53:46 CDT 2023
User: ToomeyLab
Spectrometer: FLMS14357
Trigger mode: 0
Integration Time (sec): 1.000000E-2
Scans to average: 100
Electric dark correction enabled: true
Nonlinearity correction enabled: false
Boxcar width: 0
XAxis mode: Wavelengths
Number of Pixels in Spectrum: 2048
>>>>>Begin Spectral Data<<<<<
189.047	-90.4
189.435	-90.4
189.823	-90.4
190.211	676.35
190.599	129.42
190.987	109.8
191.375	1913.76
191.763	154.69
192.151	106.11
192.538	987.94
192.926	-4.63
193.314	3.95
193.702	250.04
194.089	66.62
194.477	131.81
194.864	137.01
195.252	252.7
195.639	164.76
196.027	11.91
196.414	-55.98
196.801	-1136.99
197.189	-29.92
197.576	503.17
197.963	300.87
198.351	-29.2
198.738	23.88
199.125	-30.91
199.512	-29.58
199.899	87.4
200.286	9.7
200.673	38.61
201.06	28.36
201.447	49.39
201.833	-33.15
202.22	29.23
202.607	34.87
202.994	25.43
203.38	43.83
203.767	31.71
204.154	52.24
204.54	13.8
204.927	8.61
205.313	17.34
205.699	40.72
206.086	33.32
206.472	63.89
206.858	16.19
207.245	-11.46
207.631	9.72
208.017	5.97
208.403	11.78
208.789	41.83
209.175	37.98
209.561	24.43
209.947	5.77
210.333	26
210.719	1.48
211.105	23.48
211.491	15.87
211.876	19.14
212.262	33.68
212.648	15.76
213.034	22.61
213.419	-1.57
213.805	22.73
214.19	6.52
214.576	53.04
214.961	60.84
215.346	18.61
215.732	38.1
216.117	22.02
216.502	44.91
216.888	25.1
217.273	18.05
217.658	-14.14
218.043	7.26
218.428	29.49
218.813	-11.99
219.198	21.84
219.583	5.7
219.968	14.59
220.353	19.95
220.738	1.15
221.122	15.99
221.507	4.02
221.892	12.83
222.276	-11.06
222.661	-27.73
223.046	15.53
223.43	18.52
223.815	8.95
224.199	-2.61
224.583	10.3
224.968	14.8
225.352	3.38
225.736	8.2
226.121	11.68
226.505	5.57
226.889	4.14
227.273	-1.55
227.657	13.8
228.041	8.54
228.425	16.12
228.809	8.94
229.193	8.86
229.577	4.15
229.961	7.46
230.344	7.26
230.728	3.74
231.112	6.21
231.495	5.24
231.879	5.47
232.263	5.31
232.646	6.2
233.03	4.79
233.413	5.41
233.797	5.22
234.18	4.85
234.563	6.81
234.946	6.58
235.33	4.2
235.713	5.37
236.096	5.19
236.479	5.47
236.862	6.23
237.245	5.73
237.628	6.5
238.011	6.45
238.394	6.49
238.777	6.88
239.16	5.47
239.543	7.9
239.925	6.32
240.308	5.11
240.691	6.98
241.073	7.81
241.456	5.68
241.838	4.98
242.221	4.91
242.603	5.68
242.986	4.89
243.368	4.83
243.75	4.81
244.133	5.59
244.515	4.9
244.897	4.58
245.279	4.88
245.661	4.78
246.043	5.23
246.425	4.97
246.807	5.76
247.189	3.81
247.571	5.43
247.953	4.71
248.335	4.98
248.717	5.18
249.098	4.71
249.48	4.46
249.862	4.54
250.243	4.39
250.625	4.68
251.006	4.33
251.388	5.19
251.769	4.97
252.151	5.18
252.532	4.24
252.913	5.2
253.295	4.65
253.676	4.59
254.057	4.32
254.438	5.04
254.819	3.98
255.2	4.84
255.581	4.75
255.962	5.98
256.343	4.72
256.724	3.32
257.105	4.88
257.486	4.19
257.867	4.8
258.247	4.66
258.628	5.58
259.009	5.16
259.389	4.14
259.77	4.84
260.15	5.16
260.531	3.5
260.911	4.06
261.292	4.16
261.672	4.24
262.052	4.39
262.432	4.27
262.813	4.27
263.193	4.28
263.573	4.98
263.953	4.5
264.333	4.14
264.713	4.02
265.093	4.04
265.473	3.96
265.853	3.91
266.233	4.84
266.612	4.42
266.992	4.6
267.372	4.9
267.752	4.83
268.131	4.09
268.511	4.14
268.89	4.53
269.27	4.28
269.649	4.19
270.029	4.44
270.408	4.07
270.787	4.07
271.167	4.29
271.546	3.8
271.925	3.7
272.304	3.8
272.683	4.41
273.062	4.75
273.441	4.02
273.82	4.69
274.199	4.16
274.578	4.2
274.957	3.91
275.336	4.02
275.715	3.82
276.093	3.88
276.472	4.32
276.851	4.03
277.229	4.11
277.608	4.09
277.986	3.66
278.365	4.03
278.743	4.23
279.122	3.92
279.5	4.22
279.878	3.77
280.257	4.29
280.635	3.72
281.013	4.01
281.391	3.3
281.769	4.11
282.147	3.68
282.525	3.89
282.903	3.85
283.281	3.66
283.659	3.69
284.037	3.6
284.415	4.04
284.792	3.81
285.17	4.46
285.548	4.67
285.925	3.77
286.303	3.93
286.68	3.37
287.058	3.7
287.435	3.73
287.813	3.71
288.19	3.49
288.567	3.93
288.945	3.56
289.322	4.16
289.699	3.73
290.076	3.73
290.453	3.48
290.83	3.26
291.207	3.55
291.584	3.46
291.961	3.69
292.338	3.72
292.715	4
293.092	3.92
293.469	3.95
293.845	3.75
294.222	3.72
294.599	3.63
294.975	4.26
295.352	3.95
295.728	3.78
296.105	3.76
296.481	3.6
296.858	3.61
297.234	3.49
297.61	3.8
297.986	3.77
298.363	3.39
298.739	3.72
299.115	3.88
299.491	3.67
299.867	3.78
300.243	3.35
300.619	3.66
300.995	3.34
301.371	3.97
301.746	3.63
302.122	3.7
302.498	3.55
302.874	3.36
303.249	3.8
303.625	3.21
304	3.95
304.376	3.86
304.751	3.93
305.127	3.56
305.502	3.8
305.878	3.39
306.253	4.13
306.628	3.76
307.003	3.87
307.378	3.4
307.754	3.43
308.129	3.43
308.504	3.94
308.879	3.35
309.254	3.31
309.629	4.18
310.003	4
310.378	3.94
310.753	3.67
311.128	3.45
311.502	4.04
311.877	3.25
312.252	3.26
312.626	3.81
313.001	3.66
313.375	3.97
313.75	3.47
314.124	3.74
314.498	3.52
314.873	3.49
315.247	3.64
315.621	3.23
315.995	3.61
316.369	3.55
316.743	3.59
317.117	3.47
317.491	3.95
317.865	3.4
318.239	3.24
318.613	3.72
318.987	3.62
319.361	3.36
319.734	3.28
320.108	3.63
320.482	3.2
320.855	3.51
321.229	3.85
321.602	4.02
321.976	3.35
322.349	3.76
322.723	4.12
323.096	3.63
323.469	3.73
323.843	3.65
324.216	3.85
324.589	4.18
324.962	3.38
325.335	3.08
325.708	3.38
326.081	3.94
326.454	3.04
326.827	3.33
327.2	3.43
327.573	3.95
327.945	3.8
328.318	3.77
328.691	4.24
329.063	3.16
329.436	3.79
329.809	4.1
330.181	3.91
330.553	3.77
330.926	3.77
331.298	4.14
331.671	3.86
332.043	2.88
332.415	3.97
332.787	3.76
333.159	3.59
333.532	3.32
333.904	3.96
334.276	3.7
334.648	3.64
335.02	3.51
335.391	3.71
335.763	3.99
336.135	3.37
336.507	3.67
336.879	3.45
337.25	4.28
337.622	3.86
337.993	3.62
338.365	3.96
338.736	3.94
339.108	3.62
339.479	3.39
339.851	3.35
340.222	3.65
340.593	3.34
340.964	3.49
341.336	3.59
341.707	3.82
342.078	3.73
342.449	3.73
342.82	3.56
343.191	3.08
343.562	3.8
343.933	3.69
344.303	3.25
344.674	4.05
345.045	3.67
345.416	4.04
345.786	3.54
346.157	4.05
346.527	3.29
346.898	3.34
347.268	3.22
347.639	3.25
348.009	3.16
348.38	3.34
348.75	4.06
349.12	3.98
349.49	4.08
349.861	3.5
350.231	3.7
350.601	3.61
350.971	3.73
351.341	3.59
351.711	3.86
352.081	3.55
352.45	3.7
352.82	4.16
353.19	3.99
353.56	3.62
353.929	3.86
354.299	3.74
354.669	3.45
355.038	3.65
355.408	3.57
355.777	4
356.147	3.99
356.516	3.95
356.885	3.62
357.254	4.06
357.624	3.36
357.993	3.78
358.362	3.8
358.731	3.54
359.1	3.72
359.469	3.97
359.838	3.63
360.207	3.55
360.576	3.85
360.945	3.71
361.314	3.61
361.682	3.87
362.051	3.53
362.42	3.42
362.788	3.63
363.157	3.9
363.525	3.56
363.894	3.75
364.262	3.69
364.631	3.51
364.999	3.59
365.367	3.98
365.735	3.44
366.104	3.93
366.472	4.02
366.84	3.57
367.208	3.93
367.576	3.82
367.944	3.44
368.312	3.92
368.68	3.78
369.048	3.9
369.416	3.82
369.783	3.68
370.151	3.7
370.519	3.98
370.886	3.74
371.254	4.25
371.621	3.75
371.989	3.72
372.356	3.41
372.724	4.24
373.091	4.02
373.458	3.97
373.826	3.98
374.193	3.84
374.56	3.74
374.927	4.07
375.294	3.91
375.661	3.88
376.028	3.91
376.395	3.94
376.762	3.76
377.129	3.99
377.496	4.12
377.863	3.75
378.229	3.87
378.596	3.61
378.963	4.42
379.329	3.8
379.696	4.18
380.062	3.72
380.429	4.04
380.795	3.82
381.161	3.54
381.528	4.03
381.894	3.54
382.26	3.88
382.626	3.61
382.993	4.22
383.359	3.8
383.725	3.84
384.091	3.88
384.457	3.76
384.823	3.74
385.188	3.85
385.554	3.95
385.92	4.11
386.286	3.94
386.651	3.8
387.017	4.03
387.383	3.83
387.748	3.77
388.114	4
388.479	3.99
388.845	3.74
389.21	3.73
389.575	4.04
389.94	3.7
390.306	4.03
390.671	4.34
391.036	3.9
391.401	3.79
391.766	3.7
392.131	3.71
392.496	3.93
392.861	3.87
393.226	4.08
393.591	3.83
393.956	3.85
394.32	3.99
394.685	3.97
395.05	4
395.414	4.15
395.779	4.07
396.143	3.82
396.508	4.1
396.872	3.89
397.236	4.07
397.601	3.72
397.965	4.22
398.329	4.06
398.694	3.82
399.058	3.94
399.422	4
399.786	4.08
400.15	4.08
400.514	4.17
400.878	3.94
401.242	4.17
401.605	3.87
401.969	3.6
402.333	4.05
402.697	3.99
403.06	4.03
403.424	3.99
403.787	4.17
404.151	3.96
404.514	4.38
404.878	4.23
405.241	4.3
405.604	4.16
405.968	4.15
406.331	4.07
406.694	4.05
407.057	4.01
407.42	4.15
407.783	3.95
408.146	4.02
408.509	4.08
408.872	4.07
409.235	4.17
409.598	4
409.961	4.3
410.323	4.16
410.686	4.02
411.049	4.23
411.411	4.09
411.774	4.22
412.136	3.94
412.499	4.12
412.861	4.16
413.223	4.19
413.586	4.14
413.948	4.14
414.31	4
414.672	4.11
415.035	4.13
415.397	4.45
415.759	4.43
416.121	4.05
416.483	4.03
416.845	3.99
417.206	4.01
417.568	3.94
417.93	4.04
418.292	4.26
418.653	3.94
419.015	4.19
419.377	3.99
419.738	3.97
420.1	3.96
420.461	4.15
420.822	4.17
421.184	4.02
421.545	3.96
421.906	3.96
422.267	3.9
422.629	4.06
422.99	4.05
423.351	3.92
423.712	3.94
424.073	3.99
424.434	4.13
424.795	4.03
425.155	4.05
425.516	4.03
425.877	4.09
426.238	3.87
426.598	3.97
426.959	3.98
427.32	4.14
427.68	4.01
428.041	4.01
428.401	4
428.761	4.36
429.122	4.19
429.482	4.15
429.842	4.01
430.202	4.19
430.563	4.26
430.923	4.24
431.283	4.29
431.643	4.14
432.003	4.33
432.363	4.4
432.722	4.3
433.082	4.32
433.442	3.99
433.802	4.41
434.161	4.15
434.521	4.17
434.881	4.27
435.24	4.06
435.6	4.14
435.959	4.05
436.319	4.25
436.678	4.34
437.037	4.08
437.396	4.23
437.756	4.18
438.115	4.23
438.474	4.08
438.833	4.2
439.192	4.2
439.551	4.24
439.91	4.35
440.269	4.25
440.628	4.08
440.987	4.19
441.345	4.26
441.704	4.33
442.063	4.21
442.421	4.08
442.78	4.26
443.138	4.2
443.497	4.21
443.855	4.15
444.214	4.14
444.572	4.33
444.93	4.3
445.288	4.23
445.647	4.24
446.005	4.2
446.363	4.12
446.721	4.28
447.079	4.16
447.437	4.13
447.795	4.26
448.153	4.03
448.51	4.18
448.868	4.14
449.226	4.17
449.584	4.18
449.941	4.07
450.299	4.22
450.656	4.32
451.014	4.29
451.371	4.14
451.729	4.21
452.086	4.31
452.443	4.29
452.801	4.34
453.158	4.22
453.515	4.38
453.872	4.41
454.229	4.28
454.586	4.37
454.943	4.31
455.3	4.23
455.657	4.25
456.014	4.39
456.371	4.39
456.727	4.4
457.084	4.39
457.441	4.31
457.797	4.38
458.154	4.4
458.51	4.2
458.867	4.36
459.223	4.42
459.58	4.41
459.936	4.36
460.292	4.18
460.648	4.5
461.005	4.31
461.361	4.44
461.717	4.14
462.073	4.29
462.429	4.11
462.785	4.19
463.141	4.32
463.496	4.27
463.852	4.35
464.208	4.37
464.564	4.43
464.919	4.3
465.275	4.57
465.631	4.53
465.986	4.46
466.342	4.54
466.697	4.41
467.052	4.27
467.408	4.47
467.763	4.53
468.118	4.5
468.473	4.34
468.829	4.35
469.184	4.26
469.539	4.35
469.894	4.5
470.249	4.51
470.603	4.4
470.958	4.53
471.313	4.31
471.668	4.42
472.023	4.26
472.377	4.42
472.732	4.27
473.086	4.31
473.441	4.12
473.795	4.58
474.15	4.18
474.504	4.42
474.859	4.57
475.213	4.21
475.567	4.27
475.921	4.35
476.275	4.4
476.63	4.32
476.984	4.2
477.338	4.32
477.692	4.36
478.045	4.48
478.399	4.54
478.753	4.29
479.107	4.39
479.461	4.37
479.814	4.53
480.168	4.38
480.521	4.4
480.875	4.64
481.228	4.43
481.582	4.2
481.935	4.42
482.289	4.31
482.642	4.24
482.995	4.35
483.348	4.43
483.701	4.34
484.055	4.46
484.408	4.31
484.761	4.35
485.114	4.25
485.466	4.26
485.819	4.11
486.172	4.08
486.525	4.06
486.878	4.11
487.23	4.13
487.583	4.23
487.936	4.23
488.288	4.27
488.641	4.22
488.993	4.15
489.345	4.2
489.698	4.15
490.05	4.17
490.402	4.16
490.754	4.11
491.107	4.2
491.459	4.32
491.811	4.24
492.163	4.28
492.515	4.39
492.866	4.39
493.218	4.27
493.57	4.28
493.922	4.18
494.274	4.22
494.625	4.2
494.977	4.36
495.328	4.35
495.68	4.34
496.031	4.31
496.383	4.45
496.734	4.38
497.086	4.27
497.437	4.36
497.788	4.32
498.139	4.44
498.49	4.53
498.842	4.35
499.193	4.24
499.544	4.43
499.894	4.38
500.245	4.45
500.596	4.4
500.947	4.49
501.298	4.46
501.648	4.56
501.999	4.49
502.35	4.45
502.7	4.44
503.051	4.52
503.401	4.44
503.752	4.49
504.102	4.5
504.452	4.43
504.803	4.4
505.153	4.46
505.503	4.46
505.853	4.53
506.203	4.39
506.553	4.41
506.903	4.47
507.253	4.45
507.603	4.5
507.953	4.52
508.303	4.58
508.652	4.47
509.002	4.58
509.352	4.38
509.701	4.49
510.051	4.53
510.4	4.45
510.75	4.44
511.099	4.28
511.449	4.41
511.798	4.5
512.147	4.51
512.496	4.31
512.846	4.45
513.195	4.43
513.544	4.49
513.893	4.47
514.242	4.37
514.591	4.44
514.939	4.36
515.288	4.32
515.637	4.44
515.986	4.43
516.334	4.47
516.683	4.59
517.032	4.49
517.38	4.46
517.729	4.51
518.077	4.52
518.426	4.48
518.774	4.44
519.122	4.51
519.47	4.45
519.819	4.45
520.167	4.4
520.515	4.44
520.863	4.36
521.211	4.36
521.559	4.44
521.907	4.48
522.255	4.44
522.602	4.46
522.95	4.3
523.298	4.48
523.645	4.5
523.993	4.42
524.341	4.35
524.688	4.4
525.036	4.42
525.383	4.41
525.73	4.5
526.078	4.46
526.425	4.36
526.772	4.56
527.119	4.33
527.466	4.27
527.814	4.32
528.161	4.31
528.508	4.32
528.854	4.35
529.201	4.37
529.548	4.34
529.895	4.36
530.242	4.19
530.588	4.2
530.935	4.15
531.282	4.17
531.628	4.19
531.975	4.19
532.321	4.22
532.667	4.35
533.014	4.3
533.36	4.34
533.706	4.42
534.052	4.39
534.399	4.4
534.745	4.39
535.091	4.25
535.437	4.24
535.783	4.18
536.129	4.28
536.474	4.3
536.82	4.28
537.166	4.44
537.512	4.4
537.857	4.33
538.203	4.4
538.549	4.33
538.894	4.32
539.239	4.29
539.585	4.28
539.93	4.49
540.276	4.4
540.621	4.48
540.966	4.39
541.311	4.49
541.656	4.43
542.001	4.42
542.346	4.44
542.691	4.47
543.036	4.35
543.381	4.21
543.726	4.26
544.071	4.27
544.415	4.21
544.76	4.23
545.105	4.17
545.449	4.31
545.794	4.36
546.138	4.33
546.483	4.39
546.827	4.42
547.171	4.36
547.516	4.41
547.86	4.43
548.204	4.42
548.548	4.35
548.892	4.41
549.236	4.4
549.58	4.28
549.924	4.44
550.268	4.51
550.612	4.4
550.956	4.45
551.3	4.51
551.643	4.45
551.987	4.51
552.33	4.62
552.674	4.51
553.017	4.43
553.361	4.45
553.704	4.57
554.048	4.54
554.391	4.48
554.734	4.58
555.077	4.51
555.42	4.44
555.764	4.45
556.107	4.46
556.45	4.43
556.793	4.45
557.135	4.45
557.478	4.39
557.821	4.5
558.164	4.56
558.507	4.61
558.849	4.37
559.192	4.7
559.534	4.55
559.877	4.47
560.219	4.37
560.562	4.57
560.904	4.51
561.246	4.66
561.589	4.53
561.931	4.43
562.273	4.47
562.615	4.42
562.957	4.32
563.299	4.55
563.641	4.75
563.983	4.58
564.325	4.44
564.667	4.6
565.008	4.39
565.35	4.56
565.692	4.51
566.033	4.66
566.375	4.75
566.716	4.53
567.058	4.47
567.399	4.59
567.741	4.58
568.082	4.42
568.423	4.5
568.764	4.65
569.105	4.4
569.447	4.52
569.788	4.35
570.129	4.48
570.47	4.63
570.811	4.53
571.151	4.37
571.492	4.41
571.833	4.52
572.174	4.29
572.514	4.4
572.855	4.56
573.195	4.54
573.536	4.53
573.876	4.36
574.217	4.38
574.557	4.32
574.898	4.39
575.238	4.39
575.578	4.44
575.918	4.4
576.258	4.4
576.598	4.45
576.938	4.48
577.278	4.36
577.618	4.28
577.958	4.43
578.298	4.51
578.638	4.37
578.977	4.55
579.317	4.4
579.657	4.54
579.996	4.47
580.336	4.54
580.675	4.57
581.014	4.36
581.354	4.47
581.693	4.77
582.032	4.59
582.372	4.75
582.711	4.57
583.05	4.56
583.389	4.61
583.728	4.6
584.067	4.43
584.406	4.37
584.745	4.11
585.083	4.82
585.422	4.51
585.761	4.42
586.1	4.44
586.438	4.28
586.777	4.57
587.115	4.7
587.454	4.52
587.792	4.55
588.13	4.4
588.469	4.29
588.807	4.55
589.145	4.5
589.483	4.57
589.821	4.42
590.159	4.38
590.497	4.5
590.835	4.73
591.173	4.49
591.511	4.4
591.849	4.55
592.187	4.39
592.524	4.5
592.862	4.47
593.2	4.36
593.537	4.32
593.875	4.71
594.212	4.61
594.55	4.69
594.887	4.62
595.224	4.46
595.561	4.56
595.899	4.67
596.236	4.73
596.573	4.5
596.91	4.56
597.247	4.49
597.584	4.62
597.921	4.58
598.258	4.53
598.594	4.48
598.931	4.29
599.268	4.38
599.604	4.49
599.941	4.35
600.277	4.38
600.614	4.48
600.95	4.34
601.287	4.34
601.623	4.48
601.959	4.69
602.296	4.4
602.632	4.46
602.968	4.25
603.304	4.66
603.64	4.36
603.976	4.54
604.312	4.49
604.648	4.56
604.984	4.6
605.319	4.38
605.655	4.38
605.991	4.46
606.326	4.6
606.662	4.55
606.998	4.27
607.333	4.53
607.668	4.31
608.004	4.53
608.339	4.54
608.674	4.35
609.01	4.42
609.345	4.32
609.68	4.68
610.015	4.45
610.35	4.33
610.685	4.62
611.02	4.74
611.355	4.55
611.689	4.55
612.024	4.53
612.359	4.56
612.694	4.4
613.028	4.25
613.363	4.53
613.697	4.47
614.032	4.33
614.366	4.33
614.7	4.74
615.035	4.58
615.369	4.62
615.703	4.42
616.037	4.64
616.371	4.82
616.705	4.68
617.039	4.43
617.373	4.47
617.707	4.05
618.041	4.72
618.375	4.69
618.709	4.32
619.042	5
619.376	4.69
619.71	4.67
620.043	4.42
620.377	4.35
620.71	4.66
621.043	4.73
621.377	4.27
621.71	4.66
622.043	4.58
622.376	4.92
622.709	4.56
623.043	4.57
623.376	4.9
623.709	4.52
624.041	4.55
624.374	4.8
624.707	4.77
625.04	4.93
625.373	4.35
625.705	4.38
626.038	4.51
626.37	4.7
626.703	4.67
627.035	4.5
627.368	4.77
627.7	4.77
628.032	4.66
628.365	4.73
628.697	4.63
629.029	4.45
629.361	4.75
629.693	4.87
630.025	4.56
630.357	4.52
630.689	4.54
631.021	4.46
631.353	4.64
631.684	4.45
632.016	4.82
632.348	4.6
632.679	4.34
633.011	4.57
633.342	4.77
633.674	5.08
634.005	4.31
634.336	4.64
634.668	4.84
634.999	4.33
635.33	4.88
635.661	4.74
635.992	4.65
636.323	4.61
636.654	4.68
636.985	4.37
637.316	4.75
637.647	4.61
637.977	4.28
638.308	4.91
638.639	4.64
638.969	4.69
639.3	4.72
639.63	4.85
639.961	4.3
640.291	4.85
640.622	4.66
640.952	4.54
641.282	4.33
641.612	4.76
641.943	4.83
642.273	4.87
642.603	4.97
642.933	4.76
643.263	4.14
643.592	4.57
643.922	4.62
644.252	4.74
644.582	4.91
644.911	5.02
645.241	4.87
645.571	4.62
645.9	4.83
646.23	5
646.559	4.95
646.888	4.69
647.218	4.51
647.547	4.64
647.876	4.44
648.205	4.71
648.534	5.26
648.863	5
649.192	4.25
649.521	4.35
649.85	4.87
650.179	4.38
650.508	4.5
650.837	4.91
651.165	4.67
651.494	4.32
651.822	4.7
652.151	4.53
652.479	4.98
652.808	4.57
653.136	4.76
653.465	4.52
653.793	4.9
654.121	5.12
654.449	4.65
654.777	4.98
655.105	4.83
655.433	4.7
655.761	5.22
656.089	5.21
656.417	4.87
656.745	4.23
657.073	4.5
657.4	5.44
657.728	5.03
658.056	4.44
658.383	5.33
658.711	4.5
659.038	4.59
659.365	4.84
659.693	4.77
660.02	5.35
660.347	4.76
660.674	4.58
661.001	4.53
661.329	4.63
661.656	5.24
661.982	4.74
662.309	4.92
662.636	4.99
662.963	4.53
663.29	5.02
663.616	4.63
663.943	4.83
664.27	4.73
664.596	5.09
664.923	5.43
665.249	5
665.576	4.51
665.902	4.85
666.228	5.27
666.554	4.78
666.881	4.99
667.207	4.66
667.533	4.93
667.859	4.84
668.185	4.96
668.511	5.52
668.837	4.3
669.162	5.04
669.488	5.37
669.814	5.05
670.139	5.26
670.465	5.61
670.791	4.72
671.116	5
671.442	5.37
671.767	4.62
672.092	5.59
672.418	5.77
672.743	4.85
673.068	5.08
673.393	4.58
673.718	5.1
674.043	5.4
674.368	5.28
674.693	5
675.018	4.98
675.343	5.25
675.667	4.66
675.992	4.45
676.317	5.05
676.641	4.9
676.966	4.97
677.29	4.56
677.615	5.31
677.939	4.98
678.264	5.29
678.588	5.6
678.912	5.28
679.236	5.17
679.56	5.1
679.885	5.17
680.209	5.61
680.532	5.18
680.856	4.93
681.18	4.94
681.504	5.51
681.828	5.02
682.152	4.82
682.475	5.88
682.799	5
683.122	4.93
683.446	4.61
683.769	4.89
684.093	5.01
684.416	4.89
684.739	4.91
685.062	5.94
685.386	4.94
685.709	5.05
686.032	4.33
686.355	5.05
686.678	5.17
687.001	5.29
687.324	5.5
687.646	4.69
687.969	5.4
688.292	5.79
688.614	5.84
688.937	4.61
689.26	4.25
689.582	5.4
689.904	4.81
690.227	5.47
690.549	6.25
690.871	5.45
691.194	5.68
691.516	4.91
691.838	5.71
692.16	4.38
692.482	5.24
692.804	4.84
693.126	4.75
693.448	5.85
