Data from 0363_crown_Reflection__3__432.txt Node

Date: Fri Dec 15 20:32:32 CST 2023
User: ToomeyLab
Spectrometer: FLMS14357
Trigger mode: 0
Integration Time (sec): 1.000000E-2
Scans to average: 100
Electric dark correction enabled: true
Nonlinearity correction enabled: false
Boxcar width: 0
XAxis mode: Wavelengths
Number of Pixels in Spectrum: 2048
>>>>>Begin Spectral Data<<<<<
189.047	4.89
189.435	4.89
189.823	4.89
190.211	71.96
190.599	648.7
190.987	172.08
191.375	-333.69
191.763	-396.02
192.151	78.08
192.538	30.98
192.926	133.28
193.314	297.57
193.702	102.62
194.089	9.08
194.477	-2.21
194.864	58.08
195.252	140.74
195.639	71.01
196.027	1045.76
196.414	102.93
196.801	186.24
197.189	87.14
197.576	28.01
197.963	23.08
198.351	-22.02
198.738	-46.69
199.125	-52.86
199.512	-24.71
199.899	-6.74
200.286	-9.52
200.673	-23.71
201.06	-27.21
201.447	-266.36
201.833	-53.29
202.22	-6.59
202.607	4.5
202.994	7.27
203.38	4.64
203.767	-6.31
204.154	15.07
204.54	21.7
204.927	-118.94
205.313	-123.89
205.699	4.21
206.086	19.12
206.472	-11.57
206.858	15.04
207.245	-36.78
207.631	-3.66
208.017	-0.66
208.403	1.21
208.789	-10.08
209.175	33.35
209.561	-53.11
209.947	14.75
210.333	-61.62
210.719	-20.14
211.105	18.14
211.491	-33.58
211.876	-35.02
212.262	-15.84
212.648	26.12
213.034	23.06
213.419	-18.47
213.805	-10.69
214.19	8.16
214.576	-11
214.961	-101.81
215.346	-98.91
215.732	-84.27
216.117	-9.8
216.502	-54.19
216.888	6.64
217.273	9.29
217.658	-7.98
218.043	2.21
218.428	-47.44
218.813	-32.28
219.198	-33.3
219.583	-8.15
219.968	-25
220.353	-27.67
220.738	15.23
221.122	-2.07
221.507	-54.84
221.892	-27.61
222.276	-37.92
222.661	4.77
223.046	-1.57
223.43	13.89
223.815	13.77
224.199	-24.91
224.583	-3.91
224.968	2.63
225.352	14.75
225.736	2.71
226.121	-13.57
226.505	7.12
226.889	3.65
227.273	0.61
227.657	8.92
228.041	-0.76
228.425	3.39
228.809	8.43
229.193	5.51
229.577	3.37
229.961	4.89
230.344	4.21
230.728	4.38
231.112	5.32
231.495	4.53
231.879	4.66
232.263	6.25
232.646	4.26
233.03	4.68
233.413	5.11
233.797	5.18
234.18	4.89
234.563	4.34
234.946	3.14
235.33	4.56
235.713	2.97
236.096	4.58
236.479	5.59
236.862	3.23
237.245	6.45
237.628	2.95
238.011	4.91
238.394	5.82
238.777	4.26
239.16	1.24
239.543	4.61
239.925	5.94
240.308	2.24
240.691	5.86
241.073	5.28
241.456	3.9
241.838	3.77
242.221	2.79
242.603	5.98
242.986	4.34
243.368	4.58
243.75	5.11
244.133	4.58
244.515	5.15
244.897	4.87
245.279	4.38
245.661	4.74
246.043	3.85
246.425	3.9
246.807	5.69
247.189	4.89
247.571	5.2
247.953	5.16
248.335	4.4
248.717	4.74
249.098	4.64
249.48	4.78
249.862	5.04
250.243	4.95
250.625	4.2
251.006	4.58
251.388	3.8
251.769	4.58
252.151	4.14
252.532	4.02
252.913	4.06
253.295	3.67
253.676	4.45
254.057	4.65
254.438	4.82
254.819	4.32
255.2	3.21
255.581	4.43
255.962	4.46
256.343	4.69
256.724	3.1
257.105	4.15
257.486	2.61
257.867	4.44
258.247	3.96
258.628	3.61
259.009	3.88
259.389	4.52
259.77	4.4
260.15	3.31
260.531	3.84
260.911	5.01
261.292	4.46
261.672	4.84
262.052	4.65
262.432	4.71
262.813	4.44
263.193	4.01
263.573	3.25
263.953	4.01
264.333	4.9
264.713	4.65
265.093	3.22
265.473	3.63
265.853	3.87
266.233	4.65
266.612	2.77
266.992	3.05
267.372	4.41
267.752	4.53
268.131	3.82
268.511	4.82
268.89	4.36
269.27	4.25
269.649	3.81
270.029	4.02
270.408	5.61
270.787	4.88
271.167	5.29
271.546	4.69
271.925	3.21
272.304	4.17
272.683	5.13
273.062	4.01
273.441	4.62
273.82	3.96
274.199	4.61
274.578	4.18
274.957	3.62
275.336	4.39
275.715	4.29
276.093	4.29
276.472	3.98
276.851	3.7
277.229	4.15
277.608	3.66
277.986	4.01
278.365	4.22
278.743	4.11
279.122	4.11
279.5	3.88
279.878	4.67
280.257	4.33
280.635	3.5
281.013	4
281.391	3.97
281.769	4.31
282.147	3.89
282.525	4.52
282.903	4.31
283.281	4.31
283.659	4.57
284.037	4.49
284.415	4.43
284.792	4.19
285.17	3.34
285.548	4.32
285.925	4.38
286.303	4.16
286.68	3.82
287.058	4.31
287.435	4.01
287.813	4.06
288.19	4.02
288.567	4.1
288.945	4.44
289.322	4.12
289.699	4.21
290.076	4.32
290.453	4.34
290.83	4.02
291.207	3.5
291.584	4.06
291.961	4.13
292.338	3.91
292.715	4.28
293.092	3.59
293.469	3.66
293.845	4.05
294.222	3.42
294.599	4.03
294.975	3.37
295.352	3.7
295.728	3.63
296.105	4.09
296.481	4.06
296.858	3.95
297.234	4.38
297.61	3.75
297.986	4.01
298.363	3.78
298.739	4.37
299.115	4
299.491	4.13
299.867	4.68
300.243	4.01
300.619	3.8
300.995	3.95
301.371	4.18
301.746	3.26
302.122	3.83
302.498	3.55
302.874	3.64
303.249	4.42
303.625	4.02
304	4.08
304.376	4.12
304.751	3.41
305.127	4.32
305.502	3.3
305.878	3.67
306.253	4.04
306.628	4.35
307.003	4.11
307.378	4.16
307.754	3.89
308.129	2.65
308.504	3.69
308.879	3.52
309.254	3.83
309.629	4.4
310.003	4.15
310.378	4.14
310.753	4.04
311.128	4.19
311.502	3.78
311.877	4.24
312.252	3.61
312.626	4.29
313.001	3.95
313.375	4.45
313.75	3.64
314.124	4.07
314.498	3.8
314.873	3.71
315.247	3.51
315.621	3.37
315.995	3.63
316.369	3.16
316.743	3.5
317.117	4.2
317.491	3.16
317.865	3.65
318.239	3.79
318.613	3.72
318.987	4.13
319.361	3.47
319.734	4.03
320.108	4.57
320.482	3.9
320.855	4.14
321.229	3.57
321.602	3.9
321.976	3.88
322.349	4.14
322.723	3.99
323.096	3.85
323.469	2.84
323.843	3.93
324.216	4.2
324.589	3.45
324.962	4.42
325.335	3.34
325.708	3.46
326.081	3.67
326.454	3.74
326.827	3.73
327.2	4.12
327.573	4.13
327.945	3.57
328.318	3.47
328.691	3.62
329.063	3.83
329.436	2.97
329.809	3.75
330.181	3.59
330.553	3.86
330.926	3.71
331.298	3.52
331.671	3.49
332.043	3.92
332.415	3.85
332.787	3.35
333.159	4.08
333.532	3.61
333.904	4.12
334.276	3.7
334.648	4.25
335.02	3.61
335.391	3.69
335.763	3.15
336.135	4.23
336.507	3.51
336.879	3.35
337.25	3.95
337.622	4.15
337.993	3.73
338.365	3.89
338.736	3.43
339.108	3.8
339.479	3.87
339.851	3.63
340.222	3.4
340.593	3.41
340.964	3.4
341.336	4.31
341.707	3.21
342.078	3.71
342.449	3.49
342.82	3.67
343.191	3.85
343.562	3.68
343.933	3.95
344.303	3.79
344.674	3.83
345.045	3.6
345.416	4.28
345.786	3.52
346.157	3.99
346.527	3.44
346.898	3.37
347.268	4.28
347.639	4.16
348.009	3.71
348.38	3.78
348.75	3.72
349.12	3.64
349.49	4.04
349.861	3.94
350.231	3.73
350.601	3.95
350.971	4
351.341	4.47
351.711	3.68
352.081	4.09
352.45	3.8
352.82	4.07
353.19	3.78
353.56	3.58
353.929	3.45
354.299	3.78
354.669	3.59
355.038	4.29
355.408	3.9
355.777	3.79
356.147	3.65
356.516	3.75
356.885	3.65
357.254	3.93
357.624	3.86
357.993	4.04
358.362	3.75
358.731	3.69
359.1	3.75
359.469	3.98
359.838	3.79
360.207	3.66
360.576	3.56
360.945	3.87
361.314	3.97
361.682	3.76
362.051	3.7
362.42	4.04
362.788	3.9
363.157	3.68
363.525	4.02
363.894	4.12
364.262	4
364.631	3.76
364.999	3.89
365.367	3.48
365.735	4.59
366.104	4.04
366.472	3.86
366.84	3.56
367.208	4.02
367.576	4.34
367.944	4.11
368.312	3.42
368.68	3.87
369.048	4.07
369.416	3.92
369.783	3.65
370.151	3.89
370.519	4.23
370.886	4.05
371.254	3.87
371.621	3.94
371.989	4.08
372.356	3.56
372.724	3.72
373.091	3.9
373.458	3.84
373.826	4.09
374.193	3.83
374.56	4.03
374.927	4.04
375.294	3.9
375.661	3.69
376.028	3.54
376.395	3.66
376.762	3.79
377.129	3.87
377.496	4.12
377.863	3.9
378.229	3.54
378.596	3.72
378.963	3.54
379.329	3.87
379.696	4.04
380.062	4.04
380.429	3.84
380.795	3.81
381.161	3.81
381.528	4.04
381.894	3.9
382.26	3.53
382.626	4.04
382.993	3.85
383.359	4.08
383.725	3.61
384.091	3.75
384.457	4.21
384.823	4.13
385.188	4.09
385.554	4.03
385.92	4.04
386.286	4.26
386.651	4.24
387.017	4.27
387.383	4.15
387.748	3.77
388.114	4.15
388.479	4.1
388.845	4.3
389.21	4.18
389.575	3.96
389.94	4.23
390.306	4.27
390.671	4.16
391.036	3.67
391.401	3.92
391.766	4.17
392.131	3.94
392.496	3.87
392.861	4.13
393.226	4.35
393.591	4.07
393.956	3.98
394.32	4.32
394.685	4.03
395.05	3.88
395.414	3.82
395.779	3.68
396.143	4.26
396.508	4.16
396.872	4.29
397.236	4.15
397.601	4.02
397.965	4.11
398.329	4.41
398.694	3.95
399.058	4.15
399.422	3.91
399.786	4.19
400.15	4.26
400.514	4.29
400.878	4.23
401.242	4.7
401.605	4.57
401.969	4.24
402.333	4.24
402.697	4.06
403.06	4.21
403.424	4.07
403.787	4
404.151	4.32
404.514	4.23
404.878	4.23
405.241	4.36
405.604	4.17
405.968	4.21
406.331	4.24
406.694	4.31
407.057	4.24
407.42	4.38
407.783	4.17
408.146	4.22
408.509	4.21
408.872	4.13
409.235	4.16
409.598	4.52
409.961	4.11
410.323	4.04
410.686	4.09
411.049	4.05
411.411	4.25
411.774	4.34
412.136	4.26
412.499	4.02
412.861	4.38
413.223	4.32
413.586	4.33
413.948	4.17
414.31	4.31
414.672	4.14
415.035	4.05
415.397	4.43
415.759	3.88
416.121	4.52
416.483	4.25
416.845	4.09
417.206	4.17
417.568	4.45
417.93	3.86
418.292	4.04
418.653	4.34
419.015	4.35
419.377	4.15
419.738	4.26
420.1	4.35
420.461	4.27
420.822	4.29
421.184	4.19
421.545	4.24
421.906	4.1
422.267	4.31
422.629	4.33
422.99	4.24
423.351	4.15
423.712	4.25
424.073	4.23
424.434	4.27
424.795	4.24
425.155	4.25
425.516	4.1
425.877	4.19
426.238	4.14
426.598	4.31
426.959	4.25
427.32	4.2
427.68	4.26
428.041	4.24
428.401	4.47
428.761	4.45
429.122	4.23
429.482	4.12
429.842	4.32
430.202	4.4
430.563	4.21
430.923	4.24
431.283	4.34
431.643	4.29
432.003	4.13
432.363	4.23
432.722	4.53
433.082	4.52
433.442	4.26
433.802	4.24
434.161	4.37
434.521	4.65
434.881	4.4
435.24	4.23
435.6	4.24
435.959	4.28
436.319	4.38
436.678	4.32
437.037	4.31
437.396	4.38
437.756	4.42
438.115	4.42
438.474	4.65
438.833	4.26
439.192	4.32
439.551	4.34
439.91	4.39
440.269	4.38
440.628	4.28
440.987	4.43
441.345	4.25
441.704	4.46
442.063	4.37
442.421	4.22
442.78	4.4
443.138	4.28
443.497	4.31
443.855	4.34
444.214	4.24
444.572	4.41
444.93	4.39
445.288	4.3
445.647	4.53
446.005	4.25
446.363	4.37
446.721	4.45
447.079	4.29
447.437	4.26
447.795	4.38
448.153	4.25
448.51	4.18
448.868	4.33
449.226	4.36
449.584	4.36
449.941	4.42
450.299	4.55
450.656	4.27
451.014	4.3
451.371	4.28
451.729	4.37
452.086	4.57
452.443	4.41
452.801	4.44
453.158	4.47
453.515	4.39
453.872	4.5
454.229	4.39
454.586	4.33
454.943	4.39
455.3	4.46
455.657	4.35
456.014	4.24
456.371	4.38
456.727	4.39
457.084	4.53
457.441	4.43
457.797	4.29
458.154	4.72
458.51	4.45
458.867	4.66
459.223	4.72
459.58	4.33
459.936	4.6
460.292	4.45
460.648	4.35
461.005	4.38
461.361	4.5
461.717	4.41
462.073	4.35
462.429	4.36
462.785	4.5
463.141	4.41
463.496	4.38
463.852	4.5
464.208	4.41
464.564	4.54
464.919	4.48
465.275	4.48
465.631	4.76
465.986	4.53
466.342	4.28
466.697	4.31
467.052	4.66
467.408	4.71
467.763	4.46
468.118	4.49
468.473	4.46
468.829	4.58
469.184	4.41
469.539	4.62
469.894	4.39
470.249	4.7
470.603	4.69
470.958	4.5
471.313	4.73
471.668	4.67
472.023	4.54
472.377	4.54
472.732	4.37
473.086	4.74
473.441	4.48
473.795	4.6
474.15	4.5
474.504	4.42
474.859	4.58
475.213	4.5
475.567	4.51
475.921	4.65
476.275	4.68
476.63	4.56
476.984	4.67
477.338	4.59
477.692	4.46
478.045	4.39
478.399	4.49
478.753	4.48
479.107	4.43
479.461	4.56
479.814	4.52
480.168	4.44
480.521	4.46
480.875	4.48
481.228	4.44
481.582	4.55
481.935	4.61
482.289	4.65
482.642	4.56
482.995	4.58
483.348	4.33
483.701	4.5
484.055	4.54
484.408	4.52
484.761	4.47
485.114	4.35
485.466	4.27
485.819	4.25
486.172	4.28
486.525	4.32
486.878	4.35
487.23	4.36
487.583	4.41
487.936	4.51
488.288	4.44
488.641	4.48
488.993	4.29
489.345	4.31
489.698	4.34
490.05	4.32
490.402	4.43
490.754	4.43
491.107	4.47
491.459	4.41
491.811	4.48
492.163	4.48
492.515	4.5
492.866	4.51
493.218	4.42
493.57	4.36
493.922	4.37
494.274	4.51
494.625	4.58
494.977	4.59
495.328	4.46
495.68	4.6
496.031	4.67
496.383	4.51
496.734	4.72
497.086	4.67
497.437	4.67
497.788	4.6
498.139	4.52
498.49	4.56
498.842	4.42
499.193	4.58
499.544	4.53
499.894	4.55
500.245	4.53
500.596	4.49
500.947	4.66
501.298	4.55
501.648	4.67
501.999	4.72
502.35	4.59
502.7	4.58
503.051	4.5
503.401	4.62
503.752	4.71
504.102	4.6
504.452	4.75
504.803	4.61
505.153	4.7
505.503	4.62
505.853	4.54
506.203	4.65
506.553	4.65
506.903	4.64
507.253	4.48
507.603	4.54
507.953	4.64
508.303	4.69
508.652	4.48
509.002	4.62
509.352	4.76
509.701	4.6
510.051	4.57
510.4	4.54
510.75	4.64
511.099	4.67
511.449	4.56
511.798	4.58
512.147	4.63
512.496	4.52
512.846	4.62
513.195	4.65
513.544	4.64
513.893	4.69
514.242	4.67
514.591	4.92
514.939	4.6
515.288	4.68
515.637	4.68
515.986	4.74
516.334	4.71
516.683	4.79
517.032	4.69
517.38	4.74
517.729	4.7
518.077	4.7
518.426	4.77
518.774	4.64
519.122	4.66
519.47	4.68
519.819	4.57
520.167	4.73
520.515	4.68
520.863	4.67
521.211	4.63
521.559	4.72
521.907	4.54
522.255	4.68
522.602	4.61
522.95	4.68
523.298	4.63
523.645	4.61
523.993	4.65
524.341	4.79
524.688	4.83
525.036	4.68
525.383	4.76
525.73	4.79
526.078	4.78
526.425	4.64
526.772	4.64
527.119	4.68
527.466	4.51
527.814	4.64
528.161	4.65
528.508	4.72
528.854	4.69
529.201	4.69
529.548	4.58
529.895	4.48
530.242	4.42
530.588	4.45
530.935	4.46
531.282	4.53
531.628	4.56
531.975	4.61
532.321	4.65
532.667	4.7
533.014	4.76
533.36	4.79
533.706	4.73
534.052	4.7
534.399	4.55
534.745	4.67
535.091	4.61
535.437	4.6
535.783	4.62
536.129	4.67
536.474	4.67
536.82	4.74
537.166	4.63
537.512	4.79
537.857	4.74
538.203	4.75
538.549	4.69
538.894	4.65
539.239	4.8
539.585	4.67
539.93	4.69
540.276	4.82
540.621	4.89
540.966	4.78
541.311	4.77
541.656	4.7
542.001	4.78
542.346	4.83
542.691	4.67
543.036	4.64
543.381	4.5
543.726	4.55
544.071	4.68
544.415	4.72
544.76	4.6
545.105	4.7
545.449	4.71
545.794	4.73
546.138	4.76
546.483	4.87
546.827	4.81
547.171	4.76
547.516	4.85
547.86	4.78
548.204	4.83
548.548	4.64
548.892	4.84
549.236	4.8
549.58	4.68
549.924	4.86
550.268	4.89
550.612	4.96
550.956	4.91
551.3	4.76
551.643	4.93
551.987	5.03
552.33	4.88
552.674	4.96
553.017	4.76
553.361	4.88
553.704	4.96
554.048	4.84
554.391	4.79
554.734	4.82
555.077	4.88
555.42	4.77
555.764	4.79
556.107	4.76
556.45	4.74
556.793	4.84
557.135	4.81
557.478	4.96
557.821	4.73
558.164	4.67
558.507	4.76
558.849	4.77
559.192	5
559.534	4.8
559.877	4.92
560.219	4.75
560.562	4.95
560.904	4.85
561.246	4.93
561.589	4.84
561.931	4.88
562.273	4.8
562.615	4.97
562.957	4.89
563.299	4.66
563.641	4.87
563.983	4.85
564.325	4.74
564.667	4.82
565.008	4.89
565.35	4.76
565.692	4.66
566.033	4.74
566.375	4.86
566.716	5.03
567.058	4.83
567.399	4.79
567.741	4.61
568.082	4.69
568.423	4.78
568.764	4.78
569.105	5.04
569.447	5.08
569.788	4.88
570.129	5.03
570.47	4.85
570.811	5.02
571.151	5.01
571.492	4.94
571.833	5.01
572.174	4.85
572.514	4.85
572.855	5.01
573.195	4.93
573.536	4.82
573.876	4.8
574.217	4.88
574.557	4.87
574.898	5
575.238	4.95
575.578	4.88
575.918	5
576.258	5
576.598	5.07
576.938	4.86
577.278	4.9
577.618	4.79
577.958	4.91
578.298	4.97
578.638	4.9
578.977	4.78
579.317	4.78
579.657	4.85
579.996	4.99
580.336	4.99
580.675	5.06
581.014	5.03
581.354	4.73
581.693	4.85
582.032	4.86
582.372	4.77
582.711	4.85
583.05	4.69
583.389	4.91
583.728	4.76
584.067	5.03
584.406	4.86
584.745	4.96
585.083	4.9
585.422	4.96
585.761	4.64
586.1	4.76
586.438	4.88
586.777	5.03
587.115	5.04
587.454	4.83
587.792	4.75
588.13	5.16
588.469	5.01
588.807	4.97
589.145	4.67
589.483	4.81
589.821	4.99
590.159	4.9
590.497	5.04
590.835	5.24
591.173	4.84
591.511	5.3
591.849	5.16
592.187	4.9
592.524	5.18
592.862	4.94
593.2	5.02
593.537	4.92
593.875	4.78
594.212	4.94
594.55	4.93
594.887	5.21
595.224	4.71
595.561	5.02
595.899	5.08
596.236	4.81
596.573	5.12
596.91	4.62
597.247	4.77
597.584	5.18
597.921	4.89
598.258	4.97
598.594	4.91
598.931	4.85
599.268	5.15
599.604	4.76
599.941	5.15
600.277	5.04
600.614	4.84
600.95	4.82
601.287	5.05
601.623	4.78
601.959	4.75
602.296	5.02
602.632	4.76
602.968	4.9
603.304	4.7
603.64	4.85
603.976	5.14
604.312	4.85
604.648	4.98
604.984	5.22
605.319	5.1
605.655	5.05
605.991	4.96
606.326	5.03
606.662	4.96
606.998	4.74
607.333	4.98
607.668	5
608.004	4.9
608.339	5.11
608.674	4.99
609.01	4.92
609.345	4.84
609.68	5.26
610.015	4.75
610.35	4.8
610.685	4.83
611.02	4.88
611.355	4.89
611.689	4.98
612.024	4.92
612.359	5.05
612.694	5.01
613.028	4.78
613.363	4.85
613.697	5.04
614.032	5.08
614.366	4.95
614.7	5.06
615.035	5.15
615.369	4.95
615.703	4.88
616.037	4.99
616.371	4.23
616.705	4.63
617.039	5.03
617.373	5.01
617.707	5
618.041	4.84
618.375	4.91
618.709	4.94
619.042	4.69
619.376	5.29
619.71	5.24
620.043	5.13
620.377	4.93
620.71	4.8
621.043	4.61
621.377	4.93
621.71	4.99
622.043	4.92
622.376	4.41
622.709	5.1
623.043	4.76
623.376	5.2
623.709	4.84
624.041	5.11
624.374	5.02
624.707	4.74
625.04	5.17
625.373	4.51
625.705	4.69
626.038	4.93
626.37	4.41
626.703	5.11
627.035	5.01
627.368	5.49
627.7	5.11
628.032	4.56
628.365	5.07
628.697	4.86
629.029	4.75
629.361	4.63
629.693	5.04
630.025	4.82
630.357	5.17
630.689	5.05
631.021	4.88
631.353	4.86
631.684	4.84
632.016	4.72
632.348	5.27
632.679	4.87
633.011	5.09
633.342	5.27
633.674	5.13
634.005	5.3
634.336	4.64
634.668	5.39
634.999	4.55
635.33	5.09
635.661	5.11
635.992	4.74
636.323	5.02
636.654	5.13
636.985	5.07
637.316	4.88
637.647	4.79
637.977	5.08
638.308	5.05
638.639	5.05
638.969	4.62
639.3	4.92
639.63	4.5
639.961	4.56
640.291	5.11
640.622	5.15
640.952	4.52
641.282	5.48
641.612	4.88
641.943	4.74
642.273	5.17
642.603	5.02
642.933	5.34
643.263	4.56
643.592	4.98
643.922	4.78
644.252	4.89
644.582	4.84
644.911	4.6
645.241	4.85
645.571	4.84
645.9	4.54
646.23	5.06
646.559	5.09
646.888	4.67
647.218	4.58
647.547	5
647.876	4.54
648.205	4.85
648.534	5
648.863	4.55
649.192	5.19
649.521	4.58
649.85	4.44
650.179	4.65
650.508	5.04
650.837	4.25
651.165	4.71
651.494	4.85
651.822	5.09
652.151	4.74
652.479	4.79
652.808	4
653.136	5.02
653.465	4.45
653.793	4.4
654.121	4.42
654.449	5.15
654.777	5.12
655.105	5.05
655.433	4.48
655.761	5.26
656.089	5.15
656.417	5.11
656.745	4.53
657.073	4.34
657.4	5.24
657.728	5.06
658.056	5.07
658.383	4.93
658.711	4.86
659.038	5.59
659.365	5.18
659.693	4.57
660.02	4.91
660.347	4.85
660.674	5.15
661.001	4.99
661.329	4.34
661.656	4.91
661.982	4.7
662.309	4.9
662.636	4.49
662.963	5.12
663.29	5.49
663.616	5.19
663.943	4.16
664.27	5.14
664.596	4.83
664.923	4.63
665.249	4.6
665.576	4.54
665.902	5.67
666.228	5.26
666.554	4.67
666.881	5.2
667.207	4.8
667.533	4.71
667.859	5.1
668.185	5.51
668.511	4.49
668.837	3.5
669.162	4.24
669.488	4.17
669.814	5.55
670.139	5.15
670.465	4.53
670.791	5.38
671.116	5.49
671.442	4.55
671.767	5.25
672.092	5.48
672.418	5.74
672.743	5.34
673.068	4.49
673.393	5.28
673.718	4.56
674.043	5.3
674.368	5.16
674.693	5.55
675.018	5.02
675.343	4.88
675.667	4.95
675.992	4.24
676.317	5.37
676.641	5.2
676.966	4.79
677.29	4.5
677.615	4.94
677.939	5.54
678.264	5.29
678.588	4.95
678.912	5.04
679.236	5.21
679.56	4.67
679.885	5.16
680.209	4.81
680.532	5.12
680.856	5.4
681.18	4.9
681.504	4.95
681.828	5.17
682.152	4.69
682.475	4.96
682.799	5.04
683.122	5.04
683.446	4.52
683.769	5.48
684.093	4.73
684.416	5.52
684.739	5.62
685.062	5.07
685.386	5.57
685.709	4.56
686.032	5.17
686.355	5.84
686.678	4.52
687.001	4.83
687.324	5.47
687.646	4.63
687.969	4.4
688.292	5.45
688.614	5.34
688.937	5.19
689.26	5.49
689.582	5.12
689.904	5.05
690.227	5.88
690.549	5.36
690.871	5.26
691.194	4.42
691.516	4.55
691.838	5.51
692.16	4.08
