Data from 0363_chest_Reflection__1__425.txt Node

Date: Fri Dec 15 20:30:26 CST 2023
User: ToomeyLab
Spectrometer: FLMS14357
Trigger mode: 0
Integration Time (sec): 1.000000E-2
Scans to average: 100
Electric dark correction enabled: true
Nonlinearity correction enabled: false
Boxcar width: 0
XAxis mode: Wavelengths
Number of Pixels in Spectrum: 2048
>>>>>Begin Spectral Data<<<<<
189.047	-26.9
189.435	-26.9
189.823	-26.9
190.211	110.02
190.599	-69.38
190.987	343.01
191.375	-129.61
191.763	-154.7
192.151	567.62
192.538	24.68
192.926	-60.11
193.314	243.57
193.702	102.95
194.089	-319.31
194.477	-16.01
194.864	-22.67
195.252	228.6
195.639	74.13
196.027	-259.01
196.414	67.52
196.801	228.52
197.189	136.42
197.576	93.2
197.963	-100.34
198.351	7.89
198.738	7.58
199.125	48.13
199.512	-1.06
199.899	20.89
200.286	-8.44
200.673	-70.35
201.06	-5.84
201.447	72.58
201.833	-56.86
202.22	11.18
202.607	-30.96
202.994	-21.17
203.38	-7.9
203.767	25.52
204.154	15.75
204.54	32.37
204.927	-68.42
205.313	-37.45
205.699	2.99
206.086	7.18
206.472	39.22
206.858	29.4
207.245	-15.54
207.631	2.14
208.017	41.78
208.403	-18.71
208.789	48.71
209.175	-13.76
209.561	34.34
209.947	4.12
210.333	-27.57
210.719	16.86
211.105	17.43
211.491	-62.58
211.876	17.22
212.262	0.51
212.648	-9.44
213.034	-6.91
213.419	-62.14
213.805	-35.2
214.19	-32.8
214.576	49.08
214.961	-23.63
215.346	-135.36
215.732	-22.89
216.117	4.55
216.502	6.99
216.888	10.69
217.273	14.64
217.658	-12.84
218.043	-4.54
218.428	-24.71
218.813	-27.47
219.198	-40.52
219.583	-13.44
219.968	0.45
220.353	-25.04
220.738	-9.8
221.122	-9.91
221.507	-22.87
221.892	-73.51
222.276	-31.04
222.661	1.69
223.046	8.45
223.43	4.64
223.815	6.7
224.199	-19.08
224.583	2.34
224.968	1.26
225.352	6.99
225.736	-11.19
226.121	-7.53
226.505	-4.01
226.889	7.43
227.273	-1.36
227.657	5.07
228.041	2.03
228.425	-0.37
228.809	8.76
229.193	2.16
229.577	3.67
229.961	3.64
230.344	4.03
230.728	4.46
231.112	4.68
231.495	4.81
231.879	4.27
232.263	4.92
232.646	4.37
233.03	5.1
233.413	2.91
233.797	3.25
234.18	3.47
234.563	4.3
234.946	2.33
235.33	5.91
235.713	6.17
236.096	4.45
236.479	5.28
236.862	3.14
237.245	4.87
237.628	3.84
238.011	5.32
238.394	6.41
238.777	4.12
239.16	0.93
239.543	4.28
239.925	4.07
240.308	1.76
240.691	5.88
241.073	4.94
241.456	3.72
241.838	3.02
242.221	3.47
242.603	4.44
242.986	4.02
243.368	4.79
243.75	4.71
244.133	4.52
244.515	4.63
244.897	4.56
245.279	4.68
245.661	4.44
246.043	4.31
246.425	3.13
246.807	4.95
247.189	4.79
247.571	4.71
247.953	4.77
248.335	4.41
248.717	4.75
249.098	4.49
249.48	4.64
249.862	4.46
250.243	4.62
250.625	4.95
251.006	4.31
251.388	3.21
251.769	3.69
252.151	4.91
252.532	4.28
252.913	4.01
253.295	3.8
253.676	4.78
254.057	4.7
254.438	4.41
254.819	3.48
255.2	3.99
255.581	4.07
255.962	4.23
256.343	3.89
256.724	2.63
257.105	3.54
257.486	3.57
257.867	4.64
258.247	4.03
258.628	3.65
259.009	4.13
259.389	4.41
259.77	3.41
260.15	3.39
260.531	3.67
260.911	4.18
261.292	4.2
261.672	4.72
262.052	4.27
262.432	4.61
262.813	3.9
263.193	3.67
263.573	3.78
263.953	3.28
264.333	4.97
264.713	4.24
265.093	3.47
265.473	3.24
265.853	3.9
266.233	4.17
266.612	2.66
266.992	2.82
267.372	4.51
267.752	4.07
268.131	4.25
268.511	4.67
268.89	4.44
269.27	4
269.649	3.93
270.029	3.81
270.408	5.13
270.787	4.13
271.167	4.77
271.546	4.92
271.925	3.64
272.304	3.7
272.683	4.52
273.062	4
273.441	4.19
273.82	3.62
274.199	4.08
274.578	4.07
274.957	3.82
275.336	4.33
275.715	4.43
276.093	3.94
276.472	4.09
276.851	3.96
277.229	3.69
277.608	3.23
277.986	4.45
278.365	3.85
278.743	3.7
279.122	3.6
279.5	3.89
279.878	4.21
280.257	3.38
280.635	3.35
281.013	4.12
281.391	3.76
281.769	3.64
282.147	4.08
282.525	4.59
282.903	4.02
283.281	4.19
283.659	4.12
284.037	4.1
284.415	3.87
284.792	3.83
285.17	3.72
285.548	3.73
285.925	3.95
286.303	4.01
286.68	3.59
287.058	4.2
287.435	3.89
287.813	4.14
288.19	3.79
288.567	4.41
288.945	4.46
289.322	4.13
289.699	3.55
290.076	3.44
290.453	3.91
290.83	3.93
291.207	3.94
291.584	3.79
291.961	4.39
292.338	4.29
292.715	4.19
293.092	3.76
293.469	3.76
293.845	3.94
294.222	3.64
294.599	4.18
294.975	3.85
295.352	3.79
295.728	3.82
296.105	3.62
296.481	4.31
296.858	4.14
297.234	4.18
297.61	4.13
297.986	4.15
298.363	4.45
298.739	4.24
299.115	4.23
299.491	4.16
299.867	4.1
300.243	4.41
300.619	3.83
300.995	3.96
301.371	3.86
301.746	3.47
302.122	4.54
302.498	4.05
302.874	4.25
303.249	4.04
303.625	4.14
304	4.53
304.376	4.39
304.751	3.53
305.127	4.46
305.502	3.25
305.878	3.82
306.253	4.02
306.628	4.5
307.003	4.19
307.378	4.32
307.754	4.5
308.129	3.75
308.504	4.1
308.879	4
309.254	4.69
309.629	4.91
310.003	4.17
310.378	4.49
310.753	4.47
311.128	4.4
311.502	4.32
311.877	4.61
312.252	4.05
312.626	4.48
313.001	4.18
313.375	4.41
313.75	4.16
314.124	5.07
314.498	4.09
314.873	3.94
315.247	4.4
315.621	4.78
315.995	3.73
316.369	4.09
316.743	4.02
317.117	4.59
317.491	4.38
317.865	4.61
318.239	3.94
318.613	4.68
318.987	4.79
319.361	4.58
319.734	4.46
320.108	4.72
320.482	4.25
320.855	4.76
321.229	4.4
321.602	4.81
321.976	5.11
322.349	4.37
322.723	4.2
323.096	4.7
323.469	4.12
323.843	4.15
324.216	4.65
324.589	4.58
324.962	4.39
325.335	4.56
325.708	4.3
326.081	4.34
326.454	4.33
326.827	4.02
327.2	4.13
327.573	4.61
327.945	4.54
328.318	4.34
328.691	3.76
329.063	4.89
329.436	4.41
329.809	4.65
330.181	4.64
330.553	4.76
330.926	4.37
331.298	3.99
331.671	3.95
332.043	5.05
332.415	4.66
332.787	5.1
333.159	5.32
333.532	5.07
333.904	4.7
334.276	4.54
334.648	4.28
335.02	4.53
335.391	4.36
335.763	4.55
336.135	4.29
336.507	4.85
336.879	5.14
337.25	5.21
337.622	3.89
337.993	4.69
338.365	5.41
338.736	4.62
339.108	4.98
339.479	4.35
339.851	4.71
340.222	4.6
340.593	4.64
340.964	4.61
341.336	5.77
341.707	4.61
342.078	5.29
342.449	4.89
342.82	4.74
343.191	4.48
343.562	4.63
343.933	4.93
344.303	4.71
344.674	4.67
345.045	5.03
345.416	5.25
345.786	4.24
346.157	4.67
346.527	4.35
346.898	4.27
347.268	4.84
347.639	4.6
348.009	4.58
348.38	4.42
348.75	4.5
349.12	4.58
349.49	4.83
349.861	4.48
350.231	4.81
350.601	4.76
350.971	4.92
351.341	4.9
351.711	4.86
352.081	4.66
352.45	4.67
352.82	5.04
353.19	4.52
353.56	4.47
353.929	4.67
354.299	4.55
354.669	4.03
355.038	4.97
355.408	5.02
355.777	4.82
356.147	4.45
356.516	4.69
356.885	4.54
357.254	4.93
357.624	5.09
357.993	4.92
358.362	4.66
358.731	4.74
359.1	5.04
359.469	4.8
359.838	5.04
360.207	4.78
360.576	4.71
360.945	5.09
361.314	4.88
361.682	4.75
362.051	4.52
362.42	5.02
362.788	4.89
363.157	4.98
363.525	5.28
363.894	4.91
364.262	5.13
364.631	4.98
364.999	5.07
365.367	4.37
365.735	5.59
366.104	4.89
366.472	5.22
366.84	4.74
367.208	4.86
367.576	5.46
367.944	5.24
368.312	4.58
368.68	5.04
369.048	5.26
369.416	4.91
369.783	4.41
370.151	5.08
370.519	5.02
370.886	5.07
371.254	4.86
371.621	5.5
371.989	5.33
372.356	4.94
372.724	5.21
373.091	4.85
373.458	4.63
373.826	5.08
374.193	5.14
374.56	5.08
374.927	5.35
375.294	5.2
375.661	4.56
376.028	4.69
376.395	4.93
376.762	4.96
377.129	4.9
377.496	5.13
377.863	5.01
378.229	4.52
378.596	5.26
378.963	4.88
379.329	4.89
379.696	5.04
380.062	5.3
380.429	4.67
380.795	4.72
381.161	5.26
381.528	5.33
381.894	4.97
382.26	4.93
382.626	5.47
382.993	4.83
383.359	5.36
383.725	5.01
384.091	4.95
384.457	5.13
384.823	4.98
385.188	5.18
385.554	5.11
385.92	5.37
386.286	5.29
386.651	5.28
387.017	5.43
387.383	5.03
387.748	4.81
388.114	5.38
388.479	4.98
388.845	5.46
389.21	5.38
389.575	5.2
389.94	5.18
390.306	5.29
390.671	5.58
391.036	4.64
391.401	4.8
391.766	5.36
392.131	5.07
392.496	5.45
392.861	5.12
393.226	5.2
393.591	5.27
393.956	4.97
394.32	5.1
394.685	4.94
395.05	5
395.414	5.14
395.779	4.68
396.143	5.26
396.508	5.19
396.872	5.34
397.236	5.17
397.601	4.94
397.965	5.21
398.329	5.04
398.694	5.39
399.058	5.4
399.422	4.96
399.786	5.43
400.15	5.12
400.514	5.43
400.878	5.39
401.242	5.5
401.605	5.27
401.969	5.45
402.333	5.25
402.697	5.27
403.06	5.21
403.424	5.16
403.787	5.04
404.151	5.48
404.514	5.32
404.878	5.24
405.241	5.45
405.604	5.26
405.968	5.33
406.331	5.38
406.694	5.5
407.057	5.33
407.42	5.61
407.783	5.29
408.146	5.23
408.509	5.13
408.872	5.06
409.235	5.42
409.598	5.49
409.961	5.17
410.323	5.56
410.686	5.4
411.049	5.13
411.411	5.2
411.774	5.46
412.136	5.47
412.499	5.36
412.861	5.32
413.223	4.99
413.586	5.4
413.948	5.38
414.31	5.12
414.672	5.44
415.035	5.18
415.397	5.56
415.759	5.08
416.121	5.63
416.483	5.29
416.845	5.42
417.206	5.21
417.568	5.39
417.93	5.26
418.292	5.38
418.653	5.33
419.015	5.37
419.377	5.42
419.738	5.27
420.1	5.31
420.461	5.53
420.822	5.48
421.184	5.35
421.545	5.38
421.906	5.18
422.267	5.3
422.629	5.31
422.99	5.3
423.351	5.42
423.712	5.2
424.073	5.31
424.434	5.2
424.795	5.35
425.155	5.37
425.516	5.3
425.877	5.37
426.238	5.33
426.598	5.49
426.959	5.33
427.32	5.16
427.68	5.41
428.041	5.33
428.401	5.43
428.761	5.31
429.122	5.47
429.482	5.32
429.842	5.54
430.202	5.57
430.563	5.5
430.923	5.39
431.283	5.59
431.643	5.37
432.003	5.41
432.363	5.49
432.722	5.25
433.082	5.43
433.442	5.45
433.802	5.05
434.161	5.38
434.521	5.71
434.881	5.63
435.24	5.44
435.6	5.4
435.959	5.53
436.319	5.43
436.678	5.38
437.037	5.45
437.396	5.51
437.756	5.44
438.115	5.4
438.474	5.64
438.833	5.42
439.192	5.51
439.551	5.62
439.91	5.54
440.269	5.66
440.628	5.39
440.987	5.48
441.345	5.36
441.704	5.57
442.063	5.54
442.421	5.54
442.78	5.44
443.138	5.51
443.497	5.52
443.855	5.48
444.214	5.53
444.572	5.56
444.93	5.47
445.288	5.48
445.647	5.67
446.005	5.59
446.363	5.74
446.721	5.71
447.079	5.35
447.437	5.49
447.795	5.55
448.153	5.46
448.51	5.6
448.868	5.59
449.226	5.5
449.584	5.49
449.941	5.71
450.299	5.54
450.656	5.53
451.014	5.5
451.371	5.4
451.729	5.38
452.086	5.66
452.443	5.51
452.801	5.61
453.158	5.46
453.515	5.53
453.872	5.71
454.229	5.55
454.586	5.51
454.943	5.54
455.3	5.6
455.657	5.58
456.014	5.82
456.371	5.52
456.727	5.63
457.084	5.77
457.441	5.61
457.797	5.58
458.154	5.84
458.51	5.82
458.867	5.92
459.223	5.68
459.58	5.7
459.936	5.67
460.292	5.82
460.648	5.66
461.005	5.62
461.361	5.83
461.717	5.68
462.073	5.56
462.429	5.54
462.785	5.59
463.141	5.62
463.496	5.63
463.852	5.73
464.208	5.77
464.564	5.86
464.919	5.77
465.275	5.8
465.631	5.96
465.986	5.85
466.342	5.52
466.697	5.67
467.052	5.79
467.408	5.87
467.763	5.75
468.118	5.73
468.473	5.72
468.829	5.88
469.184	5.61
469.539	5.85
469.894	5.5
470.249	5.82
470.603	5.84
470.958	5.82
471.313	5.84
471.668	5.75
472.023	5.67
472.377	5.81
472.732	5.93
473.086	5.66
473.441	5.78
473.795	6.06
474.15	5.89
474.504	5.78
474.859	5.89
475.213	5.58
475.567	5.72
475.921	5.72
476.275	5.87
476.63	5.83
476.984	5.95
477.338	5.97
477.692	5.66
478.045	5.94
478.399	5.9
478.753	5.89
479.107	5.85
479.461	5.82
479.814	5.92
480.168	5.73
480.521	5.76
480.875	5.82
481.228	5.7
481.582	5.94
481.935	5.83
482.289	5.81
482.642	5.82
482.995	5.81
483.348	5.75
483.701	5.86
484.055	5.95
484.408	5.84
484.761	5.84
485.114	5.77
485.466	5.78
485.819	5.71
486.172	5.61
486.525	5.52
486.878	5.5
487.23	5.57
487.583	5.66
487.936	5.72
488.288	5.72
488.641	5.88
488.993	5.73
489.345	5.76
489.698	5.78
490.05	5.64
490.402	5.69
490.754	5.64
491.107	5.76
491.459	5.8
491.811	5.89
492.163	5.97
492.515	5.85
492.866	5.92
493.218	5.97
493.57	5.89
493.922	5.78
494.274	5.82
494.625	5.79
494.977	5.79
495.328	5.93
495.68	5.89
496.031	5.98
496.383	5.98
496.734	6.15
497.086	6.07
497.437	5.99
497.788	6.15
498.139	5.95
498.49	6.25
498.842	6.04
499.193	5.97
499.544	6.02
499.894	6.14
500.245	6.11
500.596	6.06
500.947	6.11
501.298	5.99
501.648	6.1
501.999	6.12
502.35	6.14
502.7	6.11
503.051	5.93
503.401	5.91
503.752	6.31
504.102	6.15
504.452	6.17
504.803	6.1
505.153	6.21
505.503	6.2
505.853	6.24
506.203	6.15
506.553	6.16
506.903	6.12
507.253	6.09
507.603	6.17
507.953	6.15
508.303	6.29
508.652	6.1
509.002	6.29
509.352	6.37
509.701	6.23
510.051	6.23
510.4	6.22
510.75	6.25
511.099	6.29
511.449	6.3
511.798	6.16
512.147	6.2
512.496	6.33
512.846	6.23
513.195	6.19
513.544	6.23
513.893	6.42
514.242	6.21
514.591	6.43
514.939	6.23
515.288	6.14
515.637	6.28
515.986	6.41
516.334	6.36
516.683	6.43
517.032	6.33
517.38	6.26
517.729	6.44
518.077	6.23
518.426	6.53
518.774	6.41
519.122	6.44
519.47	6.51
519.819	6.31
520.167	6.41
520.515	6.38
520.863	6.36
521.211	6.43
521.559	6.42
521.907	6.33
522.255	6.46
522.602	6.38
522.95	6.5
523.298	6.56
523.645	6.62
523.993	6.54
524.341	6.61
524.688	6.6
525.036	6.53
525.383	6.61
525.73	6.79
526.078	6.6
526.425	6.54
526.772	6.64
527.119	6.63
527.466	6.6
527.814	6.65
528.161	6.58
528.508	6.59
528.854	6.44
529.201	6.53
529.548	6.59
529.895	6.62
530.242	6.56
530.588	6.52
530.935	6.54
531.282	6.49
531.628	6.33
531.975	6.41
532.321	6.54
532.667	6.51
533.014	6.63
533.36	6.59
533.706	6.7
534.052	6.72
534.399	6.69
534.745	6.7
535.091	6.81
535.437	6.8
535.783	6.7
536.129	6.65
536.474	6.58
536.82	6.61
537.166	6.84
537.512	6.83
537.857	6.86
538.203	6.99
538.549	7.03
538.894	6.91
539.239	6.96
539.585	6.9
539.93	6.79
540.276	7.03
540.621	7.01
540.966	6.99
541.311	6.98
541.656	7.11
542.001	7.07
542.346	7.17
542.691	7.14
543.036	7.04
543.381	7.03
543.726	6.97
544.071	6.95
544.415	6.92
544.76	6.86
545.105	6.97
545.449	7.04
545.794	7.07
546.138	7.04
546.483	7.21
546.827	7.14
547.171	7.27
547.516	7.37
547.86	7.1
548.204	7.27
548.548	7.27
548.892	7.43
549.236	7.31
549.58	7.17
549.924	7.37
550.268	7.4
550.612	7.4
550.956	7.46
551.3	7.42
551.643	7.68
551.987	7.5
552.33	7.5
552.674	7.59
553.017	7.56
553.361	7.54
553.704	7.71
554.048	7.59
554.391	7.51
554.734	7.75
555.077	7.72
555.42	7.62
555.764	7.39
556.107	7.46
556.45	7.43
556.793	7.71
557.135	7.69
557.478	7.69
557.821	7.77
558.164	7.72
558.507	7.77
558.849	7.74
559.192	7.7
559.534	7.68
559.877	7.83
560.219	7.56
560.562	8.1
560.904	7.87
561.246	7.82
561.589	7.99
561.931	8.06
562.273	7.76
562.615	8.07
562.957	8.11
563.299	7.9
563.641	8.2
563.983	8.16
564.325	7.97
564.667	8.06
565.008	7.96
565.35	8.17
565.692	8.2
566.033	8.01
566.375	8.31
566.716	8.33
567.058	8.24
567.399	8.24
567.741	8.32
568.082	8.37
568.423	8.22
568.764	8.29
569.105	8.43
569.447	8.46
569.788	8.21
570.129	8.38
570.47	8.24
570.811	8.53
571.151	8.62
571.492	8.58
571.833	8.5
572.174	8.55
572.514	8.54
572.855	8.66
573.195	8.65
573.536	8.59
573.876	8.57
574.217	8.62
574.557	8.58
574.898	8.83
575.238	8.72
575.578	8.77
575.918	8.92
576.258	8.87
576.598	8.83
576.938	8.84
577.278	8.8
577.618	8.78
577.958	8.78
578.298	8.83
578.638	8.85
578.977	9.07
579.317	8.85
579.657	9.12
579.996	9.22
580.336	9.21
580.675	8.85
581.014	8.95
581.354	9.43
581.693	9.31
582.032	9.01
582.372	9.13
582.711	9.33
583.05	9.23
583.389	9.45
583.728	9.19
584.067	9.24
584.406	9.21
584.745	9.25
585.083	9.55
585.422	9.47
585.761	9.69
586.1	9.51
586.438	9.59
586.777	9.73
587.115	9.66
587.454	9.35
587.792	9.5
588.13	9.53
588.469	9.59
588.807	9.68
589.145	9.63
589.483	9.72
589.821	9.95
590.159	9.78
590.497	10.06
590.835	10.25
591.173	9.74
591.511	10.09
591.849	9.67
592.187	9.65
592.524	10.08
592.862	9.83
593.2	10.13
593.537	9.68
593.875	9.9
594.212	9.75
594.55	9.75
594.887	9.86
595.224	10.05
595.561	10.01
595.899	10.18
596.236	10.13
596.573	10.2
596.91	9.97
597.247	10.17
597.584	10.71
597.921	10.29
598.258	10.33
598.594	10.35
598.931	10.45
599.268	10.52
599.604	10.38
599.941	10.4
600.277	10.25
600.614	10.36
600.95	10.32
601.287	10.48
601.623	10.51
601.959	10.42
602.296	10.85
602.632	10.48
602.968	10.9
603.304	10.73
603.64	10.65
603.976	10.65
604.312	10.74
604.648	10.74
604.984	11.22
605.319	11.08
605.655	11.17
605.991	10.96
606.326	11.04
606.662	10.97
606.998	10.83
607.333	11.13
607.668	10.89
608.004	11.1
608.339	10.93
608.674	11.07
609.01	10.92
609.345	11
609.68	11.43
610.015	10.97
610.35	11.04
610.685	11.17
611.02	11.67
611.355	11.6
611.689	11.38
612.024	11.6
612.359	11.38
612.694	11.57
613.028	11.36
613.363	11.47
613.697	11.56
614.032	11.47
614.366	11.54
614.7	11.73
615.035	11.47
615.369	11.51
615.703	11.69
616.037	11.79
616.371	11.43
616.705	11.63
617.039	11.9
617.373	11.61
617.707	11.79
618.041	11.74
618.375	11.75
618.709	12.1
619.042	11.71
619.376	12.33
619.71	12.32
620.043	12.24
620.377	11.91
620.71	12.17
621.043	12.45
621.377	11.9
621.71	11.94
622.043	11.8
622.376	11.94
622.709	12.26
623.043	12.38
623.376	12.62
623.709	12.56
624.041	12.61
624.374	12.52
624.707	12.38
625.04	12.58
625.373	12.58
625.705	12.95
626.038	12.48
626.37	12.53
626.703	12.39
627.035	12.74
627.368	13.28
627.7	13.2
628.032	12.73
628.365	13.14
628.697	12.74
629.029	13.22
629.361	12.92
629.693	12.92
630.025	13.11
630.357	13.18
630.689	13.12
631.021	12.83
631.353	13.32
631.684	13.21
632.016	13.17
632.348	13.36
632.679	13.29
633.011	13.45
633.342	13.22
633.674	13.39
634.005	13.47
634.336	13.13
634.668	13.78
634.999	13.41
635.33	13.58
635.661	13.33
635.992	13.64
636.323	13.61
636.654	13.75
636.985	13.84
637.316	13.61
637.647	13.72
637.977	13.97
638.308	13.72
638.639	13.43
638.969	13.54
639.3	13.84
639.63	13.29
639.961	13.85
640.291	13.5
640.622	14.33
640.952	13.93
641.282	14.23
641.612	14.14
641.943	13.85
642.273	13.91
642.603	14.14
642.933	14.02
643.263	14.22
643.592	14
643.922	14.11
644.252	13.78
644.582	14.18
644.911	14.32
645.241	14.17
645.571	14.21
645.9	13.88
646.23	14.27
646.559	14.51
646.888	14.33
647.218	14.28
647.547	15.13
647.876	13.98
648.205	14.87
648.534	14.49
648.863	14.35
649.192	14.54
649.521	14.34
649.85	14.14
650.179	14.86
650.508	14.6
650.837	14.74
651.165	14.89
651.494	15.06
651.822	14.98
652.151	14.78
652.479	15.13
652.808	14.68
653.136	15.09
653.465	14.58
653.793	14.99
654.121	15.19
654.449	15.37
654.777	15.39
655.105	15.53
655.433	15.08
655.761	15.1
656.089	15.26
656.417	15.62
656.745	15.28
657.073	15.79
657.4	16.33
657.728	15.52
658.056	15.46
658.383	15.9
658.711	15.52
659.038	16.13
659.365	16.19
659.693	15.94
660.02	15.43
660.347	15.64
660.674	16.15
661.001	15.92
661.329	15.47
661.656	16.19
661.982	16.07
662.309	15.68
662.636	15.66
662.963	15.91
663.29	16.26
663.616	16.3
663.943	15.84
664.27	16.24
664.596	16.03
664.923	16.09
665.249	16.08
665.576	15.92
665.902	17.11
666.228	15.96
666.554	15.87
666.881	16.55
667.207	16.43
667.533	16.89
667.859	16.17
668.185	16.7
668.511	16.16
668.837	16.59
669.162	16.45
669.488	16.11
669.814	16.59
670.139	16.33
670.465	16.91
670.791	16.45
671.116	17.85
671.442	16.73
671.767	17.55
672.092	17.29
672.418	16.95
672.743	17.1
673.068	17
673.393	17.35
673.718	17.09
674.043	17.2
674.368	17.09
674.693	17.48
675.018	17.18
675.343	17.08
675.667	17.49
675.992	17.87
676.317	17.73
676.641	16.91
676.966	17.61
677.29	16.87
677.615	17.78
677.939	17.36
678.264	18.43
678.588	18.01
678.912	17.62
679.236	17.69
679.56	17.43
679.885	17.82
680.209	17.77
680.532	17.85
680.856	18.4
681.18	17.95
681.504	18.2
681.828	18.31
682.152	17.7
682.475	17.75
682.799	17.68
683.122	18.23
683.446	17.8
683.769	18.37
684.093	18.22
684.416	18.78
684.739	17.75
685.062	18.15
685.386	18.4
