Data from 0363_forehead_Reflection__2__437.txt Node

Date: Fri Dec 15 20:33:34 CST 2023
User: ToomeyLab
Spectrometer: FLMS14357
Trigger mode: 0
Integration Time (sec): 1.000000E-2
Scans to average: 100
Electric dark correction enabled: true
Nonlinearity correction enabled: false
Boxcar width: 0
XAxis mode: Wavelengths
Number of Pixels in Spectrum: 2048
>>>>>Begin Spectral Data<<<<<
189.047	36.59
189.435	36.59
189.823	36.59
190.211	-58.4
190.599	120.03
190.987	406.51
191.375	116.16
191.763	-55.5
192.151	-36.82
192.538	95.87
192.926	156.72
193.314	113.24
193.702	15.29
194.089	-47.7
194.477	31.76
194.864	-5.98
195.252	243.97
195.639	100.29
196.027	-209.01
196.414	31.88
196.801	165.44
197.189	115.01
197.576	88.4
197.963	60.05
198.351	-39.67
198.738	32.76
199.125	116.56
199.512	31.23
199.899	37.93
200.286	18.48
200.673	70.93
201.06	20.37
201.447	90.06
201.833	19.12
202.22	40.24
202.607	57.33
202.994	8.7
203.38	33.99
203.767	7.16
204.154	77.53
204.54	38.79
204.927	23.24
205.313	-40.66
205.699	27.35
206.086	30.59
206.472	39.54
206.858	8.25
207.245	15.81
207.631	41.98
208.017	30.77
208.403	-2.72
208.789	28.72
209.175	7.2
209.561	9.74
209.947	83
210.333	-20.76
210.719	25.17
211.105	7.43
211.491	36.4
211.876	64.55
212.262	12.87
212.648	7.77
213.034	30.34
213.419	8.85
213.805	3.06
214.19	13.98
214.576	-3.72
214.961	-30.98
215.346	-73.85
215.732	9.49
216.117	-6.47
216.502	-9.35
216.888	18.81
217.273	36.46
217.658	11.87
218.043	19.52
218.428	-15.74
218.813	-24.68
219.198	-40.06
219.583	17.57
219.968	15.72
220.353	-3.33
220.738	49.88
221.122	1.28
221.507	-4.4
221.892	-6.03
222.276	-25.81
222.661	20.39
223.046	22.35
223.43	9.79
223.815	14.35
224.199	-9.18
224.583	4.76
224.968	2.46
225.352	13.87
225.736	14.69
226.121	-6.74
226.505	4.81
226.889	7.92
227.273	3.06
227.657	15.53
228.041	7.23
228.425	4.86
228.809	8.35
229.193	7.48
229.577	4.63
229.961	5.96
230.344	4.27
230.728	4.03
231.112	5.25
231.495	4.51
231.879	4.23
232.263	3.53
232.646	4.66
233.03	4.63
233.413	2.54
233.797	4.67
234.18	4.33
234.563	4.42
234.946	2.51
235.33	6.75
235.713	6.17
236.096	5.25
236.479	4.35
236.862	3.95
237.245	3.56
237.628	1.83
238.011	3
238.394	5.32
238.777	5.34
239.16	3.5
239.543	6.03
239.925	6.71
240.308	5.6
240.691	6.44
241.073	6.05
241.456	3.36
241.838	4.57
242.221	2.83
242.603	4.33
242.986	4.61
243.368	4.35
243.75	4.41
244.133	4.34
244.515	5.08
244.897	4.9
245.279	4.52
245.661	4.2
246.043	4
246.425	4.07
246.807	6.52
247.189	5.21
247.571	4.57
247.953	4.84
248.335	4.08
248.717	4.38
249.098	4.25
249.48	4.59
249.862	4.59
250.243	4.93
250.625	4.56
251.006	4.68
251.388	4.27
251.769	4.15
252.151	5.06
252.532	3.84
252.913	4.2
253.295	4.27
253.676	4.5
254.057	4.64
254.438	4.64
254.819	4.32
255.2	4.42
255.581	4.85
255.962	3.57
256.343	3.24
256.724	3.87
257.105	4.84
257.486	3.78
257.867	4.16
258.247	3.93
258.628	3.99
259.009	4.76
259.389	5.26
259.77	4.68
260.15	4.29
260.531	3.43
260.911	4.75
261.292	4.53
261.672	4.44
262.052	4.46
262.432	4.93
262.813	4.49
263.193	4.24
263.573	4.63
263.953	4.77
264.333	4.8
264.713	4.11
265.093	4.24
265.473	5.08
265.853	3.41
266.233	4.95
266.612	3.75
266.992	4.33
267.372	4.83
267.752	4.34
268.131	4.86
268.511	4.89
268.89	4.88
269.27	4.36
269.649	3.95
270.029	4
270.408	5.65
270.787	4.66
271.167	4.56
271.546	4.58
271.925	3.85
272.304	4.37
272.683	4.68
273.062	4.29
273.441	4.48
273.82	3.88
274.199	4.31
274.578	4.33
274.957	4.29
275.336	4.16
275.715	3.89
276.093	3.88
276.472	4.56
276.851	3.46
277.229	4.41
277.608	3.55
277.986	4.32
278.365	4.39
278.743	4.11
279.122	4.58
279.5	4.19
279.878	4.77
280.257	4.54
280.635	3.46
281.013	4.2
281.391	4.4
281.769	4.68
282.147	4.4
282.525	4.52
282.903	3.96
283.281	4.4
283.659	4.86
284.037	4.58
284.415	4.92
284.792	4.75
285.17	3.92
285.548	3.74
285.925	4.38
286.303	4.57
286.68	3.79
287.058	4.29
287.435	4.05
287.813	4.22
288.19	3.96
288.567	4.22
288.945	4.8
289.322	4.28
289.699	4.32
290.076	4.24
290.453	4.25
290.83	3.83
291.207	4.4
291.584	4.7
291.961	4.41
292.338	4.5
292.715	4.81
293.092	4.26
293.469	4.4
293.845	4.81
294.222	4.77
294.599	4.51
294.975	4.16
295.352	4.81
295.728	3.83
296.105	4.77
296.481	4.88
296.858	4.3
297.234	4.65
297.61	4.16
297.986	5.06
298.363	4.72
298.739	4.86
299.115	4.61
299.491	4.54
299.867	4.62
300.243	4.85
300.619	4.44
300.995	5.06
301.371	5.17
301.746	4.89
302.122	5.07
302.498	5.36
302.874	5.64
303.249	4.96
303.625	5.39
304	5.58
304.376	5.19
304.751	5.04
305.127	5.65
305.502	5.04
305.878	5
306.253	5.48
306.628	5.74
307.003	5.43
307.378	6.05
307.754	6.1
308.129	4.97
308.504	5.47
308.879	5
309.254	6.39
309.629	6.55
310.003	5.75
310.378	6.08
310.753	6.31
311.128	5.66
311.502	6.53
311.877	6.27
312.252	5.75
312.626	6.19
313.001	5.73
313.375	6.27
313.75	6.46
314.124	6.66
314.498	5.85
314.873	6.35
315.247	5.68
315.621	6.44
315.995	6.28
316.369	6.58
316.743	6.62
317.117	7.26
317.491	6.21
317.865	6.49
318.239	6.46
318.613	7.28
318.987	7.12
319.361	6.23
319.734	7.28
320.108	6.92
320.482	7.47
320.855	7.36
321.229	6.87
321.602	7.26
321.976	7.17
322.349	7.25
322.723	7.1
323.096	7.38
323.469	6.43
323.843	7.52
324.216	7.7
324.589	7
324.962	7.44
325.335	7.48
325.708	7.82
326.081	7.62
326.454	7.85
326.827	7.32
327.2	8.15
327.573	8.07
327.945	8.06
328.318	7.95
328.691	7.7
329.063	8.27
329.436	8.13
329.809	8.27
330.181	7.73
330.553	8.06
330.926	8.33
331.298	8.38
331.671	7.95
332.043	9.03
332.415	8.83
332.787	8.67
333.159	8.98
333.532	8.71
333.904	9.04
334.276	8.58
334.648	9.4
335.02	9.05
335.391	8.63
335.763	8.73
336.135	9
336.507	9.76
336.879	9.34
337.25	8.45
337.622	9.41
337.993	9.29
338.365	9.64
338.736	9.41
339.108	9.59
339.479	9.22
339.851	9.75
340.222	9.03
340.593	8.83
340.964	9.41
341.336	10.25
341.707	8.86
342.078	9.37
342.449	9.47
342.82	9.75
343.191	10.03
343.562	9.47
343.933	9.57
344.303	9.18
344.674	9.88
345.045	9.88
345.416	9.81
345.786	9.75
346.157	9.92
346.527	9.96
346.898	9.17
347.268	10.24
347.639	10.19
348.009	9.26
348.38	9.82
348.75	9.88
349.12	9.8
349.49	10.55
349.861	10.08
350.231	10.13
350.601	10.32
350.971	10.21
351.341	10.69
351.711	9.82
352.081	10.76
352.45	10.01
352.82	10.49
353.19	10.5
353.56	10.23
353.929	10.25
354.299	10.63
354.669	10.31
355.038	10.6
355.408	10.55
355.777	10.51
356.147	10.39
356.516	10.55
356.885	10.7
357.254	10.74
357.624	10.74
357.993	10.52
358.362	10.34
358.731	10.51
359.1	10.69
359.469	10.74
359.838	11.04
360.207	11.15
360.576	10.89
360.945	10.9
361.314	11.27
361.682	10.73
362.051	10.58
362.42	11.04
362.788	10.87
363.157	11.19
363.525	11.28
363.894	11.05
364.262	11.22
364.631	11.08
364.999	11.36
365.367	10.95
365.735	12.06
366.104	11.3
366.472	11.29
366.84	11.47
367.208	11.26
367.576	11.84
367.944	12.06
368.312	11.39
368.68	11.27
369.048	11.67
369.416	11.67
369.783	11.68
370.151	12.07
370.519	11.89
370.886	11.84
371.254	11.73
371.621	12.61
371.989	12.25
372.356	11.87
372.724	12.02
373.091	11.68
373.458	11.98
373.826	11.84
374.193	11.86
374.56	12
374.927	12.64
375.294	12.52
375.661	11.99
376.028	12.13
376.395	12.16
376.762	12.39
377.129	12.34
377.496	12.6
377.863	12.66
378.229	12.29
378.596	13
378.963	12.4
379.329	12.64
379.696	12.98
380.062	13.17
380.429	12.68
380.795	12.81
381.161	13.12
381.528	13.1
381.894	13.15
382.26	12.88
382.626	13.16
382.993	12.71
383.359	13.74
383.725	12.93
384.091	13.51
384.457	13.47
384.823	13.16
385.188	13.34
385.554	13.66
385.92	13.46
386.286	13.76
386.651	13.85
387.017	13.72
387.383	13.73
387.748	13.65
388.114	13.75
388.479	13.6
388.845	13.85
389.21	13.87
389.575	14.17
389.94	13.99
390.306	13.95
390.671	14.31
391.036	13.61
391.401	13.96
391.766	14.16
392.131	14.04
392.496	14.14
392.861	14.22
393.226	14.45
393.591	14.26
393.956	14.15
394.32	14.49
394.685	14.31
395.05	14.21
395.414	14.85
395.779	14.39
396.143	14.59
396.508	14.43
396.872	14.36
397.236	14.56
397.601	14.75
397.965	14.74
398.329	14.75
398.694	14.87
399.058	14.78
399.422	14.79
399.786	15.05
400.15	15
400.514	14.85
400.878	15.04
401.242	15.22
401.605	15
401.969	15.11
402.333	15.07
402.697	15.15
403.06	15.21
403.424	15.45
403.787	15.22
404.151	15.59
404.514	15.35
404.878	15.28
405.241	15.71
405.604	15.37
405.968	15.4
406.331	15.54
406.694	15.62
407.057	15.57
407.42	15.66
407.783	15.53
408.146	15.77
408.509	15.54
408.872	15.49
409.235	15.96
409.598	15.82
409.961	15.86
410.323	16.12
410.686	15.82
411.049	15.83
411.411	15.82
411.774	16.22
412.136	15.78
412.499	16.05
412.861	15.99
413.223	15.91
413.586	16.14
413.948	16.45
414.31	16.4
414.672	16.14
415.035	16.34
415.397	16.5
415.759	16.07
416.121	16.38
416.483	16.35
416.845	16.39
417.206	16.54
417.568	16.61
417.93	16.33
418.292	16.58
418.653	16.49
419.015	16.64
419.377	16.74
419.738	16.66
420.1	16.6
420.461	16.76
420.822	16.68
421.184	16.56
421.545	16.74
421.906	16.65
422.267	16.69
422.629	16.64
422.99	16.62
423.351	16.65
423.712	16.83
424.073	16.87
424.434	16.93
424.795	16.91
425.155	17.1
425.516	16.83
425.877	16.96
426.238	16.95
426.598	17.1
426.959	17.31
427.32	17.25
427.68	17.37
428.041	17.47
428.401	17.47
428.761	17.42
429.122	17.66
429.482	17.57
429.842	17.78
430.202	17.92
430.563	17.87
430.923	17.61
431.283	17.96
431.643	17.76
432.003	18.08
432.363	18.25
432.722	18.13
433.082	17.95
433.442	18.08
433.802	17.95
434.161	17.94
434.521	18.19
434.881	18.1
435.24	18.1
435.6	18.03
435.959	18.19
436.319	18.32
436.678	18.39
437.037	18.47
437.396	18.37
437.756	18.57
438.115	18.53
438.474	19.01
438.833	18.43
439.192	18.84
439.551	18.68
439.91	18.65
440.269	18.68
440.628	18.6
440.987	18.64
441.345	18.68
441.704	18.91
442.063	18.85
442.421	18.9
442.78	18.69
443.138	18.84
443.497	19.09
443.855	18.94
444.214	19.04
444.572	19.2
444.93	19.13
445.288	19.44
445.647	19.59
446.005	19.16
446.363	19.3
446.721	19.42
447.079	19.15
447.437	19.38
447.795	19.26
448.153	19.32
448.51	19.29
448.868	19.44
449.226	19.56
449.584	19.55
449.941	19.85
450.299	19.75
450.656	19.89
451.014	19.91
451.371	19.85
451.729	20.09
452.086	20.19
452.443	20.14
452.801	20.45
453.158	20.19
453.515	20.53
453.872	20.19
454.229	20.1
454.586	20.21
454.943	20.45
455.3	20.4
455.657	20.48
456.014	20.56
456.371	20.56
456.727	20.86
457.084	20.84
457.441	20.63
457.797	20.82
458.154	20.7
458.51	20.79
458.867	21.07
459.223	21.16
459.58	20.93
459.936	21.12
460.292	21.11
460.648	20.74
461.005	20.77
461.361	20.94
461.717	20.69
462.073	21.01
462.429	21.03
462.785	21.27
463.141	21.31
463.496	21.49
463.852	21.6
464.208	21.65
464.564	21.74
464.919	21.66
465.275	21.61
465.631	21.97
465.986	21.93
466.342	21.6
466.697	21.69
467.052	21.79
467.408	21.81
467.763	22.05
468.118	22.09
468.473	21.94
468.829	22.03
469.184	22.02
469.539	22.32
469.894	22.25
470.249	22.48
470.603	22.5
470.958	22.53
471.313	22.48
471.668	22.78
472.023	22.55
472.377	22.59
472.732	22.69
473.086	22.72
473.441	22.58
473.795	22.79
474.15	23.06
474.504	22.95
474.859	22.93
475.213	22.84
475.567	22.87
475.921	22.99
476.275	23.14
476.63	23.39
476.984	23.24
477.338	23.39
477.692	23.21
478.045	23.17
478.399	23.25
478.753	23.1
479.107	23.34
479.461	23.23
479.814	23.58
480.168	23.38
480.521	23.45
480.875	23.51
481.228	23.47
481.582	23.8
481.935	23.57
482.289	23.62
482.642	23.8
482.995	23.53
483.348	23.48
483.701	23.57
484.055	23.59
484.408	23.51
484.761	23.33
485.114	22.99
485.466	22.55
485.819	22.6
486.172	22.83
486.525	23.19
486.878	23.42
487.23	23.68
487.583	23.71
487.936	23.93
488.288	23.81
488.641	23.7
488.993	23.44
489.345	23.4
489.698	23.49
490.05	23.58
490.402	23.67
490.754	24.01
491.107	24.32
491.459	24.51
491.811	24.54
492.163	24.61
492.515	24.62
492.866	24.37
493.218	24.15
493.57	23.91
493.922	24.08
494.274	24.53
494.625	24.83
494.977	25.1
495.328	25.29
495.68	25.16
496.031	25.52
496.383	25.55
496.734	25.66
497.086	25.73
497.437	25.66
497.788	25.76
498.139	25.57
498.49	25.79
498.842	25.57
499.193	25.54
499.544	25.66
499.894	25.71
500.245	25.92
500.596	25.83
500.947	26.15
501.298	26.1
501.648	26.15
501.999	26.37
502.35	26.36
502.7	26.28
503.051	26.35
503.401	26.59
503.752	26.75
504.102	26.67
504.452	26.77
504.803	26.85
505.153	26.74
505.503	26.85
505.853	26.72
506.203	26.91
506.553	26.78
506.903	27.03
507.253	27
507.603	27.13
507.953	27.03
508.303	27.06
508.652	27.06
509.002	27.28
509.352	27.46
509.701	26.9
510.051	27.22
510.4	27.31
510.75	27.27
511.099	27.1
511.449	27.28
511.798	27.42
512.147	27.46
512.496	27.53
512.846	27.51
513.195	27.64
513.544	27.55
513.893	27.57
514.242	27.68
514.591	27.87
514.939	27.84
515.288	27.9
515.637	28.2
515.986	28.28
516.334	28.37
516.683	28.46
517.032	28.23
517.38	28.38
517.729	28.27
518.077	28.4
518.426	28.5
518.774	28.64
519.122	28.41
519.47	28.35
519.819	28.31
520.167	28.04
520.515	28.1
520.863	28.27
521.211	28.46
521.559	28.6
521.907	28.49
522.255	28.71
522.602	28.8
522.95	29.02
523.298	29.03
523.645	29.14
523.993	29.37
524.341	29.22
524.688	29.43
525.036	29.37
525.383	29.34
525.73	29.44
526.078	29.38
526.425	29.46
526.772	29.38
527.119	29.38
527.466	29.13
527.814	29.2
528.161	29.37
528.508	29.22
528.854	29.4
529.201	29.37
529.548	29.19
529.895	29.01
530.242	28.65
530.588	28.56
530.935	28.95
531.282	29.14
531.628	29.46
531.975	29.63
532.321	29.76
532.667	30.03
533.014	30.11
533.36	30.35
533.706	30.19
534.052	30.15
534.399	30.06
534.745	29.94
535.091	29.72
535.437	29.64
535.783	29.96
536.129	30.33
536.474	30.43
536.82	30.73
537.166	30.82
537.512	30.9
537.857	30.93
538.203	30.91
538.549	30.66
538.894	30.72
539.239	31.03
539.585	31.24
539.93	31.3
540.276	31.58
540.621	31.66
540.966	31.43
541.311	31.69
541.656	31.61
542.001	31.47
542.346	31.37
542.691	31.17
543.036	30.83
543.381	30.59
543.726	30.99
544.071	31.26
544.415	31.55
544.76	31.57
545.105	31.68
545.449	31.84
545.794	31.97
546.138	32.34
546.483	32.39
546.827	32.32
547.171	32.48
547.516	32.45
547.86	32.45
548.204	32.57
548.548	32.27
548.892	32.46
549.236	32.57
549.58	32.63
549.924	32.97
550.268	33.16
550.612	33.19
550.956	33.26
551.3	33.06
551.643	33.52
551.987	33.63
552.33	33.43
552.674	33.5
553.017	33.76
553.361	33.74
553.704	33.87
554.048	33.74
554.391	33.78
554.734	33.76
555.077	33.54
555.42	33.87
555.764	33.95
556.107	33.91
556.45	34.17
556.793	34.36
557.135	34.37
557.478	34.8
557.821	34.37
558.164	34.22
558.507	34.72
558.849	34.77
559.192	34.89
559.534	34.91
559.877	34.89
560.219	34.83
560.562	35.31
560.904	35.11
561.246	35.13
561.589	35.16
561.931	35.26
562.273	35.33
562.615	35.18
562.957	35.33
563.299	35.14
563.641	35.21
563.983	35.53
564.325	35.24
564.667	35.46
565.008	35.82
565.35	35.58
565.692	35.59
566.033	35.63
566.375	35.89
566.716	35.93
567.058	35.78
567.399	35.44
567.741	35.73
568.082	35.69
568.423	35.89
568.764	35.88
569.105	36.25
569.447	36.18
569.788	36.11
570.129	36.45
570.47	36.32
570.811	36.56
571.151	36.5
571.492	36.47
571.833	36.67
572.174	36.48
572.514	36.77
572.855	36.59
573.195	36.54
573.536	36.6
573.876	36.39
574.217	36.62
574.557	36.68
574.898	36.99
575.238	37
575.578	36.88
575.918	37.28
576.258	37.14
576.598	37.12
576.938	37
577.278	37.36
577.618	37.22
577.958	37.29
578.298	37.62
578.638	37.7
578.977	37.64
579.317	37.66
579.657	37.94
579.996	37.81
580.336	38.21
580.675	38
581.014	38.47
581.354	38.28
581.693	38.52
582.032	38.12
582.372	38.21
582.711	38.4
583.05	38.35
583.389	38.8
583.728	38.56
584.067	38.81
584.406	38.8
584.745	38.88
585.083	38.93
585.422	39
585.761	38.95
586.1	39.17
586.438	39.15
586.777	38.9
587.115	39.5
587.454	38.94
587.792	39.28
588.13	39.46
588.469	39.18
588.807	39.44
589.145	39.26
589.483	39.78
589.821	39.97
590.159	39.5
590.497	39.99
590.835	39.86
591.173	39.88
591.511	40.02
591.849	39.91
592.187	39.96
592.524	40.26
592.862	40.04
593.2	40.3
593.537	40.39
593.875	40.2
594.212	40.27
594.55	40.48
594.887	40.69
595.224	40.56
595.561	40.7
595.899	40.81
596.236	40.45
596.573	40.67
596.91	40.69
597.247	40.74
597.584	40.74
597.921	40.74
598.258	40.54
598.594	40.63
598.931	40.61
599.268	40.71
599.604	40.52
599.941	41.22
600.277	40.99
600.614	41.49
600.95	41.02
601.287	41.35
601.623	41.61
601.959	41.49
602.296	41.92
602.632	41.64
602.968	41.78
603.304	41.64
603.64	41.59
603.976	41.75
604.312	41.49
604.648	41.83
604.984	42.12
605.319	41.52
605.655	41.49
605.991	41.57
606.326	41.81
606.662	41.75
606.998	41.49
607.333	41.98
607.668	42.09
608.004	42.12
608.339	42.46
608.674	42.4
609.01	42.33
609.345	42.19
609.68	42.84
610.015	42.65
610.35	42.49
610.685	42.22
611.02	42.28
611.355	42.53
611.689	42.84
612.024	42.39
612.359	42.71
612.694	42.91
613.028	42.83
613.363	43.29
613.697	43.39
614.032	43.07
614.366	43.39
614.7	43.61
615.035	43.23
615.369	43.28
615.703	43.4
616.037	43.6
616.371	43.72
616.705	44.04
617.039	43.39
617.373	43.52
617.707	43.71
618.041	43.86
618.375	43.98
618.709	44.22
619.042	43.28
619.376	43.86
619.71	44.16
620.043	44.68
620.377	44.25
620.71	44.24
621.043	43.84
621.377	44.41
621.71	43.92
622.043	44.02
622.376	44.11
622.709	44.76
623.043	44.34
623.376	44.74
623.709	44.71
624.041	45.1
624.374	45.29
624.707	44.45
625.04	44.64
625.373	44.51
625.705	45.1
626.038	44.52
626.37	44.67
626.703	44.99
627.035	44.71
627.368	45.22
627.7	44.79
628.032	45.16
628.365	45.12
628.697	44.99
629.029	44.88
629.361	44.87
629.693	44.94
630.025	45.45
630.357	45.66
630.689	45.48
631.021	45.56
631.353	45.61
631.684	45.42
632.016	45.68
632.348	45.97
632.679	46.32
633.011	45.63
633.342	46.16
633.674	45.97
634.005	46.2
634.336	45.92
634.668	45.93
634.999	45.6
635.33	45.7
635.661	45.9
635.992	45.87
636.323	46.08
636.654	46.63
636.985	46.09
637.316	46.78
637.647	46.59
637.977	46.29
638.308	46.62
638.639	46.08
638.969	46.14
639.3	46.47
639.63	46.65
639.961	46.61
640.291	46.7
640.622	47.12
640.952	46.84
641.282	47.21
641.612	47.12
641.943	46.83
642.273	47.27
642.603	47.37
642.933	47.02
643.263	47.25
643.592	47.26
643.922	47.23
644.252	47
644.582	47.38
644.911	47.31
645.241	47.15
645.571	47.38
645.9	47.77
646.23	47.62
646.559	47.85
646.888	47.37
647.218	47.73
647.547	47.78
647.876	47.75
648.205	47.53
648.534	47.55
648.863	47.98
649.192	48.4
649.521	48.1
649.85	47.19
650.179	47.85
650.508	48.1
650.837	48.41
651.165	48.34
651.494	48.17
651.822	48.19
652.151	48.1
652.479	48.46
652.808	48.37
653.136	47.85
653.465	48.32
653.793	47.99
654.121	48.06
654.449	48.38
654.777	48.97
655.105	48.61
655.433	48.3
655.761	49.21
656.089	49.3
656.417	49.22
656.745	49.22
657.073	48.39
657.4	49.21
657.728	49.44
658.056	48.38
658.383	48.14
658.711	48.76
659.038	48.78
659.365	49.47
659.693	49.33
660.02	48.53
660.347	48.7
660.674	49.56
661.001	49.17
661.329	48.92
661.656	49.5
661.982	49.69
662.309	49.4
662.636	49.15
662.963	49.29
663.29	49.81
663.616	50.34
663.943	49.71
664.27	50.33
664.596	49.98
664.923	49.84
665.249	50.01
665.576	49.4
665.902	49.83
666.228	49.8
666.554	50.34
666.881	50.05
667.207	49.94
667.533	49.98
667.859	50.1
668.185	51.07
668.511	49.59
668.837	49.61
669.162	49.98
669.488	50.24
669.814	51.09
670.139	50.54
670.465	50.76
670.791	50.43
671.116	51.09
671.442	50.43
