Data from 0363_forehead_Reflection__4__439.txt Node

Date: Fri Dec 15 20:33:52 CST 2023
User: ToomeyLab
Spectrometer: FLMS14357
Trigger mode: 0
Integration Time (sec): 1.000000E-2
Scans to average: 100
Electric dark correction enabled: true
Nonlinearity correction enabled: false
Boxcar width: 0
XAxis mode: Wavelengths
Number of Pixels in Spectrum: 2048
>>>>>Begin Spectral Data<<<<<
189.047	70.87
189.435	70.87
189.823	70.87
190.211	49.63
190.599	-274.1
190.987	156.75
191.375	-249.4
191.763	71.56
192.151	816.48
192.538	75.12
192.926	17.46
193.314	197.35
193.702	-70.04
194.089	29.08
194.477	-16.47
194.864	20.57
195.252	156.17
195.639	56.79
196.027	-721.38
196.414	81.44
196.801	236.92
197.189	53.94
197.576	107.41
197.963	-47.96
198.351	-47.17
198.738	-20.17
199.125	-31.15
199.512	-3.14
199.899	22.37
200.286	9.77
200.673	-4.25
201.06	-14.27
201.447	105.93
201.833	-19.76
202.22	0.95
202.607	58.9
202.994	18.77
203.38	21.14
203.767	9.86
204.154	25.38
204.54	42.39
204.927	-59.42
205.313	-66.83
205.699	11.06
206.086	54.21
206.472	55.01
206.858	-7
207.245	-53.95
207.631	12.87
208.017	4.02
208.403	-29.16
208.789	80.18
209.175	47.28
209.561	-33.19
209.947	-37.84
210.333	-47.46
210.719	23.3
211.105	-16.93
211.491	20.25
211.876	42.75
212.262	16.86
212.648	-0.27
213.034	32.38
213.419	-15.07
213.805	-14.44
214.19	-28.71
214.576	-25.43
214.961	-7.15
215.346	-116.89
215.732	0.79
216.117	21.61
216.502	5.06
216.888	21.66
217.273	25.04
217.658	0.02
218.043	28.26
218.428	-54.59
218.813	-1.34
219.198	-22.32
219.583	-11.83
219.968	-3.6
220.353	-0.36
220.738	48.85
221.122	25.1
221.507	-48.16
221.892	-27.4
222.276	-10.24
222.661	-5.53
223.046	1.07
223.43	12.49
223.815	12.63
224.199	-5.44
224.583	1.99
224.968	10.73
225.352	6.94
225.736	3.56
226.121	-13.35
226.505	-1.44
226.889	-2.73
227.273	-2.78
227.657	6.62
228.041	7.18
228.425	1.54
228.809	6.58
229.193	4.61
229.577	3.1
229.961	4.01
230.344	2.54
230.728	3.47
231.112	3.03
231.495	2.95
231.879	3.28
232.263	4.06
232.646	3.15
233.03	3.9
233.413	2.87
233.797	3.97
234.18	2.52
234.563	3.2
234.946	1.36
235.33	3.91
235.713	2.84
236.096	2.44
236.479	3.63
236.862	3.37
237.245	5.56
237.628	3.61
238.011	3.79
238.394	6.16
238.777	5.55
239.16	2.96
239.543	5.64
239.925	3.36
240.308	1.86
240.691	4.14
241.073	4.63
241.456	2.94
241.838	2.68
242.221	3.16
242.603	4.42
242.986	3.66
243.368	2.98
243.75	4.29
244.133	3.09
244.515	3.86
244.897	4
245.279	3.78
245.661	3.56
246.043	4.49
246.425	3.48
246.807	4.16
247.189	4.38
247.571	3.77
247.953	3.4
248.335	3.58
248.717	3.6
249.098	3.55
249.48	3.51
249.862	3.46
250.243	3.8
250.625	3.59
251.006	3.75
251.388	2.77
251.769	4.3
252.151	4.47
252.532	3.92
252.913	2.85
253.295	3.74
253.676	3.55
254.057	3.69
254.438	3.65
254.819	3.68
255.2	3.34
255.581	3.97
255.962	3.11
256.343	4.01
256.724	2.27
257.105	2.87
257.486	3.82
257.867	4.33
258.247	3.18
258.628	3.6
259.009	2.7
259.389	3.73
259.77	3.98
260.15	2.86
260.531	2.26
260.911	4.16
261.292	3.39
261.672	3.83
262.052	3.86
262.432	4
262.813	3.72
263.193	3.64
263.573	3.9
263.953	3.37
264.333	3.86
264.713	3.64
265.093	3.47
265.473	3.07
265.853	2.78
266.233	4.88
266.612	2.32
266.992	2.78
267.372	3.79
267.752	3.58
268.131	3.65
268.511	4.27
268.89	3.61
269.27	3.32
269.649	3.05
270.029	3.64
270.408	4.58
270.787	3.65
271.167	4.45
271.546	3.61
271.925	3.36
272.304	3.63
272.683	3.69
273.062	3.46
273.441	3.84
273.82	3.33
274.199	3.75
274.578	3.33
274.957	3.97
275.336	3.88
275.715	3.87
276.093	2.86
276.472	3.52
276.851	3.16
277.229	3.18
277.608	2.69
277.986	3.38
278.365	3.31
278.743	3
279.122	3.62
279.5	3.61
279.878	4.02
280.257	3.74
280.635	2.88
281.013	2.94
281.391	3.56
281.769	3.61
282.147	3.38
282.525	3.71
282.903	2.91
283.281	3.58
283.659	3.79
284.037	3.66
284.415	4.22
284.792	3.93
285.17	3.15
285.548	3.1
285.925	3.91
286.303	3.48
286.68	3.53
287.058	3.75
287.435	3.29
287.813	3.31
288.19	3.36
288.567	3.57
288.945	3.79
289.322	3.57
289.699	2.96
290.076	3.27
290.453	3.99
290.83	3.31
291.207	3.57
291.584	3.65
291.961	3.78
292.338	3.77
292.715	3.9
293.092	3.7
293.469	3.94
293.845	4.38
294.222	3.59
294.599	3.84
294.975	3.5
295.352	4.33
295.728	3.6
296.105	4.11
296.481	3.99
296.858	4.01
297.234	3.55
297.61	3.65
297.986	4.13
298.363	4.53
298.739	4.3
299.115	3.82
299.491	3.73
299.867	4.33
300.243	4.12
300.619	3.65
300.995	3.98
301.371	4.58
301.746	4.02
302.122	4.52
302.498	3.93
302.874	4.3
303.249	4.55
303.625	4.39
304	4.91
304.376	4.29
304.751	3.63
305.127	4.81
305.502	4.37
305.878	4.35
306.253	4.95
306.628	5.08
307.003	4.26
307.378	4.94
307.754	4.71
308.129	4.18
308.504	5.26
308.879	4.69
309.254	5.55
309.629	5.27
310.003	4.96
310.378	5.63
310.753	5.32
311.128	5.19
311.502	4.72
311.877	5.38
312.252	5.17
312.626	5.26
313.001	5.02
313.375	5.53
313.75	5.11
314.124	5.44
314.498	4.98
314.873	4.93
315.247	4.73
315.621	5.79
315.995	5.06
316.369	5.43
316.743	5.87
317.117	5.77
317.491	5.47
317.865	5.73
318.239	6.09
318.613	6.09
318.987	6.08
319.361	6.37
319.734	5.9
320.108	6.08
320.482	5.68
320.855	6.25
321.229	5.97
321.602	6.31
321.976	6.44
322.349	6.36
322.723	5.92
323.096	7.02
323.469	5.96
323.843	6.62
324.216	7.48
324.589	6.42
324.962	6.69
325.335	6.61
325.708	7.17
326.081	6.54
326.454	7.12
326.827	7.05
327.2	6.91
327.573	6.86
327.945	7.65
328.318	7.07
328.691	6.45
329.063	7
329.436	6.92
329.809	7.63
330.181	7.06
330.553	6.88
330.926	7.23
331.298	7.85
331.671	7.16
332.043	8.74
332.415	7.39
332.787	7.93
333.159	8.24
333.532	7.81
333.904	7.6
334.276	7.78
334.648	7.97
335.02	7.55
335.391	8.1
335.763	7.96
336.135	7.76
336.507	7.96
336.879	8.18
337.25	8.09
337.622	8.03
337.993	7.92
338.365	8.24
338.736	8.21
339.108	7.76
339.479	8.35
339.851	7.97
340.222	8.4
340.593	8.46
340.964	7.64
341.336	9
341.707	7.99
342.078	8.24
342.449	8.25
342.82	8.52
343.191	8.32
343.562	8.79
343.933	8.87
344.303	8.86
344.674	8.68
345.045	8.46
345.416	9.29
345.786	8.66
346.157	9.06
346.527	8.43
346.898	8.88
347.268	8.63
347.639	9.04
348.009	8.95
348.38	8.86
348.75	8.68
349.12	8.81
349.49	9.13
349.861	8.67
350.231	8.55
350.601	8.75
350.971	9.5
351.341	9.11
351.711	9.38
352.081	9.1
352.45	8.92
352.82	9.29
353.19	9.33
353.56	9.52
353.929	9.23
354.299	9.35
354.669	9.29
355.038	9.78
355.408	9.37
355.777	9.29
356.147	9.23
356.516	9.27
356.885	9.73
357.254	9.45
357.624	10.14
357.993	9.78
358.362	9.37
358.731	9.62
359.1	9.7
359.469	9.53
359.838	9.68
360.207	9.72
360.576	9.54
360.945	9.8
361.314	10.14
361.682	9.64
362.051	9.72
362.42	10.16
362.788	9.98
363.157	9.99
363.525	10.1
363.894	10.04
364.262	10.06
364.631	10
364.999	10.16
365.367	9.82
365.735	10.8
366.104	10.06
366.472	10.44
366.84	10.16
367.208	10.26
367.576	10.34
367.944	10.59
368.312	10.38
368.68	10.22
369.048	10.48
369.416	10.7
369.783	10.43
370.151	10.8
370.519	11.12
370.886	10.84
371.254	10.54
371.621	10.92
371.989	11.04
372.356	10.61
372.724	10.76
373.091	10.68
373.458	11.08
373.826	11.15
374.193	10.82
374.56	11.1
374.927	10.99
375.294	11.35
375.661	10.88
376.028	10.91
376.395	11.1
376.762	10.99
377.129	11.14
377.496	11.13
377.863	11.02
378.229	11.02
378.596	11.4
378.963	11.15
379.329	11.31
379.696	11.53
380.062	11.18
380.429	11.59
380.795	11.29
381.161	11.39
381.528	11.65
381.894	11.6
382.26	11.28
382.626	11.75
382.993	11.74
383.359	12.26
383.725	11.85
384.091	11.84
384.457	11.9
384.823	11.92
385.188	11.93
385.554	11.82
385.92	12.44
386.286	12.6
386.651	12.08
387.017	12.47
387.383	12.04
387.748	12.39
388.114	12.4
388.479	12.04
388.845	12.56
389.21	12.25
389.575	12.61
389.94	12.04
390.306	12.57
390.671	12.65
391.036	12.26
391.401	12.28
391.766	12.61
392.131	12.67
392.496	12.69
392.861	12.5
393.226	12.93
393.591	12.78
393.956	12.44
394.32	12.76
394.685	12.39
395.05	12.48
395.414	12.86
395.779	12.55
396.143	12.85
396.508	12.75
396.872	12.94
397.236	12.99
397.601	12.83
397.965	13.08
398.329	13.17
398.694	13.14
399.058	13.31
399.422	13.04
399.786	13.42
400.15	13.53
400.514	13.32
400.878	13.58
401.242	13.65
401.605	13.42
401.969	13.39
402.333	13.56
402.697	13.49
403.06	13.78
403.424	13.65
403.787	13.26
404.151	13.82
404.514	13.56
404.878	13.45
405.241	13.96
405.604	13.93
405.968	13.96
406.331	13.67
406.694	14.04
407.057	13.87
407.42	14.01
407.783	13.66
408.146	13.88
408.509	13.83
408.872	13.66
409.235	13.93
409.598	14.06
409.961	14.12
410.323	14
410.686	14.17
411.049	14.27
411.411	14.25
411.774	14.14
412.136	14.12
412.499	14.18
412.861	14.33
413.223	14.09
413.586	14.49
413.948	14.47
414.31	14.25
414.672	14.22
415.035	14.62
415.397	14.72
415.759	14.37
416.121	14.5
416.483	14.54
416.845	14.49
417.206	14.71
417.568	14.98
417.93	14.47
418.292	14.66
418.653	14.72
419.015	14.84
419.377	14.7
419.738	14.8
420.1	14.72
420.461	14.78
420.822	14.88
421.184	14.94
421.545	14.8
421.906	14.8
422.267	14.98
422.629	14.89
422.99	14.86
423.351	14.91
423.712	14.96
424.073	15.08
424.434	14.97
424.795	14.97
425.155	15.15
425.516	15.08
425.877	15.07
426.238	15.14
426.598	15.27
426.959	15.22
427.32	15.37
427.68	15.4
428.041	15.33
428.401	15.49
428.761	15.35
429.122	15.72
429.482	15.66
429.842	15.66
430.202	15.67
430.563	15.79
430.923	15.84
431.283	16.05
431.643	16.04
432.003	16.16
432.363	15.98
432.722	16.03
433.082	16.15
433.442	16.09
433.802	15.95
434.161	16.05
434.521	16.24
434.881	16.21
435.24	16.28
435.6	16.29
435.959	16.28
436.319	16.28
436.678	16.33
437.037	16.4
437.396	16.48
437.756	16.42
438.115	16.31
438.474	16.79
438.833	16.48
439.192	16.56
439.551	16.52
439.91	16.76
440.269	16.7
440.628	16.56
440.987	16.63
441.345	16.53
441.704	16.79
442.063	16.82
442.421	16.85
442.78	16.71
443.138	16.78
443.497	16.95
443.855	16.91
444.214	17.06
444.572	17.13
444.93	17.11
445.288	17.13
445.647	17.38
446.005	17.2
446.363	17.13
446.721	17.33
447.079	17.16
447.437	17.19
447.795	17.32
448.153	17.1
448.51	17.17
448.868	17.14
449.226	17.22
449.584	17.48
449.941	17.57
450.299	17.54
450.656	17.61
451.014	17.57
451.371	17.57
451.729	17.76
452.086	17.77
452.443	17.8
452.801	17.91
453.158	17.95
453.515	18.06
453.872	18.16
454.229	17.89
454.586	17.96
454.943	18.22
455.3	18.29
455.657	18.3
456.014	18.11
456.371	18.45
456.727	18.32
457.084	18.75
457.441	18.44
457.797	18.51
458.154	18.62
458.51	18.67
458.867	18.73
459.223	18.92
459.58	18.82
459.936	18.57
460.292	18.69
460.648	18.6
461.005	18.43
461.361	18.65
461.717	18.54
462.073	18.56
462.429	18.78
462.785	18.8
463.141	18.8
463.496	18.86
463.852	18.94
464.208	19.24
464.564	19.23
464.919	19.22
465.275	19.2
465.631	19.53
465.986	19.52
466.342	19.1
466.697	19.23
467.052	19.43
467.408	19.68
467.763	19.4
468.118	19.63
468.473	19.58
468.829	19.57
469.184	19.67
469.539	19.72
469.894	19.6
470.249	19.75
470.603	19.79
470.958	20.02
471.313	19.99
471.668	19.98
472.023	20.11
472.377	20.12
472.732	20.08
473.086	20.29
473.441	20.01
473.795	20.36
474.15	20.29
474.504	20.2
474.859	20.2
475.213	20.15
475.567	20.39
475.921	20.11
476.275	20.61
476.63	20.49
476.984	20.45
477.338	20.74
477.692	20.62
478.045	20.68
478.399	20.75
478.753	20.77
479.107	20.68
479.461	20.64
479.814	20.92
480.168	20.76
480.521	20.71
480.875	20.89
481.228	20.83
481.582	20.97
481.935	20.92
482.289	21.1
482.642	21.11
482.995	21.11
483.348	20.95
483.701	20.94
484.055	21.15
484.408	20.92
484.761	20.79
485.114	20.66
485.466	20.31
485.819	20.34
486.172	20.39
486.525	20.44
486.878	20.45
487.23	20.74
487.583	20.92
487.936	21.12
488.288	21.1
488.641	21.15
488.993	20.91
489.345	20.85
489.698	20.93
490.05	20.95
490.402	21.09
490.754	21.15
491.107	21.35
491.459	21.45
491.811	21.75
492.163	21.83
492.515	21.77
492.866	21.71
493.218	21.63
493.57	21.43
493.922	21.45
494.274	21.69
494.625	21.75
494.977	21.98
495.328	22.13
495.68	22.39
496.031	22.62
496.383	22.5
496.734	22.64
497.086	22.67
497.437	22.7
497.788	22.79
498.139	22.64
498.49	22.81
498.842	22.54
499.193	22.69
499.544	22.81
499.894	22.94
500.245	22.94
500.596	23.05
500.947	23.08
501.298	23.11
501.648	23.11
501.999	23.44
502.35	23.42
502.7	23.29
503.051	23.26
503.401	23.48
503.752	23.81
504.102	23.6
504.452	23.87
504.803	23.65
505.153	23.81
505.503	23.61
505.853	23.8
506.203	23.84
506.553	23.9
506.903	23.62
507.253	23.74
507.603	23.87
507.953	24.05
508.303	24.26
508.652	24.11
509.002	24.29
509.352	24.25
509.701	24.16
510.051	24.34
510.4	24.2
510.75	24.27
511.099	24.17
511.449	24.33
511.798	24.33
512.147	24.31
512.496	24.32
512.846	24.45
513.195	24.47
513.544	24.69
513.893	24.76
514.242	24.49
514.591	24.82
514.939	24.59
515.288	24.82
515.637	24.91
515.986	24.99
516.334	25.03
516.683	25.23
517.032	25.12
517.38	25.18
517.729	25.1
518.077	25.24
518.426	25.38
518.774	25.41
519.122	25.42
519.47	25.17
519.819	25.22
520.167	25.04
520.515	25.02
520.863	25.13
521.211	25.19
521.559	25.16
521.907	25.24
522.255	25.49
522.602	25.69
522.95	25.81
523.298	25.79
523.645	25.85
523.993	25.92
524.341	25.84
524.688	26.1
525.036	25.94
525.383	26.11
525.73	26.25
526.078	26.2
526.425	26
526.772	26.1
527.119	26.01
527.466	26.05
527.814	25.96
528.161	25.96
528.508	25.99
528.854	26.02
529.201	26.06
529.548	26
529.895	25.89
530.242	25.71
530.588	25.58
530.935	25.7
531.282	25.74
531.628	25.75
531.975	25.98
532.321	26.14
532.667	26.34
533.014	26.46
533.36	26.74
533.706	26.79
534.052	26.83
534.399	26.71
534.745	26.64
535.091	26.75
535.437	26.57
535.783	26.68
536.129	26.73
536.474	26.85
536.82	27.18
537.166	27.21
537.512	27.33
537.857	27.39
538.203	27.39
538.549	27.34
538.894	27.41
539.239	27.5
539.585	27.55
539.93	27.56
540.276	27.8
540.621	27.88
540.966	28.03
541.311	27.96
541.656	28.02
542.001	27.93
542.346	27.95
542.691	27.91
543.036	27.62
543.381	27.43
543.726	27.45
544.071	27.67
544.415	27.76
544.76	27.71
545.105	27.96
545.449	28.11
545.794	28.15
546.138	28.3
546.483	28.41
546.827	28.78
547.171	28.82
547.516	28.7
547.86	28.85
548.204	28.79
548.548	28.72
548.892	28.8
549.236	28.9
549.58	28.95
549.924	29.15
550.268	29.17
550.612	29.15
550.956	29.47
551.3	29.42
551.643	29.67
551.987	29.83
552.33	29.85
552.674	29.49
553.017	29.87
553.361	29.57
553.704	29.79
554.048	29.83
554.391	30.03
554.734	29.95
555.077	29.85
555.42	30.11
555.764	29.87
556.107	30.07
556.45	30.18
556.793	30.18
557.135	30.23
557.478	30.63
557.821	30.37
558.164	30.37
558.507	30.63
558.849	30.42
559.192	30.87
559.534	30.49
559.877	31.02
560.219	30.91
560.562	31.36
560.904	31.12
561.246	31.01
561.589	31.29
561.931	31.12
562.273	30.97
562.615	31.14
562.957	31.19
563.299	31.29
563.641	31.01
563.983	31.09
564.325	31.09
564.667	31.3
565.008	31.34
565.35	31.36
565.692	31.39
566.033	31.57
566.375	32
566.716	31.69
567.058	31.79
567.399	31.51
567.741	31.73
568.082	31.82
568.423	31.81
568.764	31.65
569.105	31.91
569.447	31.95
569.788	31.68
570.129	31.92
570.47	32.07
570.811	32.25
571.151	32.47
571.492	32.3
571.833	32.19
572.174	32.26
572.514	32.45
572.855	32.34
573.195	32.49
573.536	32.57
573.876	32.43
574.217	32.37
574.557	32.63
574.898	32.68
575.238	32.43
575.578	32.77
575.918	32.92
576.258	32.93
576.598	32.77
576.938	32.94
577.278	32.98
577.618	32.96
577.958	32.95
578.298	33.09
578.638	33.15
578.977	33.25
579.317	33.34
579.657	33.57
579.996	33.48
580.336	33.79
580.675	33.45
581.014	33.64
581.354	33.94
581.693	34.04
582.032	33.86
582.372	33.68
582.711	34.16
583.05	34.13
583.389	34.23
583.728	33.93
584.067	34.46
584.406	34.18
584.745	34.29
585.083	34.4
585.422	34.32
585.761	34.65
586.1	34.56
586.438	34.5
586.777	34.58
587.115	34.62
587.454	34.49
587.792	34.65
588.13	34.79
588.469	34.55
588.807	34.97
589.145	34.62
589.483	34.82
589.821	35.18
590.159	35.16
590.497	35.36
590.835	35.22
591.173	35.31
591.511	35.47
591.849	35.23
592.187	35.47
592.524	35.15
592.862	35.25
593.2	35.45
593.537	35.12
593.875	35.22
594.212	35.42
594.55	35.54
594.887	35.72
595.224	35.69
595.561	35.79
595.899	35.77
596.236	35.65
596.573	36
596.91	35.59
597.247	35.8
597.584	36.14
597.921	36.25
598.258	35.92
598.594	36.02
598.931	35.97
599.268	35.85
599.604	35.77
599.941	35.87
600.277	35.82
600.614	36.23
600.95	35.91
601.287	36.31
601.623	36.5
601.959	36.58
602.296	36.59
602.632	36.6
602.968	36.77
603.304	36.58
603.64	36.79
603.976	36.85
604.312	36.85
604.648	36.76
604.984	37.02
605.319	37.18
605.655	36.8
605.991	37.14
606.326	36.8
606.662	36.93
606.998	36.85
607.333	37.05
607.668	36.86
608.004	37.15
608.339	37.2
608.674	36.63
609.01	37.45
609.345	36.86
609.68	37.45
610.015	36.98
610.35	37.52
610.685	37.46
611.02	37.26
611.355	37.61
611.689	37.64
612.024	37.72
612.359	37.36
612.694	37.66
613.028	37.83
613.363	38.04
613.697	37.75
614.032	37.9
614.366	37.9
614.7	38.3
615.035	38.21
615.369	38.06
615.703	37.99
616.037	38.34
616.371	37.95
616.705	37.95
617.039	38.35
617.373	38.27
617.707	38.61
618.041	38.76
618.375	38.42
618.709	38.5
619.042	37.79
619.376	38.83
619.71	39.14
620.043	39.19
620.377	38.86
620.71	39.16
621.043	38.54
621.377	39.05
621.71	38.61
622.043	38.84
622.376	38.95
622.709	39.11
623.043	39.2
623.376	38.87
623.709	39.07
624.041	39.8
624.374	39.61
624.707	39.06
625.04	39.67
625.373	39.12
625.705	39.68
626.038	39.34
626.37	39.3
626.703	39.44
627.035	39.46
627.368	40.15
627.7	38.97
628.032	39.33
628.365	39.52
628.697	39.47
629.029	39.44
629.361	39.14
629.693	39.35
630.025	39.53
630.357	40.1
630.689	40.04
631.021	40.12
631.353	39.75
631.684	39.88
632.016	39.61
632.348	39.91
632.679	40.09
633.011	40.08
633.342	40.39
633.674	39.93
634.005	39.86
634.336	40.04
634.668	41.21
634.999	40.19
635.33	40.46
635.661	40.49
635.992	40.5
636.323	40.35
636.654	40.15
636.985	40.54
637.316	40.46
637.647	40.51
637.977	41.22
638.308	40.94
638.639	40.08
638.969	40.49
639.3	40.49
639.63	40.21
639.961	41.09
640.291	41.11
640.622	40.64
640.952	40.93
641.282	41.34
641.612	40.91
641.943	40.7
642.273	40.96
642.603	41.38
642.933	41.39
643.263	41.36
643.592	41.21
643.922	41.06
644.252	41.46
644.582	41.32
644.911	41.04
645.241	41.4
645.571	41.4
645.9	41.65
646.23	41.64
646.559	41.75
646.888	41.52
647.218	41.92
647.547	42.34
647.876	41.8
648.205	41.46
648.534	41.84
648.863	41.65
649.192	42.22
649.521	41.64
649.85	41.41
650.179	41.41
650.508	41.67
650.837	42.13
651.165	41.93
651.494	42.39
651.822	42.35
652.151	42.56
652.479	42.04
652.808	41.74
653.136	42.42
653.465	41.96
653.793	42.48
654.121	42.21
654.449	42.11
654.777	43.12
655.105	42.23
655.433	42.54
655.761	42.18
656.089	42.61
656.417	43.08
656.745	43.21
657.073	42.61
657.4	43.27
657.728	42.93
658.056	42.49
658.383	42.45
658.711	42.65
659.038	43.07
659.365	43.73
659.693	42.67
660.02	42.73
660.347	42.88
660.674	43.47
661.001	43.36
661.329	43
661.656	43.47
661.982	42.75
662.309	42.79
662.636	42.75
662.963	43.46
663.29	43.71
663.616	43.88
663.943	43.56
664.27	43.18
664.596	43.75
664.923	43.03
665.249	43.13
665.576	43.41
665.902	44.35
666.228	43.78
666.554	43.98
666.881	43.86
667.207	43.08
667.533	43.57
667.859	44.47
668.185	43.73
668.511	43.79
668.837	43.05
669.162	43.4
669.488	43.78
669.814	43.58
670.139	44.24
670.465	44.66
670.791	44.26
671.116	45.15
