Data from 0363_crown_Reflection__4__433.txt Node

Date: Fri Dec 15 20:32:40 CST 2023
User: ToomeyLab
Spectrometer: FLMS14357
Trigger mode: 0
Integration Time (sec): 1.000000E-2
Scans to average: 100
Electric dark correction enabled: true
Nonlinearity correction enabled: false
Boxcar width: 0
XAxis mode: Wavelengths
Number of Pixels in Spectrum: 2048
>>>>>Begin Spectral Data<<<<<
189.047	23.64
189.435	23.64
189.823	23.64
190.211	68.57
190.599	93
190.987	202.36
191.375	-252.11
191.763	-8.47
192.151	-613.61
192.538	135.85
192.926	-18.3
193.314	364.38
193.702	114.55
194.089	-6.09
194.477	-45.67
194.864	131.45
195.252	171.6
195.639	58.45
196.027	375.09
196.414	48.01
196.801	194.96
197.189	146.37
197.576	-1.41
197.963	119.51
198.351	-102.32
198.738	-9.75
199.125	40.74
199.512	-6.96
199.899	6.79
200.286	13.37
200.673	1.43
201.06	-8.77
201.447	-211.31
201.833	-15.95
202.22	34.04
202.607	16.2
202.994	12.84
203.38	15.62
203.767	26.88
204.154	9.59
204.54	29.9
204.927	-37.3
205.313	-27.03
205.699	7.36
206.086	27.89
206.472	33.12
206.858	8.17
207.245	-20.06
207.631	-18.78
208.017	20.82
208.403	20.81
208.789	19.24
209.175	14.85
209.561	13.19
209.947	-23.55
210.333	-79.41
210.719	19.95
211.105	26.13
211.491	-74.17
211.876	-10.79
212.262	2.35
212.648	37.46
213.034	5.43
213.419	-27.96
213.805	-4.92
214.19	5.12
214.576	-6.98
214.961	-99.8
215.346	-113.01
215.732	17.98
216.117	3.37
216.502	2.92
216.888	15.34
217.273	27.79
217.658	-22.08
218.043	17.07
218.428	-46.52
218.813	-66.81
219.198	-62.35
219.583	-8.81
219.968	14.39
220.353	-30.3
220.738	30.38
221.122	13.76
221.507	-25.47
221.892	-23.95
222.276	-16.5
222.661	7.68
223.046	12.33
223.43	14.71
223.815	12.17
224.199	-2.1
224.583	1.62
224.968	-4.3
225.352	9.18
225.736	2.83
226.121	-6.3
226.505	0.19
226.889	9.24
227.273	-2.12
227.657	5.75
228.041	2.91
228.425	2.44
228.809	7.29
229.193	6.04
229.577	5.08
229.961	7.54
230.344	7.75
230.728	6.43
231.112	7.37
231.495	7.46
231.879	6.87
232.263	10.31
232.646	7.07
233.03	6.43
233.413	4.41
233.797	7.49
234.18	4.48
234.563	6.05
234.946	3.89
235.33	6.95
235.713	7.02
236.096	7.1
236.479	7.37
236.862	5.08
237.245	6.62
237.628	7.21
238.011	7.32
238.394	9.19
238.777	6.1
239.16	6.18
239.543	6.99
239.925	6.57
240.308	5.69
240.691	7.21
241.073	5.57
241.456	6.53
241.838	6.61
242.221	6.94
242.603	7.32
242.986	6.56
243.368	7.1
243.75	7.48
244.133	7.45
244.515	7.57
244.897	7.14
245.279	6.71
245.661	6.42
246.043	5.14
246.425	5.8
246.807	8.1
247.189	7.48
247.571	7.2
247.953	7.67
248.335	6.95
248.717	7.09
249.098	7.1
249.48	6.59
249.862	6.54
250.243	6.79
250.625	6.84
251.006	6.91
251.388	5.28
251.769	5.73
252.151	6.31
252.532	6.47
252.913	6
253.295	6.01
253.676	6.45
254.057	7.11
254.438	6.28
254.819	6.62
255.2	6.09
255.581	6.61
255.962	5.95
256.343	6
256.724	6.12
257.105	6.52
257.486	6.24
257.867	6.21
258.247	6.51
258.628	6.15
259.009	6.48
259.389	6.01
259.77	5.24
260.15	6.37
260.531	6.3
260.911	6.94
261.292	6.57
261.672	6.69
262.052	6.59
262.432	6.74
262.813	6.16
263.193	6.69
263.573	6.57
263.953	6.24
264.333	6.5
264.713	6.46
265.093	5.69
265.473	5.75
265.853	4.34
266.233	5.08
266.612	4.41
266.992	5.27
267.372	6.41
267.752	5.53
268.131	6.23
268.511	6.28
268.89	6.87
269.27	5.91
269.649	5.87
270.029	5.51
270.408	6.97
270.787	6.51
271.167	6.17
271.546	6.21
271.925	5.52
272.304	5.85
272.683	6.89
273.062	5.56
273.441	6.17
273.82	5.42
274.199	5.79
274.578	6.12
274.957	6.03
275.336	6.03
275.715	5.96
276.093	5.92
276.472	5.73
276.851	6.04
277.229	5.24
277.608	5.49
277.986	5.49
278.365	5.66
278.743	5.57
279.122	6.07
279.5	6.17
279.878	6.25
280.257	5.63
280.635	5.82
281.013	5.99
281.391	5.72
281.769	6.18
282.147	6.28
282.525	6.44
282.903	5.55
283.281	6.41
283.659	5.8
284.037	5.78
284.415	5.92
284.792	5.78
285.17	5.24
285.548	5.67
285.925	6.07
286.303	5.73
286.68	5.78
287.058	5.67
287.435	5.61
287.813	5.99
288.19	5.36
288.567	5.61
288.945	5.82
289.322	5.79
289.699	5.55
290.076	5.5
290.453	5.37
290.83	5.34
291.207	5.92
291.584	5.58
291.961	5.7
292.338	5.36
292.715	5.89
293.092	5.74
293.469	4.98
293.845	5.94
294.222	4.85
294.599	5.29
294.975	5.33
295.352	5.77
295.728	5.4
296.105	5.32
296.481	6.03
296.858	5.6
297.234	5.4
297.61	5.46
297.986	5.16
298.363	5.7
298.739	5.68
299.115	5.28
299.491	5.37
299.867	5.66
300.243	5.71
300.619	5.18
300.995	5.31
301.371	5.44
301.746	5.03
302.122	5.33
302.498	5.73
302.874	5.33
303.249	5.74
303.625	5.15
304	5.82
304.376	5.44
304.751	5.09
305.127	5.73
305.502	5.05
305.878	5.16
306.253	5.16
306.628	5.64
307.003	5.35
307.378	5.71
307.754	5.01
308.129	5.09
308.504	5.67
308.879	4.99
309.254	5.99
309.629	5.56
310.003	5.23
310.378	5.71
310.753	5.49
311.128	5.41
311.502	4.9
311.877	5.79
312.252	5.37
312.626	5.3
313.001	5.44
313.375	5.7
313.75	5.42
314.124	5.3
314.498	5.24
314.873	4.94
315.247	4.91
315.621	5.07
315.995	4.63
316.369	4.93
316.743	5.03
317.117	5.36
317.491	4.92
317.865	5.1
318.239	5.05
318.613	5.27
318.987	5.11
319.361	4.4
319.734	5.46
320.108	5.39
320.482	5.13
320.855	5.98
321.229	4.87
321.602	5.06
321.976	5.53
322.349	5.02
322.723	5.04
323.096	5.25
323.469	4.5
323.843	4.73
324.216	6.13
324.589	4.71
324.962	4.9
325.335	4.96
325.708	5.14
326.081	5.1
326.454	5.39
326.827	4.93
327.2	5.07
327.573	5.54
327.945	5.1
328.318	5.03
328.691	4.81
329.063	5.22
329.436	4.79
329.809	5.8
330.181	4.94
330.553	5.62
330.926	5.41
331.298	5.07
331.671	4.72
332.043	5.71
332.415	5.41
332.787	5.38
333.159	5.77
333.532	4.87
333.904	5.1
334.276	5.57
334.648	5.45
335.02	5.08
335.391	5.39
335.763	5.11
336.135	4.95
336.507	5.97
336.879	5.04
337.25	5.47
337.622	5.2
337.993	5.28
338.365	5.6
338.736	5.68
339.108	5.01
339.479	5.34
339.851	5.74
340.222	5.12
340.593	5.15
340.964	5.65
341.336	5.66
341.707	4.92
342.078	5.69
342.449	5.62
342.82	4.89
343.191	5.76
343.562	5.5
343.933	5.08
344.303	5.32
344.674	5.4
345.045	5.24
345.416	5.7
345.786	4.86
346.157	5.89
346.527	4.61
346.898	4.91
347.268	5.34
347.639	5.24
348.009	5.12
348.38	5.55
348.75	5.61
349.12	5.46
349.49	5.36
349.861	5.18
350.231	4.95
350.601	5.11
350.971	5.65
351.341	5.29
351.711	5.72
352.081	5.39
352.45	4.75
352.82	5.08
353.19	5.13
353.56	5.27
353.929	5.23
354.299	5.26
354.669	4.82
355.038	5.5
355.408	5.27
355.777	4.97
356.147	5.72
356.516	5.81
356.885	5.65
357.254	5.58
357.624	5.74
357.993	5.53
358.362	5.1
358.731	5.24
359.1	5.75
359.469	5.33
359.838	5.68
360.207	5.21
360.576	5.57
360.945	5.43
361.314	5.6
361.682	5.12
362.051	5.76
362.42	5.62
362.788	5.47
363.157	5.83
363.525	5.87
363.894	5.6
364.262	5.51
364.631	5.47
364.999	5.6
365.367	5.17
365.735	6.11
366.104	5.61
366.472	5.65
366.84	5.26
367.208	5.35
367.576	5.91
367.944	5.72
368.312	5.54
368.68	5.17
369.048	5.04
369.416	5.42
369.783	5.18
370.151	5.6
370.519	6.05
370.886	5.95
371.254	5.36
371.621	5.65
371.989	5.45
372.356	5.14
372.724	5.75
373.091	5.6
373.458	5.42
373.826	5.65
374.193	5.48
374.56	5.95
374.927	5.71
375.294	5.89
375.661	5.4
376.028	5.49
376.395	5.28
376.762	5.82
377.129	5.82
377.496	5.63
377.863	5.92
378.229	5.55
378.596	5.86
378.963	5.77
379.329	5.6
379.696	5.76
380.062	5.81
380.429	5.68
380.795	5.43
381.161	5.59
381.528	6.05
381.894	5.62
382.26	5.36
382.626	5.86
382.993	5.71
383.359	5.98
383.725	5.52
384.091	5.99
384.457	5.84
384.823	5.95
385.188	5.81
385.554	5.82
385.92	5.96
386.286	5.87
386.651	6.23
387.017	5.7
387.383	5.81
387.748	5.94
388.114	5.9
388.479	5.42
388.845	6.04
389.21	6.02
389.575	5.82
389.94	6.03
390.306	6.08
390.671	6.04
391.036	5.67
391.401	5.91
391.766	6.17
392.131	5.95
392.496	5.78
392.861	5.82
393.226	6.35
393.591	6.12
393.956	6.02
394.32	5.83
394.685	5.76
395.05	5.65
395.414	6.08
395.779	5.63
396.143	6.03
396.508	5.84
396.872	6.41
397.236	6.05
397.601	5.73
397.965	6.08
398.329	6.09
398.694	5.97
399.058	6.1
399.422	5.94
399.786	6.26
400.15	5.97
400.514	6.16
400.878	6.12
401.242	6.46
401.605	6.14
401.969	6.1
402.333	5.9
402.697	6.19
403.06	6.3
403.424	6.2
403.787	6.09
404.151	6.11
404.514	6.1
404.878	6
405.241	6.35
405.604	6.08
405.968	6.16
406.331	6.12
406.694	6.34
407.057	6.22
407.42	6.37
407.783	6.14
408.146	6.17
408.509	6.42
408.872	5.81
409.235	6.24
409.598	6.38
409.961	6.15
410.323	6.12
410.686	6.32
411.049	6.12
411.411	6.05
411.774	6.26
412.136	6.11
412.499	6.11
412.861	6.26
413.223	5.99
413.586	6.08
413.948	6.29
414.31	6.11
414.672	6.17
415.035	6.22
415.397	6.56
415.759	5.94
416.121	6.28
416.483	6.25
416.845	6.35
417.206	6.24
417.568	6.39
417.93	6.12
418.292	6.24
418.653	6.36
419.015	6.41
419.377	6.28
419.738	6.37
420.1	6.26
420.461	6.5
420.822	6.46
421.184	6.39
421.545	6.36
421.906	6.28
422.267	6.31
422.629	6.3
422.99	6.26
423.351	6.23
423.712	6.22
424.073	6.33
424.434	6.22
424.795	6.35
425.155	6.26
425.516	6.21
425.877	6.34
426.238	6.29
426.598	6.36
426.959	6.31
427.32	6.28
427.68	6.18
428.041	6.37
428.401	6.56
428.761	6.36
429.122	6.38
429.482	6.31
429.842	6.44
430.202	6.55
430.563	6.46
430.923	6.53
431.283	6.61
431.643	6.31
432.003	6.44
432.363	6.44
432.722	6.67
433.082	6.41
433.442	6.47
433.802	6.26
434.161	6.52
434.521	6.64
434.881	6.66
435.24	6.52
435.6	6.52
435.959	6.49
436.319	6.43
436.678	6.39
437.037	6.54
437.396	6.65
437.756	6.6
438.115	6.35
438.474	6.84
438.833	6.44
439.192	6.47
439.551	6.63
439.91	6.77
440.269	6.53
440.628	6.53
440.987	6.58
441.345	6.46
441.704	6.53
442.063	6.47
442.421	6.48
442.78	6.47
443.138	6.45
443.497	6.54
443.855	6.46
444.214	6.58
444.572	6.53
444.93	6.59
445.288	6.55
445.647	6.72
446.005	6.6
446.363	6.77
446.721	6.7
447.079	6.43
447.437	6.52
447.795	6.6
448.153	6.52
448.51	6.48
448.868	6.54
449.226	6.56
449.584	6.55
449.941	6.54
450.299	6.6
450.656	6.49
451.014	6.51
451.371	6.44
451.729	6.6
452.086	6.83
452.443	6.61
452.801	6.56
453.158	6.63
453.515	6.75
453.872	6.68
454.229	6.71
454.586	6.55
454.943	6.73
455.3	6.75
455.657	6.62
456.014	6.57
456.371	6.76
456.727	6.58
457.084	6.76
457.441	6.71
457.797	6.68
458.154	6.87
458.51	6.48
458.867	6.74
459.223	6.63
459.58	6.68
459.936	7.01
460.292	6.84
460.648	6.75
461.005	6.71
461.361	6.88
461.717	6.64
462.073	6.64
462.429	6.55
462.785	6.52
463.141	6.57
463.496	6.61
463.852	6.68
464.208	6.86
464.564	6.8
464.919	6.78
465.275	6.71
465.631	6.98
465.986	6.78
466.342	6.54
466.697	6.71
467.052	6.81
467.408	6.88
467.763	6.59
468.118	6.88
468.473	6.77
468.829	6.84
469.184	6.78
469.539	6.85
469.894	6.67
470.249	6.86
470.603	6.83
470.958	6.8
471.313	7.03
471.668	6.84
472.023	6.87
472.377	6.71
472.732	6.82
473.086	6.82
473.441	6.73
473.795	6.85
474.15	6.77
474.504	6.74
474.859	6.94
475.213	6.74
475.567	6.69
475.921	6.55
476.275	6.95
476.63	6.94
476.984	6.98
477.338	6.9
477.692	6.72
478.045	6.75
478.399	6.79
478.753	6.76
479.107	6.78
479.461	6.75
479.814	6.75
480.168	6.66
480.521	6.88
480.875	6.62
481.228	6.78
481.582	6.76
481.935	6.7
482.289	6.9
482.642	6.92
482.995	6.85
483.348	6.94
483.701	6.81
484.055	6.86
484.408	6.9
484.761	6.84
485.114	6.8
485.466	6.62
485.819	6.58
486.172	6.52
486.525	6.4
486.878	6.46
487.23	6.49
487.583	6.53
487.936	6.64
488.288	6.62
488.641	6.71
488.993	6.67
489.345	6.6
489.698	6.57
490.05	6.53
490.402	6.55
490.754	6.6
491.107	6.64
491.459	6.6
491.811	6.72
492.163	6.68
492.515	6.72
492.866	6.85
493.218	6.8
493.57	6.75
493.922	6.61
494.274	6.66
494.625	6.59
494.977	6.7
495.328	6.67
495.68	6.77
496.031	6.88
496.383	6.75
496.734	6.94
497.086	6.83
497.437	6.85
497.788	6.86
498.139	6.88
498.49	6.96
498.842	6.8
499.193	6.93
499.544	6.72
499.894	6.83
500.245	6.73
500.596	6.73
500.947	7
501.298	6.82
501.648	6.96
501.999	7.03
502.35	7
502.7	6.89
503.051	6.74
503.401	6.82
503.752	6.99
504.102	6.82
504.452	6.99
504.803	6.82
505.153	6.89
505.503	6.89
505.853	6.97
506.203	6.76
506.553	6.87
506.903	6.88
507.253	6.88
507.603	6.8
507.953	6.91
508.303	7.06
508.652	6.9
509.002	7.08
509.352	6.89
509.701	6.85
510.051	6.9
510.4	6.94
510.75	6.93
511.099	6.98
511.449	6.9
511.798	6.85
512.147	6.93
512.496	6.86
512.846	6.93
513.195	7.01
513.544	6.89
513.893	6.92
514.242	6.86
514.591	7.04
514.939	6.86
515.288	6.94
515.637	7.01
515.986	6.76
516.334	7.06
516.683	6.97
517.032	7.03
517.38	7
517.729	6.91
518.077	6.87
518.426	7.03
518.774	7.07
519.122	6.96
519.47	6.97
519.819	6.89
520.167	6.92
520.515	6.92
520.863	6.91
521.211	6.89
521.559	6.87
521.907	6.82
522.255	6.88
522.602	7
522.95	6.85
523.298	6.91
523.645	7.01
523.993	7.04
524.341	7.09
524.688	7.06
525.036	7.05
525.383	7.04
525.73	7.15
526.078	7.13
526.425	6.87
526.772	7.09
527.119	7.02
527.466	7.04
527.814	6.98
528.161	6.89
528.508	6.86
528.854	6.98
529.201	6.88
529.548	6.86
529.895	6.88
530.242	6.82
530.588	6.83
530.935	6.76
531.282	6.73
531.628	6.68
531.975	6.65
532.321	6.78
532.667	6.83
533.014	6.84
533.36	6.85
533.706	6.92
534.052	6.98
534.399	6.87
534.745	6.95
535.091	6.92
535.437	6.89
535.783	6.92
536.129	6.9
536.474	6.76
536.82	6.88
537.166	6.89
537.512	7.07
537.857	6.88
538.203	7.08
538.549	7.01
538.894	6.85
539.239	6.94
539.585	6.96
539.93	6.81
540.276	6.97
540.621	7.03
540.966	7.03
541.311	6.98
541.656	6.96
542.001	7.02
542.346	7.1
542.691	6.98
543.036	6.97
543.381	6.82
543.726	6.81
544.071	6.8
544.415	6.77
544.76	6.85
545.105	6.88
545.449	6.91
545.794	6.98
546.138	6.85
546.483	6.87
546.827	6.92
547.171	6.95
547.516	7.21
547.86	6.93
548.204	6.95
548.548	6.85
548.892	7.02
549.236	6.99
549.58	6.9
549.924	6.94
550.268	6.99
550.612	7.2
550.956	7.13
551.3	7.02
551.643	7.17
551.987	7.2
552.33	6.98
552.674	7.22
553.017	7.26
553.361	6.87
553.704	7.18
554.048	6.95
554.391	7.12
554.734	7
555.077	7.13
555.42	6.89
555.764	7.08
556.107	6.89
556.45	7.01
556.793	6.99
557.135	7.01
557.478	7.18
557.821	7.28
558.164	6.88
558.507	7.13
558.849	7.19
559.192	7.14
559.534	7.09
559.877	7.16
560.219	7.01
560.562	7.25
560.904	7.1
561.246	7.24
561.589	7.11
561.931	6.92
562.273	7.08
562.615	7.1
562.957	7.03
563.299	6.92
563.641	7.13
563.983	7.19
564.325	7.03
564.667	6.96
565.008	6.98
565.35	7.11
565.692	6.91
566.033	6.97
566.375	7.26
566.716	7.28
567.058	7.01
567.399	6.95
567.741	6.76
568.082	7.07
568.423	7.1
568.764	7.07
569.105	7.15
569.447	7.04
569.788	6.96
570.129	7.22
570.47	7.09
570.811	7.1
571.151	7.1
571.492	6.96
571.833	6.97
572.174	7.12
572.514	7.22
572.855	6.99
573.195	7.07
573.536	7.07
573.876	6.89
574.217	6.96
574.557	7.02
574.898	7.07
575.238	7.03
575.578	6.85
575.918	7.1
576.258	7.14
576.598	7.27
576.938	7.14
577.278	7.17
577.618	7.02
577.958	7
578.298	7.01
578.638	6.88
578.977	7.02
579.317	7.04
579.657	7.08
579.996	7.03
580.336	6.81
580.675	6.92
581.014	6.94
581.354	7.24
581.693	7.24
582.032	6.79
582.372	6.94
582.711	7.08
583.05	7
583.389	6.91
583.728	6.87
584.067	7.06
584.406	7.02
584.745	6.89
585.083	7.03
585.422	7.15
585.761	7.06
586.1	7.07
586.438	7.17
586.777	7.33
587.115	7.06
587.454	6.74
587.792	7
588.13	7.04
588.469	6.76
588.807	7.04
589.145	6.92
589.483	6.96
589.821	7.02
590.159	6.69
590.497	7.14
590.835	7.11
591.173	6.94
591.511	7.12
591.849	7.09
592.187	6.8
592.524	6.98
592.862	7.1
593.2	6.8
593.537	7.04
593.875	6.84
594.212	6.79
594.55	6.81
594.887	7.2
595.224	6.88
595.561	7.1
595.899	7.03
596.236	7.26
596.573	7.3
596.91	6.61
597.247	6.79
597.584	7.17
597.921	7.17
598.258	6.82
598.594	7.1
598.931	7.01
599.268	6.99
599.604	6.95
599.941	7.05
600.277	6.92
600.614	6.96
600.95	6.84
601.287	7.19
601.623	7.06
601.959	6.93
602.296	7.06
602.632	6.89
602.968	7.18
603.304	6.84
603.64	7.2
603.976	7
604.312	6.92
604.648	6.89
604.984	6.97
605.319	7.14
605.655	6.91
605.991	6.99
606.326	6.94
606.662	7.27
606.998	6.65
607.333	7.07
607.668	6.66
608.004	6.92
608.339	6.98
608.674	7
609.01	6.95
609.345	6.73
609.68	7.1
610.015	7.12
610.35	7.14
610.685	6.9
611.02	6.89
611.355	7.24
611.689	7.05
612.024	7.01
612.359	6.91
612.694	6.95
613.028	6.9
613.363	7.08
613.697	6.79
614.032	7.13
614.366	6.83
614.7	7.15
615.035	7.24
615.369	6.89
615.703	6.9
616.037	7.12
616.371	6.62
616.705	7.51
617.039	7.05
617.373	6.77
617.707	6.78
618.041	6.66
618.375	6.76
618.709	7.24
619.042	6.85
619.376	6.84
619.71	6.82
620.043	6.92
620.377	6.57
620.71	6.83
621.043	6.79
621.377	6.88
621.71	6.66
622.043	6.56
622.376	6.6
622.709	6.98
623.043	6.78
623.376	6.89
623.709	6.62
624.041	7.16
624.374	7.24
624.707	6.91
625.04	6.93
625.373	6.51
625.705	6.98
626.038	6.81
626.37	6.99
626.703	6.8
627.035	7.07
627.368	7.26
627.7	7.06
628.032	6.89
628.365	6.87
628.697	6.89
629.029	6.79
629.361	6.81
629.693	6.8
630.025	6.54
630.357	7.07
630.689	7.05
631.021	6.86
631.353	7.27
631.684	6.8
632.016	6.7
632.348	7.32
632.679	6.78
633.011	7.14
633.342	7.07
633.674	6.76
634.005	7.45
634.336	6.45
634.668	7.43
634.999	6.67
635.33	6.85
635.661	6.99
635.992	6.63
636.323	7.03
636.654	6.82
636.985	6.86
637.316	6.89
637.647	6.86
637.977	7.3
638.308	7.23
638.639	6.49
638.969	6.64
639.3	6.95
639.63	6.4
639.961	6.9
640.291	7.11
640.622	7.11
640.952	6.67
641.282	6.97
641.612	6.94
641.943	6.68
642.273	7.18
642.603	7.26
642.933	7.01
643.263	6.73
643.592	6.69
643.922	6.55
644.252	6.55
644.582	6.81
644.911	6.3
645.241	6.71
645.571	6.5
645.9	6.56
646.23	6.94
646.559	6.36
646.888	6.39
647.218	6.7
647.547	7.29
647.876	6.58
648.205	6.66
648.534	6.69
648.863	6.2
649.192	6.85
649.521	6.42
649.85	6.19
650.179	6.66
650.508	6.06
650.837	6.88
651.165	6.27
651.494	6.73
651.822	6.74
652.151	6.44
652.479	7.33
652.808	6.62
653.136	6.64
653.465	6.22
653.793	6.16
654.121	6.74
654.449	6.75
654.777	7.12
655.105	6.92
655.433	6.59
655.761	6.61
656.089	6.67
656.417	6.79
656.745	6.3
657.073	6.45
657.4	7.33
657.728	7.2
658.056	6.92
658.383	6.85
658.711	7.01
659.038	7.15
659.365	7.29
659.693	6.47
660.02	6.72
660.347	7.08
660.674	7.38
661.001	6.87
661.329	6.15
661.656	6.95
661.982	6.87
662.309	6.89
662.636	6.59
662.963	7.06
663.29	7.17
663.616	6.98
663.943	6.26
664.27	6.71
664.596	7.19
664.923	6.6
665.249	6.55
665.576	6.77
665.902	7.24
666.228	6.96
666.554	6.88
666.881	6.33
667.207	7
667.533	6.63
667.859	6.99
668.185	7.21
668.511	6.07
668.837	5.64
669.162	6.73
669.488	6.51
669.814	7.3
670.139	6.83
670.465	6.47
670.791	6.63
671.116	7.19
671.442	6.44
671.767	7.09
672.092	7.2
672.418	6.94
672.743	7.35
673.068	6.5
673.393	7.17
673.718	6.74
674.043	6.87
674.368	6.75
674.693	6.92
675.018	6.58
675.343	6.63
675.667	6.22
675.992	7.43
676.317	7.16
676.641	7.01
676.966	6.79
677.29	6.26
677.615	6.94
677.939	7.09
678.264	7.08
678.588	6.99
678.912	6.77
679.236	7.47
679.56	6.6
679.885	7.17
680.209	7
680.532	6.54
680.856	6.9
681.18	6.72
681.504	7.14
681.828	6.73
682.152	6.62
682.475	7.33
682.799	6.85
683.122	7.13
683.446	6.61
683.769	6.81
684.093	6.36
684.416	6.76
684.739	6.15
685.062	6.2
685.386	6.48
685.709	6.7
686.032	6.71
686.355	6.62
686.678	6.83
687.001	6.53
687.324	6.42
687.646	5.97
687.969	5.57
688.292	6.77
688.614	6.81
688.937	7.3
689.26	6.85
689.582	7.5
689.904	6.63
690.227	6.7
690.549	7.15
690.871	7.75
691.194	7.13
691.516	6.62
691.838	6.55
692.16	6.81
692.482	6.61
692.804	6.97
693.126	6.53
