Data from 0363_chest_Reflection__0__424.txt Node

Date: Fri Dec 15 20:30:17 CST 2023
User: ToomeyLab
Spectrometer: FLMS14357
Trigger mode: 0
Integration Time (sec): 1.000000E-2
Scans to average: 100
Electric dark correction enabled: true
Nonlinearity correction enabled: false
Boxcar width: 0
XAxis mode: Wavelengths
Number of Pixels in Spectrum: 2048
>>>>>Begin Spectral Data<<<<<
189.047	18.72
189.435	18.72
189.823	18.72
190.211	-164.26
190.599	79.8
190.987	175.41
191.375	28.1
191.763	-35.17
192.151	346.99
192.538	67.23
192.926	-56.89
193.314	111.89
193.702	191.82
194.089	-248.97
194.477	30.31
194.864	199.42
195.252	117.41
195.639	67.74
196.027	646.29
196.414	144.2
196.801	136.11
197.189	160.26
197.576	137.49
197.963	228.45
198.351	30.29
198.738	3.8
199.125	22.58
199.512	-21.65
199.899	49.1
200.286	12.7
200.673	54.31
201.06	39.44
201.447	75.51
201.833	21.32
202.22	5.13
202.607	56.87
202.994	-16.58
203.38	19.75
203.767	19.73
204.154	45.39
204.54	43.82
204.927	-41.7
205.313	-43.62
205.699	-1.43
206.086	54.23
206.472	30.78
206.858	5.47
207.245	-48.94
207.631	31.13
208.017	13.11
208.403	-27.93
208.789	62.55
209.175	24.87
209.561	-42.5
209.947	22.77
210.333	-48.2
210.719	7.09
211.105	13.48
211.491	29.22
211.876	-30.57
212.262	-9.53
212.648	-22.54
213.034	2.37
213.419	-20.51
213.805	-7.69
214.19	-60.81
214.576	-25.13
214.961	15.13
215.346	-100.59
215.732	0.36
216.117	1.08
216.502	-18.63
216.888	16.51
217.273	24.98
217.658	6.59
218.043	-4.18
218.428	-46.14
218.813	-44.41
219.198	-19.2
219.583	-9.48
219.968	6.88
220.353	-4.15
220.738	17.28
221.122	36.18
221.507	-51.96
221.892	-53.95
222.276	-34.81
222.661	4.09
223.046	10.92
223.43	10.8
223.815	10.02
224.199	-16.17
224.583	-15.32
224.968	9.59
225.352	3.94
225.736	-1.71
226.121	-10.62
226.505	7.06
226.889	9.04
227.273	1.12
227.657	6.05
228.041	0.91
228.425	0.04
228.809	3.45
229.193	-0.46
229.577	0.35
229.961	2.71
230.344	2.89
230.728	2.47
231.112	3.41
231.495	3.16
231.879	1.62
232.263	3.21
232.646	1.33
233.03	3.14
233.413	3.46
233.797	2.02
234.18	2.98
234.563	0.46
234.946	0.46
235.33	2.19
235.713	2.98
236.096	4.16
236.479	3.56
236.862	0.86
237.245	6.96
237.628	1.26
238.011	3.97
238.394	3.63
238.777	3.7
239.16	-1
239.543	3.54
239.925	5.25
240.308	3.15
240.691	4.32
241.073	3.5
241.456	2.89
241.838	4.04
242.221	1.29
242.603	2.49
242.986	3.87
243.368	3.13
243.75	3.67
244.133	3.27
244.515	3.71
244.897	3.86
245.279	3.12
245.661	2.8
246.043	2.57
246.425	2.33
246.807	3.9
247.189	3.23
247.571	3.75
247.953	3.64
248.335	3.1
248.717	3.65
249.098	3.47
249.48	3.62
249.862	3.42
250.243	3.55
250.625	3.91
251.006	4.04
251.388	2.93
251.769	3.01
252.151	2.84
252.532	2.66
252.913	2.46
253.295	3.67
253.676	3.06
254.057	3.47
254.438	3.53
254.819	2.41
255.2	3.31
255.581	3.02
255.962	1.72
256.343	2.93
256.724	4.06
257.105	3.97
257.486	3.32
257.867	3.25
258.247	3.3
258.628	3.76
259.009	3.44
259.389	4.22
259.77	3.03
260.15	3.06
260.531	2.83
260.911	3.88
261.292	3.3
261.672	3.75
262.052	3.33
262.432	3.53
262.813	3.16
263.193	3.45
263.573	2.86
263.953	3.63
264.333	3.13
264.713	3.49
265.093	3.37
265.473	3.49
265.853	1.93
266.233	3.72
266.612	2.68
266.992	2.41
267.372	3.65
267.752	2.61
268.131	2.71
268.511	3.81
268.89	3.54
269.27	2.98
269.649	2.98
270.029	3.33
270.408	3.74
270.787	3.61
271.167	4.34
271.546	2.91
271.925	2.62
272.304	3.08
272.683	3.35
273.062	3.1
273.441	3.55
273.82	2.56
274.199	2.86
274.578	2.86
274.957	3.07
275.336	3.18
275.715	2.6
276.093	3.8
276.472	3.36
276.851	3.1
277.229	2.48
277.608	2.39
277.986	2.96
278.365	3.54
278.743	3.06
279.122	2.73
279.5	3.62
279.878	3.35
280.257	3.13
280.635	2.81
281.013	2.91
281.391	3.28
281.769	2.79
282.147	4.05
282.525	3.84
282.903	2.81
283.281	3.24
283.659	3.58
284.037	3.58
284.415	3.31
284.792	3.4
285.17	2.38
285.548	2.84
285.925	3.32
286.303	3.1
286.68	2.92
287.058	3.41
287.435	2.97
287.813	3.31
288.19	3.13
288.567	2.98
288.945	3.44
289.322	3.16
289.699	3.39
290.076	3.24
290.453	3.18
290.83	2.61
291.207	3.14
291.584	3.47
291.961	3.36
292.338	3.48
292.715	3.83
293.092	3.24
293.469	3.17
293.845	3.79
294.222	3.12
294.599	3.31
294.975	3.36
295.352	3.72
295.728	3.64
296.105	3.59
296.481	3.76
296.858	3.8
297.234	3.73
297.61	3.86
297.986	4.05
298.363	3.6
298.739	4.19
299.115	3.85
299.491	3.74
299.867	3.66
300.243	3.93
300.619	3.38
300.995	4.26
301.371	3.92
301.746	4.13
302.122	4.43
302.498	4.01
302.874	4.38
303.249	4.11
303.625	4
304	3.85
304.376	4.07
304.751	3.3
305.127	4.66
305.502	3.81
305.878	3.52
306.253	3.98
306.628	4.84
307.003	4.46
307.378	5.13
307.754	4.27
308.129	3.73
308.504	4.68
308.879	3.68
309.254	5.07
309.629	5
310.003	4.63
310.378	4.54
310.753	4.96
311.128	4.7
311.502	4.75
311.877	5.04
312.252	3.99
312.626	4.45
313.001	4.81
313.375	4.96
313.75	4.52
314.124	4.65
314.498	4.69
314.873	4.63
315.247	4.59
315.621	4.65
315.995	4.27
316.369	4.39
316.743	4.78
317.117	4.67
317.491	4.34
317.865	4.82
318.239	5.08
318.613	4.91
318.987	5.53
319.361	4.65
319.734	5.06
320.108	5.11
320.482	4.94
320.855	5.09
321.229	5.14
321.602	5.05
321.976	5.17
322.349	5.08
322.723	5.12
323.096	5.41
323.469	4.72
323.843	5.13
324.216	5.24
324.589	5.53
324.962	5.09
325.335	4.51
325.708	5.21
326.081	4.62
326.454	5.56
326.827	5.26
327.2	4.97
327.573	5.55
327.945	5.37
328.318	5.4
328.691	4.63
329.063	5.34
329.436	5.15
329.809	5.7
330.181	5.33
330.553	5.74
330.926	5.53
331.298	5.45
331.671	5.32
332.043	5.8
332.415	5.51
332.787	5.65
333.159	5.84
333.532	5.71
333.904	5.15
334.276	5.97
334.648	5.92
335.02	5.53
335.391	5.2
335.763	5.52
336.135	5.63
336.507	5.52
336.879	5.5
337.25	5.63
337.622	5.21
337.993	5.28
338.365	6.39
338.736	5.69
339.108	5.66
339.479	5.8
339.851	5.61
340.222	5.26
340.593	5.76
340.964	5.54
341.336	6.16
341.707	5.18
342.078	6.26
342.449	6.09
342.82	5.46
343.191	5.8
343.562	5.94
343.933	6.29
344.303	6.05
344.674	5.73
345.045	5.52
345.416	6.24
345.786	5.53
346.157	6.14
346.527	5.75
346.898	5.31
347.268	6.19
347.639	5.66
348.009	5.94
348.38	6.14
348.75	6.3
349.12	5.88
349.49	6.07
349.861	5.79
350.231	5.43
350.601	6.28
350.971	6.39
351.341	5.44
351.711	5.78
352.081	5.72
352.45	5.76
352.82	5.87
353.19	5.72
353.56	5.94
353.929	6.05
354.299	5.73
354.669	5.92
355.038	6.09
355.408	5.52
355.777	6.09
356.147	5.96
356.516	6.4
356.885	5.89
357.254	6.12
357.624	6.41
357.993	6.07
358.362	5.52
358.731	5.85
359.1	5.83
359.469	6.22
359.838	6.17
360.207	6.02
360.576	5.89
360.945	5.95
361.314	6.46
361.682	5.51
362.051	6
362.42	6.17
362.788	5.77
363.157	6.11
363.525	6.3
363.894	6.25
364.262	6.1
364.631	6.05
364.999	6.06
365.367	5.62
365.735	6.94
366.104	6.45
366.472	6.43
366.84	6.08
367.208	6.28
367.576	6.29
367.944	6.3
368.312	5.99
368.68	5.87
369.048	6.45
369.416	6.32
369.783	6.03
370.151	6.3
370.519	6.68
370.886	6.47
371.254	6.21
371.621	6.66
371.989	6.45
372.356	5.56
372.724	6.39
373.091	6.13
373.458	6.08
373.826	6.39
374.193	6.05
374.56	6.33
374.927	6.64
375.294	6.57
375.661	6.11
376.028	6.2
376.395	6.26
376.762	6.33
377.129	6.35
377.496	6.34
377.863	5.98
378.229	5.85
378.596	6.41
378.963	6.4
379.329	6.19
379.696	6.39
380.062	6.45
380.429	6.37
380.795	6.1
381.161	6.24
381.528	6.49
381.894	6.14
382.26	6.37
382.626	6.68
382.993	6.41
383.359	6.7
383.725	6.22
384.091	6.44
384.457	6.43
384.823	6.36
385.188	6.57
385.554	6.38
385.92	6.51
386.286	6.76
386.651	6.71
387.017	6.52
387.383	6.65
387.748	6.53
388.114	6.68
388.479	6.43
388.845	6.82
389.21	6.98
389.575	6.9
389.94	6.57
390.306	6.47
390.671	6.64
391.036	6.35
391.401	6.34
391.766	6.67
392.131	6.37
392.496	6.68
392.861	6.64
393.226	6.77
393.591	6.83
393.956	6.52
394.32	6.54
394.685	6.47
395.05	6.51
395.414	6.83
395.779	6.58
396.143	6.65
396.508	6.72
396.872	6.79
397.236	6.76
397.601	6.34
397.965	6.7
398.329	6.69
398.694	6.64
399.058	6.61
399.422	6.64
399.786	6.85
400.15	6.68
400.514	6.99
400.878	6.91
401.242	7.06
401.605	6.82
401.969	6.73
402.333	6.64
402.697	6.63
403.06	6.86
403.424	7.01
403.787	6.51
404.151	7.15
404.514	6.79
404.878	6.78
405.241	6.99
405.604	6.72
405.968	7.1
406.331	6.75
406.694	6.86
407.057	6.7
407.42	6.86
407.783	6.65
408.146	6.88
408.509	6.74
408.872	6.98
409.235	7.22
409.598	7.13
409.961	6.75
410.323	6.92
410.686	7.11
411.049	6.71
411.411	6.72
411.774	7.24
412.136	6.94
412.499	6.74
412.861	7.03
413.223	6.86
413.586	7.08
413.948	6.97
414.31	6.91
414.672	6.8
415.035	6.64
415.397	7.11
415.759	6.82
416.121	7.01
416.483	6.98
416.845	6.95
417.206	6.84
417.568	7.05
417.93	6.87
418.292	6.95
418.653	6.88
419.015	6.82
419.377	6.88
419.738	6.99
420.1	6.9
420.461	7
420.822	7.06
421.184	7
421.545	6.93
421.906	6.74
422.267	6.99
422.629	6.93
422.99	6.95
423.351	6.8
423.712	6.94
424.073	7
424.434	6.81
424.795	6.9
425.155	6.92
425.516	6.94
425.877	6.9
426.238	6.95
426.598	7.05
426.959	6.92
427.32	6.86
427.68	6.92
428.041	6.89
428.401	7.16
428.761	7.04
429.122	7.03
429.482	6.99
429.842	7.21
430.202	7.21
430.563	7.13
430.923	6.87
431.283	7.26
431.643	7.28
432.003	7.11
432.363	7.24
432.722	7.03
433.082	7.13
433.442	7.16
433.802	7.16
434.161	7.06
434.521	7.37
434.881	7.34
435.24	6.92
435.6	7.03
435.959	7.14
436.319	7.2
436.678	7.09
437.037	7.06
437.396	7.3
437.756	7.24
438.115	7.31
438.474	7.21
438.833	7.28
439.192	7.24
439.551	7.39
439.91	7.35
440.269	7.13
440.628	7.25
440.987	7.26
441.345	7.2
441.704	7.22
442.063	7.19
442.421	7.13
442.78	7.15
443.138	7.25
443.497	7.34
443.855	7.23
444.214	7.3
444.572	7.27
444.93	7.24
445.288	7.33
445.647	7.52
446.005	7.4
446.363	7.49
446.721	7.4
447.079	7.15
447.437	7.29
447.795	7.35
448.153	7.14
448.51	7.18
448.868	7.27
449.226	7.29
449.584	7.35
449.941	7.39
450.299	7.32
450.656	7.33
451.014	7.45
451.371	7.39
451.729	7.27
452.086	7.61
452.443	7.39
452.801	7.41
453.158	7.26
453.515	7.37
453.872	7.63
454.229	7.45
454.586	7.3
454.943	7.58
455.3	7.47
455.657	7.38
456.014	7.4
456.371	7.55
456.727	7.45
457.084	7.77
457.441	7.5
457.797	7.72
458.154	7.64
458.51	7.72
458.867	7.81
459.223	7.61
459.58	7.52
459.936	7.55
460.292	7.66
460.648	7.55
461.005	7.49
461.361	7.56
461.717	7.6
462.073	7.42
462.429	7.42
462.785	7.57
463.141	7.48
463.496	7.71
463.852	7.81
464.208	7.72
464.564	7.79
464.919	7.78
465.275	7.61
465.631	7.75
465.986	7.61
466.342	7.69
466.697	7.66
467.052	7.68
467.408	7.71
467.763	7.77
468.118	7.85
468.473	7.49
468.829	7.65
469.184	7.63
469.539	7.69
469.894	7.69
470.249	7.78
470.603	7.86
470.958	7.82
471.313	7.95
471.668	7.89
472.023	7.86
472.377	7.67
472.732	7.89
473.086	7.83
473.441	7.65
473.795	8.06
474.15	8.01
474.504	7.91
474.859	7.83
475.213	7.88
475.567	7.97
475.921	8
476.275	8.13
476.63	7.92
476.984	8.2
477.338	7.89
477.692	7.93
478.045	7.82
478.399	7.92
478.753	7.96
479.107	7.89
479.461	7.82
479.814	7.98
480.168	7.93
480.521	7.78
480.875	7.9
481.228	7.94
481.582	7.91
481.935	8.02
482.289	7.96
482.642	7.96
482.995	7.88
483.348	7.9
483.701	7.97
484.055	8.08
484.408	7.97
484.761	7.91
485.114	7.94
485.466	7.77
485.819	7.67
486.172	7.62
486.525	7.56
486.878	7.58
487.23	7.69
487.583	7.8
487.936	7.87
488.288	7.89
488.641	7.93
488.993	7.82
489.345	7.8
489.698	7.74
490.05	7.74
490.402	7.84
490.754	7.77
491.107	7.89
491.459	7.97
491.811	7.96
492.163	8.04
492.515	8.11
492.866	8.1
493.218	8.15
493.57	7.97
493.922	7.89
494.274	7.98
494.625	8
494.977	8.05
495.328	8.15
495.68	8.13
496.031	8.31
496.383	8.22
496.734	8.51
497.086	8.38
497.437	8.35
497.788	8.45
498.139	8.3
498.49	8.39
498.842	8.26
499.193	8.21
499.544	8.31
499.894	8.3
500.245	8.4
500.596	8.38
500.947	8.4
501.298	8.27
501.648	8.42
501.999	8.45
502.35	8.39
502.7	8.46
503.051	8.43
503.401	8.37
503.752	8.55
504.102	8.47
504.452	8.54
504.803	8.47
505.153	8.62
505.503	8.51
505.853	8.46
506.203	8.56
506.553	8.56
506.903	8.59
507.253	8.66
507.603	8.46
507.953	8.82
508.303	8.75
508.652	8.54
509.002	8.69
509.352	8.81
509.701	8.52
510.051	8.71
510.4	8.81
510.75	8.72
511.099	8.67
511.449	8.7
511.798	8.6
512.147	8.72
512.496	8.73
512.846	8.73
513.195	8.77
513.544	8.69
513.893	8.7
514.242	8.76
514.591	8.96
514.939	8.73
515.288	8.76
515.637	8.85
515.986	8.92
516.334	8.95
516.683	9.04
517.032	8.88
517.38	8.93
517.729	9
518.077	8.82
518.426	8.94
518.774	9.07
519.122	8.98
519.47	8.95
519.819	8.85
520.167	8.89
520.515	8.91
520.863	9.03
521.211	8.99
521.559	8.91
521.907	8.81
522.255	8.97
522.602	9.06
522.95	9.07
523.298	9.08
523.645	9.14
523.993	9.11
524.341	9.21
524.688	9.22
525.036	9.18
525.383	9.2
525.73	9.46
526.078	9.24
526.425	9.17
526.772	9.4
527.119	9.23
527.466	9.22
527.814	9.24
528.161	9.19
528.508	9.23
528.854	9.23
529.201	9.28
529.548	9.19
529.895	9.21
530.242	9.14
530.588	9.08
530.935	9.03
531.282	9.05
531.628	8.93
531.975	9.09
532.321	9.21
532.667	9.18
533.014	9.25
533.36	9.33
533.706	9.38
534.052	9.36
534.399	9.39
534.745	9.43
535.091	9.46
535.437	9.43
535.783	9.4
536.129	9.41
536.474	9.34
536.82	9.53
537.166	9.59
537.512	9.6
537.857	9.65
538.203	9.79
538.549	9.65
538.894	9.73
539.239	9.68
539.585	9.61
539.93	9.51
540.276	9.89
540.621	9.89
540.966	9.92
541.311	9.77
541.656	9.88
542.001	9.84
542.346	10.09
542.691	9.87
543.036	9.81
543.381	9.71
543.726	9.78
544.071	9.83
544.415	9.73
544.76	9.79
545.105	9.85
545.449	9.88
545.794	9.93
546.138	9.95
546.483	10.03
546.827	10.04
547.171	10.18
547.516	10.34
547.86	10.17
548.204	10.18
548.548	10.04
548.892	10.24
549.236	10.26
549.58	10.16
549.924	10.17
550.268	10.37
550.612	10.28
550.956	10.4
551.3	10.43
551.643	10.49
551.987	10.59
552.33	10.56
552.674	10.6
553.017	10.56
553.361	10.62
553.704	10.7
554.048	10.62
554.391	10.67
554.734	10.55
555.077	10.74
555.42	10.63
555.764	10.61
556.107	10.57
556.45	10.67
556.793	10.75
557.135	10.88
557.478	10.83
557.821	10.83
558.164	10.81
558.507	10.86
558.849	10.83
559.192	10.93
559.534	10.8
559.877	10.94
560.219	10.89
560.562	11.11
560.904	11
561.246	11.15
561.589	11.29
561.931	10.95
562.273	10.86
562.615	10.99
562.957	11.15
563.299	10.74
563.641	10.97
563.983	11.28
564.325	11.03
564.667	10.95
565.008	11.31
565.35	11.29
565.692	10.99
566.033	11.36
566.375	11.51
566.716	11.62
567.058	11.38
567.399	11.42
567.741	11.41
568.082	11.46
568.423	11.34
568.764	11.55
569.105	11.46
569.447	11.5
569.788	11.48
570.129	11.63
570.47	11.48
570.811	11.66
571.151	11.72
571.492	11.73
571.833	11.68
572.174	11.67
572.514	11.76
572.855	11.74
573.195	11.71
573.536	11.97
573.876	11.55
574.217	11.7
574.557	11.88
574.898	11.96
575.238	12.1
575.578	11.83
575.918	12.06
576.258	12.25
576.598	12.26
576.938	11.85
577.278	12.16
577.618	12.09
577.958	12.27
578.298	12.23
578.638	12.21
578.977	12.19
579.317	12.17
579.657	12.54
579.996	12.26
580.336	12.44
580.675	12.38
581.014	12.48
581.354	12.49
581.693	12.53
582.032	12.4
582.372	12.28
582.711	12.62
583.05	12.52
583.389	12.46
583.728	12.61
584.067	12.7
584.406	12.75
584.745	12.57
585.083	12.82
585.422	12.92
585.761	12.63
586.1	12.9
586.438	12.66
586.777	13.12
587.115	13.08
587.454	12.67
587.792	12.56
588.13	13.02
588.469	12.68
588.807	13.15
589.145	12.8
589.483	12.93
589.821	12.97
590.159	13.07
590.497	13.54
590.835	13.37
591.173	13.18
591.511	13.47
591.849	13.09
592.187	13.4
592.524	12.98
592.862	13.3
593.2	13.29
593.537	13.49
593.875	13.29
594.212	13.31
594.55	13.24
594.887	13.52
595.224	13.42
595.561	13.58
595.899	13.43
596.236	13.6
596.573	13.93
596.91	13.58
597.247	13.51
597.584	13.72
597.921	13.69
598.258	13.9
598.594	13.85
598.931	13.69
599.268	13.89
599.604	13.7
599.941	13.85
600.277	13.74
600.614	13.67
600.95	13.52
601.287	13.9
601.623	13.97
601.959	14.23
602.296	14.22
602.632	13.94
602.968	14.16
603.304	14.29
603.64	14.16
603.976	13.9
604.312	13.92
604.648	14.18
604.984	14.48
605.319	14.36
605.655	14.27
605.991	14.12
606.326	14.22
606.662	14.42
606.998	14.11
607.333	14.38
607.668	14.4
608.004	14.52
608.339	14.88
608.674	14.42
609.01	14.23
609.345	14.21
609.68	14.77
610.015	14.58
610.35	14.56
610.685	14.61
611.02	14.62
611.355	15.08
611.689	14.83
612.024	14.74
612.359	14.6
612.694	14.64
613.028	14.92
613.363	14.78
613.697	14.98
614.032	15.07
614.366	15.01
614.7	15.31
615.035	14.83
615.369	14.83
615.703	15.01
616.037	15.03
616.371	14.84
616.705	14.85
617.039	15.34
617.373	14.98
617.707	15.35
618.041	15.29
618.375	15.44
618.709	15.56
619.042	15.1
619.376	15.69
619.71	15.68
620.043	15.88
620.377	15.19
620.71	15.43
621.043	15.02
621.377	15.71
621.71	15.36
622.043	15.44
622.376	15.32
622.709	15.31
623.043	15.9
623.376	15.5
623.709	15.91
624.041	16.45
624.374	15.83
624.707	15.41
625.04	15.75
625.373	15.75
625.705	15.72
626.038	15.63
626.37	15.68
626.703	16.22
627.035	15.69
627.368	16.47
627.7	15.81
628.032	15.91
628.365	16.53
628.697	16.33
629.029	16
629.361	15.84
629.693	16.16
630.025	15.85
630.357	16.33
630.689	16.4
631.021	16.23
631.353	16.71
631.684	16.23
632.016	15.89
632.348	16.38
632.679	16.33
633.011	16.75
633.342	16.77
633.674	16.53
634.005	17.03
634.336	16.34
634.668	17.27
634.999	16.22
635.33	17
635.661	16.74
635.992	16.73
636.323	17.1
636.654	17.07
636.985	16.96
637.316	16.9
637.647	16.63
637.977	17.28
638.308	16.86
638.639	16.18
638.969	16.53
639.3	16.56
639.63	16.63
639.961	17.38
640.291	17.31
640.622	17.08
640.952	17.18
641.282	17.57
641.612	17
641.943	16.92
642.273	16.81
642.603	17.67
642.933	17.52
643.263	17.54
643.592	17.46
643.922	17.15
644.252	17.35
644.582	17.35
644.911	17.42
645.241	17.41
645.571	17.2
645.9	16.87
646.23	17.78
646.559	17.87
646.888	17.63
647.218	17.71
647.547	17.49
647.876	17.44
648.205	17.87
648.534	17.84
648.863	17.58
649.192	17.62
649.521	17.83
649.85	17.17
650.179	17.99
650.508	17.78
650.837	17.57
651.165	17.57
651.494	18.08
651.822	18.09
652.151	17.55
652.479	18.4
652.808	18.07
653.136	17.78
653.465	17.78
653.793	17.57
654.121	17.82
654.449	18.15
654.777	18.33
655.105	18.3
655.433	17.88
655.761	18.02
656.089	18.07
656.417	18.13
656.745	18.28
657.073	17.68
657.4	18.54
657.728	18.55
658.056	17.98
658.383	18.37
658.711	18.17
659.038	18.65
659.365	19.35
659.693	18.87
660.02	18.55
660.347	18.06
660.674	18.75
661.001	18.75
661.329	18.06
661.656	18.75
661.982	18.84
662.309	18.74
662.636	18.99
662.963	19.06
663.29	18.96
663.616	18.5
663.943	18.29
664.27	18.55
664.596	18.67
664.923	19.1
665.249	18.91
665.576	18.82
665.902	18.89
666.228	19.65
666.554	19.06
666.881	18.9
667.207	19.07
667.533	19.34
667.859	19.64
668.185	19.4
668.511	18.44
668.837	18.05
669.162	19.54
669.488	18.79
669.814	19.3
670.139	19.15
670.465	19.74
670.791	19.36
671.116	20.14
671.442	19.47
671.767	19.55
672.092	19.89
672.418	19.26
672.743	19.66
673.068	19.15
673.393	19.7
673.718	19.5
674.043	19.04
674.368	19.79
674.693	20.13
675.018	19.34
675.343	20.31
675.667	19.76
675.992	19.52
676.317	19.71
676.641	20.06
676.966	20.28
677.29	19.73
677.615	20.02
677.939	20
678.264	20.13
678.588	19.86
678.912	20.61
679.236	20.28
679.56	19.77
679.885	20.88
680.209	19.63
680.532	20.85
680.856	20.23
681.18	20.49
681.504	20.37
681.828	21.1
682.152	19.79
682.475	20.02
682.799	20.57
