Data from 0363_forehead_Reflection__3__438.txt Node

Date: Fri Dec 15 20:33:42 CST 2023
User: ToomeyLab
Spectrometer: FLMS14357
Trigger mode: 0
Integration Time (sec): 1.000000E-2
Scans to average: 100
Electric dark correction enabled: true
Nonlinearity correction enabled: false
Boxcar width: 0
XAxis mode: Wavelengths
Number of Pixels in Spectrum: 2048
>>>>>Begin Spectral Data<<<<<
189.047	73.32
189.435	73.32
189.823	73.32
190.211	-83.6
190.599	877.69
190.987	343.44
191.375	-109.21
191.763	-165.77
192.151	637.68
192.538	17.14
192.926	-148.25
193.314	217.24
193.702	53.76
194.089	-53.68
194.477	-19.65
194.864	142.58
195.252	68.47
195.639	84.52
196.027	-68.37
196.414	137.21
196.801	132.32
197.189	71.13
197.576	51.75
197.963	-248.3
198.351	-74.23
198.738	-25.28
199.125	19.04
199.512	-20.52
199.899	-7.98
200.286	18.62
200.673	-14.19
201.06	10.06
201.447	-12.39
201.833	-44.02
202.22	-2.29
202.607	24.91
202.994	12.56
203.38	8.14
203.767	43.17
204.154	22.1
204.54	22.99
204.927	-56.48
205.313	-83.65
205.699	12.72
206.086	62.85
206.472	24.42
206.858	1.5
207.245	-23.87
207.631	34.44
208.017	14.55
208.403	8.75
208.789	40.1
209.175	11.23
209.561	-31.6
209.947	-52.81
210.333	-21.18
210.719	28
211.105	19.85
211.491	-79.84
211.876	11.81
212.262	-14.18
212.648	2.81
213.034	34.18
213.419	-17.8
213.805	-21.28
214.19	-54.69
214.576	4.98
214.961	0.91
215.346	-60.19
215.732	-16.98
216.117	-0.29
216.502	-6.44
216.888	12.21
217.273	39.46
217.658	-0.29
218.043	21.94
218.428	-47.8
218.813	-44.14
219.198	-27.94
219.583	15.36
219.968	-8.97
220.353	-32.98
220.738	12.07
221.122	29.94
221.507	-24.07
221.892	-36.1
222.276	-15.94
222.661	19.47
223.046	30.07
223.43	23.51
223.815	9.04
224.199	-20.32
224.583	-2.49
224.968	1.61
225.352	3.38
225.736	-9.12
226.121	-8.57
226.505	11.61
226.889	10.32
227.273	1.08
227.657	3.18
228.041	2.56
228.425	0.41
228.809	7.78
229.193	2.74
229.577	1.06
229.961	3.36
230.344	3.13
230.728	2.01
231.112	3.18
231.495	2.08
231.879	2.61
232.263	2.31
232.646	1.38
233.03	2.17
233.413	2.31
233.797	4.8
234.18	2.67
234.563	2.58
234.946	2.04
235.33	4.87
235.713	2.91
236.096	2.23
236.479	3.52
236.862	0.99
237.245	2.59
237.628	0.93
238.011	2.39
238.394	5.65
238.777	4.32
239.16	1.46
239.543	3.76
239.925	5.47
240.308	2.68
240.691	4.2
241.073	4.41
241.456	3.89
241.838	2.06
242.221	1.86
242.603	3.51
242.986	2.92
243.368	3.26
243.75	3.56
244.133	3.25
244.515	3.38
244.897	3.8
245.279	3.28
245.661	3.3
246.043	2.8
246.425	2.38
246.807	3.85
247.189	3.68
247.571	3.88
247.953	3.47
248.335	3.18
248.717	3.41
249.098	2.99
249.48	3.23
249.862	3.21
250.243	3.18
250.625	3
251.006	3.88
251.388	2.04
251.769	3.28
252.151	4.31
252.532	2.53
252.913	2.99
253.295	2.62
253.676	2.95
254.057	3.25
254.438	2.98
254.819	2.28
255.2	2.15
255.581	3.11
255.962	2.87
256.343	3.76
256.724	2.62
257.105	3.01
257.486	2.17
257.867	4.04
258.247	3.76
258.628	3.23
259.009	3.27
259.389	3.95
259.77	2.84
260.15	2.9
260.531	2.26
260.911	3.54
261.292	3.22
261.672	3.52
262.052	3.21
262.432	3.75
262.813	3.41
263.193	3.32
263.573	2.75
263.953	2.96
264.333	3.9
264.713	3.55
265.093	3
265.473	3.02
265.853	2.07
266.233	3.66
266.612	0.69
266.992	2.29
267.372	3.87
267.752	3.72
268.131	2.64
268.511	4.05
268.89	3.93
269.27	2.8
269.649	2.77
270.029	2.5
270.408	3.66
270.787	3.63
271.167	3.21
271.546	3.47
271.925	2.8
272.304	3.47
272.683	3.29
273.062	2.62
273.441	4.04
273.82	2.75
274.199	2.84
274.578	3.48
274.957	2.87
275.336	3.41
275.715	3.21
276.093	2.91
276.472	3.36
276.851	2.97
277.229	2.74
277.608	2.84
277.986	3.28
278.365	3.15
278.743	2.84
279.122	2.88
279.5	2.92
279.878	3.53
280.257	2.78
280.635	2.85
281.013	2.91
281.391	3.61
281.769	2.8
282.147	3.24
282.525	3.35
282.903	2.92
283.281	3.11
283.659	2.95
284.037	3.08
284.415	3.38
284.792	3.37
285.17	2.56
285.548	3.12
285.925	3
286.303	3.01
286.68	2.84
287.058	3.03
287.435	3.12
287.813	3.03
288.19	2.95
288.567	3.09
288.945	3.48
289.322	3.1
289.699	3.26
290.076	3.12
290.453	3
290.83	2.96
291.207	2.65
291.584	3.33
291.961	3.51
292.338	3.41
292.715	3.9
293.092	3.23
293.469	3.33
293.845	4.01
294.222	2.79
294.599	3.32
294.975	2.99
295.352	3.51
295.728	3.17
296.105	3.52
296.481	3.55
296.858	3.6
297.234	3.21
297.61	3.47
297.986	3.68
298.363	3.83
298.739	3.69
299.115	3.52
299.491	3.28
299.867	3.64
300.243	3.76
300.619	3.33
300.995	3.86
301.371	3.76
301.746	3.46
302.122	4.54
302.498	3.44
302.874	3.38
303.249	4.17
303.625	3.66
304	4.28
304.376	4.3
304.751	3.78
305.127	4.88
305.502	3.26
305.878	3.33
306.253	4.04
306.628	4.77
307.003	3.96
307.378	4.86
307.754	4.25
308.129	3.39
308.504	4.17
308.879	3.81
309.254	5.28
309.629	4.54
310.003	4.57
310.378	4.79
310.753	4.57
311.128	5.01
311.502	4.55
311.877	5.1
312.252	4.66
312.626	4.29
313.001	4.47
313.375	5.13
313.75	4.38
314.124	4.85
314.498	4.48
314.873	5.52
315.247	4.88
315.621	4.71
315.995	4.58
316.369	5.07
316.743	4.89
317.117	5.37
317.491	5.12
317.865	5.08
318.239	4.81
318.613	5.71
318.987	5.97
319.361	5.37
319.734	5.54
320.108	5.89
320.482	5.92
320.855	5.54
321.229	5.21
321.602	5.58
321.976	6.06
322.349	5.9
322.723	5.42
323.096	6.16
323.469	5.55
323.843	5.92
324.216	6.14
324.589	5.78
324.962	6.52
325.335	6.04
325.708	5.8
326.081	6.27
326.454	6.1
326.827	6.29
327.2	5.93
327.573	6.69
327.945	6.16
328.318	6.23
328.691	6.18
329.063	6.62
329.436	6.46
329.809	6.8
330.181	6.33
330.553	6.35
330.926	7.14
331.298	7.05
331.671	6.72
332.043	7.59
332.415	6.7
332.787	7.04
333.159	7.68
333.532	7.13
333.904	7.33
334.276	7.27
334.648	7.25
335.02	7.45
335.391	7.4
335.763	6.67
336.135	7.42
336.507	7.25
336.879	6.8
337.25	6.83
337.622	7.07
337.993	7.46
338.365	7.93
338.736	7.5
339.108	7.46
339.479	7.34
339.851	7.74
340.222	7.05
340.593	7.64
340.964	7.56
341.336	7.91
341.707	7.12
342.078	8.11
342.449	7.66
342.82	7.69
343.191	7.84
343.562	7.55
343.933	8.07
344.303	7.85
344.674	7.55
345.045	7.75
345.416	8.33
345.786	7.73
346.157	7.79
346.527	7.75
346.898	7.88
347.268	8.1
347.639	8.09
348.009	7.83
348.38	7.88
348.75	8.25
349.12	7.85
349.49	8.84
349.861	8.22
350.231	8.09
350.601	8.53
350.971	8.27
351.341	8.12
351.711	8.22
352.081	8.41
352.45	8.19
352.82	8.87
353.19	8.39
353.56	8.15
353.929	8.7
354.299	8.45
354.669	7.97
355.038	8.81
355.408	8.88
355.777	8.48
356.147	8.64
356.516	8.29
356.885	8.79
357.254	8.68
357.624	9.25
357.993	8.91
358.362	8.94
358.731	8.74
359.1	8.8
359.469	8.7
359.838	9.15
360.207	8.6
360.576	8.62
360.945	9.12
361.314	9.24
361.682	8.75
362.051	8.92
362.42	8.95
362.788	8.95
363.157	9.04
363.525	9.15
363.894	9.39
364.262	9.33
364.631	9.33
364.999	9.12
365.367	8.84
365.735	9.76
366.104	9.78
366.472	9.33
366.84	8.74
367.208	9.42
367.576	9.35
367.944	9.85
368.312	9.55
368.68	9.32
369.048	9.4
369.416	9.43
369.783	9.32
370.151	10.14
370.519	10.18
370.886	9.73
371.254	9.74
371.621	10.1
371.989	10.1
372.356	9.51
372.724	10.36
373.091	9.61
373.458	10.1
373.826	9.88
374.193	9.79
374.56	10.27
374.927	10.12
375.294	10.02
375.661	10.27
376.028	10.05
376.395	10.13
376.762	10.37
377.129	10.53
377.496	10.12
377.863	10.28
378.229	9.66
378.596	10.7
378.963	10.34
379.329	10.02
379.696	10.69
380.062	10.6
380.429	10.54
380.795	10.15
381.161	10.64
381.528	10.78
381.894	10.57
382.26	10.5
382.626	11.07
382.993	10.58
383.359	11.23
383.725	10.58
384.091	10.85
384.457	11.27
384.823	11.23
385.188	10.94
385.554	10.82
385.92	11.13
386.286	10.98
386.651	11.58
387.017	11.3
387.383	11.4
387.748	10.77
388.114	11.42
388.479	11.03
388.845	11.66
389.21	11.36
389.575	11.55
389.94	11.43
390.306	11.05
390.671	11.58
391.036	11.25
391.401	11.03
391.766	11.53
392.131	11.32
392.496	11.39
392.861	11.6
393.226	11.74
393.591	11.38
393.956	11.61
394.32	11.67
394.685	11.77
395.05	11.7
395.414	12.05
395.779	11.37
396.143	12.01
396.508	11.66
396.872	11.96
397.236	11.87
397.601	11.92
397.965	12.15
398.329	12.22
398.694	12.21
399.058	12.18
399.422	11.78
399.786	12.46
400.15	12.33
400.514	12.26
400.878	12.27
401.242	12.58
401.605	12.78
401.969	12.33
402.333	12.32
402.697	12.15
403.06	12.4
403.424	12.33
403.787	12.61
404.151	12.66
404.514	12.6
404.878	12.35
405.241	12.74
405.604	12.55
405.968	12.85
406.331	12.91
406.694	13.08
407.057	12.89
407.42	12.7
407.783	12.73
408.146	12.72
408.509	12.89
408.872	12.88
409.235	12.67
409.598	13.41
409.961	12.87
410.323	12.94
410.686	12.88
411.049	13.03
411.411	12.82
411.774	13.28
412.136	13.04
412.499	13.26
412.861	13.22
413.223	13.12
413.586	13.26
413.948	13.15
414.31	13.12
414.672	13.18
415.035	12.88
415.397	13.62
415.759	13.24
416.121	13.59
416.483	13.29
416.845	13.46
417.206	13.42
417.568	13.62
417.93	13.19
418.292	13.52
418.653	13.61
419.015	13.6
419.377	13.52
419.738	13.7
420.1	13.61
420.461	13.64
420.822	13.67
421.184	13.59
421.545	13.69
421.906	13.59
422.267	13.7
422.629	13.64
422.99	13.66
423.351	13.72
423.712	13.82
424.073	13.77
424.434	13.74
424.795	13.78
425.155	13.9
425.516	13.82
425.877	13.84
426.238	13.94
426.598	14.08
426.959	14.04
427.32	14.04
427.68	14.18
428.041	14.24
428.401	14.31
428.761	14.21
429.122	14.43
429.482	14.28
429.842	14.35
430.202	14.5
430.563	14.59
430.923	14.42
431.283	14.78
431.643	14.5
432.003	14.73
432.363	14.96
432.722	14.69
433.082	14.85
433.442	14.74
433.802	14.57
434.161	14.98
434.521	15.06
434.881	14.96
435.24	14.83
435.6	14.85
435.959	14.91
436.319	15.08
436.678	15.01
437.037	14.95
437.396	15.25
437.756	15.24
438.115	15.16
438.474	15.38
438.833	15.2
439.192	15.17
439.551	15.38
439.91	15.25
440.269	15.36
440.628	15.28
440.987	15.34
441.345	15.33
441.704	15.3
442.063	15.4
442.421	15.41
442.78	15.34
443.138	15.43
443.497	15.59
443.855	15.58
444.214	15.66
444.572	15.71
444.93	15.7
445.288	15.8
445.647	15.93
446.005	15.86
446.363	15.92
446.721	15.87
447.079	15.74
447.437	15.66
447.795	15.88
448.153	15.71
448.51	15.79
448.868	15.73
449.226	15.92
449.584	16.07
449.941	16.14
450.299	15.98
450.656	16.09
451.014	16.22
451.371	16.13
451.729	16.26
452.086	16.55
452.443	16.46
452.801	16.38
453.158	16.57
453.515	16.42
453.872	16.64
454.229	16.27
454.586	16.53
454.943	16.63
455.3	16.71
455.657	16.64
456.014	16.67
456.371	16.84
456.727	16.94
457.084	17.02
457.441	17.01
457.797	16.88
458.154	17.19
458.51	17.05
458.867	17.29
459.223	17.28
459.58	17.14
459.936	17.31
460.292	17.23
460.648	17
461.005	16.94
461.361	17.19
461.717	16.9
462.073	16.97
462.429	17.04
462.785	17.22
463.141	17.54
463.496	17.35
463.852	17.54
464.208	17.72
464.564	17.67
464.919	17.62
465.275	17.74
465.631	17.71
465.986	18
466.342	17.69
466.697	17.68
467.052	18.01
467.408	17.93
467.763	17.83
468.118	18.12
468.473	17.98
468.829	18.16
469.184	18.07
469.539	18.23
469.894	17.99
470.249	18.38
470.603	18.2
470.958	18.36
471.313	18.42
471.668	18.41
472.023	18.38
472.377	18.42
472.732	18.44
473.086	18.34
473.441	18.3
473.795	18.84
474.15	18.44
474.504	18.61
474.859	18.81
475.213	18.68
475.567	18.47
475.921	18.58
476.275	18.75
476.63	18.91
476.984	18.94
477.338	19.11
477.692	18.96
478.045	19
478.399	19.04
478.753	18.96
479.107	18.94
479.461	19.03
479.814	19.13
480.168	19.07
480.521	19.07
480.875	19.26
481.228	19.18
481.582	19.28
481.935	19.17
482.289	19.35
482.642	19.18
482.995	19.2
483.348	19.27
483.701	19.14
484.055	19.37
484.408	19.25
484.761	19.12
485.114	18.94
485.466	18.59
485.819	18.63
486.172	18.62
486.525	18.75
486.878	18.76
487.23	19.08
487.583	19.31
487.936	19.42
488.288	19.27
488.641	19.34
488.993	19.25
489.345	19.16
489.698	19.15
490.05	19.18
490.402	19.28
490.754	19.51
491.107	19.65
491.459	19.78
491.811	19.86
492.163	20.04
492.515	19.97
492.866	19.75
493.218	19.67
493.57	19.57
493.922	19.57
494.274	19.92
494.625	20.04
494.977	20.29
495.328	20.43
495.68	20.49
496.031	20.7
496.383	20.69
496.734	20.84
497.086	20.82
497.437	20.83
497.788	21.01
498.139	20.81
498.49	20.92
498.842	20.77
499.193	20.83
499.544	21.11
499.894	21.09
500.245	21.09
500.596	21.07
500.947	21.36
501.298	21.1
501.648	21.38
501.999	21.35
502.35	21.31
502.7	21.32
503.051	21.58
503.401	21.67
503.752	21.68
504.102	21.55
504.452	21.97
504.803	21.71
505.153	21.66
505.503	21.79
505.853	21.87
506.203	21.74
506.553	21.87
506.903	21.94
507.253	21.91
507.603	21.89
507.953	22.14
508.303	22.31
508.652	22.05
509.002	22.34
509.352	22.36
509.701	22.22
510.051	22.29
510.4	22.2
510.75	22.29
511.099	22.25
511.449	22.29
511.798	22.55
512.147	22.36
512.496	22.41
512.846	22.41
513.195	22.53
513.544	22.54
513.893	22.47
514.242	22.53
514.591	22.71
514.939	22.71
515.288	22.7
515.637	22.79
515.986	22.87
516.334	23.05
516.683	23.05
517.032	22.96
517.38	23.13
517.729	23.23
518.077	23.09
518.426	23.32
518.774	23.41
519.122	23.19
519.47	23.17
519.819	23
520.167	23.08
520.515	23.05
520.863	23.2
521.211	23.18
521.559	23.27
521.907	23.38
522.255	23.56
522.602	23.53
522.95	23.64
523.298	23.55
523.645	23.76
523.993	23.71
524.341	23.82
524.688	23.97
525.036	23.95
525.383	24.09
525.73	24.17
526.078	24.16
526.425	24.12
526.772	24.07
527.119	24.03
527.466	23.91
527.814	23.88
528.161	23.98
528.508	24.07
528.854	24.04
529.201	24.09
529.548	23.88
529.895	23.78
530.242	23.56
530.588	23.51
530.935	23.62
531.282	23.85
531.628	23.86
531.975	24.06
532.321	24.23
532.667	24.32
533.014	24.54
533.36	24.54
533.706	24.7
534.052	24.62
534.399	24.65
534.745	24.52
535.091	24.4
535.437	24.49
535.783	24.52
536.129	24.78
536.474	24.74
536.82	24.97
537.166	24.98
537.512	25.11
537.857	25.24
538.203	25.11
538.549	25.18
538.894	25.07
539.239	25.36
539.585	25.54
539.93	25.37
540.276	25.84
540.621	25.74
540.966	25.88
541.311	25.8
541.656	25.78
542.001	25.76
542.346	25.9
542.691	25.59
543.036	25.39
543.381	25.23
543.726	25.41
544.071	25.52
544.415	25.58
544.76	25.69
545.105	25.94
545.449	26.16
545.794	26.11
546.138	26.24
546.483	26.35
546.827	26.49
547.171	26.65
547.516	26.63
547.86	26.61
548.204	26.58
548.548	26.53
548.892	26.65
549.236	26.79
549.58	26.73
549.924	26.83
550.268	27.02
550.612	27.15
550.956	27.16
551.3	27.41
551.643	27.41
551.987	27.37
552.33	27.61
552.674	27.56
553.017	27.72
553.361	27.48
553.704	27.76
554.048	27.55
554.391	27.63
554.734	27.65
555.077	27.8
555.42	27.71
555.764	27.74
556.107	27.78
556.45	27.86
556.793	28.1
557.135	28.34
557.478	28.54
557.821	28.26
558.164	27.93
558.507	28.44
558.849	28.15
559.192	28.65
559.534	28.55
559.877	28.52
560.219	28.49
560.562	28.62
560.904	28.65
561.246	28.55
561.589	29.01
561.931	28.85
562.273	28.89
562.615	28.9
562.957	28.94
563.299	28.7
563.641	29.08
563.983	29.09
564.325	28.93
564.667	29.12
565.008	29.14
565.35	29.37
565.692	29.09
566.033	29.22
566.375	29.55
566.716	29.37
567.058	29.29
567.399	29.06
567.741	29.41
568.082	29.35
568.423	29.48
568.764	29.32
569.105	29.55
569.447	29.74
569.788	29.66
570.129	29.61
570.47	29.54
570.811	30.03
571.151	30.05
571.492	29.98
571.833	29.98
572.174	30.19
572.514	30.07
572.855	30.12
573.195	30.07
573.536	30.09
573.876	29.94
574.217	30.12
574.557	30.27
574.898	30.49
575.238	30.5
575.578	30.47
575.918	30.53
576.258	30.56
576.598	30.45
576.938	30.45
577.278	30.61
577.618	30.46
577.958	30.72
578.298	30.75
578.638	31.01
578.977	30.97
579.317	31.01
579.657	31.12
579.996	31.15
580.336	31.1
580.675	31.22
581.014	31.67
581.354	31.37
581.693	31.35
582.032	31.19
582.372	31.33
582.711	31.43
583.05	31.53
583.389	31.74
583.728	31.93
584.067	31.98
584.406	31.84
584.745	32.2
585.083	32.25
585.422	32.22
585.761	31.99
586.1	31.92
586.438	32.23
586.777	31.9
587.115	32.48
587.454	32.43
587.792	32.31
588.13	32.52
588.469	32.06
588.807	32.36
589.145	32.3
589.483	32.01
589.821	32.56
590.159	32.61
590.497	32.95
590.835	32.89
591.173	32.79
591.511	32.85
591.849	32.5
592.187	32.7
592.524	32.94
592.862	33
593.2	33.18
593.537	32.97
593.875	32.81
594.212	33.26
594.55	33.21
594.887	33.2
595.224	33.15
595.561	33.54
595.899	33.43
596.236	33.32
596.573	33.8
596.91	33.2
597.247	33.41
597.584	33.65
597.921	33.55
598.258	33.5
598.594	33.64
598.931	33.44
599.268	33.47
599.604	33.66
599.941	33.82
600.277	33.81
600.614	33.87
600.95	33.76
601.287	34.15
601.623	34.11
601.959	34.23
602.296	34.29
602.632	34.12
602.968	34.17
603.304	34.19
603.64	34.46
603.976	34.53
604.312	34.51
604.648	34.68
604.984	34.43
605.319	34.29
605.655	34.71
605.991	34.36
606.326	34.57
606.662	34.62
606.998	34.43
607.333	34.71
607.668	34.62
608.004	34.56
608.339	35.09
608.674	34.95
609.01	34.88
609.345	34.6
609.68	35.07
610.015	35.27
610.35	34.88
610.685	34.91
611.02	34.92
611.355	35.11
611.689	35.23
612.024	35.3
612.359	35.44
612.694	35.44
613.028	35.43
613.363	35.76
613.697	35.94
614.032	36.05
614.366	35.87
614.7	36.12
615.035	35.59
615.369	35.45
615.703	35.45
616.037	36.18
616.371	35.72
616.705	36.12
617.039	35.92
617.373	35.74
617.707	36.07
618.041	36.37
618.375	36.44
618.709	36.75
619.042	35.93
619.376	36.57
619.71	36.79
620.043	36.55
620.377	36.41
620.71	36.57
621.043	36.37
621.377	36.76
621.71	36.38
622.043	36.52
622.376	36.62
622.709	37.01
623.043	36.46
623.376	36.56
623.709	36.63
624.041	37.1
624.374	37.48
624.707	36.44
625.04	37.29
625.373	36.58
625.705	37.12
626.038	36.67
626.37	36.88
626.703	36.8
627.035	36.93
627.368	37.82
627.7	37.02
628.032	37.17
628.365	36.99
628.697	37.31
629.029	37.02
629.361	37.24
629.693	37.23
630.025	37.53
630.357	37.33
630.689	37.67
631.021	37.61
631.353	37.56
631.684	37.65
632.016	37.91
632.348	37.74
632.679	37.62
633.011	37.71
633.342	38.66
633.674	37.74
634.005	38.34
634.336	37.86
634.668	38.87
634.999	37.87
635.33	38.05
635.661	38.16
635.992	38.23
636.323	38.32
636.654	38.23
636.985	38.04
637.316	38.09
637.647	38.83
637.977	38.54
638.308	38.64
638.639	38.41
638.969	37.95
639.3	37.81
639.63	38.3
639.961	38.66
640.291	38.53
640.622	38.93
640.952	38.26
641.282	38.96
641.612	38.95
641.943	38.86
642.273	38.8
642.603	39.01
642.933	39.05
643.263	39.29
643.592	39.33
643.922	38.9
644.252	39.48
644.582	39.13
644.911	38.92
645.241	39.52
645.571	39.07
645.9	39.13
646.23	39.49
646.559	39.47
646.888	39.22
647.218	39.35
647.547	39.74
647.876	39.29
648.205	39.49
648.534	39.47
648.863	39.03
649.192	39.85
649.521	39.54
649.85	39.42
650.179	39.91
650.508	40.5
650.837	39.78
651.165	40.03
651.494	39.96
651.822	40.08
652.151	39.87
652.479	40.29
652.808	39.95
653.136	40.42
653.465	39.87
653.793	39.85
654.121	40.22
654.449	40.23
654.777	40.75
655.105	41.09
655.433	40.11
655.761	40.84
656.089	40.74
656.417	40.68
656.745	40.72
657.073	40.03
657.4	41.53
657.728	40.15
658.056	40.76
658.383	40.64
658.711	40.26
659.038	41.17
659.365	41.49
659.693	40.99
660.02	39.99
660.347	40.68
660.674	40.92
661.001	41.34
661.329	40.55
661.656	41.47
661.982	41.44
662.309	40.83
662.636	40.62
662.963	40.59
663.29	41.18
663.616	41.72
663.943	41.01
664.27	41.88
664.596	41.59
664.923	40.97
665.249	41.85
665.576	41.47
665.902	41.51
666.228	41.59
666.554	42.03
666.881	41.45
667.207	41.38
667.533	41.98
667.859	41.91
668.185	41.53
668.511	40.8
668.837	41.57
669.162	42.05
669.488	41.8
669.814	41.9
670.139	42.37
670.465	41.72
670.791	41.43
671.116	42.95
671.442	42.15
