Data from 0363_crown_Reflection__0__429.txt Node

Date: Fri Dec 15 20:32:04 CST 2023
User: ToomeyLab
Spectrometer: FLMS14357
Trigger mode: 0
Integration Time (sec): 1.000000E-2
Scans to average: 100
Electric dark correction enabled: true
Nonlinearity correction enabled: false
Boxcar width: 0
XAxis mode: Wavelengths
Number of Pixels in Spectrum: 2048
>>>>>Begin Spectral Data<<<<<
189.047	42.2
189.435	42.2
189.823	42.2
190.211	190.13
190.599	-334.85
190.987	290.45
191.375	160.73
191.763	97.83
192.151	134.1
192.538	151.25
192.926	183.9
193.314	258.16
193.702	40.97
194.089	-13.79
194.477	39.89
194.864	33.31
195.252	142.79
195.639	136.55
196.027	366.08
196.414	103.1
196.801	113.08
197.189	118.87
197.576	214.34
197.963	4.77
198.351	1.99
198.738	-31.89
199.125	-0.58
199.512	9.44
199.899	25.51
200.286	26.16
200.673	35.81
201.06	1.14
201.447	-240.16
201.833	0.85
202.22	-24.11
202.607	31.23
202.994	8.38
203.38	12.55
203.767	20.73
204.154	29.15
204.54	19.46
204.927	-134.41
205.313	-46.65
205.699	33.95
206.086	42.55
206.472	-3.24
206.858	-33.7
207.245	-62.84
207.631	-15.32
208.017	39.9
208.403	-27.91
208.789	20.67
209.175	24.68
209.561	-40.49
209.947	-31.22
210.333	-72.78
210.719	-17.18
211.105	-4.37
211.491	10.69
211.876	10.76
212.262	-5.67
212.648	-34.26
213.034	-5.97
213.419	-37.78
213.805	-34.91
214.19	-54.79
214.576	-46.31
214.961	-16.9
215.346	-130.08
215.732	8.35
216.117	-21.23
216.502	-31.99
216.888	6.29
217.273	-8
217.658	-2.71
218.043	13.26
218.428	-8.12
218.813	-3.27
219.198	-31.13
219.583	-14.91
219.968	-5.52
220.353	1.38
220.738	7.96
221.122	15.36
221.507	-39.75
221.892	-20.4
222.276	-24.46
222.661	1.45
223.046	4.03
223.43	9.68
223.815	1.46
224.199	-12.03
224.583	-5.55
224.968	3.88
225.352	13.67
225.736	-3.76
226.121	-3.38
226.505	-6.35
226.889	5.92
227.273	0.1
227.657	7
228.041	6.06
228.425	2.7
228.809	8.91
229.193	4.32
229.577	0.35
229.961	4.6
230.344	3.8
230.728	3.94
231.112	4.6
231.495	4.23
231.879	4.28
232.263	4.29
232.646	5.54
233.03	4.52
233.413	3.76
233.797	3.88
234.18	1.05
234.563	5.55
234.946	3.63
235.33	6.82
235.713	5.5
236.096	4.7
236.479	5.3
236.862	2.56
237.245	5.34
237.628	2.71
238.011	3.93
238.394	5.4
238.777	5.43
239.16	1.86
239.543	3.12
239.925	5.97
240.308	3.43
240.691	7.18
241.073	5.45
241.456	3.47
241.838	3.27
242.221	2.24
242.603	5.42
242.986	5.04
243.368	4.13
243.75	4.87
244.133	4.27
244.515	4.83
244.897	4.84
245.279	4.67
245.661	4.03
246.043	3.83
246.425	4.04
246.807	4.85
247.189	4.24
247.571	3.77
247.953	4.41
248.335	4.29
248.717	4.54
249.098	4.27
249.48	4.51
249.862	4.45
250.243	4.48
250.625	4.76
251.006	5.14
251.388	3.55
251.769	3.46
252.151	5.38
252.532	4.12
252.913	2.86
253.295	2.8
253.676	3.77
254.057	4.54
254.438	4.76
254.819	4.17
255.2	3.06
255.581	2.62
255.962	3.66
256.343	3.29
256.724	3.96
257.105	3.36
257.486	3
257.867	3.67
258.247	4.85
258.628	4.41
259.009	3.13
259.389	4.14
259.77	3.33
260.15	3.41
260.531	3.63
260.911	4.53
261.292	4.23
261.672	4.14
262.052	4.43
262.432	4.49
262.813	4.48
263.193	3.89
263.573	3.56
263.953	3.77
264.333	3.98
264.713	4.2
265.093	3.77
265.473	4.25
265.853	2.96
266.233	4.24
266.612	2.68
266.992	2.41
267.372	4.46
267.752	3.63
268.131	3.8
268.511	4.37
268.89	4.37
269.27	3.53
269.649	3.33
270.029	3.93
270.408	4.44
270.787	4.38
271.167	4.33
271.546	4.15
271.925	3.03
272.304	3.24
272.683	4
273.062	3.86
273.441	4.33
273.82	3.63
274.199	3.87
274.578	4.24
274.957	3.59
275.336	3.55
275.715	3.83
276.093	3.27
276.472	3.94
276.851	3.45
277.229	3.21
277.608	3.06
277.986	3.67
278.365	3.9
278.743	3.84
279.122	3.61
279.5	3.85
279.878	4.22
280.257	2.94
280.635	2.75
281.013	3.47
281.391	4.41
281.769	3.66
282.147	3.89
282.525	4.28
282.903	3.72
283.281	3.67
283.659	3.93
284.037	3.94
284.415	3.83
284.792	4.17
285.17	3
285.548	3.06
285.925	3.51
286.303	4.08
286.68	3.98
287.058	3.77
287.435	3.54
287.813	4.11
288.19	3.84
288.567	3.61
288.945	3.96
289.322	4
289.699	3.11
290.076	3.36
290.453	3.48
290.83	3.5
291.207	3.92
291.584	4.14
291.961	3.84
292.338	3.47
292.715	4.02
293.092	3.34
293.469	3.69
293.845	4.07
294.222	3.19
294.599	3.69
294.975	3.28
295.352	3.76
295.728	2.95
296.105	3.82
296.481	4.04
296.858	3.93
297.234	3.48
297.61	3.22
297.986	3.75
298.363	3.86
298.739	3.87
299.115	3.46
299.491	3.3
299.867	3.71
300.243	3.29
300.619	2.95
300.995	3.35
301.371	3.84
301.746	3.78
302.122	3.83
302.498	3.49
302.874	3.75
303.249	3.55
303.625	3.73
304	4.09
304.376	3.97
304.751	2.82
305.127	4.73
305.502	2.87
305.878	3.04
306.253	3.36
306.628	3.94
307.003	3.36
307.378	3.62
307.754	3.27
308.129	3.02
308.504	3.23
308.879	2.69
309.254	4.29
309.629	4.39
310.003	3.67
310.378	4.71
310.753	3.27
311.128	3.34
311.502	3.4
311.877	4.24
312.252	3.4
312.626	3.72
313.001	3.27
313.375	4.03
313.75	3.36
314.124	3.57
314.498	3.62
314.873	3.67
315.247	3.29
315.621	3.72
315.995	3.05
316.369	4.14
316.743	3.22
317.117	3.9
317.491	3.29
317.865	3.31
318.239	3.59
318.613	4.25
318.987	3.74
319.361	3.13
319.734	3.65
320.108	4.07
320.482	4.04
320.855	4.18
321.229	3.37
321.602	3.75
321.976	3.93
322.349	2.75
322.723	3.94
323.096	4.19
323.469	3.23
323.843	2.89
324.216	4.35
324.589	3.14
324.962	3.56
325.335	3.22
325.708	3.6
326.081	3.79
326.454	3.7
326.827	3.21
327.2	3.71
327.573	3.94
327.945	3.45
328.318	3.41
328.691	3.05
329.063	3.71
329.436	3.09
329.809	4.18
330.181	3.8
330.553	3.73
330.926	3.7
331.298	3.74
331.671	3.11
332.043	3.98
332.415	3.88
332.787	3.81
333.159	3.69
333.532	3.77
333.904	3.49
334.276	3.34
334.648	3.83
335.02	3.82
335.391	3.54
335.763	3.52
336.135	3.73
336.507	4.07
336.879	3.26
337.25	3.5
337.622	3.48
337.993	3.12
338.365	3.97
338.736	3.71
339.108	4.17
339.479	3.49
339.851	3.81
340.222	3.01
340.593	3.94
340.964	3.42
341.336	4.11
341.707	3.3
342.078	3.89
342.449	3.85
342.82	3.46
343.191	3.82
343.562	3.57
343.933	3.69
344.303	3.25
344.674	3.88
345.045	4.12
345.416	4.24
345.786	3.51
346.157	3.88
346.527	3.46
346.898	3.29
347.268	4.11
347.639	4.22
348.009	3.8
348.38	3.53
348.75	3.63
349.12	3.6
349.49	4.31
349.861	3.85
350.231	3.27
350.601	3.38
350.971	3.82
351.341	3.66
351.711	3.65
352.081	3.61
352.45	3.47
352.82	3.84
353.19	3.45
353.56	3.66
353.929	3.85
354.299	3.51
354.669	3.69
355.038	3.91
355.408	3.9
355.777	3.84
356.147	3.84
356.516	3.9
356.885	3.48
357.254	3.72
357.624	4.07
357.993	3.99
358.362	3.69
358.731	3.71
359.1	3.81
359.469	3.72
359.838	3.93
360.207	3.54
360.576	3.73
360.945	3.62
361.314	4.01
361.682	3.62
362.051	3.71
362.42	3.87
362.788	3.82
363.157	3.84
363.525	4.12
363.894	4.14
364.262	4.08
364.631	3.99
364.999	3.65
365.367	3.17
365.735	4.43
366.104	3.67
366.472	3.74
366.84	3.75
367.208	3.67
367.576	3.79
367.944	3.95
368.312	3.66
368.68	3.66
369.048	3.6
369.416	3.71
369.783	3.62
370.151	3.95
370.519	4.12
370.886	4.16
371.254	3.85
371.621	3.99
371.989	4.06
372.356	3.59
372.724	4.14
373.091	3.56
373.458	3.84
373.826	3.54
374.193	3.58
374.56	4.17
374.927	4.16
375.294	3.72
375.661	3.96
376.028	3.73
376.395	3.72
376.762	3.99
377.129	4.09
377.496	3.53
377.863	4.03
378.229	3.7
378.596	4.11
378.963	3.82
379.329	3.68
379.696	3.94
380.062	4.24
380.429	3.88
380.795	3.7
381.161	3.81
381.528	3.87
381.894	4.13
382.26	3.83
382.626	3.92
382.993	3.52
383.359	4.09
383.725	3.98
384.091	3.69
384.457	4.16
384.823	4.02
385.188	3.9
385.554	3.66
385.92	4.33
386.286	4.05
386.651	3.96
387.017	4.29
387.383	4.1
387.748	3.84
388.114	3.97
388.479	4
388.845	4.13
389.21	4.12
389.575	4.22
389.94	4.06
390.306	3.81
390.671	4.07
391.036	3.83
391.401	3.76
391.766	3.93
392.131	3.75
392.496	4.13
392.861	3.92
393.226	4.19
393.591	4.2
393.956	3.94
394.32	4.3
394.685	3.84
395.05	4.05
395.414	3.99
395.779	3.96
396.143	4.35
396.508	4
396.872	3.95
397.236	4.15
397.601	4.18
397.965	4.1
398.329	4.04
398.694	4.08
399.058	4.18
399.422	3.88
399.786	4.33
400.15	4.18
400.514	3.83
400.878	4.36
401.242	4.38
401.605	4.25
401.969	4.08
402.333	4.17
402.697	4.29
403.06	4.19
403.424	4.05
403.787	3.92
404.151	4.35
404.514	4.35
404.878	4.15
405.241	4.08
405.604	4.04
405.968	4.23
406.331	4.18
406.694	4.26
407.057	4.12
407.42	4.31
407.783	4.01
408.146	4.06
408.509	4.1
408.872	3.95
409.235	4.24
409.598	4.67
409.961	4.11
410.323	4.32
410.686	4.04
411.049	4.02
411.411	4.01
411.774	4.34
412.136	4
412.499	3.99
412.861	4.19
413.223	4.22
413.586	4.31
413.948	4.4
414.31	4.11
414.672	3.93
415.035	3.96
415.397	4.42
415.759	3.9
416.121	4.25
416.483	3.99
416.845	4.25
417.206	4.29
417.568	4.36
417.93	3.96
418.292	4.07
418.653	4.17
419.015	4.4
419.377	4.18
419.738	4.17
420.1	4.13
420.461	4.3
420.822	4.25
421.184	4.13
421.545	4.26
421.906	4.13
422.267	4.09
422.629	4.11
422.99	4.23
423.351	4.11
423.712	4.21
424.073	4.19
424.434	4.17
424.795	4.21
425.155	4.2
425.516	4.1
425.877	4.24
426.238	4.22
426.598	4.24
426.959	4.25
427.32	4.11
427.68	4.26
428.041	4.25
428.401	4.3
428.761	4.24
429.122	4.39
429.482	4.06
429.842	4.3
430.202	4.33
430.563	4.35
430.923	4.29
431.283	4.24
431.643	4.15
432.003	4.24
432.363	4.38
432.722	4.17
433.082	4.27
433.442	4.25
433.802	4.09
434.161	4.09
434.521	4.34
434.881	4.43
435.24	4.26
435.6	4.26
435.959	4.31
436.319	4.31
436.678	4.24
437.037	4.17
437.396	4.24
437.756	4.18
438.115	4.2
438.474	4.41
438.833	3.95
439.192	4.2
439.551	4.35
439.91	4.41
440.269	4.25
440.628	4.11
440.987	4.23
441.345	4.22
441.704	4.32
442.063	4.22
442.421	4.21
442.78	4.27
443.138	4.26
443.497	4.27
443.855	4.15
444.214	4.36
444.572	4.31
444.93	4.34
445.288	4.29
445.647	4.45
446.005	4.24
446.363	4.23
446.721	4.33
447.079	4.17
447.437	4.25
447.795	4.24
448.153	4.17
448.51	4.21
448.868	4.25
449.226	4.31
449.584	4.19
449.941	4.39
450.299	4.29
450.656	4.33
451.014	4.37
451.371	4.29
451.729	4.25
452.086	4.48
452.443	4.33
452.801	4.49
453.158	4.44
453.515	4.36
453.872	4.4
454.229	4.09
454.586	4.22
454.943	4.41
455.3	4.52
455.657	4.23
456.014	4.36
456.371	4.42
456.727	4.33
457.084	4.46
457.441	4.32
457.797	4.47
458.154	4.41
458.51	4.49
458.867	4.57
459.223	4.34
459.58	4.3
459.936	4.43
460.292	4.37
460.648	4.26
461.005	4.35
461.361	4.39
461.717	4.21
462.073	4.25
462.429	4.26
462.785	4.3
463.141	4.36
463.496	4.34
463.852	4.45
464.208	4.49
464.564	4.49
464.919	4.5
465.275	4.5
465.631	4.56
465.986	4.25
466.342	4.36
466.697	4.16
467.052	4.48
467.408	4.47
467.763	4.5
468.118	4.26
468.473	4.24
468.829	4.3
469.184	4.34
469.539	4.52
469.894	4.19
470.249	4.54
470.603	4.64
470.958	4.57
471.313	4.41
471.668	4.51
472.023	4.32
472.377	4.38
472.732	4.38
473.086	4.23
473.441	4.34
473.795	4.58
474.15	4.48
474.504	4.32
474.859	4.32
475.213	4.4
475.567	4.36
475.921	4.26
476.275	4.42
476.63	4.24
476.984	4.55
477.338	4.67
477.692	4.29
478.045	4.29
478.399	4.42
478.753	4.47
479.107	4.33
479.461	4.36
479.814	4.33
480.168	4.33
480.521	4.23
480.875	4.25
481.228	4.33
481.582	4.5
481.935	4.42
482.289	4.51
482.642	4.34
482.995	4.32
483.348	4.26
483.701	4.33
484.055	4.34
484.408	4.38
484.761	4.26
485.114	4.18
485.466	4
485.819	4.04
486.172	4.12
486.525	4.17
486.878	4.26
487.23	4.35
487.583	4.43
487.936	4.33
488.288	4.28
488.641	4.27
488.993	4.15
489.345	4.12
489.698	4.21
490.05	4.2
490.402	4.23
490.754	4.3
491.107	4.37
491.459	4.37
491.811	4.44
492.163	4.38
492.515	4.31
492.866	4.29
493.218	4.22
493.57	4.14
493.922	4.2
494.274	4.35
494.625	4.41
494.977	4.49
495.328	4.42
495.68	4.46
496.031	4.5
496.383	4.37
496.734	4.54
497.086	4.52
497.437	4.42
497.788	4.34
498.139	4.43
498.49	4.5
498.842	4.32
499.193	4.42
499.544	4.44
499.894	4.4
500.245	4.45
500.596	4.51
500.947	4.48
501.298	4.29
501.648	4.51
501.999	4.43
502.35	4.52
502.7	4.45
503.051	4.25
503.401	4.46
503.752	4.54
504.102	4.43
504.452	4.45
504.803	4.48
505.153	4.36
505.503	4.47
505.853	4.48
506.203	4.35
506.553	4.4
506.903	4.42
507.253	4.33
507.603	4.38
507.953	4.6
508.303	4.57
508.652	4.49
509.002	4.49
509.352	4.58
509.701	4.3
510.051	4.48
510.4	4.27
510.75	4.43
511.099	4.5
511.449	4.46
511.798	4.51
512.147	4.38
512.496	4.4
512.846	4.47
513.195	4.42
513.544	4.4
513.893	4.57
514.242	4.43
514.591	4.62
514.939	4.53
515.288	4.39
515.637	4.44
515.986	4.65
516.334	4.56
516.683	4.6
517.032	4.48
517.38	4.5
517.729	4.44
518.077	4.32
518.426	4.44
518.774	4.53
519.122	4.4
519.47	4.28
519.819	4.35
520.167	4.43
520.515	4.45
520.863	4.46
521.211	4.57
521.559	4.52
521.907	4.4
522.255	4.51
522.602	4.56
522.95	4.5
523.298	4.53
523.645	4.63
523.993	4.56
524.341	4.56
524.688	4.57
525.036	4.39
525.383	4.68
525.73	4.65
526.078	4.55
526.425	4.51
526.772	4.53
527.119	4.45
527.466	4.35
527.814	4.5
528.161	4.46
528.508	4.41
528.854	4.4
529.201	4.44
529.548	4.4
529.895	4.27
530.242	4.16
530.588	4.19
530.935	4.28
531.282	4.38
531.628	4.38
531.975	4.45
532.321	4.51
532.667	4.48
533.014	4.52
533.36	4.47
533.706	4.53
534.052	4.43
534.399	4.43
534.745	4.37
535.091	4.3
535.437	4.32
535.783	4.41
536.129	4.51
536.474	4.5
536.82	4.57
537.166	4.6
537.512	4.58
537.857	4.55
538.203	4.56
538.549	4.44
538.894	4.39
539.239	4.51
539.585	4.52
539.93	4.47
540.276	4.69
540.621	4.69
540.966	4.6
541.311	4.49
541.656	4.31
542.001	4.54
542.346	4.53
542.691	4.3
543.036	4.28
543.381	4.24
543.726	4.32
544.071	4.51
544.415	4.47
544.76	4.49
545.105	4.45
545.449	4.52
545.794	4.6
546.138	4.62
546.483	4.58
546.827	4.56
547.171	4.57
547.516	4.67
547.86	4.41
548.204	4.44
548.548	4.4
548.892	4.58
549.236	4.47
549.58	4.46
549.924	4.65
550.268	4.66
550.612	4.69
550.956	4.73
551.3	4.61
551.643	4.8
551.987	4.78
552.33	4.51
552.674	4.63
553.017	4.63
553.361	4.7
553.704	4.84
554.048	4.66
554.391	4.5
554.734	4.53
555.077	4.5
555.42	4.4
555.764	4.66
556.107	4.43
556.45	4.49
556.793	4.56
557.135	4.65
557.478	4.89
557.821	4.68
558.164	4.42
558.507	4.6
558.849	4.39
559.192	4.73
559.534	4.47
559.877	4.48
560.219	4.45
560.562	4.81
560.904	4.68
561.246	4.72
561.589	4.64
561.931	4.4
562.273	4.39
562.615	4.64
562.957	4.63
563.299	4.34
563.641	4.69
563.983	4.84
564.325	4.53
564.667	4.61
565.008	4.44
565.35	4.57
565.692	4.35
566.033	4.39
566.375	4.68
566.716	4.66
567.058	4.71
567.399	4.62
567.741	4.46
568.082	4.57
568.423	4.59
568.764	4.55
569.105	4.61
569.447	4.67
569.788	4.62
570.129	4.61
570.47	4.53
570.811	4.77
571.151	4.72
571.492	4.61
571.833	4.7
572.174	4.5
572.514	4.62
572.855	4.58
573.195	4.44
573.536	4.6
573.876	4.43
574.217	4.44
574.557	4.74
574.898	4.76
575.238	4.68
575.578	4.48
575.918	4.66
576.258	4.74
576.598	4.68
576.938	4.59
577.278	4.68
577.618	4.41
577.958	4.74
578.298	4.66
578.638	4.58
578.977	4.54
579.317	4.46
579.657	4.54
579.996	4.55
580.336	4.79
580.675	4.65
581.014	4.27
581.354	4.54
581.693	4.7
582.032	4.5
582.372	4.58
582.711	4.65
583.05	4.51
583.389	4.75
583.728	4.66
584.067	4.64
584.406	4.7
584.745	4.58
585.083	4.57
585.422	4.7
585.761	4.9
586.1	4.72
586.438	4.64
586.777	4.77
587.115	4.69
587.454	4.54
587.792	4.56
588.13	4.69
588.469	4.36
588.807	4.69
589.145	4.28
589.483	4.42
589.821	4.65
590.159	4.83
590.497	4.92
590.835	4.7
591.173	4.6
591.511	4.67
591.849	4.66
592.187	4.74
592.524	4.51
592.862	4.46
593.2	4.68
593.537	4.77
593.875	4.61
594.212	4.61
594.55	4.47
594.887	4.74
595.224	4.77
595.561	4.7
595.899	4.54
596.236	4.62
596.573	4.71
596.91	4.33
597.247	4.43
597.584	4.8
597.921	4.67
598.258	4.48
598.594	4.71
598.931	4.54
599.268	4.74
599.604	4.47
599.941	4.74
600.277	4.57
600.614	4.46
600.95	4.54
601.287	4.83
601.623	4.69
601.959	4.67
602.296	4.61
602.632	4.53
602.968	5.08
603.304	4.73
603.64	4.64
603.976	4.59
604.312	4.33
604.648	4.67
604.984	4.79
605.319	4.49
605.655	4.53
605.991	4.67
606.326	4.69
606.662	4.6
606.998	4.54
607.333	4.73
607.668	4.65
608.004	4.76
608.339	5.04
608.674	4.7
609.01	4.44
609.345	4.56
609.68	4.54
610.015	4.55
610.35	4.64
610.685	4.81
611.02	4.57
611.355	4.59
611.689	4.55
612.024	4.44
612.359	4.68
612.694	4.64
613.028	4.72
613.363	4.68
613.697	4.95
614.032	4.61
614.366	4.53
614.7	4.73
615.035	4.85
615.369	4.77
615.703	4.33
616.037	4.71
616.371	4.47
616.705	4.3
617.039	4.48
617.373	4.35
617.707	4.52
618.041	4.4
618.375	4.85
618.709	4.58
619.042	4.5
619.376	4.56
619.71	4.91
620.043	4.57
620.377	4.3
620.71	4.81
621.043	4.45
621.377	4.46
621.71	4.44
622.043	4.35
622.376	4.33
622.709	4.61
623.043	4.88
623.376	4.67
623.709	4.38
624.041	5.32
624.374	4.82
624.707	4.47
625.04	4.77
625.373	4.33
625.705	4.45
626.038	4.43
626.37	4.86
626.703	4.33
627.035	4.85
627.368	5.32
627.7	4.67
628.032	4.33
628.365	5.01
628.697	4.58
629.029	4.35
629.361	4.58
629.693	4.5
630.025	4.49
630.357	4.77
630.689	4.95
631.021	4.71
631.353	4.94
631.684	4.6
632.016	4.35
632.348	5.1
632.679	4.6
633.011	4.5
633.342	5.07
633.674	4.43
634.005	4.68
634.336	4.42
634.668	5.2
634.999	4.35
635.33	4.92
635.661	4.87
635.992	4.55
636.323	4.79
636.654	4.94
636.985	4.86
637.316	4.94
637.647	4.34
637.977	5.08
638.308	5.06
638.639	4.34
638.969	4.53
639.3	4.43
639.63	4.11
639.961	4.53
640.291	4.67
640.622	4.95
640.952	4.48
641.282	4.75
641.612	4.57
641.943	4.27
642.273	4.62
642.603	4.87
642.933	4.86
643.263	4.71
643.592	4.74
643.922	4.55
644.252	4.26
644.582	4.62
644.911	3.72
645.241	4.6
645.571	4.48
645.9	4.23
646.23	4.42
646.559	4.59
646.888	4.31
647.218	4.77
647.547	4.9
647.876	4.38
648.205	3.93
648.534	4.53
648.863	4.3
649.192	4.82
649.521	4.89
649.85	4.19
650.179	4.79
650.508	4.37
650.837	4.47
651.165	4.27
651.494	4.57
651.822	4.63
652.151	4.77
652.479	4.64
652.808	4.25
653.136	4.7
653.465	4.6
653.793	4.18
654.121	4.45
654.449	5.05
654.777	4.26
655.105	4.28
655.433	4.37
655.761	4.6
656.089	4.7
656.417	4.82
656.745	4.45
657.073	4.38
657.4	5.34
657.728	4.46
658.056	4.35
658.383	4.43
658.711	4.94
659.038	5.34
659.365	5.46
659.693	4.89
660.02	4.37
660.347	4.72
660.674	5
661.001	4.67
661.329	4.08
661.656	4.36
661.982	4.9
662.309	4.48
662.636	4.49
662.963	4.92
663.29	5.13
663.616	5.18
663.943	4.91
664.27	4.78
664.596	4.94
664.923	4.32
665.249	4.92
665.576	4.42
665.902	5.09
666.228	4.34
666.554	4.85
666.881	4.82
667.207	4.9
667.533	4.04
667.859	4.69
668.185	5.78
668.511	4.56
668.837	3.74
669.162	4.51
669.488	4.05
669.814	4.51
670.139	4.74
670.465	5.51
670.791	4.82
671.116	5.18
671.442	4.41
671.767	4.49
672.092	5.02
672.418	4.62
672.743	5.24
673.068	3.82
673.393	4.72
673.718	4.56
674.043	4.94
674.368	4.37
674.693	4.91
675.018	5.25
675.343	4.52
675.667	4.16
675.992	4.95
676.317	5.16
676.641	5.1
676.966	5.01
677.29	4.56
677.615	4.97
677.939	4.62
678.264	4.94
678.588	4.65
678.912	5.44
679.236	5.56
679.56	4.23
679.885	4.53
680.209	4.4
680.532	4.76
680.856	4.9
681.18	4.77
681.504	5.05
681.828	5.18
682.152	4.3
682.475	4.7
682.799	4.92
683.122	4.79
683.446	4.88
683.769	5.3
684.093	4.58
684.416	5.31
684.739	4.66
685.062	4.36
685.386	5
685.709	4.37
686.032	4.55
686.355	4.86
686.678	4.31
687.001	4.87
687.324	5.1
687.646	4.11
687.969	4.55
688.292	4.57
688.614	5.15
688.937	5.09
689.26	4.55
689.582	4.99
689.904	4.25
690.227	4.6
690.549	5.5
690.871	5.55
691.194	4.45
691.516	4.46
691.838	4.44
692.16	4.32
692.482	4.57
692.804	4.99
