Data from 0363_chest_Reflection__4__428.txt Node

Date: Fri Dec 15 20:31:01 CST 2023
User: ToomeyLab
Spectrometer: FLMS14357
Trigger mode: 0
Integration Time (sec): 1.000000E-2
Scans to average: 100
Electric dark correction enabled: true
Nonlinearity correction enabled: false
Boxcar width: 0
XAxis mode: Wavelengths
Number of Pixels in Spectrum: 2048
>>>>>Begin Spectral Data<<<<<
189.047	-27.52
189.435	-27.52
189.823	-27.52
190.211	1.58
190.599	639.25
190.987	248.94
191.375	-144.26
191.763	142.76
192.151	40.54
192.538	118.6
192.926	58.61
193.314	136.38
193.702	188.47
194.089	234.14
194.477	70.46
194.864	24.86
195.252	125.77
195.639	84.77
196.027	-1.94
196.414	117.75
196.801	242.4
197.189	108.16
197.576	134.39
197.963	-6.39
198.351	-29.23
198.738	-10.46
199.125	-27.4
199.512	17.99
199.899	-5.66
200.286	22.48
200.673	4.9
201.06	3.91
201.447	-176.54
201.833	4.34
202.22	28.18
202.607	7.78
202.994	13.29
203.38	20.18
203.767	13.87
204.154	19.64
204.54	25.48
204.927	-107.27
205.313	32.49
205.699	15.4
206.086	46.43
206.472	23.8
206.858	19.92
207.245	-47.51
207.631	33.01
208.017	1.02
208.403	-15.69
208.789	18.45
209.175	14.49
209.561	-44.03
209.947	-76.54
210.333	-23.41
210.719	17.98
211.105	-9.56
211.491	-31.79
211.876	32.94
212.262	5.58
212.648	-3.57
213.034	-23.3
213.419	-8.12
213.805	-33.11
214.19	-37.7
214.576	-28.39
214.961	-61.77
215.346	-125.6
215.732	-7.71
216.117	-2.54
216.502	-6.51
216.888	8.26
217.273	-5.25
217.658	25.57
218.043	4.76
218.428	-12.88
218.813	-33.25
219.198	-29.13
219.583	2.4
219.968	-2.77
220.353	-24.37
220.738	14.67
221.122	-5.36
221.507	-45.54
221.892	-48.18
222.276	-14.43
222.661	-18.78
223.046	5.71
223.43	1.59
223.815	5.77
224.199	-3.4
224.583	4.61
224.968	1.51
225.352	10.92
225.736	0.65
226.121	-15.6
226.505	3.74
226.889	5.01
227.273	-10.2
227.657	9.41
228.041	4.18
228.425	-2.32
228.809	5.26
229.193	4.99
229.577	2.26
229.961	2.73
230.344	3.69
230.728	2.88
231.112	4.19
231.495	3.92
231.879	2.68
232.263	4.92
232.646	2.3
233.03	4.75
233.413	3.74
233.797	4.03
234.18	3.84
234.563	5.41
234.946	3.21
235.33	4.68
235.713	3.93
236.096	3.73
236.479	3.96
236.862	3.44
237.245	5.83
237.628	1.26
238.011	3.85
238.394	5.17
238.777	4.72
239.16	2.36
239.543	1.72
239.925	5.36
240.308	3.33
240.691	5.46
241.073	4.99
241.456	3.25
241.838	3.46
242.221	3
242.603	5.4
242.986	4.9
243.368	4.76
243.75	4.39
244.133	3.97
244.515	4.76
244.897	4.3
245.279	3.99
245.661	3.63
246.043	2.42
246.425	2.93
246.807	5.33
247.189	5.05
247.571	4.42
247.953	4.06
248.335	4.05
248.717	4.63
249.098	4.13
249.48	4.36
249.862	4.02
250.243	4.32
250.625	3.76
251.006	4.04
251.388	2.77
251.769	3.42
252.151	4.57
252.532	3.46
252.913	2.92
253.295	3.48
253.676	4.44
254.057	4.57
254.438	4.14
254.819	3.58
255.2	3.78
255.581	3.48
255.962	3.36
256.343	3.07
256.724	3.74
257.105	3.87
257.486	3.24
257.867	4.5
258.247	3.94
258.628	3.99
259.009	4.27
259.389	3.94
259.77	3.11
260.15	3.58
260.531	3.08
260.911	3.91
261.292	3.68
261.672	4.02
262.052	3.78
262.432	3.98
262.813	3.86
263.193	3.5
263.573	3.9
263.953	3.73
264.333	4.65
264.713	4.49
265.093	2.89
265.473	3.23
265.853	2.85
266.233	4.38
266.612	1.47
266.992	1.92
267.372	3.56
267.752	4.04
268.131	3.54
268.511	4.54
268.89	3.95
269.27	2.76
269.649	3.3
270.029	3.62
270.408	4.32
270.787	4.12
271.167	4.13
271.546	3.44
271.925	3.05
272.304	3.35
272.683	4.17
273.062	3.76
273.441	3.86
273.82	3.13
274.199	3.6
274.578	4.11
274.957	3.75
275.336	3.99
275.715	3.13
276.093	3.17
276.472	3.77
276.851	3.41
277.229	3.21
277.608	3.14
277.986	3.65
278.365	4.32
278.743	3.14
279.122	3.59
279.5	3.6
279.878	3.55
280.257	3.85
280.635	2.4
281.013	3.18
281.391	3.97
281.769	3.73
282.147	3.54
282.525	4.01
282.903	3.69
283.281	4.01
283.659	3.92
284.037	4.08
284.415	4.24
284.792	3.77
285.17	2.95
285.548	3.46
285.925	3.71
286.303	3.59
286.68	3.24
287.058	3.82
287.435	3.72
287.813	3.83
288.19	3.44
288.567	3.76
288.945	3.88
289.322	3.54
289.699	3.1
290.076	3.53
290.453	3.87
290.83	3.3
291.207	3.56
291.584	3.86
291.961	4.05
292.338	3.84
292.715	4.04
293.092	3.84
293.469	3.78
293.845	3.91
294.222	3.35
294.599	3.44
294.975	2.73
295.352	4.2
295.728	2.76
296.105	3.58
296.481	4.49
296.858	3.84
297.234	3.49
297.61	3.56
297.986	3.56
298.363	3.6
298.739	3.92
299.115	3.77
299.491	3.69
299.867	3.84
300.243	3.83
300.619	3.47
300.995	3.38
301.371	3.6
301.746	3.18
302.122	3.54
302.498	3.55
302.874	4.06
303.249	3.15
303.625	4.2
304	3.41
304.376	3.82
304.751	3
305.127	4.24
305.502	3.21
305.878	3.17
306.253	3.82
306.628	4.5
307.003	3.47
307.378	3.51
307.754	3.85
308.129	2.81
308.504	3.98
308.879	3.24
309.254	4.39
309.629	3.75
310.003	4.12
310.378	4.19
310.753	4.39
311.128	3.35
311.502	3.41
311.877	3.76
312.252	3
312.626	3.45
313.001	3.63
313.375	3.92
313.75	3.18
314.124	4.01
314.498	3.99
314.873	3.55
315.247	4.09
315.621	3.56
315.995	3.26
316.369	3.77
316.743	3.48
317.117	3.77
317.491	3.79
317.865	2.41
318.239	3.62
318.613	3.8
318.987	3.71
319.361	3.58
319.734	4.3
320.108	4.04
320.482	3.3
320.855	3.85
321.229	3.63
321.602	3.46
321.976	3.81
322.349	3.98
322.723	3.78
323.096	4.44
323.469	3.36
323.843	3.76
324.216	4.43
324.589	3.33
324.962	3.78
325.335	3.63
325.708	3.33
326.081	3.23
326.454	3.3
326.827	3.39
327.2	3.4
327.573	3.31
327.945	3.72
328.318	3.83
328.691	3.31
329.063	3.55
329.436	3.4
329.809	3.72
330.181	3.53
330.553	3.63
330.926	3.83
331.298	3.71
331.671	4.01
332.043	4.22
332.415	3.92
332.787	3.34
333.159	3.9
333.532	3.81
333.904	3.68
334.276	4.18
334.648	3.78
335.02	3.86
335.391	3.66
335.763	3.13
336.135	4.16
336.507	4.38
336.879	4.15
337.25	3.62
337.622	3.99
337.993	3.92
338.365	4.24
338.736	3.41
339.108	3.47
339.479	3.44
339.851	3.85
340.222	3.16
340.593	3.86
340.964	3.65
341.336	4.29
341.707	3.95
342.078	3.91
342.449	4.02
342.82	3.57
343.191	3.87
343.562	3.91
343.933	4.23
344.303	3.73
344.674	3.77
345.045	3.53
345.416	4.28
345.786	3.58
346.157	3.56
346.527	3.39
346.898	3.93
347.268	4.05
347.639	3.51
348.009	3.5
348.38	3.69
348.75	3.79
349.12	3.8
349.49	4.01
349.861	3.86
350.231	3.57
350.601	3.99
350.971	4.1
351.341	3.6
351.711	4.02
352.081	3.91
352.45	3.78
352.82	4.33
353.19	3.99
353.56	3.46
353.929	3.6
354.299	3.99
354.669	3.71
355.038	4.03
355.408	3.42
355.777	3.88
356.147	3.62
356.516	4.21
356.885	4
357.254	3.69
357.624	4.46
357.993	4.02
358.362	3.61
358.731	3.63
359.1	3.9
359.469	4.09
359.838	4.14
360.207	3.81
360.576	3.81
360.945	3.81
361.314	4.36
361.682	3.8
362.051	3.77
362.42	4.12
362.788	3.53
363.157	3.66
363.525	4.29
363.894	4.15
364.262	4.03
364.631	3.87
364.999	4.05
365.367	3.84
365.735	4.58
366.104	4.2
366.472	3.92
366.84	3.98
367.208	3.98
367.576	4.34
367.944	4.05
368.312	3.8
368.68	3.88
369.048	4.16
369.416	3.85
369.783	3.91
370.151	4.35
370.519	4.35
370.886	3.94
371.254	3.99
371.621	4
371.989	4.01
372.356	3.33
372.724	4.03
373.091	3.88
373.458	4.09
373.826	4.31
374.193	4
374.56	4.14
374.927	4.18
375.294	4.02
375.661	3.92
376.028	3.81
376.395	3.73
376.762	4.08
377.129	4.13
377.496	3.82
377.863	4.16
378.229	3.76
378.596	3.82
378.963	4.07
379.329	4
379.696	4.19
380.062	3.89
380.429	4.01
380.795	3.73
381.161	4.06
381.528	4.67
381.894	3.98
382.26	3.89
382.626	3.97
382.993	3.67
383.359	4.34
383.725	3.81
384.091	3.94
384.457	4.35
384.823	3.84
385.188	4.13
385.554	4
385.92	4.31
386.286	4.19
386.651	4.17
387.017	4.34
387.383	4.08
387.748	4.05
388.114	4.39
388.479	4.26
388.845	4.31
389.21	4.21
389.575	4.28
389.94	4.18
390.306	3.92
390.671	4.09
391.036	3.73
391.401	3.61
391.766	3.83
392.131	3.97
392.496	3.96
392.861	4.09
393.226	4.22
393.591	4.31
393.956	4.15
394.32	4.01
394.685	3.96
395.05	4.13
395.414	3.99
395.779	3.96
396.143	3.76
396.508	4.28
396.872	4.25
397.236	4.24
397.601	3.85
397.965	4
398.329	4.25
398.694	4.34
399.058	4.23
399.422	3.95
399.786	4.49
400.15	4.19
400.514	4.05
400.878	4.32
401.242	4.14
401.605	4.13
401.969	4.47
402.333	4.32
402.697	4.14
403.06	4.4
403.424	4.2
403.787	4.2
404.151	4.46
404.514	4.1
404.878	4.01
405.241	4.34
405.604	4.2
405.968	4.44
406.331	4.34
406.694	4.37
407.057	4.05
407.42	4.36
407.783	4.09
408.146	4.26
408.509	3.93
408.872	4.17
409.235	4.27
409.598	4.55
409.961	4.25
410.323	4.43
410.686	4.08
411.049	4.12
411.411	4.29
411.774	4.3
412.136	4.27
412.499	4.09
412.861	4.37
413.223	4.33
413.586	4.17
413.948	4.17
414.31	4.24
414.672	4.24
415.035	4.05
415.397	4.33
415.759	4.11
416.121	4.3
416.483	4.25
416.845	4.3
417.206	4.25
417.568	4.22
417.93	3.89
418.292	4.22
418.653	4.31
419.015	4.25
419.377	4.23
419.738	4.31
420.1	4.3
420.461	4.29
420.822	4.35
421.184	4.3
421.545	4.31
421.906	4.09
422.267	4.28
422.629	4.15
422.99	4.28
423.351	4.27
423.712	4.2
424.073	4.24
424.434	4.19
424.795	4.19
425.155	4.29
425.516	4.11
425.877	4.2
426.238	4.22
426.598	4.3
426.959	4.22
427.32	4.17
427.68	4.21
428.041	4.16
428.401	4.3
428.761	4.22
429.122	4.38
429.482	4.21
429.842	4.59
430.202	4.37
430.563	4.28
430.923	4.31
431.283	4.39
431.643	4.35
432.003	4.08
432.363	4.48
432.722	4.23
433.082	4.3
433.442	4.41
433.802	4.28
434.161	4.25
434.521	4.34
434.881	4.43
435.24	4.32
435.6	4.22
435.959	4.28
436.319	4.25
436.678	4.25
437.037	4.42
437.396	4.54
437.756	4.34
438.115	4.35
438.474	4.64
438.833	4.23
439.192	4.26
439.551	4.37
439.91	4.33
440.269	4.38
440.628	4.22
440.987	4.42
441.345	4.23
441.704	4.38
442.063	4.34
442.421	4.27
442.78	4.33
443.138	4.38
443.497	4.31
443.855	4.24
444.214	4.33
444.572	4.37
444.93	4.33
445.288	4.41
445.647	4.49
446.005	4.48
446.363	4.33
446.721	4.44
447.079	4.31
447.437	4.28
447.795	4.42
448.153	4.34
448.51	4.34
448.868	4.44
449.226	4.45
449.584	4.4
449.941	4.48
450.299	4.46
450.656	4.45
451.014	4.45
451.371	4.27
451.729	4.4
452.086	4.59
452.443	4.17
452.801	4.39
453.158	4.35
453.515	4.28
453.872	4.5
454.229	4.32
454.586	4.26
454.943	4.53
455.3	4.57
455.657	4.35
456.014	4.48
456.371	4.45
456.727	4.45
457.084	4.67
457.441	4.42
457.797	4.55
458.154	4.66
458.51	4.47
458.867	4.63
459.223	4.71
459.58	4.52
459.936	4.49
460.292	4.32
460.648	4.42
461.005	4.5
461.361	4.58
461.717	4.43
462.073	4.39
462.429	4.38
462.785	4.55
463.141	4.45
463.496	4.36
463.852	4.65
464.208	4.53
464.564	4.65
464.919	4.59
465.275	4.44
465.631	4.57
465.986	4.44
466.342	4.59
466.697	4.41
467.052	4.58
467.408	4.57
467.763	4.52
468.118	4.67
468.473	4.4
468.829	4.59
469.184	4.48
469.539	4.59
469.894	4.6
470.249	4.7
470.603	4.62
470.958	4.64
471.313	4.47
471.668	4.58
472.023	4.53
472.377	4.52
472.732	4.53
473.086	4.42
473.441	4.3
473.795	4.75
474.15	4.63
474.504	4.44
474.859	4.6
475.213	4.55
475.567	4.59
475.921	4.59
476.275	4.69
476.63	4.71
476.984	4.74
477.338	4.72
477.692	4.46
478.045	4.56
478.399	4.43
478.753	4.51
479.107	4.56
479.461	4.63
479.814	4.54
480.168	4.54
480.521	4.47
480.875	4.63
481.228	4.6
481.582	4.56
481.935	4.67
482.289	4.53
482.642	4.55
482.995	4.45
483.348	4.56
483.701	4.58
484.055	4.59
484.408	4.52
484.761	4.43
485.114	4.47
485.466	4.32
485.819	4.34
486.172	4.33
486.525	4.39
486.878	4.42
487.23	4.42
487.583	4.52
487.936	4.57
488.288	4.53
488.641	4.6
488.993	4.45
489.345	4.42
489.698	4.45
490.05	4.39
490.402	4.48
490.754	4.4
491.107	4.49
491.459	4.58
491.811	4.53
492.163	4.53
492.515	4.64
492.866	4.6
493.218	4.47
493.57	4.52
493.922	4.44
494.274	4.55
494.625	4.64
494.977	4.62
495.328	4.66
495.68	4.61
496.031	4.79
496.383	4.53
496.734	4.91
497.086	4.77
497.437	4.67
497.788	4.8
498.139	4.71
498.49	4.84
498.842	4.58
499.193	4.67
499.544	4.77
499.894	4.7
500.245	4.73
500.596	4.73
500.947	4.87
501.298	4.68
501.648	4.79
501.999	4.85
502.35	4.61
502.7	4.7
503.051	4.57
503.401	4.61
503.752	4.95
504.102	4.71
504.452	4.88
504.803	4.79
505.153	4.72
505.503	4.79
505.853	4.68
506.203	4.9
506.553	4.79
506.903	4.74
507.253	4.86
507.603	4.77
507.953	4.85
508.303	5.05
508.652	4.76
509.002	4.92
509.352	4.97
509.701	4.83
510.051	4.82
510.4	4.75
510.75	4.89
511.099	4.85
511.449	4.75
511.798	4.92
512.147	4.88
512.496	4.77
512.846	4.79
513.195	4.82
513.544	4.71
513.893	4.94
514.242	4.7
514.591	5
514.939	4.98
515.288	4.65
515.637	4.91
515.986	5.01
516.334	4.78
516.683	4.99
517.032	4.85
517.38	5.1
517.729	4.94
518.077	4.94
518.426	4.93
518.774	4.99
519.122	4.9
519.47	4.99
519.819	4.81
520.167	4.88
520.515	4.83
520.863	4.96
521.211	4.97
521.559	4.96
521.907	4.91
522.255	4.89
522.602	4.92
522.95	4.87
523.298	5.01
523.645	5.04
523.993	4.99
524.341	5.1
524.688	5.1
525.036	5.15
525.383	4.94
525.73	5.23
526.078	5.01
526.425	4.99
526.772	5.08
527.119	5.1
527.466	4.97
527.814	5.08
528.161	5.01
528.508	5
528.854	5.03
529.201	5.06
529.548	4.96
529.895	5.01
530.242	4.89
530.588	4.87
530.935	4.94
531.282	4.95
531.628	4.92
531.975	5.02
532.321	5.07
532.667	5.03
533.014	5.15
533.36	5.17
533.706	5.14
534.052	5.15
534.399	5.14
534.745	5.16
535.091	5.05
535.437	5.12
535.783	5.13
536.129	5.13
536.474	5.06
536.82	5.19
537.166	5.32
537.512	5.34
537.857	5.09
538.203	5.32
538.549	5.22
538.894	5.2
539.239	5.29
539.585	5.34
539.93	5.22
540.276	5.42
540.621	5.44
540.966	5.4
541.311	5.34
541.656	5.23
542.001	5.32
542.346	5.32
542.691	5.25
543.036	5.29
543.381	5.16
543.726	5.19
544.071	5.32
544.415	5.36
544.76	5.29
545.105	5.35
545.449	5.49
545.794	5.4
546.138	5.37
546.483	5.53
546.827	5.66
547.171	5.39
547.516	5.61
547.86	5.37
548.204	5.49
548.548	5.54
548.892	5.63
549.236	5.46
549.58	5.5
549.924	5.68
550.268	5.67
550.612	5.75
550.956	5.81
551.3	5.67
551.643	5.76
551.987	5.9
552.33	5.63
552.674	5.82
553.017	5.55
553.361	5.65
553.704	5.81
554.048	5.81
554.391	5.57
554.734	5.71
555.077	5.9
555.42	5.74
555.764	5.78
556.107	5.75
556.45	5.73
556.793	6.03
557.135	5.89
557.478	6
557.821	5.93
558.164	5.85
558.507	6.03
558.849	6.01
559.192	5.93
559.534	5.92
559.877	6.11
560.219	5.85
560.562	6.2
560.904	6.18
561.246	6.25
561.589	6.15
561.931	6.06
562.273	6.05
562.615	6.06
562.957	6.1
563.299	5.96
563.641	6.24
563.983	6.17
564.325	6.04
564.667	6.09
565.008	6.39
565.35	6.23
565.692	6.04
566.033	6.15
566.375	6.48
566.716	6.56
567.058	6.3
567.399	6.22
567.741	6.21
568.082	6.32
568.423	6.25
568.764	6.33
569.105	6.47
569.447	6.42
569.788	6.47
570.129	6.59
570.47	6.33
570.811	6.61
571.151	6.47
571.492	6.78
571.833	6.49
572.174	6.36
572.514	6.58
572.855	6.57
573.195	6.51
573.536	6.64
573.876	6.42
574.217	6.6
574.557	6.73
574.898	6.9
575.238	6.64
575.578	6.62
575.918	6.8
576.258	6.88
576.598	6.83
576.938	6.72
577.278	6.7
577.618	6.73
577.958	6.9
578.298	6.82
578.638	6.68
578.977	6.91
579.317	6.78
579.657	6.83
579.996	6.97
580.336	7.15
580.675	7.01
581.014	7.06
581.354	6.91
581.693	7.21
582.032	6.77
582.372	7.03
582.711	7.24
583.05	7.01
583.389	7.45
583.728	6.98
584.067	7.49
584.406	7.35
584.745	7.34
585.083	7.47
585.422	7.38
585.761	7.33
586.1	7.26
586.438	7.23
586.777	7.39
587.115	7.62
587.454	7.26
587.792	7.03
588.13	7.37
588.469	7.46
588.807	7.4
589.145	7.27
589.483	7.46
589.821	7.44
590.159	7.28
590.497	7.71
590.835	7.95
591.173	7.61
591.511	7.81
591.849	7.61
592.187	7.71
592.524	7.73
592.862	7.48
593.2	7.78
593.537	7.81
593.875	7.66
594.212	7.65
594.55	7.89
594.887	7.96
595.224	7.83
595.561	8
595.899	7.89
596.236	8
596.573	7.97
596.91	7.5
597.247	7.79
597.584	8.26
597.921	7.93
598.258	7.98
598.594	8.12
598.931	7.98
599.268	8.01
599.604	8.08
599.941	8.16
600.277	8.24
600.614	8.22
600.95	8.1
601.287	8.19
601.623	8.22
601.959	7.87
602.296	8.44
602.632	8.23
602.968	8.19
603.304	8.47
603.64	8.18
603.976	8.9
604.312	8.27
604.648	8.46
604.984	8.64
605.319	8.52
605.655	8.37
605.991	8.64
606.326	8.53
606.662	8.61
606.998	8.25
607.333	8.49
607.668	8.65
608.004	8.65
608.339	8.91
608.674	8.87
609.01	8.96
609.345	8.73
609.68	8.93
610.015	8.64
610.35	8.85
610.685	8.79
611.02	8.67
611.355	8.91
611.689	8.86
612.024	8.94
612.359	8.92
612.694	9.01
613.028	8.89
613.363	9.27
613.697	9.33
614.032	9.4
614.366	9.25
614.7	9.26
615.035	9.46
615.369	9.55
615.703	9.32
616.037	9.27
616.371	8.56
616.705	9.35
617.039	9.59
617.373	9.54
617.707	9.42
618.041	9.44
618.375	9.79
618.709	9.76
619.042	9.35
619.376	9.89
619.71	9.79
620.043	9.66
620.377	9.51
620.71	9.6
621.043	9.7
621.377	9.67
621.71	9.75
622.043	9.69
622.376	9.35
622.709	10.08
623.043	9.83
623.376	10
623.709	9.68
624.041	10.3
624.374	9.91
624.707	9.54
625.04	10.04
625.373	9.85
625.705	9.91
626.038	10.27
626.37	9.92
626.703	9.76
627.035	10.02
627.368	10.64
627.7	10.17
628.032	10.72
628.365	10.72
628.697	10.18
629.029	10.2
629.361	10.25
629.693	10.3
630.025	10.62
630.357	10.97
630.689	10.39
631.021	10.76
631.353	10.38
631.684	10.39
632.016	10.43
632.348	10.81
632.679	10.66
633.011	10.8
633.342	10.98
633.674	10.83
634.005	10.86
634.336	10.67
634.668	11
634.999	10.18
635.33	11.22
635.661	11.04
635.992	11.05
636.323	11.04
636.654	11.06
636.985	10.73
637.316	10.97
637.647	11.1
637.977	11.25
638.308	11.23
638.639	10.71
638.969	10.98
639.3	10.91
639.63	10.59
639.961	11.15
640.291	11.27
640.622	11.79
640.952	11.54
641.282	11.5
641.612	11.42
641.943	11.32
642.273	11.57
642.603	11.96
642.933	11.63
643.263	11.33
643.592	11.4
643.922	11.49
644.252	11.65
644.582	11.28
644.911	11.47
645.241	11.52
645.571	11.65
645.9	10.95
646.23	12.15
646.559	11.81
646.888	11.55
647.218	11.75
647.547	12.1
647.876	11.68
648.205	11.89
648.534	12.21
648.863	11.77
649.192	12.45
649.521	12.24
649.85	11.27
650.179	12.11
650.508	12.05
650.837	11.66
651.165	11.98
651.494	12.08
651.822	12.14
652.151	12.03
652.479	12.42
652.808	12.34
653.136	12.61
653.465	11.63
653.793	12.17
654.121	12.35
654.449	12.6
654.777	12.73
655.105	12.27
655.433	12.24
655.761	12.57
656.089	12.56
656.417	12.73
656.745	11.86
657.073	12.68
657.4	13.2
657.728	12.97
658.056	12.92
658.383	12.37
658.711	12.32
659.038	13.39
659.365	13.04
659.693	12.84
660.02	12.97
660.347	12.86
660.674	13.37
661.001	13.12
661.329	12.65
661.656	13.19
661.982	13.38
662.309	13.14
662.636	12.27
662.963	13.38
663.29	13.29
663.616	13.12
663.943	12.61
664.27	13.55
664.596	13.75
664.923	13.21
665.249	13.51
665.576	13.6
665.902	14.24
666.228	13.65
666.554	13.83
666.881	13.25
667.207	14.11
667.533	13.37
667.859	13.7
668.185	13.91
668.511	13.49
668.837	12.53
669.162	13.99
669.488	13.52
669.814	13.84
670.139	13.82
670.465	14.01
670.791	13.72
671.116	14.93
671.442	13.72
671.767	14.47
672.092	14.67
672.418	14.21
672.743	14.2
673.068	13.46
673.393	14.23
673.718	15.15
674.043	14.27
674.368	14.39
674.693	15.13
675.018	14.09
675.343	14.05
675.667	14.15
675.992	15.01
676.317	14.25
676.641	15.19
676.966	15.09
677.29	14.07
677.615	14.89
677.939	14.88
678.264	15.43
678.588	15.07
678.912	14.34
679.236	15.74
679.56	14.06
679.885	15.67
680.209	14.98
680.532	14.75
680.856	15.71
681.18	14.98
681.504	15.21
681.828	16.02
682.152	15.2
682.475	15.45
682.799	15.37
683.122	15.52
683.446	14.88
683.769	15.7
684.093	14.77
684.416	15.66
684.739	15.17
685.062	15.43
685.386	15.61
685.709	15.9
686.032	15.77
686.355	15.34
686.678	15.21
687.001	15.7
687.324	16.34
687.646	15.41
687.969	15.03
