Data from 0363_chest_Reflection__3__427.txt Node

Date: Fri Dec 15 20:30:52 CST 2023
User: ToomeyLab
Spectrometer: FLMS14357
Trigger mode: 0
Integration Time (sec): 1.000000E-2
Scans to average: 100
Electric dark correction enabled: true
Nonlinearity correction enabled: false
Boxcar width: 0
XAxis mode: Wavelengths
Number of Pixels in Spectrum: 2048
>>>>>Begin Spectral Data<<<<<
189.047	-1.01
189.435	-1.01
189.823	-1.01
190.211	-13.6
190.599	-294.3
190.987	238.33
191.375	-277.79
191.763	214.25
192.151	-158.31
192.538	153.1
192.926	107.45
193.314	211.84
193.702	22.37
194.089	274.14
194.477	6.97
194.864	139.12
195.252	212.64
195.639	87.6
196.027	-310.78
196.414	92.55
196.801	58.84
197.189	220.59
197.576	76.93
197.963	-57.16
198.351	-22.04
198.738	-14.34
199.125	59.36
199.512	22.54
199.899	33.3
200.286	20.27
200.673	27.77
201.06	5.46
201.447	-84.67
201.833	35.18
202.22	6.35
202.607	-12.83
202.994	-3.7
203.38	-14.94
203.767	15.03
204.154	48.75
204.54	27.3
204.927	-59.5
205.313	-68.19
205.699	-6.26
206.086	44.32
206.472	22.32
206.858	0.85
207.245	-51.07
207.631	27.64
208.017	36.63
208.403	-1.06
208.789	-17.95
209.175	5.3
209.561	-31.45
209.947	-6.09
210.333	-35.21
210.719	-33.8
211.105	6.64
211.491	-52.64
211.876	-9.75
212.262	6.6
212.648	-4.7
213.034	-11.96
213.419	-19.69
213.805	-8.33
214.19	-44.12
214.576	14.44
214.961	-25.96
215.346	-131.73
215.732	12.86
216.117	-9.6
216.502	-14.82
216.888	2.63
217.273	14.75
217.658	1.53
218.043	32.35
218.428	-61.55
218.813	-13.87
219.198	-15.04
219.583	-14.96
219.968	6.25
220.353	5.6
220.738	38.35
221.122	-13.34
221.507	-70.87
221.892	-55.71
222.276	-22.88
222.661	0.54
223.046	15.31
223.43	8.66
223.815	11.9
224.199	-9.38
224.583	2.36
224.968	5.59
225.352	10.42
225.736	0.4
226.121	-18.82
226.505	0.56
226.889	-0.34
227.273	-7.6
227.657	7.58
228.041	0.81
228.425	-2.12
228.809	2.71
229.193	1.5
229.577	3.91
229.961	3.04
230.344	3.78
230.728	3.43
231.112	2.63
231.495	2.19
231.879	1.99
232.263	2.17
232.646	2.96
233.03	0.64
233.413	2.28
233.797	1.36
234.18	3.48
234.563	2.29
234.946	2.13
235.33	4.66
235.713	4.5
236.096	2.1
236.479	3.04
236.862	3.4
237.245	3.33
237.628	0.12
238.011	3.42
238.394	2.94
238.777	4.73
239.16	1.7
239.543	3.91
239.925	3.01
240.308	3.38
240.691	3.99
241.073	3.75
241.456	3.4
241.838	2.68
242.221	2.29
242.603	3.44
242.986	4.03
243.368	3.48
243.75	2.83
244.133	3.41
244.515	3.45
244.897	3.89
245.279	3.28
245.661	3.57
246.043	1.72
246.425	1.52
246.807	4.22
247.189	3.12
247.571	2.66
247.953	3.73
248.335	3
248.717	3.64
249.098	3.27
249.48	3.4
249.862	3.25
250.243	3.24
250.625	3.17
251.006	3.22
251.388	2.85
251.769	3.4
252.151	2.71
252.532	2.53
252.913	2.25
253.295	1.85
253.676	3.29
254.057	3.44
254.438	3.16
254.819	2.98
255.2	3.11
255.581	2.95
255.962	2.31
256.343	3.7
256.724	2.91
257.105	3.67
257.486	2.22
257.867	4.38
258.247	3.85
258.628	2.75
259.009	3.03
259.389	3.62
259.77	2.35
260.15	2.52
260.531	2.64
260.911	3.52
261.292	3.12
261.672	3.43
262.052	3.42
262.432	3.46
262.813	3.2
263.193	2.75
263.573	2.65
263.953	3.27
264.333	3.64
264.713	3.68
265.093	2.49
265.473	3.17
265.853	2.26
266.233	3.04
266.612	1.12
266.992	2.28
267.372	3.33
267.752	3.05
268.131	2.75
268.511	3.13
268.89	3.52
269.27	3.18
269.649	3.15
270.029	2.68
270.408	3.95
270.787	3.19
271.167	3.12
271.546	3.52
271.925	2.82
272.304	2.9
272.683	3.41
273.062	3.1
273.441	3.35
273.82	2.47
274.199	3.23
274.578	3.07
274.957	2.97
275.336	3.18
275.715	2.55
276.093	2.57
276.472	2.96
276.851	2.86
277.229	3
277.608	2.8
277.986	3.43
278.365	3.17
278.743	2.34
279.122	2.46
279.5	3.11
279.878	3.49
280.257	2.56
280.635	2.36
281.013	3.23
281.391	3.85
281.769	3.2
282.147	2.95
282.525	2.99
282.903	3.01
283.281	3.32
283.659	3.5
284.037	2.77
284.415	2.97
284.792	3.22
285.17	2.45
285.548	2.87
285.925	3.1
286.303	3.3
286.68	2.74
287.058	3.24
287.435	3.18
287.813	3.09
288.19	2.77
288.567	2.98
288.945	3.54
289.322	3.26
289.699	3.03
290.076	2.72
290.453	2.95
290.83	3.27
291.207	3.19
291.584	3
291.961	3.42
292.338	3
292.715	3.5
293.092	3.02
293.469	3.28
293.845	3.44
294.222	2.82
294.599	3.2
294.975	3
295.352	3.44
295.728	2.76
296.105	2.88
296.481	3.4
296.858	3.11
297.234	3.02
297.61	3.59
297.986	2.96
298.363	3.02
298.739	3.44
299.115	2.8
299.491	2.98
299.867	3.19
300.243	3.56
300.619	2.82
300.995	3.17
301.371	3.85
301.746	2.93
302.122	3.91
302.498	3.01
302.874	3.41
303.249	3.37
303.625	3.13
304	4.01
304.376	3.11
304.751	2.59
305.127	3.75
305.502	2.64
305.878	2.6
306.253	3.34
306.628	3.92
307.003	2.73
307.378	3.16
307.754	2.95
308.129	2.48
308.504	3.38
308.879	3.04
309.254	4.2
309.629	3.63
310.003	3
310.378	3.79
310.753	3.86
311.128	3.61
311.502	3.25
311.877	3.64
312.252	3.06
312.626	3.16
313.001	3.69
313.375	3.82
313.75	3.27
314.124	3.73
314.498	3.31
314.873	3.26
315.247	2.92
315.621	3.47
315.995	2.95
316.369	3.29
316.743	3.29
317.117	3.6
317.491	3.65
317.865	3.2
318.239	3.68
318.613	3.25
318.987	3.68
319.361	2.76
319.734	3.79
320.108	3.89
320.482	3.65
320.855	3.3
321.229	3.14
321.602	3.3
321.976	4.12
322.349	3.73
322.723	3.05
323.096	3.97
323.469	2.54
323.843	3.43
324.216	4.05
324.589	3.07
324.962	3.3
325.335	3.31
325.708	3.01
326.081	3.33
326.454	3.43
326.827	3.55
327.2	3.75
327.573	3.76
327.945	3.81
328.318	3.53
328.691	2.61
329.063	3.85
329.436	3.41
329.809	3.83
330.181	3.7
330.553	3.72
330.926	3.55
331.298	3.42
331.671	2.89
332.043	4.27
332.415	4.32
332.787	3.6
333.159	3.72
333.532	4.16
333.904	3.95
334.276	3.8
334.648	3.91
335.02	3.41
335.391	3.48
335.763	3.72
336.135	3.76
336.507	4.37
336.879	3.37
337.25	3.43
337.622	3.44
337.993	3.82
338.365	4.32
338.736	4.14
339.108	3.36
339.479	3.25
339.851	4.09
340.222	3.54
340.593	3.72
340.964	3.73
341.336	4.43
341.707	3.91
342.078	3.82
342.449	3.8
342.82	3.4
343.191	4.05
343.562	3.7
343.933	3.75
344.303	4.1
344.674	3.48
345.045	4.04
345.416	3.85
345.786	3.82
346.157	3.92
346.527	3.33
346.898	3.47
347.268	3.64
347.639	3.79
348.009	3.73
348.38	3.67
348.75	3.68
349.12	3.72
349.49	3.96
349.861	3.89
350.231	3.56
350.601	4.11
350.971	3.82
351.341	4.62
351.711	3.74
352.081	3.6
352.45	3.53
352.82	3.9
353.19	3.81
353.56	3.58
353.929	3.87
354.299	3.34
354.669	3.36
355.038	4.19
355.408	3.76
355.777	3.66
356.147	3.43
356.516	3.69
356.885	3.94
357.254	3.99
357.624	4.24
357.993	4.09
358.362	3.74
358.731	3.55
359.1	3.84
359.469	3.77
359.838	4.05
360.207	3.83
360.576	3.58
360.945	3.91
361.314	3.95
361.682	3.49
362.051	3.97
362.42	3.93
362.788	3.38
363.157	4.06
363.525	4.29
363.894	4.03
364.262	4.1
364.631	3.99
364.999	3.99
365.367	3.7
365.735	4.88
366.104	3.73
366.472	4
366.84	3.68
367.208	3.66
367.576	4.13
367.944	4.27
368.312	4.05
368.68	3.73
369.048	3.87
369.416	4.1
369.783	3.91
370.151	4
370.519	4.48
370.886	3.94
371.254	3.85
371.621	4.47
371.989	4.28
372.356	3.68
372.724	4.12
373.091	3.65
373.458	4
373.826	3.87
374.193	4.01
374.56	4
374.927	3.83
375.294	4.02
375.661	4.02
376.028	3.82
376.395	3.71
376.762	3.92
377.129	3.68
377.496	3.79
377.863	4.03
378.229	3.46
378.596	4.02
378.963	3.74
379.329	3.83
379.696	4.32
380.062	4.33
380.429	4.04
380.795	4
381.161	3.93
381.528	4.31
381.894	3.8
382.26	3.95
382.626	4.3
382.993	3.77
383.359	4.32
383.725	3.85
384.091	4.15
384.457	4.31
384.823	4.11
385.188	4.34
385.554	3.97
385.92	4.09
386.286	4.14
386.651	4.18
387.017	4.09
387.383	4.13
387.748	4.03
388.114	4.42
388.479	3.97
388.845	4.22
389.21	4.15
389.575	4.29
389.94	3.96
390.306	4.12
390.671	4.31
391.036	3.77
391.401	3.82
391.766	4.16
392.131	3.99
392.496	4.24
392.861	4.24
393.226	4
393.591	4.09
393.956	3.88
394.32	4.05
394.685	4.05
395.05	3.95
395.414	4.13
395.779	3.95
396.143	4.25
396.508	4.03
396.872	4.27
397.236	4.15
397.601	3.97
397.965	4.16
398.329	4.15
398.694	4.37
399.058	4.25
399.422	3.94
399.786	4.32
400.15	4.16
400.514	4.3
400.878	4.21
401.242	4.48
401.605	4.2
401.969	4.08
402.333	4.2
402.697	4.07
403.06	4.22
403.424	4.4
403.787	4.18
404.151	4.2
404.514	4.4
404.878	4.05
405.241	4.4
405.604	4.29
405.968	4.35
406.331	4.22
406.694	4.43
407.057	4.24
407.42	4.37
407.783	4.23
408.146	4.26
408.509	4.24
408.872	4.39
409.235	4.33
409.598	4.36
409.961	4.11
410.323	4.12
410.686	4.12
411.049	4.24
411.411	4.14
411.774	4.16
412.136	4.38
412.499	4.31
412.861	4.26
413.223	4.27
413.586	3.98
413.948	4.23
414.31	4.24
414.672	4.27
415.035	4.31
415.397	4.27
415.759	4.31
416.121	4.37
416.483	4.27
416.845	4.23
417.206	4.32
417.568	4.3
417.93	4.12
418.292	4.24
418.653	4.36
419.015	4.29
419.377	4.2
419.738	4.36
420.1	4.29
420.461	4.29
420.822	4.41
421.184	4.26
421.545	4.3
421.906	4.1
422.267	4.25
422.629	4.21
422.99	4.23
423.351	4.29
423.712	4.23
424.073	4.32
424.434	4.14
424.795	4.31
425.155	4.35
425.516	4.27
425.877	4.25
426.238	4.23
426.598	4.22
426.959	4.2
427.32	4.25
427.68	4.32
428.041	4.33
428.401	4.26
428.761	4.3
429.122	4.27
429.482	4.14
429.842	4.35
430.202	4.36
430.563	4.24
430.923	4.42
431.283	4.4
431.643	4.11
432.003	4.18
432.363	4.48
432.722	4.24
433.082	4.23
433.442	4.35
433.802	4.15
434.161	4.3
434.521	4.55
434.881	4.29
435.24	4.27
435.6	4.29
435.959	4.23
436.319	4.33
436.678	4.37
437.037	4.23
437.396	4.36
437.756	4.3
438.115	4.34
438.474	4.56
438.833	4.33
439.192	4.4
439.551	4.56
439.91	4.28
440.269	4.45
440.628	4.28
440.987	4.48
441.345	4.18
441.704	4.33
442.063	4.39
442.421	4.38
442.78	4.26
443.138	4.24
443.497	4.35
443.855	4.48
444.214	4.5
444.572	4.48
444.93	4.35
445.288	4.36
445.647	4.57
446.005	4.34
446.363	4.54
446.721	4.49
447.079	4.32
447.437	4.42
447.795	4.36
448.153	4.27
448.51	4.38
448.868	4.35
449.226	4.37
449.584	4.37
449.941	4.44
450.299	4.37
450.656	4.44
451.014	4.4
451.371	4.22
451.729	4.41
452.086	4.69
452.443	4.35
452.801	4.44
453.158	4.28
453.515	4.45
453.872	4.57
454.229	4.34
454.586	4.39
454.943	4.45
455.3	4.6
455.657	4.44
456.014	4.45
456.371	4.52
456.727	4.54
457.084	4.7
457.441	4.53
457.797	4.53
458.154	4.68
458.51	4.59
458.867	4.72
459.223	4.59
459.58	4.48
459.936	4.48
460.292	4.59
460.648	4.49
461.005	4.41
461.361	4.52
461.717	4.55
462.073	4.42
462.429	4.52
462.785	4.51
463.141	4.53
463.496	4.55
463.852	4.63
464.208	4.58
464.564	4.55
464.919	4.56
465.275	4.61
465.631	4.76
465.986	4.47
466.342	4.49
466.697	4.42
467.052	4.66
467.408	4.66
467.763	4.71
468.118	4.65
468.473	4.46
468.829	4.76
469.184	4.42
469.539	4.58
469.894	4.35
470.249	4.82
470.603	4.58
470.958	4.74
471.313	4.77
471.668	4.69
472.023	4.54
472.377	4.66
472.732	4.73
473.086	4.55
473.441	4.45
473.795	4.76
474.15	4.72
474.504	4.69
474.859	4.64
475.213	4.55
475.567	4.64
475.921	4.68
476.275	4.57
476.63	4.73
476.984	4.81
477.338	4.8
477.692	4.78
478.045	4.59
478.399	4.69
478.753	4.72
479.107	4.74
479.461	4.71
479.814	4.71
480.168	4.76
480.521	4.54
480.875	4.66
481.228	4.61
481.582	4.68
481.935	4.6
482.289	4.67
482.642	4.7
482.995	4.52
483.348	4.55
483.701	4.71
484.055	4.8
484.408	4.71
484.761	4.53
485.114	4.53
485.466	4.38
485.819	4.39
486.172	4.41
486.525	4.47
486.878	4.53
487.23	4.59
487.583	4.67
487.936	4.62
488.288	4.56
488.641	4.64
488.993	4.57
489.345	4.51
489.698	4.56
490.05	4.51
490.402	4.65
490.754	4.62
491.107	4.76
491.459	4.65
491.811	4.75
492.163	4.7
492.515	4.7
492.866	4.66
493.218	4.64
493.57	4.61
493.922	4.56
494.274	4.69
494.625	4.69
494.977	4.79
495.328	4.81
495.68	4.77
496.031	4.96
496.383	4.78
496.734	4.97
497.086	4.9
497.437	4.89
497.788	4.78
498.139	4.8
498.49	4.91
498.842	4.8
499.193	4.84
499.544	4.9
499.894	4.84
500.245	4.93
500.596	4.83
500.947	4.93
501.298	4.83
501.648	4.84
501.999	5.02
502.35	4.93
502.7	4.93
503.051	4.84
503.401	4.78
503.752	4.95
504.102	4.87
504.452	4.84
504.803	4.89
505.153	4.94
505.503	4.9
505.853	4.95
506.203	4.91
506.553	4.9
506.903	4.87
507.253	4.95
507.603	4.89
507.953	5.08
508.303	5.07
508.652	4.85
509.002	5.08
509.352	5.03
509.701	5.02
510.051	4.92
510.4	5
510.75	4.95
511.099	4.98
511.449	4.98
511.798	5.07
512.147	5.01
512.496	5.03
512.846	4.94
513.195	4.95
513.544	4.98
513.893	5.02
514.242	4.88
514.591	5.14
514.939	5.08
515.288	4.95
515.637	5.04
515.986	5.07
516.334	5.14
516.683	5.12
517.032	5.15
517.38	5.13
517.729	5.19
518.077	4.97
518.426	5.13
518.774	5.18
519.122	5.11
519.47	5.1
519.819	5.05
520.167	5.01
520.515	5.04
520.863	5.16
521.211	5.11
521.559	5.17
521.907	5.15
522.255	5.08
522.602	5.32
522.95	5.12
523.298	5.35
523.645	5.24
523.993	5.21
524.341	5.35
524.688	5.35
525.036	5.1
525.383	5.35
525.73	5.37
526.078	5.41
526.425	5.26
526.772	5.28
527.119	5.22
527.466	5.17
527.814	5.27
528.161	5.26
528.508	5.26
528.854	5.29
529.201	5.29
529.548	5.23
529.895	5.12
530.242	5.07
530.588	5.05
530.935	5.09
531.282	5.14
531.628	5.16
531.975	5.23
532.321	5.31
532.667	5.33
533.014	5.41
533.36	5.41
533.706	5.37
534.052	5.42
534.399	5.3
534.745	5.25
535.091	5.3
535.437	5.3
535.783	5.27
536.129	5.37
536.474	5.45
536.82	5.43
537.166	5.51
537.512	5.48
537.857	5.45
538.203	5.47
538.549	5.43
538.894	5.46
539.239	5.52
539.585	5.58
539.93	5.44
540.276	5.64
540.621	5.61
540.966	5.54
541.311	5.54
541.656	5.48
542.001	5.64
542.346	5.65
542.691	5.52
543.036	5.47
543.381	5.34
543.726	5.47
544.071	5.57
544.415	5.6
544.76	5.51
545.105	5.7
545.449	5.71
545.794	5.78
546.138	5.76
546.483	5.78
546.827	5.76
547.171	5.86
547.516	5.99
547.86	5.69
548.204	5.77
548.548	5.79
548.892	5.88
549.236	5.82
549.58	5.86
549.924	5.85
550.268	6.01
550.612	6
550.956	6.11
551.3	6.05
551.643	6.15
551.987	6.08
552.33	6.15
552.674	6.13
553.017	6.04
553.361	6.05
553.704	6.04
554.048	6.17
554.391	6.04
554.734	6
555.077	6.13
555.42	6.01
555.764	6.14
556.107	6.09
556.45	5.96
556.793	6.15
557.135	6.18
557.478	6.49
557.821	6.34
558.164	6.11
558.507	6.17
558.849	6.15
559.192	6.42
559.534	6.33
559.877	6.28
560.219	6.4
560.562	6.69
560.904	6.25
561.246	6.38
561.589	6.27
561.931	6.47
562.273	6.48
562.615	6.46
562.957	6.32
563.299	6.2
563.641	6.42
563.983	6.6
564.325	6.22
564.667	6.32
565.008	6.47
565.35	6.6
565.692	6.36
566.033	6.63
566.375	6.66
566.716	6.69
567.058	6.56
567.399	6.59
567.741	6.57
568.082	6.78
568.423	6.52
568.764	6.56
569.105	6.84
569.447	6.79
569.788	6.7
570.129	6.82
570.47	6.8
570.811	6.75
571.151	6.83
571.492	6.79
571.833	7.04
572.174	6.76
572.514	6.79
572.855	6.78
573.195	6.95
573.536	6.79
573.876	6.75
574.217	6.8
574.557	6.86
574.898	7.17
575.238	7.04
575.578	7.11
575.918	7.22
576.258	7.1
576.598	7.07
576.938	7.02
577.278	7.27
577.618	7.24
577.958	7.09
578.298	7.08
578.638	7.1
578.977	7.24
579.317	7.31
579.657	7.33
579.996	7.21
580.336	7.3
580.675	7.19
581.014	7.48
581.354	7.57
581.693	7.68
582.032	7.57
582.372	7.36
582.711	7.48
583.05	7.24
583.389	7.49
583.728	7.25
584.067	7.65
584.406	7.65
584.745	7.78
585.083	7.61
585.422	7.31
585.761	7.75
586.1	7.98
586.438	7.74
586.777	7.5
587.115	7.74
587.454	7.53
587.792	7.78
588.13	7.98
588.469	7.54
588.807	7.76
589.145	7.73
589.483	7.86
589.821	7.85
590.159	7.82
590.497	8.01
590.835	8.42
591.173	7.88
591.511	8.24
591.849	7.9
592.187	7.97
592.524	7.81
592.862	8.06
593.2	8.05
593.537	8.2
593.875	8.02
594.212	8
594.55	8.08
594.887	8.33
595.224	8.2
595.561	8.23
595.899	8.42
596.236	8.31
596.573	8.41
596.91	8
597.247	8.16
597.584	8.51
597.921	8.25
598.258	8.17
598.594	8.46
598.931	8.26
599.268	8.34
599.604	8.29
599.941	8.57
600.277	8.43
600.614	8.49
600.95	8.38
601.287	8.69
601.623	8.79
601.959	8.54
602.296	8.51
602.632	8.66
602.968	8.82
603.304	8.84
603.64	8.67
603.976	9.04
604.312	8.65
604.648	8.67
604.984	8.63
605.319	8.99
605.655	8.95
605.991	8.95
606.326	8.81
606.662	8.97
606.998	8.67
607.333	9.09
607.668	9.04
608.004	8.8
608.339	9.4
608.674	9.1
609.01	8.97
609.345	9.15
609.68	9.4
610.015	9.24
610.35	9.31
610.685	9.07
611.02	9.47
611.355	9.4
611.689	9.18
612.024	9.32
612.359	9.2
612.694	9.63
613.028	9.19
613.363	9.55
613.697	9.73
614.032	9.44
614.366	9.69
614.7	9.71
615.035	9.57
615.369	9.65
615.703	9.84
616.037	9.79
616.371	9.55
616.705	9.61
617.039	10.04
617.373	9.48
617.707	10.04
618.041	9.83
618.375	9.67
618.709	9.9
619.042	9.53
619.376	9.88
619.71	9.97
620.043	10.08
620.377	9.94
620.71	10.08
621.043	9.67
621.377	10.29
621.71	10.08
622.043	9.88
622.376	9.95
622.709	10.12
623.043	10.27
623.376	10.3
623.709	10.3
624.041	10.55
624.374	10.34
624.707	10.44
625.04	10.82
625.373	10.23
625.705	10.58
626.038	10.3
626.37	10.78
626.703	10.24
627.035	10.45
627.368	11.05
627.7	10.6
628.032	10.48
628.365	10.85
628.697	10.34
629.029	10.4
629.361	10.61
629.693	10.84
630.025	10.9
630.357	10.92
630.689	11.03
631.021	11.06
631.353	11
631.684	10.99
632.016	10.9
632.348	11.27
632.679	10.81
633.011	11.49
633.342	11.49
633.674	10.97
634.005	11.28
634.336	10.97
634.668	11.82
634.999	10.79
635.33	11.06
635.661	11.49
635.992	11.41
636.323	11.34
636.654	11.49
636.985	11.48
637.316	10.99
637.647	11.42
637.977	11.86
638.308	11.69
638.639	10.94
638.969	11.43
639.3	11.34
639.63	11.06
639.961	11.59
640.291	11.4
640.622	11.87
640.952	11.39
641.282	11.94
641.612	11.74
641.943	11.23
642.273	12.12
642.603	12.28
642.933	12.01
643.263	11.94
643.592	11.8
643.922	11.9
644.252	11.92
644.582	12.26
644.911	11.82
645.241	11.93
645.571	11.82
645.9	11.61
646.23	12.12
646.559	12.05
646.888	12.32
647.218	12.3
647.547	12.38
647.876	12.42
648.205	11.9
648.534	11.99
648.863	12.13
649.192	12.99
649.521	12.38
649.85	12.43
650.179	12.11
650.508	12.42
650.837	12.3
651.165	12.17
651.494	12.9
651.822	12.7
652.151	12.58
652.479	13.06
652.808	12.52
653.136	12.94
653.465	12.17
653.793	12.4
654.121	12.41
654.449	13.07
654.777	13.17
655.105	12.98
655.433	12.6
655.761	12.81
656.089	13.31
656.417	13.02
656.745	12.95
657.073	12.69
657.4	13.5
657.728	12.54
658.056	12.75
658.383	12.88
658.711	13.56
659.038	13.31
659.365	13.85
659.693	13.28
660.02	12.78
660.347	13.33
660.674	13.66
661.001	13.84
661.329	12.9
661.656	13.56
661.982	13.3
662.309	13.36
662.636	13.36
662.963	13.78
663.29	13.73
663.616	13.64
663.943	13.46
664.27	13.99
664.596	14.03
664.923	13.96
665.249	13.28
665.576	13.88
665.902	14.33
666.228	13.8
666.554	13.68
666.881	14.21
667.207	14.02
667.533	14.4
667.859	14.23
668.185	14.31
668.511	13.51
668.837	14.1
669.162	14.2
669.488	13.78
669.814	14.23
670.139	14.49
670.465	14.75
670.791	14.35
671.116	15.5
671.442	14.6
671.767	14.74
672.092	14.59
672.418	14.38
672.743	15.14
673.068	14.35
673.393	14.56
673.718	14.18
674.043	14.86
674.368	14.71
674.693	14.95
675.018	14.34
675.343	15.22
675.667	14.71
675.992	15.08
676.317	15.01
676.641	15.41
676.966	14.72
677.29	14.26
677.615	15.9
677.939	15.6
678.264	15.65
678.588	15.32
678.912	14.97
679.236	16.1
679.56	14.5
679.885	15.99
680.209	15.32
680.532	15.7
680.856	15.54
681.18	15.21
681.504	14.99
681.828	15.68
682.152	15.24
682.475	15.48
682.799	15.46
683.122	15.63
683.446	15.1
683.769	16.25
684.093	15.22
684.416	16.45
684.739	15.65
685.062	15.69
685.386	16.42
685.709	16.35
686.032	15.43
686.355	15.83
686.678	15.63
687.001	16.15
687.324	16.52
687.646	15.64
687.969	15.63
688.292	15.74
688.614	16.06
