Data from 0363_crown_Reflection__1__430.txt Node

Date: Fri Dec 15 20:32:13 CST 2023
User: ToomeyLab
Spectrometer: FLMS14357
Trigger mode: 0
Integration Time (sec): 1.000000E-2
Scans to average: 100
Electric dark correction enabled: true
Nonlinearity correction enabled: false
Boxcar width: 0
XAxis mode: Wavelengths
Number of Pixels in Spectrum: 2048
>>>>>Begin Spectral Data<<<<<
189.047	-19.49
189.435	-19.49
189.823	-19.49
190.211	159.99
190.599	126.71
190.987	268.76
191.375	-317.52
191.763	-451.95
192.151	445.56
192.538	160.39
192.926	-26.1
193.314	215.68
193.702	-13.93
194.089	446.21
194.477	-58.05
194.864	-53.83
195.252	100.83
195.639	90.23
196.027	519.08
196.414	86.6
196.801	110.21
197.189	93.55
197.576	168.51
197.963	62.18
198.351	-72.1
198.738	-17.59
199.125	26.08
199.512	-80.62
199.899	15.23
200.286	3.74
200.673	1.44
201.06	-4.81
201.447	-2.06
201.833	-58.99
202.22	9.87
202.607	34.94
202.994	-15.79
203.38	13.95
203.767	-2.06
204.154	29.73
204.54	25.83
204.927	-79.09
205.313	-52.58
205.699	9.12
206.086	32.57
206.472	20.59
206.858	-0.32
207.245	-34.15
207.631	39.05
208.017	-35.79
208.403	-17.7
208.789	61.01
209.175	-8.27
209.561	-15.84
209.947	-57.44
210.333	-45.28
210.719	10.67
211.105	-12.86
211.491	-20.35
211.876	20.95
212.262	4.33
212.648	13.7
213.034	28.8
213.419	-3.46
213.805	-26.71
214.19	-37.6
214.576	0.74
214.961	-52.25
215.346	-185.35
215.732	-21.24
216.117	-10.29
216.502	-66.36
216.888	-8.45
217.273	14.7
217.658	7
218.043	-1.11
218.428	-49.91
218.813	-52.64
219.198	-48.99
219.583	1.49
219.968	-15.79
220.353	-23.74
220.738	23.08
221.122	17.62
221.507	-46.86
221.892	-29.11
222.276	-29.03
222.661	-7.08
223.046	2.4
223.43	1.81
223.815	9.26
224.199	-4.42
224.583	16.49
224.968	1.82
225.352	9.19
225.736	-3.28
226.121	-10.9
226.505	4.15
226.889	4.75
227.273	3.16
227.657	8.44
228.041	3.04
228.425	4.08
228.809	5.28
229.193	1.99
229.577	5.21
229.961	6.03
230.344	5.61
230.728	5.66
231.112	5.94
231.495	5.6
231.879	5.78
232.263	6.28
232.646	4.45
233.03	5.94
233.413	5.03
233.797	5.74
234.18	4.39
234.563	3.98
234.946	5.17
235.33	5.65
235.713	6.18
236.096	5.33
236.479	6.7
236.862	4.12
237.245	6.88
237.628	3
238.011	5.36
238.394	7.56
238.777	6.7
239.16	3.45
239.543	6.74
239.925	7.34
240.308	4.4
240.691	5.92
241.073	5.23
241.456	5.39
241.838	4.61
242.221	4.42
242.603	5.87
242.986	5.67
243.368	5.54
243.75	6.44
244.133	5.8
244.515	5.76
244.897	5.65
245.279	5.79
245.661	5.27
246.043	5.1
246.425	3.78
246.807	6.48
247.189	5.39
247.571	5.13
247.953	5.31
248.335	5.47
248.717	5.77
249.098	5.38
249.48	5.62
249.862	5.68
250.243	5.35
250.625	5.69
251.006	5.66
251.388	4.57
251.769	5.05
252.151	5.8
252.532	4.58
252.913	4.05
253.295	3.89
253.676	5.07
254.057	5.2
254.438	5.23
254.819	5.27
255.2	4.86
255.581	4.99
255.962	4.64
256.343	4.15
256.724	6.08
257.105	6.72
257.486	5.2
257.867	5.7
258.247	4.81
258.628	5.35
259.009	4.93
259.389	5.17
259.77	4.28
260.15	3.95
260.531	4.53
260.911	5.28
261.292	4.88
261.672	5.26
262.052	5.24
262.432	5.38
262.813	5.37
263.193	5.16
263.573	5.04
263.953	4.73
264.333	5.46
264.713	4.56
265.093	4.3
265.473	4.84
265.853	5.2
266.233	4.94
266.612	3.54
266.992	3.84
267.372	4.59
267.752	5.08
268.131	4.72
268.511	5.38
268.89	5.21
269.27	4.96
269.649	4.67
270.029	5.18
270.408	6.08
270.787	5.14
271.167	5
271.546	5.31
271.925	4.7
272.304	4.7
272.683	4.94
273.062	4.63
273.441	4.89
273.82	4.59
274.199	4.87
274.578	5.24
274.957	4.77
275.336	4.79
275.715	4.7
276.093	4.59
276.472	4.27
276.851	4.26
277.229	4.54
277.608	3.76
277.986	4.34
278.365	4.82
278.743	4.93
279.122	4.78
279.5	4.87
279.878	4.56
280.257	4.45
280.635	4.19
281.013	4.56
281.391	5.04
281.769	4.82
282.147	5.02
282.525	4.88
282.903	4.55
283.281	5.19
283.659	4.23
284.037	4.7
284.415	4.6
284.792	5
285.17	4.24
285.548	3.76
285.925	4.52
286.303	5.12
286.68	4.27
287.058	4.36
287.435	4.54
287.813	4.7
288.19	4.82
288.567	4.68
288.945	4.86
289.322	4.78
289.699	4.59
290.076	4.4
290.453	4.7
290.83	4.3
291.207	4.16
291.584	4.75
291.961	4.93
292.338	4.43
292.715	4.62
293.092	4.41
293.469	4.31
293.845	4.9
294.222	4.07
294.599	4.65
294.975	4.11
295.352	5.03
295.728	3.98
296.105	4.6
296.481	4.42
296.858	4.29
297.234	4.12
297.61	4.33
297.986	4.54
298.363	4.7
298.739	4.64
299.115	4.06
299.491	4.14
299.867	4.25
300.243	4.44
300.619	3.92
300.995	4.41
301.371	4.71
301.746	4.11
302.122	4.59
302.498	4.66
302.874	4.73
303.249	4.26
303.625	3.98
304	4.57
304.376	4.05
304.751	3.75
305.127	4.85
305.502	3.64
305.878	3.24
306.253	4.42
306.628	4.29
307.003	4.7
307.378	4.9
307.754	4.35
308.129	3.58
308.504	4.04
308.879	3.96
309.254	4.78
309.629	4.6
310.003	4.56
310.378	4.63
310.753	4.36
311.128	4.28
311.502	4.15
311.877	4.5
312.252	4.06
312.626	4.18
313.001	3.99
313.375	4.84
313.75	4.13
314.124	4.11
314.498	4
314.873	3.71
315.247	3.94
315.621	4.24
315.995	3.5
316.369	4.41
316.743	3.57
317.117	3.97
317.491	4.35
317.865	4.26
318.239	4.14
318.613	3.77
318.987	4.79
319.361	3.46
319.734	4.5
320.108	4.42
320.482	3.96
320.855	4.76
321.229	3.95
321.602	4.2
321.976	4.07
322.349	3.48
322.723	3.99
323.096	4.2
323.469	2.85
323.843	4.43
324.216	4.59
324.589	3.61
324.962	4.07
325.335	3.81
325.708	4.2
326.081	4.09
326.454	3.9
326.827	3.71
327.2	4.06
327.573	3.84
327.945	4.56
328.318	4.31
328.691	3.52
329.063	4.35
329.436	3.94
329.809	4.84
330.181	3.98
330.553	3.86
330.926	4.35
331.298	4.87
331.671	4.1
332.043	4.55
332.415	4.32
332.787	3.98
333.159	4.82
333.532	3.95
333.904	4.29
334.276	4.27
334.648	4.18
335.02	4.27
335.391	4.08
335.763	4.44
336.135	4.83
336.507	4.48
336.879	4.27
337.25	4.12
337.622	3.34
337.993	3.93
338.365	4.63
338.736	4.35
339.108	4.71
339.479	3.95
339.851	4.78
340.222	4.12
340.593	4.32
340.964	3.99
341.336	4.77
341.707	3.7
342.078	4.64
342.449	4.22
342.82	4.08
343.191	4.16
343.562	4.06
343.933	4.57
344.303	4.2
344.674	4.01
345.045	3.87
345.416	4.23
345.786	3.86
346.157	4.02
346.527	3.57
346.898	3.52
347.268	4.41
347.639	4.29
348.009	4.18
348.38	4.32
348.75	4.07
349.12	4.11
349.49	4.47
349.861	4.55
350.231	4.07
350.601	4.68
350.971	4.29
351.341	4.08
351.711	4.01
352.081	4.06
352.45	3.85
352.82	4.8
353.19	4.27
353.56	4.19
353.929	4.09
354.299	4.42
354.669	3.84
355.038	4.18
355.408	4.19
355.777	4.26
356.147	3.92
356.516	4.32
356.885	4.2
357.254	4.29
357.624	4.74
357.993	4.12
358.362	3.81
358.731	4.04
359.1	4.57
359.469	4.74
359.838	4.42
360.207	4.16
360.576	4.34
360.945	4.33
361.314	4.48
361.682	4.2
362.051	4.23
362.42	4.49
362.788	4.41
363.157	4.46
363.525	4.48
363.894	4.35
364.262	4.6
364.631	4.23
364.999	4.74
365.367	4.02
365.735	5.05
366.104	4.65
366.472	4.33
366.84	3.92
367.208	4.08
367.576	4.62
367.944	4.5
368.312	3.86
368.68	4.09
369.048	4.5
369.416	4.18
369.783	4.44
370.151	4.42
370.519	4.88
370.886	5.01
371.254	4.25
371.621	4.41
371.989	4.85
372.356	3.96
372.724	4.44
373.091	4.51
373.458	4.16
373.826	4.47
374.193	4.49
374.56	4.59
374.927	4.75
375.294	4.79
375.661	4.3
376.028	4.33
376.395	3.94
376.762	4.83
377.129	4.47
377.496	4.54
377.863	4.68
378.229	4.14
378.596	4.35
378.963	4.1
379.329	4.26
379.696	4.77
380.062	4.27
380.429	4.36
380.795	4.46
381.161	4.4
381.528	4.47
381.894	4.71
382.26	4.38
382.626	4.32
382.993	4.18
383.359	5.06
383.725	4.23
384.091	4.84
384.457	4.55
384.823	4.49
385.188	4.55
385.554	4.6
385.92	4.62
386.286	4.81
386.651	4.8
387.017	4.99
387.383	4.63
387.748	4.46
388.114	5.11
388.479	4.51
388.845	4.75
389.21	4.96
389.575	4.79
389.94	4.58
390.306	5.14
390.671	4.97
391.036	4.47
391.401	4.69
391.766	4.46
392.131	4.51
392.496	4.74
392.861	4.28
393.226	4.92
393.591	4.97
393.956	4.54
394.32	4.66
394.685	4.49
395.05	4.74
395.414	4.89
395.779	4.64
396.143	4.7
396.508	4.62
396.872	4.65
397.236	4.82
397.601	4.51
397.965	4.69
398.329	4.81
398.694	4.72
399.058	5
399.422	4.61
399.786	4.99
400.15	4.62
400.514	5.01
400.878	4.61
401.242	5.24
401.605	4.8
401.969	4.99
402.333	4.68
402.697	4.7
403.06	4.85
403.424	4.69
403.787	4.74
404.151	5.13
404.514	4.89
404.878	4.61
405.241	4.95
405.604	4.93
405.968	4.94
406.331	5.06
406.694	5.13
407.057	5.02
407.42	4.67
407.783	4.99
408.146	5.2
408.509	4.72
408.872	4.61
409.235	4.75
409.598	5.11
409.961	5.04
410.323	4.96
410.686	4.85
411.049	4.64
411.411	4.7
411.774	4.98
412.136	4.73
412.499	4.9
412.861	5.11
413.223	4.95
413.586	5.05
413.948	5.03
414.31	5.09
414.672	4.92
415.035	4.85
415.397	5.12
415.759	4.73
416.121	5.23
416.483	4.9
416.845	4.92
417.206	4.81
417.568	5.16
417.93	4.74
418.292	5.02
418.653	4.97
419.015	4.91
419.377	4.93
419.738	5.09
420.1	4.98
420.461	5.02
420.822	5.01
421.184	4.93
421.545	4.96
421.906	4.84
422.267	5.12
422.629	4.88
422.99	4.92
423.351	4.93
423.712	4.91
424.073	4.99
424.434	4.95
424.795	4.88
425.155	5
425.516	4.77
425.877	5
426.238	4.78
426.598	4.96
426.959	4.81
427.32	4.75
427.68	4.98
428.041	5.06
428.401	5.01
428.761	4.98
429.122	5.01
429.482	4.87
429.842	5.04
430.202	4.95
430.563	5.1
430.923	4.9
431.283	5.25
431.643	4.91
432.003	4.93
432.363	5.21
432.722	4.99
433.082	5.04
433.442	4.92
433.802	5.06
434.161	5.08
434.521	5.28
434.881	4.97
435.24	5.05
435.6	5.02
435.959	4.95
436.319	4.91
436.678	4.99
437.037	5.02
437.396	5.27
437.756	5.02
438.115	4.98
438.474	5.19
438.833	4.84
439.192	5.11
439.551	5.15
439.91	4.98
440.269	5.05
440.628	5.03
440.987	5.02
441.345	4.92
441.704	5.08
442.063	5.03
442.421	5.04
442.78	5.03
443.138	5.08
443.497	5.04
443.855	4.95
444.214	5.04
444.572	5.31
444.93	4.99
445.288	5.08
445.647	5.31
446.005	4.94
446.363	5.25
446.721	5.14
447.079	4.96
447.437	5.05
447.795	5.16
448.153	5.06
448.51	5.02
448.868	5.1
449.226	5.05
449.584	4.96
449.941	5.05
450.299	5.15
450.656	4.99
451.014	5.14
451.371	5.19
451.729	5.07
452.086	5.24
452.443	5.19
452.801	5.1
453.158	5.12
453.515	5.09
453.872	5.12
454.229	5.04
454.586	4.99
454.943	5.13
455.3	5.2
455.657	5.05
456.014	5.14
456.371	5.25
456.727	5.19
457.084	5.29
457.441	5.16
457.797	5.19
458.154	5.32
458.51	5.34
458.867	5.26
459.223	5.33
459.58	5.32
459.936	5.26
460.292	5.21
460.648	5.16
461.005	5.16
461.361	5.16
461.717	5.19
462.073	4.99
462.429	5.19
462.785	5.12
463.141	5.06
463.496	5.17
463.852	5.15
464.208	5.32
464.564	5.41
464.919	5.14
465.275	5.25
465.631	5.18
465.986	5.22
466.342	5.21
466.697	5.06
467.052	5.38
467.408	5.44
467.763	5.32
468.118	5.38
468.473	5.2
468.829	5.38
469.184	5.25
469.539	5.3
469.894	5.09
470.249	5.45
470.603	5.46
470.958	5.48
471.313	5.44
471.668	5.29
472.023	5.32
472.377	5.26
472.732	5.21
473.086	5.25
473.441	5.33
473.795	5.32
474.15	5.38
474.504	5.21
474.859	5.4
475.213	5.19
475.567	5.16
475.921	4.99
476.275	5.26
476.63	5.57
476.984	5.36
477.338	5.38
477.692	5.34
478.045	5.2
478.399	5.32
478.753	5.56
479.107	5.38
479.461	5.24
479.814	5.42
480.168	5.24
480.521	5.24
480.875	5.37
481.228	5.33
481.582	5.29
481.935	5.26
482.289	5.26
482.642	5.37
482.995	5.15
483.348	5.16
483.701	5.2
484.055	5.25
484.408	5.23
484.761	5.18
485.114	5.19
485.466	5.04
485.819	5.02
486.172	5.01
486.525	5.05
486.878	4.98
487.23	5.07
487.583	5.11
487.936	5.12
488.288	5.21
488.641	5.21
488.993	5.14
489.345	5.06
489.698	5.13
490.05	5.06
490.402	5.1
490.754	5.03
491.107	5.22
491.459	5.19
491.811	5.16
492.163	5.26
492.515	5.31
492.866	5.25
493.218	5.21
493.57	5.13
493.922	5.13
494.274	5.22
494.625	5.21
494.977	5.25
495.328	5.34
495.68	5.26
496.031	5.32
496.383	5.35
496.734	5.34
497.086	5.41
497.437	5.34
497.788	5.32
498.139	5.25
498.49	5.43
498.842	5.22
499.193	5.28
499.544	5.29
499.894	5.27
500.245	5.28
500.596	5.39
500.947	5.53
501.298	5.38
501.648	5.4
501.999	5.49
502.35	5.31
502.7	5.3
503.051	5.22
503.401	5.33
503.752	5.37
504.102	5.22
504.452	5.48
504.803	5.26
505.153	5.44
505.503	5.46
505.853	5.32
506.203	5.33
506.553	5.43
506.903	5.26
507.253	5.31
507.603	5.35
507.953	5.46
508.303	5.48
508.652	5.26
509.002	5.41
509.352	5.54
509.701	5.44
510.051	5.42
510.4	5.37
510.75	5.33
511.099	5.32
511.449	5.31
511.798	5.33
512.147	5.34
512.496	5.33
512.846	5.34
513.195	5.35
513.544	5.18
513.893	5.34
514.242	5.3
514.591	5.47
514.939	5.31
515.288	5.24
515.637	5.38
515.986	5.39
516.334	5.4
516.683	5.41
517.032	5.37
517.38	5.52
517.729	5.49
518.077	5.35
518.426	5.4
518.774	5.46
519.122	5.45
519.47	5.39
519.819	5.2
520.167	5.37
520.515	5.35
520.863	5.31
521.211	5.33
521.559	5.43
521.907	5.33
522.255	5.3
522.602	5.32
522.95	5.44
523.298	5.39
523.645	5.47
523.993	5.36
524.341	5.44
524.688	5.36
525.036	5.35
525.383	5.51
525.73	5.46
526.078	5.26
526.425	5.35
526.772	5.44
527.119	5.34
527.466	5.28
527.814	5.34
528.161	5.29
528.508	5.34
528.854	5.29
529.201	5.33
529.548	5.27
529.895	5.28
530.242	5.21
530.588	5.24
530.935	5.17
531.282	5.22
531.628	5.21
531.975	5.19
532.321	5.25
532.667	5.37
533.014	5.32
533.36	5.38
533.706	5.33
534.052	5.35
534.399	5.27
534.745	5.31
535.091	5.33
535.437	5.35
535.783	5.26
536.129	5.29
536.474	5.31
536.82	5.33
537.166	5.41
537.512	5.37
537.857	5.44
538.203	5.39
538.549	5.4
538.894	5.33
539.239	5.41
539.585	5.37
539.93	5.35
540.276	5.41
540.621	5.42
540.966	5.41
541.311	5.38
541.656	5.33
542.001	5.43
542.346	5.51
542.691	5.39
543.036	5.33
543.381	5.27
543.726	5.25
544.071	5.28
544.415	5.31
544.76	5.3
545.105	5.4
545.449	5.29
545.794	5.34
546.138	5.34
546.483	5.46
546.827	5.55
547.171	5.42
547.516	5.57
547.86	5.41
548.204	5.49
548.548	5.43
548.892	5.48
549.236	5.37
549.58	5.36
549.924	5.41
550.268	5.47
550.612	5.63
550.956	5.57
551.3	5.48
551.643	5.5
551.987	5.55
552.33	5.52
552.674	5.57
553.017	5.5
553.361	5.59
553.704	5.61
554.048	5.46
554.391	5.48
554.734	5.53
555.077	5.46
555.42	5.46
555.764	5.26
556.107	5.38
556.45	5.24
556.793	5.6
557.135	5.53
557.478	5.72
557.821	5.52
558.164	5.38
558.507	5.5
558.849	5.41
559.192	5.64
559.534	5.44
559.877	5.61
560.219	5.45
560.562	5.73
560.904	5.6
561.246	5.57
561.589	5.41
561.931	5.57
562.273	5.35
562.615	5.36
562.957	5.54
563.299	5.31
563.641	5.45
563.983	5.44
564.325	5.44
564.667	5.52
565.008	5.52
565.35	5.49
565.692	5.02
566.033	5.35
566.375	5.54
566.716	5.92
567.058	5.5
567.399	5.43
567.741	5.33
568.082	5.46
568.423	5.42
568.764	5.44
569.105	5.6
569.447	5.57
569.788	5.55
570.129	5.44
570.47	5.49
570.811	5.56
571.151	5.61
571.492	5.54
571.833	5.57
572.174	5.66
572.514	5.61
572.855	5.47
573.195	5.37
573.536	5.58
573.876	5.34
574.217	5.46
574.557	5.48
574.898	5.57
575.238	5.49
575.578	5.38
575.918	5.72
576.258	5.72
576.598	5.71
576.938	5.54
577.278	5.4
577.618	5.47
577.958	5.56
578.298	5.43
578.638	5.49
578.977	5.39
579.317	5.61
579.657	5.26
579.996	5.47
580.336	5.49
580.675	5.55
581.014	5.72
581.354	5.52
581.693	5.5
582.032	5.26
582.372	5.38
582.711	5.6
583.05	5.3
583.389	5.57
583.728	5.18
584.067	5.41
584.406	5.52
584.745	5.57
585.083	5.3
585.422	5.62
585.761	5.45
586.1	5.35
586.438	5.54
586.777	5.62
587.115	5.62
587.454	5.47
587.792	5.65
588.13	5.53
588.469	5.44
588.807	5.7
589.145	5.1
589.483	5.47
589.821	5.67
590.159	5.57
590.497	5.61
590.835	5.81
591.173	5.69
591.511	5.66
591.849	5.52
592.187	5.66
592.524	5.54
592.862	5.51
593.2	5.68
593.537	5.49
593.875	5.31
594.212	5.29
594.55	5.32
594.887	5.9
595.224	5.45
595.561	5.38
595.899	5.61
596.236	5.4
596.573	5.69
596.91	4.99
597.247	5.29
597.584	5.93
597.921	5.51
598.258	5.51
598.594	5.54
598.931	5.62
599.268	5.69
599.604	5.49
599.941	5.79
600.277	5.58
600.614	5.58
600.95	5.29
601.287	5.54
601.623	5.49
601.959	5.26
602.296	5.51
602.632	5.45
602.968	5.58
603.304	5.46
603.64	5.43
603.976	5.37
604.312	5.71
604.648	5.48
604.984	5.56
605.319	5.44
605.655	5.36
605.991	5.67
606.326	5.44
606.662	5.45
606.998	5.41
607.333	5.65
607.668	5.36
608.004	5.55
608.339	5.54
608.674	5.42
609.01	5.43
609.345	5.17
609.68	5.62
610.015	5.46
610.35	5.47
610.685	5.54
611.02	5.61
611.355	5.49
611.689	5.49
612.024	5.3
612.359	5.18
612.694	5.52
613.028	5.43
613.363	5.57
613.697	5.58
614.032	5.85
614.366	5.47
614.7	5.71
615.035	5.28
615.369	5.53
615.703	5.53
616.037	5.46
616.371	5.32
616.705	5.31
617.039	5.63
617.373	5.46
617.707	5.57
618.041	5.42
618.375	5.23
618.709	5.59
619.042	5.22
619.376	5.46
619.71	5.35
620.043	5.44
620.377	5.2
620.71	5.43
621.043	5.15
621.377	5.49
621.71	5.38
622.043	5.4
622.376	5.2
622.709	5.53
623.043	5.59
623.376	5.52
623.709	5.49
624.041	5.88
624.374	5.79
624.707	5.11
625.04	5.75
625.373	4.88
625.705	5.62
626.038	5.5
626.37	5.68
626.703	5.58
627.035	5.63
627.368	5.85
627.7	5.29
628.032	5.41
628.365	5.94
628.697	5.57
629.029	5.31
629.361	5.6
629.693	5.65
630.025	5.23
630.357	5.64
630.689	5.7
631.021	5.28
631.353	5.69
631.684	5.13
632.016	5.22
632.348	5.22
632.679	5.43
633.011	5.53
633.342	5.76
633.674	5.32
634.005	5.72
634.336	5.48
634.668	5.92
634.999	5.32
635.33	5.6
635.661	5.45
635.992	5.9
636.323	5.49
636.654	5.6
636.985	5.41
637.316	6
637.647	5.17
637.977	5.95
638.308	5.41
638.639	5.37
638.969	5.21
639.3	4.95
639.63	4.84
639.961	5.77
640.291	5.42
640.622	5.89
640.952	5.2
641.282	5.35
641.612	5.25
641.943	5.19
642.273	5.47
642.603	5.53
642.933	5.59
643.263	5.56
643.592	5.24
643.922	5.28
644.252	5.2
644.582	5.6
644.911	5.14
645.241	5.3
645.571	5.23
645.9	5
646.23	5.53
646.559	5.7
646.888	5.27
647.218	5.41
647.547	5.63
647.876	5.28
648.205	5.54
648.534	5.3
648.863	5.13
649.192	5.25
649.521	5.37
649.85	5.03
650.179	5.3
650.508	5.17
650.837	4.83
651.165	5.29
651.494	5.37
651.822	5.46
652.151	5.03
652.479	5.68
652.808	4.98
653.136	5.49
653.465	4.74
653.793	5.01
654.121	5.03
654.449	5.33
654.777	5.98
655.105	5.9
655.433	5.15
655.761	5.41
656.089	5.44
656.417	5.33
656.745	5.34
657.073	5.19
657.4	5.83
657.728	5.28
658.056	5.6
658.383	5.81
658.711	5.61
659.038	5.46
659.365	5.59
659.693	5.72
660.02	5.14
660.347	5.53
660.674	5.71
661.001	5.63
661.329	4.89
661.656	5.24
661.982	5.94
662.309	5.23
662.636	5.14
662.963	5.79
663.29	5.94
663.616	5.26
663.943	4.64
664.27	5.31
664.596	5.58
664.923	5.12
665.249	5.94
665.576	5.37
665.902	6.1
666.228	5.79
666.554	5.36
666.881	5.39
667.207	5.25
667.533	5.41
667.859	5.93
668.185	5.93
668.511	4.96
668.837	4.33
669.162	5.54
669.488	4.89
669.814	5.8
670.139	5.86
670.465	5.23
670.791	5.23
671.116	5.72
671.442	5.22
671.767	5.82
672.092	6.29
672.418	5.41
672.743	5.86
673.068	4.66
673.393	5.07
673.718	5.56
674.043	5.51
674.368	5.39
674.693	6.04
675.018	5.52
675.343	5.19
675.667	6.05
675.992	5.48
676.317	5.15
676.641	5.41
676.966	5.57
677.29	4.97
677.615	5.33
677.939	5.76
678.264	5.85
678.588	5.94
678.912	5.94
679.236	5.9
679.56	4.99
679.885	5.98
680.209	5.54
680.532	5
680.856	6.14
681.18	5.34
681.504	6.08
681.828	5.97
682.152	5.26
682.475	5.68
682.799	6.06
683.122	5.42
683.446	5.32
683.769	5.67
684.093	5.67
684.416	5.02
684.739	5.29
685.062	5.03
685.386	5.97
685.709	5.22
686.032	5.69
686.355	5.98
686.678	4.96
687.001	6.12
687.324	6.11
687.646	4.8
687.969	5.13
688.292	5.37
688.614	5.24
688.937	6.29
689.26	4.86
689.582	6.33
689.904	4.93
690.227	6.15
690.549	5.58
690.871	5.81
691.194	5.65
691.516	5.32
691.838	5.22
692.16	5.02
