Data from 0363_forehead_Reflection__1__436.txt Node

Date: Fri Dec 15 20:33:24 CST 2023
User: ToomeyLab
Spectrometer: FLMS14357
Trigger mode: 0
Integration Time (sec): 1.000000E-2
Scans to average: 100
Electric dark correction enabled: true
Nonlinearity correction enabled: false
Boxcar width: 0
XAxis mode: Wavelengths
Number of Pixels in Spectrum: 2048
>>>>>Begin Spectral Data<<<<<
189.047	-1.6
189.435	-1.6
189.823	-1.6
190.211	-0.7
190.599	-400.81
190.987	340.84
191.375	-224.32
191.763	72
192.151	254.01
192.538	115.41
192.926	2.13
193.314	404.59
193.702	180.88
194.089	311.15
194.477	39.67
194.864	7.13
195.252	137.15
195.639	93.2
196.027	274.73
196.414	126.91
196.801	357.85
197.189	-13.43
197.576	-0.77
197.963	200.6
198.351	-30.25
198.738	-9.85
199.125	31.49
199.512	12.83
199.899	33.28
200.286	35.72
200.673	40.17
201.06	21.26
201.447	-181.15
201.833	33.43
202.22	36.29
202.607	52.05
202.994	17.93
203.38	23.28
203.767	36.79
204.154	47.84
204.54	11.84
204.927	-104.58
205.313	-53.58
205.699	25.09
206.086	56.81
206.472	79.49
206.858	53.2
207.245	-2.61
207.631	39.33
208.017	-5.09
208.403	-52.09
208.789	19.45
209.175	38.83
209.561	28.21
209.947	51.64
210.333	-16.78
210.719	22.7
211.105	10.41
211.491	20.87
211.876	21.96
212.262	13.74
212.648	40.17
213.034	22.72
213.419	8.73
213.805	14.15
214.19	7.81
214.576	-13.38
214.961	-2.44
215.346	-69.16
215.732	-8.46
216.117	34.3
216.502	-7.36
216.888	2.71
217.273	15.65
217.658	3.15
218.043	23.82
218.428	-55.02
218.813	-20.44
219.198	-32.07
219.583	29.12
219.968	16.88
220.353	8.35
220.738	30.6
221.122	30
221.507	-16.75
221.892	4.76
222.276	-25.41
222.661	14.76
223.046	20.77
223.43	4.18
223.815	16.71
224.199	8.62
224.583	-1.76
224.968	1.88
225.352	22.45
225.736	0.03
226.121	-12.52
226.505	3.67
226.889	16.92
227.273	6.79
227.657	8.87
228.041	10.43
228.425	7.63
228.809	4.36
229.193	6.04
229.577	4.03
229.961	5.19
230.344	3.66
230.728	5.24
231.112	5.6
231.495	4.53
231.879	4.83
232.263	6.59
232.646	5.62
233.03	5.43
233.413	3.43
233.797	6.32
234.18	6.17
234.563	3.9
234.946	3.77
235.33	5.66
235.713	4.04
236.096	5.53
236.479	4.43
236.862	3.99
237.245	5.94
237.628	4.73
238.011	6.64
238.394	5.53
238.777	5.08
239.16	3.29
239.543	3.89
239.925	5.82
240.308	3.74
240.691	6.92
241.073	5.74
241.456	5.58
241.838	3.23
242.221	4.4
242.603	6.24
242.986	5.74
243.368	4.75
243.75	4.6
244.133	5.32
244.515	4.87
244.897	4.89
245.279	5.12
245.661	4.74
246.043	3.45
246.425	3.93
246.807	5.01
247.189	5.68
247.571	5.58
247.953	5.66
248.335	4.6
248.717	5.08
249.098	4.97
249.48	4.87
249.862	4.5
250.243	4.62
250.625	5.1
251.006	4.97
251.388	4.48
251.769	4.71
252.151	6.12
252.532	4.62
252.913	5.3
253.295	3.58
253.676	5.06
254.057	5.34
254.438	4.9
254.819	4.66
255.2	4.87
255.581	5.03
255.962	3.94
256.343	5.36
256.724	4.88
257.105	4.27
257.486	4.43
257.867	6.04
258.247	6.02
258.628	4.86
259.009	4.26
259.389	4.66
259.77	5.27
260.15	4.61
260.531	4.85
260.911	5.55
261.292	4.74
261.672	5.13
262.052	4.77
262.432	4.84
262.813	4.62
263.193	4.76
263.573	4.47
263.953	4.83
264.333	5.09
264.713	5.64
265.093	4.6
265.473	5.06
265.853	4.44
266.233	5.08
266.612	2.49
266.992	4.11
267.372	4.97
267.752	4.56
268.131	4.84
268.511	5.33
268.89	4.7
269.27	5.23
269.649	4.69
270.029	4.62
270.408	5.34
270.787	4.75
271.167	5.52
271.546	5.04
271.925	4.16
272.304	4.6
272.683	5.21
273.062	3.93
273.441	4.77
273.82	3.89
274.199	4.51
274.578	4.49
274.957	4.74
275.336	4.45
275.715	4.24
276.093	4.02
276.472	4.65
276.851	5.07
277.229	4.33
277.608	4.47
277.986	4.62
278.365	4.68
278.743	4.06
279.122	4.68
279.5	4.33
279.878	4.67
280.257	4.51
280.635	4.16
281.013	4.26
281.391	5.22
281.769	4.58
282.147	4.56
282.525	5.26
282.903	4.11
283.281	4.6
283.659	4.74
284.037	4.77
284.415	4.86
284.792	4.61
285.17	4.03
285.548	4.34
285.925	4.42
286.303	4.55
286.68	4.49
287.058	4.67
287.435	4.19
287.813	4.55
288.19	4.43
288.567	4.52
288.945	4.81
289.322	4.89
289.699	4.32
290.076	4.45
290.453	4.71
290.83	4.72
291.207	4.78
291.584	4.77
291.961	4.82
292.338	4.66
292.715	4.82
293.092	4.9
293.469	5.06
293.845	4.65
294.222	4.64
294.599	4.93
294.975	4.29
295.352	5.24
295.728	4.25
296.105	5.04
296.481	5.47
296.858	5.31
297.234	4.7
297.61	5.2
297.986	5.21
298.363	5.7
298.739	5.39
299.115	5.12
299.491	4.98
299.867	5.45
300.243	5.4
300.619	4.82
300.995	5.87
301.371	5.8
301.746	5.21
302.122	6.11
302.498	4.92
302.874	6.25
303.249	5.72
303.625	5.76
304	6.22
304.376	5.95
304.751	5.85
305.127	6.58
305.502	5.59
305.878	5.7
306.253	5.81
306.628	6.28
307.003	5.9
307.378	6.51
307.754	5.93
308.129	5.69
308.504	5.65
308.879	6.48
309.254	7.7
309.629	6.86
310.003	6.3
310.378	7.25
310.753	6.99
311.128	6.99
311.502	6.79
311.877	7.02
312.252	6.63
312.626	6.93
313.001	7.08
313.375	7.6
313.75	6.49
314.124	7.59
314.498	7
314.873	7.2
315.247	6.71
315.621	7.45
315.995	6.77
316.369	7.71
316.743	7.35
317.117	7.71
317.491	7.74
317.865	7.65
318.239	8.26
318.613	8.12
318.987	8.76
319.361	8.22
319.734	8.39
320.108	7.96
320.482	8.15
320.855	8.93
321.229	8.43
321.602	8.7
321.976	8.94
322.349	8.65
322.723	8.62
323.096	9.91
323.469	8.63
323.843	8.52
324.216	9.31
324.589	8.49
324.962	9.64
325.335	8.77
325.708	8.89
326.081	9.35
326.454	9.33
326.827	9.9
327.2	9.71
327.573	9.87
327.945	9.47
328.318	9.41
328.691	9
329.063	9.86
329.436	8.93
329.809	9.56
330.181	9.45
330.553	9.88
330.926	10.16
331.298	9.9
331.671	9.52
332.043	10.78
332.415	10.02
332.787	9.86
333.159	10.49
333.532	10.41
333.904	10.62
334.276	9.87
334.648	10.24
335.02	10.72
335.391	9.72
335.763	10.4
336.135	10.43
336.507	11.14
336.879	10.58
337.25	10.35
337.622	10.59
337.993	10.43
338.365	11.24
338.736	10.79
339.108	10.65
339.479	10.56
339.851	10.97
340.222	10.39
340.593	11
340.964	11.47
341.336	11.49
341.707	10.76
342.078	11.4
342.449	11.23
342.82	11.22
343.191	11.24
343.562	11.26
343.933	11.57
344.303	11.64
344.674	11.61
345.045	11.48
345.416	11.49
345.786	11.18
346.157	11.66
346.527	11.58
346.898	11.4
347.268	12.3
347.639	11.41
348.009	12.06
348.38	12.12
348.75	11.84
349.12	11.8
349.49	12.27
349.861	12.22
350.231	11.7
350.601	11.87
350.971	12.13
351.341	12.27
351.711	12.04
352.081	12.19
352.45	12.34
352.82	12.66
353.19	12.21
353.56	12.57
353.929	12.57
354.299	12.6
354.669	11.78
355.038	12.4
355.408	12.32
355.777	12.41
356.147	12.64
356.516	12.7
356.885	12.78
357.254	12.84
357.624	12.72
357.993	13.12
358.362	12.76
358.731	12.82
359.1	13.25
359.469	13.05
359.838	12.99
360.207	13.07
360.576	12.89
360.945	13.1
361.314	13.54
361.682	13.04
362.051	13.16
362.42	13.57
362.788	12.95
363.157	13.53
363.525	13.47
363.894	13.41
364.262	13.7
364.631	13.63
364.999	13.63
365.367	12.93
365.735	13.98
366.104	13.57
366.472	13.9
366.84	13.58
367.208	13.97
367.576	13.76
367.944	14.2
368.312	13.83
368.68	13.67
369.048	13.85
369.416	13.88
369.783	13.75
370.151	14.08
370.519	14.51
370.886	14.62
371.254	14.43
371.621	14.63
371.989	14.49
372.356	13.98
372.724	14.57
373.091	14.32
373.458	14.72
373.826	14.47
374.193	14.49
374.56	14.94
374.927	14.77
375.294	14.64
375.661	14.43
376.028	14.64
376.395	14.55
376.762	14.84
377.129	14.72
377.496	14.99
377.863	15.14
378.229	14.84
378.596	15.21
378.963	14.8
379.329	15.1
379.696	15.1
380.062	15.13
380.429	15.07
380.795	15.17
381.161	15.39
381.528	15.72
381.894	15.6
382.26	15.54
382.626	15.74
382.993	15.26
383.359	15.99
383.725	15.21
384.091	15.93
384.457	16.19
384.823	15.99
385.188	15.64
385.554	15.99
385.92	15.85
386.286	16.09
386.651	16.06
387.017	16.31
387.383	16.1
387.748	16.07
388.114	16.57
388.479	16.06
388.845	16.37
389.21	16.38
389.575	16.58
389.94	16.57
390.306	16.99
390.671	16.78
391.036	16.38
391.401	16.18
391.766	16.71
392.131	16.87
392.496	16.73
392.861	16.68
393.226	16.74
393.591	16.38
393.956	16.68
394.32	16.6
394.685	16.46
395.05	16.78
395.414	17.35
395.779	16.79
396.143	16.96
396.508	17.12
396.872	17.22
397.236	17
397.601	16.89
397.965	17.3
398.329	17.34
398.694	17.39
399.058	17.38
399.422	17.27
399.786	17.58
400.15	17.42
400.514	17.57
400.878	17.68
401.242	17.89
401.605	17.87
401.969	17.77
402.333	17.84
402.697	17.67
403.06	17.76
403.424	17.69
403.787	18.01
404.151	18.17
404.514	17.84
404.878	17.82
405.241	18.21
405.604	17.88
405.968	18.15
406.331	18.3
406.694	18.16
407.057	18.34
407.42	18.53
407.783	18.28
408.146	18.47
408.509	18.27
408.872	18.36
409.235	18.71
409.598	18.49
409.961	18.34
410.323	18.54
410.686	18.52
411.049	18.58
411.411	18.69
411.774	18.76
412.136	18.75
412.499	18.73
412.861	18.92
413.223	18.98
413.586	18.88
413.948	18.74
414.31	18.79
414.672	18.86
415.035	18.9
415.397	19.46
415.759	18.9
416.121	19.25
416.483	19.09
416.845	19.04
417.206	19.3
417.568	19.63
417.93	19.26
418.292	19.05
418.653	19.44
419.015	19.39
419.377	19.45
419.738	19.49
420.1	19.47
420.461	19.4
420.822	19.53
421.184	19.36
421.545	19.66
421.906	19.52
422.267	19.53
422.629	19.54
422.99	19.56
423.351	19.68
423.712	19.59
424.073	19.69
424.434	19.67
424.795	19.76
425.155	19.87
425.516	19.77
425.877	19.83
426.238	19.86
426.598	19.98
426.959	20.06
427.32	20.1
427.68	20.21
428.041	20.33
428.401	20.3
428.761	20.3
429.122	20.61
429.482	20.56
429.842	20.64
430.202	20.75
430.563	20.58
430.923	20.71
431.283	20.73
431.643	20.78
432.003	21.03
432.363	20.96
432.722	20.91
433.082	20.94
433.442	21.04
433.802	20.87
434.161	21.04
434.521	21.23
434.881	21.17
435.24	21.04
435.6	21.34
435.959	21.21
436.319	21.28
436.678	21.31
437.037	21.24
437.396	21.59
437.756	21.43
438.115	21.46
438.474	21.8
438.833	21.54
439.192	21.69
439.551	21.71
439.91	21.66
440.269	21.73
440.628	21.65
440.987	21.76
441.345	21.77
441.704	21.91
442.063	21.8
442.421	21.69
442.78	21.71
443.138	21.82
443.497	21.91
443.855	21.99
444.214	21.89
444.572	22.34
444.93	22.28
445.288	22.23
445.647	22.49
446.005	22.1
446.363	22.42
446.721	22.42
447.079	22.17
447.437	22.39
447.795	22.4
448.153	22.35
448.51	22.26
448.868	22.34
449.226	22.37
449.584	22.48
449.941	22.63
450.299	22.61
450.656	22.82
451.014	22.75
451.371	22.88
451.729	22.87
452.086	23
452.443	23.16
452.801	23.06
453.158	23.09
453.515	23.13
453.872	23.31
454.229	23.09
454.586	23.33
454.943	23.41
455.3	23.38
455.657	23.34
456.014	23.62
456.371	23.69
456.727	23.51
457.084	23.82
457.441	23.64
457.797	23.85
458.154	23.81
458.51	23.79
458.867	23.96
459.223	24.06
459.58	24.05
459.936	24.05
460.292	24.1
460.648	24.09
461.005	24.04
461.361	24.01
461.717	23.99
462.073	23.96
462.429	23.95
462.785	24.11
463.141	24.05
463.496	24.35
463.852	24.5
464.208	24.65
464.564	24.54
464.919	24.73
465.275	24.66
465.631	24.79
465.986	24.96
466.342	24.8
466.697	24.63
467.052	24.96
467.408	24.98
467.763	24.99
468.118	25.14
468.473	25.22
468.829	25.11
469.184	25.14
469.539	25.15
469.894	24.92
470.249	25.37
470.603	25.52
470.958	25.44
471.313	25.55
471.668	25.46
472.023	25.52
472.377	25.71
472.732	25.74
473.086	25.66
473.441	25.56
473.795	25.93
474.15	25.68
474.504	25.85
474.859	25.8
475.213	25.8
475.567	26.01
475.921	26.01
476.275	25.92
476.63	26.17
476.984	26.36
477.338	26.23
477.692	26.05
478.045	25.95
478.399	26.37
478.753	26.14
479.107	26.27
479.461	26.36
479.814	26.54
480.168	26.38
480.521	26.39
480.875	26.44
481.228	26.54
481.582	26.45
481.935	26.42
482.289	26.69
482.642	26.6
482.995	26.61
483.348	26.59
483.701	26.65
484.055	26.78
484.408	26.66
484.761	26.43
485.114	26.28
485.466	26
485.819	26.01
486.172	25.96
486.525	25.92
486.878	25.98
487.23	26.27
487.583	26.41
487.936	26.63
488.288	26.68
488.641	26.75
488.993	26.6
489.345	26.57
489.698	26.57
490.05	26.64
490.402	26.58
490.754	26.69
491.107	27.01
491.459	27
491.811	27.17
492.163	27.39
492.515	27.46
492.866	27.46
493.218	27.28
493.57	27.09
493.922	27.04
494.274	27.2
494.625	27.34
494.977	27.68
495.328	27.71
495.68	27.81
496.031	28.26
496.383	28.06
496.734	28.34
497.086	28.37
497.437	28.57
497.788	28.63
498.139	28.37
498.49	28.58
498.842	28.35
499.193	28.52
499.544	28.66
499.894	28.61
500.245	28.56
500.596	28.62
500.947	28.97
501.298	28.99
501.648	28.89
501.999	29.28
502.35	29.14
502.7	28.98
503.051	28.98
503.401	29.47
503.752	29.58
504.102	29.22
504.452	29.65
504.803	29.34
505.153	29.61
505.503	29.64
505.853	29.58
506.203	29.65
506.553	29.63
506.903	29.58
507.253	29.63
507.603	29.86
507.953	29.91
508.303	29.95
508.652	30.02
509.002	29.97
509.352	29.94
509.701	30.07
510.051	29.99
510.4	30.08
510.75	30.18
511.099	30.04
511.449	30.27
511.798	30.12
512.147	30.37
512.496	30.25
512.846	30.35
513.195	30.5
513.544	30.45
513.893	30.41
514.242	30.56
514.591	30.68
514.939	30.54
515.288	30.65
515.637	30.62
515.986	31
516.334	30.81
516.683	31.25
517.032	31.03
517.38	30.97
517.729	31.2
518.077	31.11
518.426	31.19
518.774	31.35
519.122	31.22
519.47	31.21
519.819	31.23
520.167	31.21
520.515	31.14
520.863	31.16
521.211	31.21
521.559	31.21
521.907	31.23
522.255	31.53
522.602	31.35
522.95	31.7
523.298	31.6
523.645	31.79
523.993	32.01
524.341	32.08
524.688	31.99
525.036	31.99
525.383	32.06
525.73	32.13
526.078	32.26
526.425	32.11
526.772	32.27
527.119	32.2
527.466	32.03
527.814	31.96
528.161	32.29
528.508	32.04
528.854	32.01
529.201	32.1
529.548	32.15
529.895	32.03
530.242	31.78
530.588	31.77
530.935	31.86
531.282	31.74
531.628	31.77
531.975	31.94
532.321	32.28
532.667	32.4
533.014	32.48
533.36	32.85
533.706	32.86
534.052	32.88
534.399	32.82
534.745	32.91
535.091	32.93
535.437	32.65
535.783	32.78
536.129	32.86
536.474	32.8
536.82	33.09
537.166	33.29
537.512	33.55
537.857	33.5
538.203	33.61
538.549	33.53
538.894	33.54
539.239	33.51
539.585	33.67
539.93	33.67
540.276	34.04
540.621	33.91
540.966	34.12
541.311	34.14
541.656	34.29
542.001	34.29
542.346	34.36
542.691	34.14
543.036	33.91
543.381	33.78
543.726	33.76
544.071	33.83
544.415	33.85
544.76	33.96
545.105	34.23
545.449	34.27
545.794	34.32
546.138	34.65
546.483	34.76
546.827	34.91
547.171	34.94
547.516	34.85
547.86	35.09
548.204	35.03
548.548	35.08
548.892	35.15
549.236	35.19
549.58	34.85
549.924	35.16
550.268	35.42
550.612	35.44
550.956	35.58
551.3	35.86
551.643	36.18
551.987	35.93
552.33	35.97
552.674	35.95
553.017	35.97
553.361	36.43
553.704	36.2
554.048	35.99
554.391	36.17
554.734	36.3
555.077	36.2
555.42	36.19
555.764	36.08
556.107	36.23
556.45	36.35
556.793	36.64
557.135	36.8
557.478	36.74
557.821	36.85
558.164	36.84
558.507	36.88
558.849	36.9
559.192	37.13
559.534	36.96
559.877	37.12
560.219	37.01
560.562	37.33
560.904	37.4
561.246	37.18
561.589	37.37
561.931	37.35
562.273	37.51
562.615	37.51
562.957	37.73
563.299	37.5
563.641	37.36
563.983	37.6
564.325	37.67
564.667	37.55
565.008	37.72
565.35	37.72
565.692	37.79
566.033	37.76
566.375	38.34
566.716	37.99
567.058	37.86
567.399	37.81
567.741	38.13
568.082	37.92
568.423	38.24
568.764	38.14
569.105	38.25
569.447	38.17
569.788	38.16
570.129	38.28
570.47	38.22
570.811	38.39
571.151	38.88
571.492	38.67
571.833	38.63
572.174	38.9
572.514	38.62
572.855	38.82
573.195	38.8
573.536	38.72
573.876	38.86
574.217	38.87
574.557	38.74
574.898	38.99
575.238	39.08
575.578	38.98
575.918	39.16
576.258	39.22
576.598	39.27
576.938	39.27
577.278	39.45
577.618	39.38
577.958	39.62
578.298	39.43
578.638	39.66
578.977	39.53
579.317	39.81
579.657	39.85
579.996	39.86
580.336	40.14
580.675	39.84
581.014	40.08
581.354	40.21
581.693	39.95
582.032	39.98
582.372	40.03
582.711	40.32
583.05	40.28
583.389	40.87
583.728	40.35
584.067	40.86
584.406	40.89
584.745	40.61
585.083	40.73
585.422	41.03
585.761	40.53
586.1	40.72
586.438	41.04
586.777	40.99
587.115	40.84
587.454	41.07
587.792	41.02
588.13	41.43
588.469	41.06
588.807	41.51
589.145	41.2
589.483	41.26
589.821	41.56
590.159	41.53
590.497	41.71
590.835	41.79
591.173	41.73
591.511	41.73
591.849	41.44
592.187	41.88
592.524	41.9
592.862	41.89
593.2	41.72
593.537	41.83
593.875	41.79
594.212	41.69
594.55	42.14
594.887	41.75
595.224	42.4
595.561	42.31
595.899	42.55
596.236	42.35
596.573	42.57
596.91	41.91
597.247	42.26
597.584	42.66
597.921	42.55
598.258	42.18
598.594	42.58
598.931	42.3
599.268	42.12
599.604	42.2
599.941	42.63
600.277	42.47
600.614	42.66
600.95	42.47
601.287	42.71
601.623	42.86
601.959	43.01
602.296	43.19
602.632	42.77
602.968	43.25
603.304	42.88
603.64	43.02
603.976	43.58
604.312	42.97
604.648	43.21
604.984	43.39
605.319	43.6
605.655	43.56
605.991	43.05
606.326	43.64
606.662	43.16
606.998	43.13
607.333	43.28
607.668	43.25
608.004	43.42
608.339	43.65
608.674	43.63
609.01	43.79
609.345	43.3
609.68	44.12
610.015	43.67
610.35	43.86
610.685	43.93
611.02	43.75
611.355	43.93
611.689	44
612.024	44.03
612.359	44.16
612.694	44.06
613.028	43.69
613.363	44.53
613.697	44.45
614.032	44.55
614.366	44.5
614.7	44.91
615.035	44.73
615.369	44.07
615.703	44.62
616.037	44.69
616.371	44.56
616.705	44.55
617.039	44.75
617.373	44.75
617.707	44.99
618.041	45.05
618.375	45.16
618.709	45.44
619.042	44.71
619.376	45.05
619.71	45.17
620.043	45.56
620.377	45.08
620.71	44.94
621.043	45.23
621.377	45.74
621.71	45.27
622.043	45.58
622.376	45.62
622.709	45.75
623.043	45.71
623.376	45.53
623.709	45.3
624.041	45.95
624.374	45.74
624.707	46.1
625.04	45.79
625.373	45.65
625.705	46.18
626.038	45.83
626.37	45.83
626.703	46.3
627.035	46.05
627.368	46.39
627.7	45.78
628.032	46.44
628.365	46.61
628.697	46.44
629.029	46.26
629.361	46.22
629.693	46.01
630.025	46.56
630.357	46.37
630.689	46.39
631.021	46.55
631.353	46.45
631.684	45.98
632.016	46.66
632.348	46.7
632.679	46.65
633.011	46.87
633.342	47.06
633.674	46.41
634.005	47.1
634.336	46.62
634.668	47.28
634.999	46.73
635.33	47.37
635.661	46.83
635.992	47.1
636.323	46.9
636.654	47.2
636.985	47.11
637.316	46.95
637.647	47.09
637.977	47.24
638.308	47.64
638.639	46.99
638.969	47.01
639.3	46.93
639.63	47.06
639.961	47.31
640.291	47.47
640.622	47.7
640.952	46.83
641.282	47.91
641.612	47.64
641.943	47.43
642.273	47.66
642.603	47.64
642.933	47.62
643.263	47.85
643.592	47.45
643.922	47.94
644.252	47.43
644.582	48.5
644.911	47.72
645.241	48.1
645.571	47.83
645.9	48.13
646.23	48.73
646.559	48.5
646.888	48.25
647.218	48.08
647.547	48.58
647.876	47.96
648.205	48.26
648.534	48.28
648.863	48.11
649.192	48.52
649.521	48.33
649.85	47.95
650.179	48.79
650.508	48.77
650.837	49.16
651.165	48.29
651.494	48.85
651.822	48.46
652.151	48.25
652.479	49.14
652.808	48.91
653.136	49.01
653.465	48.29
653.793	48.77
654.121	49
654.449	48.81
654.777	49
655.105	48.51
655.433	49.48
655.761	49.19
656.089	49.07
656.417	48.97
656.745	49.47
657.073	49.53
657.4	49.72
657.728	49.36
658.056	49.49
658.383	49.06
658.711	48.91
659.038	50.44
659.365	49.53
659.693	49.44
660.02	49.57
660.347	49.85
660.674	50.08
661.001	49.95
661.329	49.47
661.656	49.87
661.982	49.36
662.309	49.64
662.636	49.33
662.963	49.8
663.29	50.04
663.616	50.56
663.943	49.87
664.27	49.29
664.596	50.38
664.923	49.5
665.249	49.27
665.576	49.9
665.902	49.93
666.228	49.91
666.554	50.57
666.881	50.7
667.207	50.35
667.533	50.41
667.859	50.23
668.185	50.73
668.511	49.5
668.837	49.85
669.162	50.66
669.488	50.06
669.814	50.37
670.139	50.14
