Data from 21-11_chest_Reflection__4__64.txt Node

Date: Thu Dec 15 16:56:20 CST 2022
User: ToomeyLab
Spectrometer: FLMS14357
Trigger mode: 0
Integration Time (sec): 1.000000E-2
Scans to average: 100
Electric dark correction enabled: true
Nonlinearity correction enabled: false
Boxcar width: 0
XAxis mode: Wavelengths
Number of Pixels in Spectrum: 2048
>>>>>Begin Spectral Data<<<<<
189.047	30.72
189.435	30.72
189.823	30.72
190.211	374.19
190.599	114.13
190.987	-113.53
191.375	5.15
191.763	103.85
192.151	924.27
192.538	50.63
192.926	1217.37
193.314	15505.56
193.702	52.63
194.089	111.09
194.477	48.33
194.864	92.97
195.252	199.67
195.639	106.1
196.027	-20.28
196.414	40.73
196.801	128.98
197.189	154.21
197.576	-2293.9
197.963	-410.26
198.351	33.01
198.738	-17.27
199.125	-12.36
199.512	10.08
199.899	-15.32
200.286	7.42
200.673	47.14
201.06	12.6
201.447	22.06
201.833	-8.55
202.22	11.69
202.607	47.46
202.994	39.23
203.38	30.17
203.767	29.16
204.154	48.46
204.54	9.22
204.927	16.03
205.313	46.96
205.699	44.88
206.086	37.57
206.472	34
206.858	27.13
207.245	16.96
207.631	2.8
208.017	43.32
208.403	-30.09
208.789	72.25
209.175	7.29
209.561	-13.5
209.947	30.29
210.333	31.08
210.719	8.79
211.105	44.9
211.491	10.45
211.876	-11.3
212.262	12.08
212.648	35.18
213.034	9.99
213.419	26.22
213.805	16.5
214.19	20.41
214.576	22.72
214.961	44.3
215.346	13.24
215.732	2.01
216.117	7.36
216.502	-2.52
216.888	22.49
217.273	32.4
217.658	12.08
218.043	-6.09
218.428	-1.58
218.813	36.99
219.198	-33.96
219.583	16.22
219.968	-5.97
220.353	-19.13
220.738	8.76
221.122	2.58
221.507	10.69
221.892	1.8
222.276	-3.81
222.661	3.54
223.046	10.35
223.43	21.15
223.815	1.97
224.199	9.05
224.583	7.8
224.968	13.69
225.352	-0.94
225.736	12.77
226.121	4.16
226.505	6.92
226.889	6.95
227.273	4.34
227.657	1.45
228.041	6.23
228.425	2.66
228.809	-0.39
229.193	4.45
229.577	4.99
229.961	2.91
230.344	4.02
230.728	4.28
231.112	4
231.495	2.92
231.879	5.97
232.263	4.94
232.646	4.71
233.03	5.36
233.413	4.14
233.797	4.12
234.18	7.69
234.563	4.56
234.946	1.74
235.33	3.46
235.713	4.62
236.096	6.05
236.479	5.7
236.862	2.14
237.245	4.79
237.628	4.18
238.011	4.67
238.394	2.3
238.777	4.71
239.16	6.69
239.543	7
239.925	4.04
240.308	4.19
240.691	3.86
241.073	4.39
241.456	3.93
241.838	3.83
242.221	4.19
242.603	4.5
242.986	4.08
243.368	4.1
243.75	4.18
244.133	4.14
244.515	4.13
244.897	4.26
245.279	4.74
245.661	3.84
246.043	4.32
246.425	4.97
246.807	4.38
247.189	4.35
247.571	4.19
247.953	3.7
248.335	4.06
248.717	4.02
249.098	4.08
249.48	4.2
249.862	4.01
250.243	4.1
250.625	4.03
251.006	4.84
251.388	4.63
251.769	3.86
252.151	5.03
252.532	4.14
252.913	3.98
253.295	3.97
253.676	3.98
254.057	4.15
254.438	4.11
254.819	4.09
255.2	4.86
255.581	5.28
255.962	4.57
256.343	4.12
256.724	3.95
257.105	5.1
257.486	4.19
257.867	4.51
258.247	4.92
258.628	4.54
259.009	4.09
259.389	3.2
259.77	3.64
260.15	4.63
260.531	3.65
260.911	3.95
261.292	3.94
261.672	3.78
262.052	3.89
262.432	3.59
262.813	4.19
263.193	3.81
263.573	3.69
263.953	3.68
264.333	3.89
264.713	4.15
265.093	3.6
265.473	3.77
265.853	4.22
266.233	4.17
266.612	3.46
266.992	4.11
267.372	4.14
267.752	4.16
268.131	4
268.511	4.02
268.89	4.24
269.27	3.41
269.649	3.68
270.029	3.26
270.408	3.55
270.787	3.6
271.167	4.26
271.546	4.32
271.925	3.92
272.304	3.47
272.683	3.46
273.062	3.44
273.441	3.45
273.82	3.9
274.199	3.63
274.578	3.73
274.957	3.42
275.336	3.79
275.715	4.02
276.093	3.43
276.472	3.12
276.851	3.61
277.229	3.59
277.608	3.92
277.986	3.38
278.365	3.77
278.743	3.47
279.122	3.06
279.5	3.5
279.878	3.35
280.257	3.34
280.635	3.52
281.013	3.08
281.391	3.86
281.769	4.05
282.147	3.87
282.525	3.31
282.903	3.22
283.281	3.85
283.659	3.88
284.037	3.14
284.415	3.53
284.792	4.15
285.17	3.53
285.548	3.28
285.925	3.7
286.303	3.95
286.68	3.61
287.058	3.91
287.435	3.32
287.813	3.39
288.19	3.26
288.567	3.67
288.945	3.52
289.322	3.89
289.699	4.27
290.076	3.35
290.453	3.39
290.83	3.84
291.207	3.75
291.584	3.83
291.961	3.88
292.338	3.49
292.715	3.43
293.092	4.13
293.469	3.74
293.845	3.63
294.222	4.57
294.599	3.22
294.975	3.36
295.352	3.86
295.728	4.12
296.105	4.14
296.481	4.24
296.858	4.33
297.234	3.96
297.61	4.13
297.986	4.53
298.363	4.24
298.739	4.32
299.115	4.2
299.491	4.35
299.867	4.12
300.243	3.89
300.619	4.29
300.995	4.42
301.371	4.44
301.746	4.86
302.122	4.02
302.498	4.33
302.874	4.2
303.249	4.64
303.625	4.02
304	4.65
304.376	4.84
304.751	4.84
305.127	4.33
305.502	4.73
305.878	4.91
306.253	4.18
306.628	4.54
307.003	4.51
307.378	4.5
307.754	4.54
308.129	4.39
308.504	4.82
308.879	4.98
309.254	4.93
309.629	5.04
310.003	4.37
310.378	5.25
310.753	4.67
311.128	4.58
311.502	4.6
311.877	4.56
312.252	5.17
312.626	5.37
313.001	4.44
313.375	5.17
313.75	5.25
314.124	5.27
314.498	5.12
314.873	4.6
315.247	4.61
315.621	5.49
315.995	5.11
316.369	4.59
316.743	4.94
317.117	4.6
317.491	5.21
317.865	4.87
318.239	5.67
318.613	4.45
318.987	5.06
319.361	4.93
319.734	5.25
320.108	5.59
320.482	5.11
320.855	5.04
321.229	5.14
321.602	5.6
321.976	4.18
322.349	5.79
322.723	4.71
323.096	5.07
323.469	4.99
323.843	4.93
324.216	5.16
324.589	5.57
324.962	4.84
325.335	5.05
325.708	4.99
326.081	5.16
326.454	5.31
326.827	5.7
327.2	4.88
327.573	5.63
327.945	5.09
328.318	5.1
328.691	5.23
329.063	4.85
329.436	4.94
329.809	5.15
330.181	5.78
330.553	5.39
330.926	5.76
331.298	5.12
331.671	5.13
332.043	5.54
332.415	5.56
332.787	5.69
333.159	4.82
333.532	5.08
333.904	5.04
334.276	5.51
334.648	5.51
335.02	5.32
335.391	5.6
335.763	5.4
336.135	5.42
336.507	5.41
336.879	5.03
337.25	5.56
337.622	5.73
337.993	5.63
338.365	5.23
338.736	5.39
339.108	5.32
339.479	5.82
339.851	5.35
340.222	5.72
340.593	5
340.964	5.63
341.336	5.16
341.707	5.28
342.078	5.22
342.449	5.07
342.82	5.53
343.191	5.21
343.562	5.26
343.933	5.35
344.303	5.74
344.674	5.18
345.045	5.47
345.416	5.59
345.786	5.73
346.157	5.7
346.527	5.09
346.898	5.34
347.268	5.54
347.639	5.37
348.009	5.4
348.38	5.45
348.75	5.8
349.12	5.4
349.49	5.81
349.861	5.43
350.231	5.21
350.601	5.31
350.971	5.05
351.341	5.48
351.711	5.51
352.081	5.03
352.45	5.08
352.82	5.33
353.19	5.12
353.56	5.51
353.929	5.71
354.299	5.71
354.669	5.5
355.038	5.5
355.408	5.68
355.777	5.82
356.147	5.29
356.516	5.3
356.885	5.58
357.254	5.4
357.624	5.42
357.993	5.47
358.362	5.7
358.731	5.72
359.1	5.65
359.469	5.55
359.838	5.38
360.207	5.54
360.576	5.61
360.945	5.48
361.314	5.52
361.682	5.37
362.051	5.48
362.42	5.49
362.788	5.75
363.157	5.61
363.525	5.7
363.894	5.34
364.262	5.56
364.631	5.6
364.999	5.58
365.367	5.7
365.735	5.52
366.104	5.32
366.472	5.68
366.84	5.6
367.208	5.83
367.576	5.48
367.944	5.75
368.312	5.82
368.68	6
369.048	5.86
369.416	5.57
369.783	5.86
370.151	6.09
370.519	6.07
370.886	6.01
371.254	6.08
371.621	5.87
371.989	5.69
372.356	5.75
372.724	5.95
373.091	5.59
373.458	5.62
373.826	5.86
374.193	6
374.56	5.98
374.927	5.61
375.294	6.1
375.661	5.87
376.028	5.9
376.395	6.14
376.762	5.68
377.129	5.52
377.496	5.55
377.863	5.74
378.229	5.83
378.596	5.87
378.963	6.06
379.329	5.8
379.696	5.67
380.062	5.66
380.429	5.51
380.795	6.09
381.161	5.85
381.528	5.85
381.894	5.95
382.26	5.98
382.626	5.96
382.993	6.21
383.359	5.81
383.725	5.71
384.091	5.99
384.457	5.96
384.823	5.92
385.188	5.78
385.554	5.82
385.92	5.75
386.286	5.52
386.651	5.69
387.017	6.11
387.383	5.87
387.748	5.84
388.114	6.2
388.479	5.76
388.845	5.62
389.21	5.95
389.575	6.14
389.94	6.2
390.306	6.09
390.671	6.02
391.036	5.73
391.401	6.06
391.766	5.79
392.131	6.15
392.496	5.96
392.861	5.88
393.226	5.76
393.591	5.82
393.956	5.91
394.32	6.12
394.685	5.89
395.05	5.97
395.414	5.93
395.779	6.12
396.143	5.82
396.508	5.93
396.872	5.92
397.236	6.32
397.601	6.16
397.965	6.05
398.329	6.15
398.694	6.07
399.058	5.95
399.422	6.02
399.786	5.91
400.15	6.09
400.514	6.07
400.878	6.1
401.242	5.83
401.605	6.09
401.969	5.95
402.333	6.18
402.697	6.31
403.06	6.3
403.424	6.31
403.787	6.19
404.151	5.97
404.514	6.01
404.878	5.99
405.241	6.24
405.604	6.03
405.968	6.06
406.331	6.18
406.694	6.03
407.057	5.74
407.42	6.06
407.783	6.26
408.146	6.17
408.509	6.1
408.872	6.3
409.235	6.45
409.598	6.27
409.961	6.37
410.323	6.13
410.686	5.91
411.049	6.13
411.411	6.05
411.774	5.93
412.136	6.14
412.499	6.2
412.861	5.87
413.223	5.93
413.586	6.18
413.948	6.21
414.31	6.11
414.672	6.23
415.035	6.15
415.397	6.05
415.759	6.05
416.121	6.33
416.483	6.14
416.845	6.08
417.206	6.13
417.568	6.14
417.93	6.17
418.292	5.97
418.653	5.95
419.015	6.04
419.377	6.07
419.738	6.1
420.1	6.16
420.461	5.92
420.822	6.13
421.184	6.08
421.545	6.16
421.906	6.12
422.267	6.08
422.629	6.03
422.99	6.03
423.351	5.98
423.712	6.08
424.073	6.21
424.434	6.19
424.795	6.08
425.155	6.05
425.516	6.02
425.877	6.08
426.238	6.1
426.598	6.17
426.959	6.13
427.32	6.06
427.68	6.16
428.041	6.23
428.401	6.05
428.761	6.41
429.122	6.41
429.482	6.3
429.842	6.31
430.202	6.37
430.563	6.35
430.923	6.4
431.283	6.37
431.643	6.41
432.003	6.46
432.363	6.5
432.722	6.36
433.082	6.38
433.442	6.6
433.802	6.29
434.161	6.43
434.521	6.45
434.881	6.5
435.24	6.33
435.6	6.41
435.959	6.45
436.319	6.46
436.678	6.51
437.037	6.38
437.396	6.42
437.756	6.46
438.115	6.47
438.474	6.5
438.833	6.52
439.192	6.41
439.551	6.32
439.91	6.41
440.269	6.35
440.628	6.35
440.987	6.46
441.345	6.5
441.704	6.41
442.063	6.37
442.421	6.48
442.78	6.37
443.138	6.47
443.497	6.42
443.855	6.7
444.214	6.4
444.572	6.67
444.93	6.59
445.288	6.65
445.647	6.47
446.005	6.67
446.363	6.6
446.721	6.49
447.079	6.48
447.437	6.48
447.795	6.56
448.153	6.42
448.51	6.6
448.868	6.51
449.226	6.46
449.584	6.54
449.941	6.61
450.299	6.58
450.656	6.6
451.014	6.77
451.371	6.72
451.729	6.7
452.086	6.71
452.443	6.76
452.801	6.75
453.158	6.81
453.515	6.67
453.872	6.7
454.229	6.57
454.586	6.59
454.943	6.72
455.3	6.91
455.657	6.78
456.014	6.74
456.371	6.86
456.727	7
457.084	6.94
457.441	6.89
457.797	6.81
458.154	6.75
458.51	6.78
458.867	6.83
459.223	6.84
459.58	6.9
459.936	6.8
460.292	6.82
460.648	6.65
461.005	6.64
461.361	6.67
461.717	6.67
462.073	6.83
462.429	6.81
462.785	6.92
463.141	6.91
463.496	6.98
463.852	7.07
464.208	6.96
464.564	6.97
464.919	6.98
465.275	6.92
465.631	7.23
465.986	7.15
466.342	7.12
466.697	7.07
467.052	7.12
467.408	7.04
467.763	7.04
468.118	6.87
468.473	7.02
468.829	6.97
469.184	7.02
469.539	7.08
469.894	7.09
470.249	7.19
470.603	7.15
470.958	7.3
471.313	7.06
471.668	7.21
472.023	7.13
472.377	7.16
472.732	7.26
473.086	7.05
473.441	7.1
473.795	7.34
474.15	7.06
474.504	7.13
474.859	7.05
475.213	7.06
475.567	7.2
475.921	7.2
476.275	7.26
476.63	7.31
476.984	7.16
477.338	7.28
477.692	7.24
478.045	7.29
478.399	7.23
478.753	7.09
479.107	7.17
479.461	7.18
479.814	7.22
480.168	7.2
480.521	7.24
480.875	7.32
481.228	7.23
481.582	7.18
481.935	7.39
482.289	7.27
482.642	7.36
482.995	7.21
483.348	7.18
483.701	7.22
484.055	7.12
484.408	7.1
484.761	7
485.114	6.85
485.466	6.79
485.819	6.82
486.172	6.89
486.525	6.97
486.878	7.11
487.23	7.14
487.583	7.16
487.936	7.1
488.288	7.08
488.641	7.02
488.993	7.07
489.345	7.01
489.698	7.05
490.05	7.02
490.402	7.14
490.754	7.2
491.107	7.2
491.459	7.34
491.811	7.38
492.163	7.32
492.515	7.25
492.866	7.07
493.218	7.12
493.57	7.22
493.922	7.19
494.274	7.31
494.625	7.45
494.977	7.47
495.328	7.55
495.68	7.56
496.031	7.57
496.383	7.5
496.734	7.53
497.086	7.56
497.437	7.66
497.788	7.57
498.139	7.46
498.49	7.56
498.842	7.54
499.193	7.51
499.544	7.63
499.894	7.46
500.245	7.7
500.596	7.62
500.947	7.71
501.298	7.64
501.648	7.75
501.999	7.89
502.35	7.57
502.7	7.81
503.051	7.69
503.401	7.79
503.752	7.79
504.102	7.72
504.452	7.64
504.803	7.74
505.153	7.87
505.503	7.79
505.853	7.95
506.203	7.86
506.553	7.81
506.903	7.82
507.253	7.72
507.603	7.91
507.953	7.77
508.303	7.92
508.652	7.8
509.002	8
509.352	7.93
509.701	7.77
510.051	7.89
510.4	7.86
510.75	7.81
511.099	7.74
511.449	7.92
511.798	7.84
512.147	7.77
512.496	7.9
512.846	7.81
513.195	7.89
513.544	7.98
513.893	7.88
514.242	7.9
514.591	7.9
514.939	7.99
515.288	8.14
515.637	8
515.986	8.08
516.334	8.22
516.683	8.11
517.032	8.08
517.38	8.06
517.729	8.11
518.077	8.14
518.426	8.17
518.774	8.05
519.122	8.02
519.47	7.99
519.819	8.01
520.167	7.94
520.515	8.01
520.863	8.03
521.211	7.93
521.559	8.03
521.907	8.19
522.255	8.15
522.602	8.16
522.95	8.27
523.298	8.3
523.645	8.28
523.993	8.28
524.341	8.27
524.688	8.24
525.036	8.27
525.383	8.32
525.73	8.17
526.078	8.28
526.425	8.27
526.772	8.23
527.119	8.19
527.466	8.25
527.814	8.18
528.161	8.28
528.508	8.31
528.854	8.22
529.201	8.21
529.548	8.08
529.895	7.99
530.242	7.99
530.588	8.03
530.935	8.08
531.282	8.09
531.628	8.17
531.975	8.22
532.321	8.36
532.667	8.4
533.014	8.42
533.36	8.4
533.706	8.43
534.052	8.38
534.399	8.31
534.745	8.27
535.091	8.24
535.437	8.36
535.783	8.4
536.129	8.3
536.474	8.55
536.82	8.72
537.166	8.59
537.512	8.63
537.857	8.59
538.203	8.6
538.549	8.53
538.894	8.61
539.239	8.74
539.585	8.75
539.93	8.76
540.276	8.76
540.621	8.93
540.966	8.84
541.311	8.91
541.656	8.68
542.001	8.76
542.346	8.6
542.691	8.57
543.036	8.58
543.381	8.6
543.726	8.7
544.071	8.71
544.415	8.73
544.76	8.74
545.105	8.86
545.449	8.88
545.794	8.92
546.138	8.93
546.483	9.07
546.827	8.97
547.171	9.01
547.516	9.03
547.86	9.02
548.204	9
548.548	9
548.892	9.06
549.236	9.15
549.58	9.22
549.924	9.27
550.268	9.44
550.612	9.49
550.956	9.37
551.3	9.37
551.643	9.41
551.987	9.55
552.33	9.58
552.674	9.36
553.017	9.41
553.361	9.58
553.704	9.54
554.048	9.51
554.391	9.55
554.734	9.44
555.077	9.53
555.42	9.46
555.764	9.52
556.107	9.72
556.45	9.73
556.793	9.61
557.135	9.75
557.478	9.6
557.821	9.72
558.164	9.96
558.507	9.65
558.849	10.01
559.192	9.85
559.534	9.78
559.877	9.89
560.219	9.82
560.562	9.92
560.904	9.98
561.246	9.95
561.589	10.09
561.931	9.95
562.273	10.01
562.615	9.94
562.957	10
563.299	10
563.641	10.06
563.983	9.89
564.325	10.12
564.667	10.09
565.008	9.97
565.35	10.04
565.692	10.04
566.033	10.09
566.375	10
566.716	10.1
567.058	10.19
567.399	10.26
567.741	10.29
568.082	10.38
568.423	10.19
568.764	10.11
569.105	10.31
569.447	10.31
569.788	10.19
570.129	10.27
570.47	10.33
570.811	10.3
571.151	10.54
571.492	10.57
571.833	10.27
572.174	10.5
572.514	10.46
572.855	10.61
573.195	10.35
573.536	10.61
573.876	10.45
574.217	10.48
574.557	10.45
574.898	10.38
575.238	10.7
575.578	10.65
575.918	10.61
576.258	10.79
576.598	10.66
576.938	10.62
577.278	10.7
577.618	10.78
577.958	10.88
578.298	10.96
578.638	10.88
578.977	10.94
579.317	10.92
579.657	10.78
579.996	11.05
580.336	11.04
580.675	10.91
581.014	11.08
581.354	10.85
581.693	11.14
582.032	11.28
582.372	11.12
582.711	11.35
583.05	11.19
583.389	11.44
583.728	11.54
584.067	11.13
584.406	11.5
584.745	11.17
585.083	11.32
585.422	11.51
585.761	11.54
586.1	11.81
586.438	11.49
586.777	11.49
587.115	11.41
587.454	11.5
587.792	11.51
588.13	11.47
588.469	11.59
588.807	11.79
589.145	11.69
589.483	11.57
589.821	11.73
590.159	11.72
590.497	11.73
590.835	11.53
591.173	11.63
591.511	11.7
591.849	11.97
592.187	11.79
592.524	12.01
592.862	11.8
593.2	12
593.537	11.96
593.875	11.84
594.212	11.85
594.55	11.81
594.887	11.95
595.224	11.95
595.561	12
595.899	12.02
596.236	12.2
596.573	11.97
596.91	11.86
597.247	12.25
597.584	12.32
597.921	11.94
598.258	12.15
598.594	11.91
598.931	11.95
599.268	12.1
599.604	12.23
599.941	12.18
600.277	12.14
600.614	12.21
600.95	12.3
601.287	12.12
601.623	12.06
601.959	12.6
602.296	12.41
602.632	12.45
602.968	12.37
603.304	12.4
603.64	12.45
603.976	12.27
604.312	12.5
604.648	12.57
604.984	12.65
605.319	12.55
605.655	12.41
605.991	12.55
606.326	12.53
606.662	12.35
606.998	12.53
607.333	12.62
607.668	12.78
608.004	12.53
608.339	12.5
608.674	12.81
609.01	12.91
609.345	12.79
609.68	12.88
610.015	12.95
610.35	12.92
610.685	12.69
611.02	12.79
611.355	12.95
611.689	13.07
612.024	12.77
612.359	12.98
612.694	12.98
613.028	12.99
613.363	13.11
613.697	13.16
614.032	13.06
614.366	13.14
614.7	13.41
615.035	13.35
615.369	13.63
615.703	13.14
616.037	13.68
616.371	13.3
616.705	13.45
617.039	13.45
617.373	13.45
617.707	13.93
618.041	13.42
618.375	13.22
618.709	13.9
619.042	13.71
619.376	13.54
619.71	13.67
620.043	14.13
620.377	13.72
620.71	13.5
621.043	14.07
621.377	13.8
621.71	14.19
622.043	14.15
622.376	13.9
622.709	13.94
623.043	13.75
623.376	13.9
623.709	14.14
624.041	13.82
624.374	13.73
624.707	14.31
625.04	14.04
625.373	13.84
625.705	14.29
626.038	14.09
626.37	14.04
626.703	14.07
627.035	14.55
627.368	14.3
627.7	14.31
628.032	14.02
628.365	14.5
628.697	14.32
629.029	14.27
629.361	14.3
629.693	14.17
630.025	14.31
630.357	14.64
630.689	14.67
631.021	14.61
631.353	14.27
631.684	14.15
632.016	14.25
632.348	14.55
632.679	14.73
633.011	14.32
633.342	14.49
633.674	14.52
634.005	14.68
634.336	14.68
634.668	14.61
634.999	14.59
635.33	14.73
635.661	14.55
635.992	14.89
636.323	15.03
636.654	14.78
636.985	14.49
637.316	14.81
637.647	14.6
637.977	14.71
638.308	15.37
638.639	14.87
638.969	14.9
639.3	15.1
639.63	14.85
639.961	14.98
640.291	14.74
640.622	15.2
640.952	15.27
641.282	14.75
641.612	15.02
641.943	15.04
642.273	15.16
642.603	15.68
642.933	15.19
643.263	15.39
643.592	15.69
643.922	15.41
644.252	15.49
644.582	15.72
644.911	15.55
645.241	15.47
645.571	15.73
645.9	15.67
646.23	15.73
646.559	15.09
646.888	15.81
647.218	15.45
647.547	15.51
647.876	15.66
648.205	15.35
648.534	15.82
648.863	15.72
649.192	15.58
649.521	15.81
649.85	15.99
650.179	15.56
650.508	15.82
650.837	15.89
651.165	16.02
651.494	16.06
651.822	16.12
652.151	15.82
652.479	15.92
652.808	16.01
653.136	15.97
653.465	15.9
653.793	16.18
654.121	15.58
654.449	16.05
654.777	15.86
655.105	15.53
655.433	16.13
655.761	16.16
656.089	16.09
656.417	16.28
656.745	16.61
657.073	16.39
657.4	15.98
657.728	16.15
658.056	16.44
658.383	16.19
658.711	15.95
659.038	16.48
659.365	16.63
659.693	16.18
660.02	16.69
660.347	16.36
660.674	16.21
661.001	16.55
661.329	16.4
661.656	16.02
661.982	16.11
662.309	16.47
662.636	16.36
662.963	16.68
663.29	17.19
663.616	16.55
663.943	16.65
664.27	17.03
664.596	16.65
664.923	16.81
665.249	16.81
665.576	16.64
665.902	16.86
666.228	16.92
666.554	17.35
666.881	17.01
667.207	17.19
667.533	16.87
667.859	16.54
668.185	17.11
668.511	17.23
668.837	16.66
669.162	17.01
669.488	16.76
669.814	17.11
670.139	16.88
670.465	17.47
670.791	16.75
671.116	16.72
671.442	16.51
671.767	16.91
672.092	17.17
672.418	17.53
672.743	16.89
673.068	17.03
673.393	17.43
673.718	16.99
674.043	17.15
674.368	16.84
674.693	17.33
675.018	17.82
675.343	18.16
675.667	17.3
675.992	17.44
676.317	16.79
676.641	17.66
676.966	17.69
677.29	17.38
677.615	17.49
677.939	18.09
678.264	17.95
678.588	17.89
678.912	17.43
679.236	17.8
679.56	17.46
679.885	17.48
680.209	17.91
680.532	18.28
680.856	18.47
681.18	18.42
681.504	18.26
681.828	17.63
682.152	17.8
682.475	17.93
682.799	17.93
683.122	17.66
683.446	17.51
683.769	18.2
684.093	18.15
684.416	17.79
684.739	17.95
685.062	18.36
