Data from 21-11_crown_Reflection__4__69.txt Node

Date: Thu Dec 15 16:58:16 CST 2022
User: ToomeyLab
Spectrometer: FLMS14357
Trigger mode: 0
Integration Time (sec): 1.000000E-2
Scans to average: 100
Electric dark correction enabled: true
Nonlinearity correction enabled: false
Boxcar width: 0
XAxis mode: Wavelengths
Number of Pixels in Spectrum: 2048
>>>>>Begin Spectral Data<<<<<
189.047	819.96
189.435	819.96
189.823	819.96
190.211	251.51
190.599	38.69
190.987	-87.6
191.375	-48.56
191.763	184.21
192.151	-576.14
192.538	42.06
192.926	3971.05
193.314	23505.56
193.702	107.02
194.089	37.24
194.477	109.79
194.864	13.11
195.252	440.55
195.639	96.48
196.027	113.84
196.414	41.14
196.801	-543.56
197.189	76.2
197.576	-3230.49
197.963	-299.01
198.351	-0.23
198.738	-19.42
199.125	-19.81
199.512	23.31
199.899	-26.09
200.286	-6.66
200.673	53.15
201.06	21.85
201.447	53.81
201.833	18.46
202.22	16.29
202.607	-46.1
202.994	43.36
203.38	-19.79
203.767	-14.92
204.154	30.8
204.54	26.77
204.927	1.61
205.313	28.24
205.699	37.53
206.086	42.36
206.472	31.98
206.858	4.84
207.245	-1.23
207.631	17.95
208.017	45.15
208.403	9.05
208.789	39.19
209.175	-0.93
209.561	-51.75
209.947	-0.47
210.333	-13.21
210.719	35.23
211.105	31.89
211.491	1.21
211.876	-8.46
212.262	20.35
212.648	16.81
213.034	29.05
213.419	2.13
213.805	-35.38
214.19	11.32
214.576	0.33
214.961	19.88
215.346	-10.09
215.732	23.78
216.117	33.88
216.502	8.79
216.888	21.65
217.273	-4.13
217.658	-5.29
218.043	-8.59
218.428	-9.89
218.813	21.03
219.198	-11.85
219.583	-12.64
219.968	34.24
220.353	-8.66
220.738	23.59
221.122	-6.3
221.507	7.91
221.892	5.95
222.276	-19.18
222.661	1.52
223.046	-10.53
223.43	16.21
223.815	19.85
224.199	-4.39
224.583	11.54
224.968	2.91
225.352	-0.9
225.736	10
226.121	5.39
226.505	-2.87
226.889	3.29
227.273	-2.05
227.657	1.32
228.041	2.56
228.425	-0.31
228.809	4.43
229.193	4.75
229.577	3.45
229.961	3.57
230.344	4.49
230.728	4.73
231.112	4.12
231.495	2.74
231.879	4.63
232.263	3.84
232.646	3.18
233.03	4.22
233.413	3.56
233.797	1.2
234.18	3.69
234.563	2.55
234.946	1.36
235.33	4.52
235.713	4.48
236.096	5.3
236.479	5.73
236.862	3.89
237.245	4.08
237.628	3.95
238.011	4.77
238.394	4.1
238.777	4.02
239.16	3.72
239.543	4.81
239.925	2.28
240.308	3.27
240.691	4.91
241.073	3.04
241.456	3.86
241.838	4.04
242.221	4.07
242.603	3.79
242.986	3.82
243.368	3.77
243.75	3.68
244.133	4.25
244.515	3.84
244.897	3.62
245.279	3.52
245.661	3.64
246.043	4.9
246.425	4.35
246.807	3.55
247.189	3.44
247.571	3.08
247.953	3.63
248.335	3.7
248.717	3.88
249.098	3.62
249.48	3.38
249.862	3.77
250.243	3.67
250.625	4.15
251.006	3.69
251.388	3.95
251.769	2.29
252.151	3.43
252.532	2.92
252.913	3.27
253.295	3.33
253.676	4.06
254.057	3.51
254.438	3.86
254.819	2.94
255.2	3.95
255.581	3.64
255.962	4.21
256.343	3.97
256.724	4.16
257.105	3.66
257.486	2.52
257.867	3.94
258.247	4.62
258.628	4.25
259.009	3.08
259.389	3.07
259.77	2.72
260.15	3.79
260.531	3.58
260.911	3.16
261.292	3.39
261.672	3.4
262.052	3.26
262.432	3.13
262.813	3.83
263.193	2.98
263.573	3.24
263.953	3.01
264.333	3.52
264.713	3.37
265.093	3.84
265.473	3.26
265.853	2.88
266.233	3.75
266.612	3.36
266.992	3.01
267.372	3.11
267.752	3.78
268.131	3.28
268.511	3.47
268.89	3.57
269.27	2.97
269.649	3.39
270.029	3.3
270.408	3.1
270.787	3.47
271.167	3.15
271.546	3.09
271.925	3.53
272.304	3.02
272.683	2.74
273.062	2.78
273.441	2.9
273.82	3.09
274.199	2.78
274.578	3.63
274.957	3.11
275.336	3.3
275.715	3.1
276.093	3.04
276.472	2.81
276.851	3.09
277.229	3.22
277.608	2.76
277.986	3.51
278.365	2.72
278.743	3.27
279.122	3.02
279.5	3.54
279.878	3.49
280.257	3.27
280.635	3.37
281.013	2.83
281.391	3.31
281.769	3.22
282.147	2.83
282.525	2.98
282.903	2.82
283.281	3.03
283.659	3.33
284.037	2.89
284.415	3.28
284.792	3.08
285.17	2.71
285.548	2.85
285.925	3.03
286.303	3.51
286.68	3.12
287.058	2.88
287.435	2.76
287.813	2.82
288.19	2.91
288.567	2.88
288.945	3.11
289.322	2.83
289.699	3.32
290.076	2.61
290.453	2.64
290.83	2.92
291.207	2.98
291.584	2.89
291.961	3.17
292.338	2.94
292.715	2.88
293.092	3.46
293.469	3.41
293.845	2.56
294.222	3.29
294.599	2.78
294.975	2.36
295.352	2.98
295.728	2.73
296.105	2.97
296.481	3.09
296.858	2.87
297.234	2.69
297.61	2.79
297.986	3.23
298.363	3.03
298.739	3.22
299.115	2.88
299.491	2.97
299.867	2.91
300.243	2.89
300.619	2.54
300.995	3.16
301.371	3.14
301.746	3.36
302.122	2.56
302.498	3.18
302.874	2.93
303.249	2.73
303.625	2.6
304	2.5
304.376	3.21
304.751	3.18
305.127	2.72
305.502	2.65
305.878	2.88
306.253	2.48
306.628	2.96
307.003	2.9
307.378	2.6
307.754	3.41
308.129	2.35
308.504	3.42
308.879	2.88
309.254	3.37
309.629	2.58
310.003	2.79
310.378	3.06
310.753	3.31
311.128	3.05
311.502	2.93
311.877	2.35
312.252	2.81
312.626	3.29
313.001	3.18
313.375	3.17
313.75	2.79
314.124	3.16
314.498	3.16
314.873	3.31
315.247	2.56
315.621	2.59
315.995	2.87
316.369	2.56
316.743	2.62
317.117	3.09
317.491	3.16
317.865	2.5
318.239	3.46
318.613	2.65
318.987	2.71
319.361	3.23
319.734	2.81
320.108	2.47
320.482	3.12
320.855	2.82
321.229	3.62
321.602	3.28
321.976	2.36
322.349	3.17
322.723	2.98
323.096	3
323.469	2.81
323.843	2.34
324.216	3.18
324.589	3.12
324.962	2.75
325.335	2.48
325.708	2.74
326.081	3.07
326.454	3.29
326.827	2.65
327.2	2.88
327.573	3.38
327.945	2.49
328.318	3.08
328.691	2.93
329.063	2.53
329.436	2.64
329.809	3.31
330.181	3.55
330.553	3.32
330.926	3.18
331.298	2.97
331.671	3.38
332.043	2.48
332.415	2.96
332.787	3.07
333.159	2.71
333.532	3.18
333.904	2.95
334.276	2.71
334.648	2.88
335.02	2.96
335.391	2.74
335.763	2.6
336.135	3.26
336.507	2.67
336.879	2.94
337.25	2.93
337.622	2.98
337.993	3.03
338.365	2.91
338.736	3.31
339.108	2.92
339.479	2.93
339.851	3.04
340.222	2.98
340.593	3.43
340.964	2.9
341.336	2.76
341.707	2.87
342.078	2.99
342.449	3.13
342.82	2.7
343.191	2.92
343.562	2.7
343.933	2.65
344.303	2.98
344.674	2.74
345.045	3.16
345.416	3.39
345.786	2.95
346.157	2.96
346.527	3.15
346.898	2.69
347.268	3.08
347.639	3.11
348.009	3.26
348.38	2.66
348.75	3.52
349.12	3.12
349.49	3.06
349.861	3.39
350.231	2.86
350.601	2.89
350.971	2.95
351.341	2.98
351.711	2.92
352.081	2.77
352.45	2.71
352.82	2.76
353.19	2.75
353.56	2.95
353.929	2.88
354.299	3.09
354.669	2.72
355.038	2.98
355.408	2.74
355.777	3.46
356.147	3.11
356.516	2.95
356.885	3.12
357.254	2.82
357.624	2.81
357.993	2.82
358.362	3.24
358.731	3.53
359.1	2.87
359.469	3.15
359.838	3.08
360.207	3.23
360.576	3.08
360.945	3.38
361.314	3.14
361.682	3.07
362.051	3.03
362.42	3.1
362.788	3.16
363.157	3.07
363.525	3.09
363.894	2.96
364.262	3.04
364.631	3.33
364.999	3.04
365.367	2.91
365.735	3
366.104	2.88
366.472	2.84
366.84	3.12
367.208	3.25
367.576	2.94
367.944	2.91
368.312	2.92
368.68	3.55
369.048	3.29
369.416	3.25
369.783	3.27
370.151	3.48
370.519	3.29
370.886	3.05
371.254	3.4
371.621	3.14
371.989	3.25
372.356	3.33
372.724	3.32
373.091	3.06
373.458	3
373.826	3.25
374.193	2.89
374.56	3.07
374.927	2.83
375.294	3.23
375.661	3.32
376.028	3.28
376.395	3.29
376.762	2.98
377.129	2.97
377.496	3.26
377.863	3.13
378.229	3.35
378.596	3.32
378.963	3.15
379.329	2.96
379.696	3
380.062	2.99
380.429	3.02
380.795	3.47
381.161	3.03
381.528	3.09
381.894	3.26
382.26	3.18
382.626	3.06
382.993	3.39
383.359	3.18
383.725	3.17
384.091	3.33
384.457	3.06
384.823	3.31
385.188	3.46
385.554	3.33
385.92	3.09
386.286	3.17
386.651	3.01
387.017	3.41
387.383	3.06
387.748	3.58
388.114	3.17
388.479	3.16
388.845	3.16
389.21	3.57
389.575	3.5
389.94	3.29
390.306	3.11
390.671	3.29
391.036	3.25
391.401	3.33
391.766	3.15
392.131	3.51
392.496	3.28
392.861	3.16
393.226	3.32
393.591	3.34
393.956	3.32
394.32	3.65
394.685	3.46
395.05	3.28
395.414	3.13
395.779	3.49
396.143	3.14
396.508	3.32
396.872	3.33
397.236	3.54
397.601	3.38
397.965	3.03
398.329	3.35
398.694	3.21
399.058	3.47
399.422	3.33
399.786	3.25
400.15	3.33
400.514	3.41
400.878	3.31
401.242	3.6
401.605	3.37
401.969	3.23
402.333	3.44
402.697	3.43
403.06	3.5
403.424	3.46
403.787	3.38
404.151	3.27
404.514	3.46
404.878	3.16
405.241	3.37
405.604	3.26
405.968	3.37
406.331	3.51
406.694	3.42
407.057	3.18
407.42	3.24
407.783	3.27
408.146	3.42
408.509	3.35
408.872	3.38
409.235	3.38
409.598	3.38
409.961	3.47
410.323	3.34
410.686	3.42
411.049	3.23
411.411	3.48
411.774	3.19
412.136	3.23
412.499	3.68
412.861	3.16
413.223	3.25
413.586	3.37
413.948	3.55
414.31	3.51
414.672	3.22
415.035	3.56
415.397	3.44
415.759	3.1
416.121	3.28
416.483	3.5
416.845	3.43
417.206	3.41
417.568	3.35
417.93	3.41
418.292	3.38
418.653	3.16
419.015	3.21
419.377	3.21
419.738	3.4
420.1	3.31
420.461	3.16
420.822	3.24
421.184	3.29
421.545	3.36
421.906	3.31
422.267	3.36
422.629	3.27
422.99	3.23
423.351	3.19
423.712	3.3
424.073	3.38
424.434	3.39
424.795	3.28
425.155	3.24
425.516	3.22
425.877	3.27
426.238	3.35
426.598	3.31
426.959	3.35
427.32	3.24
427.68	3.41
428.041	3.53
428.401	3.27
428.761	3.55
429.122	3.43
429.482	3.44
429.842	3.5
430.202	3.53
430.563	3.5
430.923	3.37
431.283	3.53
431.643	3.57
432.003	3.58
432.363	3.61
432.722	3.42
433.082	3.34
433.442	3.56
433.802	3.56
434.161	3.43
434.521	3.47
434.881	3.43
435.24	3.45
435.6	3.48
435.959	3.48
436.319	3.42
436.678	3.53
437.037	3.49
437.396	3.49
437.756	3.5
438.115	3.53
438.474	3.43
438.833	3.5
439.192	3.43
439.551	3.35
439.91	3.56
440.269	3.41
440.628	3.41
440.987	3.52
441.345	3.53
441.704	3.56
442.063	3.41
442.421	3.49
442.78	3.43
443.138	3.47
443.497	3.34
443.855	3.51
444.214	3.31
444.572	3.61
444.93	3.47
445.288	3.48
445.647	3.46
446.005	3.52
446.363	3.44
446.721	3.53
447.079	3.53
447.437	3.47
447.795	3.46
448.153	3.4
448.51	3.44
448.868	3.38
449.226	3.49
449.584	3.44
449.941	3.52
450.299	3.47
450.656	3.37
451.014	3.63
451.371	3.5
451.729	3.58
452.086	3.51
452.443	3.65
452.801	3.55
453.158	3.75
453.515	3.44
453.872	3.48
454.229	3.45
454.586	3.44
454.943	3.64
455.3	3.54
455.657	3.55
456.014	3.64
456.371	3.57
456.727	3.62
457.084	3.67
457.441	3.59
457.797	3.59
458.154	3.55
458.51	3.54
458.867	3.45
459.223	3.46
459.58	3.66
459.936	3.48
460.292	3.5
460.648	3.44
461.005	3.41
461.361	3.38
461.717	3.48
462.073	3.56
462.429	3.62
462.785	3.61
463.141	3.53
463.496	3.68
463.852	3.61
464.208	3.54
464.564	3.54
464.919	3.58
465.275	3.56
465.631	3.73
465.986	3.57
466.342	3.57
466.697	3.5
467.052	3.72
467.408	3.69
467.763	3.67
468.118	3.5
468.473	3.63
468.829	3.38
469.184	3.59
469.539	3.58
469.894	3.61
470.249	3.49
470.603	3.61
470.958	3.69
471.313	3.72
471.668	3.55
472.023	3.68
472.377	3.51
472.732	3.77
473.086	3.59
473.441	3.63
473.795	3.84
474.15	3.65
474.504	3.66
474.859	3.49
475.213	3.72
475.567	3.56
475.921	3.66
476.275	3.64
476.63	3.52
476.984	3.53
477.338	3.78
477.692	3.58
478.045	3.52
478.399	3.61
478.753	3.6
479.107	3.64
479.461	3.69
479.814	3.65
480.168	3.59
480.521	3.7
480.875	3.59
481.228	3.57
481.582	3.64
481.935	3.67
482.289	3.6
482.642	3.7
482.995	3.59
483.348	3.55
483.701	3.6
484.055	3.5
484.408	3.52
484.761	3.35
485.114	3.3
485.466	3.33
485.819	3.35
486.172	3.4
486.525	3.44
486.878	3.5
487.23	3.52
487.583	3.56
487.936	3.49
488.288	3.49
488.641	3.44
488.993	3.38
489.345	3.41
489.698	3.43
490.05	3.42
490.402	3.45
490.754	3.53
491.107	3.53
491.459	3.59
491.811	3.55
492.163	3.57
492.515	3.47
492.866	3.42
493.218	3.43
493.57	3.51
493.922	3.53
494.274	3.61
494.625	3.65
494.977	3.62
495.328	3.71
495.68	3.64
496.031	3.68
496.383	3.7
496.734	3.63
497.086	3.7
497.437	3.75
497.788	3.76
498.139	3.63
498.49	3.68
498.842	3.62
499.193	3.54
499.544	3.72
499.894	3.6
500.245	3.67
500.596	3.59
500.947	3.64
501.298	3.64
501.648	3.68
501.999	3.83
502.35	3.58
502.7	3.91
503.051	3.53
503.401	3.87
503.752	3.63
504.102	3.58
504.452	3.61
504.803	3.66
505.153	3.74
505.503	3.74
505.853	3.81
506.203	3.81
506.553	3.57
506.903	3.71
507.253	3.63
507.603	3.66
507.953	3.68
508.303	3.85
508.652	3.57
509.002	3.7
509.352	3.71
509.701	3.55
510.051	3.65
510.4	3.68
510.75	3.57
511.099	3.57
511.449	3.74
511.798	3.63
512.147	3.61
512.496	3.72
512.846	3.63
513.195	3.62
513.544	3.74
513.893	3.66
514.242	3.6
514.591	3.59
514.939	3.75
515.288	3.76
515.637	3.56
515.986	3.75
516.334	3.73
516.683	3.73
517.032	3.69
517.38	3.7
517.729	3.7
518.077	3.63
518.426	3.79
518.774	3.63
519.122	3.59
519.47	3.57
519.819	3.56
520.167	3.57
520.515	3.57
520.863	3.57
521.211	3.62
521.559	3.69
521.907	3.69
522.255	3.65
522.602	3.7
522.95	3.73
523.298	3.75
523.645	3.67
523.993	3.81
524.341	3.7
524.688	3.6
525.036	3.7
525.383	3.8
525.73	3.51
526.078	3.72
526.425	3.66
526.772	3.67
527.119	3.6
527.466	3.62
527.814	3.62
528.161	3.68
528.508	3.68
528.854	3.57
529.201	3.5
529.548	3.49
529.895	3.48
530.242	3.46
530.588	3.46
530.935	3.5
531.282	3.49
531.628	3.55
531.975	3.57
532.321	3.61
532.667	3.68
533.014	3.69
533.36	3.68
533.706	3.57
534.052	3.61
534.399	3.51
534.745	3.47
535.091	3.45
535.437	3.51
535.783	3.56
536.129	3.68
536.474	3.71
536.82	3.76
537.166	3.59
537.512	3.59
537.857	3.59
538.203	3.57
538.549	3.53
538.894	3.65
539.239	3.63
539.585	3.69
539.93	3.68
540.276	3.59
540.621	3.82
540.966	3.63
541.311	3.74
541.656	3.59
542.001	3.54
542.346	3.56
542.691	3.52
543.036	3.49
543.381	3.48
543.726	3.55
544.071	3.61
544.415	3.58
544.76	3.53
545.105	3.57
545.449	3.59
545.794	3.63
546.138	3.66
546.483	3.71
546.827	3.66
547.171	3.74
547.516	3.72
547.86	3.6
548.204	3.66
548.548	3.73
548.892	3.68
549.236	3.67
549.58	3.79
549.924	3.73
550.268	3.76
550.612	3.78
550.956	3.8
551.3	3.84
551.643	3.83
551.987	3.76
552.33	3.96
552.674	3.62
553.017	3.7
553.361	3.73
553.704	3.75
554.048	3.7
554.391	3.75
554.734	3.73
555.077	3.77
555.42	3.62
555.764	3.74
556.107	3.83
556.45	3.82
556.793	3.94
557.135	3.82
557.478	3.67
557.821	3.88
558.164	3.76
558.507	3.71
558.849	3.98
559.192	3.86
559.534	3.71
559.877	3.73
560.219	3.82
560.562	3.84
560.904	3.83
561.246	3.68
561.589	4.05
561.931	3.93
562.273	3.74
562.615	3.84
562.957	3.72
563.299	3.82
563.641	3.86
563.983	3.75
564.325	3.86
564.667	3.85
565.008	3.78
565.35	3.58
565.692	3.83
566.033	3.76
566.375	3.84
566.716	3.65
567.058	3.71
567.399	3.74
567.741	3.79
568.082	3.72
568.423	3.57
568.764	3.77
569.105	3.79
569.447	3.68
569.788	3.77
570.129	3.77
570.47	3.82
570.811	3.75
571.151	3.78
571.492	3.72
571.833	3.67
572.174	3.76
572.514	3.72
572.855	3.9
573.195	3.71
573.536	3.91
573.876	3.78
574.217	3.63
574.557	3.77
574.898	3.67
575.238	3.76
575.578	3.83
575.918	3.76
576.258	3.83
576.598	3.61
576.938	3.68
577.278	3.81
577.618	3.74
577.958	4
578.298	3.67
578.638	3.74
578.977	3.82
579.317	3.75
579.657	3.65
579.996	4.01
580.336	4.03
580.675	3.85
581.014	3.71
581.354	3.6
581.693	3.75
582.032	3.81
582.372	3.78
582.711	3.81
583.05	3.82
583.389	3.76
583.728	3.98
584.067	3.58
584.406	3.83
584.745	3.68
585.083	3.81
585.422	3.96
585.761	3.86
586.1	3.85
586.438	3.59
586.777	3.89
587.115	3.86
587.454	3.53
587.792	3.81
588.13	3.75
588.469	3.83
588.807	3.82
589.145	3.84
589.483	3.7
589.821	3.73
590.159	3.74
590.497	4.01
590.835	3.93
591.173	3.87
591.511	4.05
591.849	3.99
592.187	3.6
592.524	3.85
592.862	3.6
593.2	4.02
593.537	3.76
593.875	3.73
594.212	3.8
594.55	4
594.887	3.76
595.224	4.06
595.561	3.81
595.899	3.86
596.236	3.89
596.573	3.83
596.91	3.76
597.247	3.95
597.584	3.86
597.921	3.73
598.258	3.71
598.594	3.75
598.931	3.63
599.268	3.45
599.604	3.91
599.941	3.73
600.277	3.72
600.614	3.75
600.95	3.82
601.287	3.62
601.623	3.36
601.959	4.04
602.296	3.96
602.632	3.68
602.968	3.64
603.304	3.83
603.64	3.78
603.976	3.64
604.312	3.62
604.648	3.78
604.984	3.86
605.319	3.67
605.655	3.77
605.991	3.69
606.326	3.73
606.662	3.69
606.998	3.82
607.333	3.69
607.668	3.55
608.004	3.6
608.339	3.52
608.674	3.74
609.01	3.99
609.345	3.71
609.68	3.76
610.015	3.86
610.35	3.87
610.685	3.67
611.02	3.62
611.355	3.57
611.689	3.6
612.024	3.68
612.359	3.84
612.694	3.73
613.028	3.62
613.363	3.76
613.697	3.72
614.032	3.79
614.366	3.58
614.7	3.61
615.035	3.68
615.369	3.89
615.703	4.03
616.037	4.02
616.371	3.7
616.705	3.79
617.039	3.98
617.373	3.88
617.707	3.85
618.041	3.8
618.375	3.38
618.709	3.98
619.042	3.77
619.376	3.88
619.71	3.65
620.043	3.67
620.377	4.06
620.71	3.77
621.043	4.01
621.377	3.75
621.71	4.14
622.043	4.03
622.376	3.84
622.709	4.05
623.043	3.64
623.376	3.56
623.709	3.88
624.041	3.69
624.374	3.56
624.707	3.67
625.04	3.72
625.373	3.84
625.705	3.81
626.038	3.84
626.37	3.86
626.703	3.94
627.035	3.63
627.368	4.07
627.7	3.79
628.032	3.69
628.365	4.03
628.697	4.03
629.029	3.64
629.361	4.13
629.693	3.79
630.025	3.83
630.357	3.97
630.689	3.87
631.021	3.85
631.353	3.98
631.684	3.61
632.016	3.5
632.348	3.28
632.679	3.9
633.011	3.68
633.342	3.85
633.674	3.74
634.005	3.57
634.336	4.14
634.668	3.98
634.999	3.65
635.33	3.72
635.661	3.64
635.992	3.78
636.323	3.74
636.654	3.82
636.985	3.71
637.316	3.8
637.647	3.88
637.977	3.96
638.308	3.89
638.639	3.8
638.969	3.74
639.3	4.09
639.63	3.58
639.961	3.72
640.291	3.32
640.622	3.97
640.952	4
641.282	3.62
641.612	3.56
641.943	3.57
642.273	3.33
642.603	4.35
642.933	4.01
643.263	3.54
643.592	4.23
643.922	3.98
644.252	3.74
644.582	3.84
644.911	3.7
645.241	3.59
645.571	4.08
645.9	3.99
646.23	4.17
646.559	3.46
646.888	4.28
647.218	3.67
647.547	3.61
647.876	4.08
648.205	3.47
648.534	3.73
648.863	3.85
649.192	4
649.521	3.8
649.85	3.76
650.179	3.96
650.508	4.03
650.837	3.85
651.165	3.9
651.494	3.95
651.822	4.13
652.151	3.44
652.479	4.14
652.808	4.19
653.136	3.73
653.465	3.32
653.793	4.06
654.121	4
654.449	3.71
654.777	3.2
655.105	3.27
655.433	4.03
655.761	3.67
656.089	4.05
656.417	4.56
656.745	4.21
657.073	3.82
657.4	3.78
657.728	3.66
658.056	4.05
658.383	3.81
658.711	4.08
659.038	4.06
659.365	4.1
659.693	3.9
660.02	3.9
660.347	4.09
660.674	3.53
661.001	3.9
661.329	3.54
661.656	3.67
661.982	3.8
662.309	3.92
662.636	4.02
662.963	3.96
663.29	4.24
663.616	3.4
663.943	4.07
664.27	4.23
664.596	3.93
664.923	4
665.249	3.76
665.576	3.92
665.902	3.32
666.228	3.96
666.554	4.08
666.881	3.59
667.207	3.86
667.533	3.89
667.859	3.86
668.185	3.75
668.511	4.22
668.837	3.77
669.162	3.95
669.488	3.4
669.814	3.93
670.139	3.89
670.465	4.77
670.791	3.88
671.116	3.52
671.442	3.12
671.767	3.39
672.092	3.67
672.418	3.84
672.743	3.64
673.068	3.47
673.393	3.93
673.718	3.9
674.043	3.81
674.368	4.05
674.693	3.91
675.018	4.64
675.343	3.72
675.667	4.08
675.992	3.75
676.317	2.95
676.641	4.23
676.966	4.07
677.29	4.16
677.615	3.47
677.939	4.18
678.264	3.98
678.588	4.08
678.912	3.87
679.236	3.99
679.56	3.54
679.885	3.92
680.209	4.03
680.532	4.03
680.856	3.88
681.18	4.37
681.504	3.76
681.828	3.69
682.152	3.89
682.475	4.05
682.799	3.54
683.122	3.94
683.446	3.15
683.769	4.07
684.093	3.46
684.416	3.61
684.739	3.81
685.062	3.78
685.386	3.83
685.709	3.8
686.032	3.81
686.355	4.08
686.678	4.4
687.001	3.65
687.324	3.84
687.646	4.34
687.969	4.48
688.292	3.88
688.614	4.53
688.937	4.14
689.26	3.91
689.582	3.96
689.904	3.8
690.227	4.14
690.549	4.12
690.871	4.24
691.194	3.95
691.516	3.89
691.838	4.28
