Data from 21-11_forehead_Reflection__1__71.txt Node

Date: Thu Dec 15 16:59:06 CST 2022
User: ToomeyLab
Spectrometer: FLMS14357
Trigger mode: 0
Integration Time (sec): 1.000000E-2
Scans to average: 100
Electric dark correction enabled: true
Nonlinearity correction enabled: false
Boxcar width: 0
XAxis mode: Wavelengths
Number of Pixels in Spectrum: 2048
>>>>>Begin Spectral Data<<<<<
189.047	361.43
189.435	361.43
189.823	361.43
190.211	117.06
190.599	109.53
190.987	-39.87
191.375	-27.17
191.763	54.48
192.151	910.37
192.538	64.65
192.926	882.11
193.314	16200
193.702	-60.17
194.089	-64.25
194.477	155.11
194.864	86.17
195.252	637.8
195.639	134.1
196.027	13.81
196.414	109.27
196.801	7.46
197.189	-56.47
197.576	-6843.9
197.963	-11.92
198.351	12.4
198.738	11.66
199.125	-27.62
199.512	66.49
199.899	38.94
200.286	24.89
200.673	49.76
201.06	13.05
201.447	13.34
201.833	-2.79
202.22	50.46
202.607	51.3
202.994	59.67
203.38	54.78
203.767	10.61
204.154	19.19
204.54	58.37
204.927	13.41
205.313	30.02
205.699	35.83
206.086	60.23
206.472	22.25
206.858	32.16
207.245	10.31
207.631	29.55
208.017	48.74
208.403	-4.87
208.789	43.62
209.175	28.07
209.561	-20.38
209.947	13.9
210.333	21.14
210.719	45.16
211.105	42.35
211.491	60.63
211.876	2.82
212.262	19.7
212.648	19.29
213.034	12.11
213.419	32.03
213.805	-2.19
214.19	3.43
214.576	19.38
214.961	42.32
215.346	23.78
215.732	16.48
216.117	38.56
216.502	15.53
216.888	33.41
217.273	17.84
217.658	41.02
218.043	25.66
218.428	12.71
218.813	33.84
219.198	-10.49
219.583	26.69
219.968	41.34
220.353	8.85
220.738	15.73
221.122	-1.18
221.507	1.4
221.892	-0.08
222.276	2.73
222.661	13.61
223.046	-1.17
223.43	22.17
223.815	19.43
224.199	18.37
224.583	11.38
224.968	10
225.352	15.58
225.736	14.96
226.121	14.69
226.505	3.4
226.889	6.7
227.273	4.81
227.657	6.72
228.041	6.22
228.425	5.82
228.809	6.94
229.193	7.28
229.577	5.79
229.961	4.73
230.344	6.3
230.728	6.22
231.112	5.78
231.495	4.64
231.879	5.97
232.263	6.02
232.646	4.34
233.03	6.89
233.413	5.06
233.797	4.7
234.18	5.25
234.563	7.05
234.946	7.08
235.33	3.82
235.713	6.62
236.096	8.12
236.479	6.92
236.862	5.78
237.245	4.5
237.628	5.87
238.011	5.79
238.394	5.97
238.777	7.93
239.16	6.75
239.543	6.99
239.925	6.19
240.308	5.26
240.691	5.85
241.073	5.87
241.456	6.58
241.838	4.96
242.221	5.62
242.603	6.11
242.986	5.65
243.368	5.96
243.75	5.45
244.133	5.76
244.515	5.52
244.897	5.59
245.279	5.07
245.661	5.3
246.043	6.53
246.425	6.67
246.807	6.4
247.189	5.59
247.571	4.94
247.953	4.77
248.335	5.32
248.717	5
249.098	5.21
249.48	4.84
249.862	5.33
250.243	5.36
250.625	5.69
251.006	6.26
251.388	5.6
251.769	4.62
252.151	6.34
252.532	5.38
252.913	5.86
253.295	5.32
253.676	5.18
254.057	5.15
254.438	5.26
254.819	5.13
255.2	5.03
255.581	6.79
255.962	5.16
256.343	5.76
256.724	5.87
257.105	5.98
257.486	4.17
257.867	4.35
258.247	5.83
258.628	5.5
259.009	5.45
259.389	5.13
259.77	5.66
260.15	6.09
260.531	5.41
260.911	4.81
261.292	5.07
261.672	5.08
262.052	5.25
262.432	4.61
262.813	4.89
263.193	5.47
263.573	4.89
263.953	5.35
264.333	6.38
264.713	5.44
265.093	5.46
265.473	5.09
265.853	5.43
266.233	5.24
266.612	5
266.992	4.97
267.372	5.36
267.752	5.85
268.131	5.14
268.511	4.79
268.89	5.14
269.27	4.74
269.649	4.59
270.029	4.97
270.408	4.64
270.787	4.96
271.167	5.11
271.546	5.59
271.925	5.09
272.304	5.16
272.683	4.93
273.062	4.66
273.441	5.1
273.82	4.97
274.199	4.84
274.578	4.73
274.957	5.1
275.336	5.36
275.715	5.39
276.093	4.93
276.472	4.58
276.851	4.95
277.229	5
277.608	4.32
277.986	5.19
278.365	5.01
278.743	4.95
279.122	4.67
279.5	5.13
279.878	4.92
280.257	4.69
280.635	5.37
281.013	4.41
281.391	5.1
281.769	4.59
282.147	4.72
282.525	4.58
282.903	4.63
283.281	4.91
283.659	4.95
284.037	4.97
284.415	4.63
284.792	4.9
285.17	4.52
285.548	4.53
285.925	4.75
286.303	5.14
286.68	4.92
287.058	4.87
287.435	4.54
287.813	4.81
288.19	4.41
288.567	4.83
288.945	4.64
289.322	4.5
289.699	5.17
290.076	4.8
290.453	4.53
290.83	4.76
291.207	4.57
291.584	5.41
291.961	5.04
292.338	5.18
292.715	4.88
293.092	5.48
293.469	5
293.845	5
294.222	5.99
294.599	4.84
294.975	4.78
295.352	5.3
295.728	5.08
296.105	5.18
296.481	5.51
296.858	5.3
297.234	5.08
297.61	5.55
297.986	5.67
298.363	5.5
298.739	5.81
299.115	5.42
299.491	5.7
299.867	5.02
300.243	5.47
300.619	5.42
300.995	5.62
301.371	5.48
301.746	5.56
302.122	5.15
302.498	5.43
302.874	6.02
303.249	5.88
303.625	5.41
304	6.2
304.376	6.54
304.751	6.15
305.127	6.08
305.502	6.23
305.878	6.55
306.253	5.88
306.628	6.47
307.003	5.73
307.378	6.61
307.754	6.22
308.129	6.63
308.504	6.68
308.879	6.91
309.254	7.12
309.629	7.06
310.003	6.74
310.378	7.46
310.753	6.91
311.128	6.98
311.502	7.32
311.877	6.88
312.252	7.34
312.626	7.3
313.001	7.73
313.375	7.52
313.75	7.18
314.124	7.93
314.498	7.77
314.873	7.86
315.247	7.58
315.621	7.84
315.995	7.86
316.369	7.59
316.743	7.69
317.117	8.09
317.491	8.4
317.865	8.32
318.239	8.21
318.613	8.09
318.987	8.53
319.361	8.57
319.734	8.59
320.108	8.86
320.482	8.56
320.855	8.68
321.229	8.62
321.602	8.79
321.976	8.48
322.349	9.63
322.723	9.07
323.096	8.66
323.469	8.78
323.843	8.51
324.216	9.09
324.589	9.25
324.962	9.18
325.335	8.95
325.708	9.39
326.081	9.55
326.454	9.65
326.827	9.47
327.2	9.41
327.573	9.88
327.945	9.76
328.318	9.8
328.691	9.57
329.063	9.47
329.436	9.68
329.809	10.17
330.181	10.79
330.553	9.96
330.926	10.16
331.298	9.68
331.671	10.03
332.043	10.26
332.415	10.6
332.787	10.4
333.159	10.01
333.532	10.27
333.904	10.7
334.276	10.4
334.648	10.2
335.02	10.12
335.391	10.67
335.763	10.38
336.135	10.53
336.507	10.5
336.879	10.86
337.25	10.75
337.622	10.58
337.993	10.8
338.365	10.84
338.736	10.71
339.108	10.79
339.479	11.18
339.851	11.02
340.222	11.38
340.593	10.93
340.964	11.34
341.336	10.95
341.707	11.03
342.078	11.24
342.449	11.55
342.82	11.5
343.191	11.22
343.562	11.21
343.933	11.09
344.303	11.76
344.674	11.41
345.045	11.71
345.416	11.73
345.786	11.28
346.157	11.97
346.527	11.77
346.898	11.18
347.268	11.6
347.639	11.7
348.009	11.96
348.38	11.7
348.75	12.19
349.12	11.97
349.49	12.22
349.861	12.18
350.231	12
350.601	11.95
350.971	12.06
351.341	11.88
351.711	12.34
352.081	12
352.45	11.94
352.82	11.72
353.19	12.24
353.56	12.23
353.929	12.44
354.299	12.81
354.669	12.87
355.038	12.77
355.408	12.53
355.777	12.15
356.147	12.88
356.516	12.69
356.885	12.62
357.254	12.37
357.624	12.48
357.993	12.79
358.362	13.05
358.731	13
359.1	12.94
359.469	12.97
359.838	12.89
360.207	13.22
360.576	12.97
360.945	13.16
361.314	13.17
361.682	12.93
362.051	12.88
362.42	13.17
362.788	13.37
363.157	13.14
363.525	13.21
363.894	12.98
364.262	13.54
364.631	13.65
364.999	13.26
365.367	13.44
365.735	13.43
366.104	13.64
366.472	13.33
366.84	13.49
367.208	13.67
367.576	13.43
367.944	13.78
368.312	13.56
368.68	14.1
369.048	14.07
369.416	13.7
369.783	13.9
370.151	14.29
370.519	14.65
370.886	14.14
371.254	14.28
371.621	14.2
371.989	14.22
372.356	14.17
372.724	14.31
373.091	14.16
373.458	14.14
373.826	14.39
374.193	14.64
374.56	14.51
374.927	14.51
375.294	14.79
375.661	14.93
376.028	14.6
376.395	15.04
376.762	14.4
377.129	14.66
377.496	14.88
377.863	15.1
378.229	15.15
378.596	14.92
378.963	14.98
379.329	14.84
379.696	14.97
380.062	15.11
380.429	14.88
380.795	15.56
381.161	15.16
381.528	14.84
381.894	15.47
382.26	15.44
382.626	15.37
382.993	15.49
383.359	15.48
383.725	15.14
384.091	15.34
384.457	15.27
384.823	15.85
385.188	15.61
385.554	15.74
385.92	15.62
386.286	15.43
386.651	15.68
387.017	16.03
387.383	15.89
387.748	15.87
388.114	15.98
388.479	15.92
388.845	16.01
389.21	15.94
389.575	16.25
389.94	16.36
390.306	15.97
390.671	16.33
391.036	16.21
391.401	16.22
391.766	16.18
392.131	16.65
392.496	16.47
392.861	16.26
393.226	16.16
393.591	16.35
393.956	16.34
394.32	16.74
394.685	16.56
395.05	16.4
395.414	16.18
395.779	16.62
396.143	16.66
396.508	16.26
396.872	16.54
397.236	16.71
397.601	16.84
397.965	16.75
398.329	16.91
398.694	16.75
399.058	16.96
399.422	16.88
399.786	16.81
400.15	16.67
400.514	16.81
400.878	16.87
401.242	17.17
401.605	17.14
401.969	17.02
402.333	17.06
402.697	17.27
403.06	17.14
403.424	17.18
403.787	17.18
404.151	17.13
404.514	17.26
404.878	16.96
405.241	16.99
405.604	17.02
405.968	17.19
406.331	17.25
406.694	17.28
407.057	17.17
407.42	17.39
407.783	17.46
408.146	17.27
408.509	17.56
408.872	17.37
409.235	17.77
409.598	17.81
409.961	17.66
410.323	17.51
410.686	17.75
411.049	17.89
411.411	17.65
411.774	17.71
412.136	17.64
412.499	17.64
412.861	17.7
413.223	17.67
413.586	17.96
413.948	17.89
414.31	18.14
414.672	17.72
415.035	18.2
415.397	17.94
415.759	18.02
416.121	18.18
416.483	18.07
416.845	18.03
417.206	18.17
417.568	18.34
417.93	18.08
418.292	17.99
418.653	18.13
419.015	17.94
419.377	18.02
419.738	18.22
420.1	18.14
420.461	18.14
420.822	18.31
421.184	18.39
421.545	18.37
421.906	18.34
422.267	18.26
422.629	18.32
422.99	18.25
423.351	18.5
423.712	18.72
424.073	18.71
424.434	18.76
424.795	18.61
425.155	18.63
425.516	18.65
425.877	18.67
426.238	18.74
426.598	18.76
426.959	19.01
427.32	19.05
427.68	19.11
428.041	19.24
428.401	19.47
428.761	19.57
429.122	19.46
429.482	19.73
429.842	19.73
430.202	19.9
430.563	19.88
430.923	19.97
431.283	19.91
431.643	20.1
432.003	19.98
432.363	20.18
432.722	20.24
433.082	20.11
433.442	20.34
433.802	20.3
434.161	20.17
434.521	20.26
434.881	20.25
435.24	20.47
435.6	20.37
435.959	20.49
436.319	20.75
436.678	20.76
437.037	20.67
437.396	20.67
437.756	20.65
438.115	20.88
438.474	20.98
438.833	21.18
439.192	21.02
439.551	20.98
439.91	20.87
440.269	21.07
440.628	21
440.987	21.12
441.345	21.3
441.704	21.1
442.063	21.13
442.421	21.02
442.78	21.24
443.138	21.39
443.497	21.39
443.855	21.58
444.214	21.5
444.572	21.67
444.93	21.8
445.288	21.87
445.647	21.87
446.005	21.8
446.363	21.71
446.721	21.84
447.079	21.7
447.437	21.75
447.795	21.7
448.153	21.7
448.51	21.82
448.868	21.86
449.226	21.93
449.584	22.09
449.941	22.16
450.299	22.24
450.656	22.4
451.014	22.51
451.371	22.69
451.729	22.6
452.086	22.71
452.443	22.78
452.801	22.98
453.158	22.9
453.515	22.81
453.872	22.88
454.229	22.74
454.586	23.09
454.943	23.03
455.3	23.31
455.657	23.04
456.014	23.26
456.371	23.42
456.727	23.41
457.084	23.6
457.441	23.51
457.797	23.5
458.154	23.67
458.51	23.58
458.867	23.64
459.223	23.64
459.58	23.75
459.936	23.73
460.292	23.58
460.648	23.52
461.005	23.44
461.361	23.34
461.717	23.43
462.073	23.67
462.429	23.75
462.785	23.82
463.141	23.9
463.496	24.31
463.852	24.33
464.208	24.32
464.564	24.4
464.919	24.47
465.275	24.41
465.631	24.81
465.986	24.57
466.342	24.74
466.697	24.71
467.052	24.75
467.408	24.91
467.763	24.86
468.118	24.86
468.473	25.14
468.829	24.97
469.184	25.14
469.539	24.86
469.894	24.94
470.249	25.26
470.603	25.2
470.958	25.49
471.313	25.33
471.668	25.46
472.023	25.48
472.377	25.28
472.732	25.68
473.086	25.56
473.441	25.65
473.795	25.79
474.15	25.71
474.504	25.67
474.859	25.61
475.213	25.69
475.567	25.74
475.921	25.83
476.275	26.02
476.63	26.12
476.984	26.06
477.338	26.17
477.692	26.18
478.045	26.14
478.399	26.17
478.753	26.23
479.107	26.22
479.461	26.31
479.814	26.5
480.168	26.31
480.521	26.38
480.875	26.49
481.228	26.45
481.582	26.4
481.935	26.61
482.289	26.58
482.642	26.53
482.995	26.37
483.348	26.35
483.701	26.42
484.055	26.33
484.408	26.22
484.761	25.87
485.114	25.81
485.466	25.86
485.819	25.95
486.172	25.95
486.525	26.06
486.878	26.28
487.23	26.34
487.583	26.45
487.936	26.44
488.288	26.46
488.641	26.42
488.993	26.46
489.345	26.41
489.698	26.53
490.05	26.56
490.402	26.79
490.754	26.92
491.107	27.14
491.459	27.25
491.811	27.37
492.163	27.34
492.515	27.19
492.866	26.99
493.218	26.9
493.57	27.11
493.922	27.25
494.274	27.39
494.625	27.61
494.977	27.85
495.328	27.89
495.68	28.04
496.031	28.24
496.383	28.23
496.734	28.5
497.086	28.52
497.437	28.55
497.788	28.48
498.139	28.32
498.49	28.44
498.842	28.16
499.193	28.25
499.544	28.45
499.894	28.5
500.245	28.72
500.596	28.85
500.947	28.92
501.298	29.01
501.648	29.17
501.999	29.22
502.35	29.11
502.7	29.2
503.051	29.25
503.401	29.47
503.752	29.13
504.102	29.31
504.452	29.41
504.803	29.33
505.153	29.64
505.503	29.54
505.853	29.59
506.203	29.74
506.553	29.7
506.903	29.82
507.253	29.74
507.603	29.95
507.953	29.87
508.303	30.12
508.652	29.86
509.002	29.83
509.352	30.02
509.701	30
510.051	30.06
510.4	29.87
510.75	29.75
511.099	29.86
511.449	30.03
511.798	30.04
512.147	30.12
512.496	30.19
512.846	30.26
513.195	30.23
513.544	30.4
513.893	30.29
514.242	30.54
514.591	30.36
514.939	30.52
515.288	30.68
515.637	30.55
515.986	30.76
516.334	30.91
516.683	30.9
517.032	31.06
517.38	30.95
517.729	31.02
518.077	31.11
518.426	31.11
518.774	30.97
519.122	30.99
519.47	30.74
519.819	30.72
520.167	30.71
520.515	30.72
520.863	30.67
521.211	30.83
521.559	30.93
521.907	31.11
522.255	31.09
522.602	31.17
522.95	31.48
523.298	31.5
523.645	31.42
523.993	31.54
524.341	31.64
524.688	31.73
525.036	31.76
525.383	31.71
525.73	31.69
526.078	32.08
526.425	31.44
526.772	31.47
527.119	31.57
527.466	31.42
527.814	31.31
528.161	31.55
528.508	31.7
528.854	31.45
529.201	31.47
529.548	31.31
529.895	31.12
530.242	31.24
530.588	31.28
530.935	31.27
531.282	31.37
531.628	31.52
531.975	31.65
532.321	31.9
532.667	32.04
533.014	32.12
533.36	32.15
533.706	32.28
534.052	32.21
534.399	32.09
534.745	31.79
535.091	31.82
535.437	32.08
535.783	32.29
536.129	32.25
536.474	32.31
536.82	32.67
537.166	32.68
537.512	32.65
537.857	32.68
538.203	32.66
538.549	32.81
538.894	32.74
539.239	32.82
539.585	33.09
539.93	33.14
540.276	33.49
540.621	33.37
540.966	33.41
541.311	33.58
541.656	33.43
542.001	33.25
542.346	32.99
542.691	32.72
543.036	32.86
543.381	32.8
543.726	32.83
544.071	33.06
544.415	33.17
544.76	33.43
545.105	33.36
545.449	33.57
545.794	33.63
546.138	33.85
546.483	33.83
546.827	33.79
547.171	33.99
547.516	34.18
547.86	34.08
548.204	33.85
548.548	33.96
548.892	33.91
549.236	34.22
549.58	34.42
549.924	34.58
550.268	34.7
550.612	34.86
550.956	35.13
551.3	35.19
551.643	35.04
551.987	35.18
552.33	35
552.674	34.94
553.017	35.33
553.361	35.52
553.704	35.33
554.048	35.21
554.391	35.15
554.734	35.26
555.077	35.46
555.42	35.32
555.764	35.61
556.107	35.51
556.45	35.75
556.793	35.85
557.135	35.86
557.478	35.74
557.821	36.01
558.164	35.93
558.507	35.78
558.849	36.01
559.192	35.95
559.534	36.04
559.877	36.22
560.219	36.16
560.562	36.36
560.904	36.37
561.246	36.09
561.589	36.31
561.931	36.29
562.273	36.16
562.615	36.28
562.957	36.22
563.299	36.45
563.641	36.52
563.983	36.31
564.325	36.72
564.667	36.52
565.008	36.54
565.35	36.86
565.692	36.64
566.033	36.55
566.375	36.73
566.716	36.46
567.058	36.45
567.399	36.64
567.741	36.88
568.082	36.95
568.423	36.8
568.764	36.9
569.105	36.7
569.447	36.83
569.788	37.01
570.129	37.21
570.47	37.12
570.811	37
571.151	37.08
571.492	37.38
571.833	37.35
572.174	37.32
572.514	37.34
572.855	37.45
573.195	37.34
573.536	37.46
573.876	37.28
574.217	37.44
574.557	37.34
574.898	37.46
575.238	37.49
575.578	37.84
575.918	37.61
576.258	37.69
576.598	37.71
576.938	37.74
577.278	38.01
577.618	37.66
577.958	37.86
578.298	38.05
578.638	38.08
578.977	38.03
579.317	38.21
579.657	38.19
579.996	38.39
580.336	38.72
580.675	38.3
581.014	38.66
581.354	38.8
581.693	38.74
582.032	38.7
582.372	38.9
582.711	38.86
583.05	38.89
583.389	39.01
583.728	38.94
584.067	39.17
584.406	39.29
584.745	39.16
585.083	39.21
585.422	39.18
585.761	39.11
586.1	39.66
586.438	39.2
586.777	39.48
587.115	39.3
587.454	39.47
587.792	39.49
588.13	39.27
588.469	39.67
588.807	39.88
589.145	39.83
589.483	39.5
589.821	40.11
590.159	39.7
590.497	39.85
590.835	39.83
591.173	39.88
591.511	39.88
591.849	39.8
592.187	39.55
592.524	40.09
592.862	39.77
593.2	40.1
593.537	40.09
593.875	39.88
594.212	40.23
594.55	40.43
594.887	40.04
595.224	40.3
595.561	40.08
595.899	40.55
596.236	40.58
596.573	40.28
596.91	40.37
597.247	40.35
597.584	40.43
597.921	40.41
598.258	40.23
598.594	40.35
598.931	40.2
599.268	40.19
599.604	40.27
599.941	40.46
600.277	40.58
600.614	40.8
600.95	40.36
601.287	40.62
601.623	40.58
601.959	41.06
602.296	40.89
602.632	41.32
602.968	41.09
603.304	41.22
603.64	41.03
603.976	41.37
604.312	41.13
604.648	41.32
604.984	41.03
605.319	40.96
605.655	41.05
605.991	41.21
606.326	41.08
606.662	41.14
606.998	41.13
607.333	41.03
607.668	41.13
608.004	41.35
608.339	41.2
608.674	41.91
609.01	42.11
609.345	41.89
609.68	41.68
610.015	42
610.35	41.75
610.685	41.59
611.02	41.68
611.355	41.86
611.689	41.98
612.024	41.66
612.359	41.99
612.694	42.23
613.028	41.85
613.363	42.37
613.697	41.98
614.032	42.3
614.366	42.44
614.7	42.35
615.035	42.71
615.369	42.28
615.703	42.58
616.037	42.92
616.371	42.75
616.705	42.7
617.039	42.93
617.373	42.9
617.707	42.76
618.041	42.74
618.375	42.67
618.709	43.49
619.042	43
619.376	43.31
619.71	43.33
620.043	43.16
620.377	43
620.71	43.41
621.043	43.33
621.377	43.48
621.71	43.52
622.043	43.03
622.376	43.68
622.709	43.62
623.043	42.94
623.376	43.64
623.709	43.33
624.041	43.14
624.374	43.28
624.707	43.54
625.04	43.36
625.373	43.5
625.705	43.82
626.038	43.31
626.37	43.2
626.703	43.76
627.035	43.99
627.368	43.83
627.7	43.98
628.032	43.82
628.365	43.62
628.697	44.01
629.029	43.6
629.361	43.89
629.693	43.81
630.025	43.96
630.357	44.37
630.689	44.06
631.021	43.83
631.353	44.47
631.684	44.24
632.016	44.31
632.348	44.47
632.679	44.43
633.011	44.63
633.342	44.29
633.674	44.47
634.005	44.23
634.336	44.62
634.668	44.24
634.999	44.53
635.33	44.7
635.661	44.64
635.992	44.58
636.323	44.9
636.654	44.83
636.985	44.78
637.316	44.88
637.647	44.75
637.977	44.71
638.308	45.07
638.639	45.69
638.969	44.86
639.3	45.4
639.63	44.94
639.961	45.29
640.291	45.06
640.622	45.48
640.952	45.48
641.282	45.01
641.612	45.48
641.943	45.12
642.273	45.32
642.603	45.77
642.933	45.73
643.263	45.75
643.592	45.66
643.922	45.82
644.252	45.46
644.582	46.13
644.911	45.47
645.241	45.74
645.571	45.81
645.9	46.22
646.23	45.85
646.559	45.64
646.888	46.03
647.218	45.9
647.547	46.24
647.876	45.69
648.205	46.52
648.534	45.83
648.863	46.45
649.192	46.12
649.521	46.08
649.85	46.29
650.179	46.47
650.508	46.31
650.837	46.5
651.165	46.22
651.494	46.46
651.822	46.36
652.151	46.31
652.479	46.71
652.808	46.61
653.136	46
653.465	46.68
653.793	46.63
654.121	46.49
654.449	46.8
654.777	46.87
655.105	46.82
655.433	46.78
655.761	47.12
656.089	47.24
656.417	46.58
656.745	47.6
657.073	47.11
657.4	47.07
657.728	46.72
658.056	47.41
658.383	47.35
658.711	46.83
659.038	47.47
659.365	47.44
659.693	46.74
660.02	47.29
660.347	47.48
660.674	47.23
661.001	47.19
661.329	47.25
661.656	47.48
661.982	46.81
662.309	47.5
662.636	47.27
662.963	47.47
663.29	47.5
663.616	47.03
663.943	48.03
664.27	47.54
664.596	47.58
664.923	47.34
665.249	47.55
665.576	47.6
665.902	47.98
666.228	47.53
666.554	48.51
666.881	48.29
667.207	47.58
667.533	47.85
667.859	48
668.185	48.49
668.511	48.78
668.837	48.26
669.162	48.31
669.488	47.77
669.814	48.01
670.139	47.83
670.465	47.86
