Data from 21-11_crown_Reflection__2__67.txt Node

Date: Thu Dec 15 16:57:52 CST 2022
User: ToomeyLab
Spectrometer: FLMS14357
Trigger mode: 0
Integration Time (sec): 1.000000E-2
Scans to average: 100
Electric dark correction enabled: true
Nonlinearity correction enabled: false
Boxcar width: 0
XAxis mode: Wavelengths
Number of Pixels in Spectrum: 2048
>>>>>Begin Spectral Data<<<<<
189.047	467.26
189.435	467.26
189.823	467.26
190.211	-272.57
190.599	11
190.987	183.79
191.375	-59.76
191.763	296.65
192.151	158.51
192.538	4.12
192.926	2722.11
193.314	10555.56
193.702	14.5
194.089	15.02
194.477	113.16
194.864	107.97
195.252	-62.86
195.639	203.61
196.027	11.44
196.414	64.1
196.801	11.53
197.189	202.29
197.576	-1175.61
197.963	-576.16
198.351	-9.1
198.738	-15.96
199.125	-43.02
199.512	-5.69
199.899	-30.63
200.286	-1.58
200.673	31.69
201.06	36.74
201.447	14.17
201.833	21.39
202.22	8.99
202.607	-5.09
202.994	-10.82
203.38	-15.19
203.767	19.36
204.154	20.38
204.54	-4.23
204.927	15.26
205.313	18.66
205.699	-1.43
206.086	27.38
206.472	4.9
206.858	-0.92
207.245	-7.51
207.631	4.09
208.017	27.14
208.403	-40.2
208.789	10.26
209.175	-14.95
209.561	-34.6
209.947	-9.26
210.333	-34.3
210.719	7.08
211.105	27.1
211.491	28.89
211.876	-13.91
212.262	-20.2
212.648	8.9
213.034	-18.73
213.419	13.92
213.805	22.11
214.19	-9.36
214.576	-10.33
214.961	9.29
215.346	9.84
215.732	-10.51
216.117	1.03
216.502	-19.11
216.888	7.62
217.273	10.91
217.658	20.7
218.043	-7.5
218.428	3.33
218.813	13.78
219.198	-15.22
219.583	-13.56
219.968	16.62
220.353	-18.75
220.738	11.27
221.122	-10.59
221.507	2.91
221.892	-8.98
222.276	-7.46
222.661	-6.03
223.046	-17.39
223.43	12.32
223.815	-4.21
224.199	10.57
224.583	1.8
224.968	-1.8
225.352	-1.46
225.736	5.94
226.121	-1.75
226.505	-0.37
226.889	-1.43
227.273	-6.89
227.657	1.39
228.041	3.98
228.425	-1.81
228.809	0.16
229.193	2.23
229.577	1.57
229.961	1.17
230.344	2.17
230.728	2.71
231.112	2.86
231.495	2.65
231.879	1.54
232.263	2.39
232.646	1.63
233.03	3.49
233.413	3.13
233.797	0.18
234.18	2.49
234.563	1.58
234.946	0.79
235.33	3.11
235.713	3.38
236.096	3.1
236.479	4.21
236.862	2.63
237.245	1.54
237.628	3.49
238.011	2
238.394	2.04
238.777	3.65
239.16	3.09
239.543	1.73
239.925	2.62
240.308	0.23
240.691	2.28
241.073	1.31
241.456	2.51
241.838	2.42
242.221	1.91
242.603	2.86
242.986	2.32
243.368	2.58
243.75	2.34
244.133	2.64
244.515	2.39
244.897	2.17
245.279	1.27
245.661	2.44
246.043	1.92
246.425	2.28
246.807	2.35
247.189	2.48
247.571	2.07
247.953	2.3
248.335	2.38
248.717	2.49
249.098	2.21
249.48	2.33
249.862	2.46
250.243	2.36
250.625	2.08
251.006	3.16
251.388	2.77
251.769	2.97
252.151	2.34
252.532	1.36
252.913	2.11
253.295	2.11
253.676	2.22
254.057	1.88
254.438	2.21
254.819	2.19
255.2	2.7
255.581	2.54
255.962	3.09
256.343	2.81
256.724	2.22
257.105	1.94
257.486	2.1
257.867	1.86
258.247	3
258.628	2.13
259.009	2.57
259.389	1.33
259.77	1.79
260.15	2.45
260.531	2.42
260.911	2.13
261.292	2.04
261.672	2.18
262.052	2.31
262.432	2.08
262.813	1.89
263.193	2.63
263.573	2.7
263.953	2.43
264.333	2.37
264.713	2.4
265.093	2.33
265.473	1.19
265.853	2.58
266.233	2.74
266.612	2.02
266.992	2.16
267.372	2.35
267.752	2.49
268.131	2.15
268.511	2.17
268.89	2.7
269.27	2.01
269.649	1.75
270.029	1.9
270.408	2.02
270.787	2.48
271.167	2.49
271.546	2.37
271.925	2.33
272.304	1.94
272.683	1.96
273.062	2.02
273.441	2.36
273.82	1.96
274.199	2.14
274.578	2.39
274.957	2.02
275.336	2.13
275.715	2.31
276.093	1.41
276.472	2.17
276.851	1.97
277.229	2.13
277.608	1.98
277.986	2.31
278.365	2.35
278.743	2.33
279.122	1.66
279.5	1.72
279.878	1.7
280.257	2.55
280.635	2.54
281.013	2.37
281.391	2.23
281.769	2.21
282.147	1.82
282.525	1.93
282.903	1.87
283.281	2.52
283.659	2.63
284.037	2.21
284.415	2.07
284.792	1.9
285.17	1.93
285.548	1.84
285.925	1.53
286.303	2.47
286.68	2.09
287.058	2.14
287.435	1.86
287.813	2.3
288.19	2.14
288.567	2.13
288.945	1.96
289.322	2.12
289.699	1.86
290.076	1.93
290.453	1.66
290.83	2.46
291.207	2
291.584	2.18
291.961	1.95
292.338	1.84
292.715	1.59
293.092	2.36
293.469	1.68
293.845	1.65
294.222	2.42
294.599	1.84
294.975	1.5
295.352	2.33
295.728	2.22
296.105	2.11
296.481	2.02
296.858	1.81
297.234	1.53
297.61	2.07
297.986	2.33
298.363	2.1
298.739	2.49
299.115	1.81
299.491	2.4
299.867	2.08
300.243	1.82
300.619	1.94
300.995	2.16
301.371	2.15
301.746	2.21
302.122	1.73
302.498	1.99
302.874	1.93
303.249	2.04
303.625	1.92
304	2.19
304.376	2.32
304.751	2.34
305.127	1.95
305.502	2.02
305.878	2.03
306.253	2.02
306.628	1.92
307.003	1.54
307.378	1.48
307.754	2.07
308.129	1.62
308.504	2.27
308.879	2.42
309.254	2.36
309.629	2.32
310.003	1.88
310.378	2.09
310.753	2.11
311.128	1.9
311.502	2.45
311.877	1.94
312.252	1.94
312.626	2.46
313.001	2.46
313.375	2.09
313.75	2.2
314.124	2.56
314.498	2.4
314.873	1.76
315.247	1.96
315.621	1.66
315.995	2.18
316.369	1.8
316.743	1.86
317.117	2.03
317.491	1.84
317.865	1.93
318.239	2.48
318.613	2.02
318.987	1.7
319.361	1.74
319.734	2
320.108	2
320.482	2.33
320.855	2.04
321.229	2.22
321.602	2.47
321.976	1.47
322.349	2.94
322.723	2.61
323.096	2.28
323.469	1.8
323.843	2.22
324.216	2.1
324.589	2.04
324.962	1.99
325.335	1.78
325.708	2.23
326.081	2.33
326.454	2.66
326.827	1.89
327.2	2.28
327.573	2.45
327.945	2.25
328.318	2.02
328.691	1.88
329.063	1.74
329.436	2.04
329.809	2.33
330.181	2.62
330.553	2.25
330.926	2.58
331.298	2.04
331.671	2.41
332.043	2.16
332.415	2.37
332.787	2.27
333.159	1.6
333.532	2.29
333.904	2.29
334.276	2.23
334.648	1.76
335.02	2.12
335.391	1.81
335.763	2.07
336.135	2.22
336.507	1.58
336.879	2.49
337.25	2.41
337.622	2.49
337.993	2.22
338.365	2.49
338.736	2.34
339.108	2.3
339.479	2.3
339.851	2.22
340.222	2.38
340.593	1.92
340.964	2.39
341.336	2.26
341.707	1.97
342.078	1.99
342.449	2.4
342.82	2.26
343.191	2.1
343.562	2.02
343.933	2.05
344.303	2.43
344.674	2.06
345.045	2.23
345.416	2.36
345.786	2.31
346.157	2.52
346.527	2.11
346.898	2.15
347.268	2.37
347.639	2.04
348.009	2.34
348.38	2.26
348.75	2.46
349.12	2.37
349.49	2.32
349.861	2.49
350.231	1.99
350.601	2.32
350.971	1.92
351.341	2.39
351.711	2.46
352.081	2.14
352.45	2.01
352.82	1.8
353.19	2.18
353.56	2.12
353.929	2.32
354.299	2.45
354.669	2.04
355.038	2.73
355.408	2.21
355.777	2.16
356.147	2.55
356.516	1.99
356.885	2.07
357.254	1.99
357.624	1.84
357.993	2.15
358.362	2.65
358.731	2.28
359.1	2.27
359.469	2.65
359.838	2.12
360.207	2.19
360.576	2.32
360.945	2.49
361.314	2.38
361.682	2.09
362.051	2.32
362.42	2.15
362.788	2.51
363.157	2.31
363.525	2.35
363.894	2.18
364.262	2.28
364.631	2.52
364.999	2.44
365.367	2.12
365.735	2.19
366.104	2.37
366.472	1.98
366.84	2.58
367.208	2.69
367.576	2.19
367.944	2.07
368.312	2.28
368.68	2.56
369.048	2.38
369.416	2.16
369.783	2.23
370.151	2.53
370.519	2.23
370.886	2.14
371.254	2.72
371.621	2.69
371.989	2.17
372.356	2.23
372.724	2.05
373.091	2.33
373.458	2.14
373.826	2.23
374.193	2.23
374.56	2.15
374.927	2.16
375.294	2.48
375.661	2.64
376.028	2.19
376.395	2.64
376.762	1.91
377.129	2.36
377.496	1.93
377.863	2.26
378.229	2.44
378.596	2.46
378.963	2.39
379.329	2.49
379.696	2.26
380.062	2.3
380.429	2.25
380.795	2.62
381.161	2.2
381.528	2.2
381.894	2.35
382.26	2.3
382.626	2.55
382.993	2.61
383.359	2.3
383.725	2.11
384.091	2.25
384.457	2.15
384.823	2.47
385.188	2.37
385.554	2.56
385.92	2.3
386.286	2.37
386.651	2.22
387.017	2.79
387.383	2.38
387.748	2.45
388.114	2.35
388.479	2.29
388.845	2.21
389.21	2.58
389.575	2.5
389.94	2.4
390.306	2.4
390.671	2.36
391.036	2.28
391.401	2.35
391.766	2.51
392.131	2.69
392.496	2.55
392.861	2.53
393.226	2.17
393.591	2.37
393.956	2.37
394.32	2.58
394.685	2.43
395.05	2.56
395.414	2.58
395.779	2.66
396.143	2.36
396.508	2.42
396.872	2.41
397.236	2.64
397.601	2.47
397.965	2.4
398.329	2.34
398.694	2.11
399.058	2.58
399.422	2.51
399.786	2.39
400.15	2.48
400.514	2.51
400.878	2.35
401.242	2.4
401.605	2.46
401.969	2.18
402.333	2.54
402.697	2.63
403.06	2.52
403.424	2.64
403.787	2.26
404.151	2.39
404.514	2.42
404.878	2.38
405.241	2.37
405.604	2.33
405.968	2.47
406.331	2.47
406.694	2.61
407.057	2.39
407.42	2.45
407.783	2.37
408.146	2.42
408.509	2.75
408.872	2.47
409.235	2.5
409.598	2.66
409.961	2.54
410.323	2.43
410.686	2.26
411.049	2.51
411.411	2.47
411.774	2.5
412.136	2.58
412.499	2.57
412.861	2.14
413.223	2.4
413.586	2.68
413.948	2.65
414.31	2.48
414.672	2.46
415.035	2.6
415.397	2.41
415.759	2.26
416.121	2.45
416.483	2.48
416.845	2.54
417.206	2.5
417.568	2.36
417.93	2.37
418.292	2.44
418.653	2.35
419.015	2.42
419.377	2.41
419.738	2.45
420.1	2.37
420.461	2.3
420.822	2.45
421.184	2.39
421.545	2.5
421.906	2.47
422.267	2.34
422.629	2.4
422.99	2.47
423.351	2.39
423.712	2.43
424.073	2.47
424.434	2.57
424.795	2.39
425.155	2.31
425.516	2.45
425.877	2.39
426.238	2.36
426.598	2.49
426.959	2.39
427.32	2.49
427.68	2.48
428.041	2.62
428.401	2.4
428.761	2.6
429.122	2.54
429.482	2.42
429.842	2.48
430.202	2.54
430.563	2.51
430.923	2.43
431.283	2.54
431.643	2.69
432.003	2.55
432.363	2.53
432.722	2.47
433.082	2.48
433.442	2.52
433.802	2.51
434.161	2.58
434.521	2.63
434.881	2.48
435.24	2.42
435.6	2.58
435.959	2.54
436.319	2.64
436.678	2.69
437.037	2.47
437.396	2.49
437.756	2.53
438.115	2.53
438.474	2.5
438.833	2.52
439.192	2.43
439.551	2.41
439.91	2.56
440.269	2.48
440.628	2.56
440.987	2.41
441.345	2.49
441.704	2.51
442.063	2.45
442.421	2.49
442.78	2.51
443.138	2.47
443.497	2.5
443.855	2.64
444.214	2.45
444.572	2.73
444.93	2.44
445.288	2.52
445.647	2.47
446.005	2.51
446.363	2.51
446.721	2.52
447.079	2.43
447.437	2.55
447.795	2.56
448.153	2.52
448.51	2.53
448.868	2.52
449.226	2.55
449.584	2.62
449.941	2.6
450.299	2.54
450.656	2.52
451.014	2.66
451.371	2.62
451.729	2.54
452.086	2.61
452.443	2.64
452.801	2.57
453.158	2.81
453.515	2.63
453.872	2.58
454.229	2.4
454.586	2.53
454.943	2.67
455.3	2.53
455.657	2.58
456.014	2.6
456.371	2.62
456.727	2.7
457.084	2.62
457.441	2.63
457.797	2.56
458.154	2.55
458.51	2.47
458.867	2.7
459.223	2.46
459.58	2.57
459.936	2.56
460.292	2.5
460.648	2.57
461.005	2.53
461.361	2.49
461.717	2.52
462.073	2.64
462.429	2.66
462.785	2.72
463.141	2.63
463.496	2.62
463.852	2.85
464.208	2.57
464.564	2.59
464.919	2.59
465.275	2.72
465.631	2.84
465.986	2.74
466.342	2.53
466.697	2.63
467.052	2.65
467.408	2.62
467.763	2.66
468.118	2.63
468.473	2.72
468.829	2.51
469.184	2.61
469.539	2.44
469.894	2.66
470.249	2.59
470.603	2.81
470.958	2.83
471.313	2.73
471.668	2.76
472.023	2.77
472.377	2.43
472.732	2.73
473.086	2.61
473.441	2.55
473.795	2.83
474.15	2.76
474.504	2.75
474.859	2.54
475.213	2.84
475.567	2.54
475.921	2.6
476.275	2.66
476.63	2.68
476.984	2.48
477.338	2.77
477.692	2.71
478.045	2.62
478.399	2.7
478.753	2.52
479.107	2.71
479.461	2.48
479.814	2.75
480.168	2.62
480.521	2.72
480.875	2.7
481.228	2.72
481.582	2.72
481.935	2.8
482.289	2.74
482.642	2.72
482.995	2.67
483.348	2.63
483.701	2.68
484.055	2.59
484.408	2.57
484.761	2.55
485.114	2.46
485.466	2.42
485.819	2.45
486.172	2.51
486.525	2.54
486.878	2.62
487.23	2.56
487.583	2.6
487.936	2.58
488.288	2.57
488.641	2.51
488.993	2.54
489.345	2.5
489.698	2.5
490.05	2.5
490.402	2.58
490.754	2.56
491.107	2.55
491.459	2.62
491.811	2.63
492.163	2.64
492.515	2.57
492.866	2.51
493.218	2.49
493.57	2.64
493.922	2.56
494.274	2.66
494.625	2.75
494.977	2.63
495.328	2.71
495.68	2.64
496.031	2.63
496.383	2.59
496.734	2.59
497.086	2.72
497.437	2.72
497.788	2.76
498.139	2.59
498.49	2.67
498.842	2.75
499.193	2.61
499.544	2.75
499.894	2.65
500.245	2.72
500.596	2.72
500.947	2.68
501.298	2.73
501.648	2.71
501.999	2.78
502.35	2.65
502.7	2.79
503.051	2.75
503.401	2.82
503.752	2.6
504.102	2.58
504.452	2.65
504.803	2.63
505.153	2.8
505.503	2.66
505.853	2.78
506.203	2.74
506.553	2.71
506.903	2.82
507.253	2.71
507.603	2.77
507.953	2.74
508.303	2.73
508.652	2.61
509.002	2.7
509.352	2.69
509.701	2.63
510.051	2.76
510.4	2.83
510.75	2.6
511.099	2.62
511.449	2.76
511.798	2.61
512.147	2.61
512.496	2.81
512.846	2.77
513.195	2.74
513.544	2.76
513.893	2.7
514.242	2.67
514.591	2.71
514.939	2.74
515.288	2.79
515.637	2.67
515.986	2.7
516.334	2.71
516.683	2.74
517.032	2.75
517.38	2.77
517.729	2.63
518.077	2.73
518.426	2.75
518.774	2.64
519.122	2.78
519.47	2.7
519.819	2.66
520.167	2.67
520.515	2.65
520.863	2.72
521.211	2.68
521.559	2.72
521.907	2.77
522.255	2.68
522.602	2.71
522.95	2.68
523.298	2.76
523.645	2.7
523.993	2.72
524.341	2.75
524.688	2.7
525.036	2.65
525.383	2.66
525.73	2.58
526.078	2.77
526.425	2.71
526.772	2.65
527.119	2.72
527.466	2.64
527.814	2.67
528.161	2.75
528.508	2.79
528.854	2.7
529.201	2.69
529.548	2.56
529.895	2.57
530.242	2.5
530.588	2.55
530.935	2.61
531.282	2.57
531.628	2.67
531.975	2.67
532.321	2.68
532.667	2.77
533.014	2.74
533.36	2.69
533.706	2.74
534.052	2.67
534.399	2.66
534.745	2.59
535.091	2.62
535.437	2.6
535.783	2.65
536.129	2.7
536.474	2.74
536.82	2.87
537.166	2.62
537.512	2.67
537.857	2.7
538.203	2.67
538.549	2.66
538.894	2.73
539.239	2.71
539.585	2.74
539.93	2.84
540.276	2.72
540.621	2.77
540.966	2.77
541.311	2.74
541.656	2.58
542.001	2.63
542.346	2.6
542.691	2.58
543.036	2.61
543.381	2.6
543.726	2.67
544.071	2.69
544.415	2.72
544.76	2.68
545.105	2.69
545.449	2.68
545.794	2.76
546.138	2.74
546.483	2.75
546.827	2.7
547.171	2.85
547.516	2.7
547.86	2.71
548.204	2.71
548.548	2.66
548.892	2.69
549.236	2.66
549.58	2.76
549.924	2.83
550.268	2.9
550.612	2.79
550.956	2.92
551.3	2.98
551.643	2.78
551.987	2.95
552.33	3.02
552.674	2.78
553.017	2.81
553.361	2.89
553.704	2.81
554.048	2.68
554.391	2.9
554.734	2.78
555.077	2.79
555.42	2.74
555.764	2.77
556.107	2.85
556.45	2.8
556.793	3.09
557.135	2.79
557.478	2.81
557.821	2.9
558.164	3.08
558.507	2.63
558.849	2.97
559.192	2.92
559.534	2.75
559.877	2.89
560.219	2.84
560.562	2.68
560.904	2.86
561.246	2.82
561.589	2.92
561.931	2.81
562.273	2.83
562.615	2.77
562.957	2.81
563.299	2.87
563.641	2.77
563.983	2.68
564.325	2.88
564.667	2.91
565.008	2.68
565.35	2.83
565.692	2.78
566.033	2.95
566.375	2.98
566.716	2.74
567.058	2.76
567.399	2.77
567.741	2.81
568.082	2.68
568.423	2.65
568.764	2.78
569.105	2.78
569.447	2.82
569.788	2.92
570.129	2.82
570.47	2.84
570.811	2.66
571.151	2.69
571.492	2.83
571.833	2.84
572.174	2.82
572.514	2.89
572.855	2.87
573.195	2.82
573.536	2.89
573.876	2.8
574.217	2.62
574.557	2.71
574.898	2.72
575.238	2.92
575.578	2.8
575.918	2.86
576.258	2.98
576.598	2.71
576.938	2.66
577.278	2.88
577.618	2.83
577.958	3.03
578.298	2.9
578.638	2.77
578.977	2.74
579.317	3.06
579.657	2.85
579.996	2.94
580.336	2.92
580.675	2.7
581.014	3.03
581.354	3
581.693	2.94
582.032	2.9
582.372	2.88
582.711	3.02
583.05	2.92
583.389	2.95
583.728	2.92
584.067	2.86
584.406	2.83
584.745	2.67
585.083	2.76
585.422	2.99
585.761	2.89
586.1	2.85
586.438	2.78
586.777	2.88
587.115	3.06
587.454	2.8
587.792	3.03
588.13	2.78
588.469	2.85
588.807	2.89
589.145	2.86
589.483	2.8
589.821	2.96
590.159	3.08
590.497	3.03
590.835	3.08
591.173	3.15
591.511	3.18
591.849	3.04
592.187	2.58
592.524	3.11
592.862	2.87
593.2	2.94
593.537	3.01
593.875	3.03
594.212	3.01
594.55	2.92
594.887	2.9
595.224	2.93
595.561	2.86
595.899	2.87
596.236	2.95
596.573	2.84
596.91	2.82
597.247	3.05
597.584	2.93
597.921	2.79
598.258	2.9
598.594	2.79
598.931	2.66
599.268	2.62
599.604	2.96
599.941	2.93
600.277	2.97
600.614	2.84
600.95	2.85
601.287	2.59
601.623	2.76
601.959	3.25
602.296	2.92
602.632	2.84
602.968	2.85
603.304	3.02
603.64	2.66
603.976	2.76
604.312	2.87
604.648	2.77
604.984	2.96
605.319	2.85
605.655	2.87
605.991	2.74
606.326	2.85
606.662	2.71
606.998	2.93
607.333	2.75
607.668	2.82
608.004	2.82
608.339	2.74
608.674	2.95
609.01	3.08
609.345	2.86
609.68	2.81
610.015	2.86
610.35	3
610.685	2.68
611.02	2.7
611.355	2.77
611.689	3.03
612.024	2.91
612.359	3.07
612.694	3.09
613.028	2.76
613.363	3.02
613.697	2.79
614.032	2.87
614.366	3.06
614.7	2.98
615.035	2.8
615.369	3.1
615.703	2.94
616.037	3.03
616.371	2.68
616.705	2.99
617.039	2.77
617.373	2.9
617.707	2.85
618.041	2.7
618.375	2.4
618.709	3.19
619.042	2.99
619.376	3.06
619.71	2.74
620.043	3.19
620.377	2.96
620.71	2.84
621.043	3.05
621.377	3.35
621.71	3.34
622.043	2.94
622.376	3.05
622.709	3.27
623.043	2.92
623.376	2.93
623.709	3.09
624.041	2.86
624.374	2.93
624.707	3
625.04	2.69
625.373	2.87
625.705	3.05
626.038	3.17
626.37	3.14
626.703	3.07
627.035	3.06
627.368	3.11
627.7	3.06
628.032	2.71
628.365	2.96
628.697	3.05
629.029	3.04
629.361	3.11
629.693	2.91
630.025	3.1
630.357	3.08
630.689	3.01
631.021	3.21
631.353	2.95
631.684	2.67
632.016	2.76
632.348	3.03
632.679	3.17
633.011	3.03
633.342	2.78
633.674	3.02
634.005	2.73
634.336	3.13
634.668	3.24
634.999	3.01
635.33	3.09
635.661	2.6
635.992	2.89
636.323	2.94
636.654	3.16
636.985	2.73
637.316	2.71
637.647	3.07
637.977	2.73
638.308	3.19
638.639	2.67
638.969	2.82
639.3	2.78
639.63	2.87
639.961	2.78
640.291	2.68
640.622	2.88
640.952	3.14
641.282	2.6
641.612	2.53
641.943	2.52
642.273	2.8
642.603	3.3
642.933	3.2
643.263	3.09
643.592	3.31
643.922	3.49
644.252	2.86
644.582	3.38
644.911	2.58
645.241	2.9
645.571	2.84
645.9	3.06
646.23	3.27
646.559	2.78
646.888	3.19
647.218	2.79
647.547	2.95
647.876	2.9
648.205	2.92
648.534	3.01
648.863	2.97
649.192	3.52
649.521	3.09
649.85	3.1
650.179	3.14
650.508	2.79
650.837	2.97
651.165	3.15
651.494	2.79
651.822	3.13
652.151	2.92
652.479	2.96
652.808	3.15
653.136	2.32
653.465	2.93
653.793	2.95
654.121	2.8
654.449	2.64
654.777	2.62
655.105	2.69
655.433	3.22
655.761	2.66
656.089	3.02
656.417	3.38
656.745	3.6
657.073	2.67
657.4	3.11
657.728	2.9
658.056	3.17
658.383	2.94
658.711	2.89
659.038	3.14
659.365	3.12
659.693	3.01
660.02	3.05
660.347	3.15
660.674	2.78
661.001	2.87
661.329	3.04
661.656	2.67
661.982	2.98
662.309	2.88
662.636	3
662.963	3.17
663.29	2.99
663.616	3.26
663.943	3.07
664.27	2.72
664.596	2.66
664.923	3.04
665.249	3.01
665.576	3.03
665.902	2.55
666.228	3.65
666.554	3.65
666.881	2.6
667.207	3.22
667.533	2.7
667.859	2.92
668.185	3.16
668.511	3.39
668.837	3.38
669.162	3.45
669.488	2.8
669.814	2.81
670.139	2.81
670.465	3.07
670.791	2.88
671.116	2.96
671.442	2.14
671.767	3.05
672.092	3.14
672.418	3.32
672.743	2.75
673.068	2.61
673.393	3.33
673.718	2.18
674.043	2.92
674.368	2.68
674.693	3.73
675.018	3.24
675.343	3.11
675.667	2.67
675.992	2.85
676.317	2.61
676.641	3.38
676.966	3.28
677.29	2.6
677.615	2.95
677.939	2.92
678.264	2.74
678.588	3.22
678.912	3.34
679.236	3.01
679.56	2.6
679.885	2.7
680.209	2.77
680.532	3.52
680.856	3.37
681.18	3.68
681.504	3.07
681.828	2.78
682.152	3.05
682.475	3.38
682.799	2.98
683.122	3.17
683.446	2.56
683.769	3.28
684.093	3.58
684.416	2.94
684.739	3.4
685.062	3.18
685.386	3.11
685.709	3.35
686.032	2.73
686.355	3.09
686.678	3.87
687.001	2.91
687.324	2.45
687.646	2.97
687.969	3.22
688.292	2.61
688.614	3.81
688.937	2.95
689.26	2.92
689.582	3.25
689.904	3.08
690.227	3.6
690.549	3.13
690.871	3.06
691.194	3.04
691.516	2.59
691.838	2.73
692.16	2.89
692.482	2.68
