Data from 21-11_crown_Reflection__0__65.txt Node

Date: Thu Dec 15 16:57:28 CST 2022
User: ToomeyLab
Spectrometer: FLMS14357
Trigger mode: 0
Integration Time (sec): 1.000000E-2
Scans to average: 100
Electric dark correction enabled: true
Nonlinearity correction enabled: false
Boxcar width: 0
XAxis mode: Wavelengths
Number of Pixels in Spectrum: 2048
>>>>>Begin Spectral Data<<<<<
189.047	82.29
189.435	82.29
189.823	82.29
190.211	-606.59
190.599	26.77
190.987	85.66
191.375	-14.38
191.763	80.41
192.151	381.95
192.538	8.36
192.926	925.79
193.314	14227.78
193.702	-11.83
194.089	-20.23
194.477	229.83
194.864	139.96
195.252	253.08
195.639	176.04
196.027	57.89
196.414	13.75
196.801	276.44
197.189	127.5
197.576	-2886.59
197.963	-291.72
198.351	39.84
198.738	-15.6
199.125	-45.09
199.512	27.29
199.899	5.44
200.286	3.95
200.673	24.3
201.06	9.24
201.447	31.49
201.833	31.95
202.22	7.38
202.607	-54.4
202.994	20.93
203.38	50.94
203.767	17.37
204.154	11.63
204.54	18.17
204.927	10.87
205.313	41.44
205.699	10.88
206.086	20
206.472	40.59
206.858	21.81
207.245	18.94
207.631	12.9
208.017	43.27
208.403	-20.96
208.789	-2.98
209.175	-21.34
209.561	-7.14
209.947	-18.22
210.333	8
210.719	18.4
211.105	16.87
211.491	4.51
211.876	-8.26
212.262	5.34
212.648	-6.02
213.034	-9.94
213.419	-3.87
213.805	-26.89
214.19	-33.31
214.576	-29.49
214.961	-11.18
215.346	-12.5
215.732	-10.18
216.117	-3.3
216.502	-11.69
216.888	23.22
217.273	10.48
217.658	-4.21
218.043	-11.21
218.428	-13.47
218.813	11.37
219.198	-23.04
219.583	14.31
219.968	14.09
220.353	12.38
220.738	17.5
221.122	4.71
221.507	7.59
221.892	-15.23
222.276	-14.83
222.661	-1.89
223.046	-13.05
223.43	17.23
223.815	-4.05
224.199	6.94
224.583	3.96
224.968	0.47
225.352	-5.27
225.736	11.22
226.121	9
226.505	1.33
226.889	2.39
227.273	-0
227.657	3.96
228.041	9.14
228.425	1.35
228.809	6.85
229.193	6.51
229.577	6.36
229.961	5.57
230.344	6.35
230.728	6.43
231.112	6.97
231.495	5.38
231.879	6.49
232.263	6.58
232.646	6.12
233.03	7.08
233.413	6.81
233.797	5.97
234.18	6.71
234.563	7.04
234.946	6.64
235.33	5.04
235.713	4.56
236.096	6.33
236.479	7.64
236.862	5.86
237.245	3.89
237.628	6.56
238.011	6.89
238.394	3.83
238.777	6.19
239.16	6.57
239.543	8.33
239.925	3.9
240.308	4.86
240.691	6.02
241.073	5.25
241.456	5.61
241.838	4.6
242.221	5.39
242.603	5.67
242.986	5.78
243.368	6.28
243.75	6.25
244.133	6.37
244.515	5.77
244.897	6.03
245.279	5.77
245.661	5.33
246.043	6.01
246.425	6.06
246.807	5.58
247.189	6.14
247.571	5.62
247.953	5.52
248.335	5.58
248.717	5.52
249.098	5.65
249.48	5.72
249.862	5.71
250.243	5.61
250.625	5.77
251.006	6.27
251.388	4.66
251.769	4.36
252.151	5.12
252.532	4.32
252.913	5.54
253.295	5.42
253.676	5.16
254.057	5.12
254.438	4.9
254.819	5.31
255.2	5.25
255.581	6.17
255.962	5.87
256.343	5.95
256.724	5.82
257.105	4.68
257.486	5.06
257.867	4.85
258.247	5.29
258.628	5.43
259.009	4.72
259.389	4.34
259.77	5.18
260.15	5.85
260.531	4.72
260.911	5.03
261.292	5.18
261.672	5.29
262.052	5.19
262.432	4.96
262.813	5.29
263.193	5.66
263.573	4.83
263.953	4.44
264.333	5.15
264.713	5.43
265.093	4.77
265.473	3.98
265.853	5.68
266.233	5.1
266.612	4.38
266.992	5.31
267.372	5.89
267.752	4.85
268.131	4.46
268.511	4.33
268.89	5.09
269.27	4.46
269.649	4.84
270.029	4.51
270.408	4.75
270.787	4.98
271.167	4.86
271.546	5.47
271.925	5.18
272.304	4.78
272.683	4.33
273.062	4.68
273.441	4.4
273.82	4.92
274.199	4.83
274.578	5.19
274.957	4.98
275.336	5.18
275.715	5.32
276.093	4.25
276.472	4.54
276.851	4.69
277.229	4.49
277.608	4.5
277.986	4.97
278.365	5.29
278.743	4.87
279.122	4.77
279.5	4.91
279.878	4.4
280.257	4.53
280.635	4.32
281.013	3.99
281.391	4.63
281.769	4.69
282.147	4.67
282.525	4.39
282.903	4.56
283.281	4.63
283.659	4.85
284.037	4.4
284.415	4.49
284.792	4.61
285.17	4.72
285.548	4.58
285.925	4.18
286.303	5.03
286.68	4.61
287.058	4.97
287.435	4.33
287.813	4.44
288.19	4.11
288.567	4.53
288.945	4.04
289.322	4.14
289.699	4.66
290.076	4.33
290.453	4.11
290.83	4.56
291.207	4.17
291.584	4.74
291.961	4.46
292.338	4.22
292.715	3.94
293.092	4.57
293.469	4.31
293.845	4.23
294.222	4.91
294.599	4.01
294.975	3.43
295.352	4.84
295.728	4.02
296.105	3.91
296.481	4.36
296.858	4.27
297.234	3.54
297.61	4.21
297.986	4.64
298.363	4.14
298.739	4.38
299.115	4.26
299.491	4.55
299.867	4.28
300.243	4.1
300.619	3.92
300.995	4.39
301.371	4.34
301.746	4.19
302.122	3.77
302.498	3.96
302.874	4.11
303.249	4.02
303.625	3.75
304	4.45
304.376	4.26
304.751	4.18
305.127	3.69
305.502	4.22
305.878	3.99
306.253	4.14
306.628	3.93
307.003	3.93
307.378	4
307.754	4.41
308.129	3.74
308.504	4.27
308.879	4.17
309.254	4.23
309.629	3.77
310.003	4.34
310.378	4.62
310.753	4.18
311.128	3.57
311.502	3.97
311.877	4.35
312.252	4.27
312.626	4.11
313.001	4.16
313.375	4.02
313.75	4.49
314.124	4.08
314.498	4.57
314.873	3.68
315.247	3.93
315.621	3.4
315.995	3.79
316.369	3.5
316.743	3.82
317.117	3.79
317.491	4.45
317.865	3.81
318.239	4.19
318.613	3.95
318.987	3.46
319.361	4.08
319.734	4.34
320.108	4.06
320.482	4.4
320.855	3.84
321.229	3.34
321.602	4.17
321.976	3.68
322.349	4.44
322.723	4.14
323.096	4.23
323.469	3.52
323.843	3.85
324.216	4.16
324.589	3.79
324.962	3.37
325.335	3.47
325.708	3.98
326.081	3.86
326.454	4.01
326.827	4.03
327.2	3.81
327.573	4.57
327.945	3.97
328.318	3.83
328.691	3.67
329.063	3.9
329.436	4.11
329.809	4.54
330.181	4.61
330.553	3.83
330.926	4.23
331.298	3.79
331.671	4.35
332.043	3.74
332.415	4.29
332.787	3.95
333.159	3.73
333.532	3.92
333.904	4.16
334.276	3.99
334.648	3.65
335.02	3.48
335.391	3.85
335.763	3.89
336.135	3.76
336.507	3.66
336.879	3.97
337.25	3.94
337.622	4.28
337.993	3.69
338.365	3.64
338.736	4.12
339.108	3.83
339.479	4.18
339.851	4.11
340.222	4.39
340.593	3.91
340.964	3.92
341.336	3.79
341.707	4.13
342.078	3.87
342.449	3.98
342.82	4.2
343.191	4.11
343.562	4.14
343.933	3.56
344.303	4.23
344.674	4
345.045	4.02
345.416	4.57
345.786	4.1
346.157	3.93
346.527	3.89
346.898	3.77
347.268	4.27
347.639	3.75
348.009	4.23
348.38	4.09
348.75	4.51
349.12	3.62
349.49	3.36
349.861	3.83
350.231	3.9
350.601	3.91
350.971	3.98
351.341	3.99
351.711	4.1
352.081	4.23
352.45	3.87
352.82	3.63
353.19	3.6
353.56	3.83
353.929	3.97
354.299	4.56
354.669	4.19
355.038	4.08
355.408	4.2
355.777	4.25
356.147	4
356.516	3.72
356.885	3.94
357.254	3.7
357.624	3.65
357.993	4.09
358.362	4.22
358.731	4.39
359.1	4.08
359.469	4.33
359.838	4.3
360.207	3.97
360.576	4.26
360.945	4.35
361.314	3.96
361.682	4.13
362.051	4.09
362.42	4.09
362.788	4.34
363.157	4
363.525	4.12
363.894	4.05
364.262	4.21
364.631	4.58
364.999	4.1
365.367	4
365.735	4.01
366.104	4.01
366.472	4.12
366.84	4.07
367.208	4.39
367.576	3.97
367.944	3.95
368.312	4.01
368.68	4.25
369.048	4.2
369.416	4.07
369.783	4.39
370.151	4.28
370.519	4.73
370.886	4.46
371.254	4.61
371.621	4.32
371.989	4.48
372.356	4.44
372.724	4.31
373.091	4.04
373.458	4.14
373.826	4.14
374.193	4.26
374.56	4.34
374.927	4.24
375.294	4.42
375.661	4.41
376.028	4.11
376.395	4.34
376.762	4.06
377.129	4.3
377.496	4.24
377.863	4.52
378.229	4.58
378.596	4.37
378.963	4.34
379.329	4.54
379.696	4.15
380.062	4.44
380.429	4.02
380.795	4.54
381.161	4.24
381.528	4.22
381.894	4.15
382.26	4.51
382.626	4.38
382.993	4.59
383.359	4.16
383.725	4.22
384.091	4.32
384.457	4.12
384.823	4.42
385.188	4.55
385.554	4.34
385.92	4.34
386.286	4.17
386.651	4.22
387.017	4.35
387.383	4.13
387.748	4.53
388.114	4.45
388.479	4.59
388.845	4.22
389.21	4.54
389.575	4.71
389.94	4.74
390.306	4.47
390.671	4.3
391.036	4.72
391.401	4.52
391.766	4.35
392.131	4.75
392.496	4.38
392.861	4.64
393.226	4.42
393.591	4.4
393.956	4.47
394.32	4.63
394.685	4.5
395.05	4.62
395.414	4.62
395.779	4.76
396.143	4.33
396.508	4.38
396.872	4.63
397.236	4.84
397.601	4.68
397.965	4.51
398.329	4.55
398.694	4.35
399.058	4.56
399.422	4.43
399.786	4.48
400.15	4.54
400.514	4.4
400.878	4.49
401.242	4.63
401.605	4.42
401.969	4.37
402.333	4.45
402.697	4.86
403.06	4.38
403.424	4.53
403.787	4.43
404.151	4.63
404.514	4.7
404.878	4.29
405.241	4.6
405.604	4.72
405.968	4.68
406.331	4.61
406.694	4.69
407.057	4.54
407.42	4.71
407.783	4.84
408.146	4.62
408.509	4.72
408.872	4.79
409.235	4.79
409.598	4.55
409.961	4.64
410.323	4.55
410.686	4.6
411.049	4.78
411.411	4.46
411.774	4.46
412.136	4.5
412.499	4.77
412.861	4.4
413.223	4.42
413.586	4.81
413.948	4.84
414.31	4.81
414.672	4.57
415.035	4.85
415.397	4.55
415.759	4.6
416.121	4.79
416.483	4.49
416.845	4.55
417.206	4.67
417.568	4.54
417.93	4.65
418.292	4.46
418.653	4.59
419.015	4.57
419.377	4.57
419.738	4.72
420.1	4.61
420.461	4.44
420.822	4.62
421.184	4.66
421.545	4.69
421.906	4.66
422.267	4.64
422.629	4.58
422.99	4.6
423.351	4.55
423.712	4.65
424.073	4.6
424.434	4.74
424.795	4.42
425.155	4.61
425.516	4.58
425.877	4.5
426.238	4.58
426.598	4.61
426.959	4.66
427.32	4.62
427.68	4.62
428.041	4.77
428.401	4.5
428.761	4.73
429.122	4.61
429.482	4.63
429.842	4.63
430.202	4.75
430.563	4.72
430.923	4.81
431.283	4.7
431.643	4.89
432.003	4.75
432.363	4.87
432.722	4.7
433.082	4.53
433.442	4.69
433.802	4.71
434.161	4.63
434.521	4.76
434.881	4.83
435.24	4.72
435.6	4.63
435.959	4.72
436.319	4.72
436.678	4.79
437.037	4.59
437.396	4.72
437.756	4.58
438.115	4.65
438.474	4.75
438.833	4.76
439.192	4.75
439.551	4.65
439.91	4.78
440.269	4.59
440.628	4.66
440.987	4.78
441.345	4.79
441.704	4.72
442.063	4.67
442.421	4.7
442.78	4.76
443.138	4.73
443.497	4.73
443.855	4.75
444.214	4.5
444.572	4.92
444.93	4.8
445.288	4.59
445.647	4.71
446.005	4.77
446.363	4.67
446.721	4.7
447.079	4.65
447.437	4.64
447.795	4.72
448.153	4.67
448.51	4.71
448.868	4.65
449.226	4.69
449.584	4.63
449.941	4.73
450.299	4.81
450.656	4.81
451.014	4.75
451.371	4.72
451.729	4.84
452.086	4.72
452.443	4.9
452.801	4.87
453.158	4.91
453.515	4.64
453.872	4.75
454.229	4.68
454.586	4.74
454.943	4.82
455.3	4.89
455.657	4.56
456.014	4.77
456.371	4.84
456.727	4.96
457.084	4.9
457.441	4.89
457.797	4.89
458.154	4.77
458.51	4.76
458.867	4.68
459.223	4.83
459.58	4.86
459.936	4.74
460.292	4.65
460.648	4.51
461.005	4.73
461.361	4.74
461.717	4.7
462.073	4.75
462.429	4.72
462.785	4.92
463.141	4.8
463.496	4.86
463.852	4.87
464.208	4.87
464.564	4.82
464.919	4.79
465.275	4.77
465.631	4.82
465.986	4.89
466.342	4.72
466.697	4.77
467.052	4.89
467.408	4.84
467.763	4.86
468.118	4.78
468.473	4.86
468.829	4.83
469.184	4.79
469.539	4.66
469.894	4.81
470.249	4.82
470.603	5.02
470.958	4.89
471.313	4.99
471.668	4.86
472.023	4.94
472.377	4.9
472.732	5.04
473.086	4.84
473.441	4.82
473.795	4.97
474.15	4.78
474.504	4.79
474.859	4.58
475.213	4.94
475.567	4.8
475.921	4.84
476.275	4.81
476.63	4.91
476.984	4.8
477.338	4.88
477.692	4.8
478.045	4.85
478.399	4.85
478.753	4.78
479.107	4.96
479.461	4.87
479.814	4.91
480.168	4.81
480.521	4.89
480.875	4.9
481.228	4.71
481.582	4.82
481.935	4.92
482.289	4.79
482.642	4.77
482.995	4.75
483.348	4.78
483.701	4.82
484.055	4.72
484.408	4.69
484.761	4.63
485.114	4.53
485.466	4.5
485.819	4.53
486.172	4.57
486.525	4.6
486.878	4.66
487.23	4.72
487.583	4.71
487.936	4.7
488.288	4.59
488.641	4.58
488.993	4.57
489.345	4.59
489.698	4.61
490.05	4.57
490.402	4.63
490.754	4.68
491.107	4.65
491.459	4.7
491.811	4.79
492.163	4.72
492.515	4.61
492.866	4.57
493.218	4.59
493.57	4.66
493.922	4.64
494.274	4.73
494.625	4.79
494.977	4.72
495.328	4.85
495.68	4.84
496.031	4.83
496.383	4.81
496.734	4.74
497.086	5
497.437	4.89
497.788	4.86
498.139	4.86
498.49	4.8
498.842	4.82
499.193	4.72
499.544	4.83
499.894	4.71
500.245	4.94
500.596	4.9
500.947	4.87
501.298	4.87
501.648	4.77
501.999	4.87
502.35	4.77
502.7	4.89
503.051	4.82
503.401	4.93
503.752	4.75
504.102	4.71
504.452	4.83
504.803	4.78
505.153	4.88
505.503	4.86
505.853	4.94
506.203	4.91
506.553	4.87
506.903	4.82
507.253	4.8
507.603	4.83
507.953	4.71
508.303	4.81
508.652	4.69
509.002	4.96
509.352	4.81
509.701	4.7
510.051	4.78
510.4	4.84
510.75	4.74
511.099	4.7
511.449	4.87
511.798	4.79
512.147	4.75
512.496	4.72
512.846	4.8
513.195	4.79
513.544	4.81
513.893	4.78
514.242	4.82
514.591	4.71
514.939	4.91
515.288	4.86
515.637	4.8
515.986	4.82
516.334	4.87
516.683	4.75
517.032	4.82
517.38	4.74
517.729	4.82
518.077	4.89
518.426	4.81
518.774	4.76
519.122	4.73
519.47	4.68
519.819	4.81
520.167	4.72
520.515	4.74
520.863	4.73
521.211	4.71
521.559	4.73
521.907	4.74
522.255	4.76
522.602	4.81
522.95	4.82
523.298	4.82
523.645	4.86
523.993	4.76
524.341	4.9
524.688	4.77
525.036	4.77
525.383	4.82
525.73	4.75
526.078	4.82
526.425	4.7
526.772	4.71
527.119	4.77
527.466	4.76
527.814	4.74
528.161	4.73
528.508	4.8
528.854	4.68
529.201	4.66
529.548	4.62
529.895	4.55
530.242	4.52
530.588	4.58
530.935	4.6
531.282	4.57
531.628	4.66
531.975	4.66
532.321	4.69
532.667	4.72
533.014	4.84
533.36	4.78
533.706	4.73
534.052	4.73
534.399	4.69
534.745	4.54
535.091	4.62
535.437	4.64
535.783	4.68
536.129	4.66
536.474	4.8
536.82	4.77
537.166	4.64
537.512	4.74
537.857	4.83
538.203	4.7
538.549	4.61
538.894	4.71
539.239	4.78
539.585	4.84
539.93	4.8
540.276	4.72
540.621	4.91
540.966	4.73
541.311	4.72
541.656	4.72
542.001	4.62
542.346	4.66
542.691	4.53
543.036	4.67
543.381	4.61
543.726	4.69
544.071	4.7
544.415	4.72
544.76	4.67
545.105	4.74
545.449	4.73
545.794	4.7
546.138	4.71
546.483	4.81
546.827	4.68
547.171	4.73
547.516	4.83
547.86	4.79
548.204	4.75
548.548	4.87
548.892	4.8
549.236	4.78
549.58	4.78
549.924	4.92
550.268	4.87
550.612	4.97
550.956	4.95
551.3	5.06
551.643	4.79
551.987	5.02
552.33	5.09
552.674	4.74
553.017	4.85
553.361	4.8
553.704	4.84
554.048	4.87
554.391	4.8
554.734	4.66
555.077	4.74
555.42	4.78
555.764	4.73
556.107	4.9
556.45	4.81
556.793	4.84
557.135	4.91
557.478	4.79
557.821	4.91
558.164	4.82
558.507	4.71
558.849	5
559.192	4.79
559.534	4.65
559.877	4.82
560.219	4.78
560.562	4.82
560.904	4.97
561.246	4.73
561.589	4.92
561.931	4.74
562.273	4.79
562.615	4.75
562.957	4.85
563.299	4.71
563.641	4.91
563.983	4.57
564.325	4.85
564.667	4.84
565.008	4.63
565.35	4.64
565.692	4.71
566.033	4.75
566.375	4.89
566.716	4.52
567.058	4.79
567.399	4.79
567.741	4.82
568.082	4.66
568.423	4.6
568.764	4.79
569.105	4.7
569.447	4.74
569.788	4.58
570.129	4.65
570.47	4.77
570.811	4.72
571.151	4.65
571.492	4.75
571.833	4.69
572.174	4.71
572.514	4.8
572.855	4.83
573.195	4.6
573.536	4.8
573.876	4.86
574.217	4.7
574.557	4.72
574.898	4.67
575.238	4.78
575.578	4.75
575.918	4.85
576.258	4.92
576.598	4.59
576.938	4.75
577.278	4.79
577.618	4.74
577.958	4.72
578.298	4.8
578.638	4.69
578.977	4.85
579.317	4.67
579.657	4.77
579.996	4.86
580.336	4.72
580.675	4.73
581.014	4.88
581.354	4.53
581.693	4.98
582.032	5
582.372	4.72
582.711	4.64
583.05	4.72
583.389	4.89
583.728	4.81
584.067	4.65
584.406	4.91
584.745	4.65
585.083	4.73
585.422	4.77
585.761	4.78
586.1	4.81
586.438	4.74
586.777	4.85
587.115	4.81
587.454	4.76
587.792	4.63
588.13	4.72
588.469	4.7
588.807	4.82
589.145	4.9
589.483	4.54
589.821	4.72
590.159	4.84
590.497	4.78
590.835	4.71
591.173	4.84
591.511	4.99
591.849	4.65
592.187	4.44
592.524	4.97
592.862	4.65
593.2	4.78
593.537	4.76
593.875	4.68
594.212	4.8
594.55	4.53
594.887	4.88
595.224	4.79
595.561	4.75
595.899	4.76
596.236	4.73
596.573	4.68
596.91	4.63
597.247	4.74
597.584	4.75
597.921	4.6
598.258	4.68
598.594	4.64
598.931	4.51
599.268	4.5
599.604	4.68
599.941	4.83
600.277	4.67
600.614	4.66
600.95	4.57
601.287	4.41
601.623	4.5
601.959	5.02
602.296	4.87
602.632	4.59
602.968	4.68
603.304	4.71
603.64	4.65
603.976	4.55
604.312	4.64
604.648	4.49
604.984	4.64
605.319	4.45
605.655	4.5
605.991	4.41
606.326	4.71
606.662	4.42
606.998	4.75
607.333	4.55
607.668	4.46
608.004	4.58
608.339	4.49
608.674	4.61
609.01	4.83
609.345	4.68
609.68	4.71
610.015	4.65
610.35	4.69
610.685	4.3
611.02	4.38
611.355	4.58
611.689	4.55
612.024	4.66
612.359	4.72
612.694	4.67
613.028	4.39
613.363	4.4
613.697	4.65
614.032	4.38
614.366	4.45
614.7	4.64
615.035	4.64
615.369	4.76
615.703	4.48
616.037	4.65
616.371	4.28
616.705	4.52
617.039	4.59
617.373	4.62
617.707	4.71
618.041	4.55
618.375	4.13
618.709	4.83
619.042	4.5
619.376	4.76
619.71	4.27
620.043	4.77
620.377	4.39
620.71	4.29
621.043	4.55
621.377	4.63
621.71	4.63
622.043	4.69
622.376	4.35
622.709	5.06
623.043	4.51
623.376	4.74
623.709	4.67
624.041	4.25
624.374	4.8
624.707	4.44
625.04	4.52
625.373	4.72
625.705	4.53
626.038	4.67
626.37	4.57
626.703	4.46
627.035	4.4
627.368	4.76
627.7	4.56
628.032	4.4
628.365	4.54
628.697	4.77
629.029	4.68
629.361	4.56
629.693	4.54
630.025	4.69
630.357	4.71
630.689	4.47
631.021	4.6
631.353	4.74
631.684	4.34
632.016	4.29
632.348	4.02
632.679	4.7
633.011	4.73
633.342	4.9
633.674	4.23
634.005	4.3
634.336	4.45
634.668	4.34
634.999	4.5
635.33	4.55
635.661	4.53
635.992	4.63
636.323	4.43
636.654	4.44
636.985	4.54
637.316	4.85
637.647	4.53
637.977	4.51
638.308	4.59
638.639	4.56
638.969	4.17
639.3	4.5
639.63	4.5
639.961	4.4
640.291	4.51
640.622	4.37
640.952	4.62
641.282	4.02
641.612	4.12
641.943	4.22
642.273	4.37
642.603	4.25
642.933	4.81
643.263	4.62
643.592	4.67
643.922	4.89
644.252	4.91
644.582	4.48
644.911	4.62
645.241	4.51
645.571	4.83
645.9	4.87
646.23	4.9
646.559	4.11
646.888	4.59
647.218	4.61
647.547	4.55
647.876	3.99
648.205	4.27
648.534	4.62
648.863	4.4
649.192	4.86
649.521	4.26
649.85	4.55
650.179	4.93
650.508	4.47
650.837	4.85
651.165	4.72
651.494	4.36
651.822	4.38
652.151	4.41
652.479	4.51
652.808	4.14
653.136	3.93
653.465	4.13
653.793	4.78
654.121	4.52
654.449	4.13
654.777	4.24
655.105	4.29
655.433	4.58
655.761	4.37
656.089	4.62
656.417	4.95
656.745	4.73
657.073	4.57
657.4	4.43
657.728	4.09
658.056	4.74
658.383	4.53
658.711	4.53
659.038	5.05
659.365	4.58
659.693	4.6
660.02	4.23
660.347	4.32
660.674	4.5
661.001	4.34
661.329	4.51
661.656	4.35
661.982	4.44
662.309	4.29
662.636	4.28
662.963	4.21
663.29	4.51
663.616	4.15
663.943	4.32
664.27	4.53
664.596	4.23
664.923	4.41
665.249	4.79
665.576	4.29
665.902	4.34
666.228	4.95
666.554	4.83
666.881	4.37
667.207	4.88
667.533	4.46
667.859	4.09
668.185	4.27
668.511	4.3
668.837	4.46
669.162	3.99
669.488	3.82
669.814	4.1
670.139	3.87
670.465	4.28
670.791	3.97
671.116	3.95
671.442	3.89
671.767	4.18
672.092	4.03
672.418	4.48
672.743	4.52
673.068	3.96
673.393	4.54
673.718	3.75
674.043	4.33
674.368	4.21
674.693	4.6
675.018	4.61
675.343	4.36
675.667	4.36
675.992	4.4
676.317	4.05
676.641	5
676.966	4.18
677.29	3.94
677.615	4.64
677.939	5.12
678.264	4.61
678.588	4.54
678.912	4.61
679.236	4.17
679.56	4.01
679.885	4.21
680.209	4.53
680.532	4.74
680.856	4.74
681.18	4.67
681.504	4.26
681.828	3.88
682.152	4.61
682.475	4.34
682.799	3.9
683.122	4.12
683.446	3.76
683.769	4.56
684.093	4.69
684.416	4.08
684.739	4.3
685.062	4.39
685.386	4.55
685.709	4.55
686.032	4.58
686.355	4.62
686.678	4.65
687.001	4.41
687.324	4.26
687.646	4.25
687.969	4.57
688.292	4.36
688.614	4.69
688.937	5.01
689.26	4.52
689.582	4.23
689.904	4.79
690.227	4.83
690.549	4.91
690.871	4.56
691.194	4.59
691.516	3.76
691.838	5
692.16	4.32
692.482	3.58
