Data from 21-11_chest_Reflection__1__61.txt Node

Date: Thu Dec 15 16:55:44 CST 2022
User: ToomeyLab
Spectrometer: FLMS14357
Trigger mode: 0
Integration Time (sec): 1.000000E-2
Scans to average: 100
Electric dark correction enabled: true
Nonlinearity correction enabled: false
Boxcar width: 0
XAxis mode: Wavelengths
Number of Pixels in Spectrum: 2048
>>>>>Begin Spectral Data<<<<<
189.047	117.71
189.435	117.71
189.823	117.71
190.211	-252.59
190.599	7.06
190.987	-126.82
191.375	156.56
191.763	86.29
192.151	780.71
192.538	64.42
192.926	1143.68
193.314	24016.67
193.702	97.4
194.089	-42.58
194.477	120.34
194.864	12.77
195.252	597.47
195.639	147.11
196.027	88.99
196.414	-13.04
196.801	-523.9
197.189	32.22
197.576	-4776.83
197.963	-1420.86
198.351	30.53
198.738	-7.69
199.125	-7.69
199.512	38.12
199.899	-13.92
200.286	-19.24
200.673	41.33
201.06	6.09
201.447	-14.29
201.833	-2.49
202.22	31.82
202.607	-24.57
202.994	-8.17
203.38	21.37
203.767	-5.99
204.154	2.99
204.54	14.14
204.927	12.84
205.313	19.5
205.699	32.47
206.086	49
206.472	17.55
206.858	17.26
207.245	18.71
207.631	9.33
208.017	23.67
208.403	-22.85
208.789	-35.58
209.175	7.61
209.561	-13.94
209.947	-6.2
210.333	2.27
210.719	6.34
211.105	37.05
211.491	1.87
211.876	-10.61
212.262	12.35
212.648	23.37
213.034	11.72
213.419	12.42
213.805	-1.33
214.19	-9.01
214.576	0.08
214.961	15.74
215.346	2.11
215.732	1.86
216.117	31.7
216.502	1.91
216.888	22.58
217.273	24.64
217.658	-4.78
218.043	6.11
218.428	1.24
218.813	19.18
219.198	-19.36
219.583	-9.51
219.968	12.78
220.353	-7.44
220.738	12.48
221.122	-4.89
221.507	-6.02
221.892	1.43
222.276	-23.21
222.661	-5.49
223.046	3.14
223.43	13.41
223.815	5.6
224.199	-1.33
224.583	-1.86
224.968	4.43
225.352	-3.01
225.736	3.95
226.121	8.51
226.505	2.87
226.889	6.43
227.273	-0.13
227.657	2.42
228.041	2.84
228.425	3.93
228.809	2.39
229.193	3.48
229.577	4.71
229.961	4.18
230.344	4.03
230.728	5.07
231.112	5.3
231.495	2.61
231.879	4.41
232.263	6.02
232.646	5.15
233.03	7.37
233.413	5.09
233.797	3.5
234.18	5.49
234.563	5.31
234.946	1.55
235.33	3.32
235.713	4.91
236.096	5.93
236.479	6.33
236.862	3.29
237.245	4.12
237.628	5.79
238.011	2.97
238.394	5.38
238.777	5.24
239.16	5.49
239.543	4.88
239.925	5.22
240.308	4.27
240.691	3.45
241.073	4.87
241.456	4.18
241.838	4.2
242.221	4.31
242.603	4.93
242.986	4.79
243.368	4.72
243.75	4.78
244.133	4.88
244.515	4.31
244.897	4.82
245.279	4.08
245.661	4.55
246.043	4.61
246.425	4.3
246.807	4.13
247.189	4.07
247.571	3.66
247.953	3.91
248.335	4.29
248.717	4.21
249.098	4.6
249.48	4.13
249.862	4.16
250.243	4.29
250.625	4.07
251.006	4.28
251.388	4.47
251.769	3.82
252.151	4.03
252.532	3.6
252.913	4.54
253.295	4.33
253.676	4.22
254.057	3.9
254.438	4
254.819	3.56
255.2	3.62
255.581	5.22
255.962	4.53
256.343	4.24
256.724	4.71
257.105	4.07
257.486	3.35
257.867	3.19
258.247	4.88
258.628	3.8
259.009	3.64
259.389	3.6
259.77	3.73
260.15	4.72
260.531	4.1
260.911	3.67
261.292	4
261.672	3.99
262.052	3.93
262.432	4.03
262.813	4.09
263.193	4.16
263.573	3.61
263.953	3.99
264.333	4.69
264.713	4.68
265.093	3.75
265.473	3.32
265.853	4.08
266.233	4.02
266.612	3.09
266.992	3.98
267.372	3.81
267.752	4.51
268.131	3.54
268.511	3.6
268.89	4.52
269.27	3.34
269.649	3.62
270.029	3.81
270.408	3.31
270.787	4.23
271.167	4.24
271.546	4.3
271.925	4.11
272.304	3.8
272.683	3.47
273.062	3.79
273.441	3.88
273.82	3.39
274.199	3.45
274.578	4.01
274.957	3.52
275.336	4.23
275.715	4.22
276.093	3.29
276.472	3.46
276.851	4.06
277.229	3.72
277.608	3.53
277.986	3.87
278.365	3.88
278.743	3.51
279.122	3.24
279.5	3.5
279.878	3.53
280.257	4.31
280.635	4.1
281.013	3.08
281.391	3.99
281.769	4.08
282.147	3.43
282.525	3.42
282.903	3.23
283.281	3.82
283.659	3.8
284.037	3.31
284.415	3.09
284.792	3.9
285.17	3.6
285.548	3.35
285.925	3.53
286.303	3.85
286.68	3.82
287.058	3.76
287.435	3.54
287.813	3.37
288.19	3.31
288.567	3.58
288.945	3.38
289.322	3.8
289.699	3.73
290.076	3.72
290.453	3.32
290.83	3.74
291.207	3.47
291.584	3.81
291.961	3.66
292.338	3.57
292.715	3.47
293.092	4.08
293.469	3.25
293.845	3.65
294.222	3.92
294.599	2.84
294.975	3.63
295.352	4.09
295.728	3.71
296.105	3.31
296.481	3.48
296.858	3.96
297.234	2.93
297.61	3.88
297.986	3.8
298.363	3.78
298.739	3.93
299.115	3.58
299.491	3.98
299.867	3.77
300.243	3.63
300.619	3.18
300.995	3.38
301.371	3.61
301.746	3.85
302.122	3.28
302.498	3.63
302.874	3.73
303.249	3.81
303.625	3.47
304	3.92
304.376	4.44
304.751	3.45
305.127	3.84
305.502	4.13
305.878	3.93
306.253	3.51
306.628	3.57
307.003	3.55
307.378	3.55
307.754	3.59
308.129	3.45
308.504	3.86
308.879	3.7
309.254	4.11
309.629	3.93
310.003	3.63
310.378	3.94
310.753	3.82
311.128	3.61
311.502	3.59
311.877	3.75
312.252	3.81
312.626	4.08
313.001	3.91
313.375	3.76
313.75	3.99
314.124	3.71
314.498	4.09
314.873	3.68
315.247	4
315.621	3.28
315.995	3.64
316.369	3.76
316.743	3.84
317.117	3.71
317.491	4.28
317.865	3.59
318.239	4.07
318.613	3.93
318.987	3.33
319.361	3.69
319.734	3.8
320.108	3.94
320.482	4.05
320.855	3.52
321.229	4.11
321.602	3.81
321.976	3.43
322.349	4.39
322.723	3.79
323.096	4.07
323.469	3.62
323.843	3.42
324.216	3.87
324.589	4.01
324.962	3.37
325.335	3.5
325.708	4.01
326.081	4.05
326.454	3.52
326.827	3.94
327.2	3.22
327.573	3.97
327.945	3.8
328.318	3.68
328.691	3.71
329.063	3.49
329.436	3.38
329.809	4.06
330.181	3.97
330.553	4.14
330.926	4.31
331.298	3.51
331.671	3.76
332.043	3.52
332.415	3.91
332.787	4.03
333.159	3.31
333.532	3.5
333.904	4.09
334.276	3.81
334.648	3.29
335.02	3.64
335.391	3.67
335.763	3.5
336.135	3.49
336.507	3.32
336.879	4.01
337.25	3.6
337.622	3.87
337.993	3.67
338.365	3.44
338.736	3.85
339.108	3.55
339.479	3.51
339.851	3.88
340.222	4.18
340.593	3.74
340.964	3.51
341.336	3.59
341.707	3.8
342.078	3.48
342.449	3.8
342.82	3.68
343.191	3.55
343.562	3.68
343.933	3.46
344.303	3.86
344.674	3.82
345.045	3.88
345.416	4.08
345.786	4.03
346.157	3.72
346.527	3.93
346.898	3.55
347.268	3.94
347.639	3.79
348.009	3.95
348.38	3.6
348.75	3.76
349.12	4.06
349.49	4.13
349.861	3.72
350.231	3.48
350.601	3.71
350.971	3.64
351.341	4.11
351.711	3.43
352.081	3.41
352.45	3.7
352.82	3.62
353.19	3.66
353.56	3.67
353.929	4.28
354.299	4.13
354.669	3.7
355.038	4.05
355.408	3.56
355.777	3.76
356.147	3.68
356.516	3.37
356.885	4.08
357.254	3.37
357.624	3.63
357.993	3.95
358.362	3.67
358.731	4.12
359.1	3.83
359.469	3.86
359.838	4
360.207	3.92
360.576	3.75
360.945	3.72
361.314	3.84
361.682	3.62
362.051	3.61
362.42	3.72
362.788	3.97
363.157	3.66
363.525	4.03
363.894	3.62
364.262	4.08
364.631	3.93
364.999	3.86
365.367	3.78
365.735	3.57
366.104	3.6
366.472	3.75
366.84	3.84
367.208	4.11
367.576	3.85
367.944	3.71
368.312	3.38
368.68	4.11
369.048	3.89
369.416	3.54
369.783	3.64
370.151	4.01
370.519	4.18
370.886	4
371.254	3.96
371.621	3.89
371.989	4.13
372.356	3.89
372.724	3.62
373.091	3.8
373.458	3.79
373.826	3.79
374.193	3.93
374.56	3.79
374.927	3.63
375.294	3.91
375.661	3.94
376.028	3.92
376.395	3.77
376.762	3.89
377.129	3.7
377.496	3.79
377.863	3.94
378.229	4.24
378.596	4.04
378.963	4.01
379.329	3.86
379.696	3.63
380.062	3.91
380.429	3.77
380.795	4.07
381.161	3.62
381.528	3.48
381.894	3.6
382.26	3.89
382.626	3.98
382.993	4.08
383.359	3.76
383.725	3.71
384.091	3.76
384.457	3.86
384.823	4.08
385.188	4.13
385.554	3.72
385.92	3.77
386.286	4
386.651	3.79
387.017	4.07
387.383	3.92
387.748	4.09
388.114	3.93
388.479	3.79
388.845	3.73
389.21	4.13
389.575	4.28
389.94	4.06
390.306	4.34
390.671	4.07
391.036	4.04
391.401	3.92
391.766	3.87
392.131	3.97
392.496	3.86
392.861	3.82
393.226	3.88
393.591	3.83
393.956	3.85
394.32	4.02
394.685	3.92
395.05	4.04
395.414	3.86
395.779	4.05
396.143	3.76
396.508	3.91
396.872	3.88
397.236	3.97
397.601	4.04
397.965	3.92
398.329	4.04
398.694	3.65
399.058	4.01
399.422	3.95
399.786	3.8
400.15	3.95
400.514	3.84
400.878	4.03
401.242	4.09
401.605	4.05
401.969	3.94
402.333	3.72
402.697	3.98
403.06	3.97
403.424	4.14
403.787	3.95
404.151	3.84
404.514	3.98
404.878	3.88
405.241	4.05
405.604	3.98
405.968	4
406.331	4.15
406.694	4.07
407.057	3.82
407.42	3.95
407.783	4.22
408.146	3.81
408.509	4.17
408.872	4.05
409.235	4.05
409.598	3.8
409.961	4.15
410.323	3.87
410.686	4.03
411.049	4.08
411.411	3.76
411.774	3.95
412.136	3.92
412.499	4.23
412.861	3.61
413.223	4.12
413.586	3.97
413.948	4.14
414.31	4.15
414.672	4.13
415.035	4.32
415.397	3.96
415.759	3.75
416.121	4.13
416.483	4
416.845	3.94
417.206	3.95
417.568	3.96
417.93	4.04
418.292	3.89
418.653	3.75
419.015	4.01
419.377	3.86
419.738	4.04
420.1	3.87
420.461	3.82
420.822	3.95
421.184	3.92
421.545	4.05
421.906	3.95
422.267	3.94
422.629	3.86
422.99	3.9
423.351	3.88
423.712	3.94
424.073	3.94
424.434	4.03
424.795	3.97
425.155	3.9
425.516	3.87
425.877	3.95
426.238	3.84
426.598	3.94
426.959	3.97
427.32	3.96
427.68	4.01
428.041	4.04
428.401	3.82
428.761	4.14
429.122	3.97
429.482	3.92
429.842	4.02
430.202	4.08
430.563	4.07
430.923	4.12
431.283	4
431.643	4.2
432.003	4.17
432.363	4.22
432.722	4.05
433.082	4.11
433.442	4
433.802	3.99
434.161	3.97
434.521	4
434.881	4.18
435.24	4.1
435.6	4.09
435.959	4.16
436.319	4.08
436.678	4.11
437.037	4.11
437.396	4.14
437.756	3.97
438.115	4.04
438.474	4.1
438.833	4.21
439.192	4.12
439.551	4.04
439.91	4.09
440.269	4.12
440.628	4.11
440.987	4.07
441.345	4.17
441.704	4.11
442.063	4.07
442.421	3.98
442.78	4
443.138	4.09
443.497	4.1
443.855	4.19
444.214	3.93
444.572	4.2
444.93	4.07
445.288	4.08
445.647	3.92
446.005	4.1
446.363	4.06
446.721	4.07
447.079	4.05
447.437	4.1
447.795	4.14
448.153	4.07
448.51	4.06
448.868	4.04
449.226	4.08
449.584	4.04
449.941	4.08
450.299	4.1
450.656	4.01
451.014	4.17
451.371	4.16
451.729	4.15
452.086	4.11
452.443	4.33
452.801	4.27
453.158	4.34
453.515	4.07
453.872	4.2
454.229	4.05
454.586	4.14
454.943	4.28
455.3	4.19
455.657	4.08
456.014	4.21
456.371	4.33
456.727	4.24
457.084	4.32
457.441	4.23
457.797	4.21
458.154	4.27
458.51	4.18
458.867	4.28
459.223	4.21
459.58	4.21
459.936	4.22
460.292	4.15
460.648	4.1
461.005	4.17
461.361	4.16
461.717	4.1
462.073	4.15
462.429	4.19
462.785	4.22
463.141	4.21
463.496	4.3
463.852	4.33
464.208	4.28
464.564	4.13
464.919	4.4
465.275	4.24
465.631	4.45
465.986	4.24
466.342	4.22
466.697	4.28
467.052	4.33
467.408	4.39
467.763	4.13
468.118	4.06
468.473	4.26
468.829	4.1
469.184	4.42
469.539	4.14
469.894	4.33
470.249	4.34
470.603	4.45
470.958	4.47
471.313	4.35
471.668	4.32
472.023	4.39
472.377	4.33
472.732	4.42
473.086	4.31
473.441	4.31
473.795	4.55
474.15	4.32
474.504	4.32
474.859	4.08
475.213	4.42
475.567	4.29
475.921	4.41
476.275	4.45
476.63	4.47
476.984	4.24
477.338	4.41
477.692	4.24
478.045	4.34
478.399	4.37
478.753	4.29
479.107	4.37
479.461	4.24
479.814	4.28
480.168	4.41
480.521	4.39
480.875	4.54
481.228	4.42
481.582	4.37
481.935	4.44
482.289	4.4
482.642	4.45
482.995	4.29
483.348	4.26
483.701	4.39
484.055	4.3
484.408	4.25
484.761	4.2
485.114	4.12
485.466	4.07
485.819	4.1
486.172	4.15
486.525	4.15
486.878	4.22
487.23	4.25
487.583	4.28
487.936	4.28
488.288	4.29
488.641	4.2
488.993	4.19
489.345	4.16
489.698	4.2
490.05	4.22
490.402	4.22
490.754	4.3
491.107	4.25
491.459	4.44
491.811	4.41
492.163	4.36
492.515	4.28
492.866	4.18
493.218	4.21
493.57	4.29
493.922	4.29
494.274	4.39
494.625	4.4
494.977	4.45
495.328	4.56
495.68	4.43
496.031	4.47
496.383	4.39
496.734	4.54
497.086	4.6
497.437	4.57
497.788	4.62
498.139	4.45
498.49	4.48
498.842	4.55
499.193	4.46
499.544	4.52
499.894	4.49
500.245	4.62
500.596	4.54
500.947	4.59
501.298	4.58
501.648	4.55
501.999	4.6
502.35	4.49
502.7	4.84
503.051	4.5
503.401	4.61
503.752	4.55
504.102	4.56
504.452	4.59
504.803	4.65
505.153	4.76
505.503	4.72
505.853	4.64
506.203	4.71
506.553	4.61
506.903	4.77
507.253	4.7
507.603	4.64
507.953	4.69
508.303	4.7
508.652	4.55
509.002	4.65
509.352	4.64
509.701	4.51
510.051	4.71
510.4	4.81
510.75	4.65
511.099	4.57
511.449	4.74
511.798	4.63
512.147	4.64
512.496	4.69
512.846	4.71
513.195	4.82
513.544	4.76
513.893	4.7
514.242	4.66
514.591	4.74
514.939	4.87
515.288	4.8
515.637	4.86
515.986	4.83
516.334	4.85
516.683	4.86
517.032	4.74
517.38	4.79
517.729	4.72
518.077	4.87
518.426	4.85
518.774	4.74
519.122	4.78
519.47	4.76
519.819	4.81
520.167	4.78
520.515	4.76
520.863	4.79
521.211	4.76
521.559	4.77
521.907	4.82
522.255	4.83
522.602	4.89
522.95	4.89
523.298	4.88
523.645	4.96
523.993	4.85
524.341	4.86
524.688	4.95
525.036	4.81
525.383	4.97
525.73	4.83
526.078	5.03
526.425	4.91
526.772	4.87
527.119	4.92
527.466	4.96
527.814	4.85
528.161	4.97
528.508	5.01
528.854	4.9
529.201	4.82
529.548	4.81
529.895	4.82
530.242	4.8
530.588	4.77
530.935	4.8
531.282	4.8
531.628	4.87
531.975	4.9
532.321	4.95
532.667	5.03
533.014	5.1
533.36	5.02
533.706	5.03
534.052	5.06
534.399	5.01
534.745	4.91
535.091	4.89
535.437	4.99
535.783	5.01
536.129	5.02
536.474	5.06
536.82	5.19
537.166	5.14
537.512	5.12
537.857	5.16
538.203	5.19
538.549	5.13
538.894	5.17
539.239	5.2
539.585	5.25
539.93	5.34
540.276	5.25
540.621	5.31
540.966	5.39
541.311	5.31
541.656	5.3
542.001	5.23
542.346	5.2
542.691	5.18
543.036	5.19
543.381	5.16
543.726	5.23
544.071	5.28
544.415	5.25
544.76	5.27
545.105	5.22
545.449	5.32
545.794	5.38
546.138	5.4
546.483	5.44
546.827	5.29
547.171	5.41
547.516	5.53
547.86	5.44
548.204	5.49
548.548	5.53
548.892	5.5
549.236	5.49
549.58	5.58
549.924	5.72
550.268	5.64
550.612	5.74
550.956	5.8
551.3	5.91
551.643	5.8
551.987	5.8
552.33	5.88
552.674	5.78
553.017	5.73
553.361	5.8
553.704	5.96
554.048	5.7
554.391	5.83
554.734	5.8
555.077	5.86
555.42	5.66
555.764	6.01
556.107	5.96
556.45	5.91
556.793	5.98
557.135	5.91
557.478	5.93
557.821	6.15
558.164	6.01
558.507	6
558.849	6.16
559.192	6.09
559.534	6.17
559.877	6.01
560.219	6.12
560.562	5.94
560.904	6.28
561.246	6.05
561.589	6.24
561.931	6.06
562.273	6.14
562.615	6.23
562.957	6.16
563.299	6.23
563.641	6.3
563.983	6.16
564.325	6.27
564.667	6.32
565.008	6.26
565.35	6.21
565.692	6.34
566.033	6.44
566.375	6.56
566.716	6.32
567.058	6.3
567.399	6.4
567.741	6.36
568.082	6.46
568.423	6.41
568.764	6.45
569.105	6.32
569.447	6.37
569.788	6.46
570.129	6.59
570.47	6.56
570.811	6.55
571.151	6.77
571.492	6.66
571.833	6.55
572.174	6.68
572.514	6.8
572.855	6.77
573.195	6.61
573.536	6.81
573.876	6.71
574.217	6.7
574.557	6.77
574.898	6.74
575.238	6.73
575.578	6.74
575.918	6.89
576.258	7.07
576.598	6.82
576.938	6.82
577.278	6.89
577.618	6.87
577.958	7.06
578.298	6.97
578.638	7.06
578.977	7.02
579.317	7.15
579.657	7.18
579.996	7.14
580.336	7.13
580.675	6.99
581.014	7.27
581.354	7.22
581.693	7.29
582.032	7.49
582.372	7.55
582.711	7.44
583.05	7.33
583.389	7.45
583.728	7.54
584.067	7.3
584.406	7.59
584.745	7.35
585.083	7.4
585.422	7.54
585.761	7.38
586.1	7.52
586.438	7.42
586.777	7.64
587.115	7.62
587.454	7.5
587.792	7.46
588.13	7.51
588.469	7.41
588.807	8.03
589.145	7.69
589.483	7.68
589.821	7.69
590.159	7.75
590.497	7.69
590.835	7.93
591.173	7.91
591.511	7.99
591.849	7.99
592.187	8.01
592.524	7.87
592.862	7.89
593.2	8.08
593.537	7.91
593.875	8.15
594.212	8.1
594.55	7.96
594.887	8.16
595.224	8.3
595.561	8.11
595.899	8.28
596.236	8.18
596.573	8.11
596.91	8.24
597.247	8.34
597.584	8.26
597.921	8.29
598.258	8.36
598.594	8.24
598.931	8.06
599.268	8.16
599.604	8.35
599.941	8.52
600.277	8.21
600.614	8.53
600.95	8.48
601.287	8.37
601.623	8.38
601.959	8.85
602.296	8.66
602.632	8.57
602.968	8.67
603.304	8.93
603.64	8.5
603.976	8.58
604.312	8.7
604.648	8.77
604.984	8.71
605.319	8.74
605.655	8.79
605.991	8.76
606.326	8.78
606.662	8.59
606.998	8.88
607.333	8.94
607.668	8.9
608.004	8.98
608.339	8.84
608.674	8.91
609.01	9.51
609.345	9.13
609.68	9.03
610.015	9.18
610.35	9.13
610.685	9.11
611.02	9.19
611.355	9.21
611.689	9.31
612.024	9.36
612.359	9.29
612.694	9.54
613.028	9.25
613.363	9.43
613.697	9.3
614.032	9.33
614.366	9.44
614.7	9.82
615.035	9.52
615.369	9.79
615.703	9.6
616.037	9.65
616.371	9.8
616.705	9.69
617.039	9.74
617.373	9.96
617.707	10.04
618.041	9.34
618.375	9.37
618.709	10.03
619.042	9.74
619.376	9.82
619.71	10.19
620.043	10.03
620.377	10.05
620.71	10
621.043	10.1
621.377	10.04
621.71	10.16
622.043	10.1
622.376	10.18
622.709	10.6
623.043	10.36
623.376	10.32
623.709	10.43
624.041	10.12
624.374	10.13
624.707	10.38
625.04	10.38
625.373	10.72
625.705	10.65
626.038	10.44
626.37	10.45
626.703	10.25
627.035	10.56
627.368	10.6
627.7	10.68
628.032	10.76
628.365	10.66
628.697	10.84
629.029	10.62
629.361	10.81
629.693	10.59
630.025	10.89
630.357	11.17
630.689	10.8
631.021	11.1
631.353	10.96
631.684	10.64
632.016	10.87
632.348	10.94
632.679	11.35
633.011	11.09
633.342	11.15
633.674	10.74
634.005	10.93
634.336	11.53
634.668	11.5
634.999	11.13
635.33	11.21
635.661	10.98
635.992	11.32
636.323	11
636.654	11.46
636.985	11.49
637.316	11.48
637.647	11.43
637.977	11.31
638.308	11.95
638.639	11.66
638.969	11.62
639.3	11.71
639.63	11.32
639.961	11.89
640.291	11.37
640.622	11.64
640.952	12.02
641.282	11.45
641.612	11.95
641.943	11.76
642.273	11.78
642.603	12.13
642.933	12.52
643.263	12.18
643.592	12.59
643.922	11.99
644.252	12.32
644.582	12.13
644.911	12.17
645.241	12.17
645.571	12.3
645.9	12.03
646.23	12.68
646.559	12.06
646.888	12.59
647.218	12.49
647.547	12.38
647.876	12.54
648.205	12.45
648.534	12.46
648.863	12.15
649.192	12.32
649.521	12.8
649.85	12.52
650.179	12.78
650.508	12.46
650.837	12.83
651.165	12.75
651.494	13.01
651.822	12.94
652.151	12.35
652.479	13.04
652.808	13.15
653.136	12.69
653.465	12.46
653.793	13.05
654.121	12.93
654.449	12.64
654.777	12.7
655.105	13.1
655.433	13.25
655.761	13.22
656.089	13.18
656.417	13.47
656.745	13.3
657.073	13.47
657.4	13.34
657.728	13.27
658.056	13.6
658.383	13.36
658.711	13.48
659.038	13.74
659.365	13.59
659.693	13.36
660.02	13.23
660.347	14.16
660.674	13.57
661.001	13.65
661.329	13.74
661.656	13.3
661.982	13.61
662.309	13.98
662.636	13.72
662.963	14.03
663.29	14.14
663.616	13.73
663.943	13.69
664.27	14.44
664.596	14.01
664.923	14.24
665.249	14.53
665.576	13.77
665.902	14
666.228	14.61
666.554	14.08
666.881	13.85
667.207	14.16
667.533	14.71
667.859	13.62
668.185	14.1
668.511	14.47
668.837	14.44
669.162	14.61
669.488	13.57
669.814	14.58
670.139	14.24
670.465	14.62
670.791	14.17
671.116	14.75
671.442	14.21
671.767	14.81
672.092	15.14
672.418	14.71
672.743	14.66
673.068	14.59
673.393	15
673.718	14.95
674.043	14.79
674.368	14.84
674.693	15.09
675.018	15.57
675.343	15.22
675.667	15.24
675.992	15.08
676.317	14.6
676.641	14.87
676.966	15.09
677.29	15.25
677.615	15.07
677.939	15.75
678.264	14.82
678.588	15.44
678.912	15.54
679.236	15.39
679.56	15.42
679.885	15.82
680.209	15.34
680.532	16.17
680.856	15.33
681.18	16.09
681.504	15.75
681.828	15.18
682.152	15.43
682.475	15.45
682.799	15.57
683.122	15.78
683.446	15.44
683.769	15.97
684.093	16.07
684.416	15.43
684.739	15.56
685.062	16.12
685.386	16.34
685.709	16.09
686.032	16.73
686.355	16.43
686.678	16.13
687.001	16.6
687.324	16.03
687.646	16.45
687.969	16.91
688.292	16.29
