Data from 21-11_forehead_Reflection__0__70.txt Node

Date: Thu Dec 15 16:58:54 CST 2022
User: ToomeyLab
Spectrometer: FLMS14357
Trigger mode: 0
Integration Time (sec): 1.000000E-2
Scans to average: 100
Electric dark correction enabled: true
Nonlinearity correction enabled: false
Boxcar width: 0
XAxis mode: Wavelengths
Number of Pixels in Spectrum: 2048
>>>>>Begin Spectral Data<<<<<
189.047	900
189.435	900
189.823	900
190.211	-454.64
190.599	34.13
190.987	-135.98
191.375	-15.63
191.763	-16.56
192.151	382.16
192.538	72.32
192.926	2693.68
193.314	8011.11
193.702	23.03
194.089	10.95
194.477	67.4
194.864	35.28
195.252	353.19
195.639	55.26
196.027	198.36
196.414	64.76
196.801	124.41
197.189	45.44
197.576	-778.05
197.963	-689.4
198.351	62.35
198.738	-13.86
199.125	-53.16
199.512	38.25
199.899	42.5
200.286	-38
200.673	66.63
201.06	10.51
201.447	32.64
201.833	11.26
202.22	29.65
202.607	57.78
202.994	68.86
203.38	-4.09
203.767	31.8
204.154	31.97
204.54	14.9
204.927	7.57
205.313	26.34
205.699	45.82
206.086	40.9
206.472	30.16
206.858	0.94
207.245	8.17
207.631	10.86
208.017	34.5
208.403	20.94
208.789	11.88
209.175	20.01
209.561	-22.36
209.947	-8.09
210.333	21.5
210.719	32.79
211.105	46.97
211.491	63.58
211.876	2.91
212.262	40.93
212.648	33.93
213.034	-2.72
213.419	18.99
213.805	9.11
214.19	-5.05
214.576	3.53
214.961	6.92
215.346	-9.28
215.732	25.15
216.117	17.45
216.502	-10.59
216.888	13.43
217.273	0.15
217.658	-4.53
218.043	10.57
218.428	1.09
218.813	32.94
219.198	-3.36
219.583	1.18
219.968	16.67
220.353	7.02
220.738	-2.35
221.122	0.94
221.507	12.64
221.892	-8.5
222.276	-11.4
222.661	3.21
223.046	1.24
223.43	12.53
223.815	6.03
224.199	0.52
224.583	4.06
224.968	-0.68
225.352	1.02
225.736	12.8
226.121	-0.52
226.505	1.25
226.889	-0.13
227.273	-3.74
227.657	0.7
228.041	5.1
228.425	1.79
228.809	2.65
229.193	1.84
229.577	3.7
229.961	3.56
230.344	3.5
230.728	3.48
231.112	3.92
231.495	3.79
231.879	4.82
232.263	3.88
232.646	3.79
233.03	4.23
233.413	2.95
233.797	0.43
234.18	4.08
234.563	3.38
234.946	1.1
235.33	2.21
235.713	2.87
236.096	4.59
236.479	3.43
236.862	2.89
237.245	3.19
237.628	3.69
238.011	3.19
238.394	2.96
238.777	5.67
239.16	5.63
239.543	5.04
239.925	4.6
240.308	1.61
240.691	2.68
241.073	3.83
241.456	3.52
241.838	3.6
242.221	3.06
242.603	4.25
242.986	3.68
243.368	3.39
243.75	3.07
244.133	3.65
244.515	3.17
244.897	3.31
245.279	3.13
245.661	4.33
246.043	3.47
246.425	2.61
246.807	3.69
247.189	3.63
247.571	3.27
247.953	3.02
248.335	3.23
248.717	3.3
249.098	3.11
249.48	3.07
249.862	3.53
250.243	3.08
250.625	3.53
251.006	4.62
251.388	2.77
251.769	3.9
252.151	4.24
252.532	3.1
252.913	3.44
253.295	3.77
253.676	3.65
254.057	3.3
254.438	3.87
254.819	3.21
255.2	3.96
255.581	4.21
255.962	3.89
256.343	4.68
256.724	4.64
257.105	2.71
257.486	2.39
257.867	3.08
258.247	2.51
258.628	3.67
259.009	3.41
259.389	2.83
259.77	3.16
260.15	4.48
260.531	3.36
260.911	3.15
261.292	3.28
261.672	2.95
262.052	3.2
262.432	2.95
262.813	3.38
263.193	3.31
263.573	3.35
263.953	3.31
264.333	2.96
264.713	3.52
265.093	2.65
265.473	2.59
265.853	3.45
266.233	3.57
266.612	3.14
266.992	3.21
267.372	3.4
267.752	3.48
268.131	3.32
268.511	3.39
268.89	3.61
269.27	2.44
269.649	3.28
270.029	3.03
270.408	2.5
270.787	3.31
271.167	2.99
271.546	3.72
271.925	3.14
272.304	2.71
272.683	2.57
273.062	3.14
273.441	2.59
273.82	3.18
274.199	2.7
274.578	3.05
274.957	2.86
275.336	3.36
275.715	3.51
276.093	2.83
276.472	2.25
276.851	2.69
277.229	2.86
277.608	2.79
277.986	2.3
278.365	2.97
278.743	3.05
279.122	2.71
279.5	2.91
279.878	2.79
280.257	3.24
280.635	2.67
281.013	2.05
281.391	2.67
281.769	3.94
282.147	3.03
282.525	2.77
282.903	2.57
283.281	3.32
283.659	2.98
284.037	3.06
284.415	2.62
284.792	3.03
285.17	2.74
285.548	2.89
285.925	2.72
286.303	3.51
286.68	2.89
287.058	3.11
287.435	2.72
287.813	3.09
288.19	2.83
288.567	2.8
288.945	3.09
289.322	3.2
289.699	2.71
290.076	3.15
290.453	3.1
290.83	3.11
291.207	3.21
291.584	3.1
291.961	3.21
292.338	3.22
292.715	3.2
293.092	3.68
293.469	3.24
293.845	3.11
294.222	4.01
294.599	3.19
294.975	2.82
295.352	3.57
295.728	3.24
296.105	3.46
296.481	3.16
296.858	3.27
297.234	3.18
297.61	3.32
297.986	3.73
298.363	3.23
298.739	3.61
299.115	3.51
299.491	3.46
299.867	3.26
300.243	3.42
300.619	3.58
300.995	3.62
301.371	3.72
301.746	3.8
302.122	3.25
302.498	3.98
302.874	3.89
303.249	3.75
303.625	3.37
304	4.09
304.376	4.4
304.751	4.04
305.127	3.87
305.502	4.49
305.878	3.94
306.253	3.8
306.628	4.05
307.003	4.08
307.378	4.09
307.754	4.27
308.129	3.79
308.504	4.47
308.879	4.19
309.254	4.46
309.629	4.6
310.003	4.45
310.378	4.78
310.753	4.36
311.128	4.21
311.502	4.81
311.877	4.32
312.252	4.47
312.626	5.08
313.001	4.58
313.375	4.42
313.75	4.56
314.124	4.52
314.498	5.06
314.873	4.06
315.247	4.53
315.621	4.28
315.995	4.81
316.369	4.78
316.743	4.75
317.117	4.54
317.491	5.08
317.865	4.51
318.239	5.5
318.613	4.56
318.987	4.68
319.361	5.33
319.734	5.26
320.108	5.37
320.482	5.52
320.855	5.22
321.229	5.26
321.602	5.65
321.976	5.08
322.349	6.15
322.723	5.34
323.096	5.76
323.469	5.51
323.843	5.16
324.216	5.12
324.589	5.68
324.962	5.35
325.335	5.41
325.708	5.19
326.081	5.28
326.454	5.84
326.827	5.72
327.2	5.24
327.573	5.98
327.945	5.48
328.318	5.15
328.691	5.92
329.063	5.52
329.436	5.78
329.809	6.48
330.181	6.61
330.553	5.65
330.926	6.54
331.298	6.09
331.671	6.19
332.043	5.89
332.415	6.5
332.787	6.15
333.159	6.57
333.532	6.29
333.904	6.61
334.276	6.13
334.648	5.9
335.02	5.84
335.391	6.22
335.763	6.26
336.135	6.56
336.507	6.19
336.879	5.79
337.25	6.38
337.622	6.31
337.993	6.21
338.365	6.67
338.736	6.47
339.108	6.32
339.479	6.24
339.851	6.26
340.222	6.6
340.593	6.63
340.964	6.46
341.336	6.48
341.707	6.37
342.078	6.35
342.449	6.62
342.82	6.55
343.191	6.66
343.562	6.71
343.933	6.29
344.303	7.11
344.674	6.65
345.045	7.03
345.416	6.99
345.786	6.83
346.157	7.34
346.527	6.72
346.898	6.7
347.268	6.65
347.639	6.74
348.009	7.01
348.38	6.84
348.75	6.86
349.12	6.98
349.49	7.26
349.861	7.23
350.231	6.63
350.601	7.15
350.971	7.08
351.341	7.34
351.711	7.2
352.081	6.96
352.45	6.65
352.82	6.68
353.19	6.89
353.56	7.13
353.929	7.25
354.299	7.09
354.669	7.22
355.038	7.34
355.408	7.06
355.777	7.62
356.147	7.1
356.516	6.85
356.885	7.38
357.254	7.45
357.624	7.18
357.993	7.44
358.362	7.58
358.731	7.65
359.1	7.38
359.469	7.54
359.838	7.3
360.207	7.64
360.576	8.18
360.945	7.85
361.314	7.46
361.682	7.25
362.051	7.22
362.42	7.83
362.788	7.62
363.157	7.48
363.525	7.59
363.894	7.55
364.262	7.72
364.631	7.88
364.999	7.81
365.367	7.57
365.735	7.65
366.104	7.92
366.472	7.6
366.84	7.85
367.208	8.29
367.576	8.08
367.944	7.98
368.312	8.14
368.68	8.26
369.048	7.97
369.416	8.1
369.783	7.99
370.151	8.6
370.519	8.74
370.886	8.01
371.254	8.13
371.621	8.26
371.989	8.12
372.356	8.05
372.724	8.23
373.091	8.36
373.458	8.12
373.826	8.54
374.193	8.44
374.56	8.43
374.927	8.44
375.294	8.57
375.661	8.35
376.028	8.38
376.395	8.69
376.762	8.12
377.129	8.22
377.496	8.72
377.863	8.66
378.229	8.87
378.596	8.81
378.963	8.83
379.329	8.66
379.696	8.54
380.062	8.7
380.429	8.63
380.795	8.95
381.161	8.75
381.528	8.68
381.894	8.74
382.26	8.87
382.626	8.88
382.993	9.07
383.359	8.74
383.725	8.55
384.091	9.01
384.457	8.79
384.823	8.94
385.188	9.03
385.554	8.98
385.92	8.96
386.286	9.11
386.651	8.82
387.017	9.22
387.383	8.97
387.748	9.21
388.114	9.29
388.479	8.91
388.845	8.99
389.21	9.35
389.575	9.3
389.94	9.08
390.306	9.24
390.671	9.27
391.036	9.15
391.401	9.25
391.766	9.33
392.131	9.72
392.496	9.18
392.861	9.08
393.226	9.29
393.591	9.32
393.956	9.45
394.32	9.23
394.685	9.48
395.05	9.36
395.414	9.23
395.779	9.43
396.143	9.4
396.508	9.3
396.872	9.57
397.236	9.6
397.601	9.46
397.965	9.5
398.329	9.45
398.694	9.4
399.058	9.61
399.422	9.56
399.786	9.4
400.15	9.43
400.514	9.48
400.878	9.54
401.242	9.94
401.605	9.52
401.969	9.62
402.333	9.52
402.697	9.91
403.06	9.71
403.424	9.75
403.787	9.73
404.151	9.77
404.514	9.71
404.878	9.53
405.241	9.77
405.604	9.53
405.968	9.81
406.331	9.69
406.694	9.73
407.057	9.71
407.42	9.68
407.783	9.63
408.146	9.76
408.509	9.79
408.872	9.91
409.235	10.06
409.598	9.99
409.961	10.13
410.323	9.63
410.686	9.87
411.049	9.86
411.411	10
411.774	9.86
412.136	10
412.499	9.87
412.861	9.74
413.223	9.89
413.586	10.09
413.948	10.21
414.31	9.99
414.672	10.07
415.035	10.23
415.397	10.08
415.759	9.9
416.121	10.23
416.483	10.17
416.845	10.02
417.206	10.09
417.568	10.07
417.93	10.24
418.292	9.99
418.653	9.99
419.015	9.95
419.377	10.02
419.738	10.14
420.1	10.03
420.461	10.04
420.822	10.11
421.184	10.11
421.545	10.1
421.906	10.24
422.267	10.23
422.629	10.15
422.99	10.12
423.351	10.3
423.712	10.32
424.073	10.37
424.434	10.49
424.795	10.34
425.155	10.28
425.516	10.36
425.877	10.3
426.238	10.41
426.598	10.6
426.959	10.64
427.32	10.7
427.68	10.59
428.041	10.79
428.401	10.65
428.761	10.97
429.122	11.05
429.482	10.95
429.842	11.08
430.202	11.21
430.563	11.2
430.923	11.2
431.283	11.34
431.643	11.39
432.003	11.07
432.363	11.43
432.722	11.33
433.082	11.18
433.442	11.33
433.802	11.46
434.161	11.57
434.521	11.47
434.881	11.42
435.24	11.44
435.6	11.5
435.959	11.59
436.319	11.62
436.678	11.66
437.037	11.63
437.396	11.7
437.756	11.81
438.115	11.83
438.474	11.87
438.833	11.8
439.192	12.02
439.551	11.9
439.91	11.88
440.269	11.94
440.628	11.88
440.987	11.9
441.345	11.95
441.704	11.8
442.063	11.92
442.421	12.08
442.78	12.09
443.138	12.13
443.497	12.04
443.855	12.19
444.214	12.09
444.572	12.37
444.93	12.27
445.288	12.27
445.647	12.21
446.005	12.2
446.363	12.31
446.721	12.34
447.079	12.33
447.437	12.38
447.795	12.38
448.153	12.27
448.51	12.42
448.868	12.39
449.226	12.45
449.584	12.56
449.941	12.61
450.299	12.77
450.656	12.7
451.014	12.83
451.371	12.87
451.729	12.84
452.086	12.98
452.443	13.11
452.801	13.07
453.158	13.25
453.515	13.2
453.872	13.09
454.229	12.94
454.586	13.11
454.943	13.1
455.3	13.27
455.657	13.2
456.014	13.31
456.371	13.37
456.727	13.42
457.084	13.45
457.441	13.45
457.797	13.44
458.154	13.62
458.51	13.52
458.867	13.51
459.223	13.56
459.58	13.6
459.936	13.49
460.292	13.54
460.648	13.47
461.005	13.39
461.361	13.34
461.717	13.34
462.073	13.58
462.429	13.53
462.785	13.94
463.141	13.94
463.496	14.01
463.852	14.24
464.208	14.03
464.564	14.05
464.919	14.07
465.275	14
465.631	14.33
465.986	14.28
466.342	14.04
466.697	14.35
467.052	14.45
467.408	14.41
467.763	14.45
468.118	14.28
468.473	14.4
468.829	14.45
469.184	14.42
469.539	14.55
469.894	14.39
470.249	14.42
470.603	14.69
470.958	14.74
471.313	14.68
471.668	14.82
472.023	14.78
472.377	14.6
472.732	14.95
473.086	14.83
473.441	14.95
473.795	15.13
474.15	14.92
474.504	14.93
474.859	14.91
475.213	15.15
475.567	14.88
475.921	14.99
476.275	15.15
476.63	15.06
476.984	15.18
477.338	15.32
477.692	15.21
478.045	15.14
478.399	15.09
478.753	15.3
479.107	15.23
479.461	15.19
479.814	15.37
480.168	15.36
480.521	15.53
480.875	15.43
481.228	15.43
481.582	15.46
481.935	15.57
482.289	15.5
482.642	15.46
482.995	15.61
483.348	15.3
483.701	15.43
484.055	15.25
484.408	15.22
484.761	14.91
485.114	14.71
485.466	14.73
485.819	14.8
486.172	14.86
486.525	15.07
486.878	15.26
487.23	15.26
487.583	15.52
487.936	15.51
488.288	15.35
488.641	15.26
488.993	15.21
489.345	15.19
489.698	15.23
490.05	15.31
490.402	15.42
490.754	15.59
491.107	15.69
491.459	15.93
491.811	15.98
492.163	15.89
492.515	15.76
492.866	15.62
493.218	15.51
493.57	15.7
493.922	15.8
494.274	16.01
494.625	16.23
494.977	16.34
495.328	16.37
495.68	16.39
496.031	16.62
496.383	16.62
496.734	16.62
497.086	16.83
497.437	16.7
497.788	16.84
498.139	16.59
498.49	16.65
498.842	16.75
499.193	16.56
499.544	16.75
499.894	16.73
500.245	16.89
500.596	16.98
500.947	16.89
501.298	17
501.648	17.04
501.999	17.35
502.35	17.09
502.7	17.29
503.051	17.34
503.401	17.3
503.752	17.52
504.102	17.42
504.452	17.42
504.803	17.4
505.153	17.61
505.503	17.43
505.853	17.49
506.203	17.6
506.553	17.59
506.903	17.56
507.253	17.76
507.603	17.67
507.953	17.69
508.303	17.81
508.652	17.75
509.002	17.6
509.352	17.78
509.701	17.69
510.051	17.69
510.4	17.73
510.75	17.55
511.099	17.55
511.449	17.79
511.798	17.71
512.147	17.83
512.496	17.82
512.846	17.78
513.195	17.92
513.544	17.92
513.893	17.9
514.242	18
514.591	17.99
514.939	18.07
515.288	18.24
515.637	18.21
515.986	18.17
516.334	18.34
516.683	18.28
517.032	18.37
517.38	18.33
517.729	18.49
518.077	18.43
518.426	18.49
518.774	18.43
519.122	18.27
519.47	18.29
519.819	18.11
520.167	18.08
520.515	18.11
520.863	18.16
521.211	18.22
521.559	18.26
521.907	18.53
522.255	18.5
522.602	18.77
522.95	18.83
523.298	18.74
523.645	18.88
523.993	18.95
524.341	18.93
524.688	18.96
525.036	18.91
525.383	18.94
525.73	18.83
526.078	19.02
526.425	18.93
526.772	18.68
527.119	18.69
527.466	18.64
527.814	18.72
528.161	18.74
528.508	18.74
528.854	18.66
529.201	18.73
529.548	18.5
529.895	18.25
530.242	18.28
530.588	18.35
530.935	18.48
531.282	18.51
531.628	18.74
531.975	18.85
532.321	19
532.667	19.12
533.014	19.2
533.36	19.25
533.706	19.11
534.052	19.09
534.399	18.98
534.745	18.76
535.091	18.83
535.437	19.07
535.783	19.16
536.129	19.28
536.474	19.41
536.82	19.56
537.166	19.5
537.512	19.52
537.857	19.42
538.203	19.46
538.549	19.39
538.894	19.63
539.239	19.68
539.585	19.88
539.93	19.95
540.276	20.04
540.621	20.24
540.966	20.11
541.311	20
541.656	19.9
542.001	19.79
542.346	19.72
542.691	19.38
543.036	19.47
543.381	19.55
543.726	19.64
544.071	19.73
544.415	19.87
544.76	19.86
545.105	19.94
545.449	20.11
545.794	20.21
546.138	20.36
546.483	20.42
546.827	20.45
547.171	20.31
547.516	20.49
547.86	20.51
548.204	20.49
548.548	20.39
548.892	20.44
549.236	20.66
549.58	20.77
549.924	20.94
550.268	21.06
550.612	21.12
550.956	21.33
551.3	21.18
551.643	21.31
551.987	21.48
552.33	21.31
552.674	21.48
553.017	21.54
553.361	21.55
553.704	21.46
554.048	21.31
554.391	21.14
554.734	21.29
555.077	21.52
555.42	21.43
555.764	21.54
556.107	21.7
556.45	21.68
556.793	21.67
557.135	21.83
557.478	21.73
557.821	21.88
558.164	22.14
558.507	21.86
558.849	22.26
559.192	21.96
559.534	22.05
559.877	21.98
560.219	21.98
560.562	22.19
560.904	22.16
561.246	22.11
561.589	22.4
561.931	22.2
562.273	22.24
562.615	22.38
562.957	22.17
563.299	22.59
563.641	22.19
563.983	22.3
564.325	22.37
564.667	22.55
565.008	22.3
565.35	22.5
565.692	22.72
566.033	22.7
566.375	22.52
566.716	22.45
567.058	22.55
567.399	22.49
567.741	22.52
568.082	22.42
568.423	22.68
568.764	22.68
569.105	22.59
569.447	22.82
569.788	22.78
570.129	22.91
570.47	22.77
570.811	23.05
571.151	22.96
571.492	23.16
571.833	23.02
572.174	22.95
572.514	23.1
572.855	23.08
573.195	23.13
573.536	23.1
573.876	22.93
574.217	22.92
574.557	22.99
574.898	23.14
575.238	23.15
575.578	23.41
575.918	23.15
576.258	23.41
576.598	23.16
576.938	23.37
577.278	23.47
577.618	23.34
577.958	23.61
578.298	23.54
578.638	23.61
578.977	23.65
579.317	23.71
579.657	23.81
579.996	23.99
580.336	23.95
580.675	23.92
581.014	24.07
581.354	23.79
581.693	24.1
582.032	24.04
582.372	24.11
582.711	24.21
583.05	24.48
583.389	24.24
583.728	24.51
584.067	24.48
584.406	24.47
584.745	24.19
585.083	24.43
585.422	24.73
585.761	24.55
586.1	24.8
586.438	24.34
586.777	24.62
587.115	24.62
587.454	24.56
587.792	24.7
588.13	24.8
588.469	24.82
588.807	24.9
589.145	24.9
589.483	24.83
589.821	24.88
590.159	24.55
590.497	24.88
590.835	24.87
591.173	24.83
591.511	25.19
591.849	25.06
592.187	25.1
592.524	24.99
592.862	24.9
593.2	25.15
593.537	25.1
593.875	25.31
594.212	25.18
594.55	25.43
594.887	25.39
595.224	25.66
595.561	25.37
595.899	25.49
596.236	25.56
596.573	25.12
596.91	25.47
597.247	25.54
597.584	25.63
597.921	25.51
598.258	25.42
598.594	25.2
598.931	25.02
599.268	25.19
599.604	25.54
599.941	25.55
600.277	25.69
600.614	25.85
600.95	25.72
601.287	25.31
601.623	25.6
601.959	26.25
602.296	25.81
602.632	26.02
602.968	25.85
603.304	26.03
603.64	25.81
603.976	25.9
604.312	25.88
604.648	25.87
604.984	25.97
605.319	26.03
605.655	25.9
605.991	25.83
606.326	25.86
606.662	25.85
606.998	26.03
607.333	25.99
607.668	26.12
608.004	26.01
608.339	26.21
608.674	26.47
609.01	26.63
609.345	26.67
609.68	26.3
610.015	26.59
610.35	26.67
610.685	26.29
611.02	26.07
611.355	26.32
611.689	26.53
612.024	26.49
612.359	26.64
612.694	26.9
613.028	26.71
613.363	26.86
613.697	26.83
614.032	27.07
614.366	26.88
614.7	27.19
615.035	27.05
615.369	27.2
615.703	27.47
616.037	27.05
616.371	27.18
616.705	27.35
617.039	27.44
617.373	27.38
617.707	27.45
618.041	27.2
618.375	27.22
618.709	27.46
619.042	27.36
619.376	27.7
619.71	27.58
620.043	27.48
620.377	27.38
620.71	27.45
621.043	27.82
621.377	27.71
621.71	28.06
622.043	27.6
622.376	27.82
622.709	28.11
623.043	27.67
623.376	27.75
623.709	28.14
624.041	27.86
624.374	27.94
624.707	27.9
625.04	28.28
625.373	28.26
625.705	28.47
626.038	28.2
626.37	27.55
626.703	28.15
627.035	28.06
627.368	28.26
627.7	28.1
628.032	28.03
628.365	28.07
628.697	28.23
629.029	28.17
629.361	28.11
629.693	28.01
630.025	28.56
630.357	28.63
630.689	28.42
631.021	28.2
631.353	28.57
631.684	28.26
632.016	28.12
632.348	28.43
632.679	28.53
633.011	28.42
633.342	28.56
633.674	28.84
634.005	28.71
634.336	28.71
634.668	28.81
634.999	28.66
635.33	28.75
635.661	28.66
635.992	28.86
636.323	28.88
636.654	28.86
636.985	29.12
637.316	29.11
637.647	28.9
637.977	28.97
638.308	29.5
638.639	29.45
638.969	28.81
639.3	29.22
639.63	29.31
639.961	29.3
640.291	29.56
640.622	29.21
640.952	29.42
641.282	29.22
641.612	29.45
641.943	29.27
642.273	29.58
642.603	29.86
642.933	29.59
643.263	29.69
643.592	29.25
643.922	30.05
644.252	29.7
644.582	29.81
644.911	29.61
645.241	29.71
645.571	30.19
645.9	30.07
646.23	30.24
646.559	29.73
646.888	30.03
647.218	30.03
647.547	30.09
647.876	30.03
648.205	29.96
648.534	30.25
648.863	29.92
649.192	29.8
649.521	30.13
649.85	30.32
650.179	29.91
650.508	30.49
650.837	30.04
651.165	30.36
651.494	30.38
651.822	30.52
652.151	30.23
652.479	30.51
652.808	30.36
653.136	29.87
653.465	29.61
653.793	30.38
654.121	30.23
654.449	30.07
654.777	30.15
655.105	30.19
655.433	30.65
655.761	30.49
656.089	30.44
656.417	30.69
656.745	31.13
657.073	30.62
657.4	30.44
657.728	30.23
658.056	30.51
658.383	30.83
658.711	30.97
659.038	31.25
659.365	30.53
659.693	30.57
660.02	30.69
660.347	31.01
660.674	30.89
661.001	30.72
661.329	30.66
661.656	30.59
661.982	30.68
662.309	30.78
662.636	30.83
662.963	31.23
663.29	31.47
663.616	30.81
663.943	31.23
664.27	31.45
664.596	31.45
664.923	31.11
665.249	31.25
665.576	31.33
665.902	31.22
666.228	31.45
666.554	31.79
666.881	31.44
667.207	31.19
667.533	31.96
667.859	31.4
668.185	31.96
668.511	32.03
668.837	31.42
669.162	31.26
669.488	31.1
669.814	31.57
670.139	31.97
670.465	32.05
670.791	31.56
671.116	31.61
671.442	31.57
671.767	32.01
672.092	32.25
672.418	32.12
672.743	31.62
673.068	31.55
673.393	32.57
673.718	31.46
674.043	32.12
674.368	32.4
674.693	32.17
675.018	32.62
675.343	32.4
