Data from 21-11_crown_Reflection__3__68.txt Node

Date: Thu Dec 15 16:58:02 CST 2022
User: ToomeyLab
Spectrometer: FLMS14357
Trigger mode: 0
Integration Time (sec): 1.000000E-2
Scans to average: 100
Electric dark correction enabled: true
Nonlinearity correction enabled: false
Boxcar width: 0
XAxis mode: Wavelengths
Number of Pixels in Spectrum: 2048
>>>>>Begin Spectral Data<<<<<
189.047	-724.44
189.435	-724.44
189.823	-724.44
190.211	-127.75
190.599	-31.96
190.987	232.01
191.375	54.15
191.763	121.58
192.151	86.1
192.538	68.76
192.926	-125.79
193.314	4972.22
193.702	91.89
194.089	-31.18
194.477	13.86
194.864	30.78
195.252	327.14
195.639	240.56
196.027	167.23
196.414	32.43
196.801	-235.76
197.189	50.45
197.576	-313.41
197.963	-1144.04
198.351	6.94
198.738	-0.53
199.125	-42.45
199.512	25.99
199.899	-24.52
200.286	-13.34
200.673	30.23
201.06	-20.62
201.447	-8.86
201.833	1.59
202.22	25.19
202.607	-22.43
202.994	-5.16
203.38	11.03
203.767	13.58
204.154	22.44
204.54	6.9
204.927	8.9
205.313	23.7
205.699	24.42
206.086	21.16
206.472	20.93
206.858	-7.5
207.245	-7.31
207.631	19.22
208.017	20.62
208.403	-20.95
208.789	30.21
209.175	-18.01
209.561	-39.41
209.947	-6.01
210.333	5.84
210.719	11.22
211.105	19.14
211.491	25.19
211.876	-8.67
212.262	19.31
212.648	22.18
213.034	11.94
213.419	10.28
213.805	-12.87
214.19	-5.92
214.576	-28.17
214.961	-20.08
215.346	-30.48
215.732	-22.83
216.117	13.17
216.502	-0.09
216.888	3.66
217.273	12.54
217.658	-17.85
218.043	-2.85
218.428	-6.77
218.813	10.34
219.198	-13.06
219.583	3.34
219.968	-10.13
220.353	-3.27
220.738	-3.9
221.122	-2.33
221.507	-1.07
221.892	-17.48
222.276	-20.52
222.661	-13.66
223.046	2.18
223.43	5.89
223.815	4.54
224.199	-8.13
224.583	-4.41
224.968	-2.99
225.352	0.14
225.736	0.29
226.121	-1.78
226.505	-7.84
226.889	2.18
227.273	-9.48
227.657	2.84
228.041	0.85
228.425	-0.54
228.809	0.53
229.193	0.78
229.577	3.11
229.961	2.97
230.344	3.47
230.728	3.21
231.112	2.65
231.495	2.1
231.879	3.02
232.263	3.15
232.646	2.76
233.03	3.91
233.413	4.37
233.797	2.94
234.18	5.31
234.563	4.69
234.946	2.27
235.33	3
235.713	2.29
236.096	4.38
236.479	3.9
236.862	3.61
237.245	1.27
237.628	3.21
238.011	4.44
238.394	0.61
238.777	2.66
239.16	3.12
239.543	3.93
239.925	0.66
240.308	1.65
240.691	2.82
241.073	3.86
241.456	2.67
241.838	2.94
242.221	3.1
242.603	3.23
242.986	2.82
243.368	3.46
243.75	3.38
244.133	3.36
244.515	3.24
244.897	3.29
245.279	3.12
245.661	2.54
246.043	2.62
246.425	2.61
246.807	2.96
247.189	2.56
247.571	2.49
247.953	2.88
248.335	2.94
248.717	3.23
249.098	3.19
249.48	3.09
249.862	3.02
250.243	2.88
250.625	3.19
251.006	4.14
251.388	3.02
251.769	2.33
252.151	2.87
252.532	2.2
252.913	3.27
253.295	2.58
253.676	3.23
254.057	2.5
254.438	2.8
254.819	2.17
255.2	2.85
255.581	3.64
255.962	2.62
256.343	3.75
256.724	2.64
257.105	2.99
257.486	2.32
257.867	2.53
258.247	2.49
258.628	3.2
259.009	2.6
259.389	1.88
259.77	3.08
260.15	3.63
260.531	3.06
260.911	2.74
261.292	2.73
261.672	2.89
262.052	2.77
262.432	2.49
262.813	2.98
263.193	3.07
263.573	3.18
263.953	2.25
264.333	3.22
264.713	3.01
265.093	3.07
265.473	2.2
265.853	2.66
266.233	2.95
266.612	2.69
266.992	3.03
267.372	2.86
267.752	3.67
268.131	2.97
268.511	2.61
268.89	3.46
269.27	2.39
269.649	1.99
270.029	2.61
270.408	2.87
270.787	3
271.167	2.96
271.546	3.27
271.925	2.65
272.304	2.62
272.683	2.39
273.062	2.37
273.441	2.53
273.82	3.16
274.199	2.5
274.578	3.32
274.957	2.64
275.336	3.21
275.715	2.89
276.093	2.63
276.472	2.08
276.851	2.6
277.229	2.27
277.608	2.16
277.986	2.94
278.365	2.86
278.743	2.64
279.122	2.89
279.5	1.88
279.878	2.16
280.257	2.53
280.635	2.75
281.013	2.11
281.391	2.59
281.769	2.94
282.147	2.52
282.525	2.21
282.903	2.47
283.281	3.36
283.659	2.89
284.037	2.52
284.415	2.22
284.792	2.85
285.17	2.61
285.548	2.52
285.925	2.66
286.303	2.95
286.68	2.73
287.058	2.71
287.435	2.5
287.813	2.7
288.19	2.39
288.567	2.2
288.945	2.28
289.322	2.77
289.699	2.64
290.076	1.9
290.453	2.19
290.83	2.64
291.207	2.6
291.584	2.52
291.961	2.61
292.338	2.39
292.715	2.26
293.092	2.79
293.469	2.51
293.845	2.59
294.222	2.86
294.599	2.35
294.975	2.5
295.352	2.76
295.728	2.46
296.105	2.63
296.481	2.8
296.858	2.63
297.234	2.35
297.61	2.51
297.986	2.94
298.363	2.48
298.739	2.87
299.115	2.77
299.491	3.07
299.867	2.55
300.243	2.4
300.619	2.32
300.995	2.23
301.371	2.74
301.746	2.8
302.122	2.46
302.498	2.1
302.874	2.53
303.249	2.56
303.625	2.2
304	2.61
304.376	3.18
304.751	2.97
305.127	2.78
305.502	2.96
305.878	2.96
306.253	2.15
306.628	2.32
307.003	2.32
307.378	2.32
307.754	2.77
308.129	2.35
308.504	2.86
308.879	2.49
309.254	2.74
309.629	2.41
310.003	1.99
310.378	2.8
310.753	2.93
311.128	2.46
311.502	2.77
311.877	2.7
312.252	2.78
312.626	2.76
313.001	2.93
313.375	2.54
313.75	2.98
314.124	2.85
314.498	2.61
314.873	2.64
315.247	2.64
315.621	2.6
315.995	2.73
316.369	2.45
316.743	2.24
317.117	2.81
317.491	2.98
317.865	1.89
318.239	2.67
318.613	2.64
318.987	2.01
319.361	2.4
319.734	2.6
320.108	2.72
320.482	2.76
320.855	2.4
321.229	3.12
321.602	2.71
321.976	2.18
322.349	2.77
322.723	3.06
323.096	2.37
323.469	2.26
323.843	2.48
324.216	2.12
324.589	2.67
324.962	2.15
325.335	2.84
325.708	2.79
326.081	2.37
326.454	2.77
326.827	3.1
327.2	2.45
327.573	3.11
327.945	2.6
328.318	2.45
328.691	2.6
329.063	2.25
329.436	2.27
329.809	2.92
330.181	2.97
330.553	2.95
330.926	3.15
331.298	2.15
331.671	2.73
332.043	2.66
332.415	3.07
332.787	2.75
333.159	1.68
333.532	2.81
333.904	3.11
334.276	2.51
334.648	2.75
335.02	2.84
335.391	2.27
335.763	2.98
336.135	2.74
336.507	2.84
336.879	2.52
337.25	2.94
337.622	2.88
337.993	2.58
338.365	2.54
338.736	2.78
339.108	2.86
339.479	2.65
339.851	2.61
340.222	2.75
340.593	2.57
340.964	2.54
341.336	2.55
341.707	2.84
342.078	2.6
342.449	2.64
342.82	2.94
343.191	2.64
343.562	2.6
343.933	2.7
344.303	2.93
344.674	2.68
345.045	2.68
345.416	3.22
345.786	2.47
346.157	2.99
346.527	2.64
346.898	2.39
347.268	3.13
347.639	2.42
348.009	3.14
348.38	2.74
348.75	2.97
349.12	2.71
349.49	2.57
349.861	2.65
350.231	2.93
350.601	2.78
350.971	2.52
351.341	2.68
351.711	2.86
352.081	2.4
352.45	2.13
352.82	2.29
353.19	2.56
353.56	2.59
353.929	2.87
354.299	3.1
354.669	2.92
355.038	3.22
355.408	2.85
355.777	2.97
356.147	2.44
356.516	2.57
356.885	2.92
357.254	2.47
357.624	2.5
357.993	2.9
358.362	2.74
358.731	3.03
359.1	2.7
359.469	3.03
359.838	2.79
360.207	3.1
360.576	3.01
360.945	3.15
361.314	2.65
361.682	2.56
362.051	2.93
362.42	2.99
362.788	2.88
363.157	2.89
363.525	2.52
363.894	2.53
364.262	2.66
364.631	3.17
364.999	2.87
365.367	2.75
365.735	2.95
366.104	2.69
366.472	2.66
366.84	3.06
367.208	2.8
367.576	2.83
367.944	3
368.312	2.77
368.68	2.94
369.048	2.84
369.416	2.59
369.783	3.09
370.151	2.99
370.519	3.27
370.886	2.83
371.254	3.09
371.621	2.86
371.989	2.83
372.356	2.79
372.724	2.74
373.091	2.77
373.458	2.82
373.826	3.03
374.193	3.04
374.56	2.95
374.927	2.63
375.294	3.06
375.661	3.14
376.028	3.15
376.395	3.09
376.762	2.47
377.129	2.78
377.496	2.95
377.863	2.93
378.229	2.98
378.596	2.8
378.963	2.77
379.329	2.91
379.696	2.57
380.062	2.86
380.429	2.64
380.795	3.1
381.161	2.59
381.528	2.68
381.894	2.76
382.26	2.79
382.626	3.24
382.993	3.26
383.359	2.8
383.725	2.65
384.091	3.04
384.457	2.86
384.823	3.31
385.188	3.04
385.554	2.85
385.92	2.95
386.286	2.87
386.651	2.92
387.017	3.2
387.383	2.84
387.748	2.96
388.114	2.84
388.479	2.66
388.845	2.67
389.21	3.36
389.575	2.96
389.94	3.4
390.306	3.06
390.671	2.98
391.036	2.97
391.401	2.93
391.766	2.77
392.131	2.94
392.496	2.86
392.861	3.04
393.226	2.91
393.591	2.99
393.956	2.82
394.32	2.9
394.685	3.03
395.05	2.91
395.414	2.81
395.779	3.18
396.143	2.79
396.508	2.91
396.872	3.07
397.236	3.29
397.601	3.25
397.965	2.79
398.329	2.99
398.694	2.84
399.058	3.02
399.422	2.91
399.786	2.94
400.15	2.89
400.514	3.1
400.878	2.91
401.242	3.03
401.605	3.06
401.969	2.83
402.333	2.75
402.697	3.18
403.06	2.87
403.424	2.95
403.787	2.92
404.151	3.2
404.514	3.14
404.878	2.9
405.241	3.05
405.604	3.08
405.968	2.91
406.331	2.92
406.694	3.13
407.057	3.01
407.42	2.93
407.783	3.15
408.146	3.05
408.509	2.87
408.872	3.01
409.235	3.09
409.598	3
409.961	3.17
410.323	2.8
410.686	2.83
411.049	3.08
411.411	3.1
411.774	3.04
412.136	3
412.499	3.03
412.861	2.57
413.223	2.9
413.586	2.99
413.948	3.09
414.31	3.01
414.672	3.01
415.035	3.17
415.397	2.97
415.759	2.76
416.121	3.13
416.483	3.01
416.845	3.08
417.206	2.94
417.568	3.01
417.93	2.96
418.292	2.91
418.653	2.81
419.015	2.98
419.377	2.92
419.738	2.9
420.1	3.01
420.461	2.89
420.822	2.97
421.184	2.84
421.545	3.05
421.906	2.94
422.267	2.95
422.629	3
422.99	2.94
423.351	2.93
423.712	2.95
424.073	2.99
424.434	3
424.795	2.97
425.155	2.91
425.516	2.93
425.877	2.99
426.238	2.96
426.598	2.91
426.959	3.03
427.32	2.98
427.68	2.96
428.041	3.05
428.401	2.94
428.761	3.15
429.122	3.11
429.482	3
429.842	3.13
430.202	3.19
430.563	3.08
430.923	3.19
431.283	3.05
431.643	3.12
432.003	3.09
432.363	3.22
432.722	3.01
433.082	3
433.442	3.07
433.802	3.1
434.161	2.87
434.521	2.92
434.881	3.05
435.24	3.1
435.6	3.2
435.959	3.21
436.319	3.12
436.678	3.3
437.037	3.18
437.396	3.11
437.756	3.07
438.115	3.25
438.474	3.08
438.833	2.97
439.192	3.14
439.551	3.03
439.91	3.05
440.269	3.04
440.628	3.03
440.987	3.06
441.345	3.09
441.704	3.08
442.063	3.07
442.421	3.06
442.78	3.08
443.138	3.01
443.497	3.03
443.855	3.14
444.214	2.97
444.572	3.1
444.93	3.25
445.288	3.05
445.647	3.01
446.005	2.98
446.363	3.11
446.721	3.16
447.079	2.95
447.437	3.1
447.795	3.17
448.153	3.02
448.51	3.12
448.868	3.1
449.226	3.14
449.584	3.22
449.941	3.17
450.299	3.07
450.656	3.09
451.014	3.09
451.371	3.15
451.729	3.21
452.086	3.04
452.443	3.18
452.801	3.23
453.158	3.28
453.515	3.05
453.872	3.28
454.229	3.12
454.586	3.13
454.943	3.22
455.3	3.24
455.657	3.18
456.014	3.19
456.371	3.22
456.727	3.2
457.084	3.39
457.441	3.12
457.797	3.19
458.154	3.16
458.51	3.07
458.867	3.26
459.223	3.21
459.58	3.26
459.936	3.21
460.292	3.12
460.648	3
461.005	3.11
461.361	3.12
461.717	3.11
462.073	3.18
462.429	3.16
462.785	3.26
463.141	3.16
463.496	3.26
463.852	3.39
464.208	3.2
464.564	3.25
464.919	3.25
465.275	3.21
465.631	3.27
465.986	3.37
466.342	3.07
466.697	3.4
467.052	3.42
467.408	3.19
467.763	3.24
468.118	3.12
468.473	3.23
468.829	3.07
469.184	3.37
469.539	3.27
469.894	3.2
470.249	3.23
470.603	3.31
470.958	3.35
471.313	3.33
471.668	3.11
472.023	3.27
472.377	3.1
472.732	3.4
473.086	3.21
473.441	3.12
473.795	3.52
474.15	3.31
474.504	3.15
474.859	3.04
475.213	3.34
475.567	3.23
475.921	3.4
476.275	3.33
476.63	3.34
476.984	3.12
477.338	3.33
477.692	3.24
478.045	3.28
478.399	3.3
478.753	3.27
479.107	3.21
479.461	3.19
479.814	3.25
480.168	3.32
480.521	3.36
480.875	3.3
481.228	3.24
481.582	3.24
481.935	3.36
482.289	3.21
482.642	3.37
482.995	3.2
483.348	3.26
483.701	3.34
484.055	3.2
484.408	3.2
484.761	3.12
485.114	2.97
485.466	3.02
485.819	3.02
486.172	3.09
486.525	3.13
486.878	3.22
487.23	3.24
487.583	3.23
487.936	3.13
488.288	3.16
488.641	3.08
488.993	3.08
489.345	3.1
489.698	3.11
490.05	3.1
490.402	3.21
490.754	3.14
491.107	3.19
491.459	3.34
491.811	3.29
492.163	3.2
492.515	3.12
492.866	3.05
493.218	3.1
493.57	3.17
493.922	3.19
494.274	3.24
494.625	3.33
494.977	3.32
495.328	3.38
495.68	3.35
496.031	3.28
496.383	3.31
496.734	3.26
497.086	3.43
497.437	3.32
497.788	3.38
498.139	3.29
498.49	3.34
498.842	3.36
499.193	3.24
499.544	3.43
499.894	3.32
500.245	3.4
500.596	3.36
500.947	3.36
501.298	3.23
501.648	3.37
501.999	3.38
502.35	3.2
502.7	3.54
503.051	3.34
503.401	3.34
503.752	3.29
504.102	3.29
504.452	3.32
504.803	3.44
505.153	3.5
505.503	3.38
505.853	3.46
506.203	3.45
506.553	3.25
506.903	3.38
507.253	3.38
507.603	3.41
507.953	3.29
508.303	3.44
508.652	3.27
509.002	3.44
509.352	3.33
509.701	3.27
510.051	3.37
510.4	3.41
510.75	3.34
511.099	3.29
511.449	3.42
511.798	3.39
512.147	3.29
512.496	3.38
512.846	3.34
513.195	3.35
513.544	3.46
513.893	3.36
514.242	3.33
514.591	3.36
514.939	3.4
515.288	3.45
515.637	3.35
515.986	3.42
516.334	3.33
516.683	3.4
517.032	3.42
517.38	3.38
517.729	3.46
518.077	3.31
518.426	3.49
518.774	3.35
519.122	3.3
519.47	3.26
519.819	3.39
520.167	3.3
520.515	3.33
520.863	3.28
521.211	3.31
521.559	3.31
521.907	3.4
522.255	3.27
522.602	3.42
522.95	3.45
523.298	3.4
523.645	3.39
523.993	3.5
524.341	3.39
524.688	3.37
525.036	3.34
525.383	3.42
525.73	3.31
526.078	3.53
526.425	3.33
526.772	3.29
527.119	3.32
527.466	3.37
527.814	3.32
528.161	3.36
528.508	3.32
528.854	3.32
529.201	3.26
529.548	3.21
529.895	3.16
530.242	3.13
530.588	3.19
530.935	3.24
531.282	3.23
531.628	3.3
531.975	3.29
532.321	3.34
532.667	3.43
533.014	3.43
533.36	3.33
533.706	3.33
534.052	3.38
534.399	3.26
534.745	3.24
535.091	3.22
535.437	3.28
535.783	3.34
536.129	3.41
536.474	3.48
536.82	3.41
537.166	3.27
537.512	3.32
537.857	3.38
538.203	3.34
538.549	3.31
538.894	3.36
539.239	3.51
539.585	3.46
539.93	3.49
540.276	3.45
540.621	3.57
540.966	3.47
541.311	3.45
541.656	3.38
542.001	3.3
542.346	3.29
542.691	3.2
543.036	3.27
543.381	3.26
543.726	3.39
544.071	3.34
544.415	3.38
544.76	3.37
545.105	3.33
545.449	3.39
545.794	3.45
546.138	3.38
546.483	3.53
546.827	3.39
547.171	3.44
547.516	3.46
547.86	3.39
548.204	3.38
548.548	3.44
548.892	3.42
549.236	3.44
549.58	3.4
549.924	3.54
550.268	3.57
550.612	3.54
550.956	3.52
551.3	3.68
551.643	3.58
551.987	3.67
552.33	3.68
552.674	3.49
553.017	3.5
553.361	3.69
553.704	3.59
554.048	3.42
554.391	3.59
554.734	3.43
555.077	3.58
555.42	3.4
555.764	3.55
556.107	3.51
556.45	3.57
556.793	3.81
557.135	3.63
557.478	3.47
557.821	3.54
558.164	3.63
558.507	3.42
558.849	3.61
559.192	3.5
559.534	3.51
559.877	3.56
560.219	3.56
560.562	3.47
560.904	3.75
561.246	3.46
561.589	3.7
561.931	3.58
562.273	3.56
562.615	3.52
562.957	3.51
563.299	3.54
563.641	3.5
563.983	3.33
564.325	3.62
564.667	3.51
565.008	3.41
565.35	3.48
565.692	3.68
566.033	3.5
566.375	3.58
566.716	3.49
567.058	3.53
567.399	3.53
567.741	3.51
568.082	3.64
568.423	3.47
568.764	3.59
569.105	3.51
569.447	3.51
569.788	3.38
570.129	3.58
570.47	3.53
570.811	3.62
571.151	3.53
571.492	3.61
571.833	3.67
572.174	3.61
572.514	3.54
572.855	3.78
573.195	3.47
573.536	3.64
573.876	3.59
574.217	3.43
574.557	3.6
574.898	3.5
575.238	3.67
575.578	3.56
575.918	3.65
576.258	3.81
576.598	3.63
576.938	3.55
577.278	3.54
577.618	3.52
577.958	3.66
578.298	3.6
578.638	3.6
578.977	3.69
579.317	3.85
579.657	3.65
579.996	3.82
580.336	3.76
580.675	3.53
581.014	3.81
581.354	3.49
581.693	3.71
582.032	3.8
582.372	3.77
582.711	3.7
583.05	3.69
583.389	3.86
583.728	3.74
584.067	3.56
584.406	3.8
584.745	3.45
585.083	3.82
585.422	3.82
585.761	3.82
586.1	3.63
586.438	3.55
586.777	3.53
587.115	3.77
587.454	3.65
587.792	3.67
588.13	3.72
588.469	3.63
588.807	3.77
589.145	3.7
589.483	3.53
589.821	3.78
590.159	3.61
590.497	3.54
590.835	3.78
591.173	3.73
591.511	3.98
591.849	3.66
592.187	3.69
592.524	3.68
592.862	3.58
593.2	3.65
593.537	3.66
593.875	3.53
594.212	3.74
594.55	3.7
594.887	3.72
595.224	3.79
595.561	3.73
595.899	3.7
596.236	3.68
596.573	3.59
596.91	3.67
597.247	3.83
597.584	3.87
597.921	3.68
598.258	3.77
598.594	3.51
598.931	3.61
599.268	3.47
599.604	3.66
599.941	3.77
600.277	3.77
600.614	3.72
600.95	3.74
601.287	3.49
601.623	3.41
601.959	3.96
602.296	3.77
602.632	3.67
602.968	3.56
603.304	3.67
603.64	3.66
603.976	3.37
604.312	3.62
604.648	3.53
604.984	3.72
605.319	3.67
605.655	3.82
605.991	3.72
606.326	3.55
606.662	3.46
606.998	3.91
607.333	3.69
607.668	3.61
608.004	3.56
608.339	3.72
608.674	3.71
609.01	4.19
609.345	3.94
609.68	3.69
610.015	3.82
610.35	3.65
610.685	3.56
611.02	3.46
611.355	3.74
611.689	3.66
612.024	3.69
612.359	3.82
612.694	3.77
613.028	3.67
613.363	3.76
613.697	3.75
614.032	3.55
614.366	3.48
614.7	3.75
615.035	3.86
615.369	4.06
615.703	3.93
616.037	3.94
616.371	3.79
616.705	3.82
617.039	3.68
617.373	4.03
617.707	3.7
618.041	3.81
618.375	3.47
618.709	4.06
619.042	3.72
619.376	3.8
619.71	3.78
620.043	4.11
620.377	3.55
620.71	3.34
621.043	4.02
621.377	3.89
621.71	3.94
622.043	3.86
622.376	3.79
622.709	4.25
623.043	3.84
623.376	3.69
623.709	3.9
624.041	3.75
624.374	3.74
624.707	3.81
625.04	3.97
625.373	3.59
625.705	3.81
626.038	3.76
626.37	3.61
626.703	3.68
627.035	3.81
627.368	3.88
627.7	3.41
628.032	3.84
628.365	3.86
628.697	4.18
629.029	3.8
629.361	4.13
629.693	3.72
630.025	3.74
630.357	4.17
630.689	3.76
631.021	4.13
631.353	3.93
631.684	3.56
632.016	3.66
632.348	3.72
632.679	3.87
633.011	3.72
633.342	3.82
633.674	3.74
634.005	3.61
634.336	3.47
634.668	3.92
634.999	3.7
635.33	4.11
635.661	3.92
635.992	3.73
636.323	3.66
636.654	3.81
636.985	3.75
637.316	3.87
637.647	4.21
637.977	3.33
638.308	4.08
638.639	3.9
638.969	3.78
639.3	3.8
639.63	3.6
639.961	4.19
640.291	3.85
640.622	3.99
640.952	4.23
641.282	3.67
641.612	3.74
641.943	3.72
642.273	3.68
642.603	3.79
642.933	3.93
643.263	4.12
643.592	4.24
643.922	4.17
644.252	3.7
644.582	4.22
644.911	3.81
645.241	3.99
645.571	3.93
645.9	4.21
646.23	4.44
646.559	3.23
646.888	3.74
647.218	4.33
647.547	3.78
647.876	3.9
648.205	3.59
648.534	4.1
648.863	3.5
649.192	4.21
649.521	4.31
649.85	3.93
650.179	4.3
650.508	3.79
650.837	4.16
651.165	3.83
651.494	3.69
651.822	4.29
652.151	3.55
652.479	4.16
652.808	3.82
653.136	3.82
653.465	3.85
653.793	3.85
654.121	3.89
654.449	3.66
654.777	3.62
655.105	3.6
655.433	4.43
655.761	3.9
656.089	3.98
656.417	4.69
656.745	4.37
657.073	3.73
657.4	3.82
657.728	3.57
658.056	3.94
658.383	3.52
658.711	3.86
659.038	4.32
659.365	4.42
659.693	3.83
660.02	3.94
660.347	3.98
660.674	3.69
661.001	3.8
661.329	3.69
661.656	3.2
661.982	3.6
662.309	3.71
662.636	3.98
662.963	3.97
663.29	4.17
663.616	4.09
663.943	4.27
664.27	3.61
664.596	4.16
664.923	4.39
665.249	4.08
665.576	3.78
665.902	3.64
666.228	4.06
666.554	4.17
666.881	3.29
667.207	3.8
667.533	3.74
667.859	4.08
668.185	3.87
668.511	4.08
668.837	4.03
669.162	4.04
669.488	3.72
669.814	3.98
670.139	3.63
670.465	4.19
670.791	3.63
671.116	3.68
671.442	3.36
671.767	4.01
672.092	3.92
672.418	3.94
672.743	3.91
673.068	4.01
673.393	4.36
673.718	3.46
674.043	4.03
674.368	4.2
674.693	3.94
675.018	4.74
675.343	4.35
675.667	3.87
675.992	4.06
676.317	3.43
676.641	4.43
676.966	4.02
677.29	3.31
677.615	3.57
677.939	4.28
678.264	4.05
678.588	4.05
678.912	4.14
679.236	3.26
679.56	3.17
679.885	3.54
680.209	4.28
680.532	4.86
680.856	4.3
681.18	4.63
681.504	3.58
681.828	3.42
682.152	4.03
682.475	3.99
682.799	3.93
683.122	3.9
683.446	3.83
683.769	4.38
684.093	4.4
684.416	3.87
684.739	3.84
685.062	3.79
685.386	4.12
685.709	4.31
686.032	4.38
686.355	3.92
686.678	4.67
687.001	3.41
687.324	4.28
687.646	4.06
687.969	4.22
688.292	3.78
688.614	3.76
688.937	4.13
689.26	4.56
689.582	4.63
689.904	3.82
690.227	4.31
690.549	4.03
690.871	4.07
691.194	3.47
691.516	4.17
691.838	4.34
692.16	3.25
692.482	3.75
