Data from 21-11_chest_Reflection__2__62.txt Node

Date: Thu Dec 15 16:55:54 CST 2022
User: ToomeyLab
Spectrometer: FLMS14357
Trigger mode: 0
Integration Time (sec): 1.000000E-2
Scans to average: 100
Electric dark correction enabled: true
Nonlinearity correction enabled: false
Boxcar width: 0
XAxis mode: Wavelengths
Number of Pixels in Spectrum: 2048
>>>>>Begin Spectral Data<<<<<
189.047	-519.73
189.435	-519.73
189.823	-519.73
190.211	-277.97
190.599	74.92
190.987	82.82
191.375	49.67
191.763	-13.12
192.151	172.2
192.538	28.98
192.926	1247.37
193.314	19366.67
193.702	-42.01
194.089	4.98
194.477	188.04
194.864	3.73
195.252	314.95
195.639	228.08
196.027	131.43
196.414	0.86
196.801	556.27
197.189	175.33
197.576	-178.05
197.963	-1096.03
198.351	38.77
198.738	-42.06
199.125	-39.82
199.512	34.11
199.899	-4.48
200.286	-29.46
200.673	34.54
201.06	-3.11
201.447	15.57
201.833	5.26
202.22	8.13
202.607	-58.55
202.994	-6.57
203.38	18.43
203.767	-19.42
204.154	40.21
204.54	2.4
204.927	9.4
205.313	-8.34
205.699	21.34
206.086	31.75
206.472	6.15
206.858	-0.58
207.245	-20.98
207.631	29.89
208.017	47.31
208.403	-15.31
208.789	27.13
209.175	33.45
209.561	7.5
209.947	-5.92
210.333	-35.35
210.719	38.12
211.105	36.17
211.491	-7.23
211.876	4.6
212.262	51.98
212.648	5.55
213.034	11.95
213.419	20.4
213.805	-10.14
214.19	8.21
214.576	-1.57
214.961	-2.07
215.346	-26.47
215.732	-24.79
216.117	6.23
216.502	-10.02
216.888	2.47
217.273	0.09
217.658	-3.38
218.043	-6.53
218.428	14.73
218.813	12.93
219.198	-30.06
219.583	-7.11
219.968	16.69
220.353	-16.29
220.738	0.2
221.122	-14.48
221.507	-1.07
221.892	5.98
222.276	-6.72
222.661	-4.66
223.046	1.67
223.43	14.65
223.815	13.24
224.199	4.31
224.583	-2.27
224.968	-0.37
225.352	-8.95
225.736	5.59
226.121	9.15
226.505	-3.2
226.889	2.37
227.273	0.55
227.657	4.79
228.041	2.2
228.425	1.26
228.809	1.1
229.193	6.74
229.577	4.6
229.961	4.1
230.344	4.66
230.728	5.36
231.112	4.88
231.495	2.7
231.879	4.41
232.263	4.72
232.646	3.7
233.03	5.89
233.413	3.34
233.797	4.73
234.18	4.23
234.563	4.9
234.946	3.41
235.33	5
235.713	4.56
236.096	5.78
236.479	5.53
236.862	4.58
237.245	5.32
237.628	5.38
238.011	4.87
238.394	5
238.777	6.53
239.16	5.7
239.543	6.31
239.925	5.03
240.308	3.07
240.691	4.03
241.073	4.23
241.456	5.3
241.838	3.97
242.221	4.42
242.603	4.59
242.986	4.81
243.368	5.18
243.75	4.78
244.133	4.92
244.515	4.46
244.897	4.3
245.279	3.69
245.661	3.74
246.043	4.56
246.425	4.84
246.807	4.31
247.189	3.96
247.571	4.07
247.953	3.99
248.335	4.38
248.717	4.61
249.098	4.6
249.48	4.52
249.862	4.39
250.243	4.74
250.625	4.44
251.006	4.87
251.388	4.12
251.769	4.45
252.151	4.41
252.532	4.14
252.913	4.07
253.295	4.12
253.676	4.86
254.057	4.34
254.438	4.59
254.819	3.98
255.2	4.49
255.581	4.97
255.962	4.41
256.343	4.3
256.724	4.97
257.105	4.79
257.486	3.6
257.867	4.42
258.247	4.14
258.628	5.09
259.009	3.39
259.389	4
259.77	4.16
260.15	4.85
260.531	4.07
260.911	4.11
261.292	4.4
261.672	4.16
262.052	4.29
262.432	3.76
262.813	4.45
263.193	4.32
263.573	3.9
263.953	3.86
264.333	4.17
264.713	3.72
265.093	4.19
265.473	3.48
265.853	4.74
266.233	4.19
266.612	3.44
266.992	4.08
267.372	4.22
267.752	4.23
268.131	3.67
268.511	3.87
268.89	4.36
269.27	3.29
269.649	4.24
270.029	3.95
270.408	3.6
270.787	3.75
271.167	4.64
271.546	4.09
271.925	4.45
272.304	3.72
272.683	4.02
273.062	3.82
273.441	3.77
273.82	3.45
274.199	3.41
274.578	4.12
274.957	3.72
275.336	4.26
275.715	3.73
276.093	3.52
276.472	3.7
276.851	3.51
277.229	3.64
277.608	3.44
277.986	3.79
278.365	4.07
278.743	3.6
279.122	3.54
279.5	3.88
279.878	3.98
280.257	3.56
280.635	4.31
281.013	3.76
281.391	4.37
281.769	4.4
282.147	3.9
282.525	3.94
282.903	3.58
283.281	4.11
283.659	3.85
284.037	3.63
284.415	3.71
284.792	4.14
285.17	3.66
285.548	3.81
285.925	3.86
286.303	4.34
286.68	3.49
287.058	3.74
287.435	3.55
287.813	3.87
288.19	3.68
288.567	3.43
288.945	3.58
289.322	3.81
289.699	3.91
290.076	3.73
290.453	3.87
290.83	3.77
291.207	3.9
291.584	3.93
291.961	3.74
292.338	3.62
292.715	3.86
293.092	4.54
293.469	3.58
293.845	3.88
294.222	3.95
294.599	3.48
294.975	3.51
295.352	4.36
295.728	3.97
296.105	4.16
296.481	3.55
296.858	3.75
297.234	3.25
297.61	3.76
297.986	3.99
298.363	4.07
298.739	4.18
299.115	3.8
299.491	4.05
299.867	3.79
300.243	3.78
300.619	3.66
300.995	3.98
301.371	4.08
301.746	3.73
302.122	3.77
302.498	3.98
302.874	4.22
303.249	4.09
303.625	3.77
304	4.3
304.376	4.55
304.751	3.79
305.127	3.99
305.502	4.04
305.878	3.92
306.253	3.54
306.628	4.2
307.003	3.92
307.378	3.74
307.754	4.42
308.129	3.71
308.504	4.82
308.879	4.18
309.254	4.02
309.629	4.33
310.003	4.22
310.378	4.02
310.753	4.19
311.128	3.35
311.502	3.96
311.877	3.88
312.252	4.03
312.626	4.42
313.001	4.11
313.375	4.05
313.75	4.51
314.124	4.17
314.498	4.12
314.873	3.51
315.247	3.73
315.621	4.15
315.995	4.13
316.369	3.64
316.743	3.85
317.117	4.25
317.491	3.89
317.865	3.44
318.239	4.32
318.613	4.07
318.987	3.56
319.361	3.8
319.734	4.25
320.108	4.03
320.482	4.15
320.855	4.15
321.229	4.33
321.602	3.84
321.976	3.8
322.349	4.6
322.723	4.04
323.096	4.16
323.469	3.82
323.843	3.89
324.216	3.84
324.589	4.36
324.962	3.91
325.335	3.93
325.708	3.79
326.081	4.42
326.454	4.18
326.827	3.82
327.2	3.83
327.573	4.4
327.945	3.75
328.318	4.22
328.691	4.17
329.063	3.42
329.436	3.82
329.809	4.1
330.181	4.65
330.553	4.21
330.926	4.67
331.298	4.14
331.671	3.82
332.043	4.25
332.415	4.42
332.787	4.54
333.159	4.08
333.532	4.19
333.904	4.28
334.276	3.88
334.648	4.13
335.02	3.75
335.391	3.6
335.763	3.94
336.135	4.2
336.507	4.01
336.879	3.74
337.25	4.28
337.622	4.06
337.993	3.95
338.365	4.15
338.736	4.36
339.108	3.76
339.479	3.93
339.851	4.43
340.222	4.43
340.593	4.02
340.964	4.22
341.336	3.96
341.707	3.96
342.078	3.81
342.449	3.9
342.82	4.13
343.191	4.2
343.562	4.09
343.933	3.62
344.303	4.35
344.674	3.87
345.045	3.9
345.416	4.49
345.786	4.4
346.157	4.22
346.527	4.31
346.898	3.89
347.268	4.43
347.639	3.99
348.009	4.29
348.38	3.76
348.75	4.28
349.12	4.31
349.49	3.93
349.861	4.53
350.231	3.99
350.601	4.13
350.971	4.18
351.341	4.64
351.711	4.18
352.081	3.94
352.45	3.72
352.82	3.57
353.19	3.93
353.56	4.27
353.929	4.38
354.299	4.41
354.669	4.18
355.038	4.42
355.408	4.16
355.777	4.53
356.147	4.11
356.516	3.8
356.885	4.39
357.254	4.26
357.624	3.82
357.993	4.22
358.362	4.36
358.731	4.29
359.1	3.9
359.469	4.37
359.838	4.43
360.207	4.04
360.576	4.38
360.945	4.08
361.314	4.04
361.682	3.74
362.051	4.13
362.42	4.23
362.788	4.31
363.157	4.05
363.525	4.09
363.894	3.76
364.262	4.29
364.631	4.22
364.999	4.13
365.367	4.14
365.735	4.22
366.104	4.17
366.472	4.23
366.84	4.3
367.208	4.49
367.576	4.2
367.944	4.36
368.312	4.31
368.68	4.34
369.048	4.39
369.416	4.23
369.783	4.16
370.151	4.7
370.519	4.39
370.886	4.29
371.254	4.5
371.621	4.29
371.989	4.53
372.356	4.18
372.724	4.48
373.091	4.38
373.458	4.23
373.826	4.41
374.193	4.23
374.56	4.14
374.927	4.1
375.294	4.19
375.661	4.48
376.028	4.39
376.395	4.32
376.762	3.73
377.129	4.11
377.496	4.49
377.863	4.42
378.229	4.53
378.596	4.53
378.963	4.5
379.329	4.34
379.696	4.29
380.062	4.32
380.429	4.09
380.795	4.64
381.161	4.08
381.528	3.88
381.894	4.25
382.26	4.34
382.626	4.4
382.993	4.64
383.359	4.07
383.725	4.14
384.091	4.39
384.457	4.19
384.823	4.32
385.188	4.4
385.554	4.41
385.92	4.26
386.286	4.5
386.651	4.36
387.017	4.46
387.383	4.17
387.748	4.27
388.114	4.51
388.479	4.42
388.845	4.13
389.21	4.46
389.575	4.49
389.94	4.63
390.306	4.43
390.671	4.46
391.036	4.29
391.401	4.44
391.766	4.31
392.131	4.34
392.496	4.19
392.861	4.25
393.226	4.3
393.591	4.42
393.956	4.44
394.32	4.6
394.685	4.28
395.05	4.25
395.414	4.46
395.779	4.45
396.143	4.18
396.508	4.3
396.872	4.25
397.236	4.58
397.601	4.57
397.965	4.45
398.329	4.46
398.694	4.33
399.058	4.42
399.422	4.25
399.786	4.14
400.15	4.43
400.514	4.49
400.878	4.28
401.242	4.64
401.605	4.45
401.969	4.21
402.333	4.18
402.697	4.57
403.06	4.39
403.424	4.38
403.787	4.49
404.151	4.41
404.514	4.48
404.878	4.31
405.241	4.46
405.604	4.36
405.968	4.35
406.331	4.41
406.694	4.46
407.057	4.32
407.42	4.47
407.783	4.62
408.146	4.51
408.509	4.61
408.872	4.41
409.235	4.54
409.598	4.51
409.961	4.56
410.323	4.43
410.686	4.41
411.049	4.51
411.411	4.39
411.774	4.52
412.136	4.4
412.499	4.66
412.861	4.05
413.223	4.28
413.586	4.47
413.948	4.42
414.31	4.53
414.672	4.28
415.035	4.62
415.397	4.4
415.759	4.24
416.121	4.53
416.483	4.47
416.845	4.48
417.206	4.38
417.568	4.41
417.93	4.58
418.292	4.36
418.653	4.39
419.015	4.49
419.377	4.27
419.738	4.43
420.1	4.4
420.461	4.33
420.822	4.5
421.184	4.32
421.545	4.52
421.906	4.37
422.267	4.31
422.629	4.4
422.99	4.34
423.351	4.32
423.712	4.42
424.073	4.57
424.434	4.52
424.795	4.45
425.155	4.32
425.516	4.39
425.877	4.36
426.238	4.41
426.598	4.39
426.959	4.47
427.32	4.37
427.68	4.54
428.041	4.44
428.401	4.41
428.761	4.58
429.122	4.46
429.482	4.54
429.842	4.47
430.202	4.56
430.563	4.63
430.923	4.55
431.283	4.62
431.643	4.65
432.003	4.51
432.363	4.67
432.722	4.61
433.082	4.57
433.442	4.6
433.802	4.53
434.161	4.55
434.521	4.53
434.881	4.58
435.24	4.63
435.6	4.63
435.959	4.53
436.319	4.59
436.678	4.62
437.037	4.57
437.396	4.49
437.756	4.54
438.115	4.59
438.474	4.59
438.833	4.6
439.192	4.49
439.551	4.52
439.91	4.55
440.269	4.57
440.628	4.54
440.987	4.66
441.345	4.64
441.704	4.51
442.063	4.54
442.421	4.59
442.78	4.58
443.138	4.55
443.497	4.49
443.855	4.64
444.214	4.38
444.572	4.78
444.93	4.69
445.288	4.57
445.647	4.42
446.005	4.66
446.363	4.52
446.721	4.57
447.079	4.61
447.437	4.54
447.795	4.55
448.153	4.56
448.51	4.62
448.868	4.54
449.226	4.64
449.584	4.56
449.941	4.61
450.299	4.59
450.656	4.53
451.014	4.7
451.371	4.75
451.729	4.69
452.086	4.64
452.443	4.79
452.801	4.75
453.158	4.89
453.515	4.66
453.872	4.6
454.229	4.52
454.586	4.56
454.943	4.77
455.3	4.79
455.657	4.73
456.014	4.75
456.371	4.81
456.727	4.96
457.084	4.81
457.441	4.73
457.797	4.8
458.154	4.81
458.51	4.7
458.867	4.76
459.223	4.72
459.58	4.85
459.936	4.76
460.292	4.63
460.648	4.67
461.005	4.64
461.361	4.75
461.717	4.71
462.073	4.75
462.429	4.72
462.785	4.79
463.141	4.87
463.496	4.75
463.852	4.92
464.208	4.74
464.564	4.6
464.919	4.78
465.275	4.75
465.631	4.9
465.986	4.82
466.342	4.73
466.697	4.83
467.052	4.94
467.408	4.91
467.763	4.92
468.118	4.71
468.473	4.83
468.829	4.66
469.184	5.05
469.539	4.72
469.894	4.87
470.249	4.93
470.603	5.01
470.958	5.01
471.313	4.93
471.668	4.99
472.023	4.97
472.377	4.94
472.732	5.01
473.086	4.83
473.441	4.88
473.795	5.08
474.15	4.97
474.504	4.85
474.859	4.76
475.213	4.95
475.567	4.83
475.921	4.89
476.275	4.98
476.63	4.98
476.984	4.88
477.338	5.1
477.692	4.95
478.045	4.98
478.399	4.94
478.753	4.99
479.107	4.87
479.461	5.01
479.814	4.89
480.168	4.97
480.521	5
480.875	5.02
481.228	5.05
481.582	4.92
481.935	5
482.289	5.1
482.642	5.04
482.995	4.99
483.348	4.9
483.701	4.88
484.055	4.85
484.408	4.88
484.761	4.79
485.114	4.67
485.466	4.66
485.819	4.66
486.172	4.72
486.525	4.73
486.878	4.86
487.23	4.84
487.583	4.88
487.936	4.85
488.288	4.84
488.641	4.8
488.993	4.75
489.345	4.78
489.698	4.76
490.05	4.79
490.402	4.8
490.754	4.87
491.107	4.89
491.459	4.95
491.811	4.98
492.163	5.02
492.515	4.92
492.866	4.84
493.218	4.8
493.57	4.89
493.922	4.87
494.274	5.02
494.625	5.02
494.977	5.03
495.328	5.13
495.68	5.05
496.031	5.11
496.383	5.13
496.734	5.08
497.086	5.25
497.437	5.21
497.788	5.27
498.139	5.09
498.49	5.19
498.842	5.18
499.193	5.14
499.544	5.23
499.894	5.07
500.245	5.25
500.596	5.15
500.947	5.22
501.298	5.14
501.648	5.13
501.999	5.31
502.35	5.21
502.7	5.44
503.051	5.21
503.401	5.19
503.752	5.16
504.102	5.18
504.452	5.2
504.803	5.08
505.153	5.27
505.503	5.3
505.853	5.39
506.203	5.35
506.553	5.3
506.903	5.23
507.253	5.27
507.603	5.41
507.953	5.32
508.303	5.4
508.652	5.24
509.002	5.42
509.352	5.38
509.701	5.31
510.051	5.47
510.4	5.38
510.75	5.25
511.099	5.28
511.449	5.34
511.798	5.26
512.147	5.32
512.496	5.38
512.846	5.3
513.195	5.33
513.544	5.41
513.893	5.36
514.242	5.41
514.591	5.27
514.939	5.4
515.288	5.53
515.637	5.41
515.986	5.47
516.334	5.52
516.683	5.48
517.032	5.39
517.38	5.32
517.729	5.41
518.077	5.43
518.426	5.51
518.774	5.48
519.122	5.54
519.47	5.39
519.819	5.41
520.167	5.41
520.515	5.47
520.863	5.47
521.211	5.4
521.559	5.42
521.907	5.5
522.255	5.5
522.602	5.56
522.95	5.6
523.298	5.56
523.645	5.65
523.993	5.56
524.341	5.6
524.688	5.67
525.036	5.68
525.383	5.61
525.73	5.58
526.078	5.64
526.425	5.58
526.772	5.6
527.119	5.55
527.466	5.64
527.814	5.61
528.161	5.7
528.508	5.64
528.854	5.65
529.201	5.57
529.548	5.56
529.895	5.46
530.242	5.41
530.588	5.42
530.935	5.52
531.282	5.54
531.628	5.64
531.975	5.6
532.321	5.68
532.667	5.75
533.014	5.71
533.36	5.7
533.706	5.79
534.052	5.72
534.399	5.71
534.745	5.65
535.091	5.62
535.437	5.64
535.783	5.71
536.129	5.81
536.474	5.82
536.82	5.91
537.166	5.8
537.512	5.85
537.857	5.94
538.203	5.85
538.549	5.8
538.894	5.91
539.239	5.93
539.585	5.98
539.93	6.06
540.276	6.02
540.621	6.14
540.966	6.08
541.311	6.18
541.656	5.93
542.001	6.01
542.346	5.9
542.691	5.82
543.036	5.83
543.381	5.87
543.726	5.94
544.071	5.99
544.415	6.05
544.76	6.04
545.105	6.1
545.449	6.07
545.794	6.21
546.138	6.2
546.483	6.3
546.827	6.24
547.171	6.29
547.516	6.3
547.86	6.27
548.204	6.19
548.548	6.21
548.892	6.31
549.236	6.27
549.58	6.39
549.924	6.49
550.268	6.63
550.612	6.5
550.956	6.61
551.3	6.6
551.643	6.38
551.987	6.67
552.33	6.7
552.674	6.44
553.017	6.71
553.361	6.64
553.704	6.51
554.048	6.48
554.391	6.72
554.734	6.46
555.077	6.66
555.42	6.69
555.764	6.78
556.107	6.85
556.45	6.75
556.793	6.86
557.135	6.82
557.478	6.96
557.821	6.85
558.164	6.73
558.507	6.8
558.849	7.04
559.192	6.89
559.534	6.92
559.877	6.89
560.219	6.89
560.562	6.79
560.904	7.18
561.246	6.96
561.589	7.11
561.931	6.96
562.273	6.91
562.615	6.9
562.957	6.95
563.299	7.08
563.641	7.15
563.983	7.05
564.325	7.06
564.667	7.08
565.008	7.09
565.35	7.24
565.692	7.22
566.033	7.15
566.375	7.24
566.716	7.07
567.058	7.16
567.399	7.3
567.741	7.21
568.082	7.34
568.423	7.31
568.764	7.37
569.105	7.46
569.447	7.27
569.788	7.37
570.129	7.46
570.47	7.34
570.811	7.44
571.151	7.48
571.492	7.67
571.833	7.64
572.174	7.58
572.514	7.53
572.855	7.57
573.195	7.42
573.536	7.62
573.876	7.49
574.217	7.44
574.557	7.66
574.898	7.61
575.238	7.78
575.578	7.81
575.918	7.69
576.258	7.96
576.598	7.74
576.938	7.82
577.278	7.74
577.618	7.91
577.958	8.05
578.298	8.06
578.638	7.8
578.977	8.1
579.317	7.97
579.657	7.96
579.996	8.21
580.336	8.06
580.675	8.2
581.014	8.45
581.354	8.23
581.693	8.23
582.032	8.36
582.372	8.35
582.711	8.56
583.05	8.25
583.389	8.25
583.728	8.44
584.067	8.18
584.406	8.5
584.745	8.51
585.083	8.48
585.422	8.49
585.761	8.29
586.1	8.57
586.438	8.55
586.777	8.62
587.115	8.7
587.454	8.44
587.792	8.68
588.13	8.76
588.469	8.63
588.807	8.89
589.145	8.86
589.483	8.59
589.821	8.93
590.159	8.95
590.497	8.96
590.835	9.1
591.173	9.22
591.511	9.1
591.849	8.87
592.187	8.83
592.524	8.99
592.862	9.11
593.2	9
593.537	8.9
593.875	9.06
594.212	9.12
594.55	9.05
594.887	9.08
595.224	9.46
595.561	9.27
595.899	9.38
596.236	9.19
596.573	9.2
596.91	9.38
597.247	9.25
597.584	9.33
597.921	9.29
598.258	9.3
598.594	9.3
598.931	9.16
599.268	9.29
599.604	9.56
599.941	9.67
600.277	9.43
600.614	9.7
600.95	9.67
601.287	9.43
601.623	9.51
601.959	10.01
602.296	9.66
602.632	9.85
602.968	9.56
603.304	9.86
603.64	9.86
603.976	9.84
604.312	9.54
604.648	9.84
604.984	10.01
605.319	9.75
605.655	9.84
605.991	9.77
606.326	10.1
606.662	9.75
606.998	10.04
607.333	10.1
607.668	10.02
608.004	10.03
608.339	10.15
608.674	10.18
609.01	10.39
609.345	10.3
609.68	10.23
610.015	10.35
610.35	10.25
610.685	10.04
611.02	10.11
611.355	10.35
611.689	10.33
612.024	10.45
612.359	10.56
612.694	10.86
613.028	10.54
613.363	10.68
613.697	10.69
614.032	10.9
614.366	10.5
614.7	10.77
615.035	10.66
615.369	10.62
615.703	10.9
616.037	10.98
616.371	10.83
616.705	10.82
617.039	11
617.373	11.07
617.707	11.2
618.041	10.9
618.375	10.67
618.709	11.17
619.042	11.3
619.376	11.12
619.71	11.67
620.043	11.65
620.377	11.51
620.71	11.15
621.043	11.27
621.377	11.45
621.71	11.37
622.043	11.41
622.376	11.5
622.709	12.03
623.043	11.73
623.376	11.46
623.709	11.74
624.041	11.56
624.374	11.39
624.707	11.54
625.04	11.54
625.373	11.73
625.705	11.88
626.038	11.96
626.37	11.87
626.703	12.15
627.035	11.87
627.368	12.13
627.7	12
628.032	12.08
628.365	11.97
628.697	12.29
629.029	11.95
629.361	12.2
629.693	12.06
630.025	12.29
630.357	12.42
630.689	12.4
631.021	12.58
631.353	12.53
631.684	12.14
632.016	11.87
632.348	12.46
632.679	12.73
633.011	12.73
633.342	12.37
633.674	12.27
634.005	12.56
634.336	13
634.668	12.35
634.999	12.55
635.33	12.8
635.661	12.54
635.992	12.73
636.323	12.82
636.654	12.76
636.985	12.54
637.316	12.79
637.647	13.33
637.977	12.77
638.308	13.06
638.639	13
638.969	13.13
639.3	12.96
639.63	13.01
639.961	13.53
640.291	12.86
640.622	13.23
640.952	13.55
641.282	13.06
641.612	13.25
641.943	13.08
642.273	13.36
642.603	13.71
642.933	13.47
643.263	13.73
643.592	13.64
643.922	14.06
644.252	13.45
644.582	13.75
644.911	13.25
645.241	13.56
645.571	13.68
645.9	13.79
646.23	14.02
646.559	13.26
646.888	14.06
647.218	13.92
647.547	13.71
647.876	13.63
648.205	13.8
648.534	13.7
648.863	14.03
649.192	13.88
649.521	14.19
649.85	14.4
650.179	14.17
650.508	14.24
650.837	14.45
651.165	14.46
651.494	14.28
651.822	14.6
652.151	14.24
652.479	14.49
652.808	14.3
653.136	14.09
653.465	14.31
653.793	14.35
654.121	14.7
654.449	14.38
654.777	14.35
655.105	14.46
655.433	15.22
655.761	14.53
656.089	14.87
656.417	14.58
656.745	14.94
657.073	14.71
657.4	14.64
657.728	14.57
658.056	15.16
658.383	15.15
658.711	15.17
659.038	15.4
659.365	15.13
659.693	14.69
660.02	15.26
660.347	14.85
660.674	15.34
661.001	14.94
661.329	14.99
661.656	14.92
661.982	15.2
662.309	15.27
662.636	15.46
662.963	15.2
663.29	15.45
663.616	15.56
663.943	15.58
664.27	15.52
664.596	15.11
664.923	15.36
665.249	15.73
665.576	15.14
665.902	15.4
666.228	15.92
666.554	16.25
666.881	15.56
667.207	15.63
667.533	15.83
667.859	15.65
668.185	15.28
668.511	16.71
668.837	16.14
669.162	16.17
669.488	15.39
669.814	16.18
670.139	15.61
670.465	16.54
670.791	16.27
671.116	16.24
671.442	15.63
671.767	16.06
672.092	16.74
672.418	16.63
672.743	15.85
673.068	16.03
673.393	16.42
673.718	16.56
674.043	16.6
674.368	16.03
674.693	17.06
675.018	16.43
675.343	16.99
675.667	16.52
675.992	16.77
676.317	16.32
676.641	17.43
676.966	16.68
677.29	16.82
677.615	16.57
677.939	17.6
678.264	17.76
678.588	17.27
678.912	16.93
679.236	16.03
679.56	16.68
679.885	16.88
680.209	17.53
680.532	17.6
680.856	17.47
681.18	17.85
681.504	17.54
681.828	17.27
682.152	17.43
682.475	17.5
682.799	17.3
683.122	17.52
683.446	17.6
683.769	18.06
684.093	17.7
684.416	17.65
684.739	17.35
685.062	17.73
685.386	18.05
685.709	17.84
686.032	17.75
686.355	17.93
686.678	18.58
687.001	17.81
687.324	18.18
