Data from 21-11_forehead_Reflection__2__72.txt Node

Date: Thu Dec 15 16:59:17 CST 2022
User: ToomeyLab
Spectrometer: FLMS14357
Trigger mode: 0
Integration Time (sec): 1.000000E-2
Scans to average: 100
Electric dark correction enabled: true
Nonlinearity correction enabled: false
Boxcar width: 0
XAxis mode: Wavelengths
Number of Pixels in Spectrum: 2048
>>>>>Begin Spectral Data<<<<<
189.047	-478.48
189.435	-478.48
189.823	-478.48
190.211	-95.68
190.599	56.47
190.987	-81.2
191.375	54.38
191.763	252.22
192.151	462.66
192.538	21.83
192.926	2826.32
193.314	-8944.44
193.702	-71.52
194.089	-65.61
194.477	92.65
194.864	174.7
195.252	245.49
195.639	176.85
196.027	187.97
196.414	-36.61
196.801	-711.53
197.189	165.9
197.576	-1729.27
197.963	-2682.78
198.351	6.56
198.738	25.09
199.125	-9.94
199.512	30
199.899	-36.16
200.286	-0.35
200.673	44.55
201.06	24.84
201.447	12.42
201.833	50.51
202.22	10.73
202.607	2.59
202.994	32.39
203.38	41.31
203.767	33.62
204.154	33.19
204.54	21.13
204.927	12.74
205.313	32.02
205.699	33.82
206.086	31.21
206.472	37.7
206.858	23.56
207.245	33.44
207.631	6.67
208.017	39.23
208.403	4.21
208.789	4
209.175	17.82
209.561	-22.62
209.947	-10.34
210.333	11.06
210.719	35.82
211.105	43.85
211.491	17.91
211.876	-4.12
212.262	23.78
212.648	19.22
213.034	10.9
213.419	9.7
213.805	12.37
214.19	4.21
214.576	32.8
214.961	10.62
215.346	11.91
215.732	23.34
216.117	24.65
216.502	-9.79
216.888	4.69
217.273	17.42
217.658	11.76
218.043	2.83
218.428	-16.73
218.813	15.35
219.198	-11.67
219.583	3.76
219.968	19.7
220.353	-0.91
220.738	16.24
221.122	-3.68
221.507	11.15
221.892	-6.44
222.276	-2.15
222.661	2.51
223.046	-12.74
223.43	15.36
223.815	3.53
224.199	2.04
224.583	11.41
224.968	12.04
225.352	-8.83
225.736	14.22
226.121	10.14
226.505	2.12
226.889	-4.1
227.273	-1.54
227.657	1.38
228.041	2.89
228.425	1.97
228.809	0.86
229.193	5.35
229.577	2.53
229.961	2.24
230.344	2.63
230.728	3.04
231.112	2.95
231.495	1.58
231.879	2.04
232.263	2.63
232.646	1.45
233.03	4.79
233.413	1.98
233.797	-0.27
234.18	3.59
234.563	1.23
234.946	2.54
235.33	2.22
235.713	3.18
236.096	5.05
236.479	3.45
236.862	2.84
237.245	2.39
237.628	3.92
238.011	3.59
238.394	1.83
238.777	2.55
239.16	4.69
239.543	5.37
239.925	3.58
240.308	1.15
240.691	2.67
241.073	2.06
241.456	2.75
241.838	3.3
242.221	2.62
242.603	3.44
242.986	2.68
243.368	3.06
243.75	2.85
244.133	3.05
244.515	2.75
244.897	2.84
245.279	2.86
245.661	2.22
246.043	2.64
246.425	2.88
246.807	2.99
247.189	2.65
247.571	2.73
247.953	2.82
248.335	2.73
248.717	2.78
249.098	2.83
249.48	2.8
249.862	3.1
250.243	2.7
250.625	2.93
251.006	3.26
251.388	2.7
251.769	2.08
252.151	2.43
252.532	2.67
252.913	2.47
253.295	2.47
253.676	2.69
254.057	3.01
254.438	2.69
254.819	2.56
255.2	3.69
255.581	4.08
255.962	4.68
256.343	3.83
256.724	3.56
257.105	2.43
257.486	2.67
257.867	2.5
258.247	3.18
258.628	2.98
259.009	2.23
259.389	2.71
259.77	2.92
260.15	3.35
260.531	2.71
260.911	2.84
261.292	2.8
261.672	2.76
262.052	2.78
262.432	2.99
262.813	3.13
263.193	2.88
263.573	3.56
263.953	2.79
264.333	3.4
264.713	2.77
265.093	3.38
265.473	2.87
265.853	3.05
266.233	3.38
266.612	2.7
266.992	2.86
267.372	3.01
267.752	2.8
268.131	2.72
268.511	2.25
268.89	3.16
269.27	2.56
269.649	2.48
270.029	2.82
270.408	2.83
270.787	2.86
271.167	2.82
271.546	3.46
271.925	2.64
272.304	2.43
272.683	2.39
273.062	2.57
273.441	2.83
273.82	2.63
274.199	2.65
274.578	2.61
274.957	2.73
275.336	2.92
275.715	2.9
276.093	2.48
276.472	2.37
276.851	2.59
277.229	2.6
277.608	2.63
277.986	2.59
278.365	2.85
278.743	2.71
279.122	2.65
279.5	2.75
279.878	2.78
280.257	2.57
280.635	3.28
281.013	2.41
281.391	2.44
281.769	3.23
282.147	2.44
282.525	2.58
282.903	2.07
283.281	2.8
283.659	2.89
284.037	2.5
284.415	2.52
284.792	2.39
285.17	2.18
285.548	2.42
285.925	2.28
286.303	3.22
286.68	2.78
287.058	2.62
287.435	2.52
287.813	2.68
288.19	2.46
288.567	2.54
288.945	2.2
289.322	2.89
289.699	3
290.076	2.48
290.453	2.37
290.83	3.11
291.207	3.13
291.584	3.06
291.961	2.86
292.338	2.51
292.715	2.71
293.092	3.46
293.469	2.76
293.845	2.67
294.222	3.45
294.599	2.32
294.975	2.45
295.352	2.9
295.728	3.09
296.105	2.88
296.481	2.66
296.858	3.28
297.234	2.63
297.61	2.91
297.986	3.36
298.363	2.91
298.739	3.45
299.115	3.04
299.491	3.19
299.867	2.94
300.243	2.78
300.619	2.52
300.995	3.11
301.371	3.45
301.746	3.71
302.122	3.14
302.498	3.03
302.874	3.55
303.249	3.33
303.625	2.64
304	3.13
304.376	4
304.751	3.2
305.127	3.1
305.502	3.54
305.878	3.87
306.253	3.51
306.628	3.76
307.003	3.73
307.378	3.98
307.754	3.72
308.129	3.92
308.504	3.6
308.879	3.99
309.254	4.01
309.629	4.06
310.003	3.9
310.378	4.58
310.753	4.29
311.128	4.4
311.502	4.03
311.877	4.28
312.252	3.99
312.626	4.5
313.001	4.33
313.375	4.26
313.75	4.34
314.124	4.82
314.498	4.66
314.873	4.41
315.247	4.73
315.621	4.64
315.995	4.28
316.369	4.66
316.743	4.51
317.117	4.73
317.491	5.38
317.865	4.39
318.239	5.64
318.613	4.97
318.987	4.81
319.361	5.24
319.734	5.32
320.108	5.17
320.482	5.51
320.855	4.89
321.229	5.79
321.602	5.54
321.976	4.91
322.349	6.15
322.723	5.54
323.096	5.37
323.469	5.48
323.843	5.75
324.216	6.16
324.589	6.05
324.962	5.55
325.335	5.58
325.708	5.56
326.081	6.2
326.454	6.02
326.827	6.19
327.2	6.01
327.573	6.61
327.945	6
328.318	6.06
328.691	6.14
329.063	6.07
329.436	6.36
329.809	6.71
330.181	7.12
330.553	6.54
330.926	7.2
331.298	6.26
331.671	6.42
332.043	6.2
332.415	6.76
332.787	6.74
333.159	6.71
333.532	6.48
333.904	7.26
334.276	6.71
334.648	6.83
335.02	6.84
335.391	6.81
335.763	6.55
336.135	7.33
336.507	7.13
336.879	7.04
337.25	6.85
337.622	7.16
337.993	7.4
338.365	6.55
338.736	7.32
339.108	7.44
339.479	6.86
339.851	7.6
340.222	7.04
340.593	7.1
340.964	7.32
341.336	7.13
341.707	7.53
342.078	7.4
342.449	7.63
342.82	7.83
343.191	7.68
343.562	7.52
343.933	7.51
344.303	7.46
344.674	7.67
345.045	7.72
345.416	8.12
345.786	7.48
346.157	7.73
346.527	7.71
346.898	7.34
347.268	8.03
347.639	7.48
348.009	8.05
348.38	8.02
348.75	8.04
349.12	8.41
349.49	8.15
349.861	8.07
350.231	8.14
350.601	7.81
350.971	8.27
351.341	8.31
351.711	8.18
352.081	8.1
352.45	8.1
352.82	8.05
353.19	8.45
353.56	8.16
353.929	8.31
354.299	8.59
354.669	8.61
355.038	8.66
355.408	8.57
355.777	8.84
356.147	8.65
356.516	8.27
356.885	8.44
357.254	8.32
357.624	8.34
357.993	8.75
358.362	8.61
358.731	8.83
359.1	8.99
359.469	8.99
359.838	8.98
360.207	8.69
360.576	9.29
360.945	9.08
361.314	9.09
361.682	8.83
362.051	9.2
362.42	8.96
362.788	9.54
363.157	8.9
363.525	9.15
363.894	9.18
364.262	9.3
364.631	9.42
364.999	9.5
365.367	9.62
365.735	9.25
366.104	9.33
366.472	9.39
366.84	9.53
367.208	9.75
367.576	9.41
367.944	9.58
368.312	9.44
368.68	9.93
369.048	9.97
369.416	9.56
369.783	9.61
370.151	10.45
370.519	10.23
370.886	10.01
371.254	10.3
371.621	10.26
371.989	10.33
372.356	9.98
372.724	9.9
373.091	10.24
373.458	9.94
373.826	10.13
374.193	10.06
374.56	10.26
374.927	10.17
375.294	10.48
375.661	10.55
376.028	10.28
376.395	10.33
376.762	10.21
377.129	10.39
377.496	10.78
377.863	10.69
378.229	10.86
378.596	10.72
378.963	10.74
379.329	10.97
379.696	10.86
380.062	10.74
380.429	10.51
380.795	11.15
381.161	10.43
381.528	10.62
381.894	10.63
382.26	11.2
382.626	10.64
382.993	11.1
383.359	11.05
383.725	10.91
384.091	11.29
384.457	11.1
384.823	11.44
385.188	11.41
385.554	11.3
385.92	11.22
386.286	11.24
386.651	11.28
387.017	11.72
387.383	11.51
387.748	11.46
388.114	11.46
388.479	11.42
388.845	11.49
389.21	11.56
389.575	11.93
389.94	11.55
390.306	11.48
390.671	11.74
391.036	11.68
391.401	11.87
391.766	11.7
392.131	12.13
392.496	11.68
392.861	11.66
393.226	11.74
393.591	11.73
393.956	11.79
394.32	12.2
394.685	12.03
395.05	11.99
395.414	11.86
395.779	11.98
396.143	11.84
396.508	11.89
396.872	12.27
397.236	12.35
397.601	12.35
397.965	12.34
398.329	12.15
398.694	12.05
399.058	12.26
399.422	12.23
399.786	12.05
400.15	12.24
400.514	12.47
400.878	12.21
401.242	12.72
401.605	12.57
401.969	12.47
402.333	12.35
402.697	12.62
403.06	12.48
403.424	12.42
403.787	12.55
404.151	12.59
404.514	12.56
404.878	12.46
405.241	12.6
405.604	12.37
405.968	12.34
406.331	12.41
406.694	12.49
407.057	12.52
407.42	12.65
407.783	12.62
408.146	12.5
408.509	12.7
408.872	12.91
409.235	12.86
409.598	12.96
409.961	12.83
410.323	12.9
410.686	12.66
411.049	12.77
411.411	12.59
411.774	12.7
412.136	12.74
412.499	12.79
412.861	12.67
413.223	12.74
413.586	13.09
413.948	13.07
414.31	12.93
414.672	13.2
415.035	13.2
415.397	12.83
415.759	12.77
416.121	13.04
416.483	13.03
416.845	13.02
417.206	13.14
417.568	13.02
417.93	13.11
418.292	13.11
418.653	13.02
419.015	13.09
419.377	13.13
419.738	13.18
420.1	13.29
420.461	13.1
420.822	13.25
421.184	13.27
421.545	13.29
421.906	13.43
422.267	13.35
422.629	13.31
422.99	13.29
423.351	13.4
423.712	13.53
424.073	13.7
424.434	13.84
424.795	13.54
425.155	13.58
425.516	13.69
425.877	13.69
426.238	13.78
426.598	13.99
426.959	14.02
427.32	13.99
427.68	14.18
428.041	14.34
428.401	14.25
428.761	14.43
429.122	14.57
429.482	14.6
429.842	14.57
430.202	14.78
430.563	14.51
430.923	14.85
431.283	14.71
431.643	15.02
432.003	15.02
432.363	15.03
432.722	15.05
433.082	15.08
433.442	15.08
433.802	15.17
434.161	14.95
434.521	15.24
434.881	15.29
435.24	15.16
435.6	15.37
435.959	15.46
436.319	15.47
436.678	15.73
437.037	15.74
437.396	15.79
437.756	15.69
438.115	15.65
438.474	15.95
438.833	15.75
439.192	15.83
439.551	16
439.91	15.96
440.269	15.89
440.628	15.97
440.987	15.91
441.345	16.1
441.704	16.04
442.063	16.01
442.421	16.2
442.78	16.27
443.138	16.29
443.497	16.33
443.855	16.51
444.214	16.37
444.572	16.7
444.93	16.65
445.288	16.53
445.647	16.5
446.005	16.49
446.363	16.64
446.721	16.66
447.079	16.57
447.437	16.7
447.795	16.56
448.153	16.62
448.51	16.68
448.868	16.73
449.226	16.78
449.584	17.04
449.941	17.08
450.299	17.05
450.656	17.3
451.014	17.29
451.371	17.42
451.729	17.46
452.086	17.48
452.443	17.76
452.801	17.56
453.158	17.96
453.515	17.78
453.872	17.8
454.229	17.57
454.586	17.95
454.943	17.75
455.3	17.95
455.657	17.97
456.014	17.99
456.371	18.17
456.727	18.23
457.084	18.29
457.441	18.28
457.797	18.37
458.154	18.55
458.51	18.48
458.867	18.41
459.223	18.57
459.58	18.31
459.936	18.36
460.292	18.3
460.648	18.3
461.005	18.25
461.361	18.22
461.717	18.24
462.073	18.42
462.429	18.47
462.785	18.89
463.141	18.76
463.496	19.07
463.852	19.08
464.208	19.02
464.564	19.11
464.919	19.22
465.275	19.25
465.631	19.46
465.986	19.44
466.342	19.29
466.697	19.45
467.052	19.65
467.408	19.6
467.763	19.75
468.118	19.42
468.473	19.66
468.829	19.68
469.184	19.76
469.539	19.9
469.894	19.87
470.249	19.86
470.603	20.27
470.958	20.2
471.313	20.24
471.668	20.28
472.023	20.09
472.377	20.34
472.732	20.44
473.086	20.31
473.441	20.35
473.795	20.54
474.15	20.36
474.504	20.36
474.859	20.49
475.213	20.57
475.567	20.44
475.921	20.69
476.275	20.88
476.63	20.85
476.984	20.73
477.338	20.84
477.692	20.8
478.045	20.84
478.399	20.87
478.753	20.81
479.107	21
479.461	20.88
479.814	20.92
480.168	21.08
480.521	21.07
480.875	21.04
481.228	21.23
481.582	21.02
481.935	21.35
482.289	21.23
482.642	21.34
482.995	21.18
483.348	21.15
483.701	21.03
484.055	20.93
484.408	20.86
484.761	20.49
485.114	20.39
485.466	20.4
485.819	20.47
486.172	20.61
486.525	20.68
486.878	20.86
487.23	20.98
487.583	21.16
487.936	21.08
488.288	21.14
488.641	21.01
488.993	20.92
489.345	21.08
489.698	21.04
490.05	21.1
490.402	21.34
490.754	21.4
491.107	21.59
491.459	21.83
491.811	21.98
492.163	21.87
492.515	21.72
492.866	21.5
493.218	21.38
493.57	21.58
493.922	21.72
494.274	21.98
494.625	22.29
494.977	22.4
495.328	22.51
495.68	22.65
496.031	22.86
496.383	22.96
496.734	23.01
497.086	22.96
497.437	23.05
497.788	23.06
498.139	22.87
498.49	22.9
498.842	22.89
499.193	22.82
499.544	23.04
499.894	23
500.245	23.25
500.596	23.29
500.947	23.31
501.298	23.46
501.648	23.42
501.999	23.67
502.35	23.66
502.7	23.71
503.051	23.48
503.401	23.94
503.752	23.84
504.102	23.89
504.452	23.79
504.803	23.99
505.153	24.09
505.503	23.98
505.853	24.1
506.203	24.12
506.553	23.99
506.903	24.11
507.253	24.14
507.603	24.39
507.953	24.22
508.303	24.25
508.652	24.16
509.002	24.13
509.352	24.36
509.701	24.07
510.051	24.24
510.4	24.42
510.75	24.18
511.099	24.22
511.449	24.49
511.798	24.34
512.147	24.39
512.496	24.52
512.846	24.59
513.195	24.64
513.544	24.61
513.893	24.71
514.242	24.72
514.591	24.67
514.939	24.89
515.288	25.06
515.637	25.13
515.986	25.1
516.334	25.12
516.683	25.01
517.032	25.32
517.38	25.12
517.729	25.31
518.077	25.34
518.426	25.17
518.774	25.17
519.122	25.04
519.47	24.96
519.819	25.01
520.167	25.01
520.515	24.91
520.863	25.05
521.211	25.05
521.559	25.11
521.907	25.28
522.255	25.27
522.602	25.49
522.95	25.82
523.298	25.64
523.645	25.75
523.993	25.7
524.341	25.94
524.688	25.97
525.036	25.9
525.383	25.99
525.73	25.97
526.078	25.94
526.425	25.59
526.772	25.69
527.119	25.71
527.466	25.59
527.814	25.53
528.161	25.6
528.508	25.75
528.854	25.58
529.201	25.5
529.548	25.26
529.895	25.11
530.242	25.23
530.588	25.24
530.935	25.36
531.282	25.48
531.628	25.63
531.975	25.67
532.321	25.96
532.667	26.12
533.014	26.11
533.36	26.14
533.706	26.3
534.052	26.16
534.399	26.02
534.745	25.85
535.091	25.82
535.437	25.99
535.783	26.15
536.129	26.21
536.474	26.48
536.82	26.54
537.166	26.54
537.512	26.75
537.857	26.56
538.203	26.54
538.549	26.62
538.894	26.63
539.239	26.78
539.585	26.99
539.93	27.03
540.276	27.29
540.621	27.19
540.966	27.29
541.311	27.38
541.656	27.18
542.001	27.03
542.346	26.87
542.691	26.55
543.036	26.57
543.381	26.69
543.726	26.74
544.071	26.89
544.415	26.94
544.76	26.94
545.105	27.11
545.449	27.4
545.794	27.52
546.138	27.64
546.483	27.82
546.827	27.72
547.171	27.86
547.516	27.94
547.86	27.83
548.204	27.78
548.548	27.82
548.892	27.88
549.236	28.01
549.58	28.22
549.924	28.52
550.268	28.55
550.612	28.82
550.956	28.66
551.3	28.82
551.643	28.72
551.987	29.03
552.33	28.98
552.674	28.97
553.017	29
553.361	29.09
553.704	28.9
554.048	28.85
554.391	28.91
554.734	28.78
555.077	28.98
555.42	29.02
555.764	29.09
556.107	29.26
556.45	29.29
556.793	29.42
557.135	29.38
557.478	29.58
557.821	29.62
558.164	29.73
558.507	29.52
558.849	29.81
559.192	29.74
559.534	29.82
559.877	29.73
560.219	29.77
560.562	29.8
560.904	30.11
561.246	29.81
561.589	30.16
561.931	29.92
562.273	30.09
562.615	29.98
562.957	29.97
563.299	30.16
563.641	30.26
563.983	30.09
564.325	30.13
564.667	30.3
565.008	30.46
565.35	30.36
565.692	30.4
566.033	30.34
566.375	30.49
566.716	30.19
567.058	30.24
567.399	30.35
567.741	30.27
568.082	30.43
568.423	30.3
568.764	30.27
569.105	30.47
569.447	30.49
569.788	30.68
570.129	30.64
570.47	30.87
570.811	30.75
571.151	30.93
571.492	30.98
571.833	30.75
572.174	30.79
572.514	30.91
572.855	31.04
573.195	30.68
573.536	30.86
573.876	30.87
574.217	30.92
574.557	30.88
574.898	30.98
575.238	31.19
575.578	31.06
575.918	31.1
576.258	31.11
576.598	31.11
576.938	31.2
577.278	31.56
577.618	31.37
577.958	31.49
578.298	31.68
578.638	31.52
578.977	31.61
579.317	31.89
579.657	31.74
579.996	32.12
580.336	31.99
580.675	31.83
581.014	32.12
581.354	32.07
581.693	32.52
582.032	32.32
582.372	32.25
582.711	32.52
583.05	32.38
583.389	32.55
583.728	32.51
584.067	32.59
584.406	32.55
584.745	32.46
585.083	32.74
585.422	32.54
585.761	32.78
586.1	32.89
586.438	32.69
586.777	32.51
587.115	33.07
587.454	32.88
587.792	33.03
588.13	33.08
588.469	33.07
588.807	33.08
589.145	33.09
589.483	32.82
589.821	33.48
590.159	33.09
590.497	33.28
590.835	33.37
591.173	33.11
591.511	33.19
591.849	33.28
592.187	33.01
592.524	33.4
592.862	33.15
593.2	33.47
593.537	33.59
593.875	33.36
594.212	33.66
594.55	33.9
594.887	33.64
595.224	33.56
595.561	33.66
595.899	33.86
596.236	33.93
596.573	33.79
596.91	33.63
597.247	34.14
597.584	33.53
597.921	33.62
598.258	33.75
598.594	33.54
598.931	33.36
599.268	33.63
599.604	33.71
599.941	33.75
600.277	34.14
600.614	34.22
600.95	34.12
601.287	34.35
601.623	34.07
601.959	34.29
602.296	34.4
602.632	34.41
602.968	34.41
603.304	34.5
603.64	34.45
603.976	34.45
604.312	34.6
604.648	34.47
604.984	34.41
605.319	34.5
605.655	34.51
605.991	34.42
606.326	34.35
606.662	34.38
606.998	34.37
607.333	34.33
607.668	34.61
608.004	34.58
608.339	34.68
608.674	34.85
609.01	35.24
609.345	35.22
609.68	34.94
610.015	35.18
610.35	35.16
610.685	34.69
611.02	34.7
611.355	34.97
611.689	34.99
612.024	35.22
612.359	35.32
612.694	35.33
613.028	35.18
613.363	35.71
613.697	35.54
614.032	35.4
614.366	35.55
614.7	35.83
615.035	35.36
615.369	35.98
615.703	36.22
616.037	35.98
616.371	36.04
616.705	36.28
617.039	35.89
617.373	36.1
617.707	36.23
618.041	36.07
618.375	35.92
618.709	36.13
619.042	36.16
619.376	36.38
619.71	36.16
620.043	36.63
620.377	36.12
620.71	36.65
621.043	36.93
621.377	36.59
621.71	36.38
622.043	36.77
622.376	36.74
622.709	36.69
623.043	36.73
623.376	36.25
623.709	37.06
624.041	36.62
624.374	36.84
624.707	36.83
625.04	36.7
625.373	36.44
625.705	36.82
626.038	36.28
626.37	36.64
626.703	37.07
627.035	37
627.368	37.14
627.7	36.72
628.032	37.1
628.365	36.9
628.697	37.14
629.029	36.81
629.361	36.84
629.693	36.99
630.025	37.57
630.357	37.53
630.689	37.29
631.021	37.07
631.353	37.51
631.684	37.59
632.016	37.11
632.348	37.6
632.679	37.33
633.011	37.45
633.342	37.51
633.674	37.74
634.005	37.57
634.336	37.77
634.668	37.67
634.999	37.59
635.33	37.99
635.661	37.5
635.992	37.84
636.323	37.56
636.654	37.69
636.985	38.02
637.316	37.86
637.647	37.95
637.977	37.78
638.308	38.47
638.639	38.63
638.969	38.02
639.3	38.19
639.63	38.06
639.961	38.3
640.291	38.31
640.622	38.36
640.952	38.37
641.282	38.23
641.612	38.8
641.943	38.64
642.273	38.32
642.603	38.69
642.933	38.56
643.263	38.66
643.592	39.15
643.922	38.79
644.252	38.7
644.582	39.14
644.911	38.81
645.241	38.8
645.571	39.15
645.9	39.04
646.23	39.12
646.559	38.82
646.888	39.41
647.218	38.94
647.547	39.01
647.876	38.98
648.205	39.13
648.534	39.09
648.863	39.21
649.192	39.15
649.521	39.08
649.85	39.74
650.179	39.17
650.508	39.11
650.837	39.69
651.165	39.77
651.494	39.53
651.822	39.37
652.151	39.5
652.479	39.97
652.808	39.59
653.136	39.25
653.465	39.69
653.793	39.37
654.121	39.97
654.449	39.74
654.777	39.54
655.105	40
655.433	39.58
655.761	39.88
656.089	40.03
656.417	40.01
656.745	40.13
657.073	40.34
657.4	40.44
657.728	39.92
658.056	40.33
658.383	39.97
658.711	39.85
659.038	40.68
659.365	40.03
659.693	40.18
660.02	40.46
660.347	40.13
660.674	40.22
661.001	40.25
661.329	39.87
661.656	39.9
661.982	40.3
662.309	40.02
662.636	40.85
662.963	40.6
663.29	41.08
663.616	40.19
663.943	40.59
664.27	41.33
664.596	40.85
664.923	40.36
665.249	40.91
665.576	41.3
665.902	40.79
666.228	40.75
666.554	41.18
666.881	40.81
667.207	41.04
667.533	41.56
667.859	41.29
668.185	41.23
668.511	41.43
668.837	40.49
669.162	41.03
669.488	40.05
669.814	41.54
670.139	41.28
670.465	40.96
670.791	41.43
671.116	41.17
671.442	40.71
671.767	41.47
672.092	40.96
