Data from 21-11_crown_Reflection__1__66.txt Node

Date: Thu Dec 15 16:57:42 CST 2022
User: ToomeyLab
Spectrometer: FLMS14357
Trigger mode: 0
Integration Time (sec): 1.000000E-2
Scans to average: 100
Electric dark correction enabled: true
Nonlinearity correction enabled: false
Boxcar width: 0
XAxis mode: Wavelengths
Number of Pixels in Spectrum: 2048
>>>>>Begin Spectral Data<<<<<
189.047	547.09
189.435	547.09
189.823	547.09
190.211	-144.28
190.599	15.72
190.987	398.7
191.375	79.75
191.763	150.23
192.151	1020.75
192.538	-6.04
192.926	4484.21
193.314	9288.89
193.702	70.04
194.089	-62.62
194.477	52.64
194.864	84.22
195.252	183.74
195.639	72.88
196.027	-33.93
196.414	-12.76
196.801	-1151.19
197.189	43.08
197.576	-1180.49
197.963	-744.37
198.351	-17.88
198.738	-36.77
199.125	-35.72
199.512	26.29
199.899	1.7
200.286	-5.94
200.673	26.95
201.06	11.88
201.447	-24.88
201.833	10.63
202.22	14.71
202.607	-70.64
202.994	10.14
203.38	25.53
203.767	18.51
204.154	24.56
204.54	29.01
204.927	-23.68
205.313	25.91
205.699	-6.4
206.086	24.18
206.472	19.04
206.858	-1.97
207.245	5.01
207.631	-12.45
208.017	27.96
208.403	-27.03
208.789	2.79
209.175	22.84
209.561	1.35
209.947	-5.71
210.333	-0.29
210.719	-1.78
211.105	8.96
211.491	24.09
211.876	5.55
212.262	12.91
212.648	9.52
213.034	-18.61
213.419	0.5
213.805	11.7
214.19	-26.04
214.576	-29.25
214.961	19.44
215.346	-0.9
215.732	9.5
216.117	8.36
216.502	-23.78
216.888	-14.18
217.273	12
217.658	15.71
218.043	-11.03
218.428	3.27
218.813	7.72
219.198	-20.98
219.583	-10.42
219.968	5.07
220.353	0.04
220.738	11.74
221.122	-9.46
221.507	-4.39
221.892	-13.43
222.276	-28.66
222.661	-4.09
223.046	-17.28
223.43	19.23
223.815	0.02
224.199	-0.12
224.583	3.21
224.968	1.33
225.352	-1.83
225.736	11.21
226.121	-2.95
226.505	-0.81
226.889	3.08
227.273	-1.6
227.657	6.44
228.041	2.07
228.425	-3.87
228.809	-0.5
229.193	1.91
229.577	1.48
229.961	2.03
230.344	2.72
230.728	2.89
231.112	3.08
231.495	1.25
231.879	1.49
232.263	2.08
232.646	1.9
233.03	3.36
233.413	3.25
233.797	-0.94
234.18	5.03
234.563	3.36
234.946	0.6
235.33	2.15
235.713	1.73
236.096	2.72
236.479	2.92
236.862	1.17
237.245	-0.14
237.628	2.53
238.011	2.37
238.394	1.5
238.777	3.88
239.16	3.03
239.543	2.77
239.925	2.21
240.308	1.44
240.691	2.93
241.073	1.84
241.456	1.95
241.838	2.4
242.221	2.68
242.603	2.82
242.986	2.19
243.368	2.22
243.75	2.65
244.133	2.64
244.515	2.32
244.897	2.24
245.279	2
245.661	2.37
246.043	2.6
246.425	3.51
246.807	2.31
247.189	1.73
247.571	1.86
247.953	1.62
248.335	2.2
248.717	2.19
249.098	2.02
249.48	2.09
249.862	1.85
250.243	2.46
250.625	2.41
251.006	2.54
251.388	1.86
251.769	1.22
252.151	2.77
252.532	2.01
252.913	1.59
253.295	2.05
253.676	2
254.057	1.9
254.438	1.84
254.819	1.38
255.2	2.84
255.581	2.11
255.962	2.39
256.343	1.86
256.724	3.63
257.105	1.66
257.486	0.98
257.867	1
258.247	2.64
258.628	1.9
259.009	1.06
259.389	1.5
259.77	2.28
260.15	2.85
260.531	1.78
260.911	1.76
261.292	1.95
261.672	1.97
262.052	2.06
262.432	1.81
262.813	2.02
263.193	2.32
263.573	2.21
263.953	1.28
264.333	2.27
264.713	1.67
265.093	2.01
265.473	1.5
265.853	1.66
266.233	2.29
266.612	1.76
266.992	1.62
267.372	1.76
267.752	2.15
268.131	1.71
268.511	2.01
268.89	2.24
269.27	1.53
269.649	1.35
270.029	1.34
270.408	1.94
270.787	1.81
271.167	1.85
271.546	2.89
271.925	2.16
272.304	2.03
272.683	1.48
273.062	1.73
273.441	1.41
273.82	1.84
274.199	1.73
274.578	1.8
274.957	1.77
275.336	2.43
275.715	1.63
276.093	1.96
276.472	1.26
276.851	1.95
277.229	2.02
277.608	1.26
277.986	2.15
278.365	2.11
278.743	1.75
279.122	1.74
279.5	1.96
279.878	1.75
280.257	1.75
280.635	2.09
281.013	1.08
281.391	1.95
281.769	2.39
282.147	2.28
282.525	1.43
282.903	1.28
283.281	2.05
283.659	2.36
284.037	1.39
284.415	1.62
284.792	2
285.17	1.8
285.548	1.57
285.925	1.47
286.303	2.08
286.68	2.19
287.058	2.08
287.435	1.4
287.813	1.8
288.19	1.55
288.567	1.58
288.945	1.75
289.322	1.89
289.699	1.76
290.076	1.64
290.453	1.85
290.83	1.68
291.207	1.52
291.584	2.2
291.961	1.93
292.338	1.17
292.715	1.43
293.092	1.51
293.469	1.59
293.845	1.66
294.222	2.04
294.599	0.99
294.975	1.28
295.352	2.03
295.728	1.79
296.105	1.69
296.481	1.82
296.858	1.39
297.234	1.37
297.61	1.55
297.986	2.3
298.363	1.92
298.739	1.88
299.115	1.71
299.491	1.91
299.867	1.4
300.243	1.47
300.619	1.79
300.995	1.81
301.371	2.04
301.746	2.12
302.122	1.2
302.498	1.6
302.874	2.08
303.249	1.82
303.625	1.09
304	1.88
304.376	1.85
304.751	1.95
305.127	1.69
305.502	1.88
305.878	1.69
306.253	1.52
306.628	1.7
307.003	1.32
307.378	1.65
307.754	2.02
308.129	1.61
308.504	1.9
308.879	1.75
309.254	2.02
309.629	1.84
310.003	1.68
310.378	1.83
310.753	2.02
311.128	1.51
311.502	2.19
311.877	1.62
312.252	1.59
312.626	2.25
313.001	1.8
313.375	1.82
313.75	1.85
314.124	1.82
314.498	1.88
314.873	1.38
315.247	1.92
315.621	2.18
315.995	2.11
316.369	1.58
316.743	1.74
317.117	1.83
317.491	2.07
317.865	1.48
318.239	1.97
318.613	1.73
318.987	2.05
319.361	1.66
319.734	1.68
320.108	2.12
320.482	1.87
320.855	2.11
321.229	1.97
321.602	1.99
321.976	1.03
322.349	2.21
322.723	1.57
323.096	1.94
323.469	1.88
323.843	1.52
324.216	1.53
324.589	2.02
324.962	1.7
325.335	2.05
325.708	1.4
326.081	1.64
326.454	1.87
326.827	1.92
327.2	1.65
327.573	2.15
327.945	1.53
328.318	1.36
328.691	1.74
329.063	1.68
329.436	1.74
329.809	2.44
330.181	2.29
330.553	2.12
330.926	2.07
331.298	1.77
331.671	2.2
332.043	1.9
332.415	1.89
332.787	1.96
333.159	1.35
333.532	1.96
333.904	1.89
334.276	2.04
334.648	2.34
335.02	2
335.391	1.89
335.763	2.19
336.135	1.96
336.507	1.82
336.879	1.94
337.25	2.39
337.622	1.81
337.993	1.6
338.365	1.66
338.736	1.87
339.108	2.04
339.479	2.07
339.851	2.11
340.222	2.28
340.593	1.62
340.964	1.9
341.336	1.52
341.707	2.04
342.078	1.66
342.449	1.78
342.82	1.74
343.191	2.05
343.562	1.65
343.933	1.56
344.303	2.12
344.674	1.75
345.045	1.86
345.416	2.13
345.786	1.7
346.157	2.18
346.527	2.07
346.898	1.6
347.268	2.15
347.639	1.88
348.009	2.3
348.38	1.65
348.75	2.03
349.12	2.02
349.49	1.88
349.861	1.7
350.231	1.84
350.601	2.05
350.971	1.81
351.341	2.39
351.711	1.97
352.081	1.61
352.45	1.31
352.82	1.28
353.19	1.96
353.56	1.99
353.929	1.84
354.299	1.85
354.669	2.37
355.038	2.1
355.408	1.86
355.777	1.94
356.147	1.86
356.516	1.9
356.885	1.62
357.254	1.87
357.624	1.54
357.993	2.18
358.362	2.06
358.731	2.03
359.1	1.92
359.469	2.1
359.838	1.98
360.207	1.76
360.576	2.1
360.945	1.84
361.314	1.88
361.682	1.81
362.051	1.63
362.42	2.03
362.788	2.1
363.157	1.6
363.525	1.9
363.894	1.97
364.262	1.88
364.631	1.94
364.999	1.96
365.367	1.84
365.735	1.66
366.104	1.84
366.472	1.79
366.84	1.85
367.208	2.06
367.576	1.63
367.944	2.1
368.312	1.86
368.68	2.04
369.048	1.86
369.416	1.62
369.783	1.95
370.151	2.08
370.519	2.15
370.886	2.18
371.254	2.34
371.621	2.05
371.989	2.32
372.356	1.99
372.724	1.7
373.091	1.77
373.458	2.18
373.826	2.25
374.193	1.97
374.56	2.07
374.927	1.86
375.294	2.18
375.661	2.24
376.028	1.87
376.395	1.91
376.762	1.57
377.129	1.91
377.496	2
377.863	2.19
378.229	2.01
378.596	2.08
378.963	2.05
379.329	2.08
379.696	1.83
380.062	2.02
380.429	1.79
380.795	2.04
381.161	1.53
381.528	2.29
381.894	1.86
382.26	2.11
382.626	2.12
382.993	2.32
383.359	1.91
383.725	1.94
384.091	1.96
384.457	2.05
384.823	2.17
385.188	1.86
385.554	2
385.92	1.87
386.286	2.06
386.651	2.08
387.017	2.26
387.383	1.96
387.748	2.08
388.114	1.99
388.479	1.84
388.845	1.77
389.21	1.95
389.575	2.42
389.94	2.26
390.306	2.14
390.671	2.11
391.036	2.02
391.401	2.03
391.766	2.04
392.131	2.37
392.496	2.26
392.861	2.05
393.226	1.86
393.591	1.97
393.956	2.08
394.32	2.03
394.685	2.02
395.05	2.24
395.414	2.02
395.779	2.28
396.143	1.99
396.508	2.06
396.872	2.14
397.236	2.28
397.601	2.24
397.965	1.97
398.329	2.14
398.694	1.96
399.058	2.05
399.422	2.12
399.786	2.14
400.15	1.96
400.514	2.24
400.878	2.04
401.242	2.1
401.605	1.97
401.969	2.04
402.333	1.87
402.697	2.24
403.06	1.96
403.424	2.04
403.787	1.99
404.151	2.11
404.514	2.06
404.878	1.84
405.241	2.02
405.604	2.01
405.968	2.08
406.331	2.18
406.694	2.06
407.057	1.95
407.42	2.11
407.783	2.05
408.146	2.05
408.509	2.11
408.872	1.98
409.235	2.18
409.598	2
409.961	2.3
410.323	2.14
410.686	2.23
411.049	2.14
411.411	2.02
411.774	2.17
412.136	2.13
412.499	2.27
412.861	1.79
413.223	1.97
413.586	2.28
413.948	2.36
414.31	2.24
414.672	2.09
415.035	2.21
415.397	1.91
415.759	1.75
416.121	2.24
416.483	2.04
416.845	2.1
417.206	1.92
417.568	1.91
417.93	2.09
418.292	1.94
418.653	1.93
419.015	2.07
419.377	1.99
419.738	2.02
420.1	2
420.461	1.96
420.822	2.08
421.184	1.96
421.545	2.11
421.906	2.01
422.267	1.97
422.629	1.99
422.99	2
423.351	1.9
423.712	1.98
424.073	2.04
424.434	2.15
424.795	1.98
425.155	1.92
425.516	1.92
425.877	1.98
426.238	2
426.598	2.06
426.959	2.1
427.32	1.99
427.68	2.09
428.041	2.04
428.401	1.96
428.761	2.09
429.122	2.05
429.482	2.14
429.842	2.05
430.202	2.1
430.563	1.98
430.923	2.1
431.283	2.02
431.643	2.17
432.003	2.07
432.363	2.2
432.722	2.05
433.082	2.08
433.442	2.08
433.802	2.01
434.161	2.08
434.521	2.12
434.881	2.07
435.24	2
435.6	2.18
435.959	2.14
436.319	2.03
436.678	2.1
437.037	2.19
437.396	2.1
437.756	1.95
438.115	2.16
438.474	2.04
438.833	2.09
439.192	2.08
439.551	1.97
439.91	2.1
440.269	2.09
440.628	2.02
440.987	2.15
441.345	2.1
441.704	2.11
442.063	2.08
442.421	2.08
442.78	2.05
443.138	2.12
443.497	2
443.855	2.16
444.214	1.93
444.572	2.15
444.93	2.16
445.288	2.12
445.647	1.89
446.005	2.07
446.363	2.07
446.721	2.14
447.079	1.96
447.437	2.06
447.795	2.03
448.153	1.97
448.51	2.06
448.868	2.03
449.226	1.99
449.584	2.05
449.941	2.1
450.299	2.08
450.656	2.03
451.014	2.15
451.371	2.24
451.729	2.05
452.086	2.07
452.443	2.12
452.801	1.97
453.158	2.22
453.515	2
453.872	2.04
454.229	1.89
454.586	1.96
454.943	2.24
455.3	2.14
455.657	1.9
456.014	2.08
456.371	2.02
456.727	2.23
457.084	2.19
457.441	2.14
457.797	2.22
458.154	2.16
458.51	2.08
458.867	2.1
459.223	1.95
459.58	1.99
459.936	2.02
460.292	2.05
460.648	2.01
461.005	2.02
461.361	2.04
461.717	2
462.073	2.12
462.429	2.13
462.785	2.17
463.141	2.09
463.496	2.16
463.852	2.27
464.208	2.17
464.564	2.01
464.919	2.25
465.275	2.1
465.631	2.41
465.986	2.04
466.342	2
466.697	2.09
467.052	2.3
467.408	2.16
467.763	2.08
468.118	1.86
468.473	2.25
468.829	2.01
469.184	1.96
469.539	2.01
469.894	2.11
470.249	2.11
470.603	2.28
470.958	2.16
471.313	2.19
471.668	2.04
472.023	2.13
472.377	1.96
472.732	2.18
473.086	2.12
473.441	2.01
473.795	2.4
474.15	2
474.504	2.06
474.859	2.04
475.213	2.21
475.567	2
475.921	2.17
476.275	2.1
476.63	2.13
476.984	1.85
477.338	2.11
477.692	2.11
478.045	2.21
478.399	2.14
478.753	1.96
479.107	2.16
479.461	2.08
479.814	2.1
480.168	2.03
480.521	2.02
480.875	2.06
481.228	1.99
481.582	2.11
481.935	2.16
482.289	2.13
482.642	2.24
482.995	2.07
483.348	1.99
483.701	2.12
484.055	2.11
484.408	2.1
484.761	2.03
485.114	1.92
485.466	1.93
485.819	1.92
486.172	1.99
486.525	1.99
486.878	2.05
487.23	2.04
487.583	2.02
487.936	1.98
488.288	1.99
488.641	1.97
488.993	1.95
489.345	1.97
489.698	1.98
490.05	1.99
490.402	1.99
490.754	2.01
491.107	1.99
491.459	2.11
491.811	2.07
492.163	2.02
492.515	1.96
492.866	2.01
493.218	2
493.57	2.06
493.922	1.99
494.274	2.08
494.625	2.15
494.977	2.1
495.328	2.09
495.68	2.07
496.031	2.07
496.383	2
496.734	1.99
497.086	2.13
497.437	2.16
497.788	2.11
498.139	2.04
498.49	2.15
498.842	2.13
499.193	1.98
499.544	2.09
499.894	2.12
500.245	2.21
500.596	2.19
500.947	2.11
501.298	2.13
501.648	2.04
501.999	2.14
502.35	2.07
502.7	2.3
503.051	2.02
503.401	2.17
503.752	1.95
504.102	2.05
504.452	2.03
504.803	2.06
505.153	2.18
505.503	1.98
505.853	2.19
506.203	2.18
506.553	2.09
506.903	2.08
507.253	2.12
507.603	2.03
507.953	2.08
508.303	2.19
508.652	2.08
509.002	2.2
509.352	2.11
509.701	1.97
510.051	2.1
510.4	2.17
510.75	2.05
511.099	2
511.449	2.16
511.798	2.03
512.147	2.05
512.496	2.13
512.846	2.08
513.195	2.1
513.544	2.13
513.893	2.02
514.242	2.11
514.591	2.03
514.939	2.09
515.288	2.2
515.637	2.1
515.986	2.07
516.334	2.17
516.683	2.11
517.032	1.99
517.38	1.98
517.729	2.12
518.077	2.09
518.426	2.06
518.774	2.04
519.122	2.12
519.47	2.04
519.819	2.02
520.167	2.06
520.515	2.05
520.863	1.98
521.211	2.03
521.559	2.06
521.907	2.16
522.255	2.03
522.602	2.23
522.95	2.2
523.298	2.09
523.645	2.1
523.993	2.07
524.341	2.11
524.688	2.01
525.036	2.07
525.383	2.12
525.73	2.02
526.078	2.19
526.425	2.12
526.772	2.09
527.119	2.08
527.466	2.03
527.814	2.08
528.161	2.16
528.508	2.06
528.854	2.09
529.201	2.02
529.548	2
529.895	1.93
530.242	1.96
530.588	1.97
530.935	2
531.282	2
531.628	2.03
531.975	1.98
532.321	2.05
532.667	2.04
533.014	2.1
533.36	2.09
533.706	2.08
534.052	2.03
534.399	2.06
534.745	2.04
535.091	1.98
535.437	2.02
535.783	2.04
536.129	2.04
536.474	2.08
536.82	2.14
537.166	1.97
537.512	2.03
537.857	2.12
538.203	2
538.549	1.99
538.894	2.06
539.239	2.01
539.585	2.07
539.93	2.07
540.276	2.11
540.621	2.1
540.966	2.06
541.311	2.09
541.656	1.98
542.001	2.03
542.346	2.03
542.691	1.98
543.036	2
543.381	1.98
543.726	2.08
544.071	2.03
544.415	2.06
544.76	2.04
545.105	2.02
545.449	2.06
545.794	1.99
546.138	2.04
546.483	2
546.827	2.03
547.171	2.13
547.516	2.06
547.86	2.16
548.204	2.1
548.548	2.01
548.892	2.13
549.236	2.12
549.58	2.13
549.924	2.2
550.268	2.21
550.612	2.19
550.956	2.22
551.3	2.27
551.643	2.1
551.987	2.17
552.33	2.33
552.674	2.22
553.017	2.16
553.361	2.24
553.704	2.23
554.048	2.14
554.391	2.23
554.734	2.01
555.077	2.18
555.42	1.91
555.764	2.05
556.107	2.18
556.45	2.12
556.793	2.28
557.135	2.24
557.478	2.17
557.821	2.09
558.164	2.25
558.507	2.03
558.849	2.17
559.192	2.15
559.534	2.09
559.877	2.16
560.219	2.06
560.562	2.08
560.904	2.3
561.246	2.08
561.589	2.32
561.931	2.08
562.273	1.92
562.615	2.12
562.957	2.05
563.299	2.15
563.641	2.09
563.983	1.99
564.325	2.26
564.667	2.16
565.008	2.07
565.35	2.05
565.692	2.21
566.033	2.01
566.375	2.15
566.716	2
567.058	1.98
567.399	2.18
567.741	2.04
568.082	2.16
568.423	2.02
568.764	2.15
569.105	2.06
569.447	2.06
569.788	2.14
570.129	2.07
570.47	2.12
570.811	2.27
571.151	2.09
571.492	2.12
571.833	1.97
572.174	2.16
572.514	2.04
572.855	2.29
573.195	1.87
573.536	2.13
573.876	2.03
574.217	2.09
574.557	2.11
574.898	2.04
575.238	2.2
575.578	2.19
575.918	2.08
576.258	2.43
576.598	2.06
576.938	2.04
577.278	2.06
577.618	2.1
577.958	2.14
578.298	2.18
578.638	2.14
578.977	2.08
579.317	2.22
579.657	1.96
579.996	2.13
580.336	2.28
580.675	2.09
581.014	2.26
581.354	1.98
581.693	2.26
582.032	2.14
582.372	2.09
582.711	2.24
583.05	2.06
583.389	2.27
583.728	2.26
584.067	2.09
584.406	2.27
584.745	2.14
585.083	2.06
585.422	2.21
585.761	2.31
586.1	2.28
586.438	1.98
586.777	2.11
587.115	2.17
587.454	2.07
587.792	2.2
588.13	2.25
588.469	2.09
588.807	2.32
589.145	2.05
589.483	1.95
589.821	2.17
590.159	2.3
590.497	2.36
590.835	2.18
591.173	2.29
591.511	2.33
591.849	2.27
592.187	2.22
592.524	2.24
592.862	2.12
593.2	2.31
593.537	2.14
593.875	2.11
594.212	2.27
594.55	2.21
594.887	2.23
595.224	2.27
595.561	2.41
595.899	2.21
596.236	2.32
596.573	2.12
596.91	2.12
597.247	2.39
597.584	2.25
597.921	2.24
598.258	2.35
598.594	2.16
598.931	2.12
599.268	1.98
599.604	2.2
599.941	2.17
600.277	2.29
600.614	2.04
600.95	2
601.287	1.89
601.623	1.9
601.959	2.45
602.296	2.1
602.632	2.33
602.968	2.08
603.304	2.31
603.64	2.18
603.976	1.87
604.312	2.15
604.648	2.07
604.984	2.25
605.319	2.12
605.655	2.16
605.991	2.2
606.326	2.21
606.662	2.23
606.998	2.31
607.333	2.09
607.668	2.22
608.004	2.25
608.339	1.93
608.674	2.2
609.01	2.57
609.345	1.97
609.68	1.96
610.015	2.25
610.35	2.03
610.685	1.97
611.02	2.05
611.355	2.04
611.689	2.06
612.024	2.19
612.359	2.21
612.694	2.17
613.028	2.27
613.363	2.23
613.697	2.4
614.032	2.33
614.366	2.1
614.7	2.38
615.035	2.29
615.369	2.5
615.703	2.54
616.037	2.32
616.371	1.84
616.705	2.49
617.039	2.27
617.373	2.5
617.707	2.17
618.041	1.98
618.375	1.58
618.709	2.23
619.042	2.25
619.376	2.39
619.71	2.45
620.043	2.34
620.377	1.91
620.71	1.78
621.043	2.44
621.377	2.47
621.71	2.52
622.043	2.05
622.376	2.35
622.709	2.44
623.043	2.32
623.376	2.17
623.709	2.55
624.041	2.28
624.374	2.2
624.707	2.35
625.04	2.33
625.373	2.04
625.705	2.15
626.038	2.46
626.37	2.03
626.703	2.11
627.035	2.2
627.368	2.54
627.7	2.28
628.032	2.25
628.365	2.38
628.697	2.44
629.029	2.05
629.361	2.36
629.693	2.22
630.025	2.32
630.357	2.26
630.689	2.2
631.021	2.61
631.353	2.31
631.684	2.41
632.016	1.97
632.348	2.23
632.679	2.36
633.011	2.43
633.342	2.32
633.674	2.11
634.005	2.37
634.336	2.33
634.668	2.39
634.999	2.1
635.33	2.36
635.661	2.17
635.992	2.23
636.323	2.14
636.654	2.17
636.985	2.21
637.316	2.34
637.647	2.15
637.977	2.29
638.308	2.54
638.639	2.25
638.969	2.17
639.3	2.37
639.63	2.29
639.961	2.27
640.291	2.1
640.622	2.54
640.952	2.53
641.282	1.76
641.612	2.1
641.943	2.24
642.273	2.19
642.603	2.39
642.933	2.32
643.263	2.59
643.592	2.53
643.922	2.84
644.252	1.97
644.582	2.13
644.911	2.29
645.241	2.36
645.571	2.23
645.9	2.2
646.23	2.25
646.559	2.07
646.888	2.64
647.218	2.08
647.547	2.17
647.876	2.41
648.205	2.13
648.534	2.33
648.863	2.46
649.192	2.39
649.521	2.38
649.85	2.5
650.179	2.51
650.508	2.04
650.837	2.6
651.165	2.22
651.494	2.19
651.822	2.59
652.151	1.82
652.479	2.45
652.808	2.03
653.136	2.13
653.465	2.2
653.793	2.23
654.121	2.23
654.449	2.09
654.777	1.97
655.105	2
655.433	2.53
655.761	1.92
656.089	2.76
656.417	2.8
656.745	2.77
657.073	2.28
657.4	2.22
657.728	2.2
658.056	2.21
658.383	2.6
658.711	2.46
659.038	2.58
659.365	2.72
659.693	2.17
660.02	2.1
660.347	2.32
660.674	2.22
661.001	2.42
661.329	2.44
661.656	2.08
661.982	2.2
662.309	1.9
662.636	2.16
662.963	2.5
663.29	2.09
663.616	2.2
663.943	2.46
664.27	2.47
664.596	2.15
664.923	2.62
665.249	2.51
665.576	2.56
665.902	2.1
666.228	2.36
666.554	3.28
666.881	2.07
667.207	2.36
667.533	2.33
667.859	2.4
668.185	2.55
668.511	3.02
668.837	2.59
669.162	2.69
669.488	1.37
669.814	2.23
670.139	2.31
670.465	2.79
670.791	2.03
671.116	1.81
671.442	1.6
671.767	2.59
672.092	2.45
672.418	2.17
672.743	2.1
673.068	1.79
673.393	2.63
673.718	1.68
674.043	2.06
674.368	2.34
674.693	2.58
675.018	2.52
675.343	2.71
675.667	2.16
675.992	2.5
676.317	1.87
676.641	2.14
676.966	2.05
677.29	2.25
677.615	1.95
677.939	2.78
678.264	2.19
678.588	2.17
678.912	2.59
679.236	2.21
679.56	1.94
679.885	1.73
680.209	2.46
680.532	2.65
680.856	1.99
681.18	2.59
681.504	1.85
681.828	2.26
682.152	2.48
682.475	2.32
682.799	2.46
683.122	2.52
683.446	1.78
683.769	2.71
684.093	2.96
684.416	2.69
684.739	2.33
685.062	2.39
685.386	2.56
685.709	2.16
686.032	2.86
686.355	2.1
686.678	2.83
687.001	2.58
687.324	2.16
687.646	2
687.969	2.19
688.292	2.6
688.614	2.96
688.937	2.66
689.26	2.44
689.582	2.22
689.904	2.27
690.227	2.3
690.549	2.48
690.871	2.51
691.194	2.16
691.516	2.36
691.838	2.62
692.16	1.4
692.482	2.24
692.804	2.75
693.126	2.02
693.448	2.74
693.769	2.14
