Data from 21-11_chest_Reflection__3__63.txt Node

Date: Thu Dec 15 16:56:05 CST 2022
User: ToomeyLab
Spectrometer: FLMS14357
Trigger mode: 0
Integration Time (sec): 1.000000E-2
Scans to average: 100
Electric dark correction enabled: true
Nonlinearity correction enabled: false
Boxcar width: 0
XAxis mode: Wavelengths
Number of Pixels in Spectrum: 2048
>>>>>Begin Spectral Data<<<<<
189.047	178.92
189.435	178.92
189.823	178.92
190.211	-302.59
190.599	67.75
190.987	-90.6
191.375	2.41
191.763	81.18
192.151	-268.46
192.538	14.97
192.926	453.68
193.314	11566.67
193.702	65.11
194.089	6.61
194.477	90.38
194.864	-51
195.252	17.36
195.639	163.98
196.027	145.76
196.414	106.08
196.801	-198.31
197.189	78.59
197.576	21.95
197.963	-1648.34
198.351	2.19
198.738	-19.78
199.125	33.38
199.512	55.77
199.899	-22.5
200.286	-2.07
200.673	13.89
201.06	8.23
201.447	10.53
201.833	-20.69
202.22	-12
202.607	-63.73
202.994	23.89
203.38	62.18
203.767	19.42
204.154	50.05
204.54	55.88
204.927	28.99
205.313	16.06
205.699	30.57
206.086	6.68
206.472	23.35
206.858	9.52
207.245	16.57
207.631	2.12
208.017	53.21
208.403	-40.93
208.789	11.88
209.175	27.8
209.561	-36.16
209.947	2.22
210.333	12.34
210.719	5.37
211.105	25.48
211.491	19.3
211.876	2.58
212.262	11.19
212.648	22.91
213.034	-4.23
213.419	3.93
213.805	8.45
214.19	0.68
214.576	24.71
214.961	45.36
215.346	17.04
215.732	-5.63
216.117	15.44
216.502	17.1
216.888	13.08
217.273	7.44
217.658	4.43
218.043	11.2
218.428	-0.89
218.813	16.6
219.198	3.68
219.583	-1.12
219.968	13.09
220.353	-7.36
220.738	6.17
221.122	6.6
221.507	15.7
221.892	-29.38
222.276	-5.84
222.661	7.32
223.046	-3.34
223.43	22.67
223.815	11.42
224.199	5.34
224.583	8.79
224.968	-3.8
225.352	-1.68
225.736	13.49
226.121	6.99
226.505	0.62
226.889	4
227.273	7.83
227.657	3.82
228.041	8.63
228.425	4.38
228.809	4.19
229.193	8.57
229.577	6.29
229.961	5.54
230.344	6.73
230.728	7.06
231.112	7.51
231.495	5.92
231.879	6.05
232.263	7.11
232.646	5.49
233.03	6.54
233.413	6.64
233.797	4.32
234.18	9.22
234.563	7.12
234.946	6.44
235.33	7.02
235.713	7.55
236.096	8.53
236.479	6.75
236.862	5.33
237.245	7.16
237.628	6.5
238.011	7.1
238.394	5.27
238.777	6.27
239.16	6.92
239.543	6.69
239.925	6.39
240.308	6.71
240.691	6.95
241.073	6.25
241.456	6.48
241.838	6.93
242.221	5.71
242.603	6.21
242.986	6.36
243.368	5.98
243.75	5.9
244.133	6.45
244.515	5.34
244.897	5.65
245.279	5.21
245.661	5.84
246.043	6.53
246.425	5.91
246.807	5.81
247.189	6.05
247.571	5.61
247.953	5.62
248.335	5.76
248.717	5.78
249.098	5.91
249.48	5.86
249.862	6.03
250.243	5.82
250.625	6.32
251.006	6.08
251.388	6.63
251.769	5.37
252.151	6.04
252.532	5.47
252.913	5.89
253.295	6.06
253.676	5.89
254.057	6.03
254.438	5.28
254.819	5.27
255.2	6.21
255.581	6.58
255.962	5.83
256.343	5.84
256.724	6.85
257.105	5.63
257.486	4.62
257.867	5.44
258.247	5.9
258.628	6.27
259.009	5.51
259.389	4.92
259.77	5.11
260.15	6.56
260.531	5.55
260.911	5.38
261.292	5.47
261.672	5.3
262.052	5.49
262.432	5.18
262.813	5.42
263.193	5.58
263.573	5.65
263.953	4.86
264.333	4.98
264.713	5.28
265.093	4.95
265.473	4.52
265.853	6.04
266.233	5.53
266.612	4.66
266.992	5.75
267.372	5.29
267.752	5.27
268.131	4.81
268.511	5.34
268.89	5.41
269.27	4.09
269.649	5
270.029	5.2
270.408	4.85
270.787	5.62
271.167	5.39
271.546	5.81
271.925	5.04
272.304	5.38
272.683	4.65
273.062	5.03
273.441	4.83
273.82	5.2
274.199	4.99
274.578	5.3
274.957	4.91
275.336	5.64
275.715	4.98
276.093	4.54
276.472	4.65
276.851	4.96
277.229	5.41
277.608	4.4
277.986	5.06
278.365	5.48
278.743	4.89
279.122	4.68
279.5	5.35
279.878	4.98
280.257	5.12
280.635	4.68
281.013	4.33
281.391	4.84
281.769	5.85
282.147	4.86
282.525	4.91
282.903	4.86
283.281	4.93
283.659	5.48
284.037	4.94
284.415	4.36
284.792	5.21
285.17	4.53
285.548	4.75
285.925	4.95
286.303	5.41
286.68	5.03
287.058	5.08
287.435	4.51
287.813	5
288.19	4.68
288.567	4.81
288.945	4.49
289.322	5.02
289.699	5.1
290.076	4.83
290.453	4.82
290.83	4.73
291.207	4.65
291.584	5.21
291.961	5.09
292.338	4.46
292.715	4.47
293.092	5.28
293.469	4.77
293.845	5.29
294.222	5.65
294.599	4.39
294.975	3.74
295.352	4.99
295.728	4.58
296.105	4.79
296.481	5.21
296.858	5.13
297.234	4.48
297.61	4.68
297.986	5.19
298.363	5.05
298.739	5.23
299.115	4.97
299.491	5.18
299.867	4.35
300.243	5.04
300.619	4.66
300.995	5.31
301.371	4.81
301.746	4.8
302.122	4.55
302.498	4.77
302.874	4.5
303.249	4.8
303.625	4.62
304	4.97
304.376	5.7
304.751	5.11
305.127	4.67
305.502	4.81
305.878	4.95
306.253	4.62
306.628	4.84
307.003	4.89
307.378	4.68
307.754	5.12
308.129	4.87
308.504	4.67
308.879	5.23
309.254	5.3
309.629	4.89
310.003	4.61
310.378	4.95
310.753	4.95
311.128	4.52
311.502	4.82
311.877	4.71
312.252	4.61
312.626	5.24
313.001	4.83
313.375	4.81
313.75	4.73
314.124	4.91
314.498	5.34
314.873	4.71
315.247	4.98
315.621	4.68
315.995	4.66
316.369	4.61
316.743	4.7
317.117	4.98
317.491	4.84
317.865	4.65
318.239	4.81
318.613	4.66
318.987	4.3
319.361	5.07
319.734	4.57
320.108	4.61
320.482	5.14
320.855	4.4
321.229	4.69
321.602	4.82
321.976	3.92
322.349	4.96
322.723	5.09
323.096	5.02
323.469	4.48
323.843	4.42
324.216	5.04
324.589	4.79
324.962	4.59
325.335	4.51
325.708	4.92
326.081	4.59
326.454	4.85
326.827	4.94
327.2	4.45
327.573	5.25
327.945	4.67
328.318	4.47
328.691	4.68
329.063	4.45
329.436	4.3
329.809	5.02
330.181	5.31
330.553	4.95
330.926	5.51
331.298	4.77
331.671	4.37
332.043	4.89
332.415	4.55
332.787	4.48
333.159	4.58
333.532	4.76
333.904	5.09
334.276	4.5
334.648	4.73
335.02	4.62
335.391	4.59
335.763	4.69
336.135	4.93
336.507	4.72
336.879	4.47
337.25	4.72
337.622	4.86
337.993	4.55
338.365	4.35
338.736	4.83
339.108	4.96
339.479	4.73
339.851	5.09
340.222	4.92
340.593	4.53
340.964	4.87
341.336	4.8
341.707	4.85
342.078	4.3
342.449	4.62
342.82	5.13
343.191	4.8
343.562	4.94
343.933	4.47
344.303	4.74
344.674	4.71
345.045	4.8
345.416	4.91
345.786	4.57
346.157	5.09
346.527	4.29
346.898	4.54
347.268	4.91
347.639	4.56
348.009	4.66
348.38	4.97
348.75	4.99
349.12	4.54
349.49	4.91
349.861	5.08
350.231	4.84
350.601	4.8
350.971	4.47
351.341	4.7
351.711	4.66
352.081	4.58
352.45	4.38
352.82	4.68
353.19	4.48
353.56	4.79
353.929	4.88
354.299	4.74
354.669	4.94
355.038	4.91
355.408	4.65
355.777	4.9
356.147	4.53
356.516	4.49
356.885	4.75
357.254	4.38
357.624	4.57
357.993	4.69
358.362	4.73
358.731	4.57
359.1	5.07
359.469	4.72
359.838	4.88
360.207	4.74
360.576	4.89
360.945	4.8
361.314	4.44
361.682	4.59
362.051	4.61
362.42	4.61
362.788	4.99
363.157	4.39
363.525	4.82
363.894	4.64
364.262	4.63
364.631	4.86
364.999	4.92
365.367	4.78
365.735	4.62
366.104	4.62
366.472	4.5
366.84	4.52
367.208	5.01
367.576	4.56
367.944	4.73
368.312	4.7
368.68	5.02
369.048	4.71
369.416	4.57
369.783	4.82
370.151	5.17
370.519	4.98
370.886	5.14
371.254	4.81
371.621	4.89
371.989	4.92
372.356	4.93
372.724	4.57
373.091	4.78
373.458	4.62
373.826	4.91
374.193	4.96
374.56	5.17
374.927	4.71
375.294	5.14
375.661	5.02
376.028	4.69
376.395	5.13
376.762	4.72
377.129	4.44
377.496	4.75
377.863	5.01
378.229	5.14
378.596	5
378.963	4.81
379.329	5.09
379.696	4.82
380.062	4.98
380.429	4.76
380.795	5.13
381.161	4.54
381.528	4.62
381.894	4.57
382.26	5.01
382.626	5.08
382.993	5.02
383.359	4.94
383.725	4.81
384.091	4.9
384.457	4.62
384.823	4.9
385.188	4.69
385.554	4.99
385.92	4.81
386.286	4.83
386.651	4.82
387.017	4.97
387.383	4.98
387.748	5.21
388.114	4.91
388.479	4.69
388.845	4.62
389.21	5.03
389.575	4.97
389.94	5.2
390.306	4.83
390.671	5.02
391.036	4.89
391.401	5.02
391.766	4.76
392.131	5.29
392.496	5.02
392.861	4.85
393.226	4.7
393.591	4.9
393.956	4.96
394.32	4.91
394.685	4.96
395.05	4.96
395.414	4.88
395.779	5.14
396.143	4.73
396.508	4.9
396.872	4.8
397.236	5
397.601	5.11
397.965	4.8
398.329	5.04
398.694	4.6
399.058	4.95
399.422	4.76
399.786	4.78
400.15	4.9
400.514	5.19
400.878	5.07
401.242	4.96
401.605	4.88
401.969	4.72
402.333	4.72
402.697	5.23
403.06	4.95
403.424	4.98
403.787	4.94
404.151	5.02
404.514	5.13
404.878	4.9
405.241	4.94
405.604	4.92
405.968	5
406.331	4.93
406.694	5
407.057	4.68
407.42	5.01
407.783	5.06
408.146	4.96
408.509	5.14
408.872	5.2
409.235	5.16
409.598	5.03
409.961	5.28
410.323	4.84
410.686	4.95
411.049	4.87
411.411	4.85
411.774	4.96
412.136	5.03
412.499	5.19
412.861	4.68
413.223	5.03
413.586	4.88
413.948	5.07
414.31	5.03
414.672	5.11
415.035	5.17
415.397	5.02
415.759	4.97
416.121	5.22
416.483	4.96
416.845	5.18
417.206	5.11
417.568	4.93
417.93	5.13
418.292	4.91
418.653	4.75
419.015	4.92
419.377	4.9
419.738	5.15
420.1	4.96
420.461	4.9
420.822	4.97
421.184	5.01
421.545	5.06
421.906	4.95
422.267	4.82
422.629	4.95
422.99	4.9
423.351	4.86
423.712	4.9
424.073	5.04
424.434	5.08
424.795	4.92
425.155	4.88
425.516	4.9
425.877	4.95
426.238	4.94
426.598	4.96
426.959	5.1
427.32	4.92
427.68	5.04
428.041	5.08
428.401	4.99
428.761	4.99
429.122	5.16
429.482	5.03
429.842	4.95
430.202	5.2
430.563	5.18
430.923	5.15
431.283	5.16
431.643	5.26
432.003	5.11
432.363	5.14
432.722	5.21
433.082	5.07
433.442	5.19
433.802	5.03
434.161	5.08
434.521	5.09
434.881	5.1
435.24	4.97
435.6	5.08
435.959	5.13
436.319	5.15
436.678	5.18
437.037	5.16
437.396	5.21
437.756	5.05
438.115	5.1
438.474	5.17
438.833	4.98
439.192	5.07
439.551	5.1
439.91	5.11
440.269	5.06
440.628	5.18
440.987	5.26
441.345	5.13
441.704	5.05
442.063	5.07
442.421	5.15
442.78	5.11
443.138	5.1
443.497	5
443.855	5.17
444.214	5.02
444.572	5.3
444.93	5.2
445.288	5.18
445.647	4.98
446.005	5.18
446.363	5.15
446.721	5.32
447.079	5.18
447.437	5.11
447.795	5.12
448.153	5.13
448.51	5.14
448.868	5.05
449.226	5.21
449.584	5.16
449.941	5.12
450.299	5.13
450.656	5.2
451.014	5.24
451.371	5.32
451.729	5.37
452.086	5.26
452.443	5.23
452.801	5.33
453.158	5.53
453.515	5.21
453.872	5.22
454.229	5.03
454.586	5.1
454.943	5.3
455.3	5.37
455.657	5.22
456.014	5.31
456.371	5.21
456.727	5.38
457.084	5.46
457.441	5.3
457.797	5.38
458.154	5.38
458.51	5.17
458.867	5.31
459.223	5.13
459.58	5.25
459.936	5.17
460.292	5.19
460.648	5.15
461.005	5.15
461.361	5.15
461.717	5.16
462.073	5.27
462.429	5.24
462.785	5.34
463.141	5.26
463.496	5.31
463.852	5.45
464.208	5.33
464.564	5.24
464.919	5.28
465.275	5.37
465.631	5.43
465.986	5.43
466.342	5.36
466.697	5.34
467.052	5.43
467.408	5.47
467.763	5.31
468.118	5.29
468.473	5.36
468.829	5.19
469.184	5.43
469.539	5.37
469.894	5.32
470.249	5.53
470.603	5.43
470.958	5.36
471.313	5.41
471.668	5.55
472.023	5.49
472.377	5.29
472.732	5.53
473.086	5.63
473.441	5.34
473.795	5.55
474.15	5.43
474.504	5.43
474.859	5.22
475.213	5.32
475.567	5.27
475.921	5.48
476.275	5.44
476.63	5.49
476.984	5.34
477.338	5.52
477.692	5.49
478.045	5.42
478.399	5.49
478.753	5.41
479.107	5.48
479.461	5.39
479.814	5.38
480.168	5.35
480.521	5.45
480.875	5.4
481.228	5.44
481.582	5.38
481.935	5.6
482.289	5.44
482.642	5.56
482.995	5.43
483.348	5.35
483.701	5.39
484.055	5.38
484.408	5.32
484.761	5.22
485.114	5.14
485.466	5.14
485.819	5.11
486.172	5.15
486.525	5.23
486.878	5.29
487.23	5.33
487.583	5.32
487.936	5.29
488.288	5.29
488.641	5.29
488.993	5.22
489.345	5.26
489.698	5.31
490.05	5.23
490.402	5.29
490.754	5.28
491.107	5.35
491.459	5.49
491.811	5.48
492.163	5.4
492.515	5.34
492.866	5.33
493.218	5.31
493.57	5.38
493.922	5.42
494.274	5.47
494.625	5.46
494.977	5.51
495.328	5.58
495.68	5.51
496.031	5.58
496.383	5.45
496.734	5.41
497.086	5.57
497.437	5.65
497.788	5.64
498.139	5.43
498.49	5.58
498.842	5.65
499.193	5.48
499.544	5.64
499.894	5.61
500.245	5.62
500.596	5.56
500.947	5.63
501.298	5.65
501.648	5.62
501.999	5.69
502.35	5.67
502.7	5.79
503.051	5.71
503.401	5.68
503.752	5.56
504.102	5.67
504.452	5.5
504.803	5.63
505.153	5.87
505.503	5.76
505.853	5.78
506.203	5.81
506.553	5.78
506.903	5.81
507.253	5.76
507.603	5.77
507.953	5.82
508.303	5.89
508.652	5.63
509.002	5.8
509.352	5.73
509.701	5.71
510.051	5.75
510.4	5.87
510.75	5.61
511.099	5.66
511.449	5.78
511.798	5.69
512.147	5.78
512.496	5.8
512.846	5.83
513.195	5.81
513.544	5.78
513.893	5.82
514.242	5.78
514.591	5.83
514.939	5.9
515.288	5.95
515.637	5.85
515.986	5.79
516.334	5.96
516.683	5.84
517.032	5.91
517.38	5.83
517.729	5.83
518.077	5.91
518.426	6.08
518.774	5.89
519.122	5.91
519.47	5.87
519.819	5.93
520.167	5.8
520.515	5.94
520.863	5.86
521.211	5.93
521.559	5.81
521.907	5.89
522.255	5.9
522.602	5.89
522.95	6.1
523.298	6.15
523.645	6.07
523.993	5.95
524.341	6.03
524.688	6.04
525.036	6.09
525.383	6.11
525.73	6.04
526.078	6.19
526.425	6.06
526.772	6.02
527.119	6.05
527.466	6.08
527.814	6.03
528.161	6.08
528.508	6.14
528.854	5.97
529.201	5.98
529.548	5.98
529.895	5.92
530.242	5.89
530.588	5.96
530.935	5.97
531.282	5.91
531.628	5.99
531.975	6.01
532.321	6.09
532.667	6.18
533.014	6.18
533.36	6.15
533.706	6.19
534.052	6.16
534.399	6.06
534.745	6.16
535.091	6.12
535.437	6.15
535.783	6.1
536.129	6.15
536.474	6.21
536.82	6.24
537.166	6.15
537.512	6.27
537.857	6.34
538.203	6.34
538.549	6.26
538.894	6.39
539.239	6.34
539.585	6.44
539.93	6.43
540.276	6.38
540.621	6.47
540.966	6.45
541.311	6.48
541.656	6.37
542.001	6.44
542.346	6.4
542.691	6.28
543.036	6.31
543.381	6.35
543.726	6.4
544.071	6.39
544.415	6.41
544.76	6.46
545.105	6.5
545.449	6.54
545.794	6.52
546.138	6.55
546.483	6.66
546.827	6.48
547.171	6.75
547.516	6.76
547.86	6.68
548.204	6.62
548.548	6.67
548.892	6.63
549.236	6.73
549.58	6.77
549.924	6.82
550.268	6.88
550.612	6.98
550.956	7.1
551.3	6.96
551.643	6.9
551.987	7.02
552.33	7.04
552.674	6.91
553.017	7.18
553.361	6.94
553.704	7
554.048	6.95
554.391	7.19
554.734	6.98
555.077	7.05
555.42	7.03
555.764	7.08
556.107	7.17
556.45	7.3
556.793	7.34
557.135	7.31
557.478	7.23
557.821	7.26
558.164	7.25
558.507	6.91
558.849	7.35
559.192	7.26
559.534	7.28
559.877	7.39
560.219	7.38
560.562	7.23
560.904	7.48
561.246	7.28
561.589	7.52
561.931	7.19
562.273	7.47
562.615	7.46
562.957	7.3
563.299	7.52
563.641	7.68
563.983	7.41
564.325	7.59
564.667	7.43
565.008	7.55
565.35	7.54
565.692	7.44
566.033	7.47
566.375	7.65
566.716	7.57
567.058	7.85
567.399	7.68
567.741	7.77
568.082	7.77
568.423	7.57
568.764	7.66
569.105	7.7
569.447	7.7
569.788	7.73
570.129	7.66
570.47	7.79
570.811	7.76
571.151	7.88
571.492	7.85
571.833	7.84
572.174	8.09
572.514	7.99
572.855	8.11
573.195	7.93
573.536	7.97
573.876	7.98
574.217	7.93
574.557	7.92
574.898	7.98
575.238	8.14
575.578	8.12
575.918	8.07
576.258	8.34
576.598	8.12
576.938	8.1
577.278	8.18
577.618	8.21
577.958	8.23
578.298	8.22
578.638	8.16
578.977	8.27
579.317	8.3
579.657	8.43
579.996	8.45
580.336	8.52
580.675	8.38
581.014	8.51
581.354	8.41
581.693	8.5
582.032	8.6
582.372	8.65
582.711	8.63
583.05	8.63
583.389	8.66
583.728	8.73
584.067	8.67
584.406	8.94
584.745	8.68
585.083	8.64
585.422	8.82
585.761	8.94
586.1	8.74
586.438	8.72
586.777	8.97
587.115	8.81
587.454	8.98
587.792	8.95
588.13	8.79
588.469	9.06
588.807	9.07
589.145	9.12
589.483	8.95
589.821	9.08
590.159	9.09
590.497	9.07
590.835	9.27
591.173	9.4
591.511	9.29
591.849	9.15
592.187	9.06
592.524	9.38
592.862	8.97
593.2	9.4
593.537	9.27
593.875	9.03
594.212	9.39
594.55	9.32
594.887	9.73
595.224	9.44
595.561	9.59
595.899	9.48
596.236	9.63
596.573	9.65
596.91	9.51
597.247	9.61
597.584	9.72
597.921	9.68
598.258	9.63
598.594	9.66
598.931	9.56
599.268	9.49
599.604	9.65
599.941	9.59
600.277	9.74
600.614	9.83
600.95	9.62
601.287	9.62
601.623	9.78
601.959	10.13
602.296	9.79
602.632	9.91
602.968	10.14
603.304	10.11
603.64	10.06
603.976	10.06
604.312	10.12
604.648	9.95
604.984	10.13
605.319	10.15
605.655	10.12
605.991	10.22
606.326	10.2
606.662	10.11
606.998	10.37
607.333	10.24
607.668	10.06
608.004	10.11
608.339	10.4
608.674	10.48
609.01	10.69
609.345	10.48
609.68	10.43
610.015	10.42
610.35	10.73
610.685	10.29
611.02	10.39
611.355	10.53
611.689	10.6
612.024	10.87
612.359	10.8
612.694	10.67
613.028	10.56
613.363	10.62
613.697	10.87
614.032	10.85
614.366	10.73
614.7	11.04
615.035	10.88
615.369	10.93
615.703	10.83
616.037	11
616.371	11.04
616.705	11.24
617.039	11.09
617.373	11.29
617.707	11.25
618.041	11.14
618.375	10.86
618.709	11.38
619.042	11.23
619.376	11.2
619.71	11.56
620.043	11.63
620.377	11.41
620.71	11.28
621.043	11.68
621.377	11.58
621.71	11.6
622.043	11.71
622.376	11.44
622.709	11.68
623.043	11.6
623.376	11.47
623.709	11.76
624.041	11.81
624.374	11.9
624.707	11.44
625.04	11.7
625.373	11.59
625.705	11.8
626.038	12.08
626.37	11.64
626.703	12.04
627.035	11.69
627.368	12.11
627.7	11.92
628.032	12.1
628.365	12.2
628.697	12.07
629.029	12.08
629.361	12.16
629.693	12.17
630.025	12.31
630.357	12.36
630.689	12.1
631.021	12.3
631.353	12.3
631.684	12.4
632.016	12.15
632.348	12.35
632.679	12.27
633.011	12.58
633.342	12.42
633.674	12.23
634.005	12.27
634.336	12.86
634.668	12.48
634.999	12.48
635.33	12.71
635.661	12.47
635.992	12.7
636.323	12.64
636.654	12.84
636.985	12.66
637.316	12.48
637.647	12.89
637.977	12.55
638.308	13.09
638.639	13.03
638.969	12.61
639.3	13.1
639.63	12.63
639.961	13.14
640.291	13
640.622	13.28
640.952	13.52
641.282	12.85
641.612	12.87
641.943	12.92
642.273	13.25
642.603	13.35
642.933	13.79
643.263	13.36
643.592	13.32
643.922	13.87
644.252	13.17
644.582	13.69
644.911	12.95
645.241	13.43
645.571	13.74
645.9	13.46
646.23	13.74
646.559	13.07
646.888	13.59
647.218	13.48
647.547	14
647.876	13.9
648.205	13.56
648.534	13.58
648.863	13.81
649.192	13.88
649.521	13.68
649.85	13.9
650.179	13.92
650.508	13.98
650.837	14.35
651.165	14.12
651.494	13.94
651.822	13.89
652.151	13.96
652.479	14.1
652.808	13.92
653.136	13.92
653.465	13.62
653.793	14.75
654.121	14.51
654.449	14.21
654.777	13.64
655.105	13.89
655.433	14.14
655.761	14.63
656.089	14.17
656.417	14.73
656.745	14.31
657.073	14.06
657.4	14.24
657.728	14.37
658.056	14.45
658.383	14.39
658.711	14.43
659.038	14.99
659.365	14.77
659.693	14.52
660.02	14.7
660.347	14.99
660.674	14.64
661.001	14.71
661.329	14.54
661.656	14.57
661.982	14.59
662.309	14.51
662.636	14.85
662.963	15.16
663.29	14.89
663.616	15.07
663.943	14.63
664.27	15.35
664.596	14.85
664.923	15.09
665.249	15.2
665.576	14.94
665.902	14.98
666.228	15.55
666.554	15.91
666.881	15.24
667.207	15.03
667.533	15.55
667.859	15.09
668.185	15.5
668.511	15.66
668.837	15.21
669.162	15.12
669.488	14.98
669.814	15.32
670.139	15.2
670.465	15.72
670.791	15.41
671.116	15.68
671.442	15.66
671.767	15.56
672.092	16.08
672.418	16.44
672.743	15.92
673.068	15.91
673.393	15.86
673.718	15.47
674.043	15.67
674.368	15.43
674.693	16.56
675.018	16.07
675.343	15.74
675.667	15.96
675.992	16.19
676.317	15.56
676.641	15.71
676.966	16.16
677.29	16.41
677.615	16.14
677.939	17
678.264	15.82
678.588	16.98
678.912	15.95
679.236	16.04
679.56	16.15
679.885	16.3
680.209	16.33
680.532	16.63
680.856	16.47
681.18	17.01
681.504	17.1
681.828	16.14
682.152	16.47
682.475	16.75
682.799	16.74
683.122	16.62
683.446	16.25
683.769	16.75
684.093	17.14
684.416	16.41
684.739	16.97
685.062	17.19
685.386	17.49
685.709	16.98
686.032	16.99
686.355	16.8
686.678	17.68
687.001	16.95
