Data from 21-11_chest_Reflection__0__60.txt Node

Date: Thu Dec 15 16:55:33 CST 2022
User: ToomeyLab
Spectrometer: FLMS14357
Trigger mode: 0
Integration Time (sec): 1.000000E-2
Scans to average: 100
Electric dark correction enabled: true
Nonlinearity correction enabled: false
Boxcar width: 0
XAxis mode: Wavelengths
Number of Pixels in Spectrum: 2048
>>>>>Begin Spectral Data<<<<<
189.047	1283.63
189.435	1283.63
189.823	1283.63
190.211	326.24
190.599	47.51
190.987	-168.31
191.375	66.35
191.763	159.41
192.151	767.43
192.538	-35.99
192.926	-582.63
193.314	-2383.33
193.702	-1.12
194.089	215.16
194.477	166.83
194.864	76.56
195.252	367.14
195.639	287.58
196.027	68.47
196.414	-76.23
196.801	-14.07
197.189	257.07
197.576	2754.88
197.963	428.15
198.351	21.71
198.738	-17.37
199.125	-75.91
199.512	24.42
199.899	-16.24
200.286	-40.5
200.673	42.05
201.06	-2.87
201.447	0.36
201.833	-11.89
202.22	0.22
202.607	-55.18
202.994	37.58
203.38	-8.29
203.767	0.41
204.154	46.72
204.54	32.19
204.927	1.71
205.313	25.77
205.699	13.05
206.086	20.73
206.472	13.6
206.858	4.27
207.245	13.76
207.631	14.41
208.017	45.53
208.403	-21.37
208.789	0.33
209.175	14.38
209.561	-37.57
209.947	-3.88
210.333	-26.68
210.719	15.54
211.105	29.11
211.491	41.01
211.876	-6.27
212.262	18.03
212.648	18.49
213.034	-0.42
213.419	28.79
213.805	-13.08
214.19	-30.36
214.576	1.85
214.961	29.51
215.346	-22.17
215.732	6.32
216.117	7.11
216.502	14.24
216.888	21.66
217.273	17.59
217.658	-6.07
218.043	5.9
218.428	-11.49
218.813	18.27
219.198	-19.36
219.583	-2.39
219.968	-2.76
220.353	-17.19
220.738	12.42
221.122	5.1
221.507	-0.07
221.892	-19.95
222.276	-28.02
222.661	5.52
223.046	1.24
223.43	11.46
223.815	4.92
224.199	12.6
224.583	4.44
224.968	1.44
225.352	-6.06
225.736	1.97
226.121	-0.47
226.505	-1.18
226.889	1.89
227.273	-3.39
227.657	3.18
228.041	3.88
228.425	-0.25
228.809	1.74
229.193	3.52
229.577	1.91
229.961	2.16
230.344	2.97
230.728	3.32
231.112	2.44
231.495	2.65
231.879	2.5
232.263	2.29
232.646	3.19
233.03	3.62
233.413	0.99
233.797	1.48
234.18	1.73
234.563	3.01
234.946	2.72
235.33	1.49
235.713	2.88
236.096	1.93
236.479	4.31
236.862	2.28
237.245	2.71
237.628	2.26
238.011	3.23
238.394	1.07
238.777	3.15
239.16	4.43
239.543	2.82
239.925	1.81
240.308	1.85
240.691	1.7
241.073	2.11
241.456	3.02
241.838	2.19
242.221	3.04
242.603	2.02
242.986	2.67
243.368	2.81
243.75	2.42
244.133	2.74
244.515	2.23
244.897	2.47
245.279	2.43
245.661	2.5
246.043	3.27
246.425	3.47
246.807	2.04
247.189	1.93
247.571	2.25
247.953	2.11
248.335	2.29
248.717	2.39
249.098	2.34
249.48	2.12
249.862	2.26
250.243	2.5
250.625	2.51
251.006	2.95
251.388	2.84
251.769	2.26
252.151	3.02
252.532	1.69
252.913	2.37
253.295	2.22
253.676	2.31
254.057	2.16
254.438	2.59
254.819	2.23
255.2	2.66
255.581	2.72
255.962	4.02
256.343	2.89
256.724	3
257.105	2.52
257.486	1.63
257.867	2.25
258.247	3.03
258.628	2.54
259.009	1.61
259.389	2.02
259.77	1.99
260.15	2.82
260.531	2.3
260.911	2.32
261.292	2.3
261.672	2.33
262.052	2.28
262.432	2.16
262.813	2.66
263.193	2.88
263.573	2.36
263.953	1.47
264.333	2.36
264.713	2.45
265.093	1.57
265.473	1.88
265.853	2.69
266.233	2.75
266.612	1.71
266.992	2.77
267.372	2.3
267.752	2.07
268.131	2.21
268.511	2.51
268.89	2.54
269.27	1.95
269.649	2.22
270.029	2.28
270.408	1.81
270.787	2.52
271.167	2.56
271.546	2.63
271.925	2.45
272.304	2.01
272.683	1.95
273.062	2.34
273.441	1.75
273.82	2.03
274.199	2.03
274.578	2.06
274.957	1.98
275.336	2.53
275.715	2.81
276.093	2.07
276.472	1.71
276.851	2.35
277.229	1.73
277.608	1.66
277.986	2.03
278.365	2.8
278.743	2.03
279.122	1.77
279.5	1.77
279.878	1.97
280.257	2.46
280.635	2.46
281.013	1.77
281.391	1.52
281.769	2.51
282.147	2.2
282.525	2.12
282.903	2.27
283.281	2.85
283.659	2.22
284.037	1.85
284.415	2.44
284.792	2.12
285.17	2.13
285.548	1.86
285.925	1.96
286.303	2.54
286.68	2.36
287.058	2.04
287.435	1.86
287.813	2.17
288.19	2.07
288.567	2.19
288.945	1.87
289.322	2.16
289.699	2.04
290.076	1.99
290.453	2.04
290.83	2.05
291.207	2.16
291.584	2.3
291.961	2.23
292.338	1.81
292.715	1.86
293.092	2.06
293.469	2.03
293.845	2.31
294.222	2.39
294.599	1.74
294.975	1.36
295.352	2.31
295.728	2.07
296.105	1.72
296.481	2.07
296.858	2.21
297.234	1.74
297.61	2.1
297.986	2.38
298.363	2.11
298.739	2.49
299.115	1.93
299.491	2.29
299.867	1.89
300.243	1.88
300.619	1.53
300.995	2.22
301.371	2.28
301.746	2.17
302.122	1.7
302.498	1.71
302.874	2.46
303.249	2.57
303.625	1.73
304	2.54
304.376	2.52
304.751	2.23
305.127	2.47
305.502	2.42
305.878	2.43
306.253	2.07
306.628	2.04
307.003	1.86
307.378	2.02
307.754	1.99
308.129	1.69
308.504	2.05
308.879	2.04
309.254	2.19
309.629	2.03
310.003	2.24
310.378	2.49
310.753	2.6
311.128	2.14
311.502	2.24
311.877	1.93
312.252	2.22
312.626	2.53
313.001	2.14
313.375	2.24
313.75	2.39
314.124	2.7
314.498	2.3
314.873	1.58
315.247	2.22
315.621	2.01
315.995	2.18
316.369	1.58
316.743	2
317.117	1.99
317.491	2.34
317.865	1.8
318.239	2.62
318.613	1.87
318.987	1.71
319.361	2.08
319.734	2.44
320.108	2.05
320.482	2.99
320.855	2
321.229	1.76
321.602	2.25
321.976	1.63
322.349	2.72
322.723	2.48
323.096	2.25
323.469	1.88
323.843	1.79
324.216	2.32
324.589	2.63
324.962	1.53
325.335	2.14
325.708	2.08
326.081	1.82
326.454	1.85
326.827	2.18
327.2	2.14
327.573	2.33
327.945	2.18
328.318	1.86
328.691	2.41
329.063	2.19
329.436	1.88
329.809	2.41
330.181	2.92
330.553	1.88
330.926	2.38
331.298	2.04
331.671	2.16
332.043	1.98
332.415	2.46
332.787	2.47
333.159	1.99
333.532	2.29
333.904	2.16
334.276	1.98
334.648	2.34
335.02	2.27
335.391	1.89
335.763	2.35
336.135	2.36
336.507	2.01
336.879	1.86
337.25	2.07
337.622	2.44
337.993	2.23
338.365	2.3
338.736	2.37
339.108	2.34
339.479	2.2
339.851	2.48
340.222	3.01
340.593	2.11
340.964	2.57
341.336	2.15
341.707	2.25
342.078	2.13
342.449	2.16
342.82	2.26
343.191	2.47
343.562	2.19
343.933	2.08
344.303	2.13
344.674	2.17
345.045	2.02
345.416	2.54
345.786	2.25
346.157	2.16
346.527	2.07
346.898	2.03
347.268	2.37
347.639	1.94
348.009	2.14
348.38	2.2
348.75	2.3
349.12	2.39
349.49	2.21
349.861	2.18
350.231	2.21
350.601	2.18
350.971	2.2
351.341	2.28
351.711	2.4
352.081	2.27
352.45	2.16
352.82	2
353.19	2.24
353.56	2.27
353.929	2.41
354.299	2.2
354.669	2.61
355.038	2.44
355.408	2.39
355.777	2.43
356.147	2.28
356.516	2.25
356.885	2.46
357.254	2.16
357.624	2.04
357.993	2.25
358.362	2.48
358.731	2.64
359.1	2.3
359.469	2.36
359.838	2.22
360.207	2.4
360.576	2.28
360.945	2.25
361.314	2.25
361.682	2.15
362.051	2.39
362.42	2.22
362.788	2.17
363.157	2.1
363.525	2.47
363.894	2.16
364.262	2.35
364.631	2.48
364.999	2.22
365.367	2.13
365.735	1.87
366.104	2.21
366.472	2.26
366.84	2.32
367.208	2.64
367.576	2.39
367.944	2.53
368.312	2.07
368.68	2.63
369.048	2.26
369.416	2.08
369.783	2.22
370.151	2.77
370.519	2.75
370.886	2.8
371.254	2.43
371.621	2.35
371.989	2.64
372.356	2.15
372.724	2.11
373.091	2.13
373.458	2.2
373.826	2.28
374.193	2.27
374.56	2.12
374.927	2.25
375.294	2.5
375.661	2.42
376.028	2.16
376.395	2.39
376.762	1.77
377.129	2.45
377.496	2.45
377.863	2.43
378.229	2.4
378.596	2.47
378.963	2.54
379.329	2.32
379.696	2.23
380.062	2.44
380.429	2.2
380.795	2.63
381.161	2.04
381.528	1.96
381.894	2.25
382.26	2.3
382.626	2.47
382.993	2.65
383.359	2.19
383.725	2
384.091	2.39
384.457	2.34
384.823	2.54
385.188	2.42
385.554	2.52
385.92	2.25
386.286	2.31
386.651	2.2
387.017	2.63
387.383	2.36
387.748	2.69
388.114	2.58
388.479	2.26
388.845	2.27
389.21	2.55
389.575	2.59
389.94	2.52
390.306	2.55
390.671	2.31
391.036	2.4
391.401	2.52
391.766	2.4
392.131	2.59
392.496	2.3
392.861	2.33
393.226	2.34
393.591	2.46
393.956	2.45
394.32	2.59
394.685	2.56
395.05	2.53
395.414	2.35
395.779	2.49
396.143	2.12
396.508	2.18
396.872	2.29
397.236	2.73
397.601	2.7
397.965	2.36
398.329	2.35
398.694	2.19
399.058	2.34
399.422	2.35
399.786	2.34
400.15	2.33
400.514	2.52
400.878	2.42
401.242	2.45
401.605	2.26
401.969	2.29
402.333	2.34
402.697	2.47
403.06	2.42
403.424	2.39
403.787	2.51
404.151	2.49
404.514	2.45
404.878	2.36
405.241	2.3
405.604	2.39
405.968	2.45
406.331	2.63
406.694	2.48
407.057	2.41
407.42	2.2
407.783	2.4
408.146	2.37
408.509	2.44
408.872	2.37
409.235	2.46
409.598	2.56
409.961	2.66
410.323	2.4
410.686	2.55
411.049	2.5
411.411	2.3
411.774	2.56
412.136	2.37
412.499	2.55
412.861	2.13
413.223	2.35
413.586	2.2
413.948	2.48
414.31	2.64
414.672	2.53
415.035	2.71
415.397	2.21
415.759	2.27
416.121	2.6
416.483	2.52
416.845	2.41
417.206	2.45
417.568	2.43
417.93	2.46
418.292	2.3
418.653	2.23
419.015	2.3
419.377	2.35
419.738	2.44
420.1	2.36
420.461	2.24
420.822	2.39
421.184	2.27
421.545	2.43
421.906	2.4
422.267	2.31
422.629	2.38
422.99	2.4
423.351	2.36
423.712	2.38
424.073	2.42
424.434	2.58
424.795	2.35
425.155	2.24
425.516	2.31
425.877	2.39
426.238	2.37
426.598	2.53
426.959	2.45
427.32	2.37
427.68	2.3
428.041	2.53
428.401	2.32
428.761	2.53
429.122	2.44
429.482	2.46
429.842	2.33
430.202	2.52
430.563	2.53
430.923	2.45
431.283	2.37
431.643	2.71
432.003	2.42
432.363	2.51
432.722	2.46
433.082	2.52
433.442	2.58
433.802	2.5
434.161	2.49
434.521	2.49
434.881	2.46
435.24	2.41
435.6	2.54
435.959	2.55
436.319	2.46
436.678	2.49
437.037	2.55
437.396	2.5
437.756	2.43
438.115	2.45
438.474	2.6
438.833	2.42
439.192	2.34
439.551	2.47
439.91	2.55
440.269	2.46
440.628	2.52
440.987	2.6
441.345	2.54
441.704	2.46
442.063	2.49
442.421	2.46
442.78	2.44
443.138	2.53
443.497	2.34
443.855	2.63
444.214	2.35
444.572	2.71
444.93	2.46
445.288	2.49
445.647	2.42
446.005	2.45
446.363	2.43
446.721	2.52
447.079	2.49
447.437	2.5
447.795	2.53
448.153	2.5
448.51	2.5
448.868	2.45
449.226	2.46
449.584	2.47
449.941	2.44
450.299	2.41
450.656	2.54
451.014	2.64
451.371	2.73
451.729	2.54
452.086	2.56
452.443	2.57
452.801	2.55
453.158	2.73
453.515	2.55
453.872	2.58
454.229	2.41
454.586	2.47
454.943	2.54
455.3	2.52
455.657	2.44
456.014	2.53
456.371	2.77
456.727	2.68
457.084	2.89
457.441	2.7
457.797	2.62
458.154	2.68
458.51	2.41
458.867	2.61
459.223	2.49
459.58	2.68
459.936	2.5
460.292	2.63
460.648	2.43
461.005	2.51
461.361	2.54
461.717	2.53
462.073	2.53
462.429	2.55
462.785	2.68
463.141	2.64
463.496	2.72
463.852	2.73
464.208	2.7
464.564	2.61
464.919	2.68
465.275	2.53
465.631	2.77
465.986	2.81
466.342	2.47
466.697	2.6
467.052	2.72
467.408	2.84
467.763	2.56
468.118	2.55
468.473	2.7
468.829	2.63
469.184	2.7
469.539	2.58
469.894	2.74
470.249	2.6
470.603	2.79
470.958	2.8
471.313	2.81
471.668	2.76
472.023	2.7
472.377	2.55
472.732	2.83
473.086	2.73
473.441	2.65
473.795	2.73
474.15	2.6
474.504	2.69
474.859	2.52
475.213	2.74
475.567	2.71
475.921	2.72
476.275	2.81
476.63	2.81
476.984	2.48
477.338	2.9
477.692	2.72
478.045	2.66
478.399	2.74
478.753	2.61
479.107	2.74
479.461	2.74
479.814	2.72
480.168	2.68
480.521	2.78
480.875	2.72
481.228	2.72
481.582	2.72
481.935	2.87
482.289	2.66
482.642	2.75
482.995	2.62
483.348	2.63
483.701	2.72
484.055	2.63
484.408	2.63
484.761	2.58
485.114	2.48
485.466	2.47
485.819	2.5
486.172	2.58
486.525	2.57
486.878	2.62
487.23	2.64
487.583	2.66
487.936	2.63
488.288	2.6
488.641	2.62
488.993	2.58
489.345	2.57
489.698	2.64
490.05	2.57
490.402	2.64
490.754	2.65
491.107	2.65
491.459	2.76
491.811	2.73
492.163	2.71
492.515	2.65
492.866	2.6
493.218	2.6
493.57	2.67
493.922	2.71
494.274	2.8
494.625	2.8
494.977	2.81
495.328	2.86
495.68	2.8
496.031	2.78
496.383	2.77
496.734	2.79
497.086	2.78
497.437	2.92
497.788	2.98
498.139	2.78
498.49	2.82
498.842	2.85
499.193	2.69
499.544	2.84
499.894	2.78
500.245	2.93
500.596	2.84
500.947	2.82
501.298	2.81
501.648	2.89
501.999	2.83
502.35	2.82
502.7	3
503.051	2.75
503.401	3
503.752	2.81
504.102	2.89
504.452	2.84
504.803	2.81
505.153	2.97
505.503	2.87
505.853	2.99
506.203	2.9
506.553	2.96
506.903	2.96
507.253	2.93
507.603	2.93
507.953	2.95
508.303	3.02
508.652	2.78
509.002	2.95
509.352	2.93
509.701	2.85
510.051	2.98
510.4	3.03
510.75	2.86
511.099	2.82
511.449	3
511.798	2.91
512.147	2.88
512.496	2.93
512.846	2.97
513.195	2.94
513.544	3.04
513.893	2.88
514.242	2.91
514.591	2.94
514.939	3.02
515.288	3.08
515.637	3.01
515.986	2.98
516.334	3.08
516.683	3.01
517.032	3.08
517.38	2.94
517.729	3.02
518.077	2.97
518.426	3.08
518.774	3.05
519.122	3.06
519.47	2.92
519.819	3.06
520.167	2.97
520.515	3.05
520.863	2.99
521.211	3
521.559	3.12
521.907	3.02
522.255	3.08
522.602	3.1
522.95	3.09
523.298	3.13
523.645	3.13
523.993	3.13
524.341	3.17
524.688	3.17
525.036	3.05
525.383	3.11
525.73	3.04
526.078	3.27
526.425	3.04
526.772	3.05
527.119	3.12
527.466	3.16
527.814	3.08
528.161	3.16
528.508	3.19
528.854	3.09
529.201	3.04
529.548	3.03
529.895	2.99
530.242	2.94
530.588	3
530.935	3.04
531.282	3.04
531.628	3.11
531.975	3.1
532.321	3.18
532.667	3.21
533.014	3.23
533.36	3.15
533.706	3.26
534.052	3.27
534.399	3.12
534.745	3.13
535.091	3.09
535.437	3.13
535.783	3.14
536.129	3.19
536.474	3.27
536.82	3.35
537.166	3.13
537.512	3.31
537.857	3.23
538.203	3.25
538.549	3.18
538.894	3.33
539.239	3.31
539.585	3.34
539.93	3.41
540.276	3.48
540.621	3.28
540.966	3.48
541.311	3.45
541.656	3.33
542.001	3.28
542.346	3.24
542.691	3.23
543.036	3.21
543.381	3.27
543.726	3.35
544.071	3.37
544.415	3.38
544.76	3.34
545.105	3.38
545.449	3.47
545.794	3.45
546.138	3.53
546.483	3.43
546.827	3.55
547.171	3.52
547.516	3.49
547.86	3.42
548.204	3.52
548.548	3.43
548.892	3.54
549.236	3.53
549.58	3.57
549.924	3.64
550.268	3.71
550.612	3.59
550.956	3.72
551.3	3.86
551.643	3.76
551.987	3.85
552.33	3.8
552.674	3.75
553.017	3.71
553.361	3.83
553.704	3.76
554.048	3.61
554.391	3.67
554.734	3.64
555.077	3.82
555.42	3.69
555.764	3.77
556.107	3.86
556.45	3.79
556.793	3.9
557.135	3.87
557.478	3.87
557.821	3.85
558.164	3.94
558.507	3.83
558.849	4.06
559.192	3.99
559.534	3.86
559.877	3.91
560.219	3.85
560.562	3.95
560.904	4.16
561.246	3.85
561.589	4.16
561.931	3.92
562.273	3.95
562.615	3.94
562.957	3.93
563.299	3.95
563.641	4.03
563.983	3.94
564.325	4.18
564.667	3.89
565.008	3.88
565.35	3.93
565.692	4.04
566.033	4
566.375	4.2
566.716	3.99
567.058	4
567.399	4.19
567.741	4.23
568.082	4.21
568.423	4.07
568.764	4.19
569.105	4.11
569.447	4.19
569.788	4.22
570.129	4.25
570.47	4.2
570.811	4
571.151	4.23
571.492	4.21
571.833	4.22
572.174	4.4
572.514	4.36
572.855	4.34
573.195	4.25
573.536	4.35
573.876	4.22
574.217	4.24
574.557	4.4
574.898	4.4
575.238	4.44
575.578	4.36
575.918	4.57
576.258	4.61
576.598	4.29
576.938	4.39
577.278	4.58
577.618	4.56
577.958	4.57
578.298	4.61
578.638	4.51
578.977	4.63
579.317	4.52
579.657	4.49
579.996	4.66
580.336	4.64
580.675	4.5
581.014	4.75
581.354	4.65
581.693	4.78
582.032	4.83
582.372	4.93
582.711	4.78
583.05	4.99
583.389	4.84
583.728	5.06
584.067	4.87
584.406	5.13
584.745	4.82
585.083	4.85
585.422	4.99
585.761	4.96
586.1	5
586.438	4.84
586.777	5
587.115	5.14
587.454	4.89
587.792	4.98
588.13	5.02
588.469	4.99
588.807	5.24
589.145	5.29
589.483	4.97
589.821	5.04
590.159	5.13
590.497	5.04
590.835	5.21
591.173	5.29
591.511	5.37
591.849	5.1
592.187	4.88
592.524	5.29
592.862	5.06
593.2	5.45
593.537	5.18
593.875	5.35
594.212	5.26
594.55	5.31
594.887	5.4
595.224	5.14
595.561	5.43
595.899	5.47
596.236	5.56
596.573	5.04
596.91	5.4
597.247	5.65
597.584	5.43
597.921	5.45
598.258	5.55
598.594	5.25
598.931	5.2
599.268	5.39
599.604	5.6
599.941	5.49
600.277	5.7
600.614	5.7
600.95	5.57
601.287	5.51
601.623	5.65
601.959	5.87
602.296	5.69
602.632	5.74
602.968	5.68
603.304	5.5
603.64	5.87
603.976	5.65
604.312	5.75
604.648	5.64
604.984	5.73
605.319	5.77
605.655	5.84
605.991	5.69
606.326	5.71
606.662	5.59
606.998	5.79
607.333	5.79
607.668	5.88
608.004	5.89
608.339	5.88
608.674	6.07
609.01	6.11
609.345	5.92
609.68	5.86
610.015	6.22
610.35	6.16
610.685	5.87
611.02	5.95
611.355	6.17
611.689	6.17
612.024	6.26
612.359	6.35
612.694	6.4
613.028	6.13
613.363	6.42
613.697	6.4
614.032	6.38
614.366	6.52
614.7	6.46
615.035	6.34
615.369	6.45
615.703	6.41
616.037	6.47
616.371	6.28
616.705	6.53
617.039	6.31
617.373	6.59
617.707	6.35
618.041	6.23
618.375	6.06
618.709	6.71
619.042	6.7
619.376	6.58
619.71	6.53
620.043	6.52
620.377	6.75
620.71	6.61
621.043	6.99
621.377	7.15
621.71	7.06
622.043	7.12
622.376	6.98
622.709	7.17
623.043	6.98
623.376	6.62
623.709	7.09
624.041	7.1
624.374	6.72
624.707	7.24
625.04	7.16
625.373	7.13
625.705	7.25
626.038	7
626.37	7.06
626.703	7.2
627.035	6.98
627.368	7.3
627.7	7.14
628.032	7.18
628.365	7.39
628.697	7.27
629.029	7
629.361	7.59
629.693	7.37
630.025	7.58
630.357	7.33
630.689	7.56
631.021	7.54
631.353	7.65
631.684	7.25
632.016	7.07
632.348	7.25
632.679	7.6
633.011	7.16
633.342	7.66
633.674	7.42
634.005	7.54
634.336	7.79
634.668	7.43
634.999	7.55
635.33	7.58
635.661	7.67
635.992	7.63
636.323	7.65
636.654	7.65
636.985	7.55
637.316	7.91
637.647	7.91
637.977	7.81
638.308	8.03
638.639	7.74
638.969	7.87
639.3	7.67
639.63	8.11
639.961	8.23
640.291	7.99
640.622	8.32
640.952	8.24
641.282	7.98
641.612	8.16
641.943	7.69
642.273	8.41
642.603	8.46
642.933	8.62
643.263	8.32
643.592	8.15
643.922	8.26
644.252	8.49
644.582	8.44
644.911	8.24
645.241	8.28
645.571	8.5
645.9	8.35
646.23	8.5
646.559	8.19
646.888	8.53
647.218	8.39
647.547	8.27
647.876	8.56
648.205	8.52
648.534	8.97
648.863	8.76
649.192	9.08
649.521	8.57
649.85	9.11
650.179	8.89
650.508	8.87
650.837	8.98
651.165	8.78
651.494	9.11
651.822	8.97
652.151	8.49
652.479	9.03
652.808	8.98
653.136	8.73
653.465	9
653.793	8.79
654.121	9.3
654.449	8.99
654.777	8.84
655.105	8.94
655.433	9.33
655.761	9.23
656.089	9.31
656.417	9.64
656.745	9.89
657.073	9.57
657.4	9.14
657.728	9.39
658.056	9.16
658.383	8.89
658.711	9.37
659.038	9.58
659.365	9.76
659.693	9.31
660.02	9.3
660.347	9.6
660.674	9.22
661.001	9.44
661.329	9.32
661.656	9.32
661.982	9.26
662.309	9.32
662.636	9.34
662.963	9.45
663.29	9.53
663.616	9.56
663.943	9.97
664.27	9.54
664.596	10
664.923	10.11
665.249	10.22
665.576	9.98
665.902	9.78
666.228	10.33
666.554	10.68
666.881	9.84
667.207	10.1
667.533	10.27
667.859	9.98
668.185	10.06
668.511	10.64
668.837	10.05
669.162	10.06
669.488	9.46
669.814	10.72
670.139	9.69
670.465	10.77
670.791	10.06
671.116	10.11
671.442	10.03
671.767	10.6
672.092	10.48
672.418	10.56
672.743	10.21
673.068	10.49
673.393	10.83
673.718	9.72
674.043	10.37
674.368	10.28
674.693	11.07
675.018	10.99
675.343	10.82
675.667	10.9
675.992	10.58
676.317	10.02
676.641	10.68
676.966	10.83
677.29	10.51
677.615	10.41
677.939	11.18
678.264	10.66
678.588	10.48
678.912	11.09
679.236	10.73
679.56	10.51
679.885	11.25
680.209	11.39
680.532	12.25
680.856	11.31
681.18	11.3
681.504	11.07
681.828	10.84
682.152	11.08
682.475	11.25
682.799	11.3
683.122	11.51
683.446	11.33
683.769	11.6
684.093	11.94
684.416	10.8
684.739	11.74
685.062	11.37
685.386	11.46
685.709	11.35
686.032	11.62
686.355	11.13
686.678	12.04
687.001	12.11
687.324	12.22
687.646	11.86
687.969	11.91
688.292	11.49
688.614	12.21
688.937	12.1
689.26	11.74
689.582	11.76
689.904	12.07
690.227	11.93
690.549	11.8
690.871	12.19
