Data from 0284_chest_Reflection__4__234.txt Node

Date: Fri Oct 20 22:33:43 CDT 2023
User: ToomeyLab
Spectrometer: FLMS14357
Trigger mode: 0
Integration Time (sec): 1.000000E-2
Scans to average: 100
Electric dark correction enabled: true
Nonlinearity correction enabled: false
Boxcar width: 0
XAxis mode: Wavelengths
Number of Pixels in Spectrum: 2048
>>>>>Begin Spectral Data<<<<<
189.047	100.05
189.435	100.05
189.823	100.05
190.211	-180.89
190.599	-48644.44
190.987	63.03
191.375	-18.45
191.763	-124.59
192.151	24.99
192.538	141.14
192.926	18.56
193.314	94.44
193.702	177.62
194.089	214.94
194.477	66.67
194.864	1787.1
195.252	166.92
195.639	45.31
196.027	222.31
196.414	165.68
196.801	201.4
197.189	48.46
197.576	276.99
197.963	189.06
198.351	68.1
198.738	20.44
199.125	30.38
199.512	66.41
199.899	29.51
200.286	27.46
200.673	14.67
201.06	33.22
201.447	69.23
201.833	37.69
202.22	54.17
202.607	30.07
202.994	27.61
203.38	45.6
203.767	0.57
204.154	94.25
204.54	39.49
204.927	6.43
205.313	35.26
205.699	45.15
206.086	50.22
206.472	43.72
206.858	66.7
207.245	20.27
207.631	27.31
208.017	34.92
208.403	21.23
208.789	53.85
209.175	37.75
209.561	31.86
209.947	16.67
210.333	33.64
210.719	55.16
211.105	43.91
211.491	14.95
211.876	66.82
212.262	33.4
212.648	42.97
213.034	-7.31
213.419	20.34
213.805	30.03
214.19	9.24
214.576	14.06
214.961	21.11
215.346	30.4
215.732	13.92
216.117	-22.47
216.502	14.91
216.888	6.91
217.273	-8.99
217.658	19.4
218.043	17.71
218.428	22.04
218.813	13.24
219.198	9.56
219.583	11.58
219.968	2.93
220.353	42.62
220.738	9.07
221.122	16.12
221.507	9.66
221.892	1.88
222.276	-1.3
222.661	20.51
223.046	17.2
223.43	21.51
223.815	26.31
224.199	20.17
224.583	2.02
224.968	4.54
225.352	7.49
225.736	5.94
226.121	10.79
226.505	4.88
226.889	7.14
227.273	7.82
227.657	8.18
228.041	14.11
228.425	8.29
228.809	9.88
229.193	7.28
229.577	7.46
229.961	5.24
230.344	5.08
230.728	5.45
231.112	5.72
231.495	4.57
231.879	6.17
232.263	6.26
232.646	3.76
233.03	5.41
233.413	6.12
233.797	5.97
234.18	5.34
234.563	6.73
234.946	8.28
235.33	6.07
235.713	5.66
236.096	6.82
236.479	6.26
236.862	4.63
237.245	4.61
237.628	5.9
238.011	6.1
238.394	4.53
238.777	6.79
239.16	7.35
239.543	8.39
239.925	7.12
240.308	5.26
240.691	4.7
241.073	5.35
241.456	5.66
241.838	5.94
242.221	7
242.603	5.42
242.986	5.77
243.368	5.97
243.75	5.57
244.133	4.69
244.515	4.78
244.897	4.78
245.279	5.08
245.661	4.55
246.043	5.07
246.425	4.8
246.807	5.33
247.189	4.88
247.571	5.13
247.953	4.71
248.335	5.31
248.717	4.51
249.098	4.66
249.48	4.55
249.862	4.88
250.243	4.85
250.625	5
251.006	4.86
251.388	4.72
251.769	4.79
252.151	4.28
252.532	5.74
252.913	4.13
253.295	4.44
253.676	5.54
254.057	4.77
254.438	4.8
254.819	5.24
255.2	4.81
255.581	3.82
255.962	5.13
256.343	4.89
256.724	4.43
257.105	4.47
257.486	5.02
257.867	4.39
258.247	5.16
258.628	4.97
259.009	5.25
259.389	4.55
259.77	4.53
260.15	5.13
260.531	5.34
260.911	5.13
261.292	4.78
261.672	4.67
262.052	4.46
262.432	4.6
262.813	4.36
263.193	4.87
263.573	4.95
263.953	5.56
264.333	4.8
264.713	5.09
265.093	5.37
265.473	5.08
265.853	5.26
266.233	5.15
266.612	5.49
266.992	4.74
267.372	4.53
267.752	4.32
268.131	4.3
268.511	4.92
268.89	4.54
269.27	4.72
269.649	3.92
270.029	4.49
270.408	4.51
270.787	4.59
271.167	4.91
271.546	4.71
271.925	5.1
272.304	4.99
272.683	4.88
273.062	4.51
273.441	4.52
273.82	4.39
274.199	4.72
274.578	4.59
274.957	4.79
275.336	4.84
275.715	4.52
276.093	4.57
276.472	4.64
276.851	3.88
277.229	4.2
277.608	3.94
277.986	4.25
278.365	5.17
278.743	4.43
279.122	4.51
279.5	4.49
279.878	4.42
280.257	4.36
280.635	4.24
281.013	4.46
281.391	5.16
281.769	4.28
282.147	3.94
282.525	3.77
282.903	4.31
283.281	4.29
283.659	4.79
284.037	4.17
284.415	3.8
284.792	4.49
285.17	4.72
285.548	4.21
285.925	4.24
286.303	3.63
286.68	4.26
287.058	4.67
287.435	4.5
287.813	3.74
288.19	4.37
288.567	4.47
288.945	4.44
289.322	4.52
289.699	4.15
290.076	4.93
290.453	4.92
290.83	3.97
291.207	4.72
291.584	4.51
291.961	4.33
292.338	4.46
292.715	4.37
293.092	4.33
293.469	5.02
293.845	4.32
294.222	4.54
294.599	4.29
294.975	5.48
295.352	4.71
295.728	4.5
296.105	4.88
296.481	5.24
296.858	4.49
297.234	4.77
297.61	4.63
297.986	4.66
298.363	4.61
298.739	4.88
299.115	4.57
299.491	4.42
299.867	4.72
300.243	4.41
300.619	4.53
300.995	4.57
301.371	5.12
301.746	4.48
302.122	5.08
302.498	4.12
302.874	5.19
303.249	4.68
303.625	4.85
304	5.23
304.376	4.82
304.751	4.75
305.127	4.54
305.502	5.11
305.878	4.78
306.253	4.96
306.628	5.24
307.003	4.96
307.378	4.9
307.754	5.03
308.129	4.94
308.504	5.7
308.879	5.22
309.254	5.47
309.629	4.88
310.003	4.59
310.378	4.77
310.753	4.79
311.128	5.1
311.502	4.63
311.877	4.86
312.252	4.82
312.626	5.47
313.001	4.7
313.375	4.86
313.75	4.97
314.124	4.56
314.498	4.92
314.873	4.62
315.247	5.16
315.621	5.08
315.995	4.73
316.369	4.58
316.743	4.6
317.117	5.07
317.491	4.74
317.865	4.95
318.239	5.2
318.613	5.09
318.987	4.88
319.361	4.44
319.734	4.79
320.108	4.82
320.482	5.64
320.855	5.1
321.229	5.33
321.602	5.08
321.976	5.13
322.349	5.2
322.723	4.98
323.096	5.12
323.469	5.18
323.843	5.24
324.216	5.1
324.589	4.82
324.962	5.6
325.335	5.36
325.708	4.8
326.081	5.19
326.454	5.39
326.827	5.13
327.2	5.27
327.573	5.49
327.945	4.95
328.318	4.5
328.691	5.29
329.063	5.42
329.436	4.93
329.809	5.16
330.181	4.97
330.553	5.58
330.926	5
331.298	4.73
331.671	5
332.043	4.85
332.415	5.01
332.787	5.42
333.159	4.77
333.532	5.28
333.904	5.04
334.276	4.96
334.648	5.12
335.02	5.14
335.391	5.25
335.763	5.08
336.135	5.47
336.507	4.99
336.879	4.7
337.25	5.26
337.622	5.28
337.993	5.42
338.365	5.16
338.736	5.47
339.108	5.3
339.479	4.93
339.851	5.52
340.222	4.96
340.593	4.75
340.964	4.97
341.336	5.7
341.707	5.17
342.078	4.9
342.449	4.89
342.82	4.77
343.191	4.95
343.562	5.13
343.933	4.94
344.303	4.94
344.674	4.93
345.045	5.27
345.416	5.47
345.786	4.82
346.157	4.71
346.527	5.24
346.898	5.05
347.268	5.18
347.639	5.18
348.009	4.92
348.38	5.24
348.75	5.25
349.12	4.85
349.49	5.29
349.861	5.16
350.231	4.86
350.601	4.65
350.971	5.51
351.341	5.15
351.711	5.35
352.081	5.34
352.45	5.4
352.82	5.01
353.19	5.47
353.56	5.04
353.929	5.25
354.299	5.04
354.669	4.72
355.038	5.48
355.408	5.72
355.777	5.11
356.147	4.99
356.516	4.8
356.885	4.76
357.254	5.1
357.624	5.35
357.993	5.07
358.362	5.01
358.731	4.4
359.1	4.88
359.469	4.9
359.838	5.23
360.207	4.99
360.576	5.4
360.945	5.03
361.314	5.05
361.682	4.97
362.051	5.13
362.42	5.09
362.788	5.21
363.157	5.4
363.525	4.98
363.894	5.09
364.262	4.75
364.631	5.1
364.999	5.07
365.367	5.26
365.735	5.08
366.104	4.74
366.472	5.29
366.84	5.04
367.208	4.89
367.576	5
367.944	5.04
368.312	5.05
368.68	5.07
369.048	4.92
369.416	5.32
369.783	5.25
370.151	4.9
370.519	5.1
370.886	5.67
371.254	5.72
371.621	5.5
371.989	5.35
372.356	4.89
372.724	5.53
373.091	5
373.458	4.93
373.826	5.03
374.193	5.22
374.56	5.1
374.927	5.17
375.294	5.21
375.661	4.86
376.028	5.51
376.395	5.21
376.762	5.11
377.129	5.02
377.496	5.16
377.863	5.43
378.229	5.53
378.596	5.31
378.963	5.22
379.329	5.58
379.696	5.42
380.062	5.02
380.429	5.2
380.795	5.11
381.161	5.27
381.528	5.53
381.894	5.15
382.26	5.42
382.626	5.57
382.993	5.05
383.359	5.15
383.725	5.25
384.091	5.09
384.457	5.25
384.823	5.29
385.188	5.54
385.554	5.05
385.92	5.24
386.286	5.43
386.651	4.97
387.017	5.39
387.383	5.14
387.748	5.06
388.114	4.87
388.479	5.09
388.845	5.49
389.21	5.34
389.575	5.17
389.94	5.15
390.306	5.07
390.671	5.21
391.036	5.26
391.401	5.24
391.766	5.2
392.131	5.37
392.496	5.3
392.861	5.32
393.226	5.41
393.591	5.34
393.956	5.36
394.32	5.39
394.685	5.11
395.05	5.32
395.414	5.49
395.779	4.9
396.143	5.2
396.508	5.24
396.872	5.21
397.236	5.36
397.601	5.28
397.965	5.14
398.329	5.19
398.694	5.33
399.058	5.28
399.422	5.34
399.786	5.35
400.15	5.34
400.514	5.09
400.878	5.33
401.242	5.22
401.605	5.42
401.969	5.06
402.333	5.49
402.697	5.28
403.06	5.25
403.424	5.5
403.787	5.21
404.151	5.2
404.514	5.54
404.878	5.37
405.241	5.37
405.604	5.35
405.968	5.4
406.331	5.12
406.694	5.2
407.057	5.34
407.42	5.26
407.783	5.22
408.146	5.16
408.509	5.38
408.872	5.36
409.235	5.18
409.598	5.48
409.961	5.4
410.323	5.32
410.686	5.18
411.049	5.54
411.411	5.44
411.774	5.33
412.136	5.55
412.499	5.54
412.861	5.4
413.223	5.43
413.586	5.69
413.948	5.39
414.31	5.52
414.672	5.41
415.035	5.43
415.397	5.48
415.759	5.41
416.121	5.7
416.483	5.63
416.845	5.41
417.206	5.46
417.568	5.57
417.93	5.56
418.292	5.05
418.653	5.54
419.015	5.44
419.377	5.33
419.738	5.25
420.1	5.3
420.461	5.15
420.822	5.18
421.184	5.34
421.545	5.23
421.906	5.31
422.267	5.24
422.629	5.29
422.99	5.22
423.351	5.22
423.712	5.25
424.073	5.31
424.434	5.22
424.795	5.24
425.155	5.29
425.516	5.24
425.877	5.22
426.238	5.3
426.598	5.29
426.959	5.27
427.32	5.31
427.68	5.34
428.041	5.37
428.401	5.4
428.761	5.34
429.122	5.42
429.482	5.42
429.842	5.27
430.202	5.39
430.563	5.55
430.923	5.62
431.283	5.33
431.643	5.37
432.003	5.45
432.363	5.48
432.722	5.5
433.082	5.34
433.442	5.35
433.802	5.56
434.161	5.35
434.521	5.46
434.881	5.43
435.24	5.46
435.6	5.38
435.959	5.46
436.319	5.44
436.678	5.63
437.037	5.39
437.396	5.52
437.756	5.58
438.115	5.35
438.474	5.47
438.833	5.53
439.192	5.31
439.551	5.45
439.91	5.44
440.269	5.66
440.628	5.61
440.987	5.49
441.345	5.47
441.704	5.58
442.063	5.47
442.421	5.46
442.78	5.43
443.138	5.56
443.497	5.67
443.855	5.55
444.214	5.56
444.572	5.4
444.93	5.68
445.288	5.67
445.647	5.73
446.005	5.36
446.363	5.39
446.721	5.41
447.079	5.57
447.437	5.64
447.795	5.42
448.153	5.49
448.51	5.36
448.868	5.36
449.226	5.4
449.584	5.42
449.941	5.43
450.299	5.5
450.656	5.42
451.014	5.57
451.371	5.52
451.729	5.54
452.086	5.51
452.443	5.7
452.801	5.49
453.158	5.68
453.515	5.68
453.872	5.57
454.229	5.73
454.586	5.66
454.943	5.58
455.3	5.61
455.657	5.74
456.014	5.43
456.371	5.6
456.727	5.48
457.084	5.65
457.441	5.64
457.797	5.68
458.154	5.7
458.51	5.59
458.867	5.7
459.223	5.63
459.58	5.8
459.936	5.83
460.292	5.72
460.648	5.57
461.005	5.68
461.361	5.5
461.717	5.45
462.073	5.54
462.429	5.56
462.785	5.56
463.141	5.69
463.496	5.58
463.852	5.86
464.208	5.89
464.564	5.76
464.919	5.65
465.275	5.89
465.631	5.78
465.986	5.78
466.342	5.81
466.697	5.6
467.052	5.69
467.408	5.76
467.763	5.77
468.118	5.95
468.473	5.88
468.829	5.79
469.184	5.75
469.539	5.72
469.894	5.78
470.249	5.76
470.603	5.71
470.958	5.77
471.313	5.85
471.668	6
472.023	5.86
472.377	5.72
472.732	5.76
473.086	5.83
473.441	5.96
473.795	6
474.15	5.89
474.504	5.72
474.859	5.91
475.213	5.96
475.567	5.94
475.921	5.91
476.275	6.03
476.63	6.04
476.984	6.06
477.338	5.99
477.692	5.95
478.045	5.97
478.399	5.93
478.753	5.85
479.107	5.78
479.461	5.84
479.814	5.98
480.168	5.91
480.521	5.97
480.875	5.91
481.228	6.02
481.582	5.92
481.935	5.99
482.289	5.9
482.642	5.94
482.995	5.79
483.348	5.95
483.701	5.84
484.055	5.85
484.408	5.83
484.761	5.91
485.114	5.66
485.466	5.65
485.819	5.61
486.172	5.58
486.525	5.55
486.878	5.56
487.23	5.66
487.583	5.66
487.936	5.77
488.288	5.82
488.641	5.81
488.993	5.77
489.345	5.74
489.698	5.68
490.05	5.66
490.402	5.71
490.754	5.73
491.107	5.79
491.459	5.85
491.811	5.91
492.163	5.92
492.515	5.99
492.866	6
493.218	5.84
493.57	5.83
493.922	5.82
494.274	5.81
494.625	5.76
494.977	5.86
495.328	5.93
495.68	6.11
496.031	5.96
496.383	6.03
496.734	6.05
497.086	6.14
497.437	6.18
497.788	6.04
498.139	6.2
498.49	6.16
498.842	5.95
499.193	6.09
499.544	6.08
499.894	6.2
500.245	6.06
500.596	6.23
500.947	6.16
501.298	6.13
501.648	6.2
501.999	6.29
502.35	6.31
502.7	6.31
503.051	6.39
503.401	6.31
503.752	6.2
504.102	6.36
504.452	6.21
504.803	6.31
505.153	6.44
505.503	6.31
505.853	6.41
506.203	6.27
506.553	6.28
506.903	6.38
507.253	6.41
507.603	6.34
507.953	6.37
508.303	6.43
508.652	6.37
509.002	6.39
509.352	6.32
509.701	6.36
510.051	6.46
510.4	6.39
510.75	6.43
511.099	6.55
511.449	6.4
511.798	6.36
512.147	6.38
512.496	6.47
512.846	6.37
513.195	6.45
513.544	6.46
513.893	6.43
514.242	6.44
514.591	6.42
514.939	6.42
515.288	6.39
515.637	6.49
515.986	6.51
516.334	6.57
516.683	6.61
517.032	6.42
517.38	6.46
517.729	6.6
518.077	6.53
518.426	6.55
518.774	6.48
519.122	6.6
519.47	6.61
519.819	6.56
520.167	6.48
520.515	6.51
520.863	6.59
521.211	6.54
521.559	6.64
521.907	6.59
522.255	6.57
522.602	6.76
522.95	6.68
523.298	6.62
523.645	6.66
523.993	6.6
524.341	6.74
524.688	6.77
525.036	6.88
525.383	6.66
525.73	6.92
526.078	6.8
526.425	6.89
526.772	6.87
527.119	6.74
527.466	6.66
527.814	6.7
528.161	6.69
528.508	6.71
528.854	6.71
529.201	6.72
529.548	6.77
529.895	6.72
530.242	6.65
530.588	6.61
530.935	6.59
531.282	6.64
531.628	6.66
531.975	6.63
532.321	6.76
532.667	6.75
533.014	6.86
533.36	6.92
533.706	6.94
534.052	6.96
534.399	6.88
534.745	6.8
535.091	6.93
535.437	6.89
535.783	6.91
536.129	6.9
536.474	6.92
536.82	7.07
537.166	6.94
537.512	7.08
537.857	7.18
538.203	7.18
538.549	7.25
538.894	7.13
539.239	7.17
539.585	7.11
539.93	7.13
540.276	7.39
540.621	7.34
540.966	7.32
541.311	7.39
541.656	7.33
542.001	7.43
542.346	7.31
542.691	7.22
543.036	7.28
543.381	7.19
543.726	7.12
544.071	7.23
544.415	7.2
544.76	7.19
545.105	7.37
545.449	7.32
545.794	7.44
546.138	7.4
546.483	7.5
546.827	7.59
547.171	7.65
547.516	7.59
547.86	7.59
548.204	7.59
548.548	7.6
548.892	7.63
549.236	7.62
549.58	7.53
549.924	7.6
550.268	7.76
550.612	7.75
550.956	7.8
551.3	7.87
551.643	7.96
551.987	8.1
552.33	7.97
552.674	7.9
553.017	7.95
553.361	7.97
553.704	7.93
554.048	7.91
554.391	8.16
554.734	8.1
555.077	8.11
555.42	7.92
555.764	8.07
556.107	8.41
556.45	8.14
556.793	8.08
557.135	8.09
557.478	8.18
557.821	8.16
558.164	8.24
558.507	8.35
558.849	8.47
559.192	8.49
559.534	8.56
559.877	8.12
560.219	8.51
560.562	8.53
560.904	8.23
561.246	8.5
561.589	8.32
561.931	8.67
562.273	8.65
562.615	8.65
562.957	8.74
563.299	8.59
563.641	8.63
563.983	8.62
564.325	8.58
564.667	8.74
565.008	8.6
565.35	8.9
565.692	8.85
566.033	8.93
566.375	8.68
566.716	8.94
567.058	8.82
567.399	8.83
567.741	8.74
568.082	8.79
568.423	9
568.764	8.82
569.105	8.9
569.447	8.88
569.788	8.96
570.129	9
570.47	9.24
570.811	9.24
571.151	9.05
571.492	9.21
571.833	9.27
572.174	9.36
572.514	9.21
572.855	9.26
573.195	9.32
573.536	9.32
573.876	9.36
574.217	9.29
574.557	9.26
574.898	9.33
575.238	9.26
575.578	9.4
575.918	9.23
576.258	9.55
576.598	9.55
576.938	9.5
577.278	9.47
577.618	9.5
577.958	9.56
578.298	9.64
578.638	9.72
578.977	9.6
579.317	9.65
579.657	9.81
579.996	9.83
580.336	9.84
580.675	9.8
581.014	9.88
581.354	10.04
581.693	10.07
582.032	10.18
582.372	10
582.711	10.24
583.05	10.61
583.389	10.16
583.728	10.23
584.067	10.18
584.406	10.44
584.745	10.13
585.083	10.4
585.422	10.41
585.761	10.28
586.1	10.18
586.438	10.12
586.777	10.59
587.115	10.4
587.454	10.59
587.792	10.49
588.13	10.55
588.469	10.71
588.807	10.35
589.145	10.67
589.483	10.63
589.821	10.43
590.159	10.85
590.497	10.78
590.835	10.7
591.173	10.91
591.511	10.84
591.849	10.58
592.187	10.88
592.524	10.64
592.862	10.96
593.2	11
593.537	10.62
593.875	10.88
594.212	11.09
594.55	11.2
594.887	11.05
595.224	11.11
595.561	10.94
595.899	10.97
596.236	11.36
596.573	11.45
596.91	11.46
597.247	11.4
597.584	11.23
597.921	11.42
598.258	11.45
598.594	11.46
598.931	11.3
599.268	11.38
599.604	11.56
599.941	11.51
600.277	11.61
600.614	11.66
600.95	11.61
601.287	11.62
601.623	11.87
601.959	11.9
602.296	11.86
602.632	11.7
602.968	11.57
603.304	12.04
603.64	11.42
603.976	11.81
604.312	12.05
604.648	12.04
604.984	12.31
605.319	12.08
605.655	11.92
605.991	12.18
606.326	12.12
606.662	11.95
606.998	12.01
607.333	12.12
607.668	12.16
608.004	11.94
608.339	12.3
608.674	12.54
609.01	12.25
609.345	12.49
609.68	12.56
610.015	12.46
610.35	12.62
610.685	12.58
611.02	12.55
611.355	12.6
611.689	12.6
612.024	12.69
612.359	12.79
612.694	12.59
613.028	12.84
613.363	12.82
613.697	12.93
614.032	13.04
614.366	13.17
614.7	12.88
615.035	13.02
615.369	13.05
615.703	12.82
616.037	13.3
616.371	13.53
616.705	13.28
617.039	13.14
617.373	13.23
617.707	13.66
618.041	13.46
618.375	13.17
618.709	13.46
619.042	13.36
619.376	13.77
619.71	13.48
620.043	13.73
620.377	13.4
620.71	13.68
621.043	13.88
621.377	13.56
621.71	13.9
622.043	13.72
622.376	13.75
622.709	14.12
623.043	14.05
623.376	13.83
623.709	13.89
624.041	13.93
624.374	14.23
624.707	13.86
625.04	14.09
625.373	14.24
625.705	13.9
626.038	14.33
626.37	13.73
626.703	13.82
627.035	14.19
627.368	14.14
627.7	14.61
628.032	14.11
628.365	14.52
628.697	14.36
629.029	14.52
629.361	14.34
629.693	14.48
630.025	14.31
630.357	14.38
630.689	14.65
631.021	14.86
631.353	14.74
631.684	14.65
632.016	15.03
632.348	15.03
632.679	14.82
633.011	15.09
633.342	14.85
633.674	14.8
634.005	15.11
634.336	15.46
634.668	14.84
634.999	15.18
635.33	14.72
635.661	15.51
635.992	15.03
636.323	15.25
636.654	15.23
636.985	15.12
637.316	15.31
637.647	15.56
637.977	15.05
638.308	15.36
638.639	15.56
638.969	15.74
639.3	15.24
639.63	15.55
639.961	15.61
640.291	15.39
640.622	15.42
640.952	15.78
641.282	15.54
641.612	15.71
641.943	15.96
642.273	15.71
642.603	16.1
642.933	15.95
643.263	16.49
643.592	15.6
643.922	16.55
644.252	15.87
644.582	16.07
644.911	16.35
645.241	16.85
645.571	16.69
645.9	16.03
646.23	16.48
646.559	16.69
646.888	16.44
647.218	16.46
647.547	16.67
647.876	17.24
648.205	16.2
648.534	16.49
648.863	17.08
649.192	16.52
649.521	16.78
649.85	16.71
650.179	16.84
650.508	16.9
650.837	17.18
651.165	17.06
651.494	16.23
651.822	17.01
652.151	16.92
652.479	17.26
652.808	17
653.136	16.81
653.465	17.04
653.793	17.25
654.121	17.1
654.449	17.07
654.777	16.65
655.105	16.89
655.433	17.53
655.761	17.47
656.089	17.37
656.417	17.09
656.745	17.38
657.073	17.9
657.4	17.88
657.728	18.14
658.056	17.11
658.383	17.58
658.711	17.35
659.038	18.08
659.365	18.05
659.693	17.79
660.02	17.79
660.347	18.08
660.674	17.77
661.001	17.86
661.329	17.67
661.656	18.36
661.982	17.86
662.309	17.83
662.636	18
662.963	18.11
663.29	18.42
663.616	17.83
663.943	17.79
664.27	18.36
664.596	18.28
664.923	17.59
665.249	18.1
665.576	18.11
665.902	18.34
666.228	18.86
666.554	18.86
666.881	18.42
667.207	19.16
667.533	18.5
667.859	19.35
668.185	19.79
668.511	19.45
668.837	19.11
669.162	19.25
669.488	18.94
669.814	18.48
670.139	18.81
670.465	18.98
670.791	19.09
671.116	18.95
671.442	19.57
671.767	19.28
672.092	19.53
672.418	19.18
672.743	19.27
673.068	19.6
673.393	19.19
673.718	19.55
674.043	19.81
674.368	19.58
674.693	19.86
675.018	20.11
675.343	19.21
675.667	19.73
675.992	19.63
676.317	19.55
676.641	20.01
676.966	19.88
677.29	19.71
677.615	19.93
677.939	19.27
678.264	19.56
678.588	19.21
678.912	20.4
679.236	20.22
679.56	19.79
679.885	20.02
680.209	20.6
680.532	20.31
680.856	19.64
681.18	21.17
681.504	20.34
681.828	20.76
682.152	20.72
682.475	20.53
682.799	20.83
683.122	20.32
683.446	20.38
683.769	20.62
684.093	20.23
684.416	20.62
684.739	20.14
685.062	19.9
685.386	20.84
685.709	20.77
686.032	20.53
