Data from 0284_crown_Reflection__3__239.txt Node

Date: Fri Oct 20 22:35:21 CDT 2023
User: ToomeyLab
Spectrometer: FLMS14357
Trigger mode: 0
Integration Time (sec): 1.000000E-2
Scans to average: 100
Electric dark correction enabled: true
Nonlinearity correction enabled: false
Boxcar width: 0
XAxis mode: Wavelengths
Number of Pixels in Spectrum: 2048
>>>>>Begin Spectral Data<<<<<
189.047	48.78
189.435	48.78
189.823	48.78
190.211	-60.95
190.599	-22266.67
190.987	47.03
191.375	10.96
191.763	-223.61
192.151	-72.6
192.538	17.2
192.926	43.73
193.314	105.11
193.702	289.88
194.089	347.99
194.477	-100.4
194.864	718.28
195.252	39.49
195.639	46.56
196.027	194.9
196.414	219.77
196.801	204.05
197.189	-41.35
197.576	183.58
197.963	78.71
198.351	56.66
198.738	31.23
199.125	26.63
199.512	27.89
199.899	9.68
200.286	-1.47
200.673	47.69
201.06	27.74
201.447	39.57
201.833	54.23
202.22	8.4
202.607	55.18
202.994	20.03
203.38	6.74
203.767	-1.5
204.154	80.28
204.54	39.87
204.927	-1.84
205.313	17.48
205.699	33.85
206.086	33.15
206.472	49.23
206.858	65.33
207.245	-7.35
207.631	6.56
208.017	45.35
208.403	17.54
208.789	20.52
209.175	28.64
209.561	28.03
209.947	15.6
210.333	5.13
210.719	54.13
211.105	33.97
211.491	47.77
211.876	2.97
212.262	20
212.648	-1.52
213.034	-18.61
213.419	10.1
213.805	-1.39
214.19	8.04
214.576	9.07
214.961	9.1
215.346	27.54
215.732	30.69
216.117	-27.75
216.502	2.71
216.888	28.32
217.273	-14.14
217.658	25.88
218.043	12.89
218.428	-2.86
218.813	5.72
219.198	17.78
219.583	-1.4
219.968	-7.41
220.353	21.96
220.738	15.99
221.122	-10.61
221.507	5.01
221.892	7.33
222.276	10.79
222.661	18.14
223.046	6.12
223.43	17.96
223.815	10.96
224.199	23.89
224.583	2.4
224.968	6.62
225.352	4.05
225.736	-1.3
226.121	2.75
226.505	2.26
226.889	8.56
227.273	5.23
227.657	12
228.041	7.57
228.425	5.93
228.809	6.37
229.193	2.9
229.577	8.36
229.961	3.75
230.344	5.38
230.728	4.46
231.112	5.73
231.495	4.89
231.879	5.2
232.263	5.87
232.646	5.23
233.03	4.73
233.413	4.23
233.797	5.31
234.18	5.6
234.563	6.54
234.946	7.43
235.33	6.47
235.713	6.26
236.096	5.72
236.479	6.21
236.862	4.28
237.245	6.12
237.628	4.32
238.011	5.42
238.394	3.89
238.777	6.64
239.16	4.82
239.543	6.01
239.925	5.67
240.308	6.19
240.691	5.52
241.073	7.7
241.456	6.33
241.838	5.15
242.221	6.11
242.603	6.31
242.986	6.11
243.368	5.48
243.75	4.52
244.133	4.91
244.515	4.84
244.897	5.05
245.279	5.14
245.661	4.68
246.043	4.31
246.425	4.68
246.807	5.43
247.189	5.35
247.571	4.68
247.953	5.4
248.335	5.42
248.717	4.49
249.098	4.65
249.48	4.54
249.862	4.8
250.243	4.9
250.625	4.51
251.006	4.81
251.388	4.97
251.769	5.79
252.151	4.55
252.532	5.2
252.913	4.92
253.295	3.01
253.676	5.26
254.057	4.56
254.438	4.87
254.819	5.06
255.2	4.18
255.581	4.22
255.962	4.4
256.343	4.1
256.724	3.54
257.105	5.96
257.486	5.71
257.867	3.67
258.247	4.54
258.628	4.96
259.009	4.43
259.389	4.19
259.77	4.36
260.15	5.41
260.531	4.88
260.911	4.87
261.292	4.37
261.672	4.61
262.052	4.58
262.432	4.43
262.813	4.57
263.193	4.78
263.573	4.73
263.953	4.88
264.333	4.52
264.713	4.48
265.093	5.48
265.473	5.31
265.853	4.56
266.233	4.33
266.612	4.54
266.992	4.27
267.372	4.78
267.752	4.13
268.131	5.37
268.511	4.62
268.89	4.68
269.27	4.43
269.649	4.26
270.029	4.15
270.408	4.57
270.787	4.66
271.167	4.72
271.546	4.74
271.925	4.86
272.304	4.89
272.683	4.76
273.062	4.65
273.441	4.67
273.82	4.76
274.199	4.82
274.578	4.59
274.957	4.66
275.336	4.87
275.715	4.51
276.093	4.39
276.472	5.2
276.851	4.47
277.229	4.6
277.608	4.1
277.986	4.36
278.365	4.97
278.743	4.24
279.122	4.4
279.5	4.46
279.878	3.74
280.257	4.11
280.635	4.37
281.013	5.19
281.391	5.05
281.769	4.31
282.147	4.06
282.525	4.74
282.903	4.39
283.281	4.42
283.659	4.49
284.037	4.77
284.415	3.99
284.792	4.41
285.17	4.42
285.548	4.54
285.925	3.83
286.303	4.05
286.68	4.25
287.058	4.67
287.435	4.3
287.813	3.91
288.19	4.32
288.567	4.12
288.945	4.4
289.322	4.72
289.699	3.88
290.076	4.72
290.453	4.48
290.83	4.29
291.207	4.43
291.584	4.33
291.961	4.23
292.338	3.7
292.715	4.36
293.092	4.23
293.469	4.41
293.845	3.93
294.222	4.01
294.599	4.18
294.975	4.77
295.352	4.18
295.728	4.21
296.105	3.98
296.481	4.02
296.858	3.94
297.234	4.13
297.61	3.55
297.986	3.71
298.363	4.24
298.739	4.18
299.115	3.91
299.491	3.95
299.867	4.07
300.243	4.11
300.619	3.69
300.995	3.96
301.371	4.56
301.746	4.19
302.122	3.94
302.498	3.8
302.874	3.5
303.249	4.1
303.625	4.17
304	4.34
304.376	3.96
304.751	3.44
305.127	3.76
305.502	4.02
305.878	3.9
306.253	4
306.628	4.11
307.003	3.6
307.378	3.93
307.754	3.78
308.129	4.37
308.504	4.23
308.879	4.12
309.254	4.74
309.629	3.85
310.003	3.72
310.378	4.12
310.753	3.63
311.128	4.22
311.502	3.55
311.877	3.82
312.252	3.69
312.626	3.87
313.001	3.94
313.375	3.77
313.75	3.66
314.124	3.61
314.498	3.36
314.873	3.6
315.247	4.12
315.621	4.17
315.995	3.87
316.369	3.71
316.743	3.83
317.117	3.64
317.491	3.31
317.865	3.87
318.239	3.76
318.613	3.62
318.987	3.36
319.361	3.13
319.734	3.46
320.108	3.08
320.482	3.91
320.855	3.96
321.229	4.28
321.602	3.54
321.976	3.6
322.349	4.33
322.723	3.73
323.096	3.71
323.469	3.42
323.843	3.6
324.216	3.7
324.589	3.71
324.962	3.97
325.335	3.52
325.708	3.38
326.081	3.99
326.454	3.74
326.827	4.12
327.2	3.52
327.573	4.01
327.945	3.69
328.318	3.4
328.691	3.53
329.063	4.12
329.436	3.2
329.809	3.96
330.181	4.1
330.553	4.04
330.926	4.17
331.298	3.55
331.671	2.85
332.043	2.92
332.415	3.25
332.787	3.88
333.159	3.3
333.532	3.66
333.904	3.63
334.276	3.28
334.648	3.95
335.02	3.69
335.391	3.23
335.763	4.21
336.135	3.58
336.507	3.53
336.879	3.55
337.25	3.99
337.622	4.1
337.993	4.03
338.365	3.7
338.736	3.67
339.108	3.49
339.479	3.65
339.851	3.89
340.222	3.49
340.593	3.17
340.964	3.44
341.336	4.12
341.707	3.78
342.078	3.79
342.449	3.25
342.82	3.27
343.191	3.53
343.562	3.63
343.933	3.63
344.303	3.7
344.674	3.63
345.045	3.6
345.416	3.69
345.786	3.62
346.157	3.53
346.527	3.66
346.898	3.74
347.268	3.92
347.639	3.69
348.009	3.68
348.38	3.38
348.75	3.45
349.12	3.46
349.49	3.47
349.861	4.02
350.231	3.53
350.601	3.05
350.971	3.81
351.341	3.46
351.711	3.92
352.081	3.82
352.45	3.47
352.82	3.78
353.19	3.99
353.56	3.67
353.929	3.61
354.299	3.52
354.669	3.81
355.038	4.1
355.408	4.06
355.777	3.69
356.147	3.25
356.516	3.56
356.885	3.78
357.254	3.78
357.624	3.71
357.993	3.39
358.362	3.6
358.731	3.37
359.1	3.41
359.469	3.49
359.838	3.65
360.207	3.59
360.576	4.06
360.945	3.24
361.314	3.69
361.682	3.92
362.051	3.68
362.42	3.45
362.788	3.57
363.157	3.75
363.525	3.62
363.894	3.64
364.262	3.38
364.631	3.65
364.999	3.64
365.367	3.78
365.735	3.46
366.104	3.4
366.472	3.57
366.84	4.11
367.208	3.7
367.576	3.5
367.944	3.65
368.312	3.5
368.68	3.6
369.048	3.94
369.416	3.71
369.783	3.68
370.151	3.57
370.519	3.67
370.886	3.7
371.254	3.87
371.621	4.02
371.989	3.58
372.356	3.9
372.724	3.95
373.091	3.29
373.458	3.32
373.826	3.58
374.193	3.9
374.56	3.66
374.927	3.84
375.294	3.77
375.661	3.92
376.028	4.07
376.395	3.8
376.762	3.8
377.129	3.65
377.496	3.93
377.863	3.96
378.229	3.86
378.596	3.76
378.963	4.02
379.329	3.74
379.696	3.9
380.062	3.84
380.429	3.76
380.795	3.58
381.161	3.77
381.528	4.02
381.894	3.6
382.26	3.79
382.626	4.24
382.993	3.62
383.359	3.71
383.725	3.81
384.091	3.82
384.457	3.92
384.823	3.63
385.188	4.28
385.554	3.77
385.92	3.82
386.286	4.08
386.651	3.69
387.017	4.04
387.383	3.82
387.748	3.91
388.114	3.56
388.479	3.79
388.845	4.05
389.21	3.88
389.575	3.55
389.94	3.92
390.306	3.84
390.671	3.95
391.036	3.86
391.401	3.83
391.766	3.97
392.131	3.87
392.496	3.95
392.861	3.91
393.226	3.78
393.591	4.18
393.956	3.93
394.32	4.07
394.685	3.87
395.05	4.19
395.414	4.27
395.779	3.67
396.143	3.94
396.508	3.62
396.872	4.2
397.236	4.04
397.601	4.04
397.965	3.9
398.329	3.94
398.694	4.01
399.058	3.75
399.422	4.07
399.786	4.06
400.15	4.09
400.514	3.79
400.878	3.97
401.242	4.34
401.605	4.11
401.969	3.75
402.333	4.11
402.697	4.03
403.06	3.96
403.424	3.74
403.787	4.04
404.151	4.16
404.514	4.07
404.878	4.15
405.241	3.91
405.604	3.92
405.968	4.23
406.331	3.91
406.694	3.94
407.057	3.96
407.42	4.03
407.783	4.08
408.146	3.94
408.509	4.11
408.872	4.19
409.235	4.1
409.598	4.13
409.961	4.42
410.323	3.94
410.686	3.95
411.049	4.06
411.411	3.81
411.774	4.21
412.136	3.88
412.499	4.12
412.861	4.2
413.223	4.27
413.586	3.98
413.948	4.14
414.31	4.25
414.672	4
415.035	3.89
415.397	4.29
415.759	4.09
416.121	4.28
416.483	4.32
416.845	4.39
417.206	4.13
417.568	4.15
417.93	4.23
418.292	4.04
418.653	4.09
419.015	4.12
419.377	4.12
419.738	4.04
420.1	3.98
420.461	4.01
420.822	4.03
421.184	4.03
421.545	4.11
421.906	4.04
422.267	4.1
422.629	4.11
422.99	3.91
423.351	4.07
423.712	4.01
424.073	4.11
424.434	4.01
424.795	4.03
425.155	4.13
425.516	4.03
425.877	4.12
426.238	3.94
426.598	4.04
426.959	3.97
427.32	4.02
427.68	4.15
428.041	4.05
428.401	4.13
428.761	4.19
429.122	4.1
429.482	4.17
429.842	4.31
430.202	4.27
430.563	4.25
430.923	4.4
431.283	4.32
431.643	4.34
432.003	4.39
432.363	4.11
432.722	4.31
433.082	4.26
433.442	4.12
433.802	4.42
434.161	4.15
434.521	4.26
434.881	4.34
435.24	4.36
435.6	4.18
435.959	4.17
436.319	4.15
436.678	4.29
437.037	4.25
437.396	4.42
437.756	4.37
438.115	4.22
438.474	4.45
438.833	4.21
439.192	4.13
439.551	4.22
439.91	4.26
440.269	4.52
440.628	4.32
440.987	4.31
441.345	4.13
441.704	4.21
442.063	4.19
442.421	4.14
442.78	4.28
443.138	4.41
443.497	4.37
443.855	4.25
444.214	4.24
444.572	4.27
444.93	4.4
445.288	4.33
445.647	4.3
446.005	4.06
446.363	4.3
446.721	4.42
447.079	4.39
447.437	4.25
447.795	4.31
448.153	4.37
448.51	4.24
448.868	4.24
449.226	4.31
449.584	4.27
449.941	4.21
450.299	4.31
450.656	4.23
451.014	4.27
451.371	4.43
451.729	4.28
452.086	4.33
452.443	4.29
452.801	4.28
453.158	4.47
453.515	4.47
453.872	4.41
454.229	4.55
454.586	4.34
454.943	4.34
455.3	4.26
455.657	4.44
456.014	4.27
456.371	4.46
456.727	4.44
457.084	4.3
457.441	4.44
457.797	4.43
458.154	4.57
458.51	4.43
458.867	4.48
459.223	4.38
459.58	4.41
459.936	4.48
460.292	4.39
460.648	4.22
461.005	4.2
461.361	4.47
461.717	4.22
462.073	4.36
462.429	4.42
462.785	4.34
463.141	4.48
463.496	4.44
463.852	4.5
464.208	4.6
464.564	4.63
464.919	4.45
465.275	4.51
465.631	4.41
465.986	4.59
466.342	4.66
466.697	4.71
467.052	4.59
467.408	4.63
467.763	4.6
468.118	4.74
468.473	4.59
468.829	4.55
469.184	4.55
469.539	4.59
469.894	4.47
470.249	4.62
470.603	4.53
470.958	4.6
471.313	4.73
471.668	4.54
472.023	4.7
472.377	4.63
472.732	4.53
473.086	4.56
473.441	4.68
473.795	4.74
474.15	4.65
474.504	4.53
474.859	4.48
475.213	4.62
475.567	4.69
475.921	4.42
476.275	4.55
476.63	4.57
476.984	4.54
477.338	4.58
477.692	4.63
478.045	4.7
478.399	4.66
478.753	4.68
479.107	4.55
479.461	4.65
479.814	4.65
480.168	4.68
480.521	4.57
480.875	4.59
481.228	4.67
481.582	4.59
481.935	4.5
482.289	4.56
482.642	4.55
482.995	4.64
483.348	4.62
483.701	4.5
484.055	4.6
484.408	4.61
484.761	4.42
485.114	4.39
485.466	4.36
485.819	4.32
486.172	4.23
486.525	4.27
486.878	4.36
487.23	4.39
487.583	4.39
487.936	4.47
488.288	4.52
488.641	4.53
488.993	4.4
489.345	4.43
489.698	4.37
490.05	4.35
490.402	4.39
490.754	4.42
491.107	4.51
491.459	4.58
491.811	4.63
492.163	4.53
492.515	4.63
492.866	4.6
493.218	4.54
493.57	4.4
493.922	4.42
494.274	4.5
494.625	4.5
494.977	4.59
495.328	4.68
495.68	4.75
496.031	4.6
496.383	4.76
496.734	4.8
497.086	4.75
497.437	4.78
497.788	4.63
498.139	4.94
498.49	4.68
498.842	4.61
499.193	4.69
499.544	4.69
499.894	4.72
500.245	4.7
500.596	4.67
500.947	4.77
501.298	4.74
501.648	4.78
501.999	4.79
502.35	4.71
502.7	4.86
503.051	4.73
503.401	4.82
503.752	4.79
504.102	4.9
504.452	4.82
504.803	4.71
505.153	4.81
505.503	4.82
505.853	4.9
506.203	4.72
506.553	4.82
506.903	4.7
507.253	4.92
507.603	4.72
507.953	4.84
508.303	4.82
508.652	4.94
509.002	4.82
509.352	4.85
509.701	4.81
510.051	4.69
510.4	4.73
510.75	4.82
511.099	4.87
511.449	4.87
511.798	4.81
512.147	4.81
512.496	4.86
512.846	4.71
513.195	4.8
513.544	4.82
513.893	4.85
514.242	4.86
514.591	4.84
514.939	4.81
515.288	4.75
515.637	4.8
515.986	4.89
516.334	4.86
516.683	4.91
517.032	4.88
517.38	4.79
517.729	4.8
518.077	4.85
518.426	4.8
518.774	4.78
519.122	4.76
519.47	4.78
519.819	4.75
520.167	4.82
520.515	4.77
520.863	4.78
521.211	4.73
521.559	4.79
521.907	4.76
522.255	4.86
522.602	4.95
522.95	4.76
523.298	4.86
523.645	4.88
523.993	4.91
524.341	4.82
524.688	4.92
525.036	4.97
525.383	4.75
525.73	5
526.078	4.91
526.425	4.95
526.772	4.77
527.119	4.85
527.466	4.82
527.814	4.8
528.161	4.78
528.508	4.81
528.854	4.84
529.201	4.82
529.548	4.81
529.895	4.83
530.242	4.67
530.588	4.6
530.935	4.56
531.282	4.64
531.628	4.68
531.975	4.68
532.321	4.74
532.667	4.77
533.014	4.83
533.36	4.9
533.706	4.97
534.052	4.88
534.399	4.75
534.745	4.72
535.091	4.72
535.437	4.73
535.783	4.77
536.129	4.79
536.474	4.76
536.82	4.89
537.166	4.82
537.512	4.91
537.857	4.86
538.203	4.9
538.549	4.93
538.894	4.81
539.239	4.85
539.585	4.83
539.93	4.99
540.276	4.99
540.621	5.01
540.966	4.94
541.311	5.12
541.656	4.97
542.001	4.96
542.346	4.98
542.691	4.86
543.036	4.88
543.381	4.7
543.726	4.71
544.071	4.77
544.415	4.76
544.76	4.82
545.105	4.86
545.449	4.81
545.794	4.8
546.138	4.84
546.483	4.84
546.827	4.93
547.171	5
547.516	4.96
547.86	4.98
548.204	4.78
548.548	4.9
548.892	4.89
549.236	4.92
549.58	4.9
549.924	4.87
550.268	5.04
550.612	5.04
550.956	5.26
551.3	5.05
551.643	5.09
551.987	5
552.33	5.05
552.674	5
553.017	5.06
553.361	5.06
553.704	5.09
554.048	4.96
554.391	5.01
554.734	5.1
555.077	5.03
555.42	4.96
555.764	4.95
556.107	5.09
556.45	5.1
556.793	4.8
557.135	4.96
557.478	4.83
557.821	5.12
558.164	5.14
558.507	5.16
558.849	5.19
559.192	5.28
559.534	5.47
559.877	5.03
560.219	5.05
560.562	5.28
560.904	4.93
561.246	4.94
561.589	5.03
561.931	5.11
562.273	5.27
562.615	5.25
562.957	5.01
563.299	5.38
563.641	5.06
563.983	5
564.325	5.02
564.667	5.13
565.008	5.09
565.35	5.13
565.692	5.11
566.033	5.11
566.375	5.27
566.716	5.09
567.058	4.9
567.399	5.15
567.741	5.05
568.082	5.16
568.423	5.02
568.764	5.09
569.105	5.05
569.447	5.17
569.788	5.1
570.129	5.01
570.47	5.17
570.811	5.21
571.151	5.14
571.492	5.05
571.833	5.22
572.174	5.21
572.514	5.2
572.855	5.15
573.195	5.24
573.536	5.02
573.876	5.05
574.217	5
574.557	5.16
574.898	5
575.238	4.97
575.578	5
575.918	5.06
576.258	5.11
576.598	5.28
576.938	5.19
577.278	5.15
577.618	4.85
577.958	5.08
578.298	5.08
578.638	5.17
578.977	4.99
579.317	5.02
579.657	5.11
579.996	5.16
580.336	5.29
580.675	5.01
581.014	5.2
581.354	5.25
581.693	5.29
582.032	5.26
582.372	5.16
582.711	5.22
583.05	5.36
583.389	5.2
583.728	5.14
584.067	5.15
584.406	5.26
584.745	5.14
585.083	5.23
585.422	5.14
585.761	5.04
586.1	5.19
586.438	4.85
586.777	5.46
587.115	5.13
587.454	5.24
587.792	5.16
588.13	5.29
588.469	5.34
588.807	4.76
589.145	5.05
589.483	4.95
589.821	5.07
590.159	5.33
590.497	4.96
590.835	5.38
591.173	5.19
591.511	5.17
591.849	5.1
592.187	5
592.524	5.03
592.862	5.31
593.2	5.04
593.537	5.19
593.875	5.15
594.212	5.31
594.55	5.06
594.887	5.27
595.224	4.98
595.561	4.99
595.899	5.07
596.236	5.31
596.573	5.21
596.91	5.17
597.247	5.19
597.584	5.04
597.921	5.27
598.258	5.43
598.594	5.21
598.931	5.08
599.268	5.01
599.604	5.11
599.941	5
600.277	5.11
600.614	5.21
600.95	5.14
601.287	5.01
601.623	5.19
601.959	5.24
602.296	5.1
602.632	5.35
602.968	4.95
603.304	5.21
603.64	4.86
603.976	5.35
604.312	5.31
604.648	5.36
604.984	5.18
605.319	5
605.655	4.97
605.991	5.19
606.326	5.07
606.662	5.16
606.998	4.89
607.333	4.94
607.668	4.83
608.004	5.05
608.339	5.14
608.674	5.13
609.01	5.34
609.345	5.13
609.68	5.52
610.015	5.08
610.35	5.33
610.685	5.47
611.02	5.23
611.355	4.92
611.689	4.88
612.024	5.27
612.359	5.09
612.694	5.08
613.028	5.18
613.363	5.16
613.697	5.11
614.032	5.12
614.366	5.09
614.7	5.34
615.035	5.35
615.369	5.17
615.703	5.15
616.037	5.18
616.371	5.25
616.705	5
617.039	4.97
617.373	4.93
617.707	5.41
618.041	5.07
618.375	5.09
618.709	5.1
619.042	5.08
619.376	5.6
619.71	5.26
620.043	5.36
620.377	5.16
620.71	5.3
621.043	5.42
621.377	5.04
621.71	5.32
622.043	5.23
622.376	5.52
622.709	5.21
623.043	5.44
623.376	4.95
623.709	5.28
624.041	5.45
624.374	5.75
624.707	5.24
625.04	5.15
625.373	5.37
625.705	5.1
626.038	5.12
626.37	4.89
626.703	5.08
627.035	4.77
627.368	5.09
627.7	5.21
628.032	5.13
628.365	5.44
628.697	5.36
629.029	5.15
629.361	5.24
629.693	4.95
630.025	5.12
630.357	5.21
630.689	4.97
631.021	5.59
631.353	5.26
631.684	5.09
632.016	5.38
632.348	5.23
632.679	5.04
633.011	5.19
633.342	4.96
633.674	5.19
634.005	5.38
634.336	5.75
634.668	5.2
634.999	4.97
635.33	5.02
635.661	5.14
635.992	5.46
636.323	5.25
636.654	5.19
636.985	5.2
637.316	4.94
637.647	4.94
637.977	4.75
638.308	5.14
638.639	5.31
638.969	5.05
639.3	4.57
639.63	4.76
639.961	5.31
640.291	5.21
640.622	5.02
640.952	5.11
641.282	5.23
641.612	5.37
641.943	5.53
642.273	4.89
642.603	5.47
642.933	5.3
643.263	5.63
643.592	6.01
643.922	5.4
644.252	4.96
644.582	5.13
644.911	5.37
645.241	5.52
645.571	5.58
645.9	5.08
646.23	5.02
646.559	5.08
646.888	5.18
647.218	5.72
647.547	5.2
647.876	4.95
648.205	5.3
648.534	5.42
648.863	5.41
649.192	4.94
649.521	5.48
649.85	5.08
650.179	5.29
650.508	4.86
650.837	5.2
651.165	5.57
651.494	5.16
651.822	5.33
652.151	5.35
652.479	5.16
652.808	5.52
653.136	4.99
653.465	5.37
653.793	5.23
654.121	5.88
654.449	5.46
654.777	5.33
655.105	5.49
655.433	5.55
655.761	5.65
656.089	5.57
656.417	4.96
656.745	5.58
657.073	5.63
657.4	6.18
657.728	5.64
658.056	4.59
658.383	5.28
658.711	4.59
659.038	5.23
659.365	5.27
659.693	5.34
660.02	5.54
660.347	4.86
660.674	5.17
661.001	5.04
661.329	5.31
661.656	5.42
661.982	5.35
662.309	5.44
662.636	5.4
662.963	5.18
663.29	5.42
663.616	5.42
663.943	5.3
664.27	5.44
664.596	5.24
664.923	5.19
665.249	5.23
665.576	5.29
665.902	4.86
666.228	5.46
666.554	5.27
666.881	4.75
667.207	5.41
667.533	5.12
667.859	5.22
668.185	5.25
668.511	5.28
668.837	5.7
669.162	5.73
669.488	6.38
669.814	5.09
670.139	5.29
670.465	5.45
670.791	5.69
671.116	5.41
671.442	5.42
671.767	5.28
672.092	5.6
672.418	5.02
672.743	5.21
673.068	5.4
673.393	5.16
673.718	5.45
674.043	5.51
674.368	5.62
674.693	5.46
675.018	6.14
675.343	5.03
675.667	5.3
675.992	5.5
676.317	5.36
676.641	6
676.966	5.79
677.29	5.87
677.615	5.59
677.939	5.2
678.264	5.01
678.588	5.2
678.912	5.25
679.236	5.27
679.56	5.55
679.885	5.36
680.209	5.38
680.532	4.88
680.856	5.34
681.18	5.28
681.504	5.17
681.828	5.85
682.152	5.31
682.475	4.77
682.799	5.8
683.122	5.22
683.446	5.66
683.769	5.67
684.093	5.15
684.416	5.33
684.739	4.9
685.062	4.67
685.386	5.47
685.709	5.44
686.032	5.29
686.355	5.87
686.678	4.77
687.001	5.84
687.324	5.37
687.646	5.7
687.969	6.15
688.292	5.26
688.614	5.6
688.937	5.41
689.26	6.16
689.582	4.64
689.904	4.93
690.227	5.85
690.549	5.35
690.871	5.79
691.194	5.92
691.516	5.56
691.838	6.14
692.16	5.28
692.482	4.94
692.804	6.36
693.126	5.18
693.448	6.21
693.769	5.69
