Data from 0284_forehead_Reflection__1__242.txt Node

Date: Fri Oct 20 22:36:08 CDT 2023
User: ToomeyLab
Spectrometer: FLMS14357
Trigger mode: 0
Integration Time (sec): 1.000000E-2
Scans to average: 100
Electric dark correction enabled: true
Nonlinearity correction enabled: false
Boxcar width: 0
XAxis mode: Wavelengths
Number of Pixels in Spectrum: 2048
>>>>>Begin Spectral Data<<<<<
189.047	6
189.435	6
189.823	6
190.211	-109.71
190.599	-32188.89
190.987	133.6
191.375	-13.96
191.763	-201.97
192.151	82.21
192.538	63.16
192.926	51.45
193.314	38.77
193.702	365.12
194.089	175.52
194.477	16.87
194.864	17.56
195.252	157.34
195.639	-35.2
196.027	116.17
196.414	184.6
196.801	397.42
197.189	64.45
197.576	-889.23
197.963	168.95
198.351	48.63
198.738	19.08
199.125	41.69
199.512	39.25
199.899	16.16
200.286	-9.52
200.673	13
201.06	23.6
201.447	10.95
201.833	35.57
202.22	22.51
202.607	61.86
202.994	42.39
203.38	25.07
203.767	15.11
204.154	78.92
204.54	56.94
204.927	37.42
205.313	19.83
205.699	45.7
206.086	11.99
206.472	40.9
206.858	69.1
207.245	-19.24
207.631	16.71
208.017	5.9
208.403	3.75
208.789	18.13
209.175	22.53
209.561	39.5
209.947	24.97
210.333	30.87
210.719	66.56
211.105	31.57
211.491	56.78
211.876	23.18
212.262	35.37
212.648	16.94
213.034	13.11
213.419	21.66
213.805	33.37
214.19	8.13
214.576	8.42
214.961	14.2
215.346	47.41
215.732	25.23
216.117	-10.22
216.502	18.08
216.888	4.03
217.273	-5.09
217.658	9.98
218.043	30.13
218.428	3.46
218.813	6.6
219.198	16.81
219.583	-0.1
219.968	-12.63
220.353	-1.08
220.738	51.48
221.122	20.8
221.507	13.39
221.892	22.55
222.276	23.16
222.661	10.13
223.046	15.83
223.43	15.27
223.815	14.03
224.199	18.35
224.583	-7.57
224.968	0.56
225.352	4.07
225.736	-9.55
226.121	-1.78
226.505	4.42
226.889	8.81
227.273	12.88
227.657	6.59
228.041	9.3
228.425	2.9
228.809	1.99
229.193	3.95
229.577	7.08
229.961	1.74
230.344	2.53
230.728	2.36
231.112	3.21
231.495	2.1
231.879	2.43
232.263	4.48
232.646	0.76
233.03	1.91
233.413	2.32
233.797	2.23
234.18	5.19
234.563	3.91
234.946	5.55
235.33	6.09
235.713	3.55
236.096	4.29
236.479	2.65
236.862	1.41
237.245	2.29
237.628	3.24
238.011	2.53
238.394	2.01
238.777	4.4
239.16	2.23
239.543	4.75
239.925	6.55
240.308	3.66
240.691	3.51
241.073	3.53
241.456	5.23
241.838	1.21
242.221	4.07
242.603	4.18
242.986	3.28
243.368	2.81
243.75	2.94
244.133	2.32
244.515	2.57
244.897	2.47
245.279	2.68
245.661	2.2
246.043	2.09
246.425	3.48
246.807	2.92
247.189	1.71
247.571	2.06
247.953	2.56
248.335	3.04
248.717	2.24
249.098	2.27
249.48	2.31
249.862	2.59
250.243	2.43
250.625	2.51
251.006	2.46
251.388	2.83
251.769	3.63
252.151	1.97
252.532	3.19
252.913	3.07
253.295	2.07
253.676	2.51
254.057	2.68
254.438	3.21
254.819	2.75
255.2	1.87
255.581	2.36
255.962	2.63
256.343	4.38
256.724	2.19
257.105	3.14
257.486	3.62
257.867	2.9
258.247	3.44
258.628	2.08
259.009	2.1
259.389	1.94
259.77	2.25
260.15	2.83
260.531	2.64
260.911	3.01
261.292	2.24
261.672	2.41
262.052	2.49
262.432	2.49
262.813	2.39
263.193	2.66
263.573	2.64
263.953	2.63
264.333	2.88
264.713	3.09
265.093	2.59
265.473	3.24
265.853	1.9
266.233	2.54
266.612	2.51
266.992	3
267.372	3.23
267.752	2.4
268.131	2.94
268.511	2.71
268.89	2.61
269.27	1.99
269.649	2.18
270.029	2.77
270.408	2.42
270.787	2.44
271.167	2.58
271.546	2.71
271.925	3.77
272.304	2.56
272.683	2.77
273.062	2.62
273.441	2.9
273.82	2.62
274.199	2.48
274.578	2.73
274.957	2.77
275.336	2.57
275.715	2.66
276.093	2.09
276.472	2.66
276.851	2.87
277.229	2.81
277.608	1.93
277.986	2.23
278.365	2.73
278.743	2.26
279.122	2.47
279.5	2.53
279.878	2.26
280.257	2.78
280.635	2.35
281.013	2.55
281.391	2.6
281.769	2.36
282.147	2.13
282.525	2.8
282.903	2.37
283.281	2.65
283.659	2.58
284.037	2.71
284.415	1.97
284.792	2.37
285.17	2.5
285.548	1.93
285.925	2.16
286.303	2.25
286.68	2.48
287.058	2.9
287.435	2.74
287.813	2.17
288.19	2.33
288.567	2.47
288.945	3.13
289.322	3.1
289.699	1.93
290.076	2.6
290.453	2.42
290.83	2.35
291.207	2.75
291.584	2.58
291.961	2.1
292.338	2.55
292.715	2.44
293.092	2.69
293.469	2.74
293.845	2.65
294.222	2.59
294.599	2.71
294.975	2.75
295.352	2.51
295.728	2.88
296.105	2.57
296.481	2.98
296.858	2.57
297.234	2.93
297.61	2.47
297.986	2.4
298.363	2.88
298.739	2.63
299.115	2.85
299.491	2.57
299.867	2.98
300.243	2.87
300.619	2.8
300.995	2.42
301.371	3.25
301.746	2.63
302.122	3.17
302.498	2.88
302.874	2.42
303.249	2.86
303.625	2.94
304	3.76
304.376	2.49
304.751	2.6
305.127	2.52
305.502	3.62
305.878	3.18
306.253	2.99
306.628	3.15
307.003	3.17
307.378	2.54
307.754	3.51
308.129	3.71
308.504	3.01
308.879	3.54
309.254	3.79
309.629	3.26
310.003	2.87
310.378	3.92
310.753	3.43
311.128	3.66
311.502	3.55
311.877	3.4
312.252	3.31
312.626	3.61
313.001	3.55
313.375	3.6
313.75	3.4
314.124	3.3
314.498	3.51
314.873	3.24
315.247	3.86
315.621	4.1
315.995	3.76
316.369	3.22
316.743	3.88
317.117	4.12
317.491	3.5
317.865	4.02
318.239	3.92
318.613	4.06
318.987	4.12
319.361	3.75
319.734	3.6
320.108	4.03
320.482	4.87
320.855	4.23
321.229	4.6
321.602	4.28
321.976	3.62
322.349	4.42
322.723	3.8
323.096	4.13
323.469	4.09
323.843	4.55
324.216	4.3
324.589	4.2
324.962	4.59
325.335	5.06
325.708	4.74
326.081	4.59
326.454	4.45
326.827	4.85
327.2	4.12
327.573	5.26
327.945	4.6
328.318	3.94
328.691	4.51
329.063	5.15
329.436	4.21
329.809	4.79
330.181	5.52
330.553	5.32
330.926	4.76
331.298	4.45
331.671	4.88
332.043	4.45
332.415	5.16
332.787	5.31
333.159	4.93
333.532	4.86
333.904	5.5
334.276	4.52
334.648	4.94
335.02	4.9
335.391	4.79
335.763	5.58
336.135	5.28
336.507	5.79
336.879	5.23
337.25	5.52
337.622	5.42
337.993	5.31
338.365	5.83
338.736	5.48
339.108	5.33
339.479	4.69
339.851	5.45
340.222	5.03
340.593	4.9
340.964	5.27
341.336	5.9
341.707	5.71
342.078	5.02
342.449	4.85
342.82	5.45
343.191	5.27
343.562	5.52
343.933	5.52
344.303	5.82
344.674	5.78
345.045	5.9
345.416	6.01
345.786	5.31
346.157	5.72
346.527	5.51
346.898	6.09
347.268	5.88
347.639	5.96
348.009	5.91
348.38	5.8
348.75	5.9
349.12	5.89
349.49	5.45
349.861	6.43
350.231	5.86
350.601	6.16
350.971	6.21
351.341	6.03
351.711	6.55
352.081	6.19
352.45	5.78
352.82	5.93
353.19	6.36
353.56	6.15
353.929	5.86
354.299	6.25
354.669	5.71
355.038	6.37
355.408	6.75
355.777	6.35
356.147	6.5
356.516	6.14
356.885	6.59
357.254	6.51
357.624	6.47
357.993	6.24
358.362	6.39
358.731	6.07
359.1	6.15
359.469	6.16
359.838	6.55
360.207	6.36
360.576	6.8
360.945	6.27
361.314	6.38
361.682	6.66
362.051	6.46
362.42	6.36
362.788	6.73
363.157	6.77
363.525	6.43
363.894	6.7
364.262	6.79
364.631	6.76
364.999	6.83
365.367	6.63
365.735	6.77
366.104	6.82
366.472	7.04
366.84	6.89
367.208	7.02
367.576	6.86
367.944	7.12
368.312	6.71
368.68	7.17
369.048	7.15
369.416	7.16
369.783	7.35
370.151	7.52
370.519	6.84
370.886	7.32
371.254	7.6
371.621	7.8
371.989	6.77
372.356	7.33
372.724	7.41
373.091	7.33
373.458	7.13
373.826	7.18
374.193	7.4
374.56	7.31
374.927	7.31
375.294	7.48
375.661	7.45
376.028	7.69
376.395	7.64
376.762	7.43
377.129	7.64
377.496	7.55
377.863	8.11
378.229	8.02
378.596	7.63
378.963	7.89
379.329	7.96
379.696	8.01
380.062	7.84
380.429	7.83
380.795	7.76
381.161	8.01
381.528	8.47
381.894	8.05
382.26	8
382.626	8.3
382.993	8.19
383.359	7.95
383.725	8.1
384.091	7.98
384.457	8.29
384.823	8.09
385.188	8.64
385.554	8.01
385.92	8.3
386.286	8.44
386.651	7.96
387.017	8.66
387.383	8.13
387.748	8.44
388.114	8.54
388.479	8.28
388.845	8.69
389.21	8.51
389.575	8.4
389.94	8.59
390.306	8.52
390.671	8.68
391.036	8.74
391.401	8.9
391.766	8.87
392.131	9.03
392.496	8.85
392.861	8.64
393.226	9.06
393.591	8.95
393.956	9.12
394.32	9.15
394.685	8.67
395.05	9.1
395.414	9.24
395.779	8.75
396.143	9.14
396.508	9.03
396.872	9.21
397.236	9.35
397.601	9.2
397.965	8.83
398.329	9.09
398.694	9.13
399.058	8.94
399.422	9.34
399.786	9.25
400.15	9.33
400.514	9.22
400.878	9.55
401.242	9.39
401.605	9.52
401.969	9.34
402.333	9.27
402.697	9.61
403.06	9.5
403.424	9.54
403.787	9.57
404.151	9.37
404.514	9.52
404.878	9.76
405.241	9.69
405.604	9.61
405.968	9.77
406.331	9.65
406.694	9.72
407.057	9.8
407.42	9.82
407.783	9.7
408.146	9.77
408.509	9.82
408.872	10.17
409.235	9.96
409.598	10.23
409.961	9.96
410.323	10.16
410.686	10.02
411.049	10.02
411.411	9.81
411.774	10.23
412.136	9.87
412.499	9.95
412.861	10.21
413.223	10.15
413.586	10.16
413.948	10.4
414.31	10.54
414.672	10.26
415.035	10.1
415.397	10.46
415.759	10.44
416.121	10.31
416.483	10.35
416.845	10.5
417.206	10.36
417.568	10.45
417.93	10.66
418.292	10.27
418.653	10.54
419.015	10.57
419.377	10.34
419.738	10.45
420.1	10.44
420.461	10.41
420.822	10.48
421.184	10.48
421.545	10.53
421.906	10.68
422.267	10.53
422.629	10.53
422.99	10.45
423.351	10.56
423.712	10.55
424.073	10.63
424.434	10.73
424.795	10.76
425.155	10.85
425.516	10.83
425.877	10.83
426.238	10.81
426.598	10.76
426.959	10.83
427.32	10.99
427.68	11.04
428.041	11.12
428.401	11.2
428.761	11.28
429.122	11.24
429.482	11.34
429.842	11.34
430.202	11.64
430.563	11.65
430.923	11.78
431.283	11.5
431.643	11.83
432.003	11.97
432.363	11.74
432.722	11.87
433.082	12.01
433.442	11.92
433.802	12.1
434.161	11.85
434.521	12.04
434.881	11.91
435.24	11.95
435.6	11.88
435.959	12.09
436.319	12.04
436.678	12.21
437.037	12.19
437.396	12.5
437.756	12.29
438.115	12.09
438.474	12.37
438.833	12.44
439.192	12.22
439.551	12.38
439.91	12.49
440.269	12.73
440.628	12.54
440.987	12.65
441.345	12.49
441.704	12.67
442.063	12.54
442.421	12.52
442.78	12.58
443.138	12.66
443.497	12.62
443.855	12.76
444.214	12.8
444.572	12.97
444.93	12.94
445.288	13.02
445.647	13.21
446.005	12.77
446.363	13
446.721	12.99
447.079	13.17
447.437	13.13
447.795	12.93
448.153	12.9
448.51	13.02
448.868	12.86
449.226	13.08
449.584	13.11
449.941	13.3
450.299	13.3
450.656	13.26
451.014	13.48
451.371	13.44
451.729	13.56
452.086	13.73
452.443	13.7
452.801	13.87
453.158	13.88
453.515	13.87
453.872	13.8
454.229	14.01
454.586	13.89
454.943	13.9
455.3	13.78
455.657	13.95
456.014	13.95
456.371	14.06
456.727	14.21
457.084	14.28
457.441	14.25
457.797	14.38
458.154	14.28
458.51	14.34
458.867	14.45
459.223	14.5
459.58	14.38
459.936	14.65
460.292	14.44
460.648	14.38
461.005	14.32
461.361	14.28
461.717	14.34
462.073	14.26
462.429	14.34
462.785	14.41
463.141	14.51
463.496	14.69
463.852	14.87
464.208	14.92
464.564	15.12
464.919	14.97
465.275	15.02
465.631	15.19
465.986	15.41
466.342	15.23
466.697	15.34
467.052	15.31
467.408	15.4
467.763	15.33
468.118	15.54
468.473	15.4
468.829	15.41
469.184	15.36
469.539	15.43
469.894	15.54
470.249	15.62
470.603	15.47
470.958	15.65
471.313	15.99
471.668	15.73
472.023	15.84
472.377	15.85
472.732	15.83
473.086	16.01
473.441	15.94
473.795	16.31
474.15	15.95
474.504	16.04
474.859	16.21
475.213	16.11
475.567	16.19
475.921	16.16
476.275	16.19
476.63	16.48
476.984	16.5
477.338	16.33
477.692	16.47
478.045	16.49
478.399	16.51
478.753	16.5
479.107	16.38
479.461	16.78
479.814	16.65
480.168	16.59
480.521	16.59
480.875	16.52
481.228	16.65
481.582	16.76
481.935	16.7
482.289	16.79
482.642	16.84
482.995	16.85
483.348	16.78
483.701	16.6
484.055	16.71
484.408	16.64
484.761	16.51
485.114	16.33
485.466	16.15
485.819	15.91
486.172	15.91
486.525	15.94
486.878	16.1
487.23	16.21
487.583	16.41
487.936	16.48
488.288	16.72
488.641	16.69
488.993	16.59
489.345	16.54
489.698	16.51
490.05	16.54
490.402	16.47
490.754	16.64
491.107	16.8
491.459	17.08
491.811	17.07
492.163	17.3
492.515	17.41
492.866	17.49
493.218	17.14
493.57	17.02
493.922	16.9
494.274	17.01
494.625	17.23
494.977	17.4
495.328	17.65
495.68	17.86
496.031	17.74
496.383	18.2
496.734	18.41
497.086	18.19
497.437	18.23
497.788	18.32
498.139	18.47
498.49	18.32
498.842	18.19
499.193	18.22
499.544	18.25
499.894	18.23
500.245	18.25
500.596	18.38
500.947	18.52
501.298	18.61
501.648	18.55
501.999	18.64
502.35	18.75
502.7	18.88
503.051	18.87
503.401	18.96
503.752	18.9
504.102	19.09
504.452	19.03
504.803	19.04
505.153	19.3
505.503	18.99
505.853	19.37
506.203	19.05
506.553	19.04
506.903	19.15
507.253	19.08
507.603	19.38
507.953	19.43
508.303	19.29
508.652	19.47
509.002	19.47
509.352	19.39
509.701	19.5
510.051	19.3
510.4	19.52
510.75	19.47
511.099	19.31
511.449	19.42
511.798	19.48
512.147	19.44
512.496	19.56
512.846	19.58
513.195	19.53
513.544	19.66
513.893	19.6
514.242	19.62
514.591	19.68
514.939	19.77
515.288	19.72
515.637	19.76
515.986	20.06
516.334	19.95
516.683	20.07
517.032	20.1
517.38	20.07
517.729	20.39
518.077	20.26
518.426	20.27
518.774	20.11
519.122	20.13
519.47	20.21
519.819	20.11
520.167	20.15
520.515	19.92
520.863	19.97
521.211	19.85
521.559	19.94
521.907	20.05
522.255	20.21
522.602	20.31
522.95	20.42
523.298	20.5
523.645	20.5
523.993	20.61
524.341	20.62
524.688	20.72
525.036	20.81
525.383	20.67
525.73	20.92
526.078	20.88
526.425	20.99
526.772	20.73
527.119	20.72
527.466	20.56
527.814	20.51
528.161	20.46
528.508	20.47
528.854	20.54
529.201	20.64
529.548	20.52
529.895	20.44
530.242	20.15
530.588	19.92
530.935	19.99
531.282	20.12
531.628	20.2
531.975	20.26
532.321	20.32
532.667	20.45
533.014	20.81
533.36	20.95
533.706	21.07
534.052	21
534.399	21.02
534.745	20.81
535.091	20.82
535.437	20.61
535.783	20.66
536.129	20.82
536.474	20.9
536.82	21.16
537.166	21.24
537.512	21.34
537.857	21.49
538.203	21.32
538.549	21.39
538.894	21.27
539.239	21.35
539.585	21.3
539.93	21.47
540.276	21.81
540.621	21.8
540.966	22.03
541.311	22.15
541.656	22.05
542.001	22.01
542.346	22.03
542.691	21.72
543.036	21.47
543.381	21.27
543.726	21.24
544.071	21.31
544.415	21.37
544.76	21.49
545.105	21.78
545.449	21.8
545.794	21.95
546.138	21.99
546.483	22.17
546.827	22.18
547.171	22.3
547.516	22.37
547.86	22.42
548.204	22.34
548.548	22.41
548.892	22.35
549.236	22.24
549.58	22.44
549.924	22.51
550.268	22.58
550.612	22.75
550.956	23.04
551.3	23.01
551.643	23.06
551.987	23.4
552.33	23.4
552.674	23.28
553.017	23.23
553.361	23.41
553.704	23.47
554.048	23.33
554.391	23.41
554.734	23.44
555.077	23.21
555.42	23.17
555.764	23.31
556.107	23.49
556.45	23.57
556.793	23.62
557.135	23.52
557.478	23.66
557.821	23.83
558.164	23.89
558.507	23.87
558.849	23.87
559.192	24.05
559.534	23.99
559.877	23.74
560.219	24.21
560.562	24.02
560.904	24.01
561.246	24.17
561.589	24.21
561.931	24.34
562.273	24.11
562.615	24.37
562.957	24.22
563.299	24.34
563.641	24.23
563.983	24.03
564.325	24.19
564.667	24.37
565.008	24.41
565.35	24.15
565.692	24.23
566.033	24.67
566.375	24.48
566.716	24.54
567.058	24.74
567.399	24.24
567.741	24.19
568.082	24.45
568.423	24.32
568.764	24.42
569.105	24.41
569.447	24.27
569.788	24.53
570.129	24.57
570.47	24.75
570.811	24.8
571.151	24.73
571.492	25.04
571.833	24.92
572.174	24.78
572.514	24.82
572.855	24.84
573.195	24.84
573.536	24.97
573.876	24.7
574.217	24.64
574.557	24.96
574.898	24.77
575.238	24.77
575.578	25.08
575.918	24.86
576.258	25.13
576.598	25.27
576.938	25.01
577.278	25.08
577.618	25.06
577.958	24.98
578.298	25.12
578.638	25.3
578.977	25.2
579.317	25.18
579.657	25.43
579.996	25.8
580.336	25.62
580.675	25.28
581.014	25.68
581.354	25.88
581.693	25.81
582.032	25.85
582.372	25.88
582.711	26.01
583.05	26.09
583.389	25.89
583.728	25.95
584.067	25.85
584.406	25.99
584.745	26
585.083	26.18
585.422	26.21
585.761	26.02
586.1	26.37
586.438	25.9
586.777	26.07
587.115	26.54
587.454	26.46
587.792	26.18
588.13	26.25
588.469	26.61
588.807	26.03
589.145	26.47
589.483	26.32
589.821	26.05
590.159	26.51
590.497	26.57
590.835	27.04
591.173	26.58
591.511	26.82
591.849	26.38
592.187	26.53
592.524	26.46
592.862	26.72
593.2	26.76
593.537	26.65
593.875	26.42
594.212	26.77
594.55	26.79
594.887	27.17
595.224	26.77
595.561	26.54
595.899	27.01
596.236	26.94
596.573	26.91
596.91	26.99
597.247	26.92
597.584	26.75
597.921	26.97
598.258	26.95
598.594	26.75
598.931	26.43
599.268	26.58
599.604	26.84
599.941	26.62
600.277	26.81
600.614	26.97
600.95	27.2
601.287	27.04
601.623	27.03
601.959	27.34
602.296	27.59
602.632	27.37
602.968	27.21
603.304	27.28
603.64	27.2
603.976	27.33
604.312	27.3
604.648	27.28
604.984	27.54
605.319	27.18
605.655	27.4
605.991	27.42
606.326	27.33
606.662	27.14
606.998	27.15
607.333	27.25
607.668	27.21
608.004	27.11
608.339	27.17
608.674	27.66
609.01	27.79
609.345	27.72
609.68	27.76
610.015	27.76
610.35	27.76
610.685	27.76
611.02	27.72
611.355	27.76
611.689	27.58
612.024	27.59
612.359	27.6
612.694	27.44
613.028	27.9
613.363	27.76
613.697	28.01
614.032	28.08
614.366	27.89
614.7	28.09
615.035	28
615.369	28.46
615.703	27.99
616.037	27.85
616.371	28.31
616.705	28.21
617.039	27.94
617.373	28.54
617.707	28.59
618.041	28.52
618.375	28.23
618.709	28.28
619.042	28.36
619.376	28.66
619.71	28.93
620.043	28.58
620.377	28.66
620.71	27.93
621.043	28.3
621.377	28.62
621.71	28.89
622.043	28.38
622.376	28.76
622.709	28.87
623.043	28.72
623.376	28.59
623.709	28.67
624.041	28.58
624.374	28.89
624.707	28.98
625.04	29
625.373	29.15
625.705	29.05
626.038	29.07
626.37	28.77
626.703	28.97
627.035	28.77
627.368	29.07
627.7	28.82
628.032	28.94
628.365	29.16
628.697	28.7
629.029	28.92
629.361	28.8
629.693	28.61
630.025	28.94
630.357	29.02
630.689	28.6
631.021	29.27
631.353	28.96
631.684	29.1
632.016	29.28
632.348	29.17
632.679	29.24
633.011	29.39
633.342	28.96
633.674	29.04
634.005	29.15
634.336	29.85
634.668	29.55
634.999	29.45
635.33	29.52
635.661	29.64
635.992	29.45
636.323	29.37
636.654	29.64
636.985	29.44
637.316	29.44
637.647	29.53
637.977	29.3
638.308	29.34
638.639	29.76
638.969	29.45
639.3	29.59
639.63	29.71
639.961	29.45
640.291	29.87
640.622	29.82
640.952	29.78
641.282	29.65
641.612	29.73
641.943	29.58
642.273	29.65
642.603	30.03
642.933	29.97
643.263	30.62
643.592	30.37
643.922	30.61
644.252	30.13
644.582	29.5
644.911	30.08
645.241	29.95
645.571	30.3
645.9	30.18
646.23	29.9
646.559	29.72
646.888	30.23
647.218	29.89
647.547	30.38
647.876	30.29
648.205	30.42
648.534	30.34
648.863	30.4
649.192	30.64
649.521	30.41
649.85	30.59
650.179	30.57
650.508	30.11
650.837	30.18
651.165	30.53
651.494	30.58
651.822	30.14
652.151	30.65
652.479	30.6
652.808	30.3
653.136	30.07
653.465	30.11
653.793	30.38
654.121	30.61
654.449	30.52
654.777	30.42
655.105	30.58
655.433	30.68
655.761	30.86
656.089	30.51
656.417	30.34
656.745	31.14
657.073	31.03
657.4	31.38
657.728	31.09
658.056	30.74
658.383	30.47
658.711	30.73
659.038	31.09
659.365	31.16
659.693	30.97
660.02	30.86
660.347	30.89
660.674	30.67
661.001	30.68
661.329	30.75
661.656	31.16
661.982	30.54
662.309	30.54
662.636	30.79
662.963	31.11
663.29	30.79
663.616	31.14
663.943	31.4
664.27	31.33
664.596	31.07
664.923	30.54
665.249	31.06
665.576	30.66
665.902	31.31
666.228	31.92
666.554	31.38
666.881	30.96
667.207	31.91
667.533	31.79
667.859	32.15
668.185	31.49
668.511	31.94
668.837	31.37
669.162	31.51
669.488	31.39
669.814	30.87
670.139	31.52
670.465	30.82
670.791	31.08
671.116	31.75
671.442	31.02
671.767	31.31
672.092	31.74
672.418	31.73
672.743	31.19
673.068	31.64
673.393	31.86
673.718	31.81
674.043	32.2
674.368	31.84
674.693	32.07
675.018	31.86
