Data from 0284_forehead_Reflection__3__244.txt Node

Date: Fri Oct 20 22:36:27 CDT 2023
User: ToomeyLab
Spectrometer: FLMS14357
Trigger mode: 0
Integration Time (sec): 1.000000E-2
Scans to average: 100
Electric dark correction enabled: true
Nonlinearity correction enabled: false
Boxcar width: 0
XAxis mode: Wavelengths
Number of Pixels in Spectrum: 2048
>>>>>Begin Spectral Data<<<<<
189.047	-17.78
189.435	-17.78
189.823	-17.78
190.211	-108.23
190.599	-6522.22
190.987	49.82
191.375	25.01
191.763	-11.37
192.151	110.49
192.538	69.86
192.926	2.54
193.314	140.82
193.702	108.3
194.089	226.69
194.477	-188.94
194.864	1007.53
195.252	94.03
195.639	37.85
196.027	121.96
196.414	62.07
196.801	205.79
197.189	20.98
197.576	-599.33
197.963	40.59
198.351	46.29
198.738	30.57
199.125	57.36
199.512	61.11
199.899	16.74
200.286	12.95
200.673	44
201.06	45.56
201.447	42.16
201.833	42.01
202.22	14.23
202.607	58.69
202.994	49.91
203.38	45.61
203.767	11.73
204.154	85.82
204.54	35.47
204.927	48.24
205.313	32.9
205.699	47.85
206.086	77.36
206.472	29.06
206.858	56.49
207.245	9.59
207.631	64.09
208.017	38.86
208.403	0.63
208.789	39.17
209.175	38.93
209.561	50.61
209.947	-7.82
210.333	51.77
210.719	106.38
211.105	62.58
211.491	22.01
211.876	34.7
212.262	46.31
212.648	40.81
213.034	-23.96
213.419	22.43
213.805	23.05
214.19	27.17
214.576	15.64
214.961	46.81
215.346	39.15
215.732	13.92
216.117	-8.4
216.502	13.57
216.888	5.18
217.273	-10.12
217.658	4.2
218.043	12.44
218.428	6.56
218.813	21.38
219.198	24.63
219.583	2.41
219.968	3.58
220.353	34.12
220.738	41.52
221.122	35.03
221.507	25.58
221.892	30.21
222.276	14.86
222.661	18.29
223.046	14.31
223.43	16.52
223.815	19.96
224.199	18.27
224.583	15.82
224.968	2.6
225.352	8.38
225.736	5.88
226.121	15.87
226.505	6.61
226.889	14.98
227.273	13.57
227.657	17.38
228.041	15.54
228.425	5.69
228.809	10.81
229.193	9.03
229.577	9.48
229.961	6.29
230.344	5.89
230.728	5.36
231.112	6.7
231.495	5.97
231.879	6.65
232.263	8.62
232.646	5.09
233.03	5.64
233.413	5.95
233.797	7.61
234.18	7.88
234.563	8.52
234.946	7.28
235.33	7.53
235.713	7
236.096	8.4
236.479	7.06
236.862	8.06
237.245	7.26
237.628	7.61
238.011	7.72
238.394	7.22
238.777	8.85
239.16	6.4
239.543	6.77
239.925	7.91
240.308	8.38
240.691	7.64
241.073	8.05
241.456	7.76
241.838	7.11
242.221	8.06
242.603	7.98
242.986	6.59
243.368	6.43
243.75	6.35
244.133	5.93
244.515	6.01
244.897	6.02
245.279	6.47
245.661	6.09
246.043	6.17
246.425	6.12
246.807	6.73
247.189	5.92
247.571	5.76
247.953	6.13
248.335	6.57
248.717	5.8
249.098	6.06
249.48	6.07
249.862	6.21
250.243	6.39
250.625	6.49
251.006	6.24
251.388	6
251.769	7.01
252.151	6.53
252.532	6.4
252.913	6.82
253.295	5.25
253.676	6.05
254.057	5.96
254.438	5.96
254.819	6.12
255.2	6.3
255.581	6.16
255.962	6.65
256.343	6.27
256.724	5.51
257.105	6.08
257.486	7.58
257.867	6.95
258.247	7.44
258.628	5.95
259.009	5.55
259.389	6.4
259.77	5.3
260.15	6.44
260.531	6.03
260.911	6.32
261.292	5.63
261.672	5.95
262.052	5.89
262.432	5.78
262.813	5.78
263.193	5.97
263.573	5.87
263.953	5.66
264.333	6.34
264.713	6.12
265.093	6.23
265.473	7.11
265.853	6.32
266.233	6.84
266.612	6.27
266.992	5.95
267.372	6.3
267.752	5.34
268.131	6.06
268.511	5.67
268.89	6
269.27	5.66
269.649	5.07
270.029	5.86
270.408	5.37
270.787	6.2
271.167	5.54
271.546	5.68
271.925	6.49
272.304	6.06
272.683	5.71
273.062	6.12
273.441	5.96
273.82	5.92
274.199	6.41
274.578	5.82
274.957	6.02
275.336	6.18
275.715	5.8
276.093	5.81
276.472	5.65
276.851	6.36
277.229	5.98
277.608	5.74
277.986	5.75
278.365	6.52
278.743	5.97
279.122	5.78
279.5	6.33
279.878	5.86
280.257	6.11
280.635	5.81
281.013	5.97
281.391	6.81
281.769	5.41
282.147	5.67
282.525	5.72
282.903	5.56
283.281	6.22
283.659	5.82
284.037	6.04
284.415	5.26
284.792	5.44
285.17	5.52
285.548	5.92
285.925	5.45
286.303	5.86
286.68	5.62
287.058	5.95
287.435	5.89
287.813	5.41
288.19	5.57
288.567	5.55
288.945	6.11
289.322	5.89
289.699	5.55
290.076	6.64
290.453	6.18
290.83	5.74
291.207	5.84
291.584	5.53
291.961	5.73
292.338	5.32
292.715	5.49
293.092	5.72
293.469	6.28
293.845	5.36
294.222	6.06
294.599	6.08
294.975	6.48
295.352	6.3
295.728	6.59
296.105	6.25
296.481	5.36
296.858	6.15
297.234	6.43
297.61	5.23
297.986	5.48
298.363	6.35
298.739	6.19
299.115	5.79
299.491	5.92
299.867	6.09
300.243	6.3
300.619	5.79
300.995	6.1
301.371	6.76
301.746	6.14
302.122	6.74
302.498	6.25
302.874	6.11
303.249	6.29
303.625	6.25
304	6.53
304.376	6.37
304.751	6.16
305.127	6.32
305.502	6.69
305.878	6.77
306.253	6.2
306.628	6.55
307.003	6.33
307.378	6.37
307.754	6.27
308.129	7.4
308.504	6.86
308.879	6.95
309.254	7.26
309.629	6.25
310.003	5.99
310.378	7.13
310.753	6.83
311.128	6.9
311.502	6.68
311.877	6.77
312.252	6.61
312.626	6.96
313.001	6.91
313.375	6.63
313.75	7.09
314.124	6.81
314.498	7.21
314.873	6.18
315.247	7.22
315.621	6.96
315.995	7.56
316.369	7.13
316.743	6.89
317.117	7.65
317.491	6.68
317.865	7.17
318.239	7.91
318.613	7.73
318.987	7.15
319.361	6.64
319.734	7.57
320.108	7.27
320.482	7.5
320.855	7.95
321.229	7.95
321.602	7.72
321.976	7.48
322.349	7.89
322.723	7.05
323.096	7.79
323.469	7.93
323.843	8.15
324.216	7.83
324.589	7.86
324.962	8.19
325.335	8.19
325.708	7.85
326.081	7.69
326.454	7.95
326.827	7.82
327.2	7.96
327.573	8.34
327.945	8.13
328.318	7.9
328.691	7.93
329.063	7.84
329.436	7.79
329.809	8.54
330.181	8.73
330.553	8.78
330.926	8.48
331.298	7.64
331.671	8.33
332.043	7.81
332.415	7.98
332.787	8.26
333.159	8.37
333.532	8.62
333.904	8.93
334.276	8.19
334.648	7.92
335.02	8.64
335.391	8.25
335.763	8.9
336.135	8.81
336.507	8.55
336.879	8.43
337.25	8.6
337.622	8.56
337.993	9.3
338.365	8.81
338.736	8.79
339.108	8.38
339.479	8.6
339.851	8.87
340.222	8.54
340.593	8.25
340.964	9.21
341.336	9.14
341.707	9.32
342.078	9.31
342.449	9
342.82	8.99
343.191	8.65
343.562	8.92
343.933	8.78
344.303	8.95
344.674	9.16
345.045	9.2
345.416	9.21
345.786	8.85
346.157	8.87
346.527	8.93
346.898	8.77
347.268	9.06
347.639	8.98
348.009	9.16
348.38	9.65
348.75	9.17
349.12	9.03
349.49	9.26
349.861	9.37
350.231	9.2
350.601	9.49
350.971	9.78
351.341	9.21
351.711	9.91
352.081	9.26
352.45	9.1
352.82	9.61
353.19	9.78
353.56	9.57
353.929	9.48
354.299	9.09
354.669	9.55
355.038	10.04
355.408	10.11
355.777	9.84
356.147	9.61
356.516	9.75
356.885	9.6
357.254	10.19
357.624	10
357.993	9.63
358.362	9.91
358.731	9.35
359.1	9.64
359.469	9.76
359.838	9.79
360.207	9.57
360.576	10.25
360.945	9.55
361.314	9.84
361.682	9.87
362.051	9.68
362.42	9.66
362.788	10.06
363.157	9.89
363.525	10.09
363.894	10.26
364.262	9.97
364.631	9.96
364.999	10.1
365.367	10.3
365.735	10.1
366.104	9.96
366.472	10.49
366.84	10.42
367.208	10.72
367.576	10.35
367.944	10.14
368.312	10.49
368.68	10.66
369.048	10.59
369.416	10.81
369.783	10.69
370.151	10.61
370.519	10.68
370.886	11.06
371.254	10.47
371.621	10.9
371.989	10.66
372.356	11.05
372.724	10.69
373.091	10.75
373.458	10.79
373.826	10.9
374.193	10.69
374.56	10.96
374.927	10.82
375.294	11.09
375.661	11.23
376.028	11.25
376.395	11.22
376.762	10.87
377.129	11.25
377.496	11.34
377.863	11.62
378.229	11.42
378.596	11.02
378.963	11.37
379.329	11.5
379.696	11.4
380.062	11.58
380.429	11.26
380.795	11.36
381.161	11.56
381.528	11.84
381.894	11.42
382.26	11.38
382.626	12
382.993	11.64
383.359	11.69
383.725	11.75
384.091	11.64
384.457	11.76
384.823	11.58
385.188	11.97
385.554	11.9
385.92	11.79
386.286	12.35
386.651	11.87
387.017	12.12
387.383	12.04
387.748	12.09
388.114	11.73
388.479	12.37
388.845	12.37
389.21	12.07
389.575	12.13
389.94	12.31
390.306	12.3
390.671	12.29
391.036	12.56
391.401	12.56
391.766	12.39
392.131	12.57
392.496	12.66
392.861	12.43
393.226	12.58
393.591	12.46
393.956	12.58
394.32	13.03
394.685	12.54
395.05	12.94
395.414	12.94
395.779	12.41
396.143	12.73
396.508	12.75
396.872	12.92
397.236	12.96
397.601	12.77
397.965	12.72
398.329	12.89
398.694	13.03
399.058	12.78
399.422	13.04
399.786	12.98
400.15	13.07
400.514	13.27
400.878	13.25
401.242	13.24
401.605	13.38
401.969	13.25
402.333	12.96
402.697	13.44
403.06	13.1
403.424	13.47
403.787	13.41
404.151	13.41
404.514	13.53
404.878	13.57
405.241	13.34
405.604	13.46
405.968	13.63
406.331	13.4
406.694	13.48
407.057	13.34
407.42	13.67
407.783	13.67
408.146	13.5
408.509	13.58
408.872	13.87
409.235	13.67
409.598	13.95
409.961	13.98
410.323	13.86
410.686	13.85
411.049	14.01
411.411	13.91
411.774	14.09
412.136	13.82
412.499	13.95
412.861	14.12
413.223	14.14
413.586	14.21
413.948	14.46
414.31	14.22
414.672	14.02
415.035	13.99
415.397	14.33
415.759	14.52
416.121	14.62
416.483	14.3
416.845	14.25
417.206	14.38
417.568	14.55
417.93	14.35
418.292	14.39
418.653	14.56
419.015	14.41
419.377	14.44
419.738	14.42
420.1	14.46
420.461	14.29
420.822	14.45
421.184	14.44
421.545	14.67
421.906	14.67
422.267	14.49
422.629	14.57
422.99	14.48
423.351	14.5
423.712	14.52
424.073	14.57
424.434	14.65
424.795	14.87
425.155	14.92
425.516	14.64
425.877	14.81
426.238	14.71
426.598	14.84
426.959	14.74
427.32	14.86
427.68	15.12
428.041	15.22
428.401	15.3
428.761	15.32
429.122	15.44
429.482	15.46
429.842	15.55
430.202	15.64
430.563	15.67
430.923	15.9
431.283	15.89
431.643	16
432.003	16.15
432.363	15.97
432.722	16.1
433.082	16.05
433.442	16.1
433.802	16.28
434.161	15.95
434.521	16.18
434.881	16.18
435.24	16.11
435.6	16.17
435.959	16.28
436.319	16.35
436.678	16.33
437.037	16.34
437.396	16.55
437.756	16.7
438.115	16.46
438.474	16.58
438.833	16.7
439.192	16.42
439.551	16.72
439.91	16.74
440.269	16.84
440.628	16.75
440.987	16.73
441.345	16.95
441.704	16.82
442.063	16.93
442.421	16.88
442.78	16.88
443.138	17.05
443.497	16.92
443.855	17.06
444.214	17.29
444.572	17.4
444.93	17.38
445.288	17.44
445.647	17.62
446.005	17.34
446.363	17.41
446.721	17.55
447.079	17.68
447.437	17.49
447.795	17.37
448.153	17.42
448.51	17.42
448.868	17.43
449.226	17.51
449.584	17.67
449.941	17.79
450.299	17.78
450.656	17.88
451.014	18
451.371	18.13
451.729	18.01
452.086	18.4
452.443	18.42
452.801	18.46
453.158	18.55
453.515	18.74
453.872	18.67
454.229	18.76
454.586	18.72
454.943	18.64
455.3	18.73
455.657	18.73
456.014	18.6
456.371	18.98
456.727	19.06
457.084	18.98
457.441	18.97
457.797	19.09
458.154	19.18
458.51	19.16
458.867	19.17
459.223	19.5
459.58	19.42
459.936	19.46
460.292	19.59
460.648	19.53
461.005	19.25
461.361	19.24
461.717	19.26
462.073	19.34
462.429	19.25
462.785	19.23
463.141	19.63
463.496	19.51
463.852	19.83
464.208	20.03
464.564	20.17
464.919	20.12
465.275	20.24
465.631	20.21
465.986	20.33
466.342	20.51
466.697	20.4
467.052	20.39
467.408	20.43
467.763	20.56
468.118	20.82
468.473	20.5
468.829	20.55
469.184	20.68
469.539	20.74
469.894	20.75
470.249	20.99
470.603	20.94
470.958	21.17
471.313	21.09
471.668	21.14
472.023	21.09
472.377	21.35
472.732	21.3
473.086	21.55
473.441	21.55
473.795	21.52
474.15	21.39
474.504	21.61
474.859	21.65
475.213	21.89
475.567	21.76
475.921	21.72
476.275	21.67
476.63	22.11
476.984	22.02
477.338	21.96
477.692	22.03
478.045	22.14
478.399	22.04
478.753	22.18
479.107	22.26
479.461	21.98
479.814	22.24
480.168	22.35
480.521	22.41
480.875	22.35
481.228	22.39
481.582	22.59
481.935	22.5
482.289	22.6
482.642	22.63
482.995	22.66
483.348	22.66
483.701	22.52
484.055	22.64
484.408	22.4
484.761	22.32
485.114	22.16
485.466	21.91
485.819	21.77
486.172	21.76
486.525	21.78
486.878	21.81
487.23	21.89
487.583	22.01
487.936	22.33
488.288	22.51
488.641	22.59
488.993	22.5
489.345	22.4
489.698	22.38
490.05	22.38
490.402	22.44
490.754	22.52
491.107	22.64
491.459	22.96
491.811	23.08
492.163	23.27
492.515	23.44
492.866	23.59
493.218	23.29
493.57	23.18
493.922	23.03
494.274	23.13
494.625	23.2
494.977	23.37
495.328	23.7
495.68	24.1
496.031	23.96
496.383	24.58
496.734	24.6
497.086	24.89
497.437	24.84
497.788	24.74
498.139	24.95
498.49	24.95
498.842	24.73
499.193	24.72
499.544	24.72
499.894	24.98
500.245	24.85
500.596	25.01
500.947	25.13
501.298	25.08
501.648	25.36
501.999	25.38
502.35	25.48
502.7	25.69
503.051	25.88
503.401	25.94
503.752	25.92
504.102	25.89
504.452	26.05
504.803	26.11
505.153	26.15
505.503	26.11
505.853	26.3
506.203	26.04
506.553	26.23
506.903	26.28
507.253	26.31
507.603	26.38
507.953	26.44
508.303	26.49
508.652	26.55
509.002	26.7
509.352	26.82
509.701	26.72
510.051	26.71
510.4	26.49
510.75	26.61
511.099	26.53
511.449	26.61
511.798	26.81
512.147	26.6
512.496	26.91
512.846	26.9
513.195	27.02
513.544	27.08
513.893	27.01
514.242	27.13
514.591	27.05
514.939	27.14
515.288	27.24
515.637	27.24
515.986	27.49
516.334	27.67
516.683	27.56
517.032	27.5
517.38	27.74
517.729	27.75
518.077	27.75
518.426	27.92
518.774	28.01
519.122	27.87
519.47	27.81
519.819	27.83
520.167	27.68
520.515	27.62
520.863	27.49
521.211	27.5
521.559	27.59
521.907	27.67
522.255	27.79
522.602	28.01
522.95	28.13
523.298	28.38
523.645	28.55
523.993	28.46
524.341	28.73
524.688	28.81
525.036	28.8
525.383	28.73
525.73	28.94
526.078	28.81
526.425	28.9
526.772	28.72
527.119	28.66
527.466	28.53
527.814	28.42
528.161	28.41
528.508	28.5
528.854	28.36
529.201	28.43
529.548	28.45
529.895	28.46
530.242	28.1
530.588	27.84
530.935	27.97
531.282	28.01
531.628	27.93
531.975	27.95
532.321	28.12
532.667	28.37
533.014	28.7
533.36	29.11
533.706	29.16
534.052	29.14
534.399	29.2
534.745	29.07
535.091	29
535.437	28.95
535.783	29.01
536.129	28.86
536.474	29.04
536.82	29.27
537.166	29.39
537.512	29.63
537.857	30.1
538.203	29.85
538.549	29.97
538.894	29.7
539.239	29.66
539.585	29.72
539.93	29.97
540.276	30.31
540.621	30.3
540.966	30.75
541.311	30.86
541.656	30.96
542.001	30.88
542.346	30.78
542.691	30.53
543.036	30.17
543.381	29.89
543.726	29.87
544.071	29.92
544.415	29.96
544.76	29.89
545.105	30.27
545.449	30.39
545.794	30.69
546.138	30.67
546.483	30.94
546.827	30.97
547.171	31.24
547.516	31.29
547.86	31.5
548.204	31.4
548.548	31.43
548.892	31.21
549.236	31.24
549.58	31.53
549.924	31.68
550.268	31.69
550.612	31.77
550.956	32.23
551.3	32.23
551.643	32.41
551.987	32.67
552.33	32.82
552.674	32.82
553.017	32.74
553.361	32.82
553.704	32.71
554.048	32.65
554.391	32.85
554.734	32.74
555.077	32.72
555.42	32.54
555.764	32.79
556.107	32.96
556.45	33
556.793	33.38
557.135	33.27
557.478	33.33
557.821	33.22
558.164	33.61
558.507	33.63
558.849	33.83
559.192	33.89
559.534	33.86
559.877	33.55
560.219	33.85
560.562	33.98
560.904	33.96
561.246	34.04
561.589	34.08
561.931	34.4
562.273	34.36
562.615	34.37
562.957	34.33
563.299	34.22
563.641	34.48
563.983	34.41
564.325	34.25
564.667	34.22
565.008	34.49
565.35	34.42
565.692	34.56
566.033	34.75
566.375	34.58
566.716	34.57
567.058	34.68
567.399	34.73
567.741	34.48
568.082	34.6
568.423	34.53
568.764	34.45
569.105	34.66
569.447	34.63
569.788	34.57
570.129	34.68
570.47	34.94
570.811	35.11
571.151	35.2
571.492	35.14
571.833	35.24
572.174	35.37
572.514	35.47
572.855	35.7
573.195	35.23
573.536	35.29
573.876	35.18
574.217	35.14
574.557	35.16
574.898	35.13
575.238	35.21
575.578	35.15
575.918	35.21
576.258	35.58
576.598	35.74
576.938	35.74
577.278	35.73
577.618	35.73
577.958	35.79
578.298	35.89
578.638	35.86
578.977	35.93
579.317	36.07
579.657	36.17
579.996	36.37
580.336	36.47
580.675	36.37
581.014	36.57
581.354	36.62
581.693	36.68
582.032	36.89
582.372	36.96
582.711	37.05
583.05	37.11
583.389	36.99
583.728	37.13
584.067	37.31
584.406	37.36
584.745	37.04
585.083	37.45
585.422	37.49
585.761	37.43
586.1	37.32
586.438	37.22
586.777	37.66
587.115	37.77
587.454	37.67
587.792	37.67
588.13	37.9
588.469	38.09
588.807	37.56
589.145	37.83
589.483	38.27
589.821	37.92
590.159	38.04
590.497	37.83
590.835	38.09
591.173	38.02
591.511	37.97
591.849	38.18
592.187	38.14
592.524	38.08
592.862	38.06
593.2	38.25
593.537	38.38
593.875	38.19
594.212	38.52
594.55	38.45
594.887	38.24
595.224	38.75
595.561	38.74
595.899	38.46
596.236	38.78
596.573	38.96
596.91	38.84
597.247	38.8
597.584	38.79
597.921	38.91
598.258	38.72
598.594	38.61
598.931	38.54
599.268	38.56
599.604	38.78
599.941	38.49
600.277	38.66
600.614	38.92
600.95	38.97
601.287	39.34
601.623	39.47
601.959	39.49
602.296	39.53
602.632	39.65
602.968	39.61
603.304	39.75
603.64	39.59
603.976	39.74
604.312	39.92
604.648	39.91
604.984	40.01
605.319	39.5
605.655	39.25
605.991	39.56
606.326	39.31
606.662	39.07
606.998	39.24
607.333	39.48
607.668	39.36
608.004	39.25
608.339	39.46
608.674	39.78
609.01	40.24
609.345	40.1
609.68	40.05
610.015	39.87
610.35	40.31
610.685	40.32
611.02	40.63
611.355	39.97
611.689	40.29
612.024	40.3
612.359	40.06
612.694	39.69
613.028	40.39
613.363	40.35
613.697	40.23
614.032	40.42
614.366	40.91
614.7	41.18
615.035	41.2
615.369	40.85
615.703	40.93
616.037	41.24
616.371	41.13
616.705	40.93
617.039	40.64
617.373	41.41
617.707	41.29
618.041	41.63
618.375	41.25
618.709	41.43
619.042	41.83
619.376	41.48
619.71	41.27
620.043	41.2
620.377	41.5
620.71	41.32
621.043	41.44
621.377	41.59
621.71	41.75
622.043	41.6
622.376	41.68
622.709	41.97
623.043	41.51
623.376	41.39
623.709	41.89
624.041	41.96
624.374	41.54
624.707	41.75
625.04	42.1
625.373	42.54
625.705	42.29
626.038	42.55
626.37	42.21
626.703	41.86
627.035	41.89
627.368	42.09
627.7	42.4
628.032	42.07
628.365	42.4
628.697	42.3
629.029	42.05
629.361	42.11
629.693	42.34
630.025	42.47
630.357	42.4
630.689	42.25
631.021	42.49
631.353	42.32
631.684	42.56
632.016	42.68
632.348	42.76
632.679	42.29
633.011	42.95
633.342	42.84
633.674	42.53
634.005	42.9
634.336	43.44
634.668	43.47
634.999	42.72
635.33	42.88
635.661	43.17
635.992	43.23
636.323	43.16
636.654	43.02
636.985	42.82
637.316	43.32
637.647	42.8
637.977	42.74
638.308	43.27
638.639	43.26
638.969	43.29
639.3	43.2
639.63	43.4
639.961	43.29
640.291	43.41
640.622	43.56
640.952	43.32
641.282	43.51
641.612	43.49
641.943	43.51
642.273	43.25
642.603	43.93
642.933	43.57
643.263	43.83
643.592	43.73
643.922	44.08
644.252	44.19
644.582	44.22
644.911	44.68
645.241	44.12
645.571	44.31
645.9	44.52
646.23	44.19
646.559	44.14
646.888	43.98
647.218	44.64
647.547	44.91
647.876	44.83
648.205	44.55
648.534	43.91
648.863	44.16
649.192	44.53
649.521	45.05
649.85	44.62
650.179	44.22
650.508	44.76
650.837	44.63
651.165	45.01
651.494	44.55
651.822	44.6
652.151	45.03
652.479	44.61
652.808	44.4
653.136	44.62
653.465	45
653.793	45.1
654.121	44.97
654.449	44.94
654.777	44.64
655.105	44.81
655.433	44.65
655.761	44.75
656.089	45.63
656.417	44.89
656.745	44.78
657.073	45.22
657.4	45.44
657.728	45.42
658.056	45.08
658.383	45.65
658.711	45.49
659.038	45.54
659.365	45.67
659.693	45.43
660.02	45.48
660.347	45.24
660.674	45.6
661.001	45.77
661.329	45.05
661.656	45.32
661.982	45.21
662.309	45.51
662.636	45.44
662.963	45.53
663.29	45.65
663.616	45.23
663.943	45.23
664.27	45.75
664.596	45.83
664.923	45.47
665.249	45.72
665.576	46.33
665.902	45.72
666.228	46.16
666.554	46.28
666.881	45.57
667.207	46.04
667.533	46.78
667.859	46.46
668.185	46.5
668.511	46.81
668.837	46.37
669.162	46.87
669.488	47.3
669.814	46.06
670.139	46.48
670.465	46.14
670.791	46.76
671.116	46.97
671.442	46.77
671.767	47.03
