Data from 0284_crown_Reflection__2__238.txt Node

Date: Fri Oct 20 22:35:13 CDT 2023
User: ToomeyLab
Spectrometer: FLMS14357
Trigger mode: 0
Integration Time (sec): 1.000000E-2
Scans to average: 100
Electric dark correction enabled: true
Nonlinearity correction enabled: false
Boxcar width: 0
XAxis mode: Wavelengths
Number of Pixels in Spectrum: 2048
>>>>>Begin Spectral Data<<<<<
189.047	-21.82
189.435	-21.82
189.823	-21.82
190.211	-110.18
190.599	17811.11
190.987	30.69
191.375	12.79
191.763	-178.3
192.151	254.34
192.538	21.34
192.926	18.15
193.314	94.93
193.702	318.6
194.089	290.78
194.477	-279.18
194.864	-110.04
195.252	91.04
195.639	77.58
196.027	-58.67
196.414	25.84
196.801	-84.65
197.189	9.35
197.576	-698.12
197.963	91.96
198.351	54.41
198.738	11.75
199.125	62.81
199.512	40.85
199.899	32.41
200.286	8.74
200.673	33.64
201.06	2.49
201.447	6.41
201.833	9.22
202.22	19.15
202.607	31.71
202.994	20.34
203.38	13.06
203.767	5.46
204.154	37.73
204.54	32.47
204.927	-1.78
205.313	-30.31
205.699	43.5
206.086	12.66
206.472	36.4
206.858	68.15
207.245	1.9
207.631	34.61
208.017	55.38
208.403	-4.5
208.789	50.01
209.175	-14.91
209.561	14.93
209.947	-5.75
210.333	33.24
210.719	-33.79
211.105	12.25
211.491	42.76
211.876	-2.35
212.262	29.68
212.648	11.48
213.034	-43.87
213.419	8.09
213.805	31.34
214.19	11.16
214.576	-40
214.961	6.55
215.346	31.28
215.732	6.08
216.117	-30.7
216.502	25.58
216.888	14.89
217.273	-15.77
217.658	-1.87
218.043	9.33
218.428	-12.2
218.813	5.85
219.198	-4.3
219.583	-35.27
219.968	-35.07
220.353	1.92
220.738	2.3
221.122	11.64
221.507	2.39
221.892	0.73
222.276	-6.81
222.661	18.65
223.046	14.27
223.43	-2.74
223.815	13.81
224.199	6.48
224.583	6.45
224.968	-4.98
225.352	3.22
225.736	14.22
226.121	8.87
226.505	7.72
226.889	14.23
227.273	4.58
227.657	9.46
228.041	5.15
228.425	4.7
228.809	8.21
229.193	3.58
229.577	8.94
229.961	6.51
230.344	6.19
230.728	5.66
231.112	7.36
231.495	6.53
231.879	5.99
232.263	7.31
232.646	6.91
233.03	5.8
233.413	4.89
233.797	5.86
234.18	6.63
234.563	7.9
234.946	9
235.33	6.86
235.713	7.71
236.096	7.13
236.479	6.6
236.862	5.53
237.245	5.7
237.628	6.62
238.011	7.25
238.394	5.72
238.777	7.65
239.16	5.96
239.543	6.53
239.925	8.02
240.308	5.48
240.691	4.84
241.073	7.35
241.456	7.32
241.838	5.34
242.221	7.24
242.603	6.32
242.986	6.57
243.368	6.86
243.75	6.07
244.133	6.01
244.515	5.82
244.897	6.06
245.279	6.19
245.661	6.1
246.043	6.05
246.425	5.73
246.807	5.59
247.189	5.35
247.571	5.82
247.953	5.55
248.335	6.33
248.717	5.64
249.098	5.76
249.48	5.64
249.862	5.86
250.243	6.14
250.625	5.99
251.006	5.77
251.388	6.08
251.769	6.47
252.151	5.53
252.532	5.63
252.913	5.81
253.295	4.84
253.676	6.27
254.057	5.88
254.438	5.54
254.819	6.02
255.2	5.96
255.581	5.17
255.962	5.07
256.343	5.5
256.724	5.05
257.105	5.89
257.486	5.73
257.867	5.62
258.247	6.14
258.628	5.09
259.009	4.79
259.389	5.07
259.77	5.28
260.15	5.98
260.531	5.9
260.911	5.84
261.292	5.34
261.672	5.38
262.052	5.66
262.432	5.52
262.813	5.56
263.193	5.68
263.573	6.02
263.953	5.84
264.333	6.12
264.713	6.09
265.093	6.08
265.473	6.48
265.853	5.41
266.233	6.29
266.612	5.02
266.992	5.27
267.372	5.41
267.752	5.38
268.131	5.71
268.511	5.62
268.89	5.74
269.27	5.32
269.649	4.6
270.029	5.38
270.408	5.63
270.787	5.08
271.167	5.73
271.546	6.31
271.925	6.17
272.304	5.67
272.683	5.12
273.062	5.1
273.441	5.75
273.82	5.47
274.199	5.22
274.578	5.53
274.957	5.29
275.336	5.39
275.715	5.57
276.093	5.25
276.472	5.12
276.851	5.34
277.229	5.65
277.608	4.96
277.986	5.05
278.365	5.72
278.743	5.26
279.122	5.2
279.5	4.89
279.878	4.53
280.257	5.16
280.635	5.08
281.013	5.68
281.391	5.05
281.769	4.81
282.147	5.3
282.525	5.26
282.903	4.9
283.281	5.62
283.659	5.12
284.037	5.48
284.415	4.62
284.792	5.16
285.17	5.04
285.548	5.02
285.925	4.89
286.303	4.78
286.68	4.88
287.058	5.69
287.435	5
287.813	4.72
288.19	4.74
288.567	4.86
288.945	5.31
289.322	5.43
289.699	4.45
290.076	5.62
290.453	4.8
290.83	4.84
291.207	5.31
291.584	4.5
291.961	4.72
292.338	4.34
292.715	4.69
293.092	4.38
293.469	5.09
293.845	4.85
294.222	4.9
294.599	4.46
294.975	5.18
295.352	4.35
295.728	4.62
296.105	4.66
296.481	4.71
296.858	4.64
297.234	4.65
297.61	4.31
297.986	4.46
298.363	4.73
298.739	4.42
299.115	4.4
299.491	4.71
299.867	4.65
300.243	4.52
300.619	4.52
300.995	4.57
301.371	4.45
301.746	4.64
302.122	4.39
302.498	4.39
302.874	4.57
303.249	4.68
303.625	4.3
304	4.82
304.376	4.6
304.751	4.43
305.127	4.14
305.502	4.72
305.878	4.45
306.253	4.42
306.628	4.38
307.003	4.43
307.378	4.69
307.754	4.82
308.129	5.09
308.504	4.69
308.879	4.54
309.254	4.59
309.629	4.4
310.003	3.84
310.378	4.88
310.753	4.19
311.128	4.5
311.502	4.37
311.877	4.69
312.252	3.81
312.626	4.49
313.001	4.1
313.375	4.4
313.75	4.14
314.124	4.23
314.498	4.43
314.873	3.85
315.247	4.29
315.621	4.3
315.995	4.8
316.369	4.13
316.743	4.48
317.117	4.29
317.491	3.75
317.865	4.37
318.239	4.57
318.613	3.98
318.987	4.07
319.361	3.33
319.734	3.87
320.108	3.89
320.482	4.3
320.855	4.39
321.229	4.77
321.602	4.33
321.976	3.77
322.349	4.52
322.723	4.16
323.096	4.17
323.469	4.31
323.843	3.96
324.216	4.24
324.589	3.6
324.962	4.49
325.335	4.53
325.708	4.41
326.081	4.14
326.454	3.96
326.827	4.58
327.2	4.79
327.573	4.71
327.945	3.88
328.318	3.97
328.691	4.16
329.063	4.16
329.436	3.97
329.809	3.97
330.181	4.47
330.553	4.82
330.926	3.76
331.298	3.65
331.671	3.72
332.043	4.17
332.415	4.29
332.787	4.4
333.159	3.29
333.532	4.22
333.904	4.05
334.276	4.24
334.648	4.29
335.02	4.13
335.391	3.87
335.763	4.35
336.135	4.72
336.507	4.38
336.879	3.8
337.25	4.07
337.622	4.2
337.993	4.41
338.365	3.87
338.736	4.66
339.108	4.6
339.479	3.94
339.851	4.31
340.222	4.01
340.593	3.55
340.964	4.08
341.336	4.47
341.707	4.53
342.078	4.2
342.449	4.04
342.82	4.01
343.191	4.32
343.562	3.99
343.933	4.08
344.303	4.18
344.674	4.9
345.045	4.5
345.416	4.12
345.786	4.01
346.157	3.99
346.527	3.99
346.898	4.17
347.268	4.3
347.639	4.56
348.009	4.15
348.38	4.27
348.75	4.22
349.12	4.09
349.49	4.06
349.861	4.13
350.231	4.09
350.601	4.21
350.971	4.43
351.341	4.63
351.711	4.97
352.081	3.95
352.45	4.35
352.82	4.52
353.19	4.75
353.56	4.32
353.929	3.93
354.299	4.32
354.669	4.5
355.038	4.65
355.408	4.64
355.777	4.03
356.147	4.08
356.516	4.08
356.885	4.43
357.254	4.41
357.624	4.47
357.993	4.19
358.362	4.31
358.731	3.83
359.1	3.92
359.469	4.21
359.838	4.5
360.207	4.31
360.576	4.4
360.945	4.12
361.314	4.28
361.682	4.29
362.051	4.23
362.42	4.04
362.788	4.44
363.157	4.27
363.525	4.27
363.894	4.44
364.262	4.31
364.631	4.45
364.999	4.39
365.367	4.41
365.735	4.32
366.104	4.34
366.472	4.49
366.84	4.58
367.208	4.48
367.576	4.28
367.944	4.5
368.312	4.16
368.68	4.7
369.048	4.52
369.416	4.46
369.783	4.42
370.151	4.4
370.519	4.6
370.886	4.75
371.254	4.48
371.621	4.71
371.989	4.26
372.356	4.73
372.724	4.71
373.091	4.64
373.458	4.64
373.826	4.08
374.193	4.41
374.56	4.59
374.927	4.55
375.294	4.83
375.661	4.49
376.028	4.96
376.395	4.9
376.762	4.38
377.129	4.72
377.496	4.84
377.863	5.23
378.229	4.74
378.596	4.57
378.963	4.73
379.329	4.73
379.696	4.87
380.062	4.65
380.429	4.43
380.795	4.42
381.161	4.63
381.528	4.82
381.894	4.62
382.26	4.88
382.626	4.94
382.993	4.73
383.359	4.52
383.725	4.68
384.091	4.76
384.457	4.67
384.823	4.57
385.188	4.84
385.554	4.75
385.92	4.9
386.286	4.97
386.651	4.49
387.017	4.75
387.383	4.7
387.748	4.4
388.114	4.56
388.479	4.65
388.845	4.94
389.21	4.58
389.575	4.46
389.94	4.67
390.306	4.74
390.671	5.02
391.036	4.79
391.401	5.16
391.766	4.86
392.131	4.89
392.496	4.94
392.861	4.99
393.226	4.74
393.591	4.79
393.956	4.85
394.32	4.97
394.685	4.78
395.05	5.06
395.414	4.98
395.779	4.63
396.143	4.85
396.508	4.88
396.872	4.94
397.236	4.73
397.601	4.78
397.965	4.7
398.329	4.51
398.694	4.9
399.058	4.83
399.422	4.76
399.786	4.93
400.15	4.95
400.514	4.85
400.878	5.11
401.242	5.14
401.605	4.78
401.969	4.81
402.333	4.95
402.697	4.93
403.06	4.94
403.424	4.72
403.787	4.94
404.151	4.73
404.514	5.03
404.878	5
405.241	4.86
405.604	5.01
405.968	4.77
406.331	4.76
406.694	4.84
407.057	4.8
407.42	5.22
407.783	5.02
408.146	4.98
408.509	4.88
408.872	5.07
409.235	5.05
409.598	5.06
409.961	5.26
410.323	5.14
410.686	4.94
411.049	5.15
411.411	5.05
411.774	5.32
412.136	5.17
412.499	5.11
412.861	5.07
413.223	5.14
413.586	5.15
413.948	5.2
414.31	5.31
414.672	5.18
415.035	5.01
415.397	5.2
415.759	5.15
416.121	5.09
416.483	5.13
416.845	5.26
417.206	5.22
417.568	5.25
417.93	5.14
418.292	4.96
418.653	5.17
419.015	5.03
419.377	5.03
419.738	5.01
420.1	4.96
420.461	5.09
420.822	4.96
421.184	4.97
421.545	5.03
421.906	5.05
422.267	4.87
422.629	5
422.99	4.96
423.351	4.98
423.712	4.98
424.073	5.08
424.434	4.91
424.795	5.05
425.155	5.08
425.516	5.06
425.877	5.15
426.238	4.94
426.598	5.05
426.959	5.02
427.32	5.06
427.68	5.15
428.041	5.18
428.401	5.1
428.761	5.11
429.122	5.22
429.482	5.2
429.842	5.22
430.202	5.1
430.563	5.06
430.923	5.24
431.283	5.31
431.643	5.39
432.003	5.45
432.363	5.27
432.722	5.29
433.082	5.16
433.442	5.06
433.802	5.32
434.161	5.26
434.521	5.39
434.881	5.26
435.24	5.36
435.6	5.24
435.959	5.26
436.319	5.23
436.678	5.36
437.037	5.25
437.396	5.34
437.756	5.44
438.115	5.27
438.474	5.31
438.833	5.33
439.192	5.26
439.551	5.3
439.91	5.19
440.269	5.28
440.628	5.28
440.987	5.36
441.345	5.15
441.704	5.23
442.063	5.19
442.421	5.2
442.78	5.18
443.138	5.33
443.497	5.28
443.855	5.41
444.214	5.19
444.572	5.24
444.93	5.44
445.288	5.44
445.647	5.54
446.005	5.09
446.363	5.22
446.721	5.31
447.079	5.46
447.437	5.34
447.795	5.16
448.153	5.19
448.51	5.23
448.868	5.23
449.226	5.29
449.584	5.26
449.941	5.25
450.299	5.24
450.656	5.15
451.014	5.41
451.371	5.33
451.729	5.34
452.086	5.47
452.443	5.44
452.801	5.38
453.158	5.38
453.515	5.33
453.872	5.41
454.229	5.49
454.586	5.43
454.943	5.32
455.3	5.46
455.657	5.42
456.014	5.34
456.371	5.34
456.727	5.3
457.084	5.48
457.441	5.42
457.797	5.44
458.154	5.24
458.51	5.27
458.867	5.34
459.223	5.57
459.58	5.44
459.936	5.48
460.292	5.43
460.648	5.24
461.005	5.29
461.361	5.32
461.717	5.18
462.073	5.36
462.429	5.37
462.785	5.28
463.141	5.4
463.496	5.36
463.852	5.49
464.208	5.47
464.564	5.55
464.919	5.45
465.275	5.48
465.631	5.61
465.986	5.58
466.342	5.42
466.697	5.47
467.052	5.47
467.408	5.45
467.763	5.51
468.118	5.65
468.473	5.55
468.829	5.63
469.184	5.43
469.539	5.56
469.894	5.53
470.249	5.49
470.603	5.52
470.958	5.53
471.313	5.77
471.668	5.51
472.023	5.6
472.377	5.51
472.732	5.35
473.086	5.67
473.441	5.63
473.795	5.74
474.15	5.45
474.504	5.39
474.859	5.56
475.213	5.63
475.567	5.68
475.921	5.61
476.275	5.55
476.63	5.58
476.984	5.67
477.338	5.46
477.692	5.58
478.045	5.43
478.399	5.66
478.753	5.67
479.107	5.56
479.461	5.67
479.814	5.65
480.168	5.66
480.521	5.65
480.875	5.42
481.228	5.64
481.582	5.65
481.935	5.71
482.289	5.56
482.642	5.57
482.995	5.54
483.348	5.55
483.701	5.52
484.055	5.52
484.408	5.48
484.761	5.42
485.114	5.33
485.466	5.18
485.819	5.17
486.172	5.11
486.525	5.17
486.878	5.25
487.23	5.32
487.583	5.38
487.936	5.39
488.288	5.41
488.641	5.46
488.993	5.35
489.345	5.28
489.698	5.25
490.05	5.28
490.402	5.34
490.754	5.35
491.107	5.3
491.459	5.47
491.811	5.47
492.163	5.42
492.515	5.52
492.866	5.51
493.218	5.34
493.57	5.36
493.922	5.26
494.274	5.37
494.625	5.44
494.977	5.45
495.328	5.54
495.68	5.65
496.031	5.58
496.383	5.69
496.734	5.7
497.086	5.56
497.437	5.62
497.788	5.75
498.139	5.73
498.49	5.52
498.842	5.5
499.193	5.51
499.544	5.67
499.894	5.65
500.245	5.55
500.596	5.58
500.947	5.64
501.298	5.59
501.648	5.55
501.999	5.68
502.35	5.7
502.7	5.7
503.051	5.68
503.401	5.63
503.752	5.66
504.102	5.66
504.452	5.62
504.803	5.73
505.153	5.64
505.503	5.62
505.853	5.75
506.203	5.77
506.553	5.64
506.903	5.7
507.253	5.75
507.603	5.68
507.953	5.69
508.303	5.7
508.652	5.75
509.002	5.71
509.352	5.82
509.701	5.69
510.051	5.56
510.4	5.67
510.75	5.65
511.099	5.68
511.449	5.66
511.798	5.77
512.147	5.63
512.496	5.58
512.846	5.55
513.195	5.61
513.544	5.66
513.893	5.42
514.242	5.58
514.591	5.61
514.939	5.58
515.288	5.64
515.637	5.76
515.986	5.65
516.334	5.76
516.683	5.77
517.032	5.55
517.38	5.56
517.729	5.68
518.077	5.7
518.426	5.74
518.774	5.66
519.122	5.66
519.47	5.65
519.819	5.59
520.167	5.56
520.515	5.62
520.863	5.63
521.211	5.64
521.559	5.65
521.907	5.59
522.255	5.57
522.602	5.71
522.95	5.65
523.298	5.72
523.645	5.66
523.993	5.69
524.341	5.83
524.688	5.67
525.036	5.68
525.383	5.65
525.73	5.71
526.078	5.63
526.425	5.78
526.772	5.6
527.119	5.67
527.466	5.51
527.814	5.59
528.161	5.52
528.508	5.56
528.854	5.57
529.201	5.54
529.548	5.55
529.895	5.63
530.242	5.39
530.588	5.33
530.935	5.29
531.282	5.41
531.628	5.44
531.975	5.46
532.321	5.5
532.667	5.47
533.014	5.58
533.36	5.57
533.706	5.55
534.052	5.54
534.399	5.56
534.745	5.4
535.091	5.42
535.437	5.42
535.783	5.43
536.129	5.53
536.474	5.6
536.82	5.64
537.166	5.59
537.512	5.66
537.857	5.65
538.203	5.56
538.549	5.62
538.894	5.46
539.239	5.56
539.585	5.59
539.93	5.57
540.276	5.74
540.621	5.61
540.966	5.74
541.311	5.8
541.656	5.62
542.001	5.68
542.346	5.66
542.691	5.44
543.036	5.48
543.381	5.4
543.726	5.37
544.071	5.39
544.415	5.5
544.76	5.48
545.105	5.54
545.449	5.49
545.794	5.58
546.138	5.52
546.483	5.58
546.827	5.63
547.171	5.68
547.516	5.42
547.86	5.66
548.204	5.53
548.548	5.53
548.892	5.45
549.236	5.52
549.58	5.53
549.924	5.64
550.268	5.54
550.612	5.65
550.956	5.76
551.3	5.72
551.643	5.75
551.987	5.84
552.33	5.61
552.674	5.63
553.017	5.61
553.361	5.74
553.704	5.77
554.048	5.64
554.391	5.7
554.734	5.79
555.077	5.72
555.42	5.46
555.764	5.53
556.107	5.82
556.45	5.68
556.793	5.53
557.135	5.55
557.478	5.5
557.821	5.72
558.164	5.71
558.507	5.62
558.849	5.7
559.192	5.66
559.534	5.96
559.877	5.59
560.219	5.94
560.562	5.79
560.904	5.67
561.246	5.63
561.589	5.55
561.931	5.77
562.273	5.8
562.615	5.66
562.957	5.66
563.299	5.64
563.641	5.68
563.983	5.61
564.325	5.58
564.667	5.58
565.008	5.6
565.35	5.7
565.692	5.53
566.033	5.75
566.375	5.73
566.716	5.64
567.058	5.72
567.399	5.73
567.741	5.56
568.082	5.52
568.423	5.64
568.764	5.54
569.105	5.66
569.447	5.56
569.788	5.6
570.129	5.57
570.47	5.69
570.811	5.65
571.151	5.64
571.492	5.75
571.833	5.76
572.174	5.71
572.514	5.77
572.855	5.53
573.195	5.71
573.536	5.33
573.876	5.73
574.217	5.46
574.557	5.61
574.898	5.43
575.238	5.51
575.578	5.61
575.918	5.37
576.258	5.71
576.598	5.68
576.938	5.62
577.278	5.65
577.618	5.52
577.958	5.51
578.298	5.64
578.638	5.52
578.977	5.63
579.317	5.61
579.657	5.61
579.996	5.79
580.336	5.61
580.675	5.39
581.014	5.56
581.354	5.44
581.693	5.56
582.032	5.69
582.372	5.67
582.711	5.53
583.05	6
583.389	5.74
583.728	5.49
584.067	5.77
584.406	5.65
584.745	5.57
585.083	5.51
585.422	5.41
585.761	5.42
586.1	5.61
586.438	5.21
586.777	5.82
587.115	5.7
587.454	5.58
587.792	5.56
588.13	5.51
588.469	5.72
588.807	5.33
589.145	5.59
589.483	5.5
589.821	5.56
590.159	5.79
590.497	5.55
590.835	5.46
591.173	5.59
591.511	5.5
591.849	5.62
592.187	5.55
592.524	5.41
592.862	5.29
593.2	5.52
593.537	5.27
593.875	5.52
594.212	5.41
594.55	5.57
594.887	5.43
595.224	5.5
595.561	5.43
595.899	5.39
596.236	5.5
596.573	5.54
596.91	5.54
597.247	5.44
597.584	5.35
597.921	5.54
598.258	5.5
598.594	5.51
598.931	5.39
599.268	5.13
599.604	5.45
599.941	5.46
600.277	5.53
600.614	5.6
600.95	5.34
601.287	5.38
601.623	5.6
601.959	5.63
602.296	5.37
602.632	5.55
602.968	5.36
603.304	5.44
603.64	5.32
603.976	5.52
604.312	5.5
604.648	5.65
604.984	5.71
605.319	5.37
605.655	5.39
605.991	5.38
606.326	5.29
606.662	5.23
606.998	5.24
607.333	5.23
607.668	5.29
608.004	5.46
608.339	5.42
608.674	5.4
609.01	5.43
609.345	5.69
609.68	5.42
610.015	5.3
610.35	5.56
610.685	5.66
611.02	5.48
611.355	5.17
611.689	5.22
612.024	5.6
612.359	5.4
612.694	5.32
613.028	5.4
613.363	5.52
613.697	5.34
614.032	5.44
614.366	5.29
614.7	5.51
615.035	5.41
615.369	5.78
615.703	5.09
616.037	5.7
616.371	5.57
616.705	5.3
617.039	5.36
617.373	5.34
617.707	5.35
618.041	5.26
618.375	5.11
618.709	5.21
619.042	5.43
619.376	5.68
619.71	5.44
620.043	5.58
620.377	5.32
620.71	5.58
621.043	5.48
621.377	5.41
621.71	5.41
622.043	5.59
622.376	5.43
622.709	5.53
623.043	5.53
623.376	5.27
623.709	5.22
624.041	5.22
624.374	5.59
624.707	5.22
625.04	5.25
625.373	5.51
625.705	5.27
626.038	5.45
626.37	4.91
626.703	5.15
627.035	4.99
627.368	5.23
627.7	5.41
628.032	5.34
628.365	5.44
628.697	5.42
629.029	5.35
629.361	5.43
629.693	5.15
630.025	5.2
630.357	5.43
630.689	5.13
631.021	5.71
631.353	5.26
631.684	5.36
632.016	5.7
632.348	5.04
632.679	5.01
633.011	5.48
633.342	4.91
633.674	5.34
634.005	5.59
634.336	5.69
634.668	5.08
634.999	5.34
635.33	5.04
635.661	5.53
635.992	5.32
636.323	5.58
636.654	5.27
636.985	5.22
637.316	5.27
637.647	5.13
637.977	4.86
638.308	5.1
638.639	5.42
638.969	5.29
639.3	4.81
639.63	5.27
639.961	5.24
640.291	5.25
640.622	5.33
640.952	5.49
641.282	4.43
641.612	5.15
641.943	5.36
642.273	5.23
642.603	5.6
642.933	5.15
643.263	5.56
643.592	5.04
643.922	5.62
644.252	5.38
644.582	5.08
644.911	5.09
645.241	5.85
645.571	5.58
645.9	4.83
646.23	5.45
646.559	5.17
646.888	5.47
647.218	5.23
647.547	5.08
647.876	5.87
648.205	5.3
648.534	5.09
648.863	5.21
649.192	5.35
649.521	5.5
649.85	5.28
650.179	4.9
650.508	5.01
650.837	5.35
651.165	5.29
651.494	4.79
651.822	5.42
652.151	5.37
652.479	5.54
652.808	5.53
653.136	5.15
653.465	5.11
653.793	5.32
654.121	5.57
654.449	5.44
654.777	5.12
655.105	5.46
655.433	5.92
655.761	5.33
656.089	5.71
656.417	5.2
656.745	5.1
657.073	5.3
657.4	6.12
657.728	5.2
658.056	5.06
658.383	5.22
658.711	5.12
659.038	5.58
659.365	5.31
659.693	5.13
660.02	4.95
660.347	5.34
660.674	5.15
661.001	4.55
661.329	4.99
661.656	5.36
661.982	5.02
662.309	5.23
662.636	5.12
662.963	5.35
663.29	4.96
663.616	5.16
663.943	4.77
664.27	5.25
664.596	5.59
664.923	5.28
665.249	4.8
665.576	5
665.902	5.28
666.228	5.56
666.554	5.84
666.881	4.69
667.207	5.35
667.533	5.67
667.859	4.83
668.185	5.6
668.511	5.79
668.837	5.55
669.162	5.7
669.488	5.16
669.814	4.71
670.139	5.29
670.465	5.24
670.791	5.49
671.116	4.93
671.442	5.28
671.767	5.32
672.092	5.46
672.418	5.19
672.743	5.38
673.068	5.52
673.393	5.05
673.718	5.4
674.043	5.04
674.368	5.82
674.693	5.45
675.018	5.49
675.343	5.69
675.667	4.85
675.992	5.57
676.317	5.67
676.641	5.75
676.966	5.68
677.29	5.55
677.615	5.27
677.939	4.98
678.264	5.36
678.588	5
678.912	6.12
679.236	4.87
679.56	5.35
679.885	5.22
680.209	5.76
680.532	4.93
680.856	4.76
681.18	5.37
681.504	5.53
681.828	5.64
682.152	5.53
682.475	4.8
682.799	5.13
683.122	5.19
683.446	5.78
683.769	4.57
684.093	5.24
684.416	5.24
684.739	5.13
685.062	4.7
685.386	5.28
685.709	4.76
686.032	5.36
686.355	5.75
686.678	4.77
687.001	4.81
687.324	5.06
687.646	5.37
687.969	5.68
688.292	6.19
688.614	5.59
688.937	5.54
689.26	4.67
689.582	4.76
689.904	4.39
690.227	6.09
690.549	5.25
690.871	5.92
691.194	5.49
691.516	5.41
691.838	5.61
692.16	4.88
692.482	5.06
