Data from 0284_crown_Reflection__0__236.txt Node

Date: Fri Oct 20 22:34:55 CDT 2023
User: ToomeyLab
Spectrometer: FLMS14357
Trigger mode: 0
Integration Time (sec): 1.000000E-2
Scans to average: 100
Electric dark correction enabled: true
Nonlinearity correction enabled: false
Boxcar width: 0
XAxis mode: Wavelengths
Number of Pixels in Spectrum: 2048
>>>>>Begin Spectral Data<<<<<
189.047	24.92
189.435	24.92
189.823	24.92
190.211	-28.55
190.599	-6322.22
190.987	89.13
191.375	-1.42
191.763	-247.82
192.151	-34.19
192.538	136.69
192.926	25.19
193.314	67.1
193.702	-56.76
194.089	404.56
194.477	106.62
194.864	548.03
195.252	123.24
195.639	61.06
196.027	-88.24
196.414	346.36
196.801	96.51
197.189	43.54
197.576	-229.21
197.963	124.77
198.351	60.69
198.738	14.78
199.125	36.81
199.512	18.49
199.899	30.38
200.286	-15.34
200.673	48.12
201.06	7.36
201.447	34.93
201.833	19.64
202.22	20.56
202.607	17.87
202.994	23.22
203.38	-5.5
203.767	-19.2
204.154	58.27
204.54	17.21
204.927	-1.36
205.313	6.78
205.699	37.22
206.086	16.98
206.472	43.71
206.858	32.56
207.245	-26.13
207.631	31.6
208.017	29.28
208.403	-1.42
208.789	18.58
209.175	-53.52
209.561	-5.51
209.947	-28.9
210.333	18.06
210.719	11.23
211.105	-9.95
211.491	20.31
211.876	-1.77
212.262	7.2
212.648	53.29
213.034	-29.1
213.419	2.38
213.805	-26.72
214.19	-40.74
214.576	-9.41
214.961	9.42
215.346	16.34
215.732	2.45
216.117	-48.4
216.502	13.47
216.888	-5.79
217.273	-15.91
217.658	6.98
218.043	-0.99
218.428	-8.19
218.813	-17.7
219.198	7.26
219.583	-23.17
219.968	-0.15
220.353	17.73
220.738	13.04
221.122	-22.72
221.507	-6.5
221.892	-11.09
222.276	-0.84
222.661	10.2
223.046	-4.99
223.43	0.59
223.815	9.3
224.199	19.71
224.583	-13.74
224.968	-2.73
225.352	-3.27
225.736	-5.87
226.121	9.88
226.505	-3.73
226.889	6.5
227.273	7.43
227.657	9.48
228.041	8.97
228.425	6.41
228.809	8.27
229.193	3.64
229.577	7.29
229.961	5.88
230.344	5.56
230.728	6.36
231.112	6.96
231.495	5.41
231.879	6.92
232.263	6.68
232.646	6.28
233.03	4.49
233.413	6.06
233.797	5.55
234.18	4.85
234.563	7.87
234.946	9.2
235.33	4.62
235.713	5.06
236.096	6
236.479	5.5
236.862	6.15
237.245	6.57
237.628	5.69
238.011	6.29
238.394	6.74
238.777	8.06
239.16	6.06
239.543	7.09
239.925	7.21
240.308	6.67
240.691	5.29
241.073	7.63
241.456	5.79
241.838	7.09
242.221	6.49
242.603	6.25
242.986	6.44
243.368	6.73
243.75	5.79
244.133	6.14
244.515	5.42
244.897	5.98
245.279	6.07
245.661	5.85
246.043	4.75
246.425	5.88
246.807	5.52
247.189	5.45
247.571	4.92
247.953	5.84
248.335	6.23
248.717	5.56
249.098	5.64
249.48	5.62
249.862	5.93
250.243	6.01
250.625	5.98
251.006	6.1
251.388	5.69
251.769	5.55
252.151	4.93
252.532	5.94
252.913	4.9
253.295	4.23
253.676	6.07
254.057	5.68
254.438	5.64
254.819	5.56
255.2	5.64
255.581	5.07
255.962	6.03
256.343	5.91
256.724	5.88
257.105	5.06
257.486	5.29
257.867	5.87
258.247	5.02
258.628	4.77
259.009	4.51
259.389	5.88
259.77	5.71
260.15	5.67
260.531	4.82
260.911	5.95
261.292	5.4
261.672	5.3
262.052	5.46
262.432	5.69
262.813	5.44
263.193	5.63
263.573	5.52
263.953	5.52
264.333	5.34
264.713	5.49
265.093	5.71
265.473	6.15
265.853	4.58
266.233	5.34
266.612	4.98
266.992	5.25
267.372	5.37
267.752	5.31
268.131	5.68
268.511	5.33
268.89	5.73
269.27	5.04
269.649	4.69
270.029	5.12
270.408	5.42
270.787	5.77
271.167	5.06
271.546	5.99
271.925	5.27
272.304	5.34
272.683	5.13
273.062	5.35
273.441	5.18
273.82	5.33
274.199	5.08
274.578	5.47
274.957	5.28
275.336	5.05
275.715	5.28
276.093	4.95
276.472	5.31
276.851	4.93
277.229	4.85
277.608	4.8
277.986	5
278.365	5.23
278.743	5.25
279.122	4.55
279.5	4.73
279.878	4.7
280.257	5.46
280.635	4.37
281.013	5.28
281.391	4.89
281.769	4.72
282.147	4.7
282.525	5.27
282.903	5.42
283.281	4.97
283.659	4.7
284.037	4.91
284.415	4.31
284.792	4.76
285.17	4.62
285.548	4.99
285.925	4.35
286.303	4.23
286.68	4.37
287.058	4.99
287.435	4.9
287.813	4.48
288.19	4.94
288.567	4.81
288.945	4.4
289.322	5.26
289.699	4.16
290.076	4.87
290.453	5.13
290.83	4.49
291.207	5.17
291.584	4.44
291.961	4.66
292.338	4.45
292.715	4.08
293.092	4.45
293.469	4.77
293.845	4.63
294.222	4
294.599	4.79
294.975	4.99
295.352	4.7
295.728	5.06
296.105	3.94
296.481	4.42
296.858	4.26
297.234	4.75
297.61	4.22
297.986	4.66
298.363	4.31
298.739	4.55
299.115	4.1
299.491	4.11
299.867	4.24
300.243	4.41
300.619	4.3
300.995	4.39
301.371	4.64
301.746	4.51
302.122	4.77
302.498	4.45
302.874	4.21
303.249	4.12
303.625	4.15
304	4.42
304.376	3.8
304.751	3.61
305.127	3.89
305.502	4.98
305.878	4.43
306.253	4.67
306.628	4.48
307.003	4.32
307.378	4.2
307.754	3.79
308.129	4.49
308.504	4.4
308.879	4.4
309.254	4.29
309.629	3.96
310.003	3.91
310.378	4.63
310.753	4.25
311.128	4.64
311.502	4.19
311.877	4.41
312.252	4.18
312.626	4.46
313.001	4.22
313.375	4.03
313.75	4.45
314.124	3.7
314.498	4.14
314.873	4.04
315.247	4.61
315.621	4.48
315.995	4.89
316.369	4.12
316.743	4.36
317.117	4
317.491	3.41
317.865	4.52
318.239	4.36
318.613	4.22
318.987	4.09
319.361	3.5
319.734	4.09
320.108	3.99
320.482	4.66
320.855	4.14
321.229	4.47
321.602	4.22
321.976	3.74
322.349	4.29
322.723	4.13
323.096	3.83
323.469	3.82
323.843	4.15
324.216	4
324.589	3.85
324.962	4.44
325.335	4.37
325.708	4.02
326.081	4.25
326.454	4.35
326.827	4.31
327.2	3.94
327.573	4.28
327.945	4.06
328.318	4.08
328.691	4.33
329.063	4.71
329.436	4.1
329.809	4.2
330.181	4.18
330.553	4.09
330.926	4.27
331.298	4.22
331.671	3.64
332.043	4.5
332.415	3.81
332.787	4.51
333.159	3.77
333.532	3.95
333.904	3.65
334.276	3.53
334.648	4.48
335.02	4.4
335.391	3.95
335.763	4.19
336.135	4
336.507	4.32
336.879	3.9
337.25	4.62
337.622	4.1
337.993	4.14
338.365	4.17
338.736	4.5
339.108	4.34
339.479	4.16
339.851	4.09
340.222	4.05
340.593	3.25
340.964	4.11
341.336	4.69
341.707	4.11
342.078	4.17
342.449	4
342.82	4.15
343.191	4.04
343.562	4.45
343.933	4
344.303	4.28
344.674	3.94
345.045	4.21
345.416	4.38
345.786	3.84
346.157	4.43
346.527	4.1
346.898	4.05
347.268	4.37
347.639	4.5
348.009	4.05
348.38	4.33
348.75	4.38
349.12	4.41
349.49	3.79
349.861	4.15
350.231	3.74
350.601	3.86
350.971	4.48
351.341	4.12
351.711	5.2
352.081	4.39
352.45	4.28
352.82	4.37
353.19	4.55
353.56	4.15
353.929	3.86
354.299	4.19
354.669	4.25
355.038	4.5
355.408	4.27
355.777	4.24
356.147	3.71
356.516	4.11
356.885	4.57
357.254	4.36
357.624	4.27
357.993	3.98
358.362	4.21
358.731	4.05
359.1	4.06
359.469	4.11
359.838	4.15
360.207	4.26
360.576	4.6
360.945	4.36
361.314	4.11
361.682	4.12
362.051	4.1
362.42	4.46
362.788	4.61
363.157	4.37
363.525	4.47
363.894	4.3
364.262	4.21
364.631	4.38
364.999	4.43
365.367	4.53
365.735	4.21
366.104	4.19
366.472	4.41
366.84	4.78
367.208	4.4
367.576	4.4
367.944	4.75
368.312	4.09
368.68	4.51
369.048	4.64
369.416	4.68
369.783	4.93
370.151	4.57
370.519	4.68
370.886	4.55
371.254	4.85
371.621	4.69
371.989	3.93
372.356	4.56
372.724	4.57
373.091	4.44
373.458	4.15
373.826	4.54
374.193	4.69
374.56	4.57
374.927	4.59
375.294	4.65
375.661	4.54
376.028	4.81
376.395	5.06
376.762	4.5
377.129	4.79
377.496	4.78
377.863	4.86
378.229	5.12
378.596	4.6
378.963	4.74
379.329	4.79
379.696	4.58
380.062	4.82
380.429	4.78
380.795	4.61
381.161	4.66
381.528	4.87
381.894	4.55
382.26	4.77
382.626	4.9
382.993	4.64
383.359	4.79
383.725	4.85
384.091	4.73
384.457	4.86
384.823	4.86
385.188	4.89
385.554	5
385.92	4.75
386.286	5.12
386.651	4.85
387.017	4.93
387.383	4.85
387.748	4.59
388.114	4.6
388.479	4.68
388.845	4.87
389.21	4.87
389.575	4.49
389.94	4.76
390.306	4.71
390.671	4.72
391.036	4.78
391.401	4.87
391.766	5.01
392.131	4.84
392.496	5.04
392.861	4.81
393.226	4.76
393.591	4.88
393.956	4.94
394.32	5.08
394.685	4.86
395.05	4.88
395.414	5.1
395.779	4.66
396.143	4.98
396.508	4.83
396.872	4.96
397.236	5.16
397.601	4.8
397.965	4.64
398.329	4.65
398.694	4.76
399.058	4.65
399.422	5.02
399.786	4.88
400.15	4.93
400.514	4.77
400.878	5.15
401.242	5.3
401.605	5.25
401.969	4.99
402.333	4.86
402.697	5.01
403.06	4.93
403.424	4.81
403.787	4.77
404.151	5.13
404.514	5.18
404.878	5.13
405.241	4.87
405.604	4.91
405.968	5.11
406.331	4.97
406.694	4.94
407.057	4.96
407.42	5.22
407.783	5.16
408.146	5.04
408.509	5.27
408.872	5.2
409.235	4.9
409.598	5.1
409.961	5.09
410.323	5.15
410.686	4.93
411.049	5.11
411.411	5.01
411.774	5.04
412.136	4.82
412.499	5.04
412.861	5.2
413.223	5.11
413.586	4.81
413.948	5.28
414.31	5.41
414.672	4.92
415.035	5.03
415.397	5.3
415.759	5.22
416.121	4.89
416.483	5.29
416.845	5.13
417.206	5.21
417.568	5.35
417.93	5.25
418.292	4.93
418.653	5.14
419.015	5.04
419.377	5.02
419.738	5.1
420.1	4.91
420.461	5.08
420.822	4.99
421.184	5.07
421.545	5.08
421.906	4.98
422.267	5.01
422.629	5.11
422.99	4.99
423.351	4.94
423.712	4.99
424.073	5.04
424.434	5.02
424.795	4.98
425.155	5.07
425.516	5.06
425.877	5.12
426.238	4.94
426.598	5.06
426.959	4.96
427.32	5.08
427.68	4.94
428.041	5.05
428.401	5.07
428.761	5.01
429.122	5.09
429.482	5.22
429.842	5.21
430.202	5.22
430.563	5.08
430.923	5.39
431.283	5.12
431.643	5.24
432.003	5.16
432.363	5.13
432.722	5.14
433.082	5.34
433.442	5.15
433.802	5.27
434.161	5.05
434.521	5.27
434.881	5.3
435.24	5.24
435.6	5.25
435.959	5.16
436.319	5.15
436.678	5.16
437.037	5.1
437.396	5.26
437.756	5.25
438.115	5.19
438.474	5.2
438.833	5.28
439.192	5.01
439.551	5.14
439.91	5.31
440.269	5.31
440.628	5.27
440.987	5.16
441.345	5.21
441.704	5.1
442.063	5.13
442.421	5.14
442.78	5.18
443.138	5.21
443.497	5.36
443.855	5.34
444.214	5.17
444.572	5.23
444.93	5.41
445.288	5.41
445.647	5.43
446.005	5.05
446.363	5.27
446.721	5.3
447.079	5.36
447.437	5.24
447.795	5.2
448.153	5.12
448.51	5.22
448.868	5.14
449.226	5.15
449.584	5.17
449.941	5.18
450.299	5.14
450.656	5.19
451.014	5.36
451.371	5.32
451.729	5.18
452.086	5.28
452.443	5.27
452.801	5.22
453.158	5.47
453.515	5.37
453.872	5.32
454.229	5.47
454.586	5.51
454.943	5.26
455.3	5.29
455.657	5.36
456.014	5.23
456.371	5.33
456.727	5.52
457.084	5.52
457.441	5.49
457.797	5.46
458.154	5.27
458.51	5.44
458.867	5.48
459.223	5.45
459.58	5.3
459.936	5.42
460.292	5.36
460.648	5.26
461.005	5.29
461.361	5.19
461.717	5.19
462.073	5.19
462.429	5.35
462.785	5.32
463.141	5.3
463.496	5.41
463.852	5.33
464.208	5.48
464.564	5.43
464.919	5.3
465.275	5.55
465.631	5.48
465.986	5.41
466.342	5.42
466.697	5.46
467.052	5.42
467.408	5.32
467.763	5.45
468.118	5.58
468.473	5.35
468.829	5.46
469.184	5.34
469.539	5.45
469.894	5.4
470.249	5.56
470.603	5.39
470.958	5.4
471.313	5.53
471.668	5.53
472.023	5.51
472.377	5.5
472.732	5.39
473.086	5.77
473.441	5.68
473.795	5.61
474.15	5.47
474.504	5.39
474.859	5.46
475.213	5.64
475.567	5.63
475.921	5.53
476.275	5.44
476.63	5.71
476.984	5.54
477.338	5.6
477.692	5.53
478.045	5.53
478.399	5.5
478.753	5.48
479.107	5.61
479.461	5.5
479.814	5.59
480.168	5.55
480.521	5.52
480.875	5.42
481.228	5.54
481.582	5.59
481.935	5.35
482.289	5.48
482.642	5.46
482.995	5.45
483.348	5.61
483.701	5.49
484.055	5.45
484.408	5.36
484.761	5.38
485.114	5.22
485.466	5.21
485.819	5.17
486.172	5.02
486.525	5.11
486.878	5.19
487.23	5.19
487.583	5.23
487.936	5.31
488.288	5.37
488.641	5.38
488.993	5.24
489.345	5.23
489.698	5.18
490.05	5.22
490.402	5.21
490.754	5.26
491.107	5.3
491.459	5.42
491.811	5.36
492.163	5.35
492.515	5.48
492.866	5.46
493.218	5.24
493.57	5.28
493.922	5.2
494.274	5.25
494.625	5.34
494.977	5.37
495.328	5.51
495.68	5.54
496.031	5.43
496.383	5.57
496.734	5.64
497.086	5.54
497.437	5.53
497.788	5.64
498.139	5.63
498.49	5.41
498.842	5.42
499.193	5.52
499.544	5.53
499.894	5.49
500.245	5.49
500.596	5.54
500.947	5.51
501.298	5.5
501.648	5.49
501.999	5.59
502.35	5.56
502.7	5.7
503.051	5.58
503.401	5.57
503.752	5.72
504.102	5.57
504.452	5.47
504.803	5.52
505.153	5.59
505.503	5.55
505.853	5.65
506.203	5.47
506.553	5.55
506.903	5.52
507.253	5.64
507.603	5.47
507.953	5.53
508.303	5.53
508.652	5.64
509.002	5.59
509.352	5.57
509.701	5.55
510.051	5.51
510.4	5.55
510.75	5.53
511.099	5.54
511.449	5.45
511.798	5.59
512.147	5.46
512.496	5.6
512.846	5.51
513.195	5.57
513.544	5.65
513.893	5.48
514.242	5.62
514.591	5.53
514.939	5.51
515.288	5.48
515.637	5.53
515.986	5.49
516.334	5.56
516.683	5.54
517.032	5.41
517.38	5.49
517.729	5.62
518.077	5.58
518.426	5.47
518.774	5.47
519.122	5.48
519.47	5.47
519.819	5.37
520.167	5.5
520.515	5.39
520.863	5.45
521.211	5.37
521.559	5.47
521.907	5.47
522.255	5.45
522.602	5.55
522.95	5.48
523.298	5.47
523.645	5.49
523.993	5.56
524.341	5.46
524.688	5.56
525.036	5.61
525.383	5.54
525.73	5.65
526.078	5.59
526.425	5.64
526.772	5.44
527.119	5.53
527.466	5.38
527.814	5.5
528.161	5.36
528.508	5.44
528.854	5.4
529.201	5.33
529.548	5.44
529.895	5.45
530.242	5.2
530.588	5.21
530.935	5.18
531.282	5.28
531.628	5.31
531.975	5.21
532.321	5.25
532.667	5.33
533.014	5.36
533.36	5.47
533.706	5.45
534.052	5.4
534.399	5.32
534.745	5.3
535.091	5.23
535.437	5.36
535.783	5.3
536.129	5.29
536.474	5.4
536.82	5.42
537.166	5.36
537.512	5.39
537.857	5.53
538.203	5.31
538.549	5.48
538.894	5.36
539.239	5.3
539.585	5.43
539.93	5.41
540.276	5.49
540.621	5.5
540.966	5.55
541.311	5.56
541.656	5.56
542.001	5.53
542.346	5.62
542.691	5.38
543.036	5.38
543.381	5.25
543.726	5.17
544.071	5.22
544.415	5.27
544.76	5.29
545.105	5.36
545.449	5.29
545.794	5.41
546.138	5.31
546.483	5.36
546.827	5.4
547.171	5.43
547.516	5.41
547.86	5.42
548.204	5.33
548.548	5.41
548.892	5.32
549.236	5.31
549.58	5.26
549.924	5.31
550.268	5.36
550.612	5.46
550.956	5.65
551.3	5.43
551.643	5.49
551.987	5.56
552.33	5.59
552.674	5.33
553.017	5.45
553.361	5.6
553.704	5.54
554.048	5.43
554.391	5.6
554.734	5.58
555.077	5.3
555.42	5.26
555.764	5.49
556.107	5.64
556.45	5.47
556.793	5.36
557.135	5.37
557.478	5.37
557.821	5.6
558.164	5.59
558.507	5.45
558.849	5.44
559.192	5.4
559.534	5.54
559.877	5.38
560.219	5.52
560.562	5.53
560.904	5.31
561.246	5.44
561.589	5.28
561.931	5.43
562.273	5.48
562.615	5.82
562.957	5.62
563.299	5.37
563.641	5.68
563.983	5.41
564.325	5.38
564.667	5.48
565.008	5.41
565.35	5.46
565.692	5.42
566.033	5.49
566.375	5.51
566.716	5.43
567.058	5.44
567.399	5.37
567.741	5.27
568.082	5.38
568.423	5.41
568.764	5.27
569.105	5.47
569.447	5.26
569.788	5.33
570.129	5.38
570.47	5.39
570.811	5.49
571.151	5.43
571.492	5.28
571.833	5.53
572.174	5.37
572.514	5.4
572.855	5.51
573.195	5.52
573.536	5.16
573.876	5.45
574.217	5.24
574.557	5.33
574.898	5.23
575.238	5.26
575.578	5.39
575.918	5.25
576.258	5.41
576.598	5.31
576.938	5.32
577.278	5.37
577.618	5
577.958	5.25
578.298	5.28
578.638	5.33
578.977	5.49
579.317	5.28
579.657	5.39
579.996	5.39
580.336	5.35
580.675	5.12
581.014	5.51
581.354	5.34
581.693	5.44
582.032	5.22
582.372	5.38
582.711	5.32
583.05	5.52
583.389	5.46
583.728	5.48
584.067	5.3
584.406	5.46
584.745	5.19
585.083	5.39
585.422	5.52
585.761	5.25
586.1	5.26
586.438	5.17
586.777	5.35
587.115	5.44
587.454	5.47
587.792	5.35
588.13	5.41
588.469	5.41
588.807	4.99
589.145	5.45
589.483	5.08
589.821	5.33
590.159	5.44
590.497	5.27
590.835	5.21
591.173	5.29
591.511	5.36
591.849	5.33
592.187	5.47
592.524	5.16
592.862	5.29
593.2	5.44
593.537	5.03
593.875	5.11
594.212	5.49
594.55	5.3
594.887	5.31
595.224	5.02
595.561	5.14
595.899	5.36
596.236	5.24
596.573	5.26
596.91	5.24
597.247	5.19
597.584	5.08
597.921	5.18
598.258	5.26
598.594	5.2
598.931	4.91
599.268	5.02
599.604	5.14
599.941	5.21
600.277	5.07
600.614	5.11
600.95	5.11
601.287	5.04
601.623	5.15
601.959	5.21
602.296	5.24
602.632	5.24
602.968	4.82
603.304	5.17
603.64	5.24
603.976	5.23
604.312	5.18
604.648	5.3
604.984	5.53
605.319	5.05
605.655	5.03
605.991	5.22
606.326	5.15
606.662	5.02
606.998	4.92
607.333	4.91
607.668	4.87
608.004	5.17
608.339	5.05
608.674	5.09
609.01	5.22
609.345	5.29
609.68	5.17
610.015	5
610.35	5.19
610.685	5.26
611.02	4.95
611.355	4.79
611.689	5
612.024	5.14
612.359	5.07
612.694	5.1
613.028	5.12
613.363	5.08
613.697	5.04
614.032	5.06
614.366	5.01
614.7	5.19
615.035	5.24
615.369	5.07
615.703	4.81
616.037	5.21
616.371	5.11
616.705	4.96
617.039	5.14
617.373	5.02
617.707	5.38
618.041	4.98
618.375	4.77
618.709	5.08
619.042	5.14
619.376	5.54
619.71	5.34
620.043	5.53
620.377	5.11
620.71	5.07
621.043	5.4
621.377	4.92
621.71	5.19
622.043	5.28
622.376	5.26
622.709	5.29
623.043	5.1
623.376	4.81
623.709	4.91
624.041	5.29
624.374	5.21
624.707	5.02
625.04	5.04
625.373	5.47
625.705	4.79
626.038	5.56
626.37	4.84
626.703	5.08
627.035	4.83
627.368	4.91
627.7	5.18
628.032	4.92
628.365	4.86
628.697	4.92
629.029	4.96
629.361	5.27
629.693	4.85
630.025	5.06
630.357	5.02
630.689	4.87
631.021	5.34
631.353	5.18
631.684	4.66
632.016	5.06
632.348	5.2
632.679	4.85
633.011	5.02
633.342	4.73
633.674	5.08
634.005	5.16
634.336	5.23
634.668	4.74
634.999	4.68
635.33	4.83
635.661	5.49
635.992	4.93
636.323	5.26
636.654	5.09
636.985	4.96
637.316	5.03
637.647	4.56
637.977	4.77
638.308	4.67
638.639	5.08
638.969	5.15
639.3	4.9
639.63	5
639.961	5.09
640.291	4.94
640.622	5.15
640.952	5.03
641.282	5.01
641.612	4.79
641.943	5.11
642.273	4.69
642.603	5.21
642.933	5.31
643.263	5.33
643.592	4.61
643.922	5.43
644.252	4.56
644.582	4.82
644.911	5.21
645.241	5.51
645.571	5.24
645.9	5.08
646.23	5.13
646.559	4.78
646.888	5.18
647.218	5.05
647.547	4.84
647.876	4.86
648.205	4.87
648.534	4.82
648.863	5.15
649.192	5.05
649.521	5.08
649.85	4.57
650.179	4.85
650.508	4.85
650.837	5.05
651.165	5.33
651.494	4.6
651.822	5.17
652.151	4.81
652.479	4.71
652.808	4.75
653.136	4.58
653.465	5.16
653.793	5.43
654.121	5.15
654.449	5.02
654.777	4.75
655.105	4.71
655.433	5.64
655.761	5.15
656.089	5.06
656.417	5.14
656.745	4.84
657.073	4.62
657.4	5.68
657.728	5.47
658.056	4.92
658.383	5.09
658.711	4.66
659.038	5.01
659.365	5.36
659.693	5.63
660.02	5.01
660.347	4.69
660.674	4.92
661.001	4.69
661.329	4.87
661.656	5.01
661.982	4.86
662.309	4.96
662.636	5.16
662.963	4.95
663.29	5.04
663.616	4.94
663.943	4.4
664.27	5.28
664.596	4.81
664.923	4.47
665.249	5.33
665.576	4.57
665.902	4.92
666.228	5.07
666.554	5.59
666.881	3.98
667.207	4.47
667.533	4.99
667.859	4.63
668.185	5.34
668.511	5.53
668.837	5.22
669.162	5.24
669.488	5.29
669.814	4.75
670.139	4.94
670.465	5.18
670.791	5.13
671.116	4.83
671.442	4.85
671.767	4.86
672.092	4.79
672.418	5.06
672.743	4.41
673.068	5.16
673.393	5
673.718	4.97
674.043	5.3
674.368	4.85
674.693	5.13
675.018	5.74
675.343	5.07
675.667	4.65
675.992	5.28
676.317	4.75
676.641	4.77
676.966	5.16
677.29	4.94
677.615	5.19
677.939	4.75
678.264	4.86
678.588	3.87
678.912	5.53
679.236	4.77
679.56	4.83
679.885	5.13
680.209	4.69
680.532	4.77
680.856	5.01
681.18	5.39
681.504	4.75
681.828	5.2
682.152	5.03
682.475	4.86
682.799	4.99
683.122	5
683.446	5.35
683.769	4.64
684.093	5.02
684.416	4.84
684.739	4.29
685.062	4.22
685.386	4.67
685.709	4.54
686.032	4.74
686.355	4.66
686.678	4.18
687.001	4.54
687.324	4.05
687.646	4.81
687.969	5.6
688.292	5.95
688.614	5.15
688.937	4.77
689.26	4.96
689.582	5.24
689.904	4.31
690.227	5.31
690.549	5.07
690.871	5.56
691.194	5.29
691.516	4.88
691.838	5.63
692.16	5.26
692.482	4.93
