Data from 0284_chest_Reflection__3__233.txt Node

Date: Fri Oct 20 22:33:33 CDT 2023
User: ToomeyLab
Spectrometer: FLMS14357
Trigger mode: 0
Integration Time (sec): 1.000000E-2
Scans to average: 100
Electric dark correction enabled: true
Nonlinearity correction enabled: false
Boxcar width: 0
XAxis mode: Wavelengths
Number of Pixels in Spectrum: 2048
>>>>>Begin Spectral Data<<<<<
189.047	-43.17
189.435	-43.17
189.823	-43.17
190.211	-175.09
190.599	-12333.33
190.987	29.22
191.375	26.87
191.763	-17.23
192.151	-70.23
192.538	9.7
192.926	21.08
193.314	85.65
193.702	60.72
194.089	381.83
194.477	-58.92
194.864	1217.92
195.252	213.7
195.639	-8.12
196.027	-43.15
196.414	-16.36
196.801	155.9
197.189	50.62
197.576	-180.08
197.963	311.1
198.351	79.78
198.738	37.72
199.125	52.74
199.512	68.88
199.899	-21.62
200.286	-1.61
200.673	45.88
201.06	-4.06
201.447	18.73
201.833	12.2
202.22	54.42
202.607	47.21
202.994	30.4
203.38	-1.22
203.767	23.46
204.154	63.42
204.54	57.8
204.927	13.32
205.313	-11.39
205.699	49.5
206.086	30.58
206.472	32.7
206.858	62.28
207.245	4.53
207.631	40.45
208.017	37.25
208.403	12.66
208.789	31.11
209.175	4.97
209.561	35.07
209.947	31.41
210.333	55.26
210.719	-29.08
211.105	5.56
211.491	12.84
211.876	25.85
212.262	46.2
212.648	19.23
213.034	43.62
213.419	-5.75
213.805	23.72
214.19	4.26
214.576	-17.95
214.961	36.83
215.346	34.41
215.732	28.86
216.117	14.22
216.502	21.06
216.888	37.48
217.273	1.18
217.658	16.42
218.043	-0.85
218.428	8.02
218.813	8.5
219.198	-18.04
219.583	-22.79
219.968	-13.24
220.353	9.99
220.738	17.08
221.122	-11.71
221.507	23.52
221.892	19.07
222.276	8.37
222.661	23.39
223.046	6.38
223.43	2.04
223.815	21.8
224.199	9.87
224.583	-7.76
224.968	6.62
225.352	3.94
225.736	-0.66
226.121	6.82
226.505	0.89
226.889	8.84
227.273	0.58
227.657	5.63
228.041	7.3
228.425	1.87
228.809	4.92
229.193	3.03
229.577	5.71
229.961	0.83
230.344	4.15
230.728	2.44
231.112	4.2
231.495	3.09
231.879	4.31
232.263	3.21
232.646	3.06
233.03	1.51
233.413	2.45
233.797	3.31
234.18	4.97
234.563	5.82
234.946	4.48
235.33	6.66
235.713	5.54
236.096	5.86
236.479	4.58
236.862	5.14
237.245	2.44
237.628	5.09
238.011	3.71
238.394	3.87
238.777	4.26
239.16	3.39
239.543	5.94
239.925	5.56
240.308	4.59
240.691	2.62
241.073	5.36
241.456	4.07
241.838	4.47
242.221	4.93
242.603	4.73
242.986	4.85
243.368	4.74
243.75	3.39
244.133	3.31
244.515	3.48
244.897	3.36
245.279	3.86
245.661	3.39
246.043	4.29
246.425	3.25
246.807	3.94
247.189	3.78
247.571	3.12
247.953	3.69
248.335	3.81
248.717	3.32
249.098	3.48
249.48	3.23
249.862	3.46
250.243	3.38
250.625	3.68
251.006	3.57
251.388	3.56
251.769	3.58
252.151	3.25
252.532	4.57
252.913	2.64
253.295	2.8
253.676	3.16
254.057	3.03
254.438	3.71
254.819	3.68
255.2	2.81
255.581	2.78
255.962	2.94
256.343	4.59
256.724	3.15
257.105	3.11
257.486	4.26
257.867	3.62
258.247	4.05
258.628	3.13
259.009	3.59
259.389	2.89
259.77	3.05
260.15	4.23
260.531	3.84
260.911	3.39
261.292	3.1
261.672	3.26
262.052	3.41
262.432	3.28
262.813	3.31
263.193	3.44
263.573	3.53
263.953	3.38
264.333	3.59
264.713	3.85
265.093	3.89
265.473	4.02
265.853	3.36
266.233	4.17
266.612	3.13
266.992	3.94
267.372	3.26
267.752	3.83
268.131	3.79
268.511	3.4
268.89	3.24
269.27	3.04
269.649	2.55
270.029	3.08
270.408	3.32
270.787	3.54
271.167	3
271.546	3.69
271.925	3.6
272.304	3.39
272.683	2.89
273.062	3.37
273.441	3.54
273.82	3.3
274.199	3.37
274.578	3.29
274.957	3.48
275.336	3.29
275.715	3.6
276.093	3.17
276.472	3.42
276.851	3.27
277.229	3.3
277.608	2.88
277.986	3.04
278.365	3.85
278.743	2.45
279.122	2.94
279.5	3.24
279.878	2.76
280.257	2.79
280.635	3.8
281.013	3.78
281.391	3.29
281.769	3.03
282.147	2.87
282.525	3.39
282.903	2.87
283.281	3.15
283.659	3.23
284.037	3.47
284.415	2.59
284.792	3.06
285.17	3.51
285.548	3.02
285.925	3.08
286.303	2.78
286.68	3.03
287.058	3.69
287.435	3.32
287.813	3
288.19	3.39
288.567	3.04
288.945	3.15
289.322	3.52
289.699	2.93
290.076	3.75
290.453	3.19
290.83	3.21
291.207	3.9
291.584	3.05
291.961	3.23
292.338	2.56
292.715	2.83
293.092	3.15
293.469	3.38
293.845	2.96
294.222	3.2
294.599	2.55
294.975	4.06
295.352	2.95
295.728	2.82
296.105	3.26
296.481	3.06
296.858	3.16
297.234	3.24
297.61	3.07
297.986	2.68
298.363	3.45
298.739	3.32
299.115	3.21
299.491	3.05
299.867	3.21
300.243	3.12
300.619	3.22
300.995	3.33
301.371	3.42
301.746	3.38
302.122	3.22
302.498	3.1
302.874	3.45
303.249	3.15
303.625	3.05
304	3.84
304.376	2.92
304.751	2.99
305.127	3.2
305.502	3.84
305.878	3.19
306.253	3.29
306.628	3.67
307.003	3.25
307.378	3.52
307.754	2.72
308.129	3.55
308.504	3.43
308.879	3.61
309.254	4.08
309.629	3.41
310.003	3.29
310.378	3.83
310.753	3.38
311.128	3.4
311.502	3.55
311.877	3.71
312.252	2.93
312.626	3.58
313.001	3.25
313.375	3.29
313.75	3.35
314.124	3
314.498	3.52
314.873	3.18
315.247	3.26
315.621	3.37
315.995	3.73
316.369	2.9
316.743	3.62
317.117	2.93
317.491	2.64
317.865	3.32
318.239	3.53
318.613	3.33
318.987	2.47
319.361	2.73
319.734	3.48
320.108	2.64
320.482	3.45
320.855	3.07
321.229	3.48
321.602	3.53
321.976	2.98
322.349	3.85
322.723	3.06
323.096	3.13
323.469	3.32
323.843	3.23
324.216	3.55
324.589	3.19
324.962	4.19
325.335	3.4
325.708	3.3
326.081	3.54
326.454	3.45
326.827	4.06
327.2	3.86
327.573	3.55
327.945	3.31
328.318	2.96
328.691	3.56
329.063	3.68
329.436	2.9
329.809	4.14
330.181	3.63
330.553	3.23
330.926	3.69
331.298	3.04
331.671	3.29
332.043	2.77
332.415	3.36
332.787	3.74
333.159	3.06
333.532	3.68
333.904	3.16
334.276	2.87
334.648	3.27
335.02	3.86
335.391	3.4
335.763	4.19
336.135	3.45
336.507	3.57
336.879	3.16
337.25	3.12
337.622	3.39
337.993	3.75
338.365	3.64
338.736	3.53
339.108	3.55
339.479	3.16
339.851	3.43
340.222	3.37
340.593	2.87
340.964	3.16
341.336	3.52
341.707	3.34
342.078	3.22
342.449	2.91
342.82	3.14
343.191	3.42
343.562	3.38
343.933	3.32
344.303	3.06
344.674	3.52
345.045	3.75
345.416	3.29
345.786	3.53
346.157	3.51
346.527	3.19
346.898	3.3
347.268	3.84
347.639	3.58
348.009	2.8
348.38	3.27
348.75	3.3
349.12	3.37
349.49	3.41
349.861	3.62
350.231	3.4
350.601	3.38
350.971	3.78
351.341	3.52
351.711	4.26
352.081	3.49
352.45	3.3
352.82	3.85
353.19	3.36
353.56	3.38
353.929	3.05
354.299	3.47
354.669	3.37
355.038	3.78
355.408	3.78
355.777	3.42
356.147	2.91
356.516	3.3
356.885	3.11
357.254	3.43
357.624	3.28
357.993	3.28
358.362	3.28
358.731	2.85
359.1	2.7
359.469	2.98
359.838	3.2
360.207	3.29
360.576	3.6
360.945	3.24
361.314	3.41
361.682	3.48
362.051	3.16
362.42	3.36
362.788	3.79
363.157	3.3
363.525	3.05
363.894	3.21
364.262	3.25
364.631	3.23
364.999	3.45
365.367	3.53
365.735	3.4
366.104	3.26
366.472	3.65
366.84	3.25
367.208	3.52
367.576	3.49
367.944	3.09
368.312	3.34
368.68	3.55
369.048	3.36
369.416	3.34
369.783	3.5
370.151	3.49
370.519	3.12
370.886	3.26
371.254	3.71
371.621	3.68
371.989	3.56
372.356	3.57
372.724	3.67
373.091	3.21
373.458	3.2
373.826	3.51
374.193	3.27
374.56	3.38
374.927	3.59
375.294	3.6
375.661	3.3
376.028	3.81
376.395	3.62
376.762	2.99
377.129	3.63
377.496	3.45
377.863	3.76
378.229	3.45
378.596	3.11
378.963	3.34
379.329	3.68
379.696	3.52
380.062	3.4
380.429	3.25
380.795	3.25
381.161	3.45
381.528	3.66
381.894	3.47
382.26	3.51
382.626	3.93
382.993	3.24
383.359	3.55
383.725	3.51
384.091	3.45
384.457	3.48
384.823	3.41
385.188	3.57
385.554	3.45
385.92	3.4
386.286	3.63
386.651	3.29
387.017	3.62
387.383	3.36
387.748	3.06
388.114	3.11
388.479	3.33
388.845	3.65
389.21	3.25
389.575	3.28
389.94	3.32
390.306	3.23
390.671	3.21
391.036	3.73
391.401	3.78
391.766	3.45
392.131	3.48
392.496	3.38
392.861	3.71
393.226	3.53
393.591	3.53
393.956	3.54
394.32	3.72
394.685	3.55
395.05	3.68
395.414	3.96
395.779	3.22
396.143	3.26
396.508	3.33
396.872	3.45
397.236	3.51
397.601	3.41
397.965	3.29
398.329	3.27
398.694	3.5
399.058	3.2
399.422	3.35
399.786	3.38
400.15	3.4
400.514	3.61
400.878	3.47
401.242	3.74
401.605	3.55
401.969	3.43
402.333	3.53
402.697	3.73
403.06	3.56
403.424	3.51
403.787	3.38
404.151	3.54
404.514	3.66
404.878	3.52
405.241	3.57
405.604	3.53
405.968	3.45
406.331	3.45
406.694	3.33
407.057	3.4
407.42	3.6
407.783	3.53
408.146	3.34
408.509	3.38
408.872	3.66
409.235	3.74
409.598	3.66
409.961	3.53
410.323	3.59
410.686	3.21
411.049	3.54
411.411	3.56
411.774	3.61
412.136	3.45
412.499	3.62
412.861	3.52
413.223	3.63
413.586	3.58
413.948	3.59
414.31	3.55
414.672	3.36
415.035	3.4
415.397	3.55
415.759	3.58
416.121	3.71
416.483	3.74
416.845	3.43
417.206	3.62
417.568	3.7
417.93	3.78
418.292	3.52
418.653	3.7
419.015	3.58
419.377	3.43
419.738	3.54
420.1	3.36
420.461	3.48
420.822	3.33
421.184	3.43
421.545	3.5
421.906	3.37
422.267	3.45
422.629	3.49
422.99	3.31
423.351	3.51
423.712	3.44
424.073	3.51
424.434	3.42
424.795	3.4
425.155	3.48
425.516	3.44
425.877	3.46
426.238	3.44
426.598	3.45
426.959	3.38
427.32	3.49
427.68	3.51
428.041	3.57
428.401	3.58
428.761	3.54
429.122	3.49
429.482	3.52
429.842	3.51
430.202	3.41
430.563	3.57
430.923	3.67
431.283	3.34
431.643	3.6
432.003	3.84
432.363	3.54
432.722	3.65
433.082	3.54
433.442	3.52
433.802	3.68
434.161	3.46
434.521	3.59
434.881	3.64
435.24	3.77
435.6	3.6
435.959	3.52
436.319	3.66
436.678	3.48
437.037	3.54
437.396	3.62
437.756	3.52
438.115	3.38
438.474	3.71
438.833	3.78
439.192	3.53
439.551	3.44
439.91	3.58
440.269	3.67
440.628	3.66
440.987	3.68
441.345	3.53
441.704	3.62
442.063	3.52
442.421	3.43
442.78	3.56
443.138	3.7
443.497	3.69
443.855	3.68
444.214	3.58
444.572	3.6
444.93	3.68
445.288	3.71
445.647	3.75
446.005	3.49
446.363	3.64
446.721	3.68
447.079	3.8
447.437	3.63
447.795	3.42
448.153	3.57
448.51	3.57
448.868	3.41
449.226	3.56
449.584	3.62
449.941	3.55
450.299	3.57
450.656	3.62
451.014	3.71
451.371	3.71
451.729	3.64
452.086	3.63
452.443	3.77
452.801	3.71
453.158	3.78
453.515	3.73
453.872	3.63
454.229	3.93
454.586	3.73
454.943	3.6
455.3	3.57
455.657	3.83
456.014	3.52
456.371	3.81
456.727	3.78
457.084	3.87
457.441	3.96
457.797	3.75
458.154	3.65
458.51	3.63
458.867	3.68
459.223	3.66
459.58	3.65
459.936	3.73
460.292	3.52
460.648	3.62
461.005	3.63
461.361	3.7
461.717	3.57
462.073	3.64
462.429	3.68
462.785	3.61
463.141	3.66
463.496	3.72
463.852	3.8
464.208	3.78
464.564	3.8
464.919	3.66
465.275	3.93
465.631	3.87
465.986	3.84
466.342	3.98
466.697	3.81
467.052	3.78
467.408	3.74
467.763	3.82
468.118	3.89
468.473	3.9
468.829	3.75
469.184	3.7
469.539	3.71
469.894	3.89
470.249	3.81
470.603	3.71
470.958	3.76
471.313	3.87
471.668	3.92
472.023	3.77
472.377	3.78
472.732	3.66
473.086	3.78
473.441	3.89
473.795	3.98
474.15	3.82
474.504	3.66
474.859	3.75
475.213	3.94
475.567	3.91
475.921	3.88
476.275	3.74
476.63	3.88
476.984	3.9
477.338	3.67
477.692	3.79
478.045	3.73
478.399	3.73
478.753	3.96
479.107	3.7
479.461	3.75
479.814	4.07
480.168	3.9
480.521	3.86
480.875	3.89
481.228	3.81
481.582	3.86
481.935	3.84
482.289	3.89
482.642	3.85
482.995	3.9
483.348	3.91
483.701	3.88
484.055	3.83
484.408	3.76
484.761	3.71
485.114	3.75
485.466	3.67
485.819	3.62
486.172	3.55
486.525	3.56
486.878	3.63
487.23	3.68
487.583	3.7
487.936	3.73
488.288	3.75
488.641	3.86
488.993	3.71
489.345	3.71
489.698	3.69
490.05	3.66
490.402	3.61
490.754	3.7
491.107	3.77
491.459	3.89
491.811	3.75
492.163	3.85
492.515	3.94
492.866	3.85
493.218	3.81
493.57	3.79
493.922	3.68
494.274	3.73
494.625	3.77
494.977	3.76
495.328	3.88
495.68	3.98
496.031	3.88
496.383	4.06
496.734	4.03
497.086	3.97
497.437	4
497.788	3.91
498.139	4.07
498.49	3.91
498.842	3.89
499.193	4.02
499.544	4.1
499.894	4
500.245	3.87
500.596	3.97
500.947	4.03
501.298	3.96
501.648	3.92
501.999	3.98
502.35	3.96
502.7	4.18
503.051	4.14
503.401	4.09
503.752	4.19
504.102	4.2
504.452	4.06
504.803	4.14
505.153	4.09
505.503	4.12
505.853	4.16
506.203	4.04
506.553	4.07
506.903	4.08
507.253	4.01
507.603	4.1
507.953	4.02
508.303	4.01
508.652	4.18
509.002	4.15
509.352	4.13
509.701	4.2
510.051	4.07
510.4	4.15
510.75	4.14
511.099	4.15
511.449	4.23
511.798	4.19
512.147	4.07
512.496	4.07
512.846	4.05
513.195	4.1
513.544	4.11
513.893	4.04
514.242	4.06
514.591	4.23
514.939	4.13
515.288	4.17
515.637	4.18
515.986	4.2
516.334	4.17
516.683	4.12
517.032	4.06
517.38	4.11
517.729	4.21
518.077	4.21
518.426	4.2
518.774	4.22
519.122	4.22
519.47	4.14
519.819	4.11
520.167	4.15
520.515	4.18
520.863	4.25
521.211	4.14
521.559	4.17
521.907	4.17
522.255	4.21
522.602	4.3
522.95	4.27
523.298	4.35
523.645	4.33
523.993	4.34
524.341	4.33
524.688	4.27
525.036	4.33
525.383	4.29
525.73	4.52
526.078	4.4
526.425	4.41
526.772	4.27
527.119	4.26
527.466	4.26
527.814	4.31
528.161	4.25
528.508	4.2
528.854	4.28
529.201	4.25
529.548	4.32
529.895	4.28
530.242	4.2
530.588	4.12
530.935	4.1
531.282	4.16
531.628	4.23
531.975	4.21
532.321	4.24
532.667	4.26
533.014	4.36
533.36	4.41
533.706	4.44
534.052	4.47
534.399	4.29
534.745	4.26
535.091	4.34
535.437	4.34
535.783	4.31
536.129	4.35
536.474	4.42
536.82	4.46
537.166	4.46
537.512	4.48
537.857	4.49
538.203	4.44
538.549	4.53
538.894	4.5
539.239	4.55
539.585	4.57
539.93	4.61
540.276	4.67
540.621	4.69
540.966	4.8
541.311	4.61
541.656	4.67
542.001	4.78
542.346	4.65
542.691	4.57
543.036	4.51
543.381	4.52
543.726	4.45
544.071	4.47
544.415	4.54
544.76	4.53
545.105	4.59
545.449	4.63
545.794	4.69
546.138	4.65
546.483	4.68
546.827	4.82
547.171	4.85
547.516	4.71
547.86	4.86
548.204	4.72
548.548	4.81
548.892	4.71
549.236	4.93
549.58	4.72
549.924	4.72
550.268	4.87
550.612	4.86
550.956	5.2
551.3	4.93
551.643	4.92
551.987	5.09
552.33	5.02
552.674	4.98
553.017	4.84
553.361	5.05
553.704	5.14
554.048	4.98
554.391	5.16
554.734	5.07
555.077	5.06
555.42	4.91
555.764	5.01
556.107	5.09
556.45	5.17
556.793	5.11
557.135	5.13
557.478	5.08
557.821	5.09
558.164	5.28
558.507	5.09
558.849	5.17
559.192	5.24
559.534	5.37
559.877	5.15
560.219	5.56
560.562	5.28
560.904	5.17
561.246	5.45
561.589	5.17
561.931	5.42
562.273	5.34
562.615	5.45
562.957	5.33
563.299	5.5
563.641	5.54
563.983	5.32
564.325	5.33
564.667	5.34
565.008	5.5
565.35	5.4
565.692	5.49
566.033	5.71
566.375	5.54
566.716	5.66
567.058	5.54
567.399	5.76
567.741	5.46
568.082	5.58
568.423	5.41
568.764	5.56
569.105	5.76
569.447	5.65
569.788	5.48
570.129	5.53
570.47	5.67
570.811	5.76
571.151	5.72
571.492	5.82
571.833	5.77
572.174	5.78
572.514	5.69
572.855	5.77
573.195	5.92
573.536	5.58
573.876	5.96
574.217	5.72
574.557	5.78
574.898	5.62
575.238	5.73
575.578	5.95
575.918	5.79
576.258	6.02
576.598	6.12
576.938	6.01
577.278	6.01
577.618	5.81
577.958	5.85
578.298	5.94
578.638	6.08
578.977	6.02
579.317	6.11
579.657	6.21
579.996	6.15
580.336	6.21
580.675	6.16
581.014	6.15
581.354	6.19
581.693	6.16
582.032	6.31
582.372	6.26
582.711	6.39
583.05	6.28
583.389	6.27
583.728	6.26
584.067	6.54
584.406	6.31
584.745	6.39
585.083	6.41
585.422	6.39
585.761	6.56
586.1	6.48
586.438	6.29
586.777	6.55
587.115	6.56
587.454	6.71
587.792	6.47
588.13	6.66
588.469	6.74
588.807	6.22
589.145	6.65
589.483	6.58
589.821	6.66
590.159	6.88
590.497	6.66
590.835	6.49
591.173	6.81
591.511	7
591.849	6.68
592.187	6.77
592.524	6.71
592.862	6.83
593.2	6.96
593.537	6.67
593.875	6.68
594.212	6.97
594.55	7.09
594.887	7.12
595.224	6.94
595.561	6.88
595.899	6.86
596.236	7.04
596.573	7.09
596.91	7.09
597.247	7.07
597.584	6.81
597.921	7.17
598.258	7.09
598.594	7.23
598.931	7.09
599.268	7.08
599.604	7.27
599.941	7.11
600.277	7.01
600.614	7.47
600.95	7.5
601.287	7.17
601.623	7.23
601.959	7.54
602.296	7.34
602.632	7.54
602.968	7.28
603.304	7.48
603.64	7.29
603.976	7.51
604.312	7.62
604.648	7.46
604.984	7.65
605.319	7.43
605.655	7.42
605.991	7.52
606.326	7.64
606.662	7.44
606.998	7.48
607.333	7.64
607.668	7.43
608.004	7.55
608.339	7.63
608.674	7.78
609.01	7.85
609.345	7.84
609.68	8.09
610.015	7.55
610.35	7.93
610.685	7.67
611.02	7.93
611.355	7.67
611.689	7.85
612.024	7.94
612.359	8.12
612.694	8.1
613.028	8.02
613.363	8.13
613.697	8.22
614.032	8.09
614.366	8.39
614.7	8.28
615.035	8.29
615.369	8.37
615.703	7.98
616.037	8.26
616.371	8.34
616.705	8.43
617.039	8.1
617.373	8.49
617.707	8.55
618.041	8.54
618.375	8.44
618.709	8.35
619.042	8.68
619.376	8.67
619.71	8.41
620.043	8.78
620.377	8.35
620.71	8.75
621.043	8.86
621.377	8.66
621.71	8.81
622.043	8.73
622.376	8.75
622.709	9.08
623.043	8.93
623.376	8.68
623.709	8.4
624.041	8.94
624.374	8.92
624.707	8.8
625.04	9.01
625.373	9.31
625.705	8.77
626.038	9.34
626.37	8.54
626.703	8.63
627.035	8.9
627.368	9.08
627.7	9.28
628.032	9.37
628.365	9.37
628.697	9.23
629.029	9.08
629.361	9.3
629.693	9.04
630.025	9.25
630.357	9.2
630.689	8.94
631.021	9.69
631.353	9.41
631.684	9.19
632.016	9.62
632.348	9.39
632.679	9.12
633.011	9.5
633.342	9.12
633.674	9.5
634.005	9.51
634.336	9.95
634.668	9.48
634.999	9.63
635.33	9.37
635.661	10.01
635.992	9.96
636.323	9.98
636.654	10.02
636.985	9.63
637.316	10.03
637.647	9.88
637.977	9.58
638.308	9.7
638.639	10.24
638.969	10.14
639.3	9.6
639.63	10.06
639.961	10.04
640.291	10.07
640.622	10.1
640.952	10.13
641.282	10.3
641.612	10.11
641.943	10.22
642.273	10.25
642.603	10.47
642.933	10.51
643.263	10.58
643.592	10.34
643.922	10.57
644.252	10.48
644.582	10.28
644.911	10.74
645.241	10.8
645.571	11.14
645.9	10.66
646.23	10.43
646.559	10.46
646.888	10.79
647.218	11.12
647.547	10.41
647.876	11.01
648.205	10.64
648.534	10.62
648.863	10.95
649.192	10.81
649.521	11.29
649.85	10.76
650.179	10.73
650.508	10.61
650.837	11.2
651.165	11.12
651.494	10.85
651.822	11.06
652.151	11.3
652.479	10.93
652.808	10.91
653.136	10.92
653.465	11.54
653.793	11.48
654.121	11.21
654.449	11.24
654.777	10.92
655.105	11.1
655.433	11.58
655.761	11.4
656.089	11.29
656.417	11.26
656.745	11.42
657.073	11.46
657.4	12.01
657.728	11.82
658.056	11.17
658.383	11.38
658.711	11.17
659.038	11.61
659.365	11.81
659.693	11.67
660.02	11.94
660.347	11.64
660.674	11.38
661.001	11.57
661.329	11.58
661.656	11.64
661.982	11.93
662.309	12.04
662.636	11.84
662.963	12.22
663.29	12
663.616	12.04
663.943	11.78
664.27	12.02
664.596	12.14
664.923	11.73
665.249	11.72
665.576	11.58
665.902	11.8
666.228	12.33
666.554	12.57
666.881	11.13
667.207	12.26
667.533	12.77
667.859	12.26
668.185	12.66
668.511	12.36
668.837	13.01
669.162	12.68
669.488	12.27
669.814	11.84
670.139	12.35
670.465	12.64
670.791	12.63
671.116	12.89
671.442	12.79
671.767	12.64
672.092	12.9
672.418	12.24
672.743	12.41
673.068	13.28
673.393	12.61
673.718	12.65
674.043	12.82
674.368	13.28
674.693	13.03
675.018	13.38
675.343	13.03
675.667	12.82
675.992	13.04
676.317	13.23
676.641	13.45
676.966	13.31
677.29	13.85
677.615	13.32
677.939	13.33
678.264	13.36
678.588	12.97
678.912	14.25
679.236	13.26
679.56	13.08
679.885	13.27
680.209	13.43
680.532	13.5
680.856	12.93
681.18	13.51
681.504	13.11
681.828	14.1
682.152	13.83
682.475	13.46
682.799	13.62
683.122	13.91
683.446	13.69
683.769	14.02
684.093	13.67
684.416	13.69
684.739	13.5
685.062	13.4
685.386	13.85
685.709	13.79
686.032	13.98
686.355	14.5
686.678	13.78
687.001	14.35
687.324	13.75
687.646	14.08
687.969	13.92
688.292	14.26
688.614	13.99
