Data from 0284_chest_Reflection__0__230.txt Node

Date: Fri Oct 20 22:32:54 CDT 2023
User: ToomeyLab
Spectrometer: FLMS14357
Trigger mode: 0
Integration Time (sec): 1.000000E-2
Scans to average: 100
Electric dark correction enabled: true
Nonlinearity correction enabled: false
Boxcar width: 0
XAxis mode: Wavelengths
Number of Pixels in Spectrum: 2048
>>>>>Begin Spectral Data<<<<<
189.047	-129.99
189.435	-129.99
189.823	-129.99
190.211	-72.93
190.599	-7888.89
190.987	121.47
191.375	35.48
191.763	-200.63
192.151	-232.29
192.538	-1.03
192.926	66.64
193.314	36.82
193.702	-35.83
194.089	160.53
194.477	-261.66
194.864	-181.36
195.252	218.36
195.639	27.36
196.027	48.85
196.414	128.15
196.801	20.8
197.189	77.75
197.576	-819.65
197.963	270.78
198.351	71.28
198.738	41.72
199.125	36.78
199.512	13.59
199.899	6.43
200.286	-1.15
200.673	30.97
201.06	0.18
201.447	2.58
201.833	31.97
202.22	-0.52
202.607	45.59
202.994	38.21
203.38	6.13
203.767	37.65
204.154	68.31
204.54	46.33
204.927	24.51
205.313	30.34
205.699	41.28
206.086	32.81
206.472	47.2
206.858	25.59
207.245	-12.04
207.631	43.25
208.017	16.95
208.403	4.67
208.789	33.24
209.175	11.44
209.561	41.99
209.947	13.09
210.333	29.36
210.719	16.76
211.105	27.85
211.491	36.66
211.876	26.32
212.262	6.33
212.648	6.37
213.034	19.27
213.419	4.21
213.805	-3.65
214.19	-24.42
214.576	-13.22
214.961	17.42
215.346	20.52
215.732	-16.41
216.117	-69.22
216.502	16.41
216.888	10.28
217.273	-21.49
217.658	12.96
218.043	1.39
218.428	-23.27
218.813	9.72
219.198	0.43
219.583	-13.62
219.968	-24.82
220.353	23.13
220.738	8.72
221.122	-18.17
221.507	5.51
221.892	22.21
222.276	7.43
222.661	7.88
223.046	3.95
223.43	-0.36
223.815	11.72
224.199	15.41
224.583	-8.52
224.968	-8.68
225.352	-15.85
225.736	4.79
226.121	1.59
226.505	4.02
226.889	6.9
227.273	0.68
227.657	10.36
228.041	9.26
228.425	6.14
228.809	5.83
229.193	-0.11
229.577	5.61
229.961	3.55
230.344	2.7
230.728	1.98
231.112	3.39
231.495	2.43
231.879	3.25
232.263	3.46
232.646	2.3
233.03	1.88
233.413	3.08
233.797	2.42
234.18	4.2
234.563	2.91
234.946	6.59
235.33	3.18
235.713	4.04
236.096	4.44
236.479	2.61
236.862	1.4
237.245	2.34
237.628	1.99
238.011	3.94
238.394	1.39
238.777	4.76
239.16	2.18
239.543	5.04
239.925	4.6
240.308	1.99
240.691	2.62
241.073	5.54
241.456	2.59
241.838	3.18
242.221	3.85
242.603	3.61
242.986	3.24
243.368	3.55
243.75	3.2
244.133	3.23
244.515	2.93
244.897	2.99
245.279	3
245.661	3.12
246.043	2.64
246.425	3.07
246.807	2.85
247.189	3.24
247.571	2.22
247.953	2.89
248.335	2.89
248.717	2.75
249.098	2.54
249.48	2.78
249.862	3.01
250.243	3.18
250.625	3.24
251.006	3.16
251.388	2.73
251.769	3.3
252.151	3.18
252.532	3.11
252.913	2.45
253.295	1.59
253.676	2.8
254.057	2.64
254.438	3.02
254.819	3.14
255.2	2.57
255.581	3.11
255.962	3.06
256.343	3.49
256.724	2.22
257.105	2.57
257.486	3.46
257.867	2.95
258.247	3.34
258.628	4.22
259.009	2.89
259.389	2.22
259.77	1.24
260.15	3.2
260.531	2.88
260.911	3.37
261.292	2.48
261.672	2.97
262.052	3.06
262.432	2.85
262.813	2.9
263.193	3.01
263.573	2.48
263.953	2.5
264.333	3.46
264.713	3.8
265.093	3.61
265.473	3.57
265.853	2.82
266.233	3.51
266.612	2.9
266.992	2.68
267.372	3.14
267.752	2.82
268.131	3.25
268.511	2.87
268.89	3.1
269.27	2.06
269.649	2.27
270.029	2.15
270.408	3.24
270.787	2.94
271.167	2.82
271.546	3.12
271.925	3.09
272.304	3.01
272.683	2.68
273.062	2.8
273.441	3.34
273.82	2.8
274.199	3.25
274.578	2.75
274.957	2.6
275.336	2.88
275.715	2.71
276.093	2.9
276.472	3.06
276.851	3.07
277.229	2.73
277.608	2.66
277.986	1.84
278.365	3.33
278.743	2.31
279.122	2.56
279.5	2.76
279.878	2.06
280.257	3.21
280.635	2.77
281.013	3.17
281.391	3.07
281.769	2.85
282.147	2.52
282.525	2.81
282.903	2.46
283.281	3.25
283.659	2.93
284.037	2.63
284.415	1.94
284.792	2.62
285.17	2.52
285.548	2.81
285.925	2.25
286.303	2.6
286.68	2.5
287.058	2.91
287.435	2.95
287.813	2.52
288.19	2.72
288.567	3.07
288.945	3.07
289.322	3.65
289.699	2.37
290.076	3.28
290.453	3.01
290.83	2.53
291.207	3.28
291.584	2.66
291.961	2.78
292.338	2.65
292.715	2.93
293.092	3.05
293.469	3.14
293.845	2.56
294.222	2.96
294.599	2.87
294.975	3.36
295.352	2.65
295.728	3.09
296.105	2.77
296.481	3.05
296.858	2.67
297.234	3.31
297.61	2.72
297.986	3.22
298.363	3.16
298.739	2.85
299.115	2.67
299.491	2.91
299.867	3.05
300.243	3.34
300.619	3.05
300.995	3.02
301.371	2.81
301.746	2.92
302.122	3.41
302.498	2.88
302.874	3.02
303.249	3.24
303.625	3.19
304	3.8
304.376	2.8
304.751	2.83
305.127	2.77
305.502	3.72
305.878	3.09
306.253	3.48
306.628	3.29
307.003	3.33
307.378	3.19
307.754	3.16
308.129	3.65
308.504	3.12
308.879	3.54
309.254	3.51
309.629	2.88
310.003	2.57
310.378	3.23
310.753	3.12
311.128	3.48
311.502	3.01
311.877	3.2
312.252	3.02
312.626	3.28
313.001	3.04
313.375	3.02
313.75	3.28
314.124	2.99
314.498	3.56
314.873	3.25
315.247	3.27
315.621	2.97
315.995	3.46
316.369	2.9
316.743	3.54
317.117	3.36
317.491	2.51
317.865	3.76
318.239	4.08
318.613	3.31
318.987	3.09
319.361	2.7
319.734	3.04
320.108	2.99
320.482	2.8
320.855	3.92
321.229	3.58
321.602	3.34
321.976	2.92
322.349	3.43
322.723	3.26
323.096	3.56
323.469	2.54
323.843	3.18
324.216	2.81
324.589	3.61
324.962	3.83
325.335	3.51
325.708	3.3
326.081	3.15
326.454	3.34
326.827	4.01
327.2	3.54
327.573	3.52
327.945	3.31
328.318	3.33
328.691	3.08
329.063	3.66
329.436	3.23
329.809	3.23
330.181	3.59
330.553	3.63
330.926	3.05
331.298	3.28
331.671	3.04
332.043	2.95
332.415	3.42
332.787	3.34
333.159	2.92
333.532	3.56
333.904	3.97
334.276	2.99
334.648	2.98
335.02	3.47
335.391	3.06
335.763	4.06
336.135	3.26
336.507	3.48
336.879	3.49
337.25	3.3
337.622	4.03
337.993	3.82
338.365	3.26
338.736	3.35
339.108	3.52
339.479	3.43
339.851	3.57
340.222	2.86
340.593	2.98
340.964	3.32
341.336	3.71
341.707	3.68
342.078	3.4
342.449	3.25
342.82	3.28
343.191	3.43
343.562	3.17
343.933	3.38
344.303	3.37
344.674	3.63
345.045	4.03
345.416	3.47
345.786	3.25
346.157	3.25
346.527	3.4
346.898	3.12
347.268	3.52
347.639	3.84
348.009	3.07
348.38	3.84
348.75	3.21
349.12	3.2
349.49	3.25
349.861	3.7
350.231	3.36
350.601	3.5
350.971	3.81
351.341	3.6
351.711	3.99
352.081	3.61
352.45	3.14
352.82	3.16
353.19	3.69
353.56	3.55
353.929	3.85
354.299	3.56
354.669	3.89
355.038	3.73
355.408	3.84
355.777	3.54
356.147	3.01
356.516	3.61
356.885	3.6
357.254	3.48
357.624	3
357.993	3.45
358.362	3.6
358.731	3.27
359.1	3.15
359.469	3.28
359.838	3.39
360.207	3.45
360.576	3.47
360.945	3.21
361.314	3.75
361.682	3.5
362.051	3.51
362.42	3.12
362.788	3.98
363.157	3.54
363.525	3.41
363.894	3.37
364.262	3.43
364.631	3.7
364.999	3.73
365.367	3.55
365.735	3.55
366.104	3.3
366.472	3.34
366.84	3.83
367.208	3.66
367.576	3.44
367.944	3.42
368.312	3.68
368.68	3.35
369.048	3.39
369.416	3.75
369.783	3.7
370.151	3.19
370.519	3.12
370.886	3.42
371.254	3.73
371.621	3.72
371.989	3.29
372.356	3.64
372.724	3.82
373.091	3.54
373.458	3.6
373.826	3.35
374.193	3.33
374.56	3.54
374.927	3.58
375.294	3.65
375.661	3.72
376.028	3.57
376.395	3.77
376.762	3.58
377.129	3.81
377.496	3.54
377.863	3.77
378.229	3.68
378.596	3.74
378.963	3.7
379.329	3.48
379.696	3.68
380.062	3.76
380.429	3.43
380.795	3.35
381.161	3.5
381.528	3.57
381.894	3.55
382.26	3.72
382.626	4.09
382.993	3.54
383.359	3.62
383.725	4.07
384.091	3.58
384.457	3.7
384.823	3.55
385.188	3.93
385.554	3.57
385.92	3.64
386.286	3.84
386.651	3.36
387.017	3.7
387.383	3.82
387.748	3.25
388.114	3.45
388.479	3.5
388.845	4.09
389.21	3.67
389.575	3.44
389.94	3.56
390.306	3.62
390.671	3.55
391.036	3.79
391.401	3.77
391.766	3.75
392.131	3.59
392.496	3.79
392.861	3.85
393.226	3.75
393.591	3.54
393.956	3.64
394.32	3.8
394.685	3.45
395.05	3.69
395.414	3.94
395.779	3.36
396.143	3.46
396.508	3.59
396.872	3.64
397.236	3.88
397.601	3.71
397.965	3.65
398.329	3.73
398.694	3.97
399.058	3.45
399.422	3.56
399.786	3.75
400.15	3.63
400.514	3.76
400.878	4.15
401.242	3.86
401.605	3.72
401.969	3.73
402.333	3.68
402.697	3.87
403.06	3.77
403.424	3.8
403.787	3.74
404.151	3.73
404.514	3.93
404.878	3.84
405.241	3.7
405.604	3.68
405.968	3.7
406.331	3.8
406.694	3.67
407.057	3.51
407.42	3.82
407.783	3.77
408.146	3.8
408.509	3.6
408.872	3.91
409.235	3.74
409.598	3.67
409.961	4.02
410.323	3.93
410.686	3.64
411.049	3.89
411.411	3.73
411.774	3.79
412.136	3.53
412.499	3.73
412.861	3.96
413.223	3.78
413.586	3.62
413.948	3.97
414.31	3.94
414.672	3.89
415.035	3.72
415.397	3.95
415.759	3.95
416.121	3.93
416.483	4
416.845	3.89
417.206	3.76
417.568	3.92
417.93	4.08
418.292	3.52
418.653	4.02
419.015	3.83
419.377	3.69
419.738	3.83
420.1	3.61
420.461	3.71
420.822	3.79
421.184	3.74
421.545	3.77
421.906	3.82
422.267	3.64
422.629	3.73
422.99	3.64
423.351	3.77
423.712	3.77
424.073	3.85
424.434	3.71
424.795	3.73
425.155	3.8
425.516	3.72
425.877	3.82
426.238	3.57
426.598	3.84
426.959	3.72
427.32	3.74
427.68	3.74
428.041	3.81
428.401	3.88
428.761	3.88
429.122	3.91
429.482	3.78
429.842	3.84
430.202	3.86
430.563	3.86
430.923	4.02
431.283	3.92
431.643	4.1
432.003	3.99
432.363	3.92
432.722	3.99
433.082	3.93
433.442	3.92
433.802	4.16
434.161	3.87
434.521	4.01
434.881	4.07
435.24	3.88
435.6	3.8
435.959	3.9
436.319	4.01
436.678	3.97
437.037	4
437.396	4.03
437.756	4.06
438.115	3.88
438.474	4
438.833	4
439.192	3.93
439.551	3.84
439.91	4
440.269	4.04
440.628	3.9
440.987	4
441.345	3.97
441.704	4.04
442.063	3.98
442.421	3.95
442.78	3.92
443.138	3.97
443.497	4.01
443.855	3.89
444.214	3.95
444.572	3.9
444.93	4.1
445.288	3.95
445.647	4.21
446.005	3.67
446.363	3.95
446.721	4.03
447.079	4.11
447.437	3.92
447.795	3.9
448.153	3.94
448.51	4
448.868	3.95
449.226	3.94
449.584	3.94
449.941	3.98
450.299	4.02
450.656	3.93
451.014	4.07
451.371	4.14
451.729	4
452.086	4
452.443	4.04
452.801	4.02
453.158	4.15
453.515	4.17
453.872	4.07
454.229	4.25
454.586	4.05
454.943	4.2
455.3	3.94
455.657	4.14
456.014	4.03
456.371	4.03
456.727	4.12
457.084	4.16
457.441	4.13
457.797	4.09
458.154	3.94
458.51	4.04
458.867	4.13
459.223	4.34
459.58	4.11
459.936	4.12
460.292	4.17
460.648	3.92
461.005	4.14
461.361	4.19
461.717	3.94
462.073	4.17
462.429	4.07
462.785	4.19
463.141	4.14
463.496	4.17
463.852	4.28
464.208	4.34
464.564	4.28
464.919	4.22
465.275	4.4
465.631	4.29
465.986	4.35
466.342	4.36
466.697	4.09
467.052	4.05
467.408	4.24
467.763	4.24
468.118	4.44
468.473	4.36
468.829	4.21
469.184	4.2
469.539	4.21
469.894	4.42
470.249	4.34
470.603	4.3
470.958	4.45
471.313	4.37
471.668	4.47
472.023	4.45
472.377	4.33
472.732	4.3
473.086	4.38
473.441	4.37
473.795	4.5
474.15	4.39
474.504	4.25
474.859	4.39
475.213	4.48
475.567	4.41
475.921	4.34
476.275	4.3
476.63	4.45
476.984	4.55
477.338	4.41
477.692	4.37
478.045	4.49
478.399	4.34
478.753	4.32
479.107	4.39
479.461	4.42
479.814	4.55
480.168	4.45
480.521	4.39
480.875	4.47
481.228	4.41
481.582	4.47
481.935	4.36
482.289	4.47
482.642	4.42
482.995	4.26
483.348	4.55
483.701	4.44
484.055	4.39
484.408	4.43
484.761	4.34
485.114	4.31
485.466	4.21
485.819	4.18
486.172	4.12
486.525	4.14
486.878	4.17
487.23	4.25
487.583	4.3
487.936	4.29
488.288	4.41
488.641	4.42
488.993	4.34
489.345	4.32
489.698	4.25
490.05	4.25
490.402	4.24
490.754	4.28
491.107	4.31
491.459	4.34
491.811	4.42
492.163	4.35
492.515	4.5
492.866	4.42
493.218	4.34
493.57	4.32
493.922	4.32
494.274	4.36
494.625	4.39
494.977	4.46
495.328	4.48
495.68	4.58
496.031	4.6
496.383	4.57
496.734	4.63
497.086	4.56
497.437	4.64
497.788	4.58
498.139	4.77
498.49	4.59
498.842	4.49
499.193	4.62
499.544	4.7
499.894	4.74
500.245	4.52
500.596	4.67
500.947	4.7
501.298	4.66
501.648	4.68
501.999	4.79
502.35	4.76
502.7	4.68
503.051	4.76
503.401	4.83
503.752	4.85
504.102	4.89
504.452	4.68
504.803	4.58
505.153	4.85
505.503	4.75
505.853	4.83
506.203	4.67
506.553	4.71
506.903	4.73
507.253	4.69
507.603	4.78
507.953	4.78
508.303	4.72
508.652	4.86
509.002	4.88
509.352	4.94
509.701	4.91
510.051	4.8
510.4	4.86
510.75	4.8
511.099	4.77
511.449	4.83
511.798	4.96
512.147	4.86
512.496	4.91
512.846	4.84
513.195	4.82
513.544	4.93
513.893	4.77
514.242	4.87
514.591	4.86
514.939	4.9
515.288	4.81
515.637	4.94
515.986	4.99
516.334	4.89
516.683	4.96
517.032	4.89
517.38	4.95
517.729	5.09
518.077	4.9
518.426	4.95
518.774	4.85
519.122	4.94
519.47	4.89
519.819	4.92
520.167	5
520.515	4.93
520.863	4.96
521.211	4.98
521.559	5.01
521.907	4.99
522.255	5.03
522.602	5.26
522.95	5.06
523.298	5.08
523.645	5.13
523.993	5.12
524.341	5.11
524.688	5.09
525.036	5.27
525.383	5.1
525.73	5.3
526.078	5.14
526.425	5.24
526.772	5.08
527.119	5.15
527.466	5.03
527.814	5.18
528.161	5.15
528.508	5.15
528.854	5.14
529.201	5.14
529.548	5.19
529.895	5.1
530.242	5.06
530.588	4.97
530.935	4.97
531.282	5.05
531.628	5.06
531.975	5.08
532.321	5.13
532.667	5.2
533.014	5.26
533.36	5.34
533.706	5.29
534.052	5.34
534.399	5.2
534.745	5.15
535.091	5.23
535.437	5.24
535.783	5.24
536.129	5.28
536.474	5.28
536.82	5.4
537.166	5.41
537.512	5.5
537.857	5.55
538.203	5.34
538.549	5.47
538.894	5.43
539.239	5.44
539.585	5.44
539.93	5.48
540.276	5.54
540.621	5.52
540.966	5.65
541.311	5.65
541.656	5.63
542.001	5.68
542.346	5.62
542.691	5.58
543.036	5.56
543.381	5.42
543.726	5.41
544.071	5.54
544.415	5.53
544.76	5.57
545.105	5.64
545.449	5.66
545.794	5.66
546.138	5.63
546.483	5.68
546.827	5.78
547.171	5.69
547.516	5.76
547.86	5.86
548.204	5.76
548.548	5.8
548.892	5.79
549.236	5.83
549.58	5.77
549.924	5.85
550.268	5.93
550.612	5.91
550.956	6.11
551.3	5.9
551.643	6.06
551.987	6.1
552.33	6.14
552.674	6
553.017	5.9
553.361	6.18
553.704	6.18
554.048	6.1
554.391	6.15
554.734	6.13
555.077	6.18
555.42	6.14
555.764	6.09
556.107	6.38
556.45	6.22
556.793	6.03
557.135	6.05
557.478	6.28
557.821	6.27
558.164	6.44
558.507	6.3
558.849	6.43
559.192	6.37
559.534	6.43
559.877	6.12
560.219	6.5
560.562	6.53
560.904	6.29
561.246	6.43
561.589	6.48
561.931	6.71
562.273	6.64
562.615	6.71
562.957	6.77
563.299	6.74
563.641	6.65
563.983	6.45
564.325	6.5
564.667	6.72
565.008	6.75
565.35	6.73
565.692	6.66
566.033	6.6
566.375	6.78
566.716	6.82
567.058	6.72
567.399	6.87
567.741	6.61
568.082	6.71
568.423	6.7
568.764	6.64
569.105	6.9
569.447	6.85
569.788	6.91
570.129	6.85
570.47	6.84
570.811	6.86
571.151	6.91
571.492	7.06
571.833	7.11
572.174	6.96
572.514	7.04
572.855	7.12
573.195	7.06
573.536	6.98
573.876	7.12
574.217	6.96
574.557	6.95
574.898	6.81
575.238	6.98
575.578	7.26
575.918	7.07
576.258	7.24
576.598	7.21
576.938	7.26
577.278	7.31
577.618	7.1
577.958	7.22
578.298	7.27
578.638	7.3
578.977	7.21
579.317	7.24
579.657	7.42
579.996	7.36
580.336	7.41
580.675	7.28
581.014	7.64
581.354	7.44
581.693	7.59
582.032	7.64
582.372	7.63
582.711	7.59
583.05	7.83
583.389	7.58
583.728	7.66
584.067	7.77
584.406	7.63
584.745	7.81
585.083	7.62
585.422	7.63
585.761	7.92
586.1	7.91
586.438	7.69
586.777	8.02
587.115	8.15
587.454	7.95
587.792	8.07
588.13	8.11
588.469	8.07
588.807	7.74
589.145	8
589.483	8.03
589.821	8.04
590.159	8.08
590.497	8.27
590.835	8.08
591.173	8.12
591.511	8.1
591.849	8.02
592.187	8.25
592.524	7.98
592.862	8.14
593.2	8.26
593.537	8.02
593.875	8.13
594.212	8.18
594.55	8.34
594.887	8.35
595.224	8.57
595.561	8.24
595.899	8.37
596.236	8.58
596.573	8.65
596.91	8.61
597.247	8.62
597.584	8.43
597.921	8.63
598.258	8.45
598.594	8.73
598.931	8.45
599.268	8.45
599.604	8.66
599.941	8.62
600.277	8.57
600.614	8.59
600.95	8.62
601.287	8.55
601.623	8.81
601.959	8.9
602.296	8.92
602.632	8.77
602.968	8.69
603.304	8.94
603.64	8.49
603.976	9.02
604.312	9.13
604.648	9.18
604.984	9.24
605.319	8.96
605.655	8.91
605.991	9.09
606.326	9.13
606.662	8.86
606.998	8.88
607.333	8.93
607.668	8.8
608.004	9.13
608.339	9.13
608.674	9.17
609.01	9.11
609.345	9.44
609.68	9.39
610.015	9.21
610.35	9.36
610.685	9.27
611.02	9.42
611.355	9.26
611.689	9.23
612.024	9.35
612.359	9.43
612.694	9.47
613.028	9.36
613.363	9.41
613.697	9.49
614.032	9.58
614.366	9.58
614.7	9.66
615.035	9.85
615.369	10.07
615.703	9.49
616.037	10.14
616.371	9.59
616.705	9.54
617.039	9.82
617.373	9.81
617.707	10.08
618.041	9.9
618.375	9.56
618.709	9.86
619.042	9.92
619.376	10.32
619.71	9.95
620.043	10.28
620.377	10.14
620.71	10.35
621.043	10.23
621.377	9.97
621.71	10.04
622.043	10.18
622.376	10.17
622.709	10.09
623.043	10.08
623.376	10.36
623.709	10.05
624.041	10.24
624.374	10.6
624.707	10.08
625.04	10.53
625.373	10.63
625.705	10.38
626.038	10.52
626.37	10.23
626.703	10.18
627.035	10.37
627.368	10.51
627.7	10.75
628.032	10.6
628.365	10.57
628.697	10.51
629.029	10.7
629.361	10.86
629.693	10.37
630.025	10.57
630.357	10.65
630.689	10.63
631.021	11
631.353	10.6
631.684	10.75
632.016	11.11
632.348	10.86
632.679	10.83
633.011	10.99
633.342	10.84
633.674	11.25
634.005	11.13
634.336	11.14
634.668	10.86
634.999	11.28
635.33	10.78
635.661	11.53
635.992	11.37
636.323	11.3
636.654	11.36
636.985	10.96
637.316	11.52
637.647	11.19
637.977	11.25
638.308	11.44
638.639	11.41
638.969	11.66
639.3	11.08
639.63	11.25
639.961	11.1
640.291	11.4
640.622	11.47
640.952	11.74
641.282	11.44
641.612	11.61
641.943	11.72
642.273	11.72
642.603	12.04
642.933	12.04
643.263	12.11
643.592	11.77
643.922	11.87
644.252	11.39
644.582	11.83
644.911	12.04
645.241	11.84
645.571	12.2
645.9	11.89
646.23	12.02
646.559	11.61
646.888	11.97
647.218	12.17
647.547	12.62
647.876	12.02
648.205	12.45
648.534	11.94
648.863	12.06
649.192	11.93
649.521	12.12
649.85	12.28
650.179	12.16
650.508	11.95
650.837	12.33
651.165	12.48
651.494	12.02
651.822	12.25
652.151	12.25
652.479	12.55
652.808	12.37
653.136	12.58
653.465	12.54
653.793	12.52
654.121	12.95
654.449	12.6
654.777	12.47
655.105	12.59
655.433	12.76
655.761	12.86
656.089	12.79
656.417	13.05
656.745	13.07
657.073	12.56
657.4	13.69
657.728	13.08
658.056	12.72
658.383	12.87
658.711	12.95
659.038	12.95
659.365	12.94
659.693	12.76
660.02	13.14
660.347	13.13
660.674	12.88
661.001	12.89
661.329	13.13
661.656	13.1
661.982	13.15
662.309	13.08
662.636	13.13
662.963	13.47
663.29	13.05
663.616	13.58
663.943	13.17
664.27	13.33
664.596	13.04
664.923	12.74
665.249	13.46
665.576	13.04
665.902	13.74
666.228	13.22
666.554	13.35
666.881	13.1
667.207	13.26
667.533	13.36
667.859	13.69
668.185	13.84
668.511	13.7
668.837	13.52
669.162	13.55
669.488	14.11
669.814	13.36
670.139	13.69
670.465	13.91
670.791	14.41
671.116	14.06
671.442	13.97
671.767	14.31
672.092	13.58
672.418	13.79
672.743	13.84
673.068	14.09
673.393	13.9
673.718	13.93
674.043	14.13
674.368	13.86
674.693	14.77
675.018	14.71
675.343	14.19
675.667	14.02
675.992	14.13
676.317	14.61
676.641	14.62
676.966	14.49
677.29	14.12
677.615	14.52
677.939	14.71
678.264	14.34
678.588	14.24
678.912	14.56
679.236	14.09
679.56	14.49
679.885	14.53
680.209	14.9
680.532	14.44
680.856	14.22
681.18	14.82
681.504	14.8
681.828	14.99
682.152	15.55
682.475	14.4
682.799	14.58
683.122	14.59
683.446	14.63
683.769	14.39
684.093	14.7
684.416	15.06
684.739	14.73
685.062	14.75
685.386	14.75
685.709	14.71
686.032	14.79
686.355	15.24
686.678	14.44
687.001	15.26
687.324	14.89
687.646	15.33
687.969	15.32
