Data from 0284_forehead_Reflection__2__243.txt Node

Date: Fri Oct 20 22:36:17 CDT 2023
User: ToomeyLab
Spectrometer: FLMS14357
Trigger mode: 0
Integration Time (sec): 1.000000E-2
Scans to average: 100
Electric dark correction enabled: true
Nonlinearity correction enabled: false
Boxcar width: 0
XAxis mode: Wavelengths
Number of Pixels in Spectrum: 2048
>>>>>Begin Spectral Data<<<<<
189.047	-11.72
189.435	-11.72
189.823	-11.72
190.211	-329.61
190.599	-21677.78
190.987	104.79
191.375	39.04
191.763	-84.15
192.151	23.91
192.538	-86.51
192.926	45.92
193.314	44.34
193.702	132.68
194.089	161.6
194.477	-503.71
194.864	2735.13
195.252	35.01
195.639	8.89
196.027	128.02
196.414	228.05
196.801	31.33
197.189	108.48
197.576	-420.05
197.963	83.27
198.351	64.43
198.738	35.55
199.125	71.36
199.512	30.89
199.899	44.2
200.286	-44
200.673	41.81
201.06	33.39
201.447	-18.15
201.833	47.13
202.22	76.71
202.607	86.78
202.994	29.57
203.38	73.1
203.767	43.18
204.154	72.54
204.54	74.09
204.927	59.35
205.313	44.1
205.699	33.9
206.086	19.02
206.472	58.98
206.858	66.94
207.245	12.39
207.631	31.45
208.017	30.12
208.403	28.51
208.789	39.6
209.175	14.1
209.561	17.4
209.947	-1.95
210.333	59.73
210.719	47.74
211.105	51.59
211.491	63.72
211.876	17.75
212.262	20.75
212.648	16.47
213.034	27.32
213.419	13.2
213.805	53.17
214.19	43.86
214.576	15.78
214.961	56.3
215.346	50.23
215.732	24.66
216.117	-6.52
216.502	16.46
216.888	14.9
217.273	4.19
217.658	7.43
218.043	-2.96
218.428	-5.19
218.813	2.93
219.198	5.7
219.583	-15.29
219.968	29.63
220.353	9.03
220.738	41.54
221.122	18.35
221.507	23.8
221.892	23.59
222.276	14.54
222.661	9.02
223.046	18.05
223.43	15.59
223.815	14.24
224.199	16.12
224.583	-1.52
224.968	-3.24
225.352	13.7
225.736	8.41
226.121	15.85
226.505	4.95
226.889	19.11
227.273	13.53
227.657	12.19
228.041	14.55
228.425	5.79
228.809	6.46
229.193	2.54
229.577	9.1
229.961	3.06
230.344	3.52
230.728	4.66
231.112	4.85
231.495	4.75
231.879	5.12
232.263	5.35
232.646	5.53
233.03	3.52
233.413	3.61
233.797	3.7
234.18	4.93
234.563	4.37
234.946	9.51
235.33	7.08
235.713	5.29
236.096	4.94
236.479	4.57
236.862	4.14
237.245	5.95
237.628	6.49
238.011	5.14
238.394	5.31
238.777	5.31
239.16	6.48
239.543	5.63
239.925	4.68
240.308	6.91
240.691	5.69
241.073	5.46
241.456	4.42
241.838	5.47
242.221	6.28
242.603	5.23
242.986	4.81
243.368	5.33
243.75	4.35
244.133	4.2
244.515	4.81
244.897	4.53
245.279	4.66
245.661	4.65
246.043	4.27
246.425	3.74
246.807	5.11
247.189	4.58
247.571	4.38
247.953	4.64
248.335	5.26
248.717	4.35
249.098	4.14
249.48	4.36
249.862	4.41
250.243	4.56
250.625	4.29
251.006	4.53
251.388	4.28
251.769	4.95
252.151	4.87
252.532	5.01
252.913	4.74
253.295	3.85
253.676	4.94
254.057	4.48
254.438	4.36
254.819	4.74
255.2	4.32
255.581	4.35
255.962	4.81
256.343	6.28
256.724	3.54
257.105	5.28
257.486	5.62
257.867	5.48
258.247	4.44
258.628	4.45
259.009	5.02
259.389	4.38
259.77	3.89
260.15	4.09
260.531	4.67
260.911	4.74
261.292	3.95
261.672	4.33
262.052	4.35
262.432	4.26
262.813	4
263.193	4.39
263.573	4.09
263.953	4.18
264.333	4.76
264.713	4.39
265.093	4.48
265.473	4.89
265.853	4.4
266.233	4.28
266.612	4.14
266.992	4.8
267.372	4.6
267.752	4.05
268.131	4.73
268.511	4.31
268.89	4.56
269.27	4.18
269.649	3.93
270.029	3.92
270.408	4.64
270.787	4.08
271.167	4.18
271.546	4.85
271.925	5.42
272.304	4.44
272.683	4.16
273.062	4.27
273.441	4.14
273.82	4.28
274.199	4.57
274.578	4.09
274.957	4.5
275.336	4.35
275.715	4.06
276.093	4.28
276.472	4.52
276.851	4.8
277.229	4.38
277.608	4.28
277.986	3.49
278.365	4.3
278.743	4.3
279.122	4.34
279.5	4.53
279.878	4.34
280.257	4.28
280.635	4.36
281.013	4.88
281.391	4.53
281.769	4.65
282.147	4.21
282.525	4.53
282.903	4.19
283.281	4.2
283.659	4.05
284.037	4.22
284.415	3.77
284.792	4.16
285.17	4.17
285.548	4.19
285.925	3.55
286.303	4.49
286.68	3.79
287.058	5.09
287.435	4.21
287.813	3.76
288.19	3.97
288.567	4.18
288.945	4.42
289.322	4.69
289.699	3.88
290.076	5.28
290.453	4.56
290.83	4.17
291.207	4.63
291.584	4.1
291.961	4.09
292.338	4.21
292.715	4.5
293.092	4.67
293.469	4.63
293.845	4.07
294.222	4.6
294.599	4.14
294.975	4.72
295.352	4.88
295.728	4.6
296.105	4.29
296.481	4.33
296.858	4.69
297.234	4.39
297.61	3.76
297.986	4.17
298.363	4.46
298.739	4.37
299.115	4.12
299.491	4.39
299.867	4.35
300.243	4.35
300.619	4.41
300.995	4.29
301.371	4.68
301.746	4.38
302.122	4.67
302.498	4.71
302.874	4.55
303.249	4.63
303.625	4.59
304	5.04
304.376	4.37
304.751	3.99
305.127	4.41
305.502	4.72
305.878	4.5
306.253	5.23
306.628	4.83
307.003	4.76
307.378	4.86
307.754	5.05
308.129	5.43
308.504	5.4
308.879	5.09
309.254	5.05
309.629	4.88
310.003	4.15
310.378	5.75
310.753	5.04
311.128	5.24
311.502	5.08
311.877	5.06
312.252	5.05
312.626	5.23
313.001	4.94
313.375	4.83
313.75	5.11
314.124	4.61
314.498	5.46
314.873	5.06
315.247	5.07
315.621	5.21
315.995	5.31
316.369	4.99
316.743	5.41
317.117	5.68
317.491	4.84
317.865	5.68
318.239	6.1
318.613	5.68
318.987	5.75
319.361	5.36
319.734	4.92
320.108	4.97
320.482	5.73
320.855	5.66
321.229	5.64
321.602	5.59
321.976	5.44
322.349	6.01
322.723	5.53
323.096	5.85
323.469	5.63
323.843	6.26
324.216	5.86
324.589	5.62
324.962	6.33
325.335	6.16
325.708	6.06
326.081	5.8
326.454	6.23
326.827	5.85
327.2	6.34
327.573	6.57
327.945	5.72
328.318	5.63
328.691	5.9
329.063	6.18
329.436	5.73
329.809	5.82
330.181	6.17
330.553	6.24
330.926	6.11
331.298	5.61
331.671	5.97
332.043	5.52
332.415	5.94
332.787	6.45
333.159	5.9
333.532	6.3
333.904	6.85
334.276	5.86
334.648	6.46
335.02	6.24
335.391	5.92
335.763	6.55
336.135	6.39
336.507	6.18
336.879	6.51
337.25	5.93
337.622	6.22
337.993	6.44
338.365	6.18
338.736	6.58
339.108	6.4
339.479	6.59
339.851	6.45
340.222	6.54
340.593	6.5
340.964	5.9
341.336	6.22
341.707	6.44
342.078	6.63
342.449	6.12
342.82	6.33
343.191	6.74
343.562	6.84
343.933	6.61
344.303	6.54
344.674	7.38
345.045	6.66
345.416	6.78
345.786	6.42
346.157	6.78
346.527	6.35
346.898	6.53
347.268	6.82
347.639	7.38
348.009	6.52
348.38	6.83
348.75	6.93
349.12	7.09
349.49	6.74
349.861	7.4
350.231	6.69
350.601	6.52
350.971	7.34
351.341	6.91
351.711	7.38
352.081	6.86
352.45	7.12
352.82	6.99
353.19	7.37
353.56	7.04
353.929	6.99
354.299	6.81
354.669	6.82
355.038	7.46
355.408	7.71
355.777	6.77
356.147	7.38
356.516	7.01
356.885	7.14
357.254	7.35
357.624	7.19
357.993	6.98
358.362	7.3
358.731	6.9
359.1	6.91
359.469	7.06
359.838	7.12
360.207	7.23
360.576	7.25
360.945	6.99
361.314	7.71
361.682	7.19
362.051	7.06
362.42	7.3
362.788	7.53
363.157	7.39
363.525	7.41
363.894	7.37
364.262	7.44
364.631	7.66
364.999	7.6
365.367	7.77
365.735	7.41
366.104	7.53
366.472	7.59
366.84	7.86
367.208	7.68
367.576	7.59
367.944	8.02
368.312	7.83
368.68	7.99
369.048	7.8
369.416	7.96
369.783	8.16
370.151	8
370.519	8.17
370.886	7.95
371.254	8.46
371.621	8.3
371.989	7.87
372.356	7.97
372.724	8.57
373.091	8.22
373.458	8.04
373.826	8.03
374.193	8.03
374.56	8.38
374.927	8.31
375.294	8.48
375.661	8.6
376.028	8.71
376.395	8.46
376.762	8.48
377.129	8.29
377.496	8.3
377.863	8.61
378.229	8.62
378.596	8.52
378.963	8.72
379.329	8.73
379.696	8.58
380.062	8.7
380.429	8.65
380.795	8.4
381.161	8.55
381.528	9.05
381.894	8.44
382.26	8.65
382.626	8.97
382.993	8.93
383.359	9.08
383.725	9.09
384.091	8.94
384.457	9.19
384.823	8.95
385.188	9.05
385.554	8.88
385.92	9
386.286	9.05
386.651	8.76
387.017	9.43
387.383	9.38
387.748	9.1
388.114	8.93
388.479	9.22
388.845	9.48
389.21	9.22
389.575	8.93
389.94	9.41
390.306	9.27
390.671	9.29
391.036	9.21
391.401	9.43
391.766	9.48
392.131	9.66
392.496	9.55
392.861	9.67
393.226	9.71
393.591	9.38
393.956	9.62
394.32	9.88
394.685	9.68
395.05	9.78
395.414	10.08
395.779	9.59
396.143	9.79
396.508	9.62
396.872	9.79
397.236	9.84
397.601	9.76
397.965	9.8
398.329	9.91
398.694	10.23
399.058	9.78
399.422	10.11
399.786	9.91
400.15	10.14
400.514	9.86
400.878	10.24
401.242	10.15
401.605	10.21
401.969	10.23
402.333	10.15
402.697	10.39
403.06	10.23
403.424	10.04
403.787	10.47
404.151	10.43
404.514	10.41
404.878	10.53
405.241	10.44
405.604	10.45
405.968	10.36
406.331	10.14
406.694	10.25
407.057	10.32
407.42	10.63
407.783	10.43
408.146	10.45
408.509	10.57
408.872	10.77
409.235	10.68
409.598	10.84
409.961	10.67
410.323	10.67
410.686	10.45
411.049	10.84
411.411	10.83
411.774	11.11
412.136	10.81
412.499	10.92
412.861	10.88
413.223	11.1
413.586	10.98
413.948	11.14
414.31	11.21
414.672	10.77
415.035	10.89
415.397	11.25
415.759	11.15
416.121	11.17
416.483	11.29
416.845	11.35
417.206	11.33
417.568	11.3
417.93	11.26
418.292	11.13
418.653	11.4
419.015	11.37
419.377	11.19
419.738	11.26
420.1	11.14
420.461	11.34
420.822	11.21
421.184	11.27
421.545	11.39
421.906	11.34
422.267	11.25
422.629	11.3
422.99	11.27
423.351	11.28
423.712	11.3
424.073	11.41
424.434	11.42
424.795	11.46
425.155	11.67
425.516	11.58
425.877	11.65
426.238	11.56
426.598	11.66
426.959	11.54
427.32	11.65
427.68	11.85
428.041	12.05
428.401	12.02
428.761	11.96
429.122	12.1
429.482	12.18
429.842	12.41
430.202	12.6
430.563	12.55
430.923	12.41
431.283	12.58
431.643	12.74
432.003	12.63
432.363	12.43
432.722	12.77
433.082	12.54
433.442	12.84
433.802	12.69
434.161	12.65
434.521	12.74
434.881	12.73
435.24	12.78
435.6	12.79
435.959	12.7
436.319	12.73
436.678	12.98
437.037	13.05
437.396	13.5
437.756	13.17
438.115	13.16
438.474	13.3
438.833	13.24
439.192	13.33
439.551	13.31
439.91	13.32
440.269	13.39
440.628	13.44
440.987	13.29
441.345	13.43
441.704	13.35
442.063	13.36
442.421	13.43
442.78	13.4
443.138	13.43
443.497	13.52
443.855	13.68
444.214	13.8
444.572	13.73
444.93	14.12
445.288	13.92
445.647	14.06
446.005	13.93
446.363	14.03
446.721	13.88
447.079	14.12
447.437	14.08
447.795	13.88
448.153	13.95
448.51	13.9
448.868	14
449.226	13.98
449.584	14.09
449.941	14.09
450.299	14.25
450.656	14.25
451.014	14.52
451.371	14.5
451.729	14.54
452.086	14.57
452.443	14.76
452.801	14.93
453.158	14.97
453.515	14.83
453.872	15.08
454.229	15.07
454.586	14.99
454.943	14.8
455.3	15.01
455.657	15.05
456.014	15.06
456.371	15.07
456.727	15.3
457.084	15.3
457.441	15.51
457.797	15.35
458.154	15.41
458.51	15.4
458.867	15.63
459.223	15.57
459.58	15.68
459.936	15.76
460.292	15.66
460.648	15.65
461.005	15.47
461.361	15.65
461.717	15.43
462.073	15.42
462.429	15.53
462.785	15.63
463.141	15.8
463.496	15.94
463.852	16.04
464.208	16.36
464.564	16.36
464.919	16.32
465.275	16.65
465.631	16.44
465.986	16.37
466.342	16.36
466.697	16.55
467.052	16.62
467.408	16.57
467.763	16.83
468.118	16.87
468.473	16.88
468.829	16.81
469.184	16.86
469.539	17.05
469.894	17
470.249	17.11
470.603	17.15
470.958	17.33
471.313	17.51
471.668	17.36
472.023	17.49
472.377	17.39
472.732	17.38
473.086	17.59
473.441	17.59
473.795	17.68
474.15	17.71
474.504	17.62
474.859	17.79
475.213	17.87
475.567	17.84
475.921	17.84
476.275	17.75
476.63	18.18
476.984	18.16
477.338	18.05
477.692	18.1
478.045	18.33
478.399	18.14
478.753	18.43
479.107	18.08
479.461	18.15
479.814	18.34
480.168	18.4
480.521	18.35
480.875	18.33
481.228	18.68
481.582	18.68
481.935	18.49
482.289	18.65
482.642	18.74
482.995	18.77
483.348	18.7
483.701	18.58
484.055	18.66
484.408	18.58
484.761	18.39
485.114	18.16
485.466	17.83
485.819	17.7
486.172	17.6
486.525	17.72
486.878	17.86
487.23	18.09
487.583	18.32
487.936	18.51
488.288	18.71
488.641	18.7
488.993	18.58
489.345	18.45
489.698	18.32
490.05	18.34
490.402	18.43
490.754	18.61
491.107	18.75
491.459	19.03
491.811	19.23
492.163	19.32
492.515	19.64
492.866	19.56
493.218	19.23
493.57	18.97
493.922	18.95
494.274	19.16
494.625	19.28
494.977	19.51
495.328	19.83
495.68	20.08
496.031	20.14
496.383	20.49
496.734	20.59
497.086	20.75
497.437	20.83
497.788	20.74
498.139	21.03
498.49	20.85
498.842	20.64
499.193	20.67
499.544	20.73
499.894	20.83
500.245	20.79
500.596	20.85
500.947	21.19
501.298	21.09
501.648	21.18
501.999	21.41
502.35	21.32
502.7	21.86
503.051	21.78
503.401	21.78
503.752	21.83
504.102	21.93
504.452	21.93
504.803	22.04
505.153	21.96
505.503	22.1
505.853	22.14
506.203	22.02
506.553	22.17
506.903	22.02
507.253	22.37
507.603	22.2
507.953	22.25
508.303	22.33
508.652	22.5
509.002	22.44
509.352	22.65
509.701	22.66
510.051	22.52
510.4	22.63
510.75	22.51
511.099	22.44
511.449	22.37
511.798	22.49
512.147	22.52
512.496	22.7
512.846	22.63
513.195	22.83
513.544	22.92
513.893	22.86
514.242	22.92
514.591	22.84
514.939	23.04
515.288	23.03
515.637	23.15
515.986	23.24
516.334	23.35
516.683	23.43
517.032	23.44
517.38	23.46
517.729	23.66
518.077	23.67
518.426	23.84
518.774	23.51
519.122	23.67
519.47	23.62
519.819	23.41
520.167	23.54
520.515	23.38
520.863	23.24
521.211	23.21
521.559	23.35
521.907	23.5
522.255	23.78
522.602	23.87
522.95	24
523.298	24.14
523.645	24.27
523.993	24.24
524.341	24.5
524.688	24.27
525.036	24.65
525.383	24.54
525.73	24.63
526.078	24.44
526.425	24.58
526.772	24.52
527.119	24.34
527.466	24.09
527.814	24.01
528.161	24.02
528.508	24.06
528.854	24.09
529.201	24.26
529.548	24.2
529.895	24.1
530.242	23.71
530.588	23.51
530.935	23.45
531.282	23.58
531.628	23.68
531.975	23.75
532.321	24.1
532.667	24.23
533.014	24.61
533.36	24.76
533.706	24.84
534.052	25.02
534.399	24.9
534.745	24.72
535.091	24.61
535.437	24.42
535.783	24.37
536.129	24.61
536.474	24.71
536.82	25.03
537.166	25.2
537.512	25.53
537.857	25.59
538.203	25.52
538.549	25.44
538.894	25.43
539.239	25.43
539.585	25.54
539.93	25.78
540.276	25.98
540.621	26.03
540.966	26.4
541.311	26.49
541.656	26.49
542.001	26.51
542.346	26.32
542.691	26.01
543.036	25.77
543.381	25.38
543.726	25.3
544.071	25.44
544.415	25.62
544.76	25.75
545.105	26
545.449	25.99
545.794	26.25
546.138	26.41
546.483	26.48
546.827	26.71
547.171	26.93
547.516	26.82
547.86	27.03
548.204	26.92
548.548	27.02
548.892	26.91
549.236	26.79
549.58	27
549.924	27.18
550.268	27.27
550.612	27.5
550.956	27.93
551.3	27.96
551.643	28.26
551.987	28.26
552.33	28.43
552.674	28.34
553.017	28.55
553.361	28.42
553.704	28.69
554.048	28.51
554.391	28.42
554.734	28.2
555.077	28.38
555.42	28.08
555.764	28.32
556.107	28.65
556.45	28.64
556.793	28.7
557.135	28.72
557.478	28.82
557.821	29.05
558.164	29.29
558.507	29.34
558.849	29.25
559.192	29.38
559.534	29.59
559.877	29.35
560.219	29.45
560.562	29.66
560.904	29.48
561.246	29.67
561.589	29.62
561.931	29.84
562.273	29.77
562.615	29.8
562.957	29.91
563.299	29.69
563.641	29.83
563.983	29.88
564.325	29.81
564.667	29.87
565.008	29.97
565.35	30
565.692	29.88
566.033	30.23
566.375	30.44
566.716	30.25
567.058	30.35
567.399	30.19
567.741	30.1
568.082	30.12
568.423	30.04
568.764	29.82
569.105	30.01
569.447	30.12
569.788	30.26
570.129	30.22
570.47	30.47
570.811	30.64
571.151	30.68
571.492	30.61
571.833	30.82
572.174	30.62
572.514	30.79
572.855	30.93
573.195	31.06
573.536	30.46
573.876	30.76
574.217	30.68
574.557	30.59
574.898	30.47
575.238	30.65
575.578	30.98
575.918	30.74
576.258	31.15
576.598	31.2
576.938	31.2
577.278	31.08
577.618	30.89
577.958	31.13
578.298	31.11
578.638	31.51
578.977	31.57
579.317	31.56
579.657	31.82
579.996	32
580.336	32
580.675	31.87
581.014	32.27
581.354	32.25
581.693	32.24
582.032	32.12
582.372	32.68
582.711	32.67
583.05	32.36
583.389	32.45
583.728	32.41
584.067	32.76
584.406	32.77
584.745	32.69
585.083	33.09
585.422	32.92
585.761	32.96
586.1	33
586.438	32.93
586.777	33.3
587.115	33.43
587.454	33.34
587.792	32.96
588.13	33.46
588.469	33.31
588.807	32.98
589.145	33.39
589.483	33.6
589.821	33.43
590.159	33.23
590.497	33.57
590.835	33.6
591.173	33.59
591.511	33.57
591.849	33.24
592.187	33.68
592.524	33.29
592.862	33.65
593.2	33.67
593.537	33.49
593.875	33.41
594.212	33.88
594.55	34.09
594.887	34.01
595.224	33.99
595.561	33.84
595.899	34.01
596.236	34.01
596.573	33.98
596.91	34.17
597.247	34.31
597.584	34.02
597.921	34.02
598.258	34.15
598.594	33.83
598.931	33.66
599.268	33.86
599.604	33.81
599.941	33.68
600.277	33.86
600.614	34.11
600.95	34.35
601.287	34.44
601.623	34.5
601.959	34.65
602.296	34.84
602.632	34.94
602.968	34.62
603.304	34.99
603.64	34.68
603.976	35.03
604.312	35.1
604.648	35.06
604.984	35.11
605.319	34.67
605.655	34.55
605.991	34.56
606.326	34.43
606.662	34.6
606.998	34.34
607.333	34.55
607.668	34.51
608.004	34.64
608.339	34.74
608.674	35.04
609.01	35.16
609.345	35.65
609.68	35.2
610.015	35.24
610.35	35.85
610.685	35.48
611.02	35.58
611.355	35.1
611.689	34.92
612.024	35.25
612.359	35.31
612.694	35.3
613.028	35.54
613.363	35.38
613.697	35.63
614.032	35.65
614.366	35.91
614.7	36.15
615.035	36.05
615.369	36.02
615.703	36.16
616.037	36.05
616.371	36.03
616.705	35.91
617.039	36.21
617.373	36.75
617.707	36.34
618.041	36.11
618.375	36.23
618.709	36.48
619.042	36.16
619.376	36.51
619.71	36.53
620.043	36.47
620.377	36.76
620.71	36.24
621.043	36.87
621.377	36.71
621.71	37.05
622.043	36.87
622.376	37.04
622.709	37.32
623.043	36.87
623.376	36.73
623.709	36.69
624.041	37.02
624.374	36.76
624.707	36.8
625.04	37.01
625.373	37.44
625.705	37.18
626.038	37.21
626.37	36.86
626.703	37.13
627.035	37.2
627.368	37.33
627.7	37.11
628.032	36.89
628.365	37.11
628.697	37.07
629.029	36.97
629.361	36.81
629.693	36.91
630.025	37.24
630.357	37.49
630.689	36.76
631.021	37.06
631.353	37.47
631.684	37.32
632.016	37.2
632.348	37.21
632.679	37.46
633.011	37.89
633.342	37.46
633.674	37.37
634.005	37.61
634.336	38.09
634.668	37.96
634.999	38.1
635.33	37.76
635.661	38.11
635.992	37.94
636.323	37.79
636.654	37.94
636.985	38.15
637.316	38.03
637.647	37.92
637.977	37.62
638.308	37.66
638.639	38.35
638.969	38.27
639.3	37.98
639.63	37.87
639.961	37.89
640.291	38.27
640.622	38.37
640.952	38.48
641.282	38.28
641.612	38.57
641.943	38.51
642.273	38.52
642.603	38.77
642.933	38.41
643.263	39.02
643.592	38.8
643.922	38.94
644.252	38.51
644.582	38.76
644.911	39.07
645.241	39.56
645.571	39.26
645.9	38.79
646.23	38.74
646.559	38.9
646.888	39.17
647.218	38.67
647.547	39.14
647.876	39.98
648.205	39.18
648.534	39.27
648.863	39.26
649.192	38.96
649.521	39.19
649.85	39.85
650.179	39.05
650.508	39.49
650.837	39.44
651.165	39.6
651.494	39.59
651.822	39.26
652.151	39.53
652.479	39.76
652.808	39.17
653.136	39.45
653.465	39.17
653.793	38.95
654.121	39.9
654.449	39.83
654.777	39.48
655.105	40.01
655.433	39.67
655.761	40.14
656.089	40.23
656.417	39.89
656.745	39.19
657.073	40.22
657.4	40.15
657.728	40.48
658.056	40.04
658.383	40.14
658.711	39.65
659.038	40.32
659.365	40.36
659.693	40.33
660.02	40.03
660.347	40.08
660.674	40.07
661.001	39.87
661.329	39.46
661.656	40.03
661.982	39.91
662.309	40.32
662.636	40.11
662.963	40.1
663.29	40.21
663.616	40.71
663.943	40.71
664.27	40.96
664.596	40.7
664.923	40.21
665.249	40.4
665.576	41.28
665.902	40.63
666.228	40.68
666.554	40.82
666.881	40.77
667.207	41.1
667.533	41.32
667.859	41
668.185	41.27
668.511	41.59
668.837	41.32
669.162	41.69
669.488	41.34
669.814	40.77
670.139	41.48
670.465	41.1
670.791	41.14
671.116	41.92
671.442	41.5
671.767	41.54
672.092	41.16
672.418	40.92
672.743	40.96
673.068	41.92
673.393	41.17
673.718	41.97
674.043	42.36
