Data from 0284_chest_Reflection__2__232.txt Node

Date: Fri Oct 20 22:33:20 CDT 2023
User: ToomeyLab
Spectrometer: FLMS14357
Trigger mode: 0
Integration Time (sec): 1.000000E-2
Scans to average: 100
Electric dark correction enabled: true
Nonlinearity correction enabled: false
Boxcar width: 0
XAxis mode: Wavelengths
Number of Pixels in Spectrum: 2048
>>>>>Begin Spectral Data<<<<<
189.047	18.1
189.435	18.1
189.823	18.1
190.211	-0.31
190.599	-2755.56
190.987	95.39
191.375	41.82
191.763	-76.92
192.151	-122.98
192.538	-157.48
192.926	57.9
193.314	135.18
193.702	402.77
194.089	342.65
194.477	-393.22
194.864	421.51
195.252	2.62
195.639	39.33
196.027	130.39
196.414	149.72
196.801	207.12
197.189	92.11
197.576	-582.5
197.963	159.14
198.351	49.08
198.738	-1.71
199.125	45.71
199.512	20.54
199.899	26.24
200.286	-10.36
200.673	30.28
201.06	10.54
201.447	20.75
201.833	28.27
202.22	34.83
202.607	22.18
202.994	36.29
203.38	0.72
203.767	4.82
204.154	48.34
204.54	56.05
204.927	52.39
205.313	-18.22
205.699	13.13
206.086	37.99
206.472	53.08
206.858	71.9
207.245	0.16
207.631	12.74
208.017	44.6
208.403	-2.16
208.789	27.51
209.175	-3.3
209.561	20.47
209.947	3.84
210.333	17.06
210.719	74.7
211.105	53.04
211.491	29.13
211.876	-20.31
212.262	46.29
212.648	16.52
213.034	25.41
213.419	24.73
213.805	-5.92
214.19	-16.18
214.576	-1.74
214.961	11.15
215.346	8.79
215.732	21.94
216.117	-48.06
216.502	6.67
216.888	13.99
217.273	-6.52
217.658	-3.93
218.043	11.47
218.428	-0.54
218.813	13.8
219.198	18.51
219.583	-5.76
219.968	-27.78
220.353	17.34
220.738	9.72
221.122	-8.94
221.507	4.53
221.892	6.61
222.276	-1.51
222.661	12.24
223.046	0.08
223.43	13.12
223.815	14.92
224.199	13.15
224.583	-0.46
224.968	-0.57
225.352	-0.09
225.736	5.16
226.121	17.14
226.505	-7.63
226.889	2.85
227.273	6.76
227.657	6.34
228.041	9.17
228.425	4.95
228.809	2.91
229.193	6.18
229.577	5.34
229.961	2.42
230.344	2.21
230.728	1.81
231.112	2.58
231.495	1.6
231.879	1.71
232.263	2.72
232.646	2.52
233.03	1.43
233.413	1.74
233.797	1.55
234.18	0.22
234.563	3.72
234.946	3.75
235.33	0.22
235.713	1.88
236.096	3.61
236.479	2.85
236.862	1.98
237.245	2.69
237.628	3.11
238.011	2.47
238.394	0.97
238.777	3.6
239.16	1.22
239.543	4.32
239.925	4.16
240.308	2.3
240.691	2.28
241.073	3.18
241.456	3.18
241.838	2.04
242.221	3.94
242.603	3.25
242.986	3.19
243.368	2.33
243.75	2.51
244.133	2.14
244.515	2.16
244.897	2.16
245.279	2.57
245.661	1.71
246.043	2.22
246.425	2.04
246.807	2.64
247.189	2.12
247.571	1.72
247.953	2.78
248.335	2.85
248.717	1.69
249.098	1.91
249.48	2.22
249.862	2.31
250.243	2.48
250.625	2.51
251.006	2.46
251.388	2.48
251.769	2.67
252.151	1.38
252.532	2.56
252.913	2.9
253.295	0.78
253.676	2.88
254.057	2.23
254.438	2.26
254.819	2.56
255.2	2.56
255.581	2.65
255.962	1.42
256.343	2.95
256.724	0.89
257.105	1.85
257.486	2.16
257.867	1.89
258.247	3.11
258.628	3.16
259.009	2.45
259.389	1.09
259.77	1.09
260.15	2.33
260.531	2.67
260.911	2.75
261.292	1.98
261.672	2.26
262.052	2.51
262.432	2.23
262.813	2.34
263.193	2.31
263.573	2.21
263.953	2.21
264.333	1.77
264.713	3.07
265.093	2.31
265.473	3.6
265.853	1.9
266.233	2.6
266.612	2.49
266.992	2.82
267.372	2.5
267.752	1.98
268.131	2.53
268.511	2.33
268.89	2.59
269.27	1.85
269.649	1.87
270.029	2.4
270.408	2.51
270.787	2.66
271.167	2.79
271.546	2.29
271.925	2.57
272.304	2.14
272.683	1.91
273.062	2.41
273.441	2.33
273.82	2.06
274.199	2.67
274.578	2.05
274.957	2.38
275.336	2.8
275.715	2.57
276.093	2.42
276.472	2.13
276.851	2.49
277.229	2.38
277.608	2
277.986	1.81
278.365	2.87
278.743	2.2
279.122	2.28
279.5	2.42
279.878	2.13
280.257	2.47
280.635	2.22
281.013	2.48
281.391	2.44
281.769	1.67
282.147	2.22
282.525	2.16
282.903	2.26
283.281	2.56
283.659	2.34
284.037	2.34
284.415	1.95
284.792	2.19
285.17	2.24
285.548	2.16
285.925	1.67
286.303	1.93
286.68	1.88
287.058	2.77
287.435	2.49
287.813	1.81
288.19	2.26
288.567	2.23
288.945	2.69
289.322	2.45
289.699	1.79
290.076	2.48
290.453	2.56
290.83	2.06
291.207	2.97
291.584	2.09
291.961	2.37
292.338	2.16
292.715	2.37
293.092	2.51
293.469	2.79
293.845	2.59
294.222	2.39
294.599	2.52
294.975	3.18
295.352	2.53
295.728	2.34
296.105	2.47
296.481	2.29
296.858	2.23
297.234	2.69
297.61	2.05
297.986	2.3
298.363	2.52
298.739	2.53
299.115	2.44
299.491	2.87
299.867	2.41
300.243	2.35
300.619	2.79
300.995	2.36
301.371	2.37
301.746	2.88
302.122	3.01
302.498	2.55
302.874	2.63
303.249	2.54
303.625	2.92
304	3.43
304.376	2.63
304.751	1.97
305.127	2.28
305.502	3.44
305.878	2.71
306.253	2.36
306.628	2.83
307.003	2.55
307.378	2.84
307.754	2.69
308.129	2.95
308.504	2.62
308.879	2.73
309.254	4
309.629	2.58
310.003	2.36
310.378	3.02
310.753	2.88
311.128	3.28
311.502	2.9
311.877	3.04
312.252	2.33
312.626	3.29
313.001	2.66
313.375	2.63
313.75	2.92
314.124	2.56
314.498	3.25
314.873	2.55
315.247	2.95
315.621	2.99
315.995	3.07
316.369	2.62
316.743	3.18
317.117	3.08
317.491	2.41
317.865	3.46
318.239	3.28
318.613	2.97
318.987	3.03
319.361	2.04
319.734	3.08
320.108	2.82
320.482	3.18
320.855	2.99
321.229	3.58
321.602	2.85
321.976	2.38
322.349	3.82
322.723	2.94
323.096	3.24
323.469	2.92
323.843	3.1
324.216	3.15
324.589	3.35
324.962	3.34
325.335	3.3
325.708	2.81
326.081	3.32
326.454	3.32
326.827	3.2
327.2	3.51
327.573	3.22
327.945	2.95
328.318	2.86
328.691	3.07
329.063	3.1
329.436	2.85
329.809	2.84
330.181	3.56
330.553	3.78
330.926	2.88
331.298	2.92
331.671	2.83
332.043	2.55
332.415	3.21
332.787	3.77
333.159	3.1
333.532	3.62
333.904	3.44
334.276	3.12
334.648	3.19
335.02	3.74
335.391	2.87
335.763	3.3
336.135	2.86
336.507	3.15
336.879	2.85
337.25	3.19
337.622	3.41
337.993	3.46
338.365	3.03
338.736	3.16
339.108	3.44
339.479	2.9
339.851	3.26
340.222	2.9
340.593	2.91
340.964	3.11
341.336	3.64
341.707	3.11
342.078	3.11
342.449	3.22
342.82	3.1
343.191	3.38
343.562	3.53
343.933	2.89
344.303	3.13
344.674	3.3
345.045	3.49
345.416	3.54
345.786	3.14
346.157	3.24
346.527	3.21
346.898	3.3
347.268	3.23
347.639	3.59
348.009	2.95
348.38	3.4
348.75	3.48
349.12	3.29
349.49	3.14
349.861	3.27
350.231	3.12
350.601	3.18
350.971	3.89
351.341	3.62
351.711	3.67
352.081	3.03
352.45	3.59
352.82	3.44
353.19	3.52
353.56	3.53
353.929	3.37
354.299	3.47
354.669	3.35
355.038	3.24
355.408	3.33
355.777	3.08
356.147	3.27
356.516	3.26
356.885	3.38
357.254	3.35
357.624	3.38
357.993	3.27
358.362	3.19
358.731	3.44
359.1	2.85
359.469	2.91
359.838	3.47
360.207	3.35
360.576	3.47
360.945	3.02
361.314	3.1
361.682	3.16
362.051	3.19
362.42	3.03
362.788	3.52
363.157	3.32
363.525	3.33
363.894	3.32
364.262	3.3
364.631	3.35
364.999	3.1
365.367	3.45
365.735	3.08
366.104	3.11
366.472	3.06
366.84	3.54
367.208	3.1
367.576	3.17
367.944	3.47
368.312	3.3
368.68	3.67
369.048	3.43
369.416	3.66
369.783	3.48
370.151	3.38
370.519	3.4
370.886	3.6
371.254	3.7
371.621	3.69
371.989	3.22
372.356	3.3
372.724	3.53
373.091	3.27
373.458	3.26
373.826	3.45
374.193	3.27
374.56	3.33
374.927	3.56
375.294	3.23
375.661	3.38
376.028	3.41
376.395	3.5
376.762	3.04
377.129	3.31
377.496	3.6
377.863	3.39
378.229	3.38
378.596	3.26
378.963	3.51
379.329	3.42
379.696	3.22
380.062	3.36
380.429	3.55
380.795	3.22
381.161	3.3
381.528	3.42
381.894	3.33
382.26	3.25
382.626	3.53
382.993	3.25
383.359	3.2
383.725	3.45
384.091	3.47
384.457	3.43
384.823	3.55
385.188	3.6
385.554	3.54
385.92	3.36
386.286	3.8
386.651	3.28
387.017	3.48
387.383	3.45
387.748	3.51
388.114	3.22
388.479	3.37
388.845	3.58
389.21	3.38
389.575	3.36
389.94	3.67
390.306	3.49
390.671	3.51
391.036	3.73
391.401	3.61
391.766	3.53
392.131	3.69
392.496	3.47
392.861	3.51
393.226	3.34
393.591	3.73
393.956	3.59
394.32	3.64
394.685	3.56
395.05	3.59
395.414	3.81
395.779	3.55
396.143	3.56
396.508	3.22
396.872	3.5
397.236	3.54
397.601	3.6
397.965	3.66
398.329	3.44
398.694	3.5
399.058	3.04
399.422	3.34
399.786	3.41
400.15	3.54
400.514	3.35
400.878	3.73
401.242	3.67
401.605	3.55
401.969	3.4
402.333	3.63
402.697	3.77
403.06	3.63
403.424	3.52
403.787	3.49
404.151	3.59
404.514	3.76
404.878	3.61
405.241	3.54
405.604	3.47
405.968	3.62
406.331	3.35
406.694	3.4
407.057	3.48
407.42	3.82
407.783	3.48
408.146	3.54
408.509	3.57
408.872	3.79
409.235	3.54
409.598	3.67
409.961	3.82
410.323	3.56
410.686	3.45
411.049	3.66
411.411	3.46
411.774	3.67
412.136	3.65
412.499	3.47
412.861	3.87
413.223	3.6
413.586	3.7
413.948	3.68
414.31	3.77
414.672	3.51
415.035	3.67
415.397	3.94
415.759	3.8
416.121	3.62
416.483	3.63
416.845	3.61
417.206	3.86
417.568	3.8
417.93	3.78
418.292	3.62
418.653	3.79
419.015	3.47
419.377	3.59
419.738	3.64
420.1	3.5
420.461	3.58
420.822	3.56
421.184	3.61
421.545	3.49
421.906	3.58
422.267	3.44
422.629	3.5
422.99	3.43
423.351	3.53
423.712	3.56
424.073	3.64
424.434	3.46
424.795	3.46
425.155	3.58
425.516	3.54
425.877	3.6
426.238	3.45
426.598	3.59
426.959	3.51
427.32	3.59
427.68	3.68
428.041	3.59
428.401	3.69
428.761	3.7
429.122	3.59
429.482	3.7
429.842	3.65
430.202	3.67
430.563	3.6
430.923	3.77
431.283	3.82
431.643	3.65
432.003	3.9
432.363	3.63
432.722	3.58
433.082	3.61
433.442	3.69
433.802	4
434.161	3.59
434.521	3.86
434.881	3.69
435.24	3.61
435.6	3.6
435.959	3.77
436.319	3.58
436.678	3.84
437.037	3.76
437.396	3.82
437.756	3.86
438.115	3.51
438.474	3.71
438.833	3.75
439.192	3.56
439.551	3.69
439.91	3.76
440.269	3.83
440.628	3.82
440.987	3.72
441.345	3.68
441.704	3.76
442.063	3.78
442.421	3.6
442.78	3.65
443.138	3.79
443.497	3.82
443.855	3.72
444.214	3.78
444.572	3.71
444.93	3.89
445.288	3.92
445.647	3.94
446.005	3.72
446.363	3.72
446.721	3.61
447.079	3.93
447.437	3.78
447.795	3.61
448.153	3.66
448.51	3.74
448.868	3.71
449.226	3.78
449.584	3.77
449.941	3.83
450.299	3.8
450.656	3.68
451.014	3.82
451.371	3.83
451.729	3.71
452.086	3.74
452.443	3.85
452.801	3.7
453.158	3.94
453.515	3.93
453.872	3.94
454.229	3.92
454.586	3.91
454.943	3.76
455.3	3.93
455.657	3.96
456.014	3.8
456.371	3.97
456.727	3.96
457.084	3.83
457.441	3.89
457.797	3.92
458.154	3.7
458.51	3.91
458.867	4.09
459.223	4
459.58	3.88
459.936	3.97
460.292	3.86
460.648	3.73
461.005	3.82
461.361	3.82
461.717	3.73
462.073	3.78
462.429	3.91
462.785	3.82
463.141	4.01
463.496	3.82
463.852	3.96
464.208	4.16
464.564	4
464.919	3.85
465.275	3.94
465.631	4.15
465.986	4.01
466.342	4.03
466.697	3.88
467.052	3.95
467.408	3.99
467.763	3.96
468.118	4.13
468.473	4.06
468.829	4.02
469.184	4.05
469.539	3.99
469.894	3.95
470.249	4.02
470.603	4.09
470.958	4.16
471.313	4.06
471.668	4.3
472.023	4.15
472.377	4.09
472.732	3.97
473.086	4.06
473.441	3.99
473.795	4.15
474.15	4.17
474.504	4.07
474.859	4.21
475.213	4.22
475.567	4.05
475.921	3.99
476.275	4.11
476.63	4.28
476.984	4.23
477.338	4.03
477.692	4.06
478.045	4.07
478.399	4.13
478.753	4.1
479.107	3.98
479.461	4.05
479.814	4.21
480.168	4.22
480.521	4.08
480.875	4.12
481.228	4.11
481.582	4.24
481.935	4.1
482.289	4.16
482.642	4.14
482.995	4.18
483.348	4.15
483.701	4.04
484.055	4.17
484.408	4.04
484.761	3.97
485.114	3.97
485.466	3.89
485.819	3.79
486.172	3.78
486.525	3.84
486.878	3.82
487.23	3.94
487.583	3.89
487.936	3.97
488.288	3.97
488.641	4.04
488.993	4.03
489.345	3.96
489.698	3.94
490.05	3.92
490.402	3.92
490.754	3.95
491.107	3.95
491.459	4.06
491.811	4.1
492.163	4.03
492.515	4.17
492.866	4.13
493.218	4.02
493.57	4
493.922	3.99
494.274	4.01
494.625	4.03
494.977	4.05
495.328	4.11
495.68	4.25
496.031	4.05
496.383	4.23
496.734	4.19
497.086	4.3
497.437	4.25
497.788	4.23
498.139	4.35
498.49	4.3
498.842	4.17
499.193	4.3
499.544	4.17
499.894	4.26
500.245	4.22
500.596	4.25
500.947	4.3
501.298	4.28
501.648	4.21
501.999	4.34
502.35	4.35
502.7	4.45
503.051	4.43
503.401	4.35
503.752	4.45
504.102	4.47
504.452	4.4
504.803	4.46
505.153	4.43
505.503	4.39
505.853	4.39
506.203	4.33
506.553	4.38
506.903	4.37
507.253	4.44
507.603	4.39
507.953	4.37
508.303	4.35
508.652	4.51
509.002	4.48
509.352	4.53
509.701	4.46
510.051	4.34
510.4	4.48
510.75	4.46
511.099	4.33
511.449	4.43
511.798	4.5
512.147	4.41
512.496	4.44
512.846	4.39
513.195	4.53
513.544	4.54
513.893	4.26
514.242	4.48
514.591	4.48
514.939	4.52
515.288	4.43
515.637	4.5
515.986	4.48
516.334	4.54
516.683	4.41
517.032	4.39
517.38	4.54
517.729	4.51
518.077	4.63
518.426	4.55
518.774	4.39
519.122	4.48
519.47	4.55
519.819	4.5
520.167	4.44
520.515	4.52
520.863	4.54
521.211	4.46
521.559	4.59
521.907	4.52
522.255	4.5
522.602	4.67
522.95	4.52
523.298	4.59
523.645	4.76
523.993	4.58
524.341	4.7
524.688	4.72
525.036	4.74
525.383	4.63
525.73	4.79
526.078	4.76
526.425	4.79
526.772	4.62
527.119	4.59
527.466	4.65
527.814	4.68
528.161	4.62
528.508	4.56
528.854	4.62
529.201	4.64
529.548	4.66
529.895	4.69
530.242	4.56
530.588	4.44
530.935	4.47
531.282	4.5
531.628	4.49
531.975	4.53
532.321	4.56
532.667	4.58
533.014	4.68
533.36	4.7
533.706	4.83
534.052	4.69
534.399	4.62
534.745	4.66
535.091	4.72
535.437	4.65
535.783	4.65
536.129	4.68
536.474	4.76
536.82	4.81
537.166	4.78
537.512	4.8
537.857	4.94
538.203	4.77
538.549	4.89
538.894	4.79
539.239	4.93
539.585	4.83
539.93	4.87
540.276	5.05
540.621	4.97
540.966	5.1
541.311	5.05
541.656	5
542.001	5.15
542.346	5.09
542.691	4.99
543.036	4.9
543.381	4.84
543.726	4.86
544.071	4.83
544.415	4.91
544.76	4.83
545.105	4.97
545.449	4.88
545.794	5.01
546.138	4.98
546.483	4.96
546.827	5.06
547.171	5.23
547.516	5.1
547.86	5.2
548.204	5.09
548.548	5.15
548.892	5.11
549.236	5.2
549.58	5.09
549.924	5.15
550.268	5.19
550.612	5.33
550.956	5.46
551.3	5.31
551.643	5.21
551.987	5.54
552.33	5.26
552.674	5.28
553.017	5.34
553.361	5.44
553.704	5.35
554.048	5.5
554.391	5.37
554.734	5.54
555.077	5.52
555.42	5.29
555.764	5.37
556.107	5.6
556.45	5.49
556.793	5.35
557.135	5.46
557.478	5.42
557.821	5.47
558.164	5.7
558.507	5.61
558.849	5.72
559.192	5.71
559.534	5.81
559.877	5.45
560.219	5.69
560.562	5.72
560.904	5.57
561.246	5.84
561.589	5.63
561.931	5.84
562.273	5.75
562.615	5.77
562.957	5.79
563.299	5.64
563.641	5.87
563.983	5.75
564.325	5.75
564.667	5.83
565.008	5.78
565.35	5.81
565.692	5.78
566.033	5.88
566.375	5.92
566.716	5.97
567.058	5.84
567.399	5.97
567.741	5.74
568.082	6.01
568.423	5.95
568.764	5.83
569.105	6
569.447	5.91
569.788	5.93
570.129	6.1
570.47	5.95
570.811	6.08
571.151	5.91
571.492	6.17
571.833	6.07
572.174	6.19
572.514	6.07
572.855	5.93
573.195	6.2
573.536	6.01
573.876	6.34
574.217	6.02
574.557	5.94
574.898	6.05
575.238	6.08
575.578	6.12
575.918	6.22
576.258	6.4
576.598	6.28
576.938	6.19
577.278	6.34
577.618	6
577.958	6.17
578.298	6.2
578.638	6.37
578.977	6.41
579.317	6.43
579.657	6.38
579.996	6.48
580.336	6.68
580.675	6.32
581.014	6.62
581.354	6.49
581.693	6.7
582.032	6.56
582.372	6.58
582.711	6.55
583.05	6.74
583.389	6.71
583.728	6.74
584.067	6.75
584.406	6.7
584.745	6.68
585.083	6.58
585.422	6.56
585.761	6.83
586.1	6.82
586.438	6.55
586.777	6.7
587.115	6.88
587.454	6.91
587.792	6.65
588.13	7.14
588.469	7
588.807	6.36
589.145	7.01
589.483	7.01
589.821	7.11
590.159	7.16
590.497	7.17
590.835	7.05
591.173	6.96
591.511	7.13
591.849	6.76
592.187	7.06
592.524	6.72
592.862	7.14
593.2	7.05
593.537	6.93
593.875	6.85
594.212	7.36
594.55	7.4
594.887	7.13
595.224	7.03
595.561	7.07
595.899	7.16
596.236	7.23
596.573	7.43
596.91	7.32
597.247	7.35
597.584	7.18
597.921	7.22
598.258	7.62
598.594	7.33
598.931	7.11
599.268	7.17
599.604	7.49
599.941	7.31
600.277	7.53
600.614	7.32
600.95	7.26
601.287	7.49
601.623	7.56
601.959	7.59
602.296	7.5
602.632	7.69
602.968	7.51
603.304	7.85
603.64	7.65
603.976	7.72
604.312	7.74
604.648	7.73
604.984	7.86
605.319	7.87
605.655	7.71
605.991	7.72
606.326	7.65
606.662	7.61
606.998	7.72
607.333	7.69
607.668	7.66
608.004	7.68
608.339	7.7
608.674	8.07
609.01	7.95
609.345	8.05
609.68	8.2
610.015	8.11
610.35	8.3
610.685	7.88
611.02	7.84
611.355	7.83
611.689	7.84
612.024	8.02
612.359	8.18
612.694	8.12
613.028	8.11
613.363	8.03
613.697	8.02
614.032	8.48
614.366	8.24
614.7	8.31
615.035	8.46
615.369	8.41
615.703	7.85
616.037	8.54
616.371	8.28
616.705	8.44
617.039	8.44
617.373	8.52
617.707	8.85
618.041	8.52
618.375	8.56
618.709	8.32
619.042	8.4
619.376	8.66
619.71	8.78
620.043	8.64
620.377	8.87
620.71	8.8
621.043	8.56
621.377	8.46
621.71	8.54
622.043	8.78
622.376	8.78
622.709	8.82
623.043	8.76
623.376	8.68
623.709	8.33
624.041	8.93
624.374	9.02
624.707	8.43
625.04	9.22
625.373	8.96
625.705	8.68
626.038	8.78
626.37	8.57
626.703	8.75
627.035	8.78
627.368	9.15
627.7	9.35
628.032	8.91
628.365	9.15
628.697	9.13
629.029	9.16
629.361	9.08
629.693	8.9
630.025	8.96
630.357	9.24
630.689	9.08
631.021	9.33
631.353	9.24
631.684	9.36
632.016	9.82
632.348	9.17
632.679	9.39
633.011	9.26
633.342	8.81
633.674	9.32
634.005	9.52
634.336	9.64
634.668	9.42
634.999	9.38
635.33	9.52
635.661	10.12
635.992	9.53
636.323	9.61
636.654	9.68
636.985	9.72
637.316	9.73
637.647	9.49
637.977	9.22
638.308	9.59
638.639	9.6
638.969	9.7
639.3	9.5
639.63	9.91
639.961	9.6
640.291	9.42
640.622	9.7
640.952	10.04
641.282	9.54
641.612	9.81
641.943	10.09
642.273	9.73
642.603	10.35
642.933	10.36
643.263	10.56
643.592	10.06
643.922	10.3
644.252	10.12
644.582	10.44
644.911	10.34
645.241	10.27
645.571	10.91
645.9	9.97
646.23	10.54
646.559	10.26
646.888	10.42
647.218	10.34
647.547	10.01
647.876	10.3
648.205	10.65
648.534	10.24
648.863	10.7
649.192	10.11
649.521	10.67
649.85	10.7
650.179	10.24
650.508	10.11
650.837	10.43
651.165	10.53
651.494	10.26
651.822	10.65
652.151	10.98
652.479	10.77
652.808	11.19
653.136	10.53
653.465	10.83
653.793	10.65
654.121	11.02
654.449	11.12
654.777	10.68
655.105	10.69
655.433	11.59
655.761	11.29
656.089	11.17
656.417	10.76
656.745	10.68
657.073	11.21
657.4	11.72
657.728	11.51
658.056	10.84
658.383	11.07
658.711	10.75
659.038	11.2
659.365	11.16
659.693	11.18
660.02	10.83
660.347	10.74
660.674	10.71
661.001	11.08
661.329	11.27
661.656	11.21
661.982	10.89
662.309	11.42
662.636	11.56
662.963	11.41
663.29	11.84
663.616	11.75
663.943	11.25
664.27	11.36
664.596	11.35
664.923	11.29
665.249	11.51
665.576	11.08
665.902	11.49
666.228	12.13
666.554	12.37
666.881	11.25
667.207	12.22
667.533	11.96
667.859	12.03
668.185	12.04
668.511	12.07
668.837	12.23
669.162	11.81
669.488	12.06
669.814	11.34
670.139	11.73
670.465	12.29
670.791	12.31
671.116	12.83
671.442	12.24
671.767	12.07
672.092	12.16
672.418	11.68
672.743	12.4
673.068	12.49
673.393	12.45
673.718	12.01
674.043	11.85
674.368	12.61
674.693	11.99
675.018	12.78
675.343	12.88
675.667	12.26
675.992	12.8
676.317	12.56
676.641	12.45
676.966	12.95
677.29	12.67
677.615	12.88
677.939	12.11
678.264	12.28
678.588	11.66
678.912	13.25
679.236	12.29
679.56	13
679.885	12.52
680.209	13.05
680.532	12.52
680.856	12.85
681.18	12.72
681.504	12.68
681.828	12.84
682.152	12.6
682.475	11.97
682.799	13.13
683.122	13.02
683.446	13.05
683.769	12.85
684.093	12.59
684.416	12.86
684.739	13.51
685.062	12.16
685.386	13.29
685.709	12.63
686.032	12.94
686.355	13.71
686.678	13.23
687.001	13.65
687.324	13.11
687.646	13.35
687.969	13.71
688.292	13.55
688.614	13.6
688.937	12.89
689.26	13.11
