Data from 0284_forehead_Reflection__4__245.txt Node

Date: Fri Oct 20 22:36:46 CDT 2023
User: ToomeyLab
Spectrometer: FLMS14357
Trigger mode: 0
Integration Time (sec): 1.000000E-2
Scans to average: 100
Electric dark correction enabled: true
Nonlinearity correction enabled: false
Boxcar width: 0
XAxis mode: Wavelengths
Number of Pixels in Spectrum: 2048
>>>>>Begin Spectral Data<<<<<
189.047	-27.84
189.435	-27.84
189.823	-27.84
190.211	-58.09
190.599	-27144.44
190.987	103.39
191.375	30.76
191.763	-65.49
192.151	-84.47
192.538	179.05
192.926	28.97
193.314	23.45
193.702	210.87
194.089	422.91
194.477	168.77
194.864	2085.66
195.252	160.47
195.639	83.05
196.027	79.07
196.414	94.18
196.801	385.55
197.189	48.1
197.576	-605.79
197.963	-107.83
198.351	70.01
198.738	21.51
199.125	39.67
199.512	59.16
199.899	14.99
200.286	-46.31
200.673	38.86
201.06	48.87
201.447	21.79
201.833	41.41
202.22	61.68
202.607	51.78
202.994	19.98
203.38	36.03
203.767	25.11
204.154	66.13
204.54	38.15
204.927	23.88
205.313	-20.56
205.699	25.73
206.086	34.73
206.472	52.2
206.858	49.84
207.245	12.15
207.631	59.8
208.017	62.05
208.403	6.25
208.789	35.15
209.175	16.79
209.561	19.26
209.947	23.09
210.333	30.53
210.719	48.08
211.105	15.99
211.491	57.74
211.876	12
212.262	21.74
212.648	34.11
213.034	-15.13
213.419	68.06
213.805	25.33
214.19	24.01
214.576	12.38
214.961	30.3
215.346	31.18
215.732	12.72
216.117	-14.68
216.502	12.86
216.888	11.72
217.273	2.23
217.658	24.99
218.043	19.15
218.428	0.88
218.813	25.54
219.198	8.38
219.583	-27.34
219.968	1.45
220.353	-6.13
220.738	39.86
221.122	13.13
221.507	1.21
221.892	-2.23
222.276	15.93
222.661	16.96
223.046	21.09
223.43	15.16
223.815	15.07
224.199	20.83
224.583	3.34
224.968	-4.74
225.352	2.64
225.736	4.77
226.121	14.57
226.505	8.28
226.889	9.96
227.273	7.05
227.657	13.36
228.041	8.06
228.425	6.55
228.809	6.97
229.193	4.39
229.577	4.9
229.961	2.01
230.344	3.54
230.728	3.39
231.112	3.51
231.495	2.59
231.879	3.88
232.263	4.08
232.646	1.86
233.03	1.76
233.413	3.53
233.797	3.21
234.18	3.73
234.563	6.56
234.946	8.12
235.33	4.29
235.713	3.09
236.096	4.68
236.479	3.45
236.862	3.46
237.245	4
237.628	3.48
238.011	4.34
238.394	1.88
238.777	3.8
239.16	2.96
239.543	3.73
239.925	6.31
240.308	3.63
240.691	3.94
241.073	5.29
241.456	5.24
241.838	3.15
242.221	4.62
242.603	3.73
242.986	4.19
243.368	3.24
243.75	2.72
244.133	2.71
244.515	2.78
244.897	2.61
245.279	3.47
245.661	3.25
246.043	2.55
246.425	2.57
246.807	4.06
247.189	2.55
247.571	2.53
247.953	3.52
248.335	3.39
248.717	2.72
249.098	2.62
249.48	2.62
249.862	3.01
250.243	3.09
250.625	2.78
251.006	3.28
251.388	2.71
251.769	3.91
252.151	3.01
252.532	3.71
252.913	3.64
253.295	1.49
253.676	2.91
254.057	2.47
254.438	2.82
254.819	3.33
255.2	3.02
255.581	2.58
255.962	3.29
256.343	4.39
256.724	2.1
257.105	3.6
257.486	3.65
257.867	3.83
258.247	3.21
258.628	2.51
259.009	2.75
259.389	1.92
259.77	3.47
260.15	3.08
260.531	2.79
260.911	2.83
261.292	2.4
261.672	2.8
262.052	2.85
262.432	2.67
262.813	2.65
263.193	2.99
263.573	2.82
263.953	2.76
264.333	3.15
264.713	3.54
265.093	3.35
265.473	3.19
265.853	3.11
266.233	3.4
266.612	2.43
266.992	2.51
267.372	2.95
267.752	2.93
268.131	3.62
268.511	2.91
268.89	3.16
269.27	2.86
269.649	2.88
270.029	3.26
270.408	3.17
270.787	2.77
271.167	3.06
271.546	3.62
271.925	3.14
272.304	3.24
272.683	2.99
273.062	2.67
273.441	2.95
273.82	2.85
274.199	3.16
274.578	2.94
274.957	3.05
275.336	3.35
275.715	3.11
276.093	2.71
276.472	2.8
276.851	2.61
277.229	2.55
277.608	2.28
277.986	2.15
278.365	3.33
278.743	3
279.122	2.55
279.5	2.43
279.878	2.02
280.257	2.89
280.635	3.24
281.013	3.41
281.391	3.33
281.769	2.52
282.147	3.12
282.525	3.32
282.903	3.1
283.281	2.68
283.659	2.44
284.037	2.96
284.415	2.02
284.792	2.58
285.17	2.44
285.548	2.73
285.925	2.71
286.303	2.39
286.68	2.8
287.058	2.9
287.435	2.93
287.813	2.45
288.19	2.48
288.567	2.8
288.945	3
289.322	3.01
289.699	2.29
290.076	3.45
290.453	2.49
290.83	3.01
291.207	2.98
291.584	2.56
291.961	2.66
292.338	2.66
292.715	2.6
293.092	2.49
293.469	3.32
293.845	2.93
294.222	2.81
294.599	2.72
294.975	3.5
295.352	2.61
295.728	2.99
296.105	2.95
296.481	3.39
296.858	2.86
297.234	3.59
297.61	2.48
297.986	2.83
298.363	3.25
298.739	2.9
299.115	2.98
299.491	2.89
299.867	2.99
300.243	3.09
300.619	3.27
300.995	2.75
301.371	3.5
301.746	3.37
302.122	3.38
302.498	3.29
302.874	3.36
303.249	3.32
303.625	3.43
304	3.67
304.376	3.21
304.751	3.17
305.127	3.02
305.502	3.38
305.878	3.44
306.253	3.44
306.628	3.45
307.003	3.83
307.378	3.25
307.754	3.73
308.129	3.98
308.504	3.84
308.879	3.93
309.254	4.4
309.629	3.44
310.003	2.86
310.378	3.98
310.753	3.51
311.128	3.96
311.502	3.88
311.877	3.57
312.252	3.47
312.626	3.88
313.001	3.79
313.375	3.89
313.75	3.73
314.124	3.75
314.498	4.15
314.873	3.57
315.247	4.13
315.621	3.7
315.995	4.54
316.369	4.15
316.743	3.91
317.117	4.36
317.491	3.39
317.865	4.57
318.239	4.77
318.613	4.4
318.987	4.25
319.361	3.44
319.734	3.95
320.108	3.8
320.482	4.4
320.855	4.57
321.229	4.88
321.602	4.59
321.976	4.06
322.349	5.09
322.723	4.66
323.096	4.49
323.469	5.06
323.843	4.39
324.216	4.75
324.589	4.55
324.962	4.86
325.335	4.94
325.708	4.86
326.081	4.89
326.454	4.94
326.827	5.03
327.2	4.74
327.573	5.09
327.945	4.78
328.318	4.39
328.691	4.68
329.063	5.1
329.436	4.57
329.809	5.19
330.181	5.28
330.553	5.17
330.926	5.65
331.298	4.76
331.671	4.83
332.043	5.02
332.415	5.03
332.787	5.49
333.159	5.56
333.532	5.71
333.904	5.59
334.276	5.31
334.648	5.49
335.02	5.77
335.391	5.39
335.763	5.41
336.135	5.47
336.507	5.75
336.879	5.43
337.25	5.45
337.622	6.17
337.993	6.21
338.365	5.63
338.736	5.29
339.108	6.19
339.479	5.76
339.851	5.76
340.222	5.7
340.593	5.27
340.964	5.37
341.336	6.34
341.707	5.8
342.078	5.67
342.449	5.46
342.82	5.81
343.191	5.68
343.562	6.16
343.933	5.82
344.303	5.81
344.674	6.11
345.045	6.23
345.416	6.22
345.786	6.16
346.157	6.26
346.527	6.13
346.898	6.18
347.268	6.11
347.639	6.48
348.009	5.94
348.38	6.39
348.75	6.37
349.12	6.25
349.49	6.11
349.861	6.25
350.231	6.02
350.601	6.24
350.971	6.61
351.341	6.1
351.711	7.11
352.081	6.41
352.45	6.05
352.82	6.67
353.19	6.47
353.56	6.56
353.929	6.7
354.299	6.56
354.669	6.38
355.038	6.61
355.408	6.76
355.777	6.45
356.147	6.14
356.516	6.3
356.885	6.66
357.254	6.76
357.624	6.77
357.993	6.73
358.362	6.66
358.731	6.19
359.1	6.5
359.469	6.55
359.838	6.63
360.207	6.79
360.576	7.06
360.945	6.55
361.314	6.74
361.682	6.97
362.051	6.49
362.42	6.84
362.788	7.11
363.157	6.93
363.525	6.78
363.894	6.81
364.262	6.78
364.631	6.94
364.999	7.12
365.367	7.08
365.735	7.19
366.104	7.02
366.472	7.3
366.84	7.38
367.208	7.3
367.576	7.14
367.944	7.22
368.312	7.07
368.68	7.02
369.048	7.18
369.416	7.63
369.783	7.52
370.151	7.25
370.519	7.31
370.886	7.44
371.254	7.57
371.621	7.7
371.989	7.32
372.356	7.89
372.724	7.85
373.091	7.9
373.458	7.41
373.826	7.33
374.193	7.55
374.56	7.54
374.927	7.78
375.294	7.88
375.661	8.16
376.028	8.13
376.395	7.95
376.762	7.65
377.129	8
377.496	7.89
377.863	8.07
378.229	8.08
378.596	7.97
378.963	8.23
379.329	8.29
379.696	8.31
380.062	8.01
380.429	7.86
380.795	8.09
381.161	8.06
381.528	8.68
381.894	8.3
382.26	8.5
382.626	8.55
382.993	8.31
383.359	8.48
383.725	8.51
384.091	8.34
384.457	8.68
384.823	8.61
385.188	8.76
385.554	8.46
385.92	8.73
386.286	8.84
386.651	8.73
387.017	8.74
387.383	8.59
387.748	8.59
388.114	8.78
388.479	8.68
388.845	8.99
389.21	8.65
389.575	8.8
389.94	8.86
390.306	8.92
390.671	8.97
391.036	9.16
391.401	9.26
391.766	9.14
392.131	9.01
392.496	9.04
392.861	9.32
393.226	9.12
393.591	9.11
393.956	9.27
394.32	9.32
394.685	9.18
395.05	9.29
395.414	9.61
395.779	9.16
396.143	9.21
396.508	9.33
396.872	9.66
397.236	9.3
397.601	9.21
397.965	9.44
398.329	9.31
398.694	9.7
399.058	9.27
399.422	9.62
399.786	9.45
400.15	9.68
400.514	9.5
400.878	9.95
401.242	9.81
401.605	9.8
401.969	9.46
402.333	9.69
402.697	9.76
403.06	9.75
403.424	9.66
403.787	9.82
404.151	10.08
404.514	10.09
404.878	10.11
405.241	10
405.604	9.81
405.968	9.98
406.331	10.02
406.694	9.86
407.057	10.07
407.42	10.32
407.783	9.96
408.146	10.01
408.509	10.16
408.872	10.48
409.235	10.42
409.598	10.25
409.961	10.42
410.323	10.39
410.686	10.24
411.049	10.45
411.411	10.3
411.774	10.4
412.136	10.45
412.499	10.48
412.861	10.37
413.223	10.49
413.586	10.56
413.948	10.67
414.31	10.82
414.672	10.42
415.035	10.49
415.397	10.92
415.759	10.65
416.121	10.78
416.483	10.88
416.845	10.7
417.206	10.71
417.568	10.79
417.93	10.84
418.292	10.68
418.653	10.82
419.015	10.81
419.377	10.63
419.738	10.75
420.1	10.64
420.461	10.75
420.822	10.77
421.184	10.8
421.545	10.92
421.906	10.77
422.267	10.76
422.629	10.86
422.99	10.76
423.351	10.85
423.712	10.86
424.073	10.98
424.434	10.9
424.795	11.17
425.155	11.11
425.516	11.26
425.877	11.16
426.238	11.05
426.598	11.11
426.959	11.09
427.32	11.3
427.68	11.31
428.041	11.48
428.401	11.53
428.761	11.59
429.122	11.79
429.482	11.73
429.842	11.75
430.202	11.94
430.563	11.99
430.923	12.05
431.283	11.89
431.643	12.05
432.003	12.2
432.363	12.2
432.722	12.36
433.082	12.15
433.442	12.19
433.802	12.47
434.161	12.26
434.521	12.49
434.881	12.29
435.24	12.43
435.6	12.37
435.959	12.34
436.319	12.53
436.678	12.54
437.037	12.39
437.396	12.83
437.756	12.8
438.115	12.77
438.474	12.96
438.833	12.84
439.192	12.76
439.551	12.74
439.91	12.81
440.269	13.04
440.628	12.94
440.987	12.88
441.345	12.93
441.704	12.96
442.063	12.96
442.421	13.01
442.78	12.91
443.138	13.03
443.497	13.08
443.855	13.21
444.214	13.25
444.572	13.29
444.93	13.58
445.288	13.51
445.647	13.5
446.005	13.43
446.363	13.4
446.721	13.28
447.079	13.58
447.437	13.53
447.795	13.42
448.153	13.44
448.51	13.44
448.868	13.43
449.226	13.48
449.584	13.7
449.941	13.64
450.299	13.82
450.656	13.8
451.014	13.94
451.371	14.06
451.729	13.93
452.086	14.04
452.443	14.49
452.801	14.36
453.158	14.4
453.515	14.43
453.872	14.18
454.229	14.35
454.586	14.53
454.943	14.37
455.3	14.44
455.657	14.65
456.014	14.45
456.371	14.58
456.727	14.84
457.084	14.58
457.441	14.93
457.797	14.81
458.154	14.89
458.51	14.69
458.867	15.01
459.223	14.98
459.58	15.07
459.936	15.07
460.292	14.92
460.648	15.01
461.005	14.95
461.361	14.99
461.717	14.73
462.073	14.97
462.429	14.91
462.785	14.95
463.141	15.25
463.496	15.36
463.852	15.49
464.208	15.47
464.564	15.7
464.919	15.48
465.275	15.72
465.631	15.82
465.986	16.02
466.342	15.79
466.697	15.93
467.052	16.02
467.408	15.85
467.763	15.96
468.118	16.24
468.473	15.98
468.829	16.09
469.184	16.07
469.539	16.12
469.894	16.14
470.249	16.39
470.603	16.1
470.958	16.59
471.313	16.55
471.668	16.52
472.023	16.59
472.377	16.65
472.732	16.51
473.086	16.7
473.441	16.76
473.795	16.87
474.15	16.92
474.504	16.78
474.859	16.84
475.213	17.04
475.567	16.92
475.921	16.97
476.275	17.06
476.63	17.28
476.984	17.28
477.338	17.26
477.692	17.24
478.045	17.32
478.399	17.22
478.753	17.38
479.107	17.37
479.461	17.24
479.814	17.39
480.168	17.52
480.521	17.51
480.875	17.43
481.228	17.58
481.582	17.72
481.935	17.67
482.289	17.8
482.642	17.63
482.995	17.71
483.348	17.66
483.701	17.63
484.055	17.56
484.408	17.47
484.761	17.4
485.114	17.24
485.466	16.97
485.819	16.71
486.172	16.65
486.525	16.82
486.878	17.03
487.23	17.21
487.583	17.41
487.936	17.53
488.288	17.58
488.641	17.78
488.993	17.57
489.345	17.43
489.698	17.33
490.05	17.46
490.402	17.43
490.754	17.65
491.107	17.76
491.459	18.14
491.811	18.23
492.163	18.28
492.515	18.43
492.866	18.33
493.218	18.03
493.57	17.97
493.922	17.85
494.274	18.05
494.625	18.23
494.977	18.5
495.328	18.66
495.68	18.97
496.031	18.86
496.383	19.27
496.734	19.34
497.086	19.4
497.437	19.42
497.788	19.38
498.139	19.72
498.49	19.5
498.842	19.36
499.193	19.37
499.544	19.37
499.894	19.45
500.245	19.54
500.596	19.61
500.947	19.78
501.298	19.71
501.648	19.81
501.999	19.93
502.35	19.89
502.7	20.26
503.051	20.25
503.401	20.28
503.752	20.46
504.102	20.39
504.452	20.47
504.803	20.45
505.153	20.44
505.503	20.56
505.853	20.58
506.203	20.46
506.553	20.59
506.903	20.53
507.253	20.51
507.603	20.68
507.953	20.54
508.303	20.68
508.652	20.9
509.002	20.8
509.352	20.78
509.701	20.81
510.051	20.65
510.4	20.75
510.75	20.74
511.099	20.75
511.449	20.84
511.798	20.93
512.147	20.81
512.496	21.06
512.846	20.93
513.195	21.09
513.544	21.19
513.893	21.08
514.242	21.14
514.591	21.09
514.939	21.2
515.288	21.36
515.637	21.35
515.986	21.59
516.334	21.5
516.683	21.65
517.032	21.69
517.38	21.7
517.729	21.78
518.077	21.73
518.426	21.79
518.774	21.9
519.122	21.72
519.47	21.69
519.819	21.59
520.167	21.45
520.515	21.37
520.863	21.38
521.211	21.45
521.559	21.56
521.907	21.63
522.255	21.75
522.602	21.93
522.95	22.11
523.298	22.16
523.645	22.2
523.993	22.33
524.341	22.33
524.688	22.31
525.036	22.4
525.383	22.43
525.73	22.64
526.078	22.61
526.425	22.66
526.772	22.51
527.119	22.27
527.466	22.1
527.814	22.05
528.161	22.09
528.508	22.1
528.854	22.24
529.201	22.3
529.548	22.2
529.895	22.07
530.242	21.8
530.588	21.52
530.935	21.53
531.282	21.74
531.628	21.93
531.975	21.96
532.321	22.16
532.667	22.26
533.014	22.59
533.36	22.83
533.706	22.82
534.052	22.85
534.399	22.65
534.745	22.69
535.091	22.56
535.437	22.29
535.783	22.33
536.129	22.6
536.474	22.81
536.82	23.06
537.166	23.17
537.512	23.28
537.857	23.41
538.203	23.23
538.549	23.16
538.894	23.19
539.239	23.25
539.585	23.32
539.93	23.49
540.276	23.84
540.621	23.76
540.966	24.05
541.311	24.14
541.656	24.08
542.001	24.12
542.346	23.93
542.691	23.76
543.036	23.44
543.381	23.08
543.726	23.02
544.071	23.33
544.415	23.5
544.76	23.52
545.105	23.81
545.449	23.75
545.794	23.9
546.138	24.15
546.483	24.2
546.827	24.42
547.171	24.38
547.516	24.44
547.86	24.47
548.204	24.57
548.548	24.52
548.892	24.41
549.236	24.44
549.58	24.56
549.924	24.75
550.268	24.79
550.612	25.05
550.956	25.31
551.3	25.12
551.643	25.47
551.987	25.71
552.33	25.66
552.674	25.65
553.017	25.42
553.361	25.83
553.704	25.64
554.048	25.56
554.391	25.77
554.734	25.72
555.077	25.72
555.42	25.42
555.764	25.71
556.107	25.79
556.45	25.99
556.793	25.86
557.135	26
557.478	26.04
557.821	26.22
558.164	26.32
558.507	26.28
558.849	26.27
559.192	26.56
559.534	26.65
559.877	26.33
560.219	26.59
560.562	26.64
560.904	26.5
561.246	26.61
561.589	26.47
561.931	26.86
562.273	26.72
562.615	26.84
562.957	26.82
563.299	26.86
563.641	26.84
563.983	26.66
564.325	26.83
564.667	26.91
565.008	26.86
565.35	26.79
565.692	26.63
566.033	27.13
566.375	27.14
566.716	27.13
567.058	27.01
567.399	27.16
567.741	26.9
568.082	27
568.423	26.98
568.764	26.9
569.105	26.99
569.447	27.14
569.788	27.02
570.129	27.32
570.47	27.26
570.811	27.55
571.151	27.54
571.492	27.64
571.833	27.53
572.174	27.54
572.514	27.69
572.855	27.62
573.195	27.71
573.536	27.32
573.876	27.49
574.217	27.58
574.557	27.29
574.898	27.48
575.238	27.63
575.578	27.69
575.918	27.58
576.258	27.93
576.598	28.06
576.938	27.87
577.278	27.86
577.618	27.89
577.958	27.85
578.298	28.09
578.638	28.32
578.977	28.34
579.317	28.27
579.657	28.46
579.996	28.44
580.336	28.6
580.675	28.51
581.014	28.63
581.354	29.06
581.693	28.84
582.032	29.05
582.372	28.95
582.711	29.09
583.05	28.88
583.389	29.22
583.728	29.1
584.067	29.33
584.406	29.08
584.745	29.2
585.083	29.39
585.422	29.1
585.761	29.63
586.1	29.33
586.438	29.08
586.777	29.65
587.115	29.43
587.454	29.52
587.792	29.33
588.13	29.92
588.469	29.46
588.807	29.52
589.145	29.63
589.483	29.64
589.821	29.73
590.159	29.74
590.497	29.82
590.835	29.79
591.173	29.94
591.511	29.92
591.849	29.89
592.187	30.07
592.524	29.8
592.862	29.8
593.2	30.13
593.537	29.93
593.875	29.8
594.212	30
594.55	30.15
594.887	30.45
595.224	30.13
595.561	30.22
595.899	30.4
596.236	30.35
596.573	30.44
596.91	30.29
597.247	30.19
597.584	30.38
597.921	30.61
598.258	30.48
598.594	30.15
598.931	30.01
599.268	30.04
599.604	30.23
599.941	30.15
600.277	30.57
600.614	30.7
600.95	30.7
601.287	30.56
601.623	30.87
601.959	30.73
602.296	30.96
602.632	31
602.968	31.12
603.304	31.46
603.64	30.95
603.976	31.09
604.312	31.3
604.648	31.26
604.984	31.15
605.319	31.16
605.655	30.79
605.991	30.94
606.326	31.08
606.662	30.58
606.998	30.77
607.333	30.89
607.668	30.93
608.004	31.1
608.339	31.12
608.674	31.54
609.01	31.69
609.345	31.91
609.68	31.73
610.015	31.48
610.35	31.78
610.685	31.63
611.02	31.71
611.355	31.53
611.689	31.24
612.024	31.49
612.359	31.56
612.694	31.57
613.028	31.97
613.363	31.78
613.697	32.02
614.032	32.18
614.366	32.09
614.7	32.28
615.035	32.09
615.369	32.26
615.703	32.15
616.037	32.21
616.371	32.12
616.705	32.4
617.039	32.28
617.373	32.38
617.707	32.23
618.041	32.79
618.375	32.39
618.709	32.26
619.042	32.81
619.376	32.73
619.71	32.86
620.043	32.31
620.377	32.9
620.71	32.29
621.043	32.51
621.377	32.89
621.71	33.05
622.043	32.55
622.376	32.99
622.709	33.31
623.043	32.65
623.376	32.89
623.709	32.97
624.041	33.32
624.374	33.25
624.707	32.92
625.04	33.25
625.373	33.09
625.705	33.1
626.038	33.48
626.37	33.19
626.703	33.37
627.035	32.96
627.368	33.1
627.7	33.37
628.032	32.89
628.365	33.48
628.697	33.21
629.029	32.93
629.361	33.5
629.693	32.62
630.025	33.2
630.357	33.21
630.689	33.37
631.021	33.57
631.353	33.57
631.684	33.8
632.016	33.77
632.348	33.83
632.679	33.71
633.011	33.97
633.342	33.83
633.674	34.11
634.005	34.2
634.336	34.24
634.668	34.12
634.999	33.85
635.33	33.91
635.661	34.17
635.992	33.77
636.323	33.79
636.654	34.28
636.985	33.91
637.316	34.13
637.647	34.03
637.977	34.32
638.308	34.52
638.639	34.4
638.969	34.16
639.3	33.83
639.63	34.37
639.961	34.32
640.291	34.1
640.622	34.48
640.952	34.42
641.282	34.39
641.612	34.37
641.943	34.43
642.273	34.65
642.603	34.55
642.933	34.68
643.263	34.83
643.592	35.11
643.922	34.93
644.252	34.65
644.582	34.93
644.911	34.88
645.241	34.97
645.571	35.4
645.9	35.08
646.23	35.08
646.559	35.53
646.888	35.09
647.218	35.23
647.547	35.23
647.876	35.37
648.205	35.37
648.534	35.09
648.863	35.44
649.192	35.23
649.521	35.09
649.85	35.25
650.179	35.1
650.508	35.34
650.837	35.49
651.165	35.65
651.494	35.33
651.822	35.46
652.151	35.66
652.479	35.33
652.808	35.15
653.136	35.78
653.465	35.72
653.793	35.14
654.121	36.39
654.449	35.52
654.777	35.5
655.105	35.45
655.433	36.17
655.761	35.86
656.089	36.15
656.417	36.08
656.745	35.97
657.073	35.96
657.4	36.46
657.728	36.51
658.056	35.87
658.383	36.47
658.711	35.98
659.038	35.96
659.365	36.31
659.693	36.44
660.02	36.37
660.347	36.83
660.674	35.55
661.001	36.49
661.329	36.09
661.656	36.11
661.982	35.75
662.309	36.47
662.636	36.37
662.963	36.77
663.29	36.22
663.616	36.64
663.943	36.17
664.27	37.07
664.596	36.66
664.923	36.32
665.249	36.55
665.576	36.41
665.902	36.32
666.228	37.05
666.554	37.19
666.881	36.44
667.207	37.31
667.533	36.6
667.859	37.57
668.185	36.96
668.511	37.26
668.837	37.2
669.162	37.12
669.488	37.25
669.814	36.84
670.139	36.92
670.465	36.77
670.791	37.17
671.116	37.05
671.442	37.01
671.767	37.48
672.092	37.18
672.418	37.35
672.743	37.16
673.068	37.53
673.393	36.93
673.718	37.66
674.043	37.98
