Data from 0284_forehead_Reflection__0__241.txt Node

Date: Fri Oct 20 22:35:59 CDT 2023
User: ToomeyLab
Spectrometer: FLMS14357
Trigger mode: 0
Integration Time (sec): 1.000000E-2
Scans to average: 100
Electric dark correction enabled: true
Nonlinearity correction enabled: false
Boxcar width: 0
XAxis mode: Wavelengths
Number of Pixels in Spectrum: 2048
>>>>>Begin Spectral Data<<<<<
189.047	-1.14
189.435	-1.14
189.823	-1.14
190.211	-107.68
190.599	388.89
190.987	60.12
191.375	13.94
191.763	-102.63
192.151	67.61
192.538	10.61
192.926	28.23
193.314	66.93
193.702	136.58
194.089	-5.76
194.477	50.12
194.864	-98.57
195.252	71.22
195.639	-1.66
196.027	258.84
196.414	228.95
196.801	1.33
197.189	2.57
197.576	-181.29
197.963	-75.34
198.351	66.22
198.738	33.76
199.125	51.06
199.512	31.96
199.899	39.05
200.286	34.44
200.673	42.2
201.06	-23.49
201.447	18.09
201.833	29.16
202.22	22.76
202.607	34.09
202.994	19.38
203.38	32.54
203.767	-4.58
204.154	58.01
204.54	47.71
204.927	20.39
205.313	10.86
205.699	48.3
206.086	16.89
206.472	45.12
206.858	72.14
207.245	11.31
207.631	40.49
208.017	69.14
208.403	6.34
208.789	29.18
209.175	16.42
209.561	1.54
209.947	30.43
210.333	36.49
210.719	16.84
211.105	30.54
211.491	27.97
211.876	10.63
212.262	27.04
212.648	32.76
213.034	14.35
213.419	18.97
213.805	48.02
214.19	5.99
214.576	-15.28
214.961	21.52
215.346	39.51
215.732	22.06
216.117	-13.15
216.502	23.34
216.888	7.16
217.273	-19.85
217.658	-1.37
218.043	5.5
218.428	28.06
218.813	23.1
219.198	12.91
219.583	-6.23
219.968	24.94
220.353	19.14
220.738	13.97
221.122	4.95
221.507	0.42
221.892	20.57
222.276	4.57
222.661	12.3
223.046	18.82
223.43	10.69
223.815	14.53
224.199	11.62
224.583	1.71
224.968	8.1
225.352	1.44
225.736	0.16
226.121	9.55
226.505	-0.56
226.889	7.74
227.273	3.22
227.657	10.36
228.041	11.21
228.425	2.94
228.809	2.5
229.193	4.48
229.577	8.44
229.961	3.24
230.344	3.5
230.728	2.88
231.112	3.72
231.495	2.67
231.879	2.8
232.263	4.03
232.646	1.93
233.03	3.21
233.413	2.44
233.797	2.71
234.18	1.39
234.563	7.7
234.946	5.45
235.33	3.48
235.713	2.29
236.096	3.99
236.479	4.48
236.862	3.16
237.245	3.73
237.628	2.41
238.011	3.51
238.394	3.18
238.777	4.97
239.16	2.96
239.543	4.9
239.925	4.06
240.308	2.86
240.691	3.35
241.073	4.53
241.456	3.17
241.838	4.2
242.221	4.44
242.603	3.42
242.986	3.6
243.368	4.8
243.75	2.86
244.133	2.56
244.515	2.56
244.897	2.48
245.279	3.18
245.661	2.65
246.043	2.48
246.425	3.22
246.807	3.06
247.189	3.43
247.571	2.81
247.953	2.53
248.335	3.01
248.717	2.69
249.098	2.68
249.48	2.7
249.862	2.9
250.243	3.24
250.625	2.77
251.006	3.39
251.388	3.17
251.769	2.89
252.151	2.62
252.532	1.87
252.913	2.69
253.295	2.03
253.676	3.18
254.057	2.8
254.438	3.38
254.819	3.24
255.2	3.02
255.581	2.62
255.962	3.09
256.343	3.39
256.724	2.32
257.105	3.71
257.486	3.56
257.867	3.7
258.247	2.8
258.628	2.76
259.009	2.65
259.389	2.16
259.77	2.82
260.15	3.24
260.531	2.74
260.911	3.09
261.292	2.58
261.672	2.78
262.052	2.79
262.432	2.73
262.813	2.87
263.193	2.75
263.573	3.03
263.953	2.88
264.333	3
264.713	3.05
265.093	3.54
265.473	3.68
265.853	2.94
266.233	2.78
266.612	3.19
266.992	2.37
267.372	2.47
267.752	2.28
268.131	3.15
268.511	2.87
268.89	2.57
269.27	2.66
269.649	2.36
270.029	3.18
270.408	2.78
270.787	2.61
271.167	2.64
271.546	2.91
271.925	3.65
272.304	2.94
272.683	2.44
273.062	2.78
273.441	3
273.82	2.89
274.199	3.23
274.578	2.96
274.957	2.96
275.336	3.05
275.715	2.93
276.093	2.44
276.472	2.86
276.851	3.01
277.229	3.36
277.608	2.63
277.986	2.93
278.365	2.82
278.743	2.56
279.122	2.24
279.5	2.7
279.878	2.37
280.257	2.7
280.635	2.72
281.013	3.13
281.391	2.61
281.769	3.11
282.147	2.89
282.525	2.62
282.903	2.7
283.281	2.74
283.659	3.19
284.037	2.89
284.415	2.32
284.792	2.62
285.17	3
285.548	2.71
285.925	2.53
286.303	2.4
286.68	2.71
287.058	3.03
287.435	3.01
287.813	2.33
288.19	2.53
288.567	2.58
288.945	3.11
289.322	3.1
289.699	2.39
290.076	3.24
290.453	3.51
290.83	2.31
291.207	3.15
291.584	2.16
291.961	2.82
292.338	2.54
292.715	2.67
293.092	2.68
293.469	3.31
293.845	2.58
294.222	3.05
294.599	2.98
294.975	3.55
295.352	2.74
295.728	2.79
296.105	2.61
296.481	2.93
296.858	2.89
297.234	2.96
297.61	2.37
297.986	3.04
298.363	3.02
298.739	2.84
299.115	2.9
299.491	2.83
299.867	3.01
300.243	2.88
300.619	2.84
300.995	2.89
301.371	3.15
301.746	3.29
302.122	3.13
302.498	2.89
302.874	3.17
303.249	2.97
303.625	3.42
304	3.39
304.376	2.76
304.751	2.72
305.127	3.47
305.502	3.81
305.878	3.2
306.253	3.62
306.628	3.5
307.003	3.47
307.378	3.31
307.754	2.98
308.129	3.54
308.504	3.39
308.879	3.75
309.254	4.25
309.629	3.36
310.003	2.95
310.378	3.37
310.753	3.24
311.128	3.88
311.502	3.59
311.877	3.55
312.252	4.04
312.626	3.59
313.001	3.54
313.375	3.78
313.75	3.61
314.124	3.34
314.498	4.03
314.873	3.67
315.247	4.16
315.621	3.32
315.995	3.75
316.369	3.75
316.743	3.84
317.117	3.73
317.491	3.68
317.865	4.27
318.239	4.48
318.613	4.22
318.987	3.7
319.361	3.02
319.734	3.91
320.108	4.09
320.482	4.43
320.855	4.05
321.229	4.32
321.602	3.99
321.976	3.65
322.349	4.59
322.723	4.04
323.096	4.13
323.469	4.13
323.843	4.36
324.216	4.31
324.589	4.28
324.962	4.41
325.335	4.66
325.708	3.91
326.081	4.26
326.454	4.26
326.827	4.6
327.2	4.52
327.573	4.71
327.945	4.32
328.318	4.08
328.691	4.87
329.063	4.74
329.436	4.32
329.809	4.14
330.181	5.14
330.553	4.61
330.926	4.67
331.298	4.3
331.671	4.32
332.043	4.19
332.415	4.44
332.787	4.69
333.159	4.41
333.532	4.82
333.904	5.02
334.276	4.22
334.648	4.77
335.02	4.82
335.391	4.69
335.763	5.06
336.135	4.51
336.507	4.97
336.879	4.44
337.25	4.64
337.622	4.95
337.993	5.16
338.365	4.92
338.736	4.45
339.108	5.16
339.479	4.77
339.851	4.99
340.222	4.68
340.593	4.52
340.964	4.97
341.336	5.49
341.707	5.02
342.078	5.33
342.449	4.87
342.82	4.89
343.191	4.84
343.562	5.24
343.933	5.25
344.303	4.9
344.674	5.18
345.045	5.46
345.416	5.38
345.786	5.11
346.157	5.28
346.527	4.99
346.898	5.3
347.268	5
347.639	5.44
348.009	5.05
348.38	5.16
348.75	5.25
349.12	5.16
349.49	5.28
349.861	5.84
350.231	5.14
350.601	5.3
350.971	5.58
351.341	5.24
351.711	5.75
352.081	5.25
352.45	5.47
352.82	5.5
353.19	5.51
353.56	5.8
353.929	5.53
354.299	5.38
354.669	5.71
355.038	5.7
355.408	5.93
355.777	5.83
356.147	5.5
356.516	5.4
356.885	5.47
357.254	5.85
357.624	5.46
357.993	5.61
358.362	5.29
358.731	5.35
359.1	5.2
359.469	5.71
359.838	5.75
360.207	5.71
360.576	5.85
360.945	5.5
361.314	5.77
361.682	5.74
362.051	5.77
362.42	5.49
362.788	5.93
363.157	5.44
363.525	5.61
363.894	5.87
364.262	5.9
364.631	5.95
364.999	5.98
365.367	6.03
365.735	5.82
366.104	6
366.472	6.02
366.84	6.06
367.208	6.25
367.576	6.04
367.944	6.28
368.312	6.01
368.68	6.35
369.048	5.96
369.416	6.36
369.783	6.21
370.151	6.42
370.519	6.1
370.886	6.28
371.254	6.64
371.621	6.63
371.989	6.39
372.356	6.04
372.724	6.31
373.091	6
373.458	6.06
373.826	6.03
374.193	6.11
374.56	6.35
374.927	6.34
375.294	6.46
375.661	6.56
376.028	6.67
376.395	6.58
376.762	6.42
377.129	6.57
377.496	6.73
377.863	7
378.229	6.79
378.596	6.6
378.963	6.5
379.329	6.81
379.696	6.65
380.062	6.65
380.429	6.55
380.795	6.59
381.161	7.26
381.528	7.1
381.894	6.68
382.26	6.91
382.626	6.97
382.993	6.96
383.359	6.87
383.725	6.81
384.091	7.06
384.457	7.16
384.823	6.83
385.188	6.88
385.554	6.79
385.92	6.83
386.286	7.16
386.651	6.93
387.017	7.26
387.383	6.97
387.748	7
388.114	7
388.479	7
388.845	7.25
389.21	6.96
389.575	7.34
389.94	7.14
390.306	7.11
390.671	7.09
391.036	7.1
391.401	7.3
391.766	7.2
392.131	7.25
392.496	7.42
392.861	7.58
393.226	7.43
393.591	7.42
393.956	7.36
394.32	7.34
394.685	7.23
395.05	7.6
395.414	7.56
395.779	7.24
396.143	7.48
396.508	7.56
396.872	7.77
397.236	7.68
397.601	7.41
397.965	7.36
398.329	7.83
398.694	7.59
399.058	7.48
399.422	7.78
399.786	7.48
400.15	7.32
400.514	7.63
400.878	8.1
401.242	7.86
401.605	7.99
401.969	7.63
402.333	7.62
402.697	8.1
403.06	7.78
403.424	7.67
403.787	7.8
404.151	7.91
404.514	7.95
404.878	7.84
405.241	7.85
405.604	7.83
405.968	7.95
406.331	7.94
406.694	7.97
407.057	7.88
407.42	8.37
407.783	8.11
408.146	7.89
408.509	8.08
408.872	8.18
409.235	7.91
409.598	8.17
409.961	8.18
410.323	8.12
410.686	8.18
411.049	8.34
411.411	8.07
411.774	8.33
412.136	8.29
412.499	8.1
412.861	8.48
413.223	8.47
413.586	8.24
413.948	8.57
414.31	8.54
414.672	8.3
415.035	8.37
415.397	8.72
415.759	8.47
416.121	8.49
416.483	8.63
416.845	8.52
417.206	8.63
417.568	8.84
417.93	8.58
418.292	8.39
418.653	8.52
419.015	8.58
419.377	8.4
419.738	8.52
420.1	8.52
420.461	8.53
420.822	8.4
421.184	8.5
421.545	8.52
421.906	8.49
422.267	8.52
422.629	8.54
422.99	8.41
423.351	8.49
423.712	8.49
424.073	8.71
424.434	8.59
424.795	8.7
425.155	8.69
425.516	8.73
425.877	8.79
426.238	8.64
426.598	8.66
426.959	8.63
427.32	8.76
427.68	8.85
428.041	9.06
428.401	9.03
428.761	9.02
429.122	9.13
429.482	9.22
429.842	9.12
430.202	9.21
430.563	9.19
430.923	9.36
431.283	9.37
431.643	9.44
432.003	9.48
432.363	9.3
432.722	9.69
433.082	9.52
433.442	9.33
433.802	9.75
434.161	9.56
434.521	9.61
434.881	9.48
435.24	9.56
435.6	9.47
435.959	9.52
436.319	9.58
436.678	9.64
437.037	9.78
437.396	9.88
437.756	9.68
438.115	9.7
438.474	9.93
438.833	9.79
439.192	9.76
439.551	9.8
439.91	9.9
440.269	9.99
440.628	10.01
440.987	9.95
441.345	9.83
441.704	9.85
442.063	9.92
442.421	9.91
442.78	9.92
443.138	10.05
443.497	10.04
443.855	10.14
444.214	9.94
444.572	10.23
444.93	10.29
445.288	10.24
445.647	10.5
446.005	10.19
446.363	10.37
446.721	10.43
447.079	10.36
447.437	10.34
447.795	10.22
448.153	10.13
448.51	10.21
448.868	10.13
449.226	10.12
449.584	10.29
449.941	10.43
450.299	10.5
450.656	10.45
451.014	10.6
451.371	10.62
451.729	10.69
452.086	10.68
452.443	10.88
452.801	10.74
453.158	11.01
453.515	10.96
453.872	10.76
454.229	11
454.586	10.92
454.943	10.81
455.3	10.78
455.657	11.08
456.014	10.91
456.371	10.98
456.727	11.2
457.084	11.18
457.441	11.21
457.797	11.35
458.154	11.12
458.51	11.17
458.867	11.41
459.223	11.51
459.58	11.32
459.936	11.34
460.292	11.36
460.648	11.21
461.005	11.1
461.361	11.31
461.717	11.12
462.073	11.25
462.429	11.23
462.785	11.27
463.141	11.43
463.496	11.41
463.852	11.55
464.208	11.67
464.564	11.82
464.919	11.78
465.275	11.97
465.631	11.74
465.986	11.74
466.342	11.97
466.697	11.85
467.052	11.81
467.408	11.85
467.763	12.07
468.118	12.37
468.473	12.06
468.829	12.03
469.184	12.01
469.539	12.09
469.894	12.13
470.249	12.15
470.603	12.26
470.958	12.26
471.313	12.38
471.668	12.52
472.023	12.47
472.377	12.58
472.732	12.33
473.086	12.62
473.441	12.65
473.795	12.7
474.15	12.46
474.504	12.27
474.859	12.55
475.213	12.6
475.567	12.66
475.921	12.52
476.275	12.59
476.63	12.83
476.984	12.87
477.338	12.82
477.692	12.92
478.045	12.8
478.399	12.68
478.753	12.86
479.107	12.83
479.461	12.79
479.814	13
480.168	13.01
480.521	12.95
480.875	13.04
481.228	13.05
481.582	13.07
481.935	13.03
482.289	13.13
482.642	13.03
482.995	13.09
483.348	13.16
483.701	13.06
484.055	12.94
484.408	12.99
484.761	12.88
485.114	12.72
485.466	12.52
485.819	12.44
486.172	12.29
486.525	12.37
486.878	12.46
487.23	12.62
487.583	12.68
487.936	12.87
488.288	13.04
488.641	13.05
488.993	12.86
489.345	12.84
489.698	12.78
490.05	12.75
490.402	12.84
490.754	13
491.107	13.04
491.459	13.31
491.811	13.31
492.163	13.38
492.515	13.51
492.866	13.65
493.218	13.35
493.57	13.25
493.922	13.17
494.274	13.23
494.625	13.32
494.977	13.39
495.328	13.72
495.68	13.8
496.031	13.8
496.383	13.98
496.734	14.29
497.086	14.19
497.437	14.16
497.788	14.13
498.139	14.32
498.49	14.23
498.842	14.09
499.193	14.21
499.544	14.16
499.894	14.21
500.245	14.32
500.596	14.33
500.947	14.52
501.298	14.44
501.648	14.5
501.999	14.61
502.35	14.7
502.7	14.86
503.051	14.77
503.401	14.68
503.752	14.82
504.102	14.77
504.452	14.91
504.803	14.87
505.153	14.89
505.503	14.76
505.853	14.97
506.203	14.92
506.553	15.01
506.903	14.94
507.253	15.18
507.603	15.04
507.953	15.1
508.303	15.08
508.652	15.18
509.002	15.12
509.352	15.2
509.701	15.26
510.051	15.17
510.4	15.34
510.75	15.21
511.099	15.19
511.449	15.15
511.798	15.34
512.147	15.26
512.496	15.3
512.846	15.29
513.195	15.44
513.544	15.45
513.893	15.41
514.242	15.33
514.591	15.5
514.939	15.47
515.288	15.53
515.637	15.6
515.986	15.68
516.334	15.73
516.683	15.74
517.032	15.58
517.38	15.7
517.729	15.89
518.077	15.96
518.426	15.76
518.774	15.85
519.122	15.92
519.47	15.72
519.819	15.75
520.167	15.63
520.515	15.56
520.863	15.71
521.211	15.58
521.559	15.65
521.907	15.69
522.255	15.79
522.602	15.88
522.95	15.91
523.298	16.12
523.645	16.17
523.993	16.11
524.341	16.17
524.688	16.24
525.036	16.3
525.383	16.45
525.73	16.45
526.078	16.42
526.425	16.42
526.772	16.33
527.119	16.31
527.466	16.09
527.814	15.97
528.161	15.98
528.508	16.15
528.854	16.12
529.201	16.13
529.548	16.09
529.895	16.14
530.242	15.89
530.588	15.67
530.935	15.66
531.282	15.75
531.628	15.76
531.975	15.81
532.321	15.96
532.667	16.15
533.014	16.3
533.36	16.49
533.706	16.54
534.052	16.62
534.399	16.54
534.745	16.46
535.091	16.43
535.437	16.24
535.783	16.28
536.129	16.34
536.474	16.53
536.82	16.49
537.166	16.74
537.512	16.86
537.857	16.97
538.203	16.83
538.549	16.96
538.894	16.75
539.239	16.87
539.585	16.93
539.93	16.98
540.276	17.29
540.621	17.22
540.966	17.38
541.311	17.57
541.656	17.51
542.001	17.41
542.346	17.3
542.691	17.26
543.036	17.01
543.381	16.8
543.726	16.73
544.071	16.79
544.415	16.97
544.76	16.85
545.105	17.19
545.449	17.23
545.794	17.3
546.138	17.43
546.483	17.44
546.827	17.6
547.171	17.7
547.516	17.77
547.86	17.84
548.204	17.7
548.548	17.74
548.892	17.8
549.236	17.76
549.58	17.83
549.924	17.91
550.268	17.94
550.612	18.08
550.956	18.27
551.3	18.25
551.643	18.45
551.987	18.56
552.33	18.63
552.674	18.53
553.017	18.49
553.361	18.72
553.704	18.6
554.048	18.54
554.391	18.45
554.734	18.61
555.077	18.6
555.42	18.45
555.764	18.66
556.107	18.93
556.45	18.63
556.793	18.65
557.135	18.7
557.478	19.01
557.821	18.84
558.164	19.09
558.507	19.01
558.849	18.93
559.192	18.98
559.534	19.26
559.877	18.9
560.219	19.17
560.562	19.41
560.904	18.99
561.246	19.34
561.589	19.19
561.931	19.29
562.273	19.38
562.615	19.55
562.957	19.42
563.299	19.52
563.641	19.54
563.983	19.44
564.325	19.27
564.667	19.51
565.008	19.43
565.35	19.42
565.692	19.45
566.033	19.67
566.375	19.62
566.716	19.64
567.058	19.63
567.399	19.5
567.741	19.47
568.082	19.54
568.423	19.74
568.764	19.43
569.105	19.51
569.447	19.61
569.788	19.75
570.129	19.55
570.47	19.73
570.811	20.02
571.151	19.87
571.492	20.02
571.833	20.22
572.174	20
572.514	19.74
572.855	20.2
573.195	20.25
573.536	19.9
573.876	20.16
574.217	19.72
574.557	19.92
574.898	19.76
575.238	20.06
575.578	19.99
575.918	20.13
576.258	20.17
576.598	20.2
576.938	20.15
577.278	20.24
577.618	20.08
577.958	20.12
578.298	20.42
578.638	20.31
578.977	20.39
579.317	20.44
579.657	20.47
579.996	20.68
580.336	20.52
580.675	20.71
581.014	20.98
581.354	20.81
581.693	21.12
582.032	20.83
582.372	20.79
582.711	20.84
583.05	21.07
583.389	21.09
583.728	20.94
584.067	20.93
584.406	21.11
584.745	20.98
585.083	21.16
585.422	20.92
585.761	21.17
586.1	21.24
586.438	21.05
586.777	21.37
587.115	21.38
587.454	21.17
587.792	21.27
588.13	21.49
588.469	21.16
588.807	20.9
589.145	21.13
589.483	21.44
589.821	21.35
590.159	21.49
590.497	21.54
590.835	21.42
591.173	21.41
591.511	21.68
591.849	21.66
592.187	21.59
592.524	21.36
592.862	21.63
593.2	21.58
593.537	21.27
593.875	21.44
594.212	21.74
594.55	21.86
594.887	21.65
595.224	21.66
595.561	21.72
595.899	21.62
596.236	21.79
596.573	21.92
596.91	21.79
597.247	21.83
597.584	21.69
597.921	21.97
598.258	21.87
598.594	21.77
598.931	21.86
599.268	21.5
599.604	21.85
599.941	21.84
600.277	21.81
600.614	22.05
600.95	22.23
601.287	21.84
601.623	22.21
601.959	22.17
602.296	22.24
602.632	22.46
602.968	22.29
603.304	22.6
603.64	22.16
603.976	22.39
604.312	22.3
604.648	22.31
604.984	22.53
605.319	22.38
605.655	22.27
605.991	22.26
606.326	22.13
606.662	22.04
606.998	22.18
607.333	22.22
607.668	22.2
608.004	22.29
608.339	22.5
608.674	22.64
609.01	22.76
609.345	22.6
609.68	22.67
610.015	22.61
610.35	22.75
610.685	22.85
611.02	22.66
611.355	22.44
611.689	22.63
612.024	22.62
612.359	22.74
612.694	22.67
613.028	23
613.363	22.81
613.697	22.97
614.032	22.94
614.366	23.03
614.7	23.29
615.035	23.37
615.369	23.17
615.703	23.17
616.037	23.29
616.371	22.76
616.705	23.16
617.039	22.79
617.373	23.51
617.707	23.49
618.041	23.65
618.375	23.65
618.709	23.32
619.042	23.77
619.376	23.4
619.71	23.48
620.043	23.73
620.377	23.52
620.71	23.78
621.043	23.49
621.377	23.62
621.71	23.55
622.043	23.39
622.376	23.64
622.709	23.87
623.043	23.58
623.376	23.58
623.709	23.29
624.041	23.68
624.374	23.7
624.707	24.05
625.04	23.49
625.373	24.13
625.705	23.79
626.038	23.9
626.37	23.5
626.703	23.62
627.035	24.13
627.368	23.82
627.7	24.32
628.032	23.72
628.365	24
628.697	23.64
629.029	23.76
629.361	23.82
629.693	23.78
630.025	23.94
630.357	23.83
630.689	23.87
631.021	24.17
631.353	24.11
631.684	23.94
632.016	24.31
632.348	23.88
632.679	24.16
633.011	24.11
633.342	23.96
633.674	24.55
634.005	24.3
634.336	24.59
634.668	24.44
634.999	24.43
635.33	24.03
635.661	24.54
635.992	24.48
636.323	24.65
636.654	24.32
636.985	24.3
637.316	24.54
637.647	24.63
637.977	24.17
638.308	24.31
638.639	24.25
638.969	24.68
639.3	24.65
639.63	24.7
639.961	24.51
640.291	24.7
640.622	24.71
640.952	24.53
641.282	24.61
641.612	25.24
641.943	24.71
642.273	25.08
642.603	25.4
642.933	25.08
643.263	25.64
643.592	25.13
643.922	25.43
644.252	25.04
644.582	25.09
644.911	25.3
645.241	25.36
645.571	25.45
645.9	25.28
646.23	24.92
646.559	25.06
646.888	25.27
647.218	25.05
647.547	25.36
647.876	25.5
648.205	25.07
648.534	25.09
648.863	25.47
649.192	25.21
649.521	25.41
649.85	25.89
650.179	25.21
650.508	25.42
650.837	25.05
651.165	25.4
651.494	25.23
651.822	25.63
652.151	25.54
652.479	25.26
652.808	25.25
653.136	25.72
653.465	25.81
653.793	25.52
654.121	25.42
654.449	25.26
654.777	25.24
655.105	25.41
655.433	26.15
655.761	25.57
656.089	25.84
656.417	25.56
656.745	25.73
657.073	25.8
657.4	26.89
657.728	26.56
658.056	25.73
658.383	26.05
658.711	25.78
659.038	25.84
659.365	26.07
659.693	25.93
660.02	25.92
660.347	26.03
660.674	25.62
661.001	25.59
661.329	25.97
661.656	25.93
661.982	25.64
662.309	26.1
662.636	25.67
662.963	26.26
663.29	26.11
663.616	26.4
663.943	26.12
664.27	26.09
664.596	26.39
664.923	26.12
665.249	26.22
665.576	26.08
665.902	26.03
666.228	26.84
666.554	26.71
666.881	25.69
667.207	26.43
667.533	26.08
667.859	26.62
668.185	27.15
668.511	26.54
668.837	27.21
669.162	26.56
669.488	26.54
669.814	26.12
670.139	27.3
670.465	25.79
670.791	27.04
671.116	27.07
671.442	27.01
671.767	26.67
672.092	27.09
672.418	26.79
672.743	26.72
673.068	27.64
673.393	26.94
673.718	27.01
674.043	27.76
674.368	26.8
674.693	27.48
675.018	27.51
675.343	27.08
675.667	27.16
675.992	26.87
676.317	26.84
676.641	26.14
676.966	27
677.29	27.88
