Data from 0284_crown_Reflection__1__237.txt Node

Date: Fri Oct 20 22:35:04 CDT 2023
User: ToomeyLab
Spectrometer: FLMS14357
Trigger mode: 0
Integration Time (sec): 1.000000E-2
Scans to average: 100
Electric dark correction enabled: true
Nonlinearity correction enabled: false
Boxcar width: 0
XAxis mode: Wavelengths
Number of Pixels in Spectrum: 2048
>>>>>Begin Spectral Data<<<<<
189.047	53.55
189.435	53.55
189.823	53.55
190.211	-264.32
190.599	-25555.56
190.987	84.56
191.375	56.42
191.763	-210.84
192.151	-26.94
192.538	34.56
192.926	11.21
193.314	32.87
193.702	177.75
194.089	397.05
194.477	-163.03
194.864	291.04
195.252	153.44
195.639	27.53
196.027	248.51
196.414	-2.21
196.801	22.61
197.189	-21.19
197.576	-898.52
197.963	140.91
198.351	55.01
198.738	15.51
199.125	36.09
199.512	53.09
199.899	20.26
200.286	10.55
200.673	27.58
201.06	11.23
201.447	-33.86
201.833	39.26
202.22	19.72
202.607	27.5
202.994	26.31
203.38	27.26
203.767	16.19
204.154	79.47
204.54	33.89
204.927	4.25
205.313	-5.76
205.699	33.6
206.086	16.53
206.472	25.48
206.858	75.09
207.245	6.6
207.631	32.92
208.017	34.42
208.403	7.56
208.789	50.41
209.175	3.72
209.561	55.97
209.947	-0.14
210.333	11.29
210.719	20.86
211.105	13.75
211.491	16.65
211.876	-17.18
212.262	20.5
212.648	16.82
213.034	-15.27
213.419	36.34
213.805	29.76
214.19	21.9
214.576	5.55
214.961	19.77
215.346	40.1
215.732	34.16
216.117	-8.98
216.502	7.05
216.888	12.59
217.273	-11.25
217.658	6.82
218.043	-12.81
218.428	-15.42
218.813	3.56
219.198	-14.45
219.583	1.2
219.968	19.41
220.353	15.82
220.738	14.79
221.122	-2.78
221.507	1.53
221.892	21.43
222.276	13.85
222.661	14.21
223.046	2.06
223.43	-9.11
223.815	11.85
224.199	22.33
224.583	-2.84
224.968	7.71
225.352	5.55
225.736	0.03
226.121	9.4
226.505	0.67
226.889	9.02
227.273	11.88
227.657	14.91
228.041	16.73
228.425	6.5
228.809	11.59
229.193	9.31
229.577	13.23
229.961	10.24
230.344	8.89
230.728	8.96
231.112	9.58
231.495	8.6
231.879	8.82
232.263	9.54
232.646	7.71
233.03	8.75
233.413	7.95
233.797	8.84
234.18	9.51
234.563	10.26
234.946	11.41
235.33	9.61
235.713	7.38
236.096	9.24
236.479	9.63
236.862	8.56
237.245	7.64
237.628	8.23
238.011	8.97
238.394	7.3
238.777	10.41
239.16	8.88
239.543	10.97
239.925	9.08
240.308	8.93
240.691	8.35
241.073	8.4
241.456	9.13
241.838	8.7
242.221	9.03
242.603	8.85
242.986	8.53
243.368	8.83
243.75	8.47
244.133	8.05
244.515	8.5
244.897	7.97
245.279	8.33
245.661	8.2
246.043	7.42
246.425	7.28
246.807	8.18
247.189	7.65
247.571	8.54
247.953	8.24
248.335	8.46
248.717	8.01
249.098	8.01
249.48	8
249.862	8.33
250.243	8.22
250.625	8.11
251.006	8.06
251.388	8.44
251.769	7.99
252.151	7.83
252.532	8.34
252.913	8.79
253.295	6.9
253.676	7.7
254.057	7.81
254.438	8.14
254.819	8.41
255.2	7.94
255.581	7.28
255.962	6.58
256.343	8.45
256.724	7.12
257.105	8.23
257.486	8.84
257.867	8.37
258.247	8.19
258.628	7.31
259.009	6.96
259.389	7.4
259.77	6.62
260.15	8.17
260.531	7.77
260.911	8.12
261.292	7.31
261.672	7.64
262.052	7.73
262.432	7.71
262.813	7.6
263.193	7.74
263.573	7.1
263.953	7.86
264.333	7.76
264.713	7.75
265.093	8.05
265.473	7.82
265.853	7.22
266.233	8.13
266.612	7.59
266.992	6.94
267.372	6.96
267.752	6.94
268.131	8.23
268.511	7.39
268.89	7.05
269.27	7.11
269.649	7.03
270.029	7.01
270.408	8.09
270.787	7.33
271.167	7.19
271.546	7.35
271.925	7.87
272.304	7.54
272.683	7.6
273.062	7.39
273.441	7.42
273.82	7.44
274.199	7.48
274.578	7.22
274.957	7.37
275.336	7.07
275.715	7.56
276.093	7.15
276.472	7.36
276.851	7.28
277.229	6.94
277.608	6.97
277.986	6.72
278.365	7.36
278.743	6.65
279.122	6.65
279.5	7.08
279.878	6.03
280.257	6.82
280.635	6.97
281.013	7.75
281.391	7.26
281.769	6.62
282.147	6.65
282.525	7.09
282.903	6.52
283.281	6.86
283.659	6.92
284.037	7.19
284.415	6.72
284.792	6.77
285.17	6.96
285.548	6.32
285.925	5.89
286.303	6.53
286.68	6.5
287.058	7.01
287.435	6.83
287.813	6.39
288.19	6.95
288.567	6.54
288.945	6.7
289.322	7.33
289.699	6.27
290.076	7.01
290.453	6.9
290.83	6.63
291.207	7.12
291.584	5.71
291.961	6.38
292.338	6.2
292.715	6.44
293.092	6.4
293.469	6.61
293.845	6.29
294.222	6.18
294.599	6.26
294.975	7.21
295.352	6.44
295.728	6.18
296.105	5.69
296.481	6.34
296.858	6.12
297.234	6.5
297.61	5.7
297.986	6.04
298.363	6.1
298.739	6.2
299.115	6.31
299.491	5.91
299.867	5.84
300.243	5.99
300.619	6.02
300.995	6.08
301.371	5.89
301.746	5.68
302.122	6.25
302.498	5.85
302.874	5.97
303.249	6.13
303.625	6.18
304	6.19
304.376	6.3
304.751	5.59
305.127	5.98
305.502	5.89
305.878	5.98
306.253	5.63
306.628	5.95
307.003	5.72
307.378	5.59
307.754	5.83
308.129	6.27
308.504	5.86
308.879	6.24
309.254	5.93
309.629	5.73
310.003	4.96
310.378	5.81
310.753	5.76
311.128	6.28
311.502	5.46
311.877	6.08
312.252	5.64
312.626	5.68
313.001	5.55
313.375	5.78
313.75	5.66
314.124	5.56
314.498	5.6
314.873	5.13
315.247	5.76
315.621	5.43
315.995	5.82
316.369	5.61
316.743	5.43
317.117	5.31
317.491	5.5
317.865	5.76
318.239	5.42
318.613	5.27
318.987	5.65
319.361	4.84
319.734	5.32
320.108	5.02
320.482	5.56
320.855	5.28
321.229	5.75
321.602	5.6
321.976	5.23
322.349	5.89
322.723	5.19
323.096	5.29
323.469	4.87
323.843	5.11
324.216	5.7
324.589	5.2
324.962	5.73
325.335	4.76
325.708	5.31
326.081	5.52
326.454	5.12
326.827	5.78
327.2	5.65
327.573	5.25
327.945	5.15
328.318	4.63
328.691	5.54
329.063	5.44
329.436	4.93
329.809	5.08
330.181	5.81
330.553	5.59
330.926	5.15
331.298	5.14
331.671	5.04
332.043	5
332.415	5.2
332.787	5.34
333.159	4.77
333.532	5.13
333.904	5.18
334.276	4.97
334.648	5.53
335.02	5.32
335.391	4.42
335.763	5.69
336.135	5.19
336.507	5.17
336.879	4.97
337.25	5.23
337.622	5.5
337.993	5.57
338.365	4.98
338.736	5.49
339.108	5.48
339.479	5.19
339.851	5.37
340.222	5.06
340.593	5.17
340.964	4.98
341.336	5.26
341.707	5.28
342.078	5.48
342.449	4.87
342.82	5.43
343.191	5.56
343.562	5.16
343.933	5.38
344.303	5.14
344.674	5.13
345.045	5.28
345.416	5.31
345.786	4.88
346.157	4.9
346.527	5.2
346.898	5.18
347.268	5.14
347.639	5.72
348.009	4.82
348.38	5.48
348.75	5.33
349.12	5.39
349.49	5.13
349.861	5.38
350.231	5.36
350.601	5.09
350.971	5.64
351.341	5.2
351.711	5.8
352.081	5.13
352.45	5.29
352.82	5.14
353.19	5.33
353.56	5.69
353.929	5.25
354.299	5.06
354.669	5.58
355.038	5.63
355.408	5.46
355.777	5.33
356.147	5.09
356.516	4.75
356.885	5.66
357.254	4.87
357.624	5.4
357.993	5.03
358.362	5.65
358.731	5.17
359.1	4.84
359.469	4.99
359.838	5.25
360.207	5.01
360.576	5.79
360.945	5.09
361.314	5.42
361.682	5.53
362.051	5.36
362.42	5.16
362.788	5.4
363.157	5.29
363.525	5.11
363.894	5.25
364.262	5.35
364.631	5.36
364.999	5.44
365.367	5.5
365.735	5.1
366.104	5.33
366.472	5.4
366.84	5.63
367.208	5.61
367.576	5.36
367.944	5.62
368.312	5.11
368.68	5.37
369.048	5.51
369.416	5.58
369.783	5.48
370.151	5.5
370.519	5.65
370.886	5.63
371.254	5.69
371.621	5.77
371.989	5.36
372.356	5.59
372.724	5.84
373.091	5.71
373.458	5.48
373.826	5.49
374.193	5.5
374.56	5.38
374.927	5.45
375.294	5.62
375.661	5.95
376.028	5.67
376.395	5.66
376.762	5.39
377.129	5.79
377.496	5.55
377.863	5.92
378.229	5.94
378.596	5.96
378.963	5.69
379.329	6.09
379.696	5.68
380.062	5.79
380.429	5.73
380.795	5.48
381.161	5.58
381.528	6.17
381.894	5.66
382.26	5.81
382.626	5.97
382.993	5.73
383.359	5.74
383.725	5.52
384.091	5.75
384.457	5.7
384.823	5.79
385.188	6.05
385.554	5.7
385.92	5.87
386.286	5.96
386.651	5.68
387.017	5.98
387.383	6.16
387.748	5.45
388.114	5.69
388.479	5.67
388.845	6.12
389.21	5.91
389.575	5.77
389.94	6.03
390.306	5.98
390.671	5.66
391.036	5.69
391.401	5.95
391.766	5.9
392.131	5.78
392.496	5.84
392.861	6.11
393.226	5.97
393.591	5.76
393.956	6.01
394.32	6.26
394.685	5.73
395.05	6.08
395.414	6.43
395.779	5.67
396.143	5.69
396.508	5.87
396.872	6.08
397.236	6.05
397.601	5.95
397.965	5.92
398.329	5.96
398.694	6.19
399.058	5.92
399.422	6.05
399.786	5.92
400.15	5.93
400.514	5.89
400.878	6.18
401.242	6.14
401.605	5.98
401.969	5.83
402.333	6.18
402.697	6.3
403.06	5.99
403.424	6.15
403.787	6.05
404.151	6.18
404.514	6.2
404.878	6.18
405.241	6.03
405.604	6.09
405.968	6.29
406.331	6.11
406.694	5.99
407.057	6.17
407.42	6.24
407.783	6.07
408.146	6.13
408.509	6.24
408.872	6.4
409.235	6.24
409.598	6.04
409.961	6.4
410.323	6.19
410.686	6.14
411.049	6.44
411.411	6.42
411.774	6.09
412.136	6.22
412.499	6.2
412.861	6.3
413.223	6.28
413.586	6.22
413.948	6.29
414.31	6.34
414.672	6.27
415.035	6.27
415.397	6.14
415.759	6.3
416.121	6.26
416.483	6.36
416.845	6.3
417.206	6.44
417.568	6.56
417.93	6.39
418.292	6.19
418.653	6.57
419.015	6.4
419.377	6.35
419.738	6.2
420.1	6.17
420.461	6.34
420.822	6.27
421.184	6.36
421.545	6.35
421.906	6.31
422.267	6.25
422.629	6.22
422.99	6.21
423.351	6.25
423.712	6.36
424.073	6.34
424.434	6.26
424.795	6.27
425.155	6.26
425.516	6.35
425.877	6.45
426.238	6.22
426.598	6.34
426.959	6.22
427.32	6.38
427.68	6.38
428.041	6.38
428.401	6.49
428.761	6.38
429.122	6.37
429.482	6.6
429.842	6.56
430.202	6.55
430.563	6.4
430.923	6.69
431.283	6.54
431.643	6.61
432.003	6.68
432.363	6.42
432.722	6.56
433.082	6.62
433.442	6.5
433.802	6.78
434.161	6.43
434.521	6.68
434.881	6.6
435.24	6.55
435.6	6.55
435.959	6.43
436.319	6.61
436.678	6.46
437.037	6.47
437.396	6.71
437.756	6.63
438.115	6.61
438.474	6.63
438.833	6.72
439.192	6.47
439.551	6.44
439.91	6.53
440.269	6.69
440.628	6.78
440.987	6.6
441.345	6.48
441.704	6.55
442.063	6.53
442.421	6.65
442.78	6.59
443.138	6.61
443.497	6.61
443.855	6.56
444.214	6.56
444.572	6.54
444.93	6.72
445.288	6.76
445.647	6.82
446.005	6.4
446.363	6.79
446.721	6.65
447.079	6.72
447.437	6.72
447.795	6.53
448.153	6.63
448.51	6.59
448.868	6.63
449.226	6.71
449.584	6.66
449.941	6.55
450.299	6.63
450.656	6.59
451.014	6.68
451.371	6.79
451.729	6.62
452.086	6.87
452.443	6.85
452.801	6.73
453.158	6.89
453.515	6.9
453.872	6.7
454.229	6.91
454.586	6.78
454.943	6.72
455.3	6.78
455.657	6.83
456.014	6.76
456.371	6.76
456.727	6.95
457.084	6.81
457.441	6.78
457.797	6.86
458.154	6.73
458.51	6.53
458.867	6.65
459.223	6.89
459.58	6.76
459.936	6.88
460.292	6.86
460.648	6.74
461.005	6.79
461.361	6.85
461.717	6.58
462.073	6.8
462.429	6.8
462.785	6.74
463.141	6.91
463.496	6.84
463.852	6.88
464.208	7.06
464.564	7.02
464.919	6.88
465.275	6.99
465.631	7.07
465.986	7.01
466.342	7.02
466.697	6.85
467.052	7.03
467.408	7
467.763	7.13
468.118	7.14
468.473	7.01
468.829	6.83
469.184	7.09
469.539	6.89
469.894	6.96
470.249	6.98
470.603	6.84
470.958	7.08
471.313	7.08
471.668	7.03
472.023	7.03
472.377	6.87
472.732	6.91
473.086	7.1
473.441	7.04
473.795	7.27
474.15	6.92
474.504	6.86
474.859	6.96
475.213	7.18
475.567	6.98
475.921	6.97
476.275	7.07
476.63	7.05
476.984	7.15
477.338	7.02
477.692	6.95
478.045	6.98
478.399	7.03
478.753	6.97
479.107	6.96
479.461	6.97
479.814	7.16
480.168	7.25
480.521	7.12
480.875	6.94
481.228	7.16
481.582	7.16
481.935	6.97
482.289	7.2
482.642	7.13
482.995	7
483.348	7.02
483.701	7.03
484.055	7.04
484.408	6.89
484.761	6.85
485.114	6.75
485.466	6.74
485.819	6.72
486.172	6.66
486.525	6.65
486.878	6.65
487.23	6.69
487.583	6.76
487.936	6.8
488.288	6.93
488.641	6.95
488.993	6.82
489.345	6.79
489.698	6.77
490.05	6.73
490.402	6.75
490.754	6.81
491.107	6.77
491.459	6.94
491.811	6.93
492.163	6.93
492.515	7.08
492.866	7.11
493.218	6.92
493.57	6.86
493.922	6.86
494.274	6.87
494.625	6.89
494.977	6.93
495.328	7.02
495.68	7.03
496.031	6.96
496.383	7.12
496.734	7.22
497.086	7.21
497.437	7.08
497.788	7.16
498.139	7.27
498.49	7.11
498.842	7.04
499.193	7.21
499.544	7.12
499.894	7.07
500.245	7.19
500.596	7.1
500.947	7.11
501.298	7.18
501.648	7.14
501.999	7.2
502.35	7.07
502.7	7.36
503.051	7.17
503.401	7.26
503.752	7.25
504.102	7.27
504.452	7.26
504.803	7.22
505.153	7.21
505.503	7.33
505.853	7.36
506.203	7.14
506.553	7.3
506.903	7.24
507.253	7.15
507.603	7.23
507.953	7.28
508.303	7.08
508.652	7.38
509.002	7.22
509.352	7.29
509.701	7.31
510.051	7.21
510.4	7.29
510.75	7.26
511.099	7.32
511.449	7.28
511.798	7.28
512.147	7.21
512.496	7.23
512.846	7.18
513.195	7.31
513.544	7.27
513.893	7.13
514.242	7.15
514.591	7.21
514.939	7.27
515.288	7.2
515.637	7.25
515.986	7.34
516.334	7.21
516.683	7.18
517.032	7.25
517.38	7.1
517.729	7.28
518.077	7.33
518.426	7.33
518.774	7.26
519.122	7.3
519.47	7.25
519.819	7.21
520.167	7.19
520.515	7.12
520.863	7.28
521.211	7.16
521.559	7.19
521.907	7.15
522.255	7.21
522.602	7.3
522.95	7.19
523.298	7.19
523.645	7.34
523.993	7.37
524.341	7.3
524.688	7.33
525.036	7.31
525.383	7.11
525.73	7.49
526.078	7.25
526.425	7.36
526.772	7.32
527.119	7.3
527.466	7.18
527.814	7.26
528.161	7.19
528.508	7.06
528.854	7.08
529.201	7.13
529.548	7.21
529.895	7.12
530.242	7.07
530.588	6.98
530.935	6.97
531.282	7.01
531.628	6.96
531.975	6.95
532.321	6.98
532.667	7
533.014	7.16
533.36	7.19
533.706	7.19
534.052	7.25
534.399	7.15
534.745	7
535.091	7.2
535.437	7.15
535.783	7.16
536.129	7.07
536.474	7.11
536.82	7.17
537.166	7.16
537.512	7.25
537.857	7.35
538.203	7.27
538.549	7.36
538.894	7.14
539.239	7.19
539.585	7.19
539.93	7.25
540.276	7.3
540.621	7.3
540.966	7.43
541.311	7.4
541.656	7.29
542.001	7.35
542.346	7.35
542.691	7.21
543.036	7.1
543.381	7.17
543.726	7.06
544.071	7.1
544.415	7.16
544.76	7.04
545.105	7.2
545.449	7.07
545.794	7.28
546.138	7.19
546.483	7.2
546.827	7.28
547.171	7.29
547.516	7.42
547.86	7.42
548.204	7.17
548.548	7.22
548.892	7.21
549.236	7.3
549.58	7.2
549.924	7.25
550.268	7.27
550.612	7.34
550.956	7.4
551.3	7.17
551.643	7.34
551.987	7.55
552.33	7.4
552.674	7.37
553.017	7.43
553.361	7.52
553.704	7.37
554.048	7.5
554.391	7.34
554.734	7.41
555.077	7.27
555.42	7.3
555.764	7.28
556.107	7.43
556.45	7.43
556.793	7.32
557.135	7.28
557.478	7.37
557.821	7.43
558.164	7.49
558.507	7.56
558.849	7.57
559.192	7.4
559.534	7.6
559.877	7.22
560.219	7.47
560.562	7.44
560.904	7.13
561.246	7.43
561.589	7.45
561.931	7.47
562.273	7.66
562.615	7.4
562.957	7.31
563.299	7.46
563.641	7.56
563.983	7.18
564.325	7.27
564.667	7.36
565.008	7.3
565.35	7.38
565.692	7.41
566.033	7.38
566.375	7.27
566.716	7.44
567.058	7.44
567.399	7.36
567.741	7.25
568.082	7.42
568.423	7.44
568.764	7.22
569.105	7.3
569.447	7.16
569.788	7.2
570.129	7.32
570.47	7.38
570.811	7.3
571.151	7.23
571.492	7.39
571.833	7.46
572.174	7.48
572.514	7.52
572.855	7.26
573.195	7.52
573.536	7.11
573.876	7.3
574.217	7.17
574.557	7.24
574.898	7.15
575.238	7.17
575.578	7.28
575.918	7.15
576.258	7.45
576.598	7.49
576.938	7.34
577.278	7.33
577.618	7.11
577.958	7.05
578.298	7.22
578.638	7.36
578.977	7.34
579.317	7.2
579.657	7.26
579.996	7.19
580.336	7.14
580.675	7.25
581.014	7.2
581.354	7.22
581.693	7.3
582.032	7.35
582.372	7.28
582.711	7.17
583.05	7.19
583.389	7.34
583.728	7.28
584.067	7.39
584.406	7.25
584.745	7.08
585.083	7.32
585.422	7.2
585.761	7.25
586.1	7.28
586.438	6.87
586.777	7.16
587.115	7.19
587.454	7.08
587.792	7.13
588.13	7.2
588.469	7.42
588.807	6.95
589.145	7.16
589.483	7.36
589.821	7.25
590.159	7.1
590.497	7.25
590.835	7.27
591.173	7
591.511	7.38
591.849	6.99
592.187	7.17
592.524	7.12
592.862	7.35
593.2	7.15
593.537	6.99
593.875	7.05
594.212	7.29
594.55	7.38
594.887	7.34
595.224	7.04
595.561	6.99
595.899	6.93
596.236	7.29
596.573	7.13
596.91	7.04
597.247	7.2
597.584	7.16
597.921	7.11
598.258	7.13
598.594	7.1
598.931	6.97
599.268	6.96
599.604	7.08
599.941	6.92
600.277	6.89
600.614	7.09
600.95	6.9
601.287	6.95
601.623	7.08
601.959	7.13
602.296	6.99
602.632	7.01
602.968	6.95
603.304	7.19
603.64	6.88
603.976	7.03
604.312	7.09
604.648	6.94
604.984	7.05
605.319	6.97
605.655	6.91
605.991	6.88
606.326	6.92
606.662	6.78
606.998	6.94
607.333	6.96
607.668	6.59
608.004	6.82
608.339	6.87
608.674	6.96
609.01	7.14
609.345	7.02
609.68	7.01
610.015	6.83
610.35	7.14
610.685	7.08
611.02	6.88
611.355	6.62
611.689	6.64
612.024	6.91
612.359	7.03
612.694	6.79
613.028	7.1
613.363	6.84
613.697	6.81
614.032	7.02
614.366	7.19
614.7	6.97
615.035	7
615.369	6.83
615.703	6.82
616.037	6.95
616.371	6.84
616.705	6.86
617.039	6.83
617.373	6.92
617.707	7.05
618.041	6.72
618.375	6.77
618.709	6.54
619.042	6.8
619.376	6.95
619.71	6.78
620.043	7.37
620.377	7.01
620.71	7.01
621.043	7.12
621.377	6.65
621.71	6.78
622.043	6.72
622.376	7.18
622.709	6.7
623.043	6.88
623.376	6.95
623.709	6.53
624.041	6.71
624.374	6.75
624.707	7.09
625.04	6.83
625.373	7.08
625.705	6.62
626.038	6.75
626.37	6.44
626.703	6.83
627.035	6.36
627.368	6.81
627.7	6.73
628.032	6.77
628.365	6.94
628.697	6.86
629.029	6.76
629.361	6.72
629.693	6.68
630.025	6.76
630.357	6.73
630.689	6.52
631.021	6.97
631.353	6.87
631.684	6.5
632.016	7.23
632.348	6.74
632.679	6.42
633.011	6.69
633.342	6.49
633.674	6.55
634.005	6.85
634.336	7.07
634.668	6.48
634.999	6.67
635.33	6.41
635.661	7.11
635.992	6.81
636.323	7.14
636.654	7.02
636.985	6.83
637.316	6.71
637.647	6.62
637.977	6.02
638.308	6.5
638.639	6.7
638.969	6.78
639.3	6.25
639.63	6.68
639.961	6.75
640.291	6.61
640.622	6.63
640.952	6.79
641.282	6.81
641.612	6.92
641.943	6.77
642.273	6.56
642.603	6.89
642.933	6.45
643.263	7.2
643.592	6.69
643.922	6.92
644.252	6.56
644.582	6.8
644.911	6.5
645.241	6.89
645.571	7.12
645.9	6.49
646.23	6.88
646.559	6.54
646.888	6.52
647.218	6.9
647.547	6.9
647.876	6.58
648.205	6.92
648.534	6.57
648.863	6.89
649.192	6.29
649.521	6.42
649.85	6.8
650.179	6.42
650.508	6.33
650.837	6.62
651.165	6.66
651.494	6.26
651.822	6.14
652.151	6.48
652.479	6.1
652.808	6.67
653.136	6.63
653.465	6.8
653.793	6.82
654.121	6.68
654.449	6.88
654.777	6.29
655.105	6.61
655.433	6.8
655.761	6.41
656.089	7.13
656.417	7.04
656.745	7.01
657.073	6.99
657.4	7.34
657.728	6.56
658.056	7.23
658.383	6.65
658.711	6.26
659.038	6.76
659.365	6.84
659.693	6.61
660.02	6.73
660.347	6.61
660.674	6.52
661.001	6.49
661.329	6.77
661.656	6.82
661.982	6.39
662.309	6.64
662.636	6.42
662.963	6.55
663.29	6.55
663.616	6.75
663.943	6.73
664.27	6.65
664.596	6.6
664.923	6.54
665.249	7
665.576	6.53
665.902	6.45
666.228	6.6
666.554	6.88
666.881	6.25
667.207	6.62
667.533	6.27
667.859	6.65
668.185	6.69
668.511	6.94
668.837	7.14
669.162	6.84
669.488	6.77
669.814	6.61
670.139	6.36
670.465	6.82
670.791	7.06
671.116	6.58
671.442	6.56
671.767	6.22
672.092	6.34
672.418	6.79
672.743	6.64
673.068	6.85
673.393	6.39
673.718	6.4
674.043	6.89
674.368	6.47
674.693	6.97
675.018	7.61
675.343	6.67
675.667	6.28
675.992	7.08
676.317	6.77
676.641	6.41
676.966	6.83
677.29	7.08
677.615	6.55
677.939	6.91
678.264	6.57
678.588	6.79
678.912	6.7
679.236	6.28
679.56	6.72
679.885	6.92
680.209	7.26
680.532	6.13
680.856	6.16
681.18	6.37
681.504	6.58
681.828	6.88
682.152	6.59
682.475	5.99
682.799	6.67
683.122	7
683.446	6.64
683.769	6.93
684.093	6.85
684.416	6.26
684.739	6.22
685.062	6.11
685.386	6.51
685.709	6.37
686.032	6.42
686.355	7.26
686.678	6.43
687.001	7.13
687.324	6.81
687.646	6.28
687.969	6.54
688.292	6.34
688.614	6.3
688.937	6.36
689.26	5.7
689.582	6.25
689.904	6.26
690.227	7.17
690.549	6.81
690.871	6.42
691.194	6.93
691.516	6.09
691.838	6.71
692.16	5.95
692.482	6.27
692.804	6.87
