Data from 431_crown_Reflection__1__128.txt Node

Date: Tue Dec 12 19:27:28 CST 2023
User: ToomeyLab
Spectrometer: FLMS14357
Trigger mode: 0
Integration Time (sec): 1.000000E-2
Scans to average: 100
Electric dark correction enabled: true
Nonlinearity correction enabled: false
Boxcar width: 0
XAxis mode: Wavelengths
Number of Pixels in Spectrum: 2048
>>>>>Begin Spectral Data<<<<<
189.047	-10.51
189.435	-10.51
189.823	-10.51
190.211	-2.41
190.599	89.93
190.987	40.98
191.375	756.58
191.763	15.57
192.151	92.15
192.538	-187.46
192.926	75.96
193.314	178.32
193.702	104.58
194.089	19.32
194.477	404.62
194.864	50.05
195.252	-13.42
195.639	103.01
196.027	86.83
196.414	-118.61
196.801	81.2
197.189	-21.71
197.576	19.61
197.963	58.57
198.351	-1.93
198.738	30.91
199.125	-38.16
199.512	-93.95
199.899	-33.48
200.286	-10.72
200.673	-29.19
201.06	21.46
201.447	-75.05
201.833	-16.07
202.22	-29.61
202.607	-179.88
202.994	50.06
203.38	22.62
203.767	14.98
204.154	10.61
204.54	37.78
204.927	-39.46
205.313	-3.64
205.699	5.89
206.086	-32.64
206.472	18.88
206.858	-5.99
207.245	25.39
207.631	-43.41
208.017	10.94
208.403	4.64
208.789	-2.1
209.175	1.63
209.561	4.82
209.947	-28.15
210.333	14.6
210.719	28.04
211.105	-4.85
211.491	22.32
211.876	-10.06
212.262	-2.14
212.648	-61.06
213.034	-69.93
213.419	26.03
213.805	-19.65
214.19	23.84
214.576	3.26
214.961	-6.45
215.346	-9.35
215.732	23.45
216.117	-5.3
216.502	-8.93
216.888	-16.96
217.273	-30.33
217.658	-47.73
218.043	-29.14
218.428	-14.86
218.813	3.61
219.198	-21.54
219.583	11.64
219.968	12.13
220.353	-25.73
220.738	-14.32
221.122	-16.3
221.507	-41.67
221.892	11.22
222.276	3.25
222.661	-3.85
223.046	0.2
223.43	4.63
223.815	-3.32
224.199	4.88
224.583	-1.97
224.968	0.32
225.352	3.87
225.736	10.34
226.121	-1.3
226.505	1.8
226.889	-3.78
227.273	1.37
227.657	1.38
228.041	-0.6
228.425	3.14
228.809	3.77
229.193	5.55
229.577	4.93
229.961	1.34
230.344	3.39
230.728	4.8
231.112	4.57
231.495	4.13
231.879	4.53
232.263	3.13
232.646	4.13
233.03	4.87
233.413	2.78
233.797	3.18
234.18	2.43
234.563	4.55
234.946	4.87
235.33	4.2
235.713	5.49
236.096	1.95
236.479	5.14
236.862	3.9
237.245	3.05
237.628	2.97
238.011	3.07
238.394	3.54
238.777	4.73
239.16	2.04
239.543	3.47
239.925	2.72
240.308	2.87
240.691	1.44
241.073	6.26
241.456	3.13
241.838	3.83
242.221	4.18
242.603	3.67
242.986	3.4
243.368	4.52
243.75	3.41
244.133	3.75
244.515	4.06
244.897	4.45
245.279	4.42
245.661	3.58
246.043	2.49
246.425	3.82
246.807	3.04
247.189	4.34
247.571	4.36
247.953	3.84
248.335	3.97
248.717	3.97
249.098	3.85
249.48	3.92
249.862	3.83
250.243	3.66
250.625	4.31
251.006	3.77
251.388	4.35
251.769	4
252.151	3.59
252.532	4.27
252.913	4.57
253.295	4.61
253.676	4.22
254.057	3.77
254.438	4.23
254.819	3.91
255.2	3.14
255.581	3.5
255.962	2.8
256.343	3.65
256.724	3.05
257.105	3.09
257.486	2.13
257.867	3.03
258.247	2.98
258.628	3.21
259.009	3.25
259.389	4.34
259.77	3.91
260.15	3.84
260.531	4.55
260.911	4.14
261.292	3.5
261.672	3.66
262.052	3.75
262.432	3.94
262.813	4.11
263.193	3.86
263.573	3.29
263.953	4.64
264.333	4.66
264.713	3.84
265.093	3.72
265.473	4.29
265.853	2.87
266.233	3.12
266.612	3.88
266.992	3.4
267.372	3.28
267.752	4.76
268.131	3.23
268.511	3.45
268.89	3.03
269.27	3.1
269.649	4.14
270.029	3.72
270.408	3.66
270.787	2.86
271.167	3.85
271.546	4.19
271.925	4.31
272.304	3.96
272.683	2.51
273.062	3.78
273.441	3.58
273.82	3
274.199	3.39
274.578	3.75
274.957	3.57
275.336	3.85
275.715	3.62
276.093	2.78
276.472	3.87
276.851	4.02
277.229	2.85
277.608	3.7
277.986	3.18
278.365	3.21
278.743	3.47
279.122	3.77
279.5	3.32
279.878	2.8
280.257	3.67
280.635	3.74
281.013	3.94
281.391	3.46
281.769	3.16
282.147	3.95
282.525	3
282.903	3.16
283.281	3.56
283.659	3.75
284.037	3.79
284.415	3.52
284.792	3.5
285.17	3.54
285.548	3.88
285.925	3.45
286.303	3.76
286.68	3.67
287.058	3.56
287.435	3.13
287.813	3.09
288.19	3.54
288.567	3.59
288.945	3.59
289.322	2.99
289.699	3.61
290.076	3.1
290.453	3.16
290.83	3.37
291.207	3.85
291.584	3.69
291.961	3.62
292.338	3.6
292.715	3.49
293.092	2.89
293.469	3.81
293.845	3.52
294.222	3.76
294.599	3.08
294.975	3.36
295.352	4.12
295.728	3.26
296.105	3.82
296.481	3.88
296.858	3.62
297.234	3.65
297.61	3.69
297.986	3.48
298.363	3.83
298.739	3.56
299.115	3.41
299.491	3.7
299.867	3.6
300.243	3.45
300.619	3.41
300.995	3.73
301.371	3.83
301.746	3.25
302.122	3.95
302.498	3.52
302.874	3.06
303.249	4.39
303.625	3.07
304	3.41
304.376	3.75
304.751	3.78
305.127	3.79
305.502	3.97
305.878	3.45
306.253	3.53
306.628	4.07
307.003	3.26
307.378	3.47
307.754	3.75
308.129	3.46
308.504	4.49
308.879	3.34
309.254	4.1
309.629	3.64
310.003	3.75
310.378	3.85
310.753	3.87
311.128	3.86
311.502	3.39
311.877	3.5
312.252	3.2
312.626	3.7
313.001	3.62
313.375	3.13
313.75	3.8
314.124	3.93
314.498	3.99
314.873	3.46
315.247	4.02
315.621	3.02
315.995	3.58
316.369	4
316.743	2.96
317.117	3.25
317.491	3.79
317.865	3.38
318.239	3.76
318.613	4.13
318.987	4.41
319.361	3.41
319.734	3.51
320.108	4.01
320.482	3.78
320.855	3.45
321.229	3.79
321.602	4.04
321.976	3.51
322.349	4.03
322.723	3.61
323.096	3.71
323.469	3.84
323.843	4.93
324.216	4.27
324.589	3.67
324.962	3.62
325.335	4.15
325.708	3.75
326.081	4.01
326.454	3.56
326.827	4.5
327.2	3.85
327.573	3.36
327.945	3.8
328.318	4.23
328.691	2.74
329.063	4.34
329.436	4.06
329.809	4.12
330.181	3.56
330.553	4.1
330.926	3.92
331.298	3.58
331.671	3.98
332.043	3.59
332.415	4.1
332.787	3.41
333.159	4
333.532	4.02
333.904	3.78
334.276	3.73
334.648	3.16
335.02	3.51
335.391	3.39
335.763	3.98
336.135	4.09
336.507	4.44
336.879	3.66
337.25	4.37
337.622	3.85
337.993	3.66
338.365	3.26
338.736	4.1
339.108	3.47
339.479	4.07
339.851	3.55
340.222	3.39
340.593	3.81
340.964	3.9
341.336	3.92
341.707	3.42
342.078	3.64
342.449	3.61
342.82	3.96
343.191	4.02
343.562	3.49
343.933	4.18
344.303	4.09
344.674	4.13
345.045	3.94
345.416	3.95
345.786	3.64
346.157	3.88
346.527	4.08
346.898	3.31
347.268	4.39
347.639	4.15
348.009	3.82
348.38	4.02
348.75	4.08
349.12	4.29
349.49	3.96
349.861	4.35
350.231	3.76
350.601	3.97
350.971	3.95
351.341	4.01
351.711	4
352.081	4.03
352.45	3.55
352.82	4.15
353.19	3.65
353.56	3.85
353.929	3.67
354.299	3.47
354.669	3.68
355.038	3.08
355.408	3.51
355.777	4.07
356.147	3.79
356.516	3.56
356.885	4.17
357.254	3.95
357.624	3.62
357.993	3.55
358.362	3.86
358.731	3.83
359.1	3.53
359.469	3.69
359.838	3.98
360.207	3.61
360.576	4.04
360.945	3.24
361.314	4.02
361.682	4.05
362.051	4.06
362.42	3.92
362.788	3.9
363.157	4.27
363.525	4.09
363.894	4
364.262	3.89
364.631	3.62
364.999	3.96
365.367	4.24
365.735	3.93
366.104	3.88
366.472	3.88
366.84	4.33
367.208	3.97
367.576	3.94
367.944	3.75
368.312	4.31
368.68	3.89
369.048	3.63
369.416	3.7
369.783	4.03
370.151	3.77
370.519	3.62
370.886	4.16
371.254	3.93
371.621	4.21
371.989	3.97
372.356	4.07
372.724	3.74
373.091	3.93
373.458	3.97
373.826	3.74
374.193	3.68
374.56	4.38
374.927	4.01
375.294	4.34
375.661	4.24
376.028	4.02
376.395	4.33
376.762	4.38
377.129	4.28
377.496	3.9
377.863	3.75
378.229	3.97
378.596	3.91
378.963	4.26
379.329	4.06
379.696	4.01
380.062	4.53
380.429	4.04
380.795	4.35
381.161	4.35
381.528	4.25
381.894	4.06
382.26	4.4
382.626	3.99
382.993	4.21
383.359	3.72
383.725	4.01
384.091	4
384.457	3.76
384.823	4.39
385.188	4.32
385.554	4.29
385.92	4.4
386.286	4.36
386.651	4.53
387.017	4.25
387.383	4.1
387.748	4.36
388.114	4.1
388.479	4.34
388.845	3.98
389.21	4.01
389.575	3.82
389.94	4.1
390.306	3.95
390.671	4.17
391.036	4.34
391.401	4.03
391.766	4.23
392.131	4.22
392.496	4.12
392.861	4.14
393.226	4.33
393.591	4.22
393.956	4.11
394.32	4.31
394.685	4.1
395.05	4.08
395.414	4.26
395.779	4.2
396.143	4.35
396.508	3.95
396.872	4.5
397.236	4.1
397.601	4.3
397.965	4.16
398.329	4.28
398.694	4.02
399.058	4.23
399.422	4.23
399.786	4.06
400.15	4.08
400.514	4.41
400.878	4.32
401.242	4.19
401.605	4.19
401.969	4.3
402.333	4.45
402.697	4.27
403.06	3.99
403.424	4.21
403.787	4.03
404.151	4.6
404.514	4.1
404.878	4.29
405.241	4.01
405.604	4.08
405.968	4.27
406.331	4.42
406.694	4.4
407.057	4.16
407.42	4.15
407.783	4.14
408.146	4.33
408.509	4.21
408.872	4.37
409.235	4.26
409.598	4.3
409.961	4.26
410.323	4.2
410.686	4.32
411.049	4.12
411.411	4.43
411.774	4.5
412.136	4.25
412.499	4.31
412.861	4.46
413.223	4.52
413.586	4.49
413.948	4.17
414.31	4.55
414.672	4.16
415.035	4.24
415.397	4.32
415.759	4.23
416.121	4.49
416.483	4.49
416.845	4.11
417.206	4.37
417.568	4.45
417.93	4.51
418.292	4.28
418.653	4.47
419.015	4.26
419.377	4.23
419.738	4.18
420.1	4.29
420.461	4.49
420.822	4.48
421.184	4.32
421.545	4.51
421.906	4.35
422.267	4.24
422.629	4.26
422.99	4.39
423.351	4.38
423.712	4.27
424.073	4.37
424.434	4.33
424.795	4.4
425.155	4.36
425.516	4.29
425.877	4.27
426.238	4.33
426.598	4.25
426.959	4.37
427.32	4.22
427.68	4.4
428.041	4.5
428.401	4.39
428.761	4.38
429.122	4.47
429.482	4.57
429.842	4.51
430.202	4.42
430.563	4.65
430.923	4.5
431.283	4.49
431.643	4.73
432.003	4.49
432.363	4.56
432.722	4.3
433.082	4.57
433.442	4.48
433.802	4.66
434.161	4.42
434.521	4.46
434.881	4.56
435.24	4.55
435.6	4.59
435.959	4.55
436.319	4.37
436.678	4.58
437.037	4.53
437.396	4.47
437.756	4.46
438.115	4.62
438.474	4.54
438.833	4.49
439.192	4.79
439.551	4.62
439.91	4.39
440.269	4.54
440.628	4.36
440.987	4.41
441.345	4.45
441.704	4.46
442.063	4.57
442.421	4.47
442.78	4.49
443.138	4.45
443.497	4.42
443.855	4.51
444.214	4.55
444.572	4.64
444.93	4.72
445.288	4.4
445.647	4.6
446.005	4.48
446.363	4.32
446.721	4.53
447.079	4.57
447.437	4.41
447.795	4.5
448.153	4.48
448.51	4.5
448.868	4.59
449.226	4.66
449.584	4.5
449.941	4.48
450.299	4.7
450.656	4.53
451.014	4.51
451.371	4.49
451.729	4.73
452.086	4.63
452.443	4.78
452.801	4.73
453.158	4.61
453.515	4.68
453.872	4.67
454.229	4.77
454.586	4.44
454.943	4.68
455.3	4.63
455.657	4.71
456.014	4.76
456.371	4.8
456.727	4.72
457.084	4.7
457.441	4.73
457.797	4.77
458.154	4.7
458.51	4.69
458.867	4.73
459.223	4.86
459.58	4.69
459.936	4.61
460.292	4.79
460.648	4.59
461.005	4.73
461.361	4.63
461.717	4.72
462.073	4.54
462.429	4.67
462.785	4.62
463.141	4.79
463.496	4.77
463.852	4.91
464.208	4.78
464.564	4.85
464.919	4.93
465.275	4.92
465.631	4.95
465.986	4.81
466.342	4.7
466.697	4.78
467.052	4.87
467.408	4.78
467.763	4.77
468.118	4.78
468.473	4.88
468.829	4.96
469.184	4.75
469.539	4.84
469.894	4.92
470.249	4.94
470.603	4.91
470.958	4.93
471.313	5.12
471.668	4.93
472.023	4.88
472.377	4.85
472.732	4.88
473.086	4.83
473.441	5.08
473.795	5.02
474.15	4.81
474.504	4.9
474.859	4.82
475.213	4.77
475.567	4.9
475.921	4.85
476.275	4.73
476.63	5.02
476.984	4.94
477.338	5.05
477.692	4.9
478.045	4.94
478.399	4.86
478.753	4.81
479.107	4.79
479.461	4.85
479.814	5
480.168	4.86
480.521	4.7
480.875	4.95
481.228	5.11
481.582	5.03
481.935	4.95
482.289	5.03
482.642	4.98
482.995	4.91
483.348	4.85
483.701	4.96
484.055	4.85
484.408	4.74
484.761	4.77
485.114	4.75
485.466	4.6
485.819	4.58
486.172	4.66
486.525	4.69
486.878	4.72
487.23	4.76
487.583	4.74
487.936	4.83
488.288	4.72
488.641	4.86
488.993	4.72
489.345	4.74
489.698	4.71
490.05	4.76
490.402	4.76
490.754	4.76
491.107	4.84
491.459	4.94
491.811	4.95
492.163	4.86
492.515	4.92
492.866	4.83
493.218	4.7
493.57	4.74
493.922	4.72
494.274	4.87
494.625	4.95
494.977	5.05
495.328	5.08
495.68	5.04
496.031	5.21
496.383	5.05
496.734	5.09
497.086	4.98
497.437	5.03
497.788	5.08
498.139	4.92
498.49	5.02
498.842	4.95
499.193	5.17
499.544	5.02
499.894	5.08
500.245	5.19
500.596	5.24
500.947	5.08
501.298	5.12
501.648	5.22
501.999	5.12
502.35	5.12
502.7	5.18
503.051	5.04
503.401	5.17
503.752	5.23
504.102	5.16
504.452	5.22
504.803	5.24
505.153	5.06
505.503	5.29
505.853	5.25
506.203	5.26
506.553	5.06
506.903	5.24
507.253	5.21
507.603	5.23
507.953	5.18
508.303	5.14
508.652	5.16
509.002	5.3
509.352	5.09
509.701	5.24
510.051	5.18
510.4	5.15
510.75	5.14
511.099	5.1
511.449	5.24
511.798	5.19
512.147	5.24
512.496	5.26
512.846	5.29
513.195	4.97
513.544	5.19
513.893	5.24
514.242	5.17
514.591	5.22
514.939	5.19
515.288	5.28
515.637	5.18
515.986	5.35
516.334	5.25
516.683	5.26
517.032	5.16
517.38	5.22
517.729	5.35
518.077	5.25
518.426	5.29
518.774	5.28
519.122	5.27
519.47	5.15
519.819	5.08
520.167	5.09
520.515	5.12
520.863	5.16
521.211	5.16
521.559	5.21
521.907	5.2
522.255	5.25
522.602	5.3
522.95	5.26
523.298	5.19
523.645	5.42
523.993	5.32
524.341	5.32
524.688	5.24
525.036	5.41
525.383	5.27
525.73	5.29
526.078	5.28
526.425	5.31
526.772	5.28
527.119	5.26
527.466	5.2
527.814	5.12
528.161	5.26
528.508	5.35
528.854	5.22
529.201	5.22
529.548	5.2
529.895	5.15
530.242	4.99
530.588	4.95
530.935	5.12
531.282	5.18
531.628	5.21
531.975	5.16
532.321	5.21
532.667	5.2
533.014	5.33
533.36	5.32
533.706	5.35
534.052	5.28
534.399	5.26
534.745	5.25
535.091	5.17
535.437	5.14
535.783	5.23
536.129	5.33
536.474	5.31
536.82	5.31
537.166	5.3
537.512	5.33
537.857	5.43
538.203	5.33
538.549	5.34
538.894	5.34
539.239	5.39
539.585	5.34
539.93	5.43
540.276	5.45
540.621	5.53
540.966	5.42
541.311	5.45
541.656	5.37
542.001	5.49
542.346	5.4
542.691	5.35
543.036	5.2
543.381	5.15
543.726	5.23
544.071	5.29
544.415	5.34
544.76	5.35
545.105	5.39
545.449	5.35
545.794	5.42
546.138	5.38
546.483	5.34
546.827	5.5
547.171	5.54
547.516	5.48
547.86	5.54
548.204	5.51
548.548	5.48
548.892	5.43
549.236	5.45
549.58	5.6
549.924	5.52
550.268	5.58
550.612	5.41
550.956	5.72
551.3	5.67
551.643	5.63
551.987	5.69
552.33	5.55
552.674	5.65
553.017	5.84
553.361	5.76
553.704	5.69
554.048	5.58
554.391	5.61
554.734	5.61
555.077	5.65
555.42	5.57
555.764	5.69
556.107	5.62
556.45	5.57
556.793	5.52
557.135	5.61
557.478	5.68
557.821	5.54
558.164	5.58
558.507	5.9
558.849	5.75
559.192	5.75
559.534	5.71
559.877	5.59
560.219	5.71
560.562	5.94
560.904	5.78
561.246	5.82
561.589	5.99
561.931	5.72
562.273	5.67
562.615	5.62
562.957	5.92
563.299	5.76
563.641	5.75
563.983	5.95
564.325	5.76
564.667	5.8
565.008	5.73
565.35	5.63
565.692	5.68
566.033	5.86
566.375	5.62
566.716	5.81
567.058	5.8
567.399	5.74
567.741	5.6
568.082	5.66
568.423	5.88
568.764	5.76
569.105	5.72
569.447	5.73
569.788	5.8
570.129	5.81
570.47	5.95
570.811	5.84
571.151	5.82
571.492	5.86
571.833	5.87
572.174	5.67
572.514	5.67
572.855	5.58
573.195	5.66
573.536	5.52
573.876	5.78
574.217	5.82
574.557	5.68
574.898	5.8
575.238	5.9
575.578	5.71
575.918	5.76
576.258	6
576.598	5.72
576.938	5.9
577.278	5.85
577.618	5.86
577.958	5.7
578.298	5.98
578.638	5.87
578.977	5.83
579.317	5.8
579.657	5.73
579.996	5.84
580.336	5.9
580.675	5.88
581.014	5.86
581.354	5.73
581.693	5.9
582.032	5.62
582.372	6.04
582.711	5.82
583.05	6.12
583.389	5.94
583.728	5.93
584.067	6.01
584.406	6.28
584.745	5.94
585.083	5.85
585.422	6.25
585.761	6.16
586.1	5.82
586.438	6.08
586.777	6.05
587.115	5.93
587.454	6.19
587.792	5.74
588.13	6.12
588.469	5.77
588.807	5.84
589.145	6.06
589.483	6.1
589.821	6.16
590.159	6.12
590.497	5.9
590.835	6.02
591.173	5.96
591.511	6
591.849	6.08
592.187	6.15
592.524	5.93
592.862	5.93
593.2	6.03
593.537	5.79
593.875	6.11
594.212	6.03
594.55	6.25
594.887	6.29
595.224	6.03
595.561	6.22
595.899	5.83
596.236	6.08
596.573	6.06
596.91	6.31
597.247	5.91
597.584	6.11
597.921	6.38
598.258	6.18
598.594	5.99
598.931	6.11
599.268	5.82
599.604	6.11
599.941	6.1
600.277	6.03
600.614	6.36
600.95	6.22
601.287	6.18
601.623	6.31
601.959	6.05
602.296	6.37
602.632	5.94
602.968	6.21
603.304	5.96
603.64	6.37
603.976	6.11
604.312	6.09
604.648	6.18
604.984	6.16
605.319	6.06
605.655	5.81
605.991	6.01
606.326	5.99
606.662	6.02
606.998	5.9
607.333	6.15
607.668	6.24
608.004	6.08
608.339	6.27
608.674	6.2
609.01	6.12
609.345	6.13
609.68	6.39
610.015	5.95
610.35	6.21
610.685	6.17
611.02	6.32
611.355	5.96
611.689	6.09
612.024	6.25
612.359	6.23
612.694	6.38
613.028	6.29
613.363	6.24
613.697	6.08
614.032	6.44
614.366	6.39
614.7	6.09
615.035	6.16
615.369	6.39
615.703	6.33
616.037	6.25
616.371	6.04
616.705	6.14
617.039	6.49
617.373	6.24
617.707	6.13
618.041	5.97
618.375	6.32
618.709	6.45
619.042	6.58
619.376	5.99
619.71	6.07
620.043	6.18
620.377	6.2
620.71	6.07
621.043	6.05
621.377	5.94
621.71	6.02
622.043	6.47
622.376	6.66
622.709	6.46
623.043	6.09
623.376	6.58
623.709	6.42
624.041	6.82
624.374	6.6
624.707	6.44
625.04	6.09
625.373	6.79
625.705	6.64
626.038	6.19
626.37	6.5
626.703	6.34
627.035	6.01
627.368	6.58
627.7	6.15
628.032	6.24
628.365	6.44
628.697	6.39
629.029	6.36
629.361	6.07
629.693	6.16
630.025	6
630.357	6.47
630.689	6.11
631.021	6.42
631.353	6.81
631.684	6.72
632.016	6.6
632.348	6.43
632.679	6.28
633.011	7.01
633.342	6.61
633.674	6.45
634.005	6.04
634.336	6.64
634.668	6.6
634.999	6.44
635.33	6.45
635.661	6.37
635.992	6.24
636.323	5.93
636.654	6.59
636.985	6.59
637.316	6.49
637.647	6.54
637.977	6.49
638.308	6.54
638.639	6.31
638.969	6.68
639.3	6.48
639.63	6.67
639.961	6.38
640.291	6.47
640.622	6.57
640.952	6.74
641.282	6.69
641.612	6.54
641.943	6.39
642.273	6.8
642.603	6.72
642.933	6.53
643.263	6.28
643.592	6.61
643.922	6.7
644.252	6.9
644.582	6.37
644.911	6.54
645.241	5.84
645.571	6.83
645.9	6.91
646.23	6.2
646.559	7.12
646.888	6.63
647.218	6.41
647.547	6.28
647.876	6.44
648.205	6.95
648.534	6.7
648.863	6.85
649.192	7.52
649.521	6.51
649.85	6.3
650.179	6.65
650.508	6.8
650.837	6.72
651.165	6.35
651.494	6.59
651.822	6.57
652.151	7.19
652.479	6.65
652.808	7.18
653.136	7.19
653.465	6.6
653.793	6.43
654.121	7.27
654.449	6.67
654.777	7.06
655.105	6.91
655.433	6.83
655.761	6.86
656.089	6.67
656.417	7.28
656.745	7
657.073	6.39
657.4	6.66
657.728	6.1
658.056	6.81
658.383	5.94
658.711	7.06
659.038	6.43
659.365	6.56
659.693	6.43
660.02	6.6
660.347	6.91
660.674	7.07
661.001	6.91
661.329	6.68
661.656	6.87
661.982	6.75
662.309	7.07
662.636	6.92
662.963	6.96
663.29	7.43
663.616	6.72
663.943	7.13
664.27	7.25
664.596	7.33
664.923	7.45
665.249	6.75
665.576	6.61
665.902	7.13
666.228	6.75
666.554	6.81
666.881	6.5
667.207	7.16
667.533	7.07
667.859	6.83
668.185	7.4
668.511	6.9
668.837	6.53
669.162	7.56
669.488	7.24
669.814	7.11
670.139	6.65
670.465	6.1
670.791	6.7
671.116	6.66
671.442	6.75
671.767	6.64
672.092	7.29
672.418	7.25
672.743	7.4
673.068	6.52
673.393	7.29
673.718	7.17
674.043	7.07
674.368	6.36
674.693	6.63
675.018	6.25
675.343	6.87
675.667	6.73
675.992	7.27
676.317	6.09
676.641	6.89
676.966	6.9
677.29	7.54
677.615	6.67
677.939	6.28
678.264	6.84
678.588	6.78
678.912	7.56
679.236	6.83
679.56	7.46
679.885	7.39
680.209	7.36
680.532	7.65
680.856	6.94
681.18	6.98
681.504	7.3
681.828	7.26
682.152	7.27
682.475	7.11
682.799	7.12
683.122	7.11
683.446	7.34
683.769	8.02
684.093	7.34
684.416	6.65
684.739	7.04
685.062	7.29
685.386	7.24
685.709	7.71
686.032	7.13
686.355	6.91
686.678	8.02
687.001	7.24
687.324	7.41
687.646	7.93
687.969	7.22
688.292	7.55
688.614	6.94
688.937	7.11
689.26	7.18
689.582	6.34
689.904	7.55
690.227	7.4
690.549	7.54
690.871	6.88
691.194	7.58
691.516	7.26
691.838	6.6
692.16	7.66
692.482	6.77
