Data from 431_chest_Reflection__4__126.txt Node

Date: Tue Dec 12 19:26:21 CST 2023
User: ToomeyLab
Spectrometer: FLMS14357
Trigger mode: 0
Integration Time (sec): 1.000000E-2
Scans to average: 100
Electric dark correction enabled: true
Nonlinearity correction enabled: false
Boxcar width: 0
XAxis mode: Wavelengths
Number of Pixels in Spectrum: 2048
>>>>>Begin Spectral Data<<<<<
189.047	130.96
189.435	130.96
189.823	130.96
190.211	-38.11
190.599	-49.52
190.987	128.67
191.375	906.58
191.763	-111.69
192.151	93.46
192.538	-117.58
192.926	45.25
193.314	361.74
193.702	19.06
194.089	90.86
194.477	184.06
194.864	0.9
195.252	45.89
195.639	118.3
196.027	37.65
196.414	-182.11
196.801	28.85
197.189	24.05
197.576	124.37
197.963	32.68
198.351	3.65
198.738	55.33
199.125	30.69
199.512	-21.16
199.899	0.88
200.286	7.05
200.673	-85.03
201.06	36.85
201.447	-59.98
201.833	7.18
202.22	-20.37
202.607	-171.34
202.994	19.4
203.38	37.22
203.767	-12.5
204.154	9.02
204.54	71.54
204.927	-36.06
205.313	21.24
205.699	45.4
206.086	-43.53
206.472	32.79
206.858	0.67
207.245	18.19
207.631	-4.23
208.017	24.39
208.403	36.14
208.789	6.32
209.175	-42.36
209.561	16.23
209.947	-64.46
210.333	16.5
210.719	0.13
211.105	-4.4
211.491	17.92
211.876	47.59
212.262	9.47
212.648	-37.6
213.034	-264.39
213.419	15.2
213.805	40.15
214.19	18.51
214.576	35.61
214.961	22.59
215.346	-0.4
215.732	47.93
216.117	-14.75
216.502	-29.62
216.888	-5.38
217.273	-17.78
217.658	-12.85
218.043	-18.52
218.428	7.54
218.813	8.61
219.198	-24.43
219.583	-16.26
219.968	19.05
220.353	16.71
220.738	9.12
221.122	13.84
221.507	-11
221.892	-12.37
222.276	10.51
222.661	-9.29
223.046	-1.29
223.43	-2.21
223.815	-2.83
224.199	5.73
224.583	5.28
224.968	5.26
225.352	-3.87
225.736	8.23
226.121	-11.31
226.505	-5.54
226.889	-0.13
227.273	-2.08
227.657	10.74
228.041	5.57
228.425	0.34
228.809	2.33
229.193	3.7
229.577	3.26
229.961	1.76
230.344	2.71
230.728	3.61
231.112	3.57
231.495	2.85
231.879	3.12
232.263	0.33
232.646	1.08
233.03	3.44
233.413	2.42
233.797	3.3
234.18	1.22
234.563	1.14
234.946	4.96
235.33	3.71
235.713	4.48
236.096	1.32
236.479	2.83
236.862	4.29
237.245	3.1
237.628	4.08
238.011	4.16
238.394	2.55
238.777	5.77
239.16	3.55
239.543	2.81
239.925	3.92
240.308	1.01
240.691	2.91
241.073	3.49
241.456	3.19
241.838	3.37
242.221	3.47
242.603	4.03
242.986	1.8
243.368	3.49
243.75	2.72
244.133	3.63
244.515	3.33
244.897	3.13
245.279	3.92
245.661	1.99
246.043	2.72
246.425	2.94
246.807	1.93
247.189	3.17
247.571	3.16
247.953	2.79
248.335	3.23
248.717	2.77
249.098	3.05
249.48	2.72
249.862	2.73
250.243	2.95
250.625	3.68
251.006	3.43
251.388	3.23
251.769	2.7
252.151	1.85
252.532	3.27
252.913	3.74
253.295	3.72
253.676	2.99
254.057	2.48
254.438	3.12
254.819	3.16
255.2	2.21
255.581	2.04
255.962	1.71
256.343	3.17
256.724	2
257.105	3.22
257.486	3.28
257.867	2.59
258.247	2.11
258.628	2.93
259.009	3.11
259.389	3.03
259.77	1.9
260.15	2.46
260.531	3.14
260.911	3.39
261.292	2.48
261.672	2.69
262.052	2.93
262.432	2.81
262.813	2.93
263.193	3.46
263.573	3.56
263.953	4.02
264.333	3.82
264.713	2.63
265.093	2.73
265.473	2.97
265.853	2.32
266.233	3
266.612	2.85
266.992	2.52
267.372	2.37
267.752	3.62
268.131	2.45
268.511	2.56
268.89	2.12
269.27	2.12
269.649	3.38
270.029	2.36
270.408	2.47
270.787	2.49
271.167	3.07
271.546	2.84
271.925	2.86
272.304	2.9
272.683	1.82
273.062	2.45
273.441	2.76
273.82	2.02
274.199	2.53
274.578	2.91
274.957	2.73
275.336	2.73
275.715	2.75
276.093	2.27
276.472	2.67
276.851	3.04
277.229	2.08
277.608	2.36
277.986	2.38
278.365	2.57
278.743	2.64
279.122	3
279.5	2.21
279.878	2.35
280.257	1.94
280.635	2.45
281.013	2.42
281.391	2.75
281.769	2.31
282.147	2.84
282.525	2.29
282.903	2.43
283.281	2.38
283.659	2.49
284.037	2.59
284.415	2.31
284.792	2.61
285.17	2.29
285.548	2.75
285.925	2.19
286.303	2.21
286.68	2.46
287.058	2.74
287.435	2.49
287.813	2.17
288.19	2.59
288.567	2.64
288.945	2.64
289.322	2.13
289.699	2.52
290.076	2.28
290.453	3.07
290.83	2.7
291.207	3.1
291.584	2.67
291.961	2.66
292.338	2.62
292.715	2.62
293.092	2.73
293.469	2.46
293.845	2.74
294.222	2.71
294.599	2.2
294.975	2.87
295.352	2.73
295.728	2.33
296.105	2.92
296.481	2.61
296.858	2.6
297.234	2.72
297.61	2.63
297.986	3.4
298.363	2.87
298.739	2.7
299.115	2.19
299.491	2.89
299.867	2.57
300.243	2.16
300.619	2.89
300.995	2.56
301.371	2.73
301.746	2.55
302.122	3.04
302.498	2.3
302.874	2.82
303.249	3.39
303.625	2.7
304	2.68
304.376	3.05
304.751	2.99
305.127	2.41
305.502	3.26
305.878	2.49
306.253	3.02
306.628	2.63
307.003	2.99
307.378	3.06
307.754	2.61
308.129	2.31
308.504	3.45
308.879	2.51
309.254	3.07
309.629	2.37
310.003	2.85
310.378	3.02
310.753	3.6
311.128	3.35
311.502	2.44
311.877	2.59
312.252	2.37
312.626	2.58
313.001	2.93
313.375	2.92
313.75	3.01
314.124	2.69
314.498	2.86
314.873	2.46
315.247	2.87
315.621	2.59
315.995	2.39
316.369	2.67
316.743	2.42
317.117	2.38
317.491	2.85
317.865	2.5
318.239	2.62
318.613	3.44
318.987	3.5
319.361	2.54
319.734	2.59
320.108	3.81
320.482	2.67
320.855	2.52
321.229	3.22
321.602	3.17
321.976	3.01
322.349	2.66
322.723	3.28
323.096	2.74
323.469	3.29
323.843	3.72
324.216	3.16
324.589	3.05
324.962	3.25
325.335	3.72
325.708	3.09
326.081	2.89
326.454	2.86
326.827	3.59
327.2	3.02
327.573	2.82
327.945	3.14
328.318	3.16
328.691	2.72
329.063	3.46
329.436	3.39
329.809	3.3
330.181	2.79
330.553	3.51
330.926	3.2
331.298	3.08
331.671	3.1
332.043	2.74
332.415	3.67
332.787	2.43
333.159	3.1
333.532	3.48
333.904	3.04
334.276	3.35
334.648	2.99
335.02	2.67
335.391	2.83
335.763	3.25
336.135	3.5
336.507	3.47
336.879	3.14
337.25	3.34
337.622	3.18
337.993	3.28
338.365	2.9
338.736	3.32
339.108	3.04
339.479	3.35
339.851	3.03
340.222	2.26
340.593	3.1
340.964	2.91
341.336	2.97
341.707	2.93
342.078	2.89
342.449	3.02
342.82	3.5
343.191	3.06
343.562	3.1
343.933	3.61
344.303	3.19
344.674	3.23
345.045	3
345.416	3.39
345.786	2.72
346.157	3.31
346.527	3.65
346.898	2.76
347.268	2.99
347.639	3.35
348.009	3.35
348.38	3.11
348.75	3.26
349.12	3.52
349.49	2.89
349.861	3.84
350.231	3.43
350.601	3.35
350.971	3.03
351.341	3.27
351.711	3.57
352.081	3.52
352.45	3.02
352.82	3.45
353.19	3.13
353.56	3.18
353.929	2.73
354.299	3.15
354.669	2.97
355.038	2.79
355.408	2.88
355.777	3.88
356.147	2.99
356.516	3.69
356.885	2.68
357.254	2.91
357.624	2.89
357.993	3.13
358.362	3.04
358.731	3.22
359.1	2.81
359.469	3.13
359.838	3.23
360.207	3.01
360.576	3.43
360.945	2.75
361.314	3.06
361.682	3.32
362.051	3.58
362.42	3.22
362.788	3.28
363.157	3.78
363.525	3.41
363.894	3.16
364.262	3.37
364.631	3.07
364.999	3.52
365.367	3.42
365.735	3.12
366.104	3.35
366.472	3.23
366.84	3.18
367.208	3.61
367.576	3.36
367.944	3.39
368.312	3.54
368.68	3.47
369.048	3.09
369.416	3.44
369.783	3.6
370.151	3.16
370.519	3.12
370.886	3.8
371.254	3.06
371.621	3.62
371.989	3.21
372.356	3.08
372.724	3.42
373.091	3.2
373.458	3.29
373.826	3.21
374.193	3.14
374.56	3.58
374.927	3.6
375.294	3.12
375.661	3.66
376.028	3.43
376.395	3.4
376.762	3.82
377.129	3.31
377.496	3.6
377.863	3.11
378.229	3.34
378.596	3.08
378.963	3.4
379.329	3.3
379.696	3.18
380.062	3.93
380.429	3.52
380.795	3.57
381.161	3.52
381.528	3.33
381.894	3.41
382.26	3.17
382.626	3.74
382.993	3.45
383.359	3.03
383.725	3.39
384.091	3.36
384.457	3.14
384.823	3.6
385.188	3.52
385.554	3.48
385.92	3.34
386.286	3.51
386.651	3.3
387.017	3.98
387.383	3.25
387.748	3.52
388.114	3.63
388.479	3.59
388.845	3.37
389.21	3.19
389.575	3.2
389.94	3.41
390.306	3.4
390.671	3.26
391.036	3.46
391.401	3.3
391.766	3.81
392.131	3.83
392.496	3.37
392.861	3.41
393.226	3.65
393.591	3.28
393.956	3.54
394.32	3.58
394.685	3.71
395.05	3.77
395.414	3.71
395.779	3.3
396.143	3.75
396.508	3.56
396.872	3.62
397.236	3.68
397.601	3.37
397.965	3.53
398.329	3.68
398.694	3.6
399.058	3.51
399.422	3.26
399.786	3.71
400.15	3.1
400.514	3.79
400.878	3.62
401.242	3.69
401.605	3.74
401.969	3.53
402.333	3.67
402.697	3.52
403.06	3.16
403.424	3.56
403.787	3.14
404.151	3.77
404.514	3.35
404.878	3.2
405.241	3.73
405.604	3.37
405.968	3.47
406.331	3.72
406.694	3.79
407.057	3.4
407.42	3.58
407.783	3.63
408.146	3.53
408.509	3.71
408.872	3.64
409.235	3.87
409.598	3.32
409.961	3.64
410.323	3.67
410.686	3.64
411.049	3.64
411.411	3.77
411.774	3.63
412.136	3.73
412.499	3.59
412.861	3.79
413.223	4.01
413.586	3.57
413.948	3.54
414.31	3.7
414.672	3.72
415.035	3.72
415.397	3.59
415.759	3.67
416.121	3.71
416.483	3.78
416.845	3.4
417.206	3.75
417.568	3.55
417.93	3.63
418.292	3.57
418.653	3.72
419.015	3.6
419.377	3.54
419.738	3.64
420.1	3.45
420.461	3.76
420.822	3.62
421.184	3.53
421.545	3.83
421.906	3.55
422.267	3.6
422.629	3.61
422.99	3.63
423.351	3.59
423.712	3.69
424.073	3.54
424.434	3.6
424.795	3.72
425.155	3.59
425.516	3.6
425.877	3.59
426.238	3.59
426.598	3.52
426.959	3.62
427.32	3.66
427.68	3.66
428.041	3.72
428.401	3.73
428.761	3.63
429.122	3.67
429.482	3.93
429.842	3.71
430.202	3.8
430.563	3.72
430.923	3.62
431.283	3.64
431.643	3.74
432.003	3.63
432.363	3.94
432.722	3.76
433.082	3.75
433.442	3.7
433.802	3.71
434.161	3.71
434.521	3.98
434.881	3.63
435.24	3.78
435.6	3.68
435.959	3.85
436.319	3.85
436.678	3.95
437.037	3.8
437.396	3.64
437.756	3.76
438.115	3.82
438.474	3.84
438.833	3.9
439.192	3.92
439.551	3.7
439.91	3.47
440.269	3.65
440.628	3.81
440.987	3.66
441.345	3.83
441.704	3.72
442.063	3.83
442.421	3.76
442.78	3.72
443.138	3.86
443.497	3.7
443.855	3.86
444.214	3.74
444.572	3.93
444.93	3.92
445.288	3.7
445.647	3.9
446.005	3.8
446.363	3.66
446.721	3.64
447.079	3.77
447.437	3.55
447.795	3.82
448.153	3.8
448.51	3.79
448.868	3.88
449.226	3.79
449.584	3.87
449.941	3.66
450.299	3.86
450.656	3.88
451.014	3.89
451.371	3.92
451.729	4.01
452.086	3.78
452.443	4.08
452.801	3.95
453.158	3.76
453.515	3.86
453.872	3.92
454.229	3.89
454.586	3.71
454.943	3.79
455.3	3.88
455.657	3.97
456.014	4.17
456.371	3.94
456.727	3.97
457.084	3.84
457.441	3.9
457.797	3.89
458.154	3.79
458.51	3.82
458.867	4.12
459.223	3.99
459.58	3.93
459.936	3.88
460.292	3.9
460.648	3.93
461.005	3.91
461.361	3.8
461.717	3.88
462.073	3.89
462.429	3.83
462.785	3.89
463.141	3.88
463.496	3.82
463.852	4.16
464.208	3.98
464.564	3.96
464.919	4.21
465.275	4.03
465.631	4.2
465.986	3.98
466.342	3.97
466.697	4.01
467.052	4.19
467.408	4.12
467.763	4.1
468.118	4.25
468.473	4.17
468.829	3.92
469.184	4.02
469.539	4.13
469.894	4.31
470.249	4.12
470.603	4.09
470.958	4
471.313	4.21
471.668	4.27
472.023	3.95
472.377	4.02
472.732	4.05
473.086	4.35
473.441	4.23
473.795	4.15
474.15	4.11
474.504	3.99
474.859	4.23
475.213	3.97
475.567	4.19
475.921	4.13
476.275	4
476.63	4.26
476.984	4.28
477.338	4.15
477.692	4.11
478.045	4.17
478.399	4.04
478.753	3.97
479.107	4.12
479.461	4.19
479.814	4.11
480.168	4.04
480.521	4.05
480.875	4.14
481.228	4.3
481.582	4.22
481.935	4.18
482.289	4.2
482.642	4.33
482.995	4.12
483.348	4.14
483.701	4.37
484.055	4.15
484.408	4.05
484.761	4.12
485.114	4
485.466	3.89
485.819	3.9
486.172	3.95
486.525	3.98
486.878	4.04
487.23	4.03
487.583	4.07
487.936	4.12
488.288	4.05
488.641	4.02
488.993	4.01
489.345	4.04
489.698	3.96
490.05	4.04
490.402	4.13
490.754	4.14
491.107	4.17
491.459	4.27
491.811	4.28
492.163	4.2
492.515	4.31
492.866	4.13
493.218	4.13
493.57	4.09
493.922	4.04
494.274	4.24
494.625	4.31
494.977	4.27
495.328	4.35
495.68	4.33
496.031	4.46
496.383	4.3
496.734	4.25
497.086	4.34
497.437	4.42
497.788	4.39
498.139	4.35
498.49	4.46
498.842	4.27
499.193	4.34
499.544	4.4
499.894	4.42
500.245	4.43
500.596	4.45
500.947	4.43
501.298	4.56
501.648	4.57
501.999	4.36
502.35	4.51
502.7	4.47
503.051	4.54
503.401	4.47
503.752	4.47
504.102	4.55
504.452	4.58
504.803	4.53
505.153	4.67
505.503	4.66
505.853	4.76
506.203	4.52
506.553	4.57
506.903	4.68
507.253	4.68
507.603	4.69
507.953	4.57
508.303	4.67
508.652	4.64
509.002	4.63
509.352	4.53
509.701	4.63
510.051	4.7
510.4	4.59
510.75	4.55
511.099	4.53
511.449	4.5
511.798	4.6
512.147	4.7
512.496	4.68
512.846	4.73
513.195	4.66
513.544	4.65
513.893	4.61
514.242	4.69
514.591	4.72
514.939	4.7
515.288	4.66
515.637	4.67
515.986	4.71
516.334	4.93
516.683	4.68
517.032	4.84
517.38	4.8
517.729	4.82
518.077	4.7
518.426	4.86
518.774	4.79
519.122	4.72
519.47	4.73
519.819	4.79
520.167	4.7
520.515	4.66
520.863	4.76
521.211	4.87
521.559	4.88
521.907	4.79
522.255	4.85
522.602	4.89
522.95	4.78
523.298	4.99
523.645	5.03
523.993	5.02
524.341	4.94
524.688	4.98
525.036	5.02
525.383	5.03
525.73	4.99
526.078	5
526.425	4.97
526.772	4.91
527.119	5.05
527.466	4.96
527.814	4.87
528.161	5.02
528.508	5.04
528.854	4.93
529.201	4.96
529.548	5.03
529.895	4.88
530.242	4.83
530.588	4.8
530.935	4.87
531.282	4.94
531.628	5.04
531.975	4.99
532.321	5
532.667	5
533.014	5.02
533.36	5.14
533.706	5.15
534.052	5.09
534.399	5.12
534.745	5.16
535.091	5.05
535.437	5.18
535.783	5.12
536.129	5.23
536.474	5.21
536.82	5.29
537.166	5.35
537.512	5.39
537.857	5.36
538.203	5.37
538.549	5.29
538.894	5.27
539.239	5.46
539.585	5.39
539.93	5.5
540.276	5.48
540.621	5.42
540.966	5.44
541.311	5.55
541.656	5.55
542.001	5.61
542.346	5.46
542.691	5.46
543.036	5.38
543.381	5.28
543.726	5.43
544.071	5.48
544.415	5.44
544.76	5.49
545.105	5.55
545.449	5.64
545.794	5.73
546.138	5.59
546.483	5.62
546.827	5.87
547.171	5.82
547.516	5.75
547.86	5.78
548.204	5.65
548.548	5.79
548.892	5.88
549.236	5.79
549.58	5.84
549.924	5.91
550.268	5.96
550.612	5.86
550.956	5.88
551.3	6.16
551.643	6.04
551.987	6.17
552.33	6.07
552.674	6.24
553.017	6.2
553.361	6.21
553.704	6.08
554.048	6.2
554.391	6.03
554.734	6.16
555.077	6.37
555.42	6.25
555.764	6.33
556.107	6.22
556.45	6.29
556.793	6.04
557.135	6.23
557.478	6.23
557.821	6.41
558.164	6.44
558.507	6.5
558.849	6.56
559.192	6.46
559.534	6.54
559.877	6.53
560.219	6.86
560.562	6.66
560.904	6.65
561.246	6.68
561.589	6.52
561.931	6.56
562.273	6.71
562.615	6.52
562.957	6.78
563.299	6.86
563.641	6.91
563.983	6.8
564.325	6.8
564.667	6.94
565.008	6.62
565.35	6.7
565.692	6.92
566.033	7.18
566.375	7.02
566.716	6.92
567.058	7.16
567.399	7.02
567.741	6.94
568.082	6.94
568.423	6.96
568.764	7.06
569.105	7.08
569.447	7.15
569.788	7.16
570.129	7
570.47	7.29
570.811	7.18
571.151	7.29
571.492	7.43
571.833	7.35
572.174	7.43
572.514	7.36
572.855	7.43
573.195	7.35
573.536	7.23
573.876	7.35
574.217	7.28
574.557	7.43
574.898	7.73
575.238	7.7
575.578	7.56
575.918	7.65
576.258	7.61
576.598	7.62
576.938	7.41
577.278	7.66
577.618	7.88
577.958	7.77
578.298	7.88
578.638	7.74
578.977	7.82
579.317	7.93
579.657	8.03
579.996	8.17
580.336	7.96
580.675	7.93
581.014	8.13
581.354	8.13
581.693	8.13
582.032	8.02
582.372	8.28
582.711	7.98
583.05	8.12
583.389	8.24
583.728	8.59
584.067	8.68
584.406	8.65
584.745	8.5
585.083	8.35
585.422	8.67
585.761	8.71
586.1	8.55
586.438	8.77
586.777	8.55
587.115	8.78
587.454	8.75
587.792	8.43
588.13	8.78
588.469	8.78
588.807	8.84
589.145	9.01
589.483	8.96
589.821	9.12
590.159	8.99
590.497	9.01
590.835	9.17
591.173	8.9
591.511	9.18
591.849	9.05
592.187	9.11
592.524	8.87
592.862	9.19
593.2	9.07
593.537	9.06
593.875	9.35
594.212	9.27
594.55	9.31
594.887	9.65
595.224	9.15
595.561	9.39
595.899	9.38
596.236	9.52
596.573	9.71
596.91	9.7
597.247	9.54
597.584	9.59
597.921	9.65
598.258	9.82
598.594	9.68
598.931	9.72
599.268	9.53
599.604	9.77
599.941	9.92
600.277	9.8
600.614	10.09
600.95	10.13
601.287	9.98
601.623	10.08
601.959	9.92
602.296	10.25
602.632	9.99
602.968	10.08
603.304	10
603.64	10.35
603.976	10.21
604.312	10.29
604.648	10.41
604.984	10.31
605.319	10.21
605.655	10.3
605.991	10.57
606.326	10.27
606.662	10.53
606.998	10.21
607.333	10.43
607.668	10.69
608.004	10.66
608.339	10.94
608.674	10.92
609.01	10.82
609.345	10.78
609.68	10.92
610.015	10.56
610.35	10.77
610.685	11.12
611.02	11.08
611.355	10.92
611.689	10.95
612.024	11.04
612.359	11.18
612.694	11.07
613.028	11.18
613.363	11.31
613.697	11.47
614.032	11.79
614.366	11.79
614.7	11.54
615.035	11.6
615.369	11.64
615.703	11.36
616.037	11.4
616.371	11.45
616.705	11.5
617.039	11.98
617.373	12.04
617.707	11.71
618.041	11.78
618.375	12.05
618.709	11.96
619.042	12.07
619.376	11.93
619.71	11.86
620.043	11.88
620.377	11.97
620.71	12.09
621.043	12.28
621.377	11.81
621.71	12.44
622.043	12.36
622.376	12.56
622.709	12.55
623.043	12.3
623.376	12.86
623.709	12.55
624.041	12.66
624.374	12.61
624.707	12.47
625.04	12.37
625.373	13.11
625.705	12.62
626.038	12.68
626.37	12.91
626.703	13.11
627.035	12.55
627.368	12.95
627.7	13.08
628.032	12.97
628.365	12.86
628.697	13.29
629.029	12.91
629.361	13.11
629.693	13.2
630.025	13.32
630.357	13.34
630.689	13.29
631.021	13.26
631.353	13.56
631.684	13.37
632.016	13.43
632.348	13.56
632.679	13.15
633.011	13.72
633.342	13.87
633.674	13.76
634.005	13.58
634.336	14.23
634.668	13.77
634.999	13.97
635.33	14.03
635.661	14.21
635.992	13.97
636.323	14.04
636.654	14.33
636.985	14.22
637.316	14.53
637.647	14.34
637.977	14.35
638.308	14.07
638.639	14.81
638.969	14.32
639.3	14.67
639.63	14.48
639.961	14.56
640.291	14.57
640.622	14.63
640.952	14.88
641.282	14.67
641.612	15.13
641.943	14.59
642.273	15.2
642.603	15.51
642.933	14.8
643.263	15.05
643.592	15.54
643.922	15.39
644.252	15.4
644.582	15.07
644.911	15.28
645.241	15.25
645.571	15.66
645.9	15.07
646.23	15.12
646.559	15.97
646.888	16
647.218	15.34
647.547	15.48
647.876	15.62
648.205	15.86
648.534	15.56
648.863	15.95
649.192	16.35
649.521	15.98
649.85	16.09
650.179	16.04
650.508	15.92
650.837	16.53
651.165	16.06
651.494	16.14
651.822	15.54
652.151	16.6
652.479	16.39
652.808	16.6
653.136	16.7
653.465	16.27
653.793	16.54
654.121	16.56
654.449	16.24
654.777	16.67
655.105	17.01
655.433	16.52
655.761	17.24
656.089	16.12
656.417	16.78
656.745	16.46
657.073	16.4
657.4	17.25
657.728	16.93
658.056	17.61
658.383	17.21
658.711	17.5
659.038	17.09
659.365	16.94
659.693	17.16
660.02	17.12
660.347	17.74
660.674	17.47
661.001	17.55
661.329	17.58
661.656	17.16
661.982	17.71
662.309	17.34
662.636	17.49
662.963	17.94
663.29	17.75
663.616	17.7
663.943	18
664.27	17.92
664.596	17.99
664.923	18.52
665.249	17.33
665.576	18.83
665.902	18.41
666.228	18.36
666.554	18.61
666.881	17.6
667.207	18.59
667.533	18.34
667.859	18.36
668.185	18.44
668.511	18.83
668.837	18.5
669.162	18.92
669.488	18.52
669.814	19.27
670.139	18.88
670.465	18.49
670.791	18.35
671.116	18.94
671.442	19.07
671.767	18.5
672.092	19.73
672.418	19.17
672.743	19.26
673.068	19.04
673.393	19.62
673.718	19.37
674.043	19.66
674.368	19.12
674.693	19.58
675.018	18.72
675.343	19.37
675.667	20.24
675.992	19.67
676.317	19.63
676.641	19.65
676.966	19.3
677.29	19.56
677.615	19.67
677.939	20.05
678.264	20.52
678.588	20.11
678.912	20.63
679.236	20.2
679.56	20.68
679.885	20.26
680.209	20.76
680.532	20.49
680.856	20.23
681.18	20.04
681.504	20.53
681.828	20.52
682.152	20.3
682.475	20.31
682.799	20.37
683.122	20.7
683.446	21.06
683.769	22.01
684.093	20.97
684.416	20.42
684.739	21.28
685.062	20.75
685.386	20.77
685.709	21.55
686.032	21.05
686.355	21.32
686.678	21.47
