Data from 431_crown_Reflection__0__127.txt Node

Date: Tue Dec 12 19:27:19 CST 2023
User: ToomeyLab
Spectrometer: FLMS14357
Trigger mode: 0
Integration Time (sec): 1.000000E-2
Scans to average: 100
Electric dark correction enabled: true
Nonlinearity correction enabled: false
Boxcar width: 0
XAxis mode: Wavelengths
Number of Pixels in Spectrum: 2048
>>>>>Begin Spectral Data<<<<<
189.047	155.74
189.435	155.74
189.823	155.74
190.211	-114.52
190.599	160.87
190.987	82.18
191.375	-4259.21
191.763	-39.7
192.151	34.07
192.538	-239.39
192.926	1.07
193.314	127.65
193.702	56.89
194.089	14.28
194.477	27.64
194.864	77.02
195.252	167.38
195.639	196.13
196.027	112.47
196.414	-235.48
196.801	55.63
197.189	-16
197.576	-73.65
197.963	163.16
198.351	-9.87
198.738	64.38
199.125	-12.18
199.512	-12.91
199.899	0.06
200.286	-13.51
200.673	-17.64
201.06	-58.78
201.447	-83.82
201.833	-8
202.22	9.16
202.607	-194.61
202.994	19.31
203.38	30.31
203.767	24.63
204.154	11.88
204.54	26.71
204.927	1.59
205.313	16.89
205.699	11.82
206.086	-7.64
206.472	19
206.858	16.82
207.245	25.06
207.631	15.47
208.017	-23.37
208.403	-37.03
208.789	-16.14
209.175	-53.82
209.561	33.4
209.947	-39.69
210.333	5.8
210.719	33.41
211.105	-9.57
211.491	17.23
211.876	27.38
212.262	3.96
212.648	-37.26
213.034	-164.85
213.419	-17.41
213.805	22.1
214.19	10.52
214.576	8.47
214.961	-24.12
215.346	-7.03
215.732	16.47
216.117	-9.59
216.502	-49.89
216.888	-30.36
217.273	-31.15
217.658	-48.7
218.043	9.35
218.428	4.81
218.813	-4.65
219.198	-17.2
219.583	-2.45
219.968	-18.63
220.353	6.9
220.738	0.99
221.122	7.87
221.507	-33.22
221.892	-5.32
222.276	-1.51
222.661	-7.43
223.046	-14.84
223.43	-4.74
223.815	-13.4
224.199	0.68
224.583	9.59
224.968	-1.05
225.352	-9.02
225.736	0.83
226.121	-1.48
226.505	1.16
226.889	2.63
227.273	2.29
227.657	7.02
228.041	3.83
228.425	4.04
228.809	-1.04
229.193	0.11
229.577	3.89
229.961	1.1
230.344	3.75
230.728	2.97
231.112	3.27
231.495	2.74
231.879	2.65
232.263	2.18
232.646	2.32
233.03	3.01
233.413	1.34
233.797	2.97
234.18	-2.35
234.563	0.41
234.946	2.68
235.33	3.42
235.713	3.27
236.096	1.75
236.479	2.49
236.862	1.73
237.245	1.85
237.628	2.4
238.011	3.58
238.394	1.67
238.777	1.75
239.16	1.27
239.543	0.34
239.925	2.62
240.308	0.92
240.691	3.17
241.073	2.62
241.456	2.39
241.838	1.9
242.221	3.54
242.603	3.75
242.986	2.46
243.368	2.89
243.75	2.61
244.133	2.51
244.515	3.1
244.897	3.23
245.279	3.31
245.661	1.97
246.043	1.54
246.425	3.98
246.807	1.54
247.189	2.59
247.571	2.9
247.953	2.22
248.335	2.28
248.717	2.57
249.098	2.77
249.48	2.71
249.862	2.64
250.243	2.05
250.625	3.12
251.006	2.69
251.388	3.05
251.769	3.53
252.151	1.85
252.532	2.4
252.913	2.19
253.295	2.96
253.676	2.12
254.057	1.82
254.438	2.64
254.819	2.18
255.2	2.58
255.581	2.36
255.962	1.18
256.343	2.48
256.724	2.57
257.105	2.47
257.486	0.83
257.867	2.1
258.247	2.97
258.628	2.41
259.009	1.66
259.389	2.72
259.77	2.41
260.15	2.85
260.531	3.13
260.911	2.73
261.292	2.45
261.672	2.38
262.052	2.46
262.432	2.5
262.813	3
263.193	2.87
263.573	2.6
263.953	3.56
264.333	3.86
264.713	2.45
265.093	2.76
265.473	3.05
265.853	2.26
266.233	1.67
266.612	1.16
266.992	2.88
267.372	3.26
267.752	3.17
268.131	2.41
268.511	2.24
268.89	2.39
269.27	1.69
269.649	2.21
270.029	1.99
270.408	3.02
270.787	1.88
271.167	2.11
271.546	2.34
271.925	2.63
272.304	2.35
272.683	1.53
273.062	2.17
273.441	2.55
273.82	1.91
274.199	2.39
274.578	2.3
274.957	2.43
275.336	2.62
275.715	2.66
276.093	2.08
276.472	2.43
276.851	2.2
277.229	1.44
277.608	1.62
277.986	1.9
278.365	2.5
278.743	1.93
279.122	2.81
279.5	1.9
279.878	1.84
280.257	1.97
280.635	2.15
281.013	1.62
281.391	2.71
281.769	2.52
282.147	2.29
282.525	2.15
282.903	2.23
283.281	2.22
283.659	2.28
284.037	2.56
284.415	2.53
284.792	2.71
285.17	1.91
285.548	2.33
285.925	1.94
286.303	2.15
286.68	2.41
287.058	2.41
287.435	2.67
287.813	2.19
288.19	2.22
288.567	2.69
288.945	2.21
289.322	1.48
289.699	2.27
290.076	2.31
290.453	2.5
290.83	2.2
291.207	2.81
291.584	2.22
291.961	2.3
292.338	2.44
292.715	2.74
293.092	2.04
293.469	2.32
293.845	2.27
294.222	2.25
294.599	2.08
294.975	2.49
295.352	2.13
295.728	2.29
296.105	2.34
296.481	2.55
296.858	2.46
297.234	2.85
297.61	2.39
297.986	2.92
298.363	2.69
298.739	2.18
299.115	2.42
299.491	2.24
299.867	2.33
300.243	2.57
300.619	2.67
300.995	2.69
301.371	2.44
301.746	2.39
302.122	2.71
302.498	3.31
302.874	2.3
303.249	3.1
303.625	2.49
304	2.5
304.376	2.12
304.751	2.85
305.127	3.13
305.502	2.92
305.878	2.48
306.253	2.43
306.628	2.28
307.003	2.4
307.378	2.39
307.754	3
308.129	2.85
308.504	3.07
308.879	2.44
309.254	3.28
309.629	2.5
310.003	3.12
310.378	3.09
310.753	2.88
311.128	2.74
311.502	2.44
311.877	2.56
312.252	2.31
312.626	3.05
313.001	2.66
313.375	2.39
313.75	2.83
314.124	2.94
314.498	2.86
314.873	2.46
315.247	2.34
315.621	2.5
315.995	2.77
316.369	2.8
316.743	2.39
317.117	2.49
317.491	2.37
317.865	2.73
318.239	2.8
318.613	3.27
318.987	2.72
319.361	2.12
319.734	2.54
320.108	3.02
320.482	2.94
320.855	2.41
321.229	2.7
321.602	2.86
321.976	2.72
322.349	2.85
322.723	2.5
323.096	2.41
323.469	2.58
323.843	3.02
324.216	3.64
324.589	3.7
324.962	2.9
325.335	2.95
325.708	2.55
326.081	2.93
326.454	2.99
326.827	3.08
327.2	3.02
327.573	2.88
327.945	3.2
328.318	3.42
328.691	2.6
329.063	3.23
329.436	2.9
329.809	2.96
330.181	2.31
330.553	2.62
330.926	3.37
331.298	2.49
331.671	2.56
332.043	2.74
332.415	2.99
332.787	2.68
333.159	3.01
333.532	2.96
333.904	2.99
334.276	3.28
334.648	2.93
335.02	2.37
335.391	3.29
335.763	2.76
336.135	2.78
336.507	3.42
336.879	3.09
337.25	2.51
337.622	2.45
337.993	2.57
338.365	2.74
338.736	3.06
339.108	2.59
339.479	3.07
339.851	2.55
340.222	2.27
340.593	2.84
340.964	2.74
341.336	2.83
341.707	2.7
342.078	2.75
342.449	2.63
342.82	3.33
343.191	3.1
343.562	2.98
343.933	3.33
344.303	3.46
344.674	3.72
345.045	2.98
345.416	3.15
345.786	2.78
346.157	2.89
346.527	3.74
346.898	2.39
347.268	3.07
347.639	3.02
348.009	2.86
348.38	2.78
348.75	3.13
349.12	3
349.49	2.62
349.861	3.3
350.231	2.8
350.601	3.33
350.971	3.26
351.341	3.03
351.711	3.18
352.081	3.03
352.45	2.76
352.82	3.47
353.19	2.86
353.56	3.07
353.929	2.28
354.299	3
354.669	3.14
355.038	2.38
355.408	2.98
355.777	3.08
356.147	2.97
356.516	3.21
356.885	2.87
357.254	3.05
357.624	2.92
357.993	2.81
358.362	2.85
358.731	3.1
359.1	2.65
359.469	3
359.838	3.19
360.207	3.05
360.576	3.18
360.945	2.8
361.314	3.2
361.682	3.09
362.051	3.43
362.42	3.31
362.788	2.94
363.157	3.31
363.525	3.1
363.894	3.06
364.262	3
364.631	3.02
364.999	3.06
365.367	3.39
365.735	2.76
366.104	3.01
366.472	3.06
366.84	3.08
367.208	3.05
367.576	3.12
367.944	3.41
368.312	2.69
368.68	2.88
369.048	3.1
369.416	3.16
369.783	3.05
370.151	3.17
370.519	2.78
370.886	3.27
371.254	3.04
371.621	3.51
371.989	2.87
372.356	3.44
372.724	3.09
373.091	3.03
373.458	3
373.826	2.96
374.193	2.76
374.56	3.48
374.927	3.23
375.294	2.98
375.661	3.47
376.028	3.27
376.395	3.44
376.762	3.73
377.129	3.07
377.496	3.34
377.863	2.88
378.229	3.14
378.596	2.98
378.963	3.43
379.329	2.99
379.696	3.17
380.062	3.43
380.429	3.23
380.795	3.36
381.161	3.28
381.528	3.1
381.894	3.65
382.26	3.24
382.626	2.78
382.993	3.35
383.359	3.19
383.725	3.11
384.091	3.25
384.457	2.87
384.823	3.43
385.188	3
385.554	3.41
385.92	2.89
386.286	3.48
386.651	3.18
387.017	3.54
387.383	3.31
387.748	3.24
388.114	3.24
388.479	3.25
388.845	3.26
389.21	3.27
389.575	3.05
389.94	3.03
390.306	3.36
390.671	3.28
391.036	3.16
391.401	3.28
391.766	3.6
392.131	3.48
392.496	3.24
392.861	3.05
393.226	3.23
393.591	3
393.956	2.86
394.32	3.2
394.685	3.19
395.05	3.22
395.414	3.29
395.779	3.35
396.143	3.32
396.508	3.03
396.872	3.17
397.236	3.27
397.601	3.28
397.965	3.19
398.329	3.21
398.694	3.05
399.058	3.2
399.422	3.16
399.786	3.1
400.15	3.11
400.514	3.44
400.878	3.4
401.242	3.31
401.605	3.54
401.969	3.36
402.333	3.46
402.697	2.97
403.06	3.08
403.424	3.51
403.787	2.95
404.151	3.51
404.514	2.84
404.878	3.29
405.241	3.39
405.604	3.22
405.968	3.15
406.331	3.24
406.694	3.47
407.057	3.06
407.42	3.2
407.783	3.28
408.146	3.44
408.509	3.29
408.872	3.42
409.235	3.21
409.598	3.28
409.961	2.95
410.323	3.29
410.686	3.43
411.049	3.23
411.411	3.57
411.774	3.3
412.136	3.25
412.499	3.5
412.861	3.37
413.223	3.61
413.586	3.22
413.948	3.22
414.31	3.65
414.672	3.3
415.035	3.32
415.397	3.38
415.759	3.1
416.121	3.25
416.483	3.44
416.845	3.25
417.206	3.4
417.568	3.17
417.93	3.5
418.292	3.43
418.653	3.32
419.015	3.41
419.377	3.31
419.738	3.21
420.1	3.29
420.461	3.42
420.822	3.45
421.184	3.32
421.545	3.49
421.906	3.33
422.267	3.3
422.629	3.4
422.99	3.34
423.351	3.33
423.712	3.35
424.073	3.42
424.434	3.26
424.795	3.42
425.155	3.21
425.516	3.21
425.877	3.35
426.238	3.28
426.598	3.25
426.959	3.3
427.32	3.34
427.68	3.41
428.041	3.41
428.401	3.38
428.761	3.29
429.122	3.52
429.482	3.72
429.842	3.45
430.202	3.27
430.563	3.53
430.923	3.39
431.283	3.33
431.643	3.4
432.003	3.24
432.363	3.56
432.722	3.32
433.082	3.46
433.442	3.43
433.802	3.42
434.161	3.57
434.521	3.48
434.881	3.42
435.24	3.49
435.6	3.41
435.959	3.43
436.319	3.55
436.678	3.55
437.037	3.45
437.396	3.5
437.756	3.56
438.115	3.64
438.474	3.44
438.833	3.53
439.192	3.49
439.551	3.42
439.91	3.25
440.269	3.46
440.628	3.41
440.987	3.36
441.345	3.54
441.704	3.46
442.063	3.38
442.421	3.43
442.78	3.38
443.138	3.45
443.497	3.5
443.855	3.48
444.214	3.55
444.572	3.49
444.93	3.52
445.288	3.25
445.647	3.43
446.005	3.42
446.363	3.3
446.721	3.27
447.079	3.35
447.437	3.38
447.795	3.52
448.153	3.35
448.51	3.4
448.868	3.45
449.226	3.47
449.584	3.39
449.941	3.44
450.299	3.45
450.656	3.45
451.014	3.51
451.371	3.56
451.729	3.53
452.086	3.56
452.443	3.66
452.801	3.51
453.158	3.59
453.515	3.62
453.872	3.51
454.229	3.57
454.586	3.37
454.943	3.45
455.3	3.58
455.657	3.55
456.014	3.62
456.371	3.56
456.727	3.47
457.084	3.61
457.441	3.46
457.797	3.45
458.154	3.55
458.51	3.44
458.867	3.63
459.223	3.49
459.58	3.5
459.936	3.37
460.292	3.71
460.648	3.52
461.005	3.42
461.361	3.39
461.717	3.5
462.073	3.51
462.429	3.51
462.785	3.53
463.141	3.61
463.496	3.45
463.852	3.75
464.208	3.72
464.564	3.73
464.919	3.63
465.275	3.71
465.631	3.6
465.986	3.57
466.342	3.44
466.697	3.7
467.052	3.81
467.408	3.7
467.763	3.54
468.118	3.56
468.473	3.74
468.829	3.56
469.184	3.42
469.539	3.65
469.894	3.58
470.249	3.68
470.603	3.57
470.958	3.74
471.313	4.03
471.668	3.74
472.023	3.79
472.377	3.77
472.732	3.54
473.086	3.66
473.441	3.68
473.795	3.71
474.15	3.79
474.504	3.59
474.859	3.66
475.213	3.62
475.567	3.49
475.921	3.63
476.275	3.52
476.63	3.73
476.984	3.69
477.338	3.64
477.692	3.72
478.045	3.76
478.399	3.63
478.753	3.62
479.107	3.6
479.461	3.67
479.814	3.65
480.168	3.5
480.521	3.56
480.875	3.89
481.228	3.75
481.582	3.64
481.935	3.76
482.289	3.78
482.642	3.79
482.995	3.55
483.348	3.62
483.701	3.9
484.055	3.6
484.408	3.69
484.761	3.62
485.114	3.47
485.466	3.46
485.819	3.46
486.172	3.44
486.525	3.49
486.878	3.52
487.23	3.55
487.583	3.55
487.936	3.59
488.288	3.61
488.641	3.53
488.993	3.55
489.345	3.52
489.698	3.51
490.05	3.51
490.402	3.61
490.754	3.57
491.107	3.62
491.459	3.67
491.811	3.63
492.163	3.62
492.515	3.75
492.866	3.57
493.218	3.52
493.57	3.6
493.922	3.55
494.274	3.66
494.625	3.69
494.977	3.74
495.328	3.71
495.68	3.71
496.031	3.91
496.383	3.76
496.734	3.79
497.086	3.59
497.437	3.85
497.788	3.8
498.139	3.63
498.49	3.79
498.842	3.65
499.193	3.69
499.544	3.77
499.894	3.76
500.245	3.79
500.596	3.79
500.947	3.77
501.298	3.79
501.648	3.89
501.999	3.78
502.35	3.84
502.7	3.78
503.051	3.73
503.401	3.79
503.752	3.98
504.102	3.8
504.452	3.83
504.803	3.82
505.153	3.84
505.503	3.86
505.853	3.97
506.203	3.9
506.553	3.84
506.903	3.96
507.253	3.95
507.603	3.94
507.953	3.85
508.303	3.83
508.652	3.82
509.002	3.93
509.352	3.84
509.701	3.82
510.051	3.87
510.4	3.83
510.75	3.72
511.099	3.7
511.449	3.88
511.798	3.73
512.147	3.77
512.496	3.9
512.846	3.83
513.195	3.71
513.544	3.95
513.893	3.86
514.242	3.74
514.591	3.79
514.939	3.86
515.288	3.83
515.637	3.69
515.986	3.86
516.334	3.93
516.683	3.82
517.032	3.95
517.38	3.83
517.729	3.81
518.077	3.81
518.426	3.92
518.774	3.9
519.122	3.86
519.47	3.87
519.819	3.86
520.167	3.8
520.515	3.68
520.863	3.88
521.211	3.71
521.559	3.9
521.907	3.89
522.255	3.92
522.602	3.89
522.95	3.9
523.298	3.89
523.645	4.03
523.993	4.01
524.341	3.96
524.688	3.93
525.036	3.93
525.383	3.86
525.73	3.82
526.078	3.85
526.425	3.81
526.772	3.75
527.119	3.84
527.466	3.81
527.814	3.77
528.161	3.86
528.508	3.86
528.854	3.82
529.201	3.81
529.548	3.88
529.895	3.71
530.242	3.68
530.588	3.65
530.935	3.73
531.282	3.76
531.628	3.8
531.975	3.77
532.321	3.73
532.667	3.84
533.014	3.73
533.36	3.85
533.706	3.84
534.052	3.84
534.399	3.81
534.745	3.82
535.091	3.81
535.437	3.83
535.783	3.77
536.129	3.85
536.474	3.86
536.82	3.95
537.166	3.98
537.512	3.95
537.857	3.87
538.203	3.93
538.549	3.87
538.894	3.91
539.239	3.9
539.585	3.97
539.93	3.95
540.276	3.97
540.621	3.95
540.966	3.97
541.311	4.01
541.656	3.98
542.001	3.95
542.346	4
542.691	3.89
543.036	3.77
543.381	3.75
543.726	3.81
544.071	3.79
544.415	3.82
544.76	3.89
545.105	3.94
545.449	3.94
545.794	4.01
546.138	3.86
546.483	3.86
546.827	4.07
547.171	3.96
547.516	3.93
547.86	3.94
548.204	3.98
548.548	3.96
548.892	3.94
549.236	4
549.58	4.1
549.924	4.06
550.268	4.15
550.612	4
550.956	3.98
551.3	4.15
551.643	4.04
551.987	4.1
552.33	4.21
552.674	4.29
553.017	4.23
553.361	4.18
553.704	3.94
554.048	4.11
554.391	4.01
554.734	4.13
555.077	4.16
555.42	4.07
555.764	4.12
556.107	4.17
556.45	4.02
556.793	4.04
557.135	4.06
557.478	4.15
557.821	4.15
558.164	4.05
558.507	4.28
558.849	4.25
559.192	4.12
559.534	4.11
559.877	4.2
560.219	4.22
560.562	4.1
560.904	4.2
561.246	4.14
561.589	4.33
561.931	4.19
562.273	4.06
562.615	3.97
562.957	4.11
563.299	4.12
563.641	4.19
563.983	4.31
564.325	4.31
564.667	4.07
565.008	4.06
565.35	4.23
565.692	4.23
566.033	4.26
566.375	4.01
566.716	4.01
567.058	4.32
567.399	4.38
567.741	4.16
568.082	4.11
568.423	4.21
568.764	4.17
569.105	4.04
569.447	4.36
569.788	4.18
570.129	4.13
570.47	4.3
570.811	4.26
571.151	4.15
571.492	4.37
571.833	4.13
572.174	4.23
572.514	4.26
572.855	4.28
573.195	3.91
573.536	4.08
573.876	4.24
574.217	4.3
574.557	4.12
574.898	4.08
575.238	4.39
575.578	4.22
575.918	4.09
576.258	4.42
576.598	4.21
576.938	4.19
577.278	4.13
577.618	4.32
577.958	4.22
578.298	4.33
578.638	4.23
578.977	4.26
579.317	4.18
579.657	4.3
579.996	4.41
580.336	4.37
580.675	4.31
581.014	4.36
581.354	4.24
581.693	4.11
582.032	4.12
582.372	4.34
582.711	4.23
583.05	4.4
583.389	4.36
583.728	4.31
584.067	4.46
584.406	4.52
584.745	4.48
585.083	4.17
585.422	4.46
585.761	4.51
586.1	4.26
586.438	4.31
586.777	4.42
587.115	4.29
587.454	4.19
587.792	4.3
588.13	4.46
588.469	4.44
588.807	4.11
589.145	4.28
589.483	4.36
589.821	4.65
590.159	4.46
590.497	4.36
590.835	4.18
591.173	4.35
591.511	4.27
591.849	4.37
592.187	4.32
592.524	3.96
592.862	4.32
593.2	4.17
593.537	4.07
593.875	4.73
594.212	4.61
594.55	4.48
594.887	4.74
595.224	4.29
595.561	4.43
595.899	4.19
596.236	4.36
596.573	4.2
596.91	4.55
597.247	4.33
597.584	4.73
597.921	4.51
598.258	4.36
598.594	4.43
598.931	4.55
599.268	4.31
599.604	4.16
599.941	4.47
600.277	4.39
600.614	4.44
600.95	4.58
601.287	4.54
601.623	4.34
601.959	4.54
602.296	4.73
602.632	4.39
602.968	4.58
603.304	4.25
603.64	4.4
603.976	4.17
604.312	4.42
604.648	4.6
604.984	4.36
605.319	4.15
605.655	4.39
605.991	4.55
606.326	4.23
606.662	4.36
606.998	4.35
607.333	4.52
607.668	4.34
608.004	4.47
608.339	4.4
608.674	4.57
609.01	4.21
609.345	4.65
609.68	4.49
610.015	4.15
610.35	4.48
610.685	4.55
611.02	4.5
611.355	4.31
611.689	4.04
612.024	4.42
612.359	4.52
612.694	4.3
613.028	4.51
613.363	4.44
613.697	4.63
614.032	4.57
614.366	4.73
614.7	4.41
615.035	4.48
615.369	4.52
615.703	4.24
616.037	4.42
616.371	4.29
616.705	4.37
617.039	4.54
617.373	4.49
617.707	4.33
618.041	4.58
618.375	4.33
618.709	4.49
619.042	4.44
619.376	4.89
619.71	4.52
620.043	4.5
620.377	4.47
620.71	4.4
621.043	4.1
621.377	4.4
621.71	4.72
622.043	4.76
622.376	4.85
622.709	4.63
623.043	4.51
623.376	4.96
623.709	4.9
624.041	4.85
624.374	4.5
624.707	4.35
625.04	4.67
625.373	4.64
625.705	4.74
626.038	4.58
626.37	4.68
626.703	4.73
627.035	4.64
627.368	4.56
627.7	4.34
628.032	4.86
628.365	4.71
628.697	4.6
629.029	4.43
629.361	4.48
629.693	4.57
630.025	4.61
630.357	4.77
630.689	4.43
631.021	4.81
631.353	5.02
631.684	4.7
632.016	4.34
632.348	4.89
632.679	4.2
633.011	5.29
633.342	4.82
633.674	4.42
634.005	4.4
634.336	4.88
634.668	4.49
634.999	4.47
635.33	4.77
635.661	4.98
635.992	4.58
636.323	4.46
636.654	4.42
636.985	4.48
637.316	4.33
637.647	4.76
637.977	4.77
638.308	4.84
638.639	4.33
638.969	4.84
639.3	4.3
639.63	5.05
639.961	4.93
640.291	4.67
640.622	4.73
640.952	5.16
641.282	4.67
641.612	4.77
641.943	4.61
642.273	4.92
642.603	5.12
642.933	4.77
643.263	4.96
643.592	5.15
643.922	5.26
644.252	4.96
644.582	4.33
644.911	4.61
645.241	4.55
645.571	4.8
645.9	4.43
646.23	4.6
646.559	5.02
646.888	4.75
647.218	4.84
647.547	4.86
647.876	4.85
648.205	4.68
648.534	5.17
648.863	4.51
649.192	5.15
649.521	5.26
649.85	4.59
650.179	5.16
650.508	5.23
650.837	4.46
651.165	4.52
651.494	4.87
651.822	4.96
652.151	4.96
652.479	5.41
652.808	4.96
653.136	4.83
653.465	4.72
653.793	4.97
654.121	5.23
654.449	5.19
654.777	4.69
655.105	5.17
655.433	5.16
655.761	4.94
656.089	4.56
656.417	5.24
656.745	4.66
657.073	4.44
657.4	5.3
657.728	4.6
658.056	4.51
658.383	4.47
658.711	5.1
659.038	5.08
659.365	5.08
659.693	4.86
660.02	4.68
660.347	5.1
660.674	4.73
661.001	4.95
661.329	5.21
661.656	4.66
661.982	4.74
662.309	5.03
662.636	4.94
662.963	5.28
663.29	5.35
663.616	4.89
663.943	5.18
664.27	5.43
664.596	5.55
664.923	5.82
665.249	4.69
665.576	4.86
665.902	4.81
666.228	5.07
666.554	4.77
666.881	4.49
667.207	5.52
667.533	4.73
667.859	4.64
668.185	5.34
668.511	5.17
668.837	4.62
669.162	5.54
669.488	4.85
669.814	5.1
670.139	5.15
670.465	4.54
670.791	4.91
671.116	4.7
671.442	4.83
671.767	4.87
672.092	5.26
672.418	4.96
672.743	4.85
673.068	4.61
673.393	5.25
673.718	5.2
674.043	5.25
674.368	4.14
674.693	4.61
675.018	5.16
675.343	4.62
675.667	5.22
675.992	5.48
676.317	5.39
676.641	5.44
676.966	4.62
677.29	5.32
677.615	5.01
677.939	5
678.264	5.91
678.588	5.22
678.912	4.8
679.236	5.05
679.56	4.72
679.885	5.15
680.209	5.33
680.532	5.4
680.856	4.27
681.18	5.08
681.504	4.8
681.828	5.19
682.152	4.95
682.475	5.47
682.799	4.95
683.122	5.26
683.446	5.3
683.769	6.09
684.093	5.21
684.416	5.28
684.739	5.67
685.062	5.3
685.386	5.81
685.709	5.38
686.032	5.34
686.355	4.85
686.678	5.46
687.001	5.19
687.324	4.92
687.646	5.11
687.969	4.79
688.292	4.85
688.614	4.92
688.937	5.39
689.26	4.79
689.582	4.87
689.904	4.96
690.227	5.07
690.549	5.26
690.871	4.89
691.194	5.99
691.516	5.22
691.838	4.99
692.16	4.89
692.482	5.61
692.804	4.88
