Data from 431_crown_Reflection__4__131.txt Node

Date: Tue Dec 12 19:27:59 CST 2023
User: ToomeyLab
Spectrometer: FLMS14357
Trigger mode: 0
Integration Time (sec): 1.000000E-2
Scans to average: 100
Electric dark correction enabled: true
Nonlinearity correction enabled: false
Boxcar width: 0
XAxis mode: Wavelengths
Number of Pixels in Spectrum: 2048
>>>>>Begin Spectral Data<<<<<
189.047	64.18
189.435	64.18
189.823	64.18
190.211	-37.29
190.599	107.55
190.987	9.74
191.375	2992.11
191.763	-19.32
192.151	73.04
192.538	157.72
192.926	47.71
193.314	28.51
193.702	183.57
194.089	-15.06
194.477	191.51
194.864	-176.54
195.252	-64.26
195.639	248.97
196.027	33.37
196.414	-132.89
196.801	-21.59
197.189	175.18
197.576	-57.7
197.963	56.74
198.351	7.63
198.738	34.98
199.125	24.16
199.512	-12.79
199.899	-5.34
200.286	3.51
200.673	4.62
201.06	-14.73
201.447	-66.85
201.833	-10.73
202.22	-32.63
202.607	-124.93
202.994	2.02
203.38	43.82
203.767	-7.55
204.154	3.37
204.54	52.59
204.927	12.45
205.313	4.45
205.699	-18.07
206.086	22.62
206.472	9.43
206.858	-23.2
207.245	8.61
207.631	11.68
208.017	49.19
208.403	-10.22
208.789	36.2
209.175	-12.52
209.561	8.38
209.947	-62.91
210.333	44.43
210.719	-22.17
211.105	-24.8
211.491	41.33
211.876	35.21
212.262	24.5
212.648	-23.93
213.034	-219.03
213.419	-11.67
213.805	-33.16
214.19	21.67
214.576	-1.68
214.961	30.94
215.346	-25.62
215.732	1.04
216.117	9.88
216.502	-23.82
216.888	-37.37
217.273	-41.12
217.658	-25.19
218.043	7.51
218.428	31.82
218.813	9.34
219.198	-57.36
219.583	28.68
219.968	18.02
220.353	-8.93
220.738	10.32
221.122	-10.24
221.507	-5.39
221.892	-8.33
222.276	-1.73
222.661	7.03
223.046	-9.4
223.43	0.99
223.815	-1.8
224.199	4.91
224.583	-5.48
224.968	-1.29
225.352	-15.32
225.736	13.91
226.121	1.91
226.505	0.64
226.889	7.32
227.273	5.97
227.657	10.64
228.041	2.38
228.425	-0.28
228.809	-0.34
229.193	1.88
229.577	5.78
229.961	3.05
230.344	4.77
230.728	5.14
231.112	4.3
231.495	3.75
231.879	4.35
232.263	2.88
232.646	2.9
233.03	2.83
233.413	3.35
233.797	4.17
234.18	3.31
234.563	1.64
234.946	4.04
235.33	4.83
235.713	4.01
236.096	3.27
236.479	4.2
236.862	3.81
237.245	4.15
237.628	2.88
238.011	4.68
238.394	2.81
238.777	4.42
239.16	4.83
239.543	3.37
239.925	4.72
240.308	3.7
240.691	2.35
241.073	5.14
241.456	5.02
241.838	4.29
242.221	5.23
242.603	4.75
242.986	3.6
243.368	4.56
243.75	4.03
244.133	4.02
244.515	4.29
244.897	4.85
245.279	4.9
245.661	3.28
246.043	4.44
246.425	5.43
246.807	4.58
247.189	4.08
247.571	4.14
247.953	3.82
248.335	4.31
248.717	4.32
249.098	4.13
249.48	3.81
249.862	4
250.243	3.87
250.625	4.56
251.006	3.71
251.388	4.15
251.769	3.7
252.151	3.83
252.532	4.61
252.913	3.91
253.295	5
253.676	3.44
254.057	4.17
254.438	4.14
254.819	3.29
255.2	3.54
255.581	3.78
255.962	3.56
256.343	3.05
256.724	4.03
257.105	4.3
257.486	3.12
257.867	3.56
258.247	5.06
258.628	4.56
259.009	3.49
259.389	4.1
259.77	4.09
260.15	3.7
260.531	4.56
260.911	4.25
261.292	3.73
261.672	3.75
262.052	3.81
262.432	4.11
262.813	4.21
263.193	3.83
263.573	4.17
263.953	4.42
264.333	4.39
264.713	4.16
265.093	3.69
265.473	3.86
265.853	3.18
266.233	3.66
266.612	2.75
266.992	2.89
267.372	4.17
267.752	4.37
268.131	3.11
268.511	3.38
268.89	3.25
269.27	3.2
269.649	3.71
270.029	3.34
270.408	3.73
270.787	3.82
271.167	3.85
271.546	3.7
271.925	4.33
272.304	3.92
272.683	3.1
273.062	3.54
273.441	3.8
273.82	3.48
274.199	3.42
274.578	3.63
274.957	3.68
275.336	3.58
275.715	3.79
276.093	3.04
276.472	4.17
276.851	3.91
277.229	2.96
277.608	3.39
277.986	3.07
278.365	3.51
278.743	3.41
279.122	3.94
279.5	3.33
279.878	3.03
280.257	3.78
280.635	3.6
281.013	3.35
281.391	3.48
281.769	3.19
282.147	3.18
282.525	3.56
282.903	3.43
283.281	3.18
283.659	3.66
284.037	3.59
284.415	3.11
284.792	3.55
285.17	3.09
285.548	3.25
285.925	3.23
286.303	3.09
286.68	3.64
287.058	3.61
287.435	3.12
287.813	3.01
288.19	3.6
288.567	3.31
288.945	3.18
289.322	3.05
289.699	3.47
290.076	3.36
290.453	3.3
290.83	3.74
291.207	3.8
291.584	3.27
291.961	3.04
292.338	3.23
292.715	3.41
293.092	3.09
293.469	3.22
293.845	3.65
294.222	3.6
294.599	3.55
294.975	3.22
295.352	3.64
295.728	3.55
296.105	3.02
296.481	3.67
296.858	3.21
297.234	3.84
297.61	3.44
297.986	3.81
298.363	3.33
298.739	3.43
299.115	3.24
299.491	3.46
299.867	3.14
300.243	3.36
300.619	3.53
300.995	3.67
301.371	3.46
301.746	3.36
302.122	4.09
302.498	4.02
302.874	4.19
303.249	4.06
303.625	2.85
304	3.38
304.376	3.67
304.751	4.01
305.127	3.69
305.502	3.79
305.878	3.28
306.253	3.87
306.628	3.18
307.003	3.5
307.378	4.02
307.754	3.4
308.129	3.18
308.504	4.08
308.879	3.84
309.254	3.97
309.629	3.32
310.003	3.47
310.378	3.52
310.753	3.89
311.128	3.91
311.502	3.1
311.877	3.09
312.252	2.87
312.626	3.47
313.001	3.4
313.375	3.36
313.75	3.58
314.124	3.54
314.498	3.63
314.873	3.65
315.247	4.1
315.621	3.57
315.995	3.51
316.369	4.03
316.743	3.36
317.117	2.9
317.491	3.5
317.865	3.17
318.239	3.72
318.613	4.25
318.987	3.79
319.361	2.92
319.734	3.82
320.108	3.18
320.482	3.56
320.855	3.19
321.229	3.73
321.602	4.07
321.976	3.53
322.349	3.98
322.723	3.61
323.096	3.36
323.469	3.29
323.843	3.74
324.216	3.74
324.589	3.75
324.962	3.5
325.335	4.17
325.708	3.52
326.081	4.21
326.454	3.69
326.827	4.26
327.2	3.98
327.573	3.31
327.945	3.55
328.318	3.94
328.691	3.24
329.063	3.69
329.436	3.79
329.809	3.59
330.181	3.18
330.553	3.63
330.926	4.03
331.298	3.67
331.671	3.77
332.043	3.88
332.415	3.74
332.787	3.6
333.159	4.13
333.532	3.89
333.904	3.58
334.276	4.48
334.648	2.99
335.02	3.24
335.391	2.99
335.763	3.89
336.135	3.9
336.507	3.89
336.879	3.49
337.25	3.83
337.622	3.76
337.993	3.38
338.365	3.34
338.736	3.46
339.108	3.36
339.479	3.89
339.851	3.22
340.222	3.21
340.593	3.8
340.964	3.85
341.336	3.76
341.707	3.42
342.078	2.8
342.449	3.36
342.82	4.27
343.191	4.05
343.562	4.09
343.933	4.27
344.303	3.55
344.674	3.94
345.045	3.56
345.416	3.82
345.786	3.59
346.157	3.63
346.527	4.03
346.898	3.47
347.268	3.59
347.639	3.71
348.009	3.31
348.38	3.33
348.75	4.01
349.12	4.05
349.49	3.53
349.861	3.75
350.231	3.41
350.601	4.03
350.971	3.88
351.341	3.71
351.711	3.82
352.081	3.89
352.45	3.92
352.82	3.83
353.19	3.67
353.56	3.48
353.929	3.37
354.299	3.42
354.669	3.91
355.038	3.29
355.408	3.69
355.777	3.93
356.147	3.28
356.516	3.98
356.885	4.33
357.254	3.41
357.624	3.58
357.993	3.75
358.362	4.02
358.731	3.77
359.1	3.21
359.469	3.53
359.838	3.87
360.207	3.52
360.576	4.11
360.945	3.64
361.314	3.77
361.682	3.85
362.051	3.71
362.42	3.84
362.788	3.82
363.157	3.99
363.525	3.86
363.894	3.54
364.262	3.88
364.631	3.64
364.999	3.68
365.367	3.96
365.735	3.57
366.104	3.78
366.472	3.66
366.84	3.7
367.208	4.01
367.576	3.76
367.944	4.03
368.312	3.93
368.68	3.67
369.048	3.73
369.416	4.07
369.783	3.56
370.151	4.04
370.519	3.75
370.886	3.72
371.254	3.84
371.621	3.87
371.989	3.96
372.356	3.88
372.724	4.05
373.091	4.09
373.458	4.18
373.826	3.94
374.193	3.53
374.56	4.3
374.927	3.96
375.294	3.82
375.661	3.78
376.028	3.69
376.395	4
376.762	4.06
377.129	3.87
377.496	3.81
377.863	3.55
378.229	3.74
378.596	3.13
378.963	3.97
379.329	3.8
379.696	3.64
380.062	4.29
380.429	4.16
380.795	4.14
381.161	4.07
381.528	4.2
381.894	3.96
382.26	3.74
382.626	3.75
382.993	4.02
383.359	3.97
383.725	3.97
384.091	3.81
384.457	4.06
384.823	3.81
385.188	4.07
385.554	3.74
385.92	3.83
386.286	4
386.651	4.04
387.017	4.01
387.383	3.9
387.748	3.95
388.114	4.23
388.479	3.89
388.845	3.82
389.21	3.73
389.575	4.03
389.94	3.96
390.306	4.2
390.671	4.25
391.036	4.15
391.401	3.98
391.766	4.05
392.131	4.02
392.496	3.81
392.861	3.93
393.226	4.26
393.591	4.23
393.956	3.82
394.32	4.17
394.685	4.19
395.05	4.02
395.414	4.03
395.779	4.17
396.143	4.26
396.508	3.92
396.872	4.01
397.236	4.09
397.601	4.05
397.965	4.27
398.329	3.94
398.694	3.82
399.058	4.07
399.422	3.88
399.786	4.16
400.15	4.02
400.514	4.3
400.878	4.11
401.242	3.78
401.605	4.11
401.969	3.99
402.333	4.15
402.697	4.32
403.06	3.85
403.424	4.12
403.787	3.79
404.151	4.13
404.514	3.67
404.878	4.16
405.241	4.05
405.604	4.05
405.968	4.08
406.331	4.32
406.694	4.2
407.057	4.03
407.42	4.16
407.783	4.08
408.146	4.18
408.509	4.14
408.872	4.4
409.235	4.01
409.598	4.18
409.961	4.35
410.323	4.41
410.686	4.27
411.049	4.38
411.411	4.22
411.774	4.38
412.136	4.35
412.499	4.18
412.861	4
413.223	4.48
413.586	4.17
413.948	4.1
414.31	4.42
414.672	4.3
415.035	4.32
415.397	4.2
415.759	4.34
416.121	4.24
416.483	4.34
416.845	4.15
417.206	4.37
417.568	4.2
417.93	4.25
418.292	4.29
418.653	4.29
419.015	4.27
419.377	4.37
419.738	4.13
420.1	4.09
420.461	4.16
420.822	4.25
421.184	4.08
421.545	4.31
421.906	4.26
422.267	4.31
422.629	4.19
422.99	4.23
423.351	4.23
423.712	4.12
424.073	4.16
424.434	4.26
424.795	4.23
425.155	4
425.516	4.24
425.877	4.19
426.238	4.23
426.598	4.25
426.959	4.24
427.32	4.25
427.68	4.27
428.041	4.43
428.401	4.31
428.761	4.19
429.122	4.31
429.482	4.41
429.842	4.34
430.202	4.15
430.563	4.41
430.923	4.27
431.283	4.36
431.643	4.35
432.003	4.22
432.363	4.43
432.722	4.25
433.082	4.33
433.442	4.39
433.802	4.49
434.161	4.34
434.521	4.46
434.881	4.41
435.24	4.34
435.6	4.35
435.959	4.46
436.319	4.49
436.678	4.52
437.037	4.38
437.396	4.26
437.756	4.51
438.115	4.55
438.474	4.38
438.833	4.54
439.192	4.48
439.551	4.37
439.91	4.24
440.269	4.38
440.628	4.36
440.987	4.28
441.345	4.51
441.704	4.37
442.063	4.52
442.421	4.45
442.78	4.4
443.138	4.24
443.497	4.49
443.855	4.48
444.214	4.39
444.572	4.45
444.93	4.54
445.288	4.34
445.647	4.63
446.005	4.52
446.363	4.25
446.721	4.44
447.079	4.5
447.437	4.45
447.795	4.43
448.153	4.41
448.51	4.43
448.868	4.41
449.226	4.49
449.584	4.47
449.941	4.39
450.299	4.53
450.656	4.38
451.014	4.5
451.371	4.55
451.729	4.51
452.086	4.58
452.443	4.57
452.801	4.65
453.158	4.45
453.515	4.57
453.872	4.58
454.229	4.63
454.586	4.54
454.943	4.52
455.3	4.46
455.657	4.54
456.014	4.8
456.371	4.57
456.727	4.66
457.084	4.41
457.441	4.72
457.797	4.7
458.154	4.45
458.51	4.43
458.867	4.76
459.223	4.58
459.58	4.6
459.936	4.48
460.292	4.67
460.648	4.54
461.005	4.66
461.361	4.5
461.717	4.59
462.073	4.55
462.429	4.45
462.785	4.61
463.141	4.69
463.496	4.51
463.852	4.78
464.208	4.74
464.564	4.7
464.919	4.6
465.275	4.6
465.631	4.77
465.986	4.59
466.342	4.45
466.697	4.62
467.052	4.98
467.408	4.79
467.763	4.76
468.118	4.74
468.473	4.87
468.829	4.78
469.184	4.58
469.539	4.8
469.894	4.77
470.249	4.74
470.603	4.73
470.958	4.86
471.313	4.94
471.668	4.97
472.023	4.77
472.377	4.7
472.732	4.76
473.086	4.73
473.441	4.87
473.795	4.69
474.15	4.79
474.504	4.78
474.859	4.87
475.213	4.58
475.567	4.74
475.921	4.94
476.275	4.65
476.63	4.83
476.984	4.71
477.338	4.78
477.692	4.83
478.045	4.81
478.399	4.63
478.753	4.74
479.107	4.8
479.461	4.74
479.814	4.92
480.168	4.74
480.521	4.74
480.875	4.86
481.228	4.9
481.582	4.72
481.935	4.81
482.289	4.77
482.642	4.87
482.995	4.64
483.348	4.73
483.701	4.9
484.055	4.76
484.408	4.64
484.761	4.71
485.114	4.74
485.466	4.56
485.819	4.52
486.172	4.53
486.525	4.59
486.878	4.64
487.23	4.6
487.583	4.66
487.936	4.75
488.288	4.68
488.641	4.7
488.993	4.68
489.345	4.66
489.698	4.66
490.05	4.65
490.402	4.72
490.754	4.68
491.107	4.77
491.459	4.8
491.811	4.92
492.163	4.74
492.515	4.88
492.866	4.75
493.218	4.7
493.57	4.68
493.922	4.63
494.274	4.75
494.625	4.84
494.977	4.94
495.328	4.99
495.68	4.94
496.031	5.04
496.383	4.98
496.734	4.92
497.086	4.85
497.437	4.95
497.788	4.97
498.139	4.93
498.49	4.99
498.842	4.9
499.193	4.95
499.544	4.88
499.894	4.94
500.245	5.02
500.596	4.97
500.947	4.95
501.298	5.03
501.648	5.03
501.999	5
502.35	4.98
502.7	5.09
503.051	5
503.401	5
503.752	5.21
504.102	5.05
504.452	5.16
504.803	4.97
505.153	5
505.503	5.09
505.853	5.1
506.203	5
506.553	5
506.903	5.14
507.253	5.04
507.603	5.04
507.953	5.02
508.303	5.17
508.652	4.98
509.002	5.09
509.352	5.25
509.701	5.03
510.051	5.02
510.4	4.89
510.75	4.94
511.099	4.93
511.449	5.04
511.798	5.01
512.147	5.02
512.496	5.16
512.846	5.03
513.195	4.89
513.544	5.21
513.893	5.08
514.242	5.04
514.591	5.07
514.939	5.1
515.288	5.02
515.637	5.08
515.986	5.2
516.334	5.25
516.683	5.04
517.032	5.25
517.38	5
517.729	5.18
518.077	5.19
518.426	5.21
518.774	5.12
519.122	5.15
519.47	5.13
519.819	5.07
520.167	5.04
520.515	4.97
520.863	5.08
521.211	5.03
521.559	5.11
521.907	5.04
522.255	5.11
522.602	5.22
522.95	5.15
523.298	5.1
523.645	5.27
523.993	5.27
524.341	5.17
524.688	5.22
525.036	5.25
525.383	5.21
525.73	5.14
526.078	5.15
526.425	5.14
526.772	5.15
527.119	5.21
527.466	5.17
527.814	5.07
528.161	5.15
528.508	5.16
528.854	5.14
529.201	5.14
529.548	5.18
529.895	5.07
530.242	4.97
530.588	4.94
530.935	4.98
531.282	5.01
531.628	5.05
531.975	5.04
532.321	5.03
532.667	5.09
533.014	5.15
533.36	5.19
533.706	5.15
534.052	5.04
534.399	5.19
534.745	5.09
535.091	5
535.437	5.1
535.783	5.06
536.129	5.19
536.474	5.14
536.82	5.09
537.166	5.29
537.512	5.24
537.857	5.36
538.203	5.24
538.549	5.21
538.894	5.24
539.239	5.27
539.585	5.24
539.93	5.25
540.276	5.24
540.621	5.31
540.966	5.28
541.311	5.3
541.656	5.15
542.001	5.35
542.346	5.22
542.691	5.23
543.036	5.09
543.381	5.07
543.726	5.14
544.071	5.09
544.415	5.14
544.76	5.24
545.105	5.21
545.449	5.23
545.794	5.31
546.138	5.23
546.483	5.35
546.827	5.43
547.171	5.35
547.516	5.26
547.86	5.36
548.204	5.39
548.548	5.3
548.892	5.32
549.236	5.34
549.58	5.39
549.924	5.31
550.268	5.46
550.612	5.24
550.956	5.52
551.3	5.51
551.643	5.59
551.987	5.56
552.33	5.52
552.674	5.41
553.017	5.39
553.361	5.57
553.704	5.38
554.048	5.59
554.391	5.58
554.734	5.45
555.077	5.42
555.42	5.43
555.764	5.5
556.107	5.48
556.45	5.39
556.793	5.38
557.135	5.43
557.478	5.61
557.821	5.34
558.164	5.53
558.507	5.61
558.849	5.52
559.192	5.61
559.534	5.44
559.877	5.52
560.219	5.66
560.562	5.55
560.904	5.63
561.246	5.56
561.589	5.51
561.931	5.53
562.273	5.42
562.615	5.36
562.957	5.66
563.299	5.59
563.641	5.65
563.983	5.55
564.325	5.53
564.667	5.66
565.008	5.47
565.35	5.43
565.692	5.72
566.033	5.66
566.375	5.4
566.716	5.47
567.058	5.61
567.399	5.46
567.741	5.5
568.082	5.51
568.423	5.58
568.764	5.66
569.105	5.36
569.447	5.54
569.788	5.45
570.129	5.55
570.47	5.52
570.811	5.53
571.151	5.66
571.492	5.79
571.833	5.63
572.174	5.63
572.514	5.55
572.855	5.58
573.195	5.48
573.536	5.31
573.876	5.51
574.217	5.66
574.557	5.45
574.898	5.68
575.238	5.66
575.578	5.55
575.918	5.64
576.258	5.53
576.598	5.55
576.938	5.72
577.278	5.56
577.618	5.74
577.958	5.68
578.298	5.54
578.638	5.63
578.977	5.54
579.317	5.75
579.657	5.65
579.996	5.75
580.336	5.61
580.675	5.74
581.014	5.79
581.354	5.75
581.693	5.63
582.032	5.64
582.372	5.68
582.711	5.76
583.05	5.74
583.389	5.72
583.728	5.82
584.067	5.82
584.406	5.97
584.745	5.68
585.083	5.75
585.422	5.88
585.761	5.76
586.1	5.54
586.438	5.97
586.777	5.98
587.115	5.81
587.454	5.91
587.792	5.36
588.13	5.85
588.469	5.78
588.807	5.55
589.145	5.79
589.483	5.68
589.821	5.83
590.159	5.93
590.497	5.74
590.835	5.62
591.173	5.75
591.511	5.93
591.849	5.72
592.187	5.64
592.524	5.58
592.862	5.63
593.2	5.55
593.537	5.43
593.875	5.78
594.212	5.76
594.55	5.93
594.887	5.9
595.224	5.59
595.561	6.04
595.899	5.69
596.236	5.67
596.573	5.67
596.91	5.92
597.247	5.78
597.584	5.94
597.921	5.88
598.258	5.87
598.594	5.88
598.931	5.87
599.268	5.57
599.604	5.78
599.941	5.75
600.277	5.75
600.614	5.99
600.95	6.04
601.287	5.63
601.623	6.07
601.959	5.73
602.296	5.78
602.632	5.65
602.968	6
603.304	5.85
603.64	6.05
603.976	5.93
604.312	5.64
604.648	5.84
604.984	5.75
605.319	5.78
605.655	5.78
605.991	5.85
606.326	5.82
606.662	5.91
606.998	5.66
607.333	5.86
607.668	5.76
608.004	6.02
608.339	6.01
608.674	5.98
609.01	5.93
609.345	5.78
609.68	6.1
610.015	5.84
610.35	5.94
610.685	6.13
611.02	5.72
611.355	5.82
611.689	5.71
612.024	5.73
612.359	5.95
612.694	5.96
613.028	6.07
613.363	5.72
613.697	5.8
614.032	6.14
614.366	6.32
614.7	5.86
615.035	5.98
615.369	5.81
615.703	6.01
616.037	5.81
616.371	5.9
616.705	5.8
617.039	6.02
617.373	5.99
617.707	5.76
618.041	6
618.375	5.71
618.709	5.64
619.042	6.03
619.376	5.94
619.71	6.13
620.043	6.31
620.377	6.15
620.71	5.72
621.043	5.79
621.377	5.38
621.71	6.27
622.043	5.85
622.376	6.48
622.709	6.03
623.043	6.23
623.376	6.4
623.709	6.16
624.041	6.08
624.374	6.04
624.707	5.8
625.04	5.79
625.373	6.03
625.705	6.14
626.038	6.31
626.37	6.23
626.703	6.06
627.035	6.1
627.368	6.19
627.7	5.92
628.032	6.12
628.365	6.3
628.697	6
629.029	6.09
629.361	5.75
629.693	5.78
630.025	5.87
630.357	6.22
630.689	5.66
631.021	6.13
631.353	5.95
631.684	6.24
632.016	5.98
632.348	6.19
632.679	5.62
633.011	6.67
633.342	6.38
633.674	6.21
634.005	6.42
634.336	6.5
634.668	5.73
634.999	6.47
635.33	6.14
635.661	6.31
635.992	6.03
636.323	5.7
636.654	5.97
636.985	6.21
637.316	5.97
637.647	5.87
637.977	5.99
638.308	6.35
638.639	6.24
638.969	5.92
639.3	6.03
639.63	6.15
639.961	6.26
640.291	5.73
640.622	5.96
640.952	6.17
641.282	5.93
641.612	6.04
641.943	6.04
642.273	6.68
642.603	6.42
642.933	6.25
643.263	5.56
643.592	6.78
643.922	6.36
644.252	6.25
644.582	6.15
644.911	5.98
645.241	6.05
645.571	6.72
645.9	6.15
646.23	5.84
646.559	6.4
646.888	6.16
647.218	6.32
647.547	5.9
647.876	6.31
648.205	6.32
648.534	6.46
648.863	6.25
649.192	6.92
649.521	6.57
649.85	6.36
650.179	6.5
650.508	6.71
650.837	5.8
651.165	6.23
651.494	6.42
651.822	5.82
652.151	6.52
652.479	6.18
652.808	6.06
653.136	6.49
653.465	6.44
653.793	6.49
654.121	6.48
654.449	6.52
654.777	6.22
655.105	6.67
655.433	6.74
655.761	6.67
656.089	6.45
656.417	7.02
656.745	6.35
657.073	5.73
657.4	6.41
657.728	5.85
658.056	6.35
658.383	5.47
658.711	6.57
659.038	6.44
659.365	6.5
659.693	6.24
660.02	6.04
660.347	6.34
660.674	6.25
661.001	6.48
661.329	6.76
661.656	6.4
661.982	6.09
662.309	6.89
662.636	6.49
662.963	6.51
663.29	6.47
663.616	6.48
663.943	6.63
664.27	7.03
664.596	6.3
664.923	7.29
665.249	6.3
665.576	5.93
665.902	6.07
666.228	6.07
666.554	6.08
666.881	6.12
667.207	6.83
667.533	6.9
667.859	6
668.185	6.88
668.511	6.63
668.837	6.32
669.162	6.88
669.488	6.12
669.814	6.45
670.139	6.06
670.465	5.88
670.791	6.47
671.116	6.73
671.442	6.54
671.767	6.57
672.092	7.02
672.418	6.57
672.743	6.65
673.068	5.73
673.393	6.74
673.718	6.99
674.043	6.83
674.368	5.96
674.693	6.38
675.018	7.04
675.343	6.48
675.667	6.5
675.992	6.54
676.317	6.14
676.641	6.73
676.966	6.63
677.29	5.95
677.615	5.76
677.939	6.66
678.264	6.97
678.588	7.07
678.912	6.68
679.236	6.36
679.56	6.55
679.885	6.81
680.209	6.53
680.532	7.02
680.856	6.39
681.18	6.49
681.504	6.87
681.828	6.35
682.152	6.55
682.475	6.93
682.799	6.99
683.122	6.48
683.446	7.08
683.769	7.27
684.093	6.08
684.416	6.95
684.739	6.93
685.062	7.1
685.386	6.71
685.709	6.98
686.032	6.66
686.355	6.31
686.678	6.88
687.001	6.38
687.324	7.42
687.646	7.18
687.969	6.37
688.292	6.84
688.614	7.07
688.937	6.69
689.26	6.74
689.582	6.3
689.904	6.51
690.227	7
690.549	7.08
690.871	7.32
691.194	7.1
691.516	6.66
691.838	6.27
692.16	6.63
692.482	6.39
