Data from 431_crown_Reflection__2__129.txt Node

Date: Tue Dec 12 19:27:37 CST 2023
User: ToomeyLab
Spectrometer: FLMS14357
Trigger mode: 0
Integration Time (sec): 1.000000E-2
Scans to average: 100
Electric dark correction enabled: true
Nonlinearity correction enabled: false
Boxcar width: 0
XAxis mode: Wavelengths
Number of Pixels in Spectrum: 2048
>>>>>Begin Spectral Data<<<<<
189.047	90.53
189.435	90.53
189.823	90.53
190.211	-60.13
190.599	173.16
190.987	64.36
191.375	3971.05
191.763	-15.99
192.151	144.99
192.538	-206.08
192.926	132.93
193.314	-71.75
193.702	97.69
194.089	0.16
194.477	163.58
194.864	-279.72
195.252	187.23
195.639	-28.01
196.027	81.37
196.414	-204.7
196.801	133.23
197.189	75.33
197.576	109.19
197.963	127.04
198.351	-0.07
198.738	8.26
199.125	-6.88
199.512	-49.8
199.899	1.66
200.286	7.39
200.673	-12.64
201.06	9.28
201.447	-95.17
201.833	-18.1
202.22	20.56
202.607	-127.85
202.994	4.58
203.38	26.6
203.767	-1.85
204.154	34.01
204.54	35.2
204.927	-26.76
205.313	0.19
205.699	-20.6
206.086	11.23
206.472	19.56
206.858	24.46
207.245	-24.98
207.631	15.36
208.017	0.61
208.403	-17.56
208.789	-9.1
209.175	19.05
209.561	37.43
209.947	-26.07
210.333	19.04
210.719	4.19
211.105	-9.56
211.491	6.71
211.876	37.05
212.262	20.77
212.648	-38.98
213.034	-188.85
213.419	1.25
213.805	44.38
214.19	28.19
214.576	23.16
214.961	-11.76
215.346	-2.82
215.732	9.39
216.117	8.22
216.502	-35.02
216.888	-23.63
217.273	-24.61
217.658	-18.9
218.043	-22.77
218.428	21.63
218.813	12.99
219.198	-36.35
219.583	-7.13
219.968	19.08
220.353	-9.81
220.738	10.44
221.122	7.7
221.507	-14.61
221.892	26.59
222.276	6.27
222.661	-15.89
223.046	-29.12
223.43	6.2
223.815	-5.01
224.199	7.07
224.583	-10.86
224.968	3.32
225.352	-3.71
225.736	10.44
226.121	4.42
226.505	4.17
226.889	3.58
227.273	2.01
227.657	6.44
228.041	10.19
228.425	4.5
228.809	4.9
229.193	5.84
229.577	4.73
229.961	4.33
230.344	4.63
230.728	6
231.112	4.57
231.495	4.96
231.879	5.11
232.263	1.88
232.646	3.85
233.03	4.41
233.413	3.33
233.797	4.46
234.18	2.15
234.563	3.03
234.946	4.92
235.33	6.5
235.713	6.2
236.096	4.93
236.479	5.38
236.862	4.05
237.245	4.47
237.628	2.27
238.011	5.42
238.394	2.12
238.777	5.43
239.16	4.18
239.543	4.78
239.925	5.77
240.308	4.55
240.691	4.21
241.073	5.74
241.456	4.87
241.838	5.74
242.221	6.12
242.603	5.64
242.986	4.87
243.368	5
243.75	4.81
244.133	4.9
244.515	5.56
244.897	5.04
245.279	5.14
245.661	4.86
246.043	4.45
246.425	5.46
246.807	4.14
247.189	4.56
247.571	5.09
247.953	4.49
248.335	4.92
248.717	5
249.098	4.95
249.48	4.8
249.862	4.87
250.243	4.88
250.625	5.78
251.006	4.88
251.388	5.42
251.769	4.49
252.151	4.38
252.532	4.72
252.913	5.07
253.295	5.47
253.676	4.73
254.057	4.55
254.438	4.54
254.819	4.7
255.2	4.47
255.581	4.45
255.962	4.24
256.343	4.84
256.724	5.37
257.105	6.07
257.486	3.63
257.867	4.78
258.247	5.51
258.628	5.47
259.009	4.31
259.389	4.72
259.77	4.61
260.15	4.42
260.531	5.38
260.911	4.8
261.292	4.36
261.672	4.38
262.052	4.55
262.432	4.65
262.813	4.64
263.193	4.79
263.573	4.7
263.953	5.64
264.333	5.53
264.713	4.92
265.093	5.05
265.473	5.65
265.853	4.3
266.233	4.28
266.612	3.99
266.992	4.78
267.372	4.95
267.752	5.57
268.131	4.37
268.511	4.46
268.89	4.09
269.27	3.74
269.649	4.47
270.029	4.93
270.408	4.98
270.787	4.53
271.167	4.57
271.546	4.41
271.925	5.13
272.304	5.02
272.683	3.72
273.062	4.52
273.441	4.53
273.82	4.03
274.199	4.17
274.578	4.26
274.957	4.23
275.336	4.74
275.715	4.45
276.093	4.07
276.472	4.62
276.851	4.48
277.229	3.51
277.608	4.28
277.986	3.8
278.365	4.83
278.743	4.31
279.122	4.72
279.5	3.58
279.878	3.64
280.257	4.45
280.635	4.08
281.013	3.98
281.391	3.88
281.769	4.34
282.147	4.93
282.525	3.89
282.903	4.42
283.281	3.69
283.659	4.76
284.037	4.18
284.415	4.19
284.792	4.23
285.17	3.81
285.548	4.26
285.925	3.59
286.303	4.25
286.68	4.34
287.058	4.52
287.435	4.31
287.813	3.96
288.19	4.03
288.567	4.28
288.945	4.08
289.322	3.96
289.699	4.35
290.076	4.35
290.453	4.73
290.83	4.03
291.207	4.66
291.584	4.18
291.961	4.82
292.338	4.39
292.715	4.46
293.092	4.34
293.469	4.27
293.845	4.27
294.222	4.18
294.599	4.26
294.975	4.28
295.352	4.12
295.728	4.26
296.105	4.69
296.481	4.85
296.858	4.94
297.234	5.02
297.61	5.01
297.986	4.65
298.363	4.73
298.739	4.68
299.115	4.48
299.491	5.09
299.867	4.56
300.243	4.73
300.619	5.2
300.995	5.09
301.371	4.91
301.746	4.64
302.122	5.17
302.498	4.61
302.874	5.03
303.249	5.39
303.625	4.02
304	4.71
304.376	4.51
304.751	5.34
305.127	4.59
305.502	5.17
305.878	4.34
306.253	4.43
306.628	4.43
307.003	5.12
307.378	5.26
307.754	4.45
308.129	4.51
308.504	5.4
308.879	4.81
309.254	5.26
309.629	5
310.003	5.04
310.378	5.01
310.753	4.97
311.128	4.97
311.502	4.27
311.877	4.5
312.252	4.36
312.626	5.38
313.001	4.49
313.375	4.52
313.75	5.1
314.124	5.02
314.498	4.9
314.873	4.41
315.247	4.62
315.621	4.96
315.995	5.65
316.369	4.75
316.743	4.85
317.117	4.33
317.491	4.74
317.865	5.15
318.239	5.09
318.613	5.4
318.987	5.11
319.361	4.65
319.734	5.34
320.108	4.95
320.482	5.28
320.855	4.62
321.229	4.69
321.602	5.21
321.976	5
322.349	5.26
322.723	5.11
323.096	4.22
323.469	4.83
323.843	5.75
324.216	5.09
324.589	5.02
324.962	5.66
325.335	5.37
325.708	5.2
326.081	5.4
326.454	4.8
326.827	5.2
327.2	5.27
327.573	4.67
327.945	5.28
328.318	4.96
328.691	4.66
329.063	4.96
329.436	5.43
329.809	4.74
330.181	4.14
330.553	4.73
330.926	4.93
331.298	4.9
331.671	4.82
332.043	5.19
332.415	5.34
332.787	5.54
333.159	4.58
333.532	5.01
333.904	5.12
334.276	5.73
334.648	4.89
335.02	4.49
335.391	4.66
335.763	4.57
336.135	5.23
336.507	5.41
336.879	4.56
337.25	5.07
337.622	4.85
337.993	4.63
338.365	4.79
338.736	5.12
339.108	4.81
339.479	4.87
339.851	4.64
340.222	4.42
340.593	5.06
340.964	4.91
341.336	5.26
341.707	4.45
342.078	4.54
342.449	5.09
342.82	5.26
343.191	4.66
343.562	5.2
343.933	5.46
344.303	5.24
344.674	4.94
345.045	4.96
345.416	5.38
345.786	4.77
346.157	4.66
346.527	5.72
346.898	4.7
347.268	5.08
347.639	5.11
348.009	4.73
348.38	4.52
348.75	5.28
349.12	4.8
349.49	4.96
349.861	4.98
350.231	4.63
350.601	4.84
350.971	4.51
351.341	5.16
351.711	5.29
352.081	4.82
352.45	4.87
352.82	4.95
353.19	4.9
353.56	5.09
353.929	4.6
354.299	4.49
354.669	4.69
355.038	4.19
355.408	4.67
355.777	4.9
356.147	4.53
356.516	5.31
356.885	4.84
357.254	4.64
357.624	4.65
357.993	5.04
358.362	4.98
358.731	5.03
359.1	4.41
359.469	4.71
359.838	4.75
360.207	4.84
360.576	4.7
360.945	4.65
361.314	4.76
361.682	4.94
362.051	4.89
362.42	5.05
362.788	4.68
363.157	4.97
363.525	5.02
363.894	4.71
364.262	4.64
364.631	4.76
364.999	5.17
365.367	5.27
365.735	4.59
366.104	4.72
366.472	4.88
366.84	4.76
367.208	4.93
367.576	4.76
367.944	4.61
368.312	5.01
368.68	4.87
369.048	5.14
369.416	4.75
369.783	5.17
370.151	4.71
370.519	4.63
370.886	5.05
371.254	4.86
371.621	5.19
371.989	4.67
372.356	4.91
372.724	4.83
373.091	4.59
373.458	4.75
373.826	4.94
374.193	4.47
374.56	5.19
374.927	5.18
375.294	5.03
375.661	4.94
376.028	5.05
376.395	5.15
376.762	5.54
377.129	5.09
377.496	5.07
377.863	5.02
378.229	4.99
378.596	4.53
378.963	5.16
379.329	4.75
379.696	4.71
380.062	5.39
380.429	4.99
380.795	5.1
381.161	4.91
381.528	4.61
381.894	5.11
382.26	4.69
382.626	4.94
382.993	5.05
383.359	4.71
383.725	4.98
384.091	4.75
384.457	4.86
384.823	4.99
385.188	5.13
385.554	4.85
385.92	5.06
386.286	4.98
386.651	5.09
387.017	5.23
387.383	4.95
387.748	5.2
388.114	5.31
388.479	5.24
388.845	5.13
389.21	5
389.575	4.7
389.94	5.21
390.306	5.08
390.671	5.01
391.036	5.18
391.401	5.25
391.766	5.15
392.131	5.06
392.496	4.87
392.861	4.84
393.226	4.98
393.591	5.01
393.956	4.98
394.32	5.06
394.685	5.09
395.05	5.1
395.414	4.8
395.779	4.86
396.143	5.35
396.508	4.97
396.872	5.13
397.236	5.13
397.601	5.21
397.965	5.06
398.329	5.07
398.694	4.98
399.058	5.09
399.422	5.03
399.786	5.27
400.15	5
400.514	5.09
400.878	5.16
401.242	4.97
401.605	5.16
401.969	4.92
402.333	4.96
402.697	4.97
403.06	5.06
403.424	5.08
403.787	4.88
404.151	5.39
404.514	4.79
404.878	5.04
405.241	5.04
405.604	4.85
405.968	4.99
406.331	5.26
406.694	5.12
407.057	4.95
407.42	4.9
407.783	5.08
408.146	5.03
408.509	5.24
408.872	5.14
409.235	5.04
409.598	5.19
409.961	5.08
410.323	5.18
410.686	5.07
411.049	5
411.411	5.32
411.774	5.12
412.136	5.16
412.499	5.09
412.861	5.15
413.223	5.25
413.586	4.93
413.948	5.05
414.31	5.42
414.672	5.1
415.035	5.25
415.397	5.04
415.759	5.15
416.121	5.37
416.483	5.26
416.845	5.2
417.206	5.36
417.568	5.29
417.93	5.18
418.292	5.16
418.653	5.25
419.015	5.15
419.377	5.23
419.738	5.26
420.1	5.2
420.461	5.22
420.822	5.31
421.184	5.26
421.545	5.31
421.906	5.14
422.267	5.07
422.629	5.11
422.99	5.17
423.351	5.14
423.712	5.17
424.073	5.23
424.434	5.1
424.795	5.22
425.155	5.02
425.516	5.12
425.877	5.13
426.238	5.06
426.598	5.15
426.959	5.24
427.32	5.2
427.68	5.22
428.041	5.21
428.401	5.2
428.761	5.36
429.122	5.3
429.482	5.52
429.842	5.44
430.202	5.19
430.563	5.34
430.923	5.27
431.283	5.24
431.643	5.43
432.003	5.17
432.363	5.37
432.722	5.2
433.082	5.49
433.442	5.32
433.802	5.37
434.161	5.28
434.521	5.42
434.881	5.32
435.24	5.26
435.6	5.48
435.959	5.41
436.319	5.41
436.678	5.42
437.037	5.32
437.396	5.32
437.756	5.37
438.115	5.33
438.474	5.4
438.833	5.51
439.192	5.55
439.551	5.46
439.91	5.35
440.269	5.3
440.628	5.43
440.987	5.31
441.345	5.47
441.704	5.38
442.063	5.4
442.421	5.42
442.78	5.48
443.138	5.38
443.497	5.51
443.855	5.55
444.214	5.51
444.572	5.46
444.93	5.47
445.288	5.32
445.647	5.49
446.005	5.57
446.363	5.37
446.721	5.45
447.079	5.54
447.437	5.36
447.795	5.49
448.153	5.43
448.51	5.51
448.868	5.4
449.226	5.56
449.584	5.44
449.941	5.46
450.299	5.52
450.656	5.52
451.014	5.52
451.371	5.47
451.729	5.65
452.086	5.61
452.443	5.75
452.801	5.68
453.158	5.6
453.515	5.67
453.872	5.62
454.229	5.61
454.586	5.45
454.943	5.51
455.3	5.73
455.657	5.79
456.014	5.88
456.371	5.51
456.727	5.72
457.084	5.65
457.441	5.57
457.797	5.78
458.154	5.53
458.51	5.79
458.867	5.76
459.223	5.74
459.58	5.77
459.936	5.45
460.292	5.71
460.648	5.79
461.005	5.62
461.361	5.57
461.717	5.71
462.073	5.5
462.429	5.58
462.785	5.55
463.141	5.74
463.496	5.68
463.852	5.98
464.208	5.75
464.564	5.88
464.919	5.79
465.275	5.77
465.631	5.8
465.986	5.85
466.342	5.68
466.697	5.81
467.052	5.93
467.408	5.94
467.763	5.93
468.118	5.82
468.473	5.9
468.829	5.8
469.184	5.73
469.539	5.93
469.894	5.89
470.249	5.91
470.603	5.89
470.958	5.94
471.313	5.92
471.668	5.92
472.023	5.88
472.377	5.83
472.732	5.89
473.086	6.09
473.441	6.11
473.795	6.01
474.15	6.05
474.504	5.85
474.859	6
475.213	5.91
475.567	5.99
475.921	6.05
476.275	5.89
476.63	6.13
476.984	6.01
477.338	5.94
477.692	5.93
478.045	6
478.399	5.8
478.753	5.98
479.107	6.15
479.461	6.07
479.814	6.06
480.168	5.8
480.521	5.96
480.875	6.05
481.228	6.12
481.582	6.03
481.935	6.02
482.289	6.16
482.642	6.01
482.995	6.04
483.348	5.97
483.701	6.12
484.055	5.97
484.408	5.89
484.761	5.92
485.114	5.84
485.466	5.75
485.819	5.69
486.172	5.7
486.525	5.71
486.878	5.8
487.23	5.82
487.583	5.83
487.936	5.97
488.288	5.9
488.641	5.94
488.993	5.85
489.345	5.94
489.698	5.82
490.05	5.85
490.402	5.89
490.754	5.86
491.107	5.97
491.459	6.02
491.811	6.08
492.163	6.05
492.515	6.08
492.866	6.09
493.218	5.99
493.57	5.96
493.922	5.85
494.274	5.95
494.625	6.08
494.977	6.16
495.328	6.12
495.68	6.1
496.031	6.29
496.383	6.2
496.734	6.4
497.086	6.24
497.437	6.25
497.788	6.29
498.139	6.27
498.49	6.33
498.842	6.21
499.193	6.19
499.544	6.24
499.894	6.18
500.245	6.35
500.596	6.37
500.947	6.24
501.298	6.36
501.648	6.43
501.999	6.39
502.35	6.42
502.7	6.34
503.051	6.33
503.401	6.41
503.752	6.6
504.102	6.43
504.452	6.37
504.803	6.46
505.153	6.41
505.503	6.56
505.853	6.6
506.203	6.52
506.553	6.47
506.903	6.48
507.253	6.49
507.603	6.44
507.953	6.48
508.303	6.58
508.652	6.59
509.002	6.46
509.352	6.55
509.701	6.5
510.051	6.47
510.4	6.63
510.75	6.5
511.099	6.47
511.449	6.42
511.798	6.4
512.147	6.52
512.496	6.61
512.846	6.64
513.195	6.38
513.544	6.64
513.893	6.7
514.242	6.47
514.591	6.48
514.939	6.6
515.288	6.6
515.637	6.53
515.986	6.49
516.334	6.63
516.683	6.6
517.032	6.71
517.38	6.68
517.729	6.76
518.077	6.48
518.426	6.61
518.774	6.73
519.122	6.66
519.47	6.53
519.819	6.69
520.167	6.55
520.515	6.56
520.863	6.6
521.211	6.51
521.559	6.58
521.907	6.57
522.255	6.64
522.602	6.78
522.95	6.78
523.298	6.69
523.645	6.87
523.993	6.84
524.341	6.74
524.688	6.89
525.036	6.8
525.383	6.62
525.73	6.71
526.078	6.77
526.425	6.7
526.772	6.74
527.119	6.75
527.466	6.64
527.814	6.66
528.161	6.72
528.508	6.73
528.854	6.61
529.201	6.82
529.548	6.63
529.895	6.51
530.242	6.51
530.588	6.43
530.935	6.51
531.282	6.55
531.628	6.56
531.975	6.58
532.321	6.53
532.667	6.67
533.014	6.72
533.36	6.72
533.706	6.78
534.052	6.69
534.399	6.74
534.745	6.71
535.091	6.61
535.437	6.72
535.783	6.67
536.129	6.75
536.474	6.8
536.82	6.78
537.166	6.88
537.512	6.97
537.857	6.96
538.203	6.89
538.549	6.89
538.894	6.84
539.239	6.87
539.585	6.88
539.93	6.91
540.276	6.95
540.621	6.89
540.966	6.99
541.311	6.98
541.656	7.04
542.001	7.01
542.346	6.97
542.691	6.92
543.036	6.83
543.381	6.73
543.726	6.85
544.071	6.82
544.415	6.82
544.76	6.87
545.105	6.95
545.449	7
545.794	7.04
546.138	6.94
546.483	7.16
546.827	7.18
547.171	7.1
547.516	7.02
547.86	7.23
548.204	7.17
548.548	7.06
548.892	7.19
549.236	7.07
549.58	7.14
549.924	7.12
550.268	7.18
550.612	7.12
550.956	7.33
551.3	7.33
551.643	7.36
551.987	7.42
552.33	7.34
552.674	7.39
553.017	7.49
553.361	7.41
553.704	7.43
554.048	7.24
554.391	7.27
554.734	7.45
555.077	7.23
555.42	7.29
555.764	7.44
556.107	7.34
556.45	7.28
556.793	7.46
557.135	7.15
557.478	7.39
557.821	7.46
558.164	7.56
558.507	7.68
558.849	7.42
559.192	7.53
559.534	7.43
559.877	7.38
560.219	7.51
560.562	7.54
560.904	7.52
561.246	7.44
561.589	7.64
561.931	7.43
562.273	7.46
562.615	7.53
562.957	7.63
563.299	7.56
563.641	7.43
563.983	7.5
564.325	7.62
564.667	7.69
565.008	7.43
565.35	7.32
565.692	7.64
566.033	7.73
566.375	7.51
566.716	7.48
567.058	7.63
567.399	7.72
567.741	7.68
568.082	7.63
568.423	7.55
568.764	7.54
569.105	7.47
569.447	7.54
569.788	7.53
570.129	7.74
570.47	7.71
570.811	7.61
571.151	7.78
571.492	7.85
571.833	7.58
572.174	7.48
572.514	7.67
572.855	7.65
573.195	7.62
573.536	7.58
573.876	7.62
574.217	7.74
574.557	7.58
574.898	7.6
575.238	7.66
575.578	7.6
575.918	7.71
576.258	7.81
576.598	7.6
576.938	7.72
577.278	7.77
577.618	7.83
577.958	7.65
578.298	7.88
578.638	7.72
578.977	7.8
579.317	7.83
579.657	7.74
579.996	7.96
580.336	7.83
580.675	7.9
581.014	8.11
581.354	7.84
581.693	7.75
582.032	7.71
582.372	8.07
582.711	8.07
583.05	7.98
583.389	7.93
583.728	7.87
584.067	8.22
584.406	8.08
584.745	7.98
585.083	7.81
585.422	8.3
585.761	8.13
586.1	7.91
586.438	8.19
586.777	8.09
587.115	7.96
587.454	8.24
587.792	7.79
588.13	8.19
588.469	8.28
588.807	7.74
589.145	8.07
589.483	8.18
589.821	8.16
590.159	7.96
590.497	8
590.835	8.11
591.173	8.12
591.511	8.01
591.849	8.15
592.187	8.14
592.524	7.91
592.862	8.02
593.2	7.82
593.537	7.92
593.875	8.24
594.212	8.16
594.55	8.2
594.887	8.47
595.224	8.29
595.561	8.48
595.899	7.94
596.236	8.1
596.573	8.34
596.91	8.38
597.247	8.27
597.584	8.35
597.921	8.01
598.258	8.48
598.594	8.51
598.931	8.29
599.268	8.03
599.604	8.18
599.941	7.95
600.277	8.26
600.614	8.24
600.95	8.4
601.287	8.47
601.623	8.57
601.959	8.24
602.296	8.56
602.632	8.32
602.968	8.5
603.304	8.32
603.64	8.57
603.976	8.27
604.312	8.53
604.648	8.33
604.984	8.45
605.319	8.54
605.655	8.3
605.991	8.49
606.326	8.4
606.662	8.44
606.998	8.37
607.333	8.25
607.668	8.28
608.004	8.33
608.339	8.55
608.674	8.43
609.01	8.42
609.345	8.59
609.68	8.56
610.015	8.26
610.35	8.62
610.685	8.55
611.02	8.48
611.355	8.38
611.689	8.26
612.024	8.38
612.359	8.45
612.694	8.5
613.028	8.39
613.363	8.55
613.697	8.48
614.032	8.69
614.366	8.82
614.7	8.57
615.035	9.11
615.369	8.64
615.703	8.74
616.037	8.33
616.371	8.5
616.705	8.57
617.039	8.96
617.373	8.86
617.707	8.29
618.041	8.51
618.375	8.61
618.709	8.56
619.042	8.24
619.376	8.8
619.71	8.79
620.043	8.67
620.377	8.55
620.71	8.7
621.043	8.43
621.377	8.25
621.71	8.64
622.043	8.85
622.376	8.91
622.709	8.96
623.043	9
623.376	8.97
623.709	8.67
624.041	8.96
624.374	8.98
624.707	8.92
625.04	8.86
625.373	9.08
625.705	9.02
626.038	8.88
626.37	8.96
626.703	8.95
627.035	8.68
627.368	8.97
627.7	8.71
628.032	8.91
628.365	9.33
628.697	9.05
629.029	8.93
629.361	8.92
629.693	8.89
630.025	8.64
630.357	8.85
630.689	8.66
631.021	9.05
631.353	9.18
631.684	8.99
632.016	8.79
632.348	9.24
632.679	8.59
633.011	9.21
633.342	9.03
633.674	9.43
634.005	9.04
634.336	9.29
634.668	9.13
634.999	9.04
635.33	8.84
635.661	9.34
635.992	8.99
636.323	8.88
636.654	9.16
636.985	9.46
637.316	9.24
637.647	9
637.977	9.51
638.308	9.3
638.639	9.11
638.969	9.33
639.3	8.98
639.63	9.18
639.961	8.9
640.291	8.99
640.622	9.59
640.952	9.5
641.282	8.94
641.612	9.19
641.943	8.95
642.273	9.51
642.603	9.78
642.933	9.34
643.263	9.34
643.592	9.64
643.922	9.46
644.252	9.8
644.582	8.74
644.911	9.35
645.241	9.27
645.571	9.9
645.9	9.18
646.23	9.27
646.559	9.75
646.888	9.16
647.218	9.33
647.547	8.65
647.876	9.67
648.205	9.75
648.534	9.65
648.863	9.58
649.192	10.2
649.521	9.79
649.85	9.33
650.179	9.57
650.508	10.47
650.837	9.61
651.165	9.57
651.494	9.6
651.822	9.27
652.151	9.73
652.479	9.36
652.808	9.55
653.136	9.71
653.465	9.73
653.793	9.85
654.121	9.59
654.449	9.4
654.777	9.55
655.105	9.37
655.433	10.29
655.761	9.96
656.089	9.75
656.417	9.69
656.745	9.39
657.073	8.92
657.4	9.66
657.728	9.05
658.056	9.73
658.383	9.27
658.711	9.91
659.038	9.99
659.365	9.64
659.693	9.77
660.02	9.57
660.347	10.08
660.674	9.91
661.001	9.83
661.329	9.52
661.656	9.36
661.982	9.49
662.309	10
662.636	9.75
662.963	9.9
663.29	9.95
663.616	9.52
663.943	9.91
664.27	9.71
664.596	9.58
664.923	10.82
665.249	10.01
665.576	10.11
665.902	9.75
666.228	10.18
666.554	9.8
666.881	9.41
667.207	10.4
667.533	10.04
667.859	9.91
668.185	10.27
668.511	10.59
668.837	9.94
669.162	10.77
669.488	9.8
669.814	10.12
670.139	9.75
670.465	8.73
670.791	9.58
671.116	9.96
671.442	9.77
671.767	9.66
672.092	10.32
672.418	10.13
672.743	9.86
673.068	10.09
673.393	9.85
673.718	9.9
674.043	10.06
674.368	9.51
674.693	9.83
675.018	9.76
675.343	10.12
675.667	10.45
675.992	10.29
676.317	9.71
676.641	9.67
676.966	10.39
677.29	10.36
677.615	10.59
677.939	10.43
678.264	9.84
678.588	10.55
678.912	10.79
679.236	10.87
679.56	10.24
679.885	9.87
680.209	11.13
680.532	10.33
680.856	10.17
681.18	10.09
681.504	10.81
681.828	10.21
682.152	9.9
682.475	10.55
682.799	10.16
683.122	10.7
683.446	10.39
683.769	11.43
684.093	10.32
684.416	9.99
684.739	11.31
685.062	10.7
685.386	10.73
685.709	10.25
686.032	10.81
686.355	10.13
686.678	10.94
687.001	11.03
687.324	10.43
687.646	10.52
687.969	10.03
688.292	10.77
688.614	10.6
688.937	11.03
689.26	10.48
689.582	10.03
689.904	9.94
690.227	10.75
690.549	10.39
690.871	10.79
691.194	11.11
