Data from 431_forehead_Reflection__1__133.txt Node

Date: Tue Dec 12 19:28:44 CST 2023
User: ToomeyLab
Spectrometer: FLMS14357
Trigger mode: 0
Integration Time (sec): 1.000000E-2
Scans to average: 100
Electric dark correction enabled: true
Nonlinearity correction enabled: false
Boxcar width: 0
XAxis mode: Wavelengths
Number of Pixels in Spectrum: 2048
>>>>>Begin Spectral Data<<<<<
189.047	166.72
189.435	166.72
189.823	166.72
190.211	-93.42
190.599	160.36
190.987	82.22
191.375	-1330.26
191.763	-72.32
192.151	40.38
192.538	13.28
192.926	59.42
193.314	-30.57
193.702	79.9
194.089	-64.66
194.477	77.26
194.864	-181.05
195.252	191.83
195.639	-29.12
196.027	10.87
196.414	-218.01
196.801	77.56
197.189	8.67
197.576	80.39
197.963	195.23
198.351	63.3
198.738	91.32
199.125	2.61
199.512	-4.15
199.899	16.34
200.286	120.75
200.673	35.41
201.06	22.36
201.447	48.64
201.833	14.63
202.22	54.99
202.607	81.63
202.994	74.16
203.38	83.29
203.767	-17.14
204.154	70.43
204.54	89.02
204.927	27.37
205.313	37.56
205.699	-15.78
206.086	-1.57
206.472	48.79
206.858	65.9
207.245	28.76
207.631	22.57
208.017	84.85
208.403	-6.92
208.789	22.29
209.175	20.31
209.561	78.16
209.947	1.12
210.333	59.05
210.719	30.46
211.105	37.61
211.491	43.37
211.876	77.55
212.262	17.21
212.648	32.58
213.034	-68.26
213.419	22.49
213.805	36.52
214.19	42.44
214.576	20.15
214.961	46.67
215.346	14.68
215.732	33.69
216.117	30.86
216.502	18.37
216.888	32.37
217.273	32.3
217.658	20.22
218.043	-12.28
218.428	36.63
218.813	12.89
219.198	8.16
219.583	11.92
219.968	10.72
220.353	29.55
220.738	34.68
221.122	16.94
221.507	4.65
221.892	42.98
222.276	15.11
222.661	17.67
223.046	5.16
223.43	12.37
223.815	20.61
224.199	16.2
224.583	11.48
224.968	23.09
225.352	5.91
225.736	20.48
226.121	16.54
226.505	3.71
226.889	11.42
227.273	7.62
227.657	13.63
228.041	8.42
228.425	9.8
228.809	5.14
229.193	3.61
229.577	5.82
229.961	3.16
230.344	6.13
230.728	5.91
231.112	5.07
231.495	5.04
231.879	5.16
232.263	3.85
232.646	5.34
233.03	4.67
233.413	4.14
233.797	5.28
234.18	4.41
234.563	5.22
234.946	7.55
235.33	6.66
235.713	5.84
236.096	4.13
236.479	5.03
236.862	6.02
237.245	5.86
237.628	5.53
238.011	5.75
238.394	4.68
238.777	6.76
239.16	7.01
239.543	6.31
239.925	5.45
240.308	6.07
240.691	7.45
241.073	6.7
241.456	6.98
241.838	4.88
242.221	5.51
242.603	5.62
242.986	4.93
243.368	4.69
243.75	4.9
244.133	4.6
244.515	4.94
244.897	5.47
245.279	5.79
245.661	4.53
246.043	5
246.425	5.67
246.807	5.31
247.189	6.48
247.571	5.89
247.953	4.83
248.335	4.86
248.717	4.89
249.098	4.67
249.48	4.58
249.862	4.62
250.243	4.99
250.625	5.62
251.006	5.3
251.388	5.94
251.769	5.06
252.151	5.92
252.532	5.22
252.913	5.44
253.295	6.41
253.676	5.32
254.057	4.84
254.438	5.52
254.819	5.49
255.2	5.73
255.581	5.28
255.962	5.05
256.343	5.77
256.724	5.82
257.105	6.25
257.486	4.72
257.867	5.09
258.247	5.46
258.628	5.81
259.009	5.21
259.389	5.1
259.77	5.47
260.15	6.02
260.531	5.92
260.911	5.37
261.292	4.76
261.672	4.86
262.052	4.99
262.432	4.97
262.813	4.99
263.193	5.21
263.573	5.43
263.953	5.75
264.333	6.17
264.713	5.8
265.093	5.53
265.473	6.63
265.853	5.13
266.233	4.81
266.612	4.37
266.992	5.64
267.372	5.86
267.752	6.23
268.131	4.65
268.511	5.08
268.89	4.49
269.27	4.58
269.649	4.45
270.029	4.74
270.408	4.93
270.787	4.68
271.167	4.88
271.546	5.2
271.925	5.75
272.304	5.87
272.683	4.6
273.062	5.02
273.441	4.98
273.82	4.6
274.199	4.69
274.578	5.06
274.957	5.03
275.336	5.04
275.715	5.11
276.093	4.72
276.472	5.21
276.851	5.45
277.229	4.61
277.608	4.92
277.986	4.15
278.365	4.95
278.743	4.75
279.122	5.02
279.5	4.37
279.878	4.34
280.257	4.6
280.635	5.53
281.013	4.72
281.391	4.82
281.769	5.08
282.147	5.34
282.525	4.54
282.903	4.91
283.281	4.95
283.659	4.95
284.037	5.6
284.415	5.19
284.792	5.04
285.17	5.46
285.548	5.68
285.925	5.33
286.303	4.8
286.68	5.33
287.058	5.45
287.435	5.14
287.813	4.8
288.19	4.96
288.567	5.14
288.945	5.06
289.322	4.66
289.699	5.3
290.076	5.14
290.453	5.47
290.83	5.65
291.207	5.99
291.584	5.37
291.961	5.79
292.338	5.43
292.715	5.55
293.092	5.07
293.469	5.88
293.845	5.86
294.222	5.8
294.599	5.5
294.975	5.55
295.352	5.96
295.728	6.45
296.105	6.5
296.481	6.45
296.858	6.08
297.234	6.54
297.61	6.7
297.986	6.58
298.363	6.49
298.739	6.63
299.115	6.11
299.491	6.65
299.867	6.77
300.243	6.74
300.619	6.99
300.995	7.32
301.371	7.25
301.746	7.46
302.122	7.76
302.498	7.36
302.874	7.43
303.249	7.91
303.625	7.55
304	7.63
304.376	8.08
304.751	8.37
305.127	8.07
305.502	8.56
305.878	7.99
306.253	8.49
306.628	8.45
307.003	8.05
307.378	8.26
307.754	8.64
308.129	8.07
308.504	9.74
308.879	8.21
309.254	8.89
309.629	8.77
310.003	9.46
310.378	9.5
310.753	10.03
311.128	10.1
311.502	9.39
311.877	9.43
312.252	9.31
312.626	10.05
313.001	9.88
313.375	9.81
313.75	10.1
314.124	10.42
314.498	10.43
314.873	10.75
315.247	11.15
315.621	10.49
315.995	11.28
316.369	11.18
316.743	10.9
317.117	10.92
317.491	11.47
317.865	11.25
318.239	11.64
318.613	11.54
318.987	12.12
319.361	11.99
319.734	11.96
320.108	12.27
320.482	12.84
320.855	11.79
321.229	12.29
321.602	12.67
321.976	13.05
322.349	13.72
322.723	13.29
323.096	13.16
323.469	12.73
323.843	14.57
324.216	13.8
324.589	14.01
324.962	13.58
325.335	14.42
325.708	13.97
326.081	14.05
326.454	13.94
326.827	14.47
327.2	14.5
327.573	13.64
327.945	14.44
328.318	14.39
328.691	13.73
329.063	14.75
329.436	14.96
329.809	14.69
330.181	14.52
330.553	14.78
330.926	15.32
331.298	15.42
331.671	15.13
332.043	15.45
332.415	16.11
332.787	15.24
333.159	15.69
333.532	15.56
333.904	15.76
334.276	16.73
334.648	15.99
335.02	15.78
335.391	16.09
335.763	16.26
336.135	16.89
336.507	16.5
336.879	15.99
337.25	16.59
337.622	16.71
337.993	17.09
338.365	16.3
338.736	16.95
339.108	17.5
339.479	17.48
339.851	16.95
340.222	17
340.593	17.43
340.964	17.35
341.336	17.82
341.707	16.86
342.078	17.19
342.449	17.74
342.82	18.01
343.191	17.6
343.562	17.79
343.933	18.23
344.303	18.08
344.674	18.2
345.045	18.6
345.416	18.54
345.786	18.37
346.157	18.3
346.527	18.97
346.898	18.38
347.268	19
347.639	18.97
348.009	19
348.38	18.93
348.75	19.63
349.12	19.59
349.49	19.08
349.861	19.74
350.231	19.64
350.601	19.54
350.971	19.58
351.341	19.72
351.711	19.66
352.081	20.39
352.45	19.5
352.82	20.39
353.19	19.85
353.56	20.05
353.929	20.46
354.299	20.54
354.669	20.44
355.038	20.14
355.408	20.68
355.777	20.46
356.147	20.68
356.516	21.17
356.885	20.99
357.254	20.86
357.624	21.11
357.993	21.06
358.362	21.28
358.731	21.48
359.1	20.88
359.469	21.21
359.838	21.08
360.207	21.51
360.576	22.17
360.945	21.48
361.314	21.56
361.682	21.85
362.051	22.25
362.42	21.95
362.788	21.82
363.157	22.25
363.525	21.92
363.894	21.69
364.262	22.24
364.631	22.09
364.999	22.49
365.367	22.42
365.735	22.5
366.104	22.99
366.472	22.51
366.84	23.25
367.208	22.73
367.576	23.19
367.944	23.23
368.312	23.13
368.68	22.92
369.048	23.27
369.416	23.61
369.783	23.54
370.151	23.38
370.519	23.6
370.886	24.17
371.254	23.7
371.621	24.69
371.989	23.85
372.356	24.21
372.724	24.25
373.091	24.35
373.458	24.19
373.826	24.14
374.193	24.26
374.56	24.9
374.927	24.57
375.294	24.77
375.661	24.9
376.028	25.04
376.395	25.42
376.762	25.5
377.129	25.17
377.496	25.06
377.863	25.38
378.229	25.36
378.596	25.26
378.963	25.3
379.329	25.75
379.696	25.69
380.062	26.15
380.429	26.07
380.795	26.08
381.161	26.46
381.528	26.37
381.894	26.62
382.26	26.14
382.626	26.49
382.993	26.46
383.359	26.63
383.725	26.52
384.091	26.69
384.457	26.68
384.823	26.81
385.188	27.12
385.554	26.83
385.92	27.12
386.286	27.09
386.651	27.45
387.017	27.53
387.383	27.41
387.748	27.78
388.114	27.85
388.479	27.68
388.845	27.6
389.21	27.67
389.575	27.78
389.94	27.99
390.306	27.88
390.671	27.88
391.036	28.61
391.401	27.99
391.766	28.26
392.131	28.29
392.496	28.42
392.861	28.33
393.226	28.64
393.591	28.18
393.956	28.65
394.32	29.11
394.685	29.26
395.05	28.99
395.414	29.17
395.779	28.94
396.143	29.61
396.508	29.13
396.872	29.42
397.236	28.98
397.601	29.58
397.965	29.71
398.329	29.81
398.694	29.59
399.058	29.76
399.422	29.83
399.786	30.12
400.15	30.15
400.514	30.39
400.878	30.46
401.242	30.21
401.605	30.59
401.969	30.46
402.333	30.48
402.697	30.42
403.06	30.63
403.424	30.8
403.787	30.67
404.151	31.28
404.514	30.64
404.878	31.2
405.241	31.01
405.604	31.03
405.968	31.07
406.331	31.14
406.694	31.53
407.057	31.18
407.42	31.29
407.783	31.49
408.146	31.66
408.509	31.72
408.872	31.95
409.235	31.82
409.598	32.02
409.961	32.15
410.323	32.06
410.686	32.17
411.049	32.11
411.411	32.59
411.774	32.39
412.136	32.56
412.499	32.56
412.861	32.58
413.223	32.85
413.586	32.98
413.948	32.67
414.31	32.77
414.672	33.05
415.035	33.35
415.397	32.9
415.759	33.16
416.121	33.34
416.483	33.42
416.845	33.44
417.206	33.41
417.568	33.38
417.93	33.65
418.292	33.67
418.653	33.38
419.015	33.75
419.377	33.33
419.738	33.75
420.1	33.68
420.461	33.53
420.822	33.62
421.184	33.7
421.545	33.96
421.906	33.63
422.267	33.75
422.629	33.83
422.99	33.72
423.351	33.83
423.712	34.09
424.073	34.33
424.434	34.05
424.795	34.32
425.155	34.26
425.516	34.3
425.877	34.31
426.238	34.56
426.598	34.43
426.959	34.49
427.32	34.7
427.68	34.92
428.041	35.12
428.401	35.11
428.761	35.1
429.122	35.17
429.482	35.47
429.842	35.43
430.202	35.75
430.563	35.75
430.923	36.08
431.283	35.76
431.643	36.26
432.003	36.06
432.363	36.11
432.722	36.05
433.082	36.45
433.442	36.08
433.802	36.23
434.161	36.36
434.521	36.34
434.881	36.39
435.24	36.76
435.6	36.37
435.959	36.62
436.319	36.36
436.678	36.72
437.037	36.94
437.396	36.98
437.756	36.79
438.115	37.06
438.474	37.22
438.833	37.44
439.192	37.36
439.551	37.42
439.91	37.22
440.269	37.31
440.628	37.41
440.987	37.34
441.345	37.57
441.704	37.36
442.063	37.55
442.421	37.7
442.78	37.75
443.138	37.73
443.497	37.83
443.855	37.78
444.214	37.94
444.572	38.08
444.93	38.1
445.288	38.18
445.647	38.45
446.005	38.43
446.363	38.22
446.721	38.29
447.079	38.46
447.437	38.45
447.795	38.64
448.153	38.38
448.51	38.41
448.868	38.4
449.226	38.68
449.584	38.73
449.941	38.71
450.299	39.09
450.656	39.11
451.014	39.17
451.371	39.38
451.729	39.47
452.086	39.43
452.443	39.85
452.801	39.63
453.158	39.51
453.515	39.87
453.872	39.92
454.229	39.85
454.586	39.83
454.943	39.81
455.3	39.93
455.657	40.28
456.014	40.09
456.371	40.26
456.727	40.3
457.084	40.57
457.441	40.54
457.797	40.38
458.154	40.42
458.51	40.52
458.867	40.93
459.223	40.42
459.58	40.84
459.936	40.84
460.292	40.75
460.648	40.91
461.005	40.89
461.361	40.55
461.717	40.48
462.073	40.54
462.429	40.76
462.785	41.03
463.141	41.44
463.496	41.23
463.852	41.67
464.208	41.39
464.564	41.67
464.919	41.81
465.275	41.78
465.631	42.08
465.986	42.04
466.342	42.1
466.697	42.21
467.052	42.34
467.408	42.43
467.763	42.33
468.118	42.57
468.473	42.37
468.829	42.63
469.184	42.38
469.539	42.67
469.894	42.53
470.249	42.54
470.603	42.79
470.958	43.07
471.313	42.67
471.668	43.16
472.023	43.29
472.377	42.95
472.732	43.17
473.086	43.2
473.441	43.6
473.795	43.37
474.15	43.5
474.504	43.48
474.859	43.28
475.213	43.39
475.567	43.91
475.921	43.93
476.275	43.48
476.63	43.84
476.984	43.94
477.338	43.98
477.692	43.71
478.045	44.04
478.399	43.85
478.753	43.97
479.107	44.01
479.461	44.15
479.814	44.33
480.168	44.2
480.521	44.29
480.875	44.1
481.228	44.32
481.582	44.31
481.935	44.72
482.289	44.49
482.642	44.71
482.995	44.52
483.348	44.51
483.701	44.48
484.055	44.3
484.408	44.08
484.761	44.02
485.114	43.71
485.466	43.48
485.819	43.7
486.172	43.79
486.525	43.73
486.878	43.94
487.23	43.94
487.583	44.12
487.936	44.39
488.288	44.53
488.641	44.31
488.993	44.05
489.345	44.28
489.698	44.2
490.05	44.24
490.402	44.46
490.754	44.64
491.107	44.78
491.459	45
491.811	45.31
492.163	45.34
492.515	45.44
492.866	45.02
493.218	44.85
493.57	44.84
493.922	44.96
494.274	45.31
494.625	45.38
494.977	45.83
495.328	45.94
495.68	46.33
496.031	46.43
496.383	46.33
496.734	46.66
497.086	46.7
497.437	46.69
497.788	46.83
498.139	46.67
498.49	46.6
498.842	46.49
499.193	46.74
499.544	46.93
499.894	46.67
500.245	46.97
500.596	47
500.947	47.11
501.298	47.22
501.648	47.28
501.999	47.59
502.35	47.55
502.7	47.64
503.051	47.69
503.401	47.91
503.752	47.8
504.102	47.79
504.452	47.94
504.803	47.95
505.153	48
505.503	48.05
505.853	48.16
506.203	48.2
506.553	48.15
506.903	48.19
507.253	48.24
507.603	48.32
507.953	48.39
508.303	48.4
508.652	48.61
509.002	48.37
509.352	48.39
509.701	48.42
510.051	48.53
510.4	48.46
510.75	48.33
511.099	48.33
511.449	48.5
511.798	48.66
512.147	48.61
512.496	48.73
512.846	48.93
513.195	48.91
513.544	48.99
513.893	48.91
514.242	49
514.591	48.98
514.939	48.99
515.288	49.26
515.637	49.02
515.986	49.39
516.334	49.5
516.683	49.37
517.032	49.53
517.38	49.54
517.729	49.46
518.077	49.84
518.426	49.87
518.774	49.72
519.122	49.76
519.47	49.52
519.819	49.63
520.167	49.35
520.515	49.36
520.863	49.42
521.211	49.5
521.559	49.71
521.907	49.83
522.255	49.84
522.602	50.1
522.95	50.36
523.298	50.16
523.645	50.45
523.993	50.49
524.341	50.74
524.688	50.61
525.036	50.33
525.383	50.62
525.73	50.85
526.078	50.5
526.425	50.58
526.772	50.23
527.119	50.57
527.466	50.3
527.814	50.13
528.161	50.54
528.508	50.62
528.854	50.36
529.201	50.55
529.548	50.28
529.895	50.09
530.242	49.98
530.588	50.16
530.935	50.17
531.282	50.26
531.628	50.44
531.975	50.39
532.321	50.52
532.667	50.75
533.014	51.06
533.36	51.12
533.706	51.33
534.052	51.3
534.399	51.09
534.745	50.96
535.091	50.85
535.437	50.83
535.783	50.97
536.129	51.19
536.474	51.36
536.82	51.68
537.166	51.76
537.512	52.18
537.857	52.11
538.203	51.76
538.549	51.66
538.894	51.78
539.239	52.06
539.585	52.21
539.93	52.08
540.276	52.37
540.621	52.52
540.966	52.4
541.311	52.74
541.656	52.49
542.001	52.61
542.346	52.44
542.691	52.22
543.036	51.88
543.381	51.87
543.726	51.9
544.071	51.87
544.415	52.22
544.76	52.37
545.105	52.63
545.449	52.56
545.794	52.74
546.138	52.93
546.483	53.13
546.827	53.38
547.171	53.27
547.516	53.27
547.86	53.36
548.204	53.37
548.548	53.33
548.892	53.34
549.236	53.48
549.58	53.41
549.924	53.8
550.268	53.94
550.612	53.83
550.956	54.01
551.3	54.32
551.643	54.48
551.987	54.14
552.33	54.87
552.674	54.74
553.017	54.64
553.361	54.61
553.704	54.29
554.048	54.81
554.391	54.65
554.734	54.42
555.077	54.62
555.42	54.57
555.764	54.56
556.107	54.57
556.45	54.61
556.793	54.79
557.135	54.9
557.478	55.14
557.821	55.34
558.164	55.26
558.507	55.48
558.849	55.38
559.192	55.64
559.534	55.77
559.877	55.6
560.219	55.83
560.562	55.73
560.904	55.8
561.246	55.7
561.589	55.85
561.931	55.69
562.273	55.66
562.615	55.83
562.957	56.1
563.299	56.1
563.641	56.07
563.983	56.13
564.325	56.58
564.667	56.13
565.008	56.1
565.35	56.43
565.692	56.09
566.033	56.22
566.375	56.34
566.716	56.4
567.058	56.22
567.399	56.52
567.741	56.27
568.082	56.28
568.423	56.09
568.764	56.33
569.105	56.17
569.447	56.14
569.788	56.43
570.129	56.43
570.47	56.63
570.811	56.98
571.151	56.63
571.492	57.04
571.833	57.19
572.174	56.67
572.514	56.88
572.855	57.05
573.195	56.81
573.536	56.7
573.876	56.97
574.217	56.97
574.557	56.95
574.898	56.8
575.238	57.22
575.578	57.41
575.918	57.35
576.258	57.38
576.598	56.95
576.938	57.14
577.278	57.3
577.618	57.33
577.958	57.76
578.298	57.68
578.638	57.53
578.977	57.71
579.317	57.73
579.657	57.78
579.996	58.14
580.336	58.15
580.675	58.11
581.014	58.16
581.354	58.47
581.693	58.5
582.032	58.51
582.372	58.56
582.711	58.59
583.05	58.4
583.389	58.88
583.728	58.95
584.067	58.55
584.406	58.54
584.745	58.29
585.083	58.79
585.422	58.92
585.761	58.85
586.1	58.71
586.438	59.04
586.777	58.67
587.115	59.25
587.454	59.18
587.792	59.23
588.13	59.4
588.469	59.35
588.807	59.16
589.145	59.73
589.483	59.09
589.821	59.44
590.159	59.15
590.497	59.41
590.835	59.17
591.173	59.47
591.511	59.44
591.849	59.45
592.187	59.39
592.524	59.53
592.862	59.58
593.2	59.24
593.537	59.72
593.875	59.94
594.212	59.48
594.55	59.72
594.887	60.1
595.224	59.57
595.561	59.72
595.899	59.81
596.236	59.7
596.573	59.99
596.91	59.82
597.247	60.1
597.584	60.36
597.921	59.93
598.258	60.09
598.594	60.31
598.931	59.68
599.268	59.79
599.604	59.94
599.941	59.94
600.277	60.47
600.614	60.41
600.95	60.66
601.287	60.57
601.623	60.48
601.959	60.63
602.296	60.66
602.632	60.41
602.968	60.6
603.304	60.65
603.64	60.91
603.976	61
604.312	61.21
604.648	60.99
604.984	61.3
605.319	60.82
605.655	60.8
605.991	60.86
606.326	60.71
606.662	60.5
606.998	60.76
607.333	60.7
607.668	61.21
608.004	60.85
608.339	61.43
608.674	61.3
609.01	61.44
609.345	61.76
609.68	61.27
610.015	61.71
610.35	61.05
610.685	61.25
611.02	61.17
611.355	61.44
611.689	61.44
612.024	61.07
612.359	61.78
612.694	61.54
613.028	61.53
613.363	61.35
613.697	62.29
614.032	61.86
614.366	62
614.7	61.55
615.035	61.99
615.369	62.26
615.703	61.91
616.037	61.63
616.371	62.42
616.705	62.51
617.039	62.43
617.373	62.27
617.707	62.52
618.041	62.76
618.375	62.32
618.709	62.23
619.042	62.69
619.376	62.57
619.71	63.1
620.043	62.57
620.377	62.61
620.71	62.24
621.043	62.81
621.377	62.66
621.71	63.16
622.043	62.94
622.376	63.35
622.709	62.74
623.043	63.22
623.376	63.54
623.709	63.26
624.041	63.49
624.374	62.52
624.707	62.91
625.04	63.46
625.373	63.49
625.705	63.44
626.038	63.43
626.37	63.48
626.703	63.5
627.035	63.34
627.368	63.23
627.7	63.22
628.032	63.46
628.365	63.2
628.697	63.58
629.029	63.72
629.361	63.32
629.693	63.21
630.025	63.6
630.357	63.17
630.689	63.25
631.021	63.57
631.353	63.5
631.684	63.86
632.016	63.58
632.348	64
632.679	63.72
633.011	64.11
633.342	64.03
633.674	64.19
634.005	64.15
634.336	64.39
634.668	63.61
634.999	64.34
635.33	63.9
635.661	63.83
635.992	64.1
636.323	63.77
636.654	64.02
636.985	63.91
637.316	63.8
637.647	64.24
637.977	63.99
638.308	64.86
638.639	64.15
638.969	64.33
639.3	64.52
639.63	64.55
639.961	64.67
640.291	64.47
640.622	64.49
640.952	64.86
641.282	65.24
641.612	65.21
641.943	64.87
642.273	65.06
642.603	65.01
642.933	64.3
643.263	64.96
643.592	65.07
643.922	64.82
644.252	64.78
644.582	65.26
644.911	65.04
645.241	65.1
645.571	65.33
645.9	65.6
646.23	65.08
646.559	65.3
646.888	65.44
647.218	65.89
647.547	64.68
647.876	65.05
648.205	65.66
648.534	65.83
648.863	65.27
649.192	65.85
649.521	65.48
649.85	65.35
650.179	66.1
650.508	66.2
650.837	65.69
651.165	65.67
651.494	65.38
651.822	65.96
652.151	65.87
652.479	65.83
652.808	66.3
653.136	66.09
653.465	66.06
653.793	65.82
654.121	66.24
654.449	66.15
654.777	65.94
655.105	66.43
655.433	66.21
655.761	66.96
656.089	65.28
656.417	66.02
656.745	65.67
657.073	66.23
657.4	66.16
657.728	65.51
658.056	65.88
658.383	66.2
658.711	66.68
659.038	65.12
659.365	67.02
659.693	66.2
660.02	66.68
660.347	66.85
660.674	66.28
661.001	66.07
661.329	66
661.656	66.2
661.982	66.36
662.309	66
662.636	66.89
662.963	66.43
663.29	66.84
663.616	66.54
663.943	67.01
664.27	66.37
664.596	67.3
664.923	66.82
665.249	66.76
665.576	66.81
665.902	67.63
666.228	66.73
666.554	66.36
666.881	66.1
667.207	67.37
667.533	66.97
667.859	67.16
668.185	66.57
668.511	67.04
668.837	67.18
669.162	67.6
