Data from 431_crown_Reflection__3__130.txt Node

Date: Tue Dec 12 19:27:46 CST 2023
User: ToomeyLab
Spectrometer: FLMS14357
Trigger mode: 0
Integration Time (sec): 1.000000E-2
Scans to average: 100
Electric dark correction enabled: true
Nonlinearity correction enabled: false
Boxcar width: 0
XAxis mode: Wavelengths
Number of Pixels in Spectrum: 2048
>>>>>Begin Spectral Data<<<<<
189.047	95.26
189.435	95.26
189.823	95.26
190.211	48.93
190.599	22.16
190.987	35.92
191.375	-3111.84
191.763	-30.45
192.151	128.55
192.538	-22.77
192.926	39.29
193.314	248.08
193.702	39.27
194.089	-99.97
194.477	-247.83
194.864	-283.49
195.252	0.64
195.639	-181.19
196.027	44.16
196.414	-310.18
196.801	136.99
197.189	68.63
197.576	15.47
197.963	65.32
198.351	-10.03
198.738	78.49
199.125	11.38
199.512	-43.73
199.899	4.57
200.286	-10.62
200.673	-2.44
201.06	-42.57
201.447	-84.11
201.833	26.16
202.22	-5.44
202.607	-121.44
202.994	16.17
203.38	7.75
203.767	-2.5
204.154	25.37
204.54	28.4
204.927	-8.58
205.313	29.91
205.699	18.01
206.086	-72.71
206.472	-10.2
206.858	3.66
207.245	25.96
207.631	9.5
208.017	1.8
208.403	-24.9
208.789	21.07
209.175	-47.41
209.561	17.78
209.947	1.69
210.333	-5.22
210.719	12.12
211.105	-38.8
211.491	16.36
211.876	3.78
212.262	28.92
212.648	-35.32
213.034	-133.61
213.419	-4.12
213.805	-3.26
214.19	25.29
214.576	18.62
214.961	3.88
215.346	-2.79
215.732	29.46
216.117	-1.37
216.502	-35.9
216.888	-6.49
217.273	-16.46
217.658	-16.98
218.043	-36.21
218.428	9.12
218.813	14.83
219.198	-31.51
219.583	15.17
219.968	-2.06
220.353	-37.14
220.738	8.55
221.122	5.71
221.507	-21.76
221.892	12.81
222.276	0.94
222.661	1.79
223.046	-15.78
223.43	2.28
223.815	-9.07
224.199	7.76
224.583	1.4
224.968	-2.67
225.352	-9.95
225.736	1.37
226.121	3.03
226.505	-0.43
226.889	-10.37
227.273	-4.91
227.657	5.86
228.041	3.96
228.425	-0.06
228.809	1.63
229.193	1.63
229.577	1.94
229.961	-0.26
230.344	2.11
230.728	2.56
231.112	2.1
231.495	1.77
231.879	1.54
232.263	0.72
232.646	1.16
233.03	1.46
233.413	0.7
233.797	0.75
234.18	-0.11
234.563	0.5
234.946	3.33
235.33	1.92
235.713	0.87
236.096	0.46
236.479	1.36
236.862	2.25
237.245	1.7
237.628	0.8
238.011	0.27
238.394	0.66
238.777	1.74
239.16	0.92
239.543	1.47
239.925	1.04
240.308	0.8
240.691	1.32
241.073	2.16
241.456	2.31
241.838	1.21
242.221	2.28
242.603	1.45
242.986	0.98
243.368	2.43
243.75	1.98
244.133	1.9
244.515	2.98
244.897	2.48
245.279	2.51
245.661	2.13
246.043	1.5
246.425	2.4
246.807	0.82
247.189	2.28
247.571	2.66
247.953	1.89
248.335	2.5
248.717	2.38
249.098	2.27
249.48	2.47
249.862	2.36
250.243	2.18
250.625	2.88
251.006	2.83
251.388	2.86
251.769	2.07
252.151	1.89
252.532	3.41
252.913	3.3
253.295	3.02
253.676	2.15
254.057	2.03
254.438	2.71
254.819	2.63
255.2	1.9
255.581	1.91
255.962	1.87
256.343	1.89
256.724	2.64
257.105	2.15
257.486	1.81
257.867	2.46
258.247	2
258.628	2.6
259.009	1.51
259.389	1.81
259.77	1.33
260.15	2.59
260.531	2.63
260.911	2.9
261.292	1.92
261.672	2.03
262.052	2.16
262.432	2.3
262.813	2.27
263.193	1.84
263.573	2.37
263.953	2.58
264.333	3.22
264.713	1.91
265.093	2.23
265.473	3.28
265.853	1.53
266.233	2.19
266.612	0.95
266.992	1.65
267.372	3.47
267.752	3.17
268.131	1.62
268.511	2.02
268.89	1.67
269.27	1.3
269.649	2
270.029	1.45
270.408	2.09
270.787	1.72
271.167	2.29
271.546	2.13
271.925	2.27
272.304	2.44
272.683	1.58
273.062	2.25
273.441	2.13
273.82	1.74
274.199	1.66
274.578	1.71
274.957	1.96
275.336	2.01
275.715	2.31
276.093	1.2
276.472	1.78
276.851	2.4
277.229	1.49
277.608	1.51
277.986	1.47
278.365	2
278.743	1.56
279.122	2.29
279.5	1.14
279.878	1.47
280.257	2.23
280.635	1.34
281.013	1.65
281.391	2.42
281.769	1.53
282.147	1.95
282.525	1.4
282.903	1.54
283.281	1.63
283.659	1.94
284.037	2.04
284.415	2.36
284.792	1.8
285.17	1.68
285.548	2.35
285.925	1.75
286.303	2.16
286.68	2.34
287.058	2.17
287.435	1.84
287.813	2
288.19	2.06
288.567	2.14
288.945	2.33
289.322	1.7
289.699	2.22
290.076	2.42
290.453	2.36
290.83	2.07
291.207	2.58
291.584	1.99
291.961	2.49
292.338	2.3
292.715	2.33
293.092	2.27
293.469	2.24
293.845	2.38
294.222	2.81
294.599	2.65
294.975	2.07
295.352	2.59
295.728	2.69
296.105	2.75
296.481	3.17
296.858	2.38
297.234	2.95
297.61	2.77
297.986	2.84
298.363	3.09
298.739	2.7
299.115	2.34
299.491	2.93
299.867	2.87
300.243	3.01
300.619	2.94
300.995	3.16
301.371	3.35
301.746	3.14
302.122	3.83
302.498	3.28
302.874	3.39
303.249	3.5
303.625	2.84
304	3.49
304.376	3.46
304.751	2.89
305.127	2.88
305.502	3.42
305.878	3.06
306.253	3.4
306.628	3.68
307.003	2.98
307.378	3.51
307.754	3.64
308.129	3.16
308.504	3.8
308.879	2.94
309.254	4.03
309.629	3.51
310.003	3.27
310.378	3.8
310.753	4.12
311.128	3.53
311.502	2.79
311.877	3.09
312.252	3.06
312.626	3.69
313.001	3.38
313.375	3.25
313.75	3.86
314.124	3.62
314.498	3.54
314.873	2.99
315.247	3.66
315.621	3.46
315.995	3.71
316.369	3.81
316.743	3.33
317.117	3.12
317.491	3.3
317.865	3.51
318.239	3.7
318.613	3.91
318.987	3.23
319.361	3.16
319.734	3.2
320.108	3.93
320.482	3.93
320.855	3.34
321.229	4.05
321.602	3.64
321.976	4.03
322.349	3.75
322.723	3.78
323.096	4.31
323.469	3.65
323.843	4.37
324.216	4.17
324.589	4.22
324.962	4.86
325.335	4.36
325.708	3.78
326.081	4.06
326.454	3.81
326.827	4.64
327.2	3.92
327.573	3.76
327.945	4.23
328.318	4.56
328.691	3.4
329.063	4.25
329.436	4.05
329.809	3.68
330.181	3.35
330.553	4.5
330.926	4.5
331.298	4.09
331.671	3.97
332.043	4.16
332.415	4.15
332.787	3.97
333.159	4.43
333.532	3.9
333.904	4.1
334.276	4.44
334.648	4.54
335.02	3.2
335.391	3.79
335.763	3.41
336.135	3.75
336.507	4.08
336.879	3.54
337.25	3.77
337.622	4.06
337.993	3.96
338.365	3.88
338.736	3.79
339.108	4.38
339.479	4.18
339.851	3.87
340.222	3.57
340.593	4.11
340.964	4.51
341.336	4.51
341.707	3.58
342.078	3.82
342.449	3.78
342.82	4.52
343.191	3.65
343.562	4.26
343.933	4.38
344.303	4.23
344.674	4.31
345.045	4.02
345.416	4.35
345.786	4.14
346.157	3.73
346.527	4.29
346.898	3.41
347.268	3.98
347.639	3.92
348.009	3.82
348.38	3.53
348.75	4.1
349.12	4.08
349.49	4.12
349.861	4.4
350.231	4.24
350.601	4.13
350.971	4.28
351.341	4.07
351.711	4.32
352.081	4.13
352.45	3.89
352.82	4.51
353.19	4.05
353.56	3.61
353.929	3.86
354.299	4.13
354.669	3.7
355.038	3.43
355.408	3.96
355.777	4.3
356.147	4.07
356.516	4.14
356.885	4.03
357.254	4.04
357.624	3.71
357.993	4.09
358.362	4.04
358.731	4.31
359.1	3.84
359.469	4.08
359.838	3.89
360.207	3.89
360.576	4.36
360.945	3.94
361.314	4.06
361.682	4.32
362.051	3.97
362.42	4.06
362.788	3.79
363.157	4.14
363.525	4.21
363.894	4.03
364.262	4.03
364.631	3.62
364.999	4.14
365.367	4.18
365.735	4.19
366.104	4.03
366.472	3.76
366.84	4.08
367.208	4.05
367.576	3.59
367.944	4.24
368.312	4.15
368.68	4.22
369.048	4.19
369.416	4.04
369.783	4.08
370.151	4.01
370.519	3.6
370.886	4.02
371.254	3.97
371.621	4.36
371.989	4.18
372.356	3.97
372.724	4.08
373.091	3.88
373.458	4.09
373.826	4.09
374.193	3.69
374.56	4.22
374.927	4.04
375.294	4.07
375.661	4.46
376.028	4.52
376.395	4.56
376.762	4.54
377.129	4.36
377.496	4.3
377.863	3.96
378.229	4.29
378.596	3.92
378.963	4.57
379.329	3.89
379.696	4.28
380.062	4.09
380.429	4.27
380.795	4.67
381.161	4.17
381.528	4.03
381.894	4.32
382.26	3.98
382.626	4.45
382.993	4.12
383.359	4.14
383.725	4.24
384.091	4.11
384.457	4.16
384.823	4.25
385.188	3.99
385.554	4.15
385.92	4.12
386.286	4.16
386.651	4.38
387.017	4.43
387.383	4.04
387.748	4.33
388.114	4.5
388.479	4.51
388.845	4.4
389.21	4.21
389.575	4.15
389.94	4.41
390.306	4.19
390.671	3.91
391.036	4.47
391.401	4.05
391.766	4.2
392.131	4.47
392.496	4.18
392.861	4.13
393.226	4.54
393.591	4.2
393.956	4.22
394.32	4.23
394.685	4.43
395.05	4.12
395.414	4.23
395.779	4.29
396.143	4.5
396.508	4.26
396.872	4.21
397.236	4.25
397.601	4.36
397.965	4.41
398.329	4.43
398.694	4.02
399.058	4.43
399.422	4.06
399.786	4.34
400.15	4.04
400.514	4.36
400.878	4.42
401.242	4.27
401.605	4.32
401.969	4.38
402.333	4.38
402.697	4.29
403.06	4.06
403.424	4.31
403.787	4.13
404.151	4.8
404.514	4.17
404.878	4.23
405.241	4.52
405.604	4.38
405.968	4.18
406.331	4.52
406.694	4.43
407.057	4.19
407.42	4.19
407.783	4.35
408.146	4.55
408.509	4.37
408.872	4.54
409.235	4.35
409.598	4.19
409.961	4.32
410.323	4.1
410.686	4.53
411.049	4.47
411.411	4.44
411.774	4.59
412.136	4.53
412.499	4.39
412.861	4.34
413.223	4.73
413.586	4.22
413.948	4.38
414.31	4.41
414.672	4.54
415.035	4.41
415.397	4.42
415.759	4.45
416.121	4.46
416.483	4.53
416.845	4.31
417.206	4.54
417.568	4.43
417.93	4.59
418.292	4.38
418.653	4.35
419.015	4.46
419.377	4.37
419.738	4.49
420.1	4.32
420.461	4.44
420.822	4.5
421.184	4.45
421.545	4.6
421.906	4.31
422.267	4.37
422.629	4.42
422.99	4.44
423.351	4.45
423.712	4.36
424.073	4.44
424.434	4.45
424.795	4.52
425.155	4.39
425.516	4.33
425.877	4.43
426.238	4.44
426.598	4.26
426.959	4.51
427.32	4.41
427.68	4.55
428.041	4.62
428.401	4.41
428.761	4.43
429.122	4.54
429.482	4.75
429.842	4.64
430.202	4.47
430.563	4.49
430.923	4.52
431.283	4.45
431.643	4.5
432.003	4.48
432.363	4.76
432.722	4.49
433.082	4.69
433.442	4.51
433.802	4.6
434.161	4.52
434.521	4.59
434.881	4.55
435.24	4.58
435.6	4.59
435.959	4.58
436.319	4.64
436.678	4.74
437.037	4.4
437.396	4.59
437.756	4.51
438.115	4.62
438.474	4.52
438.833	4.65
439.192	4.62
439.551	4.62
439.91	4.49
440.269	4.45
440.628	4.63
440.987	4.55
441.345	4.65
441.704	4.65
442.063	4.61
442.421	4.64
442.78	4.67
443.138	4.58
443.497	4.7
443.855	4.6
444.214	4.64
444.572	4.71
444.93	4.71
445.288	4.54
445.647	4.81
446.005	4.59
446.363	4.44
446.721	4.67
447.079	4.67
447.437	4.59
447.795	4.66
448.153	4.62
448.51	4.62
448.868	4.8
449.226	4.73
449.584	4.7
449.941	4.65
450.299	4.79
450.656	4.72
451.014	4.64
451.371	4.84
451.729	4.85
452.086	4.79
452.443	4.87
452.801	4.79
453.158	4.76
453.515	4.87
453.872	4.72
454.229	4.79
454.586	4.74
454.943	4.7
455.3	4.67
455.657	4.83
456.014	4.86
456.371	4.8
456.727	4.76
457.084	4.79
457.441	4.95
457.797	4.91
458.154	4.77
458.51	4.83
458.867	4.94
459.223	4.95
459.58	4.82
459.936	4.71
460.292	4.87
460.648	4.8
461.005	4.74
461.361	4.76
461.717	4.86
462.073	4.75
462.429	4.72
462.785	4.8
463.141	4.85
463.496	4.77
463.852	5.05
464.208	4.92
464.564	4.85
464.919	5.07
465.275	5.01
465.631	4.94
465.986	4.7
466.342	4.76
466.697	4.82
467.052	5
467.408	4.9
467.763	4.99
468.118	4.95
468.473	5.08
468.829	4.95
469.184	4.89
469.539	4.97
469.894	5.02
470.249	5.03
470.603	5.11
470.958	5
471.313	5.12
471.668	5.09
472.023	4.92
472.377	4.79
472.732	4.96
473.086	5.01
473.441	5.15
473.795	4.89
474.15	5.1
474.504	4.78
474.859	5.02
475.213	4.76
475.567	5.01
475.921	4.88
476.275	4.98
476.63	4.92
476.984	4.97
477.338	5.09
477.692	4.91
478.045	5.05
478.399	4.87
478.753	4.87
479.107	5.08
479.461	5.09
479.814	4.96
480.168	4.95
480.521	4.92
480.875	5.13
481.228	5.21
481.582	5.08
481.935	5.09
482.289	5.06
482.642	5.19
482.995	5.06
483.348	5.04
483.701	5.22
484.055	5.13
484.408	4.97
484.761	4.98
485.114	4.91
485.466	4.86
485.819	4.81
486.172	4.76
486.525	4.77
486.878	4.88
487.23	4.9
487.583	4.93
487.936	5.08
488.288	4.94
488.641	4.99
488.993	4.94
489.345	4.96
489.698	4.94
490.05	4.93
490.402	4.97
490.754	4.9
491.107	5
491.459	5.07
491.811	5.16
492.163	5.08
492.515	5.11
492.866	5.06
493.218	4.96
493.57	5
493.922	4.89
494.274	5
494.625	5.09
494.977	5.18
495.328	5.23
495.68	5.24
496.031	5.28
496.383	5.23
496.734	5.25
497.086	5.07
497.437	5.13
497.788	5.21
498.139	5.13
498.49	5.37
498.842	5.21
499.193	5.3
499.544	5.22
499.894	5.23
500.245	5.14
500.596	5.1
500.947	5.32
501.298	5.37
501.648	5.33
501.999	5.27
502.35	5.29
502.7	5.4
503.051	5.36
503.401	5.28
503.752	5.48
504.102	5.34
504.452	5.33
504.803	5.22
505.153	5.41
505.503	5.4
505.853	5.4
506.203	5.31
506.553	5.32
506.903	5.35
507.253	5.39
507.603	5.46
507.953	5.32
508.303	5.39
508.652	5.39
509.002	5.47
509.352	5.32
509.701	5.47
510.051	5.52
510.4	5.35
510.75	5.2
511.099	5.41
511.449	5.41
511.798	5.38
512.147	5.46
512.496	5.45
512.846	5.39
513.195	5.36
513.544	5.47
513.893	5.42
514.242	5.45
514.591	5.32
514.939	5.34
515.288	5.41
515.637	5.24
515.986	5.53
516.334	5.61
516.683	5.42
517.032	5.62
517.38	5.29
517.729	5.55
518.077	5.44
518.426	5.6
518.774	5.46
519.122	5.53
519.47	5.45
519.819	5.53
520.167	5.47
520.515	5.35
520.863	5.45
521.211	5.37
521.559	5.39
521.907	5.51
522.255	5.5
522.602	5.51
522.95	5.39
523.298	5.49
523.645	5.59
523.993	5.58
524.341	5.51
524.688	5.54
525.036	5.59
525.383	5.46
525.73	5.55
526.078	5.55
526.425	5.62
526.772	5.47
527.119	5.61
527.466	5.53
527.814	5.44
528.161	5.55
528.508	5.51
528.854	5.52
529.201	5.59
529.548	5.55
529.895	5.46
530.242	5.34
530.588	5.37
530.935	5.36
531.282	5.4
531.628	5.39
531.975	5.41
532.321	5.49
532.667	5.43
533.014	5.52
533.36	5.61
533.706	5.58
534.052	5.51
534.399	5.6
534.745	5.6
535.091	5.54
535.437	5.51
535.783	5.44
536.129	5.57
536.474	5.56
536.82	5.6
537.166	5.67
537.512	5.69
537.857	5.72
538.203	5.62
538.549	5.68
538.894	5.65
539.239	5.67
539.585	5.62
539.93	5.66
540.276	5.57
540.621	5.84
540.966	5.77
541.311	5.67
541.656	5.76
542.001	5.72
542.346	5.7
542.691	5.69
543.036	5.57
543.381	5.5
543.726	5.66
544.071	5.56
544.415	5.58
544.76	5.66
545.105	5.75
545.449	5.74
545.794	5.72
546.138	5.68
546.483	5.84
546.827	5.86
547.171	5.95
547.516	5.83
547.86	5.74
548.204	5.82
548.548	5.79
548.892	5.84
549.236	5.86
549.58	5.75
549.924	5.85
550.268	5.96
550.612	5.87
550.956	5.93
551.3	6
551.643	5.98
551.987	6.03
552.33	6.11
552.674	6.1
553.017	5.93
553.361	6.12
553.704	5.81
554.048	5.93
554.391	6.04
554.734	6.06
555.077	6.14
555.42	5.85
555.764	6.06
556.107	6.04
556.45	5.88
556.793	5.99
557.135	6.08
557.478	5.98
557.821	5.9
558.164	6.05
558.507	6.11
558.849	6.18
559.192	6.28
559.534	6.17
559.877	6.19
560.219	6.22
560.562	6.02
560.904	6.23
561.246	6.15
561.589	6.01
561.931	6.28
562.273	6.09
562.615	5.95
562.957	5.98
563.299	6.28
563.641	6.21
563.983	6.19
564.325	6.19
564.667	6.2
565.008	5.89
565.35	6.14
565.692	6.06
566.033	6.32
566.375	6.05
566.716	5.87
567.058	6.34
567.399	6.16
567.741	6.26
568.082	6.06
568.423	6.21
568.764	6.14
569.105	6.03
569.447	6.09
569.788	6.26
570.129	6.24
570.47	6.42
570.811	6.33
571.151	6.19
571.492	6.34
571.833	6.31
572.174	6.18
572.514	6.24
572.855	6.43
573.195	6.24
573.536	6.16
573.876	6.21
574.217	6.31
574.557	6.18
574.898	6.26
575.238	6.45
575.578	6.42
575.918	6.29
576.258	6.29
576.598	6.25
576.938	6.24
577.278	6.28
577.618	6.36
577.958	6.21
578.298	6.44
578.638	6.48
578.977	6.24
579.317	6.23
579.657	6.47
579.996	6.48
580.336	6.24
580.675	6.63
581.014	6.32
581.354	6.46
581.693	6.34
582.032	6.36
582.372	6.49
582.711	6.38
583.05	6.44
583.389	6.43
583.728	6.52
584.067	6.79
584.406	6.66
584.745	6.53
585.083	6.46
585.422	6.63
585.761	6.65
586.1	6.42
586.438	6.55
586.777	6.42
587.115	6.47
587.454	6.66
587.792	6.38
588.13	6.5
588.469	6.76
588.807	6.44
589.145	6.64
589.483	6.44
589.821	6.61
590.159	6.69
590.497	6.42
590.835	6.44
591.173	6.5
591.511	6.54
591.849	6.59
592.187	6.76
592.524	6.33
592.862	6.29
593.2	6.63
593.537	6.49
593.875	6.72
594.212	6.39
594.55	6.82
594.887	6.92
595.224	6.61
595.561	6.73
595.899	6.58
596.236	6.73
596.573	6.56
596.91	6.71
597.247	6.53
597.584	6.7
597.921	6.78
598.258	6.83
598.594	6.64
598.931	6.59
599.268	6.6
599.604	6.46
599.941	6.7
600.277	6.72
600.614	6.75
600.95	6.53
601.287	6.69
601.623	7.03
601.959	6.59
602.296	7.03
602.632	6.8
602.968	6.76
603.304	6.94
603.64	7.09
603.976	6.48
604.312	6.89
604.648	6.92
604.984	6.9
605.319	6.69
605.655	6.82
605.991	6.95
606.326	6.6
606.662	6.95
606.998	6.62
607.333	6.68
607.668	6.79
608.004	6.95
608.339	6.98
608.674	6.71
609.01	6.82
609.345	7.14
609.68	6.95
610.015	6.7
610.35	6.69
610.685	6.97
611.02	6.91
611.355	6.6
611.689	6.79
612.024	6.8
612.359	6.89
612.694	6.99
613.028	6.97
613.363	6.65
613.697	7.25
614.032	7.09
614.366	7.18
614.7	7
615.035	6.9
615.369	6.86
615.703	7.24
616.037	7.04
616.371	6.93
616.705	7.11
617.039	7
617.373	7.09
617.707	6.41
618.041	7.1
618.375	6.86
618.709	6.87
619.042	7.08
619.376	6.9
619.71	7.13
620.043	7.15
620.377	7.26
620.71	6.8
621.043	6.74
621.377	6.74
621.71	7.03
622.043	7.19
622.376	7.14
622.709	7.32
623.043	6.96
623.376	7.46
623.709	7.44
624.041	7.25
624.374	6.97
624.707	7.07
625.04	6.93
625.373	7.31
625.705	7.63
626.038	7.42
626.37	7.46
626.703	7.27
627.035	7.1
627.368	7.44
627.7	7.35
628.032	7
628.365	7.12
628.697	7.41
629.029	6.97
629.361	6.98
629.693	7.1
630.025	7.21
630.357	7.18
630.689	7
631.021	7.33
631.353	7.41
631.684	7.4
632.016	7.01
632.348	7.59
632.679	7.05
633.011	7.51
633.342	7.37
633.674	7.55
634.005	7.2
634.336	7.22
634.668	7.68
634.999	7.56
635.33	7.37
635.661	7.15
635.992	7.31
636.323	6.99
636.654	7.3
636.985	7.19
637.316	7.43
637.647	7.39
637.977	7.63
638.308	7.63
638.639	7.43
638.969	7.32
639.3	7.46
639.63	7.39
639.961	7.72
640.291	7.17
640.622	7.39
640.952	7.73
641.282	7.46
641.612	7.27
641.943	7.3
642.273	7.83
642.603	7.62
642.933	7.99
643.263	7.48
643.592	7.57
643.922	7.97
644.252	7.61
644.582	7.43
644.911	7.46
645.241	6.84
645.571	7.94
645.9	7.4
646.23	7.22
646.559	7.77
646.888	7.39
647.218	7.48
647.547	7.21
647.876	7.45
648.205	7.67
648.534	7.86
648.863	7.55
649.192	7.79
649.521	8.01
649.85	7.28
650.179	7.86
650.508	7.82
650.837	7.77
651.165	7.5
651.494	7.45
651.822	7.5
652.151	7.94
652.479	7.89
652.808	7.93
653.136	7.67
653.465	7.72
653.793	7.67
654.121	7.7
654.449	7.49
654.777	7.71
655.105	8.03
655.433	7.94
655.761	7.62
656.089	7.62
656.417	7.69
656.745	7.53
657.073	7.2
657.4	7.8
657.728	7.63
658.056	7.88
658.383	7.62
658.711	8.12
659.038	7.95
659.365	7.38
659.693	7.59
660.02	7.79
660.347	7.86
660.674	7.84
661.001	7.9
661.329	7.85
661.656	7.57
661.982	7.94
662.309	7.69
662.636	7.93
662.963	8.21
663.29	7.73
663.616	7.45
663.943	8.04
664.27	8.17
664.596	7.85
664.923	8.59
665.249	7.71
665.576	7.75
665.902	7.95
666.228	8.03
666.554	7.72
666.881	7.38
667.207	8.08
667.533	8.08
667.859	7.69
668.185	7.93
668.511	8.02
668.837	8.45
669.162	8.65
669.488	7.92
669.814	7.5
670.139	7.39
670.465	7.55
670.791	7.8
671.116	7.72
671.442	8.15
671.767	7.9
672.092	8.68
672.418	7.94
672.743	8.23
673.068	7.65
673.393	8.29
673.718	8.52
674.043	8.55
674.368	7.65
674.693	7.78
675.018	8.24
675.343	8.22
675.667	8.66
675.992	8.3
676.317	8.1
676.641	8.76
676.966	8.07
677.29	7.89
677.615	8.61
677.939	8.37
678.264	8.45
678.588	8.1
678.912	8.25
679.236	8.17
679.56	8.21
679.885	8.53
680.209	8.32
680.532	8.58
680.856	8.13
681.18	7.62
681.504	8.26
681.828	8.16
682.152	7.87
682.475	8.78
682.799	8.41
683.122	8.02
683.446	8.42
683.769	9.01
684.093	8.11
684.416	8.65
684.739	8.39
685.062	7.63
685.386	7.89
685.709	8.8
686.032	8.06
686.355	8.09
686.678	8.35
687.001	7.37
687.324	8.24
687.646	8.52
687.969	8.14
688.292	8.63
688.614	8.5
688.937	8.29
689.26	8.45
689.582	7.72
689.904	7.88
690.227	8.22
690.549	8.87
690.871	8.62
691.194	8.35
691.516	9.32
691.838	7.52
692.16	8.97
692.482	8.27
692.804	8.13
