Data from 431_forehead_Reflection__3__135.txt Node

Date: Tue Dec 12 19:29:07 CST 2023
User: ToomeyLab
Spectrometer: FLMS14357
Trigger mode: 0
Integration Time (sec): 1.000000E-2
Scans to average: 100
Electric dark correction enabled: true
Nonlinearity correction enabled: false
Boxcar width: 0
XAxis mode: Wavelengths
Number of Pixels in Spectrum: 2048
>>>>>Begin Spectral Data<<<<<
189.047	-60.79
189.435	-60.79
189.823	-60.79
190.211	-51.59
190.599	94.84
190.987	101.99
191.375	2865.79
191.763	58.32
192.151	128.52
192.538	48.52
192.926	24.71
193.314	59.28
193.702	51.54
194.089	-28.78
194.477	242.83
194.864	-338.75
195.252	64.06
195.639	-1.2
196.027	37.31
196.414	-18.19
196.801	18.88
197.189	46.34
197.576	143.26
197.963	71.09
198.351	41.85
198.738	48.38
199.125	35.57
199.512	10.35
199.899	21.95
200.286	49.68
200.673	35.36
201.06	42.33
201.447	-68.42
201.833	29.7
202.22	-5.29
202.607	-2.78
202.994	30.48
203.38	20.98
203.767	18.24
204.154	32.26
204.54	45.48
204.927	37.91
205.313	18.72
205.699	9.5
206.086	-5.97
206.472	46.33
206.858	19.08
207.245	58.77
207.631	47.02
208.017	37.14
208.403	-15.31
208.789	18.97
209.175	5.5
209.561	4.58
209.947	-61.18
210.333	33.91
210.719	-8.83
211.105	6.39
211.491	44.9
211.876	37.25
212.262	14.27
212.648	-9.38
213.034	90.72
213.419	-6.35
213.805	41.5
214.19	28.23
214.576	37.01
214.961	9.67
215.346	0.39
215.732	20.11
216.117	16.35
216.502	4.51
216.888	-14.91
217.273	8.2
217.658	-5.38
218.043	16.47
218.428	22.97
218.813	9.83
219.198	-2.05
219.583	22.26
219.968	23.21
220.353	-18.26
220.738	18.64
221.122	19.39
221.507	13.22
221.892	9.68
222.276	13.63
222.661	18.98
223.046	-10.75
223.43	3.19
223.815	-4.54
224.199	6.39
224.583	13.94
224.968	-0.13
225.352	3.23
225.736	6.82
226.121	1.27
226.505	9.27
226.889	6.5
227.273	4.17
227.657	5.63
228.041	7.36
228.425	0.04
228.809	3.41
229.193	2.49
229.577	3.93
229.961	1.71
230.344	3.25
230.728	3.42
231.112	3.18
231.495	2.7
231.879	4.52
232.263	3.05
232.646	3.31
233.03	2.78
233.413	2.03
233.797	3.14
234.18	1.3
234.563	0.73
234.946	4.65
235.33	5.54
235.713	4.26
236.096	3.44
236.479	2.67
236.862	5.09
237.245	2.77
237.628	3.39
238.011	2.19
238.394	1.86
238.777	2.95
239.16	4.38
239.543	5.13
239.925	3.71
240.308	3.69
240.691	3.9
241.073	4.7
241.456	3.72
241.838	2.44
242.221	3.87
242.603	2.83
242.986	2.69
243.368	3.09
243.75	2.32
244.133	2.7
244.515	3.67
244.897	3.76
245.279	4.1
245.661	2.38
246.043	2.41
246.425	3.83
246.807	2.59
247.189	3.19
247.571	3.62
247.953	2.74
248.335	3
248.717	2.91
249.098	2.97
249.48	3.01
249.862	2.8
250.243	3.14
250.625	3.94
251.006	3.34
251.388	3.65
251.769	3.1
252.151	3.01
252.532	3.09
252.913	4.06
253.295	3.73
253.676	3.28
254.057	3.08
254.438	3.45
254.819	3.24
255.2	3.49
255.581	3.22
255.962	2.18
256.343	3.96
256.724	3.1
257.105	4.56
257.486	2.8
257.867	3.19
258.247	3.16
258.628	3.15
259.009	2.73
259.389	3.33
259.77	3.44
260.15	2.94
260.531	4.38
260.911	3.83
261.292	2.84
261.672	3.04
262.052	2.93
262.432	3.27
262.813	3.12
263.193	2.77
263.573	3.35
263.953	3.61
264.333	4.42
264.713	3.07
265.093	3.53
265.473	4.03
265.853	2.77
266.233	2.77
266.612	3.15
266.992	4.18
267.372	3.21
267.752	4.14
268.131	2.24
268.511	2.48
268.89	2.4
269.27	2.48
269.649	3.16
270.029	2.91
270.408	3.81
270.787	2.97
271.167	2.78
271.546	2.93
271.925	3.3
272.304	3.94
272.683	2.97
273.062	3.08
273.441	3.35
273.82	2.42
274.199	3.27
274.578	3.07
274.957	3.21
275.336	3.04
275.715	3.42
276.093	2.76
276.472	3.38
276.851	3.57
277.229	2.95
277.608	3
277.986	2.76
278.365	3.2
278.743	3.39
279.122	3.7
279.5	3.12
279.878	2.63
280.257	3.2
280.635	3.29
281.013	2.86
281.391	3.39
281.769	2.9
282.147	3.5
282.525	2.8
282.903	3.11
283.281	3.5
283.659	3.27
284.037	3.62
284.415	3.21
284.792	3.18
285.17	3.02
285.548	3.59
285.925	3.31
286.303	3.01
286.68	3.39
287.058	3.71
287.435	3.07
287.813	2.69
288.19	3.19
288.567	3.01
288.945	3.36
289.322	2.79
289.699	3.51
290.076	3.39
290.453	3.75
290.83	2.77
291.207	3.92
291.584	3.76
291.961	3.24
292.338	3.31
292.715	3.47
293.092	3.23
293.469	3.59
293.845	3.83
294.222	3.95
294.599	3.64
294.975	3.56
295.352	3.45
295.728	4.04
296.105	3.99
296.481	4.25
296.858	4.03
297.234	4.29
297.61	4.12
297.986	3.86
298.363	4.24
298.739	4.1
299.115	4.03
299.491	4.22
299.867	4.11
300.243	3.94
300.619	4.69
300.995	4.4
301.371	4.28
301.746	4.84
302.122	5.18
302.498	4.89
302.874	4.62
303.249	5.06
303.625	4.82
304	4.73
304.376	5.03
304.751	4.82
305.127	4.71
305.502	5.1
305.878	4.98
306.253	4.94
306.628	5.01
307.003	5.02
307.378	5.26
307.754	5.37
308.129	5.39
308.504	6.86
308.879	5.65
309.254	6.05
309.629	5.56
310.003	6.1
310.378	5.94
310.753	6.28
311.128	6.24
311.502	5.73
311.877	5.88
312.252	5.82
312.626	6.08
313.001	5.65
313.375	5.96
313.75	6.4
314.124	6.39
314.498	6.46
314.873	6.71
315.247	6.92
315.621	6.18
315.995	7.39
316.369	6.99
316.743	6.83
317.117	6.66
317.491	6.94
317.865	7.68
318.239	7.66
318.613	7.96
318.987	7.84
319.361	6.95
319.734	7.68
320.108	7.95
320.482	8.44
320.855	8.04
321.229	8.25
321.602	8.23
321.976	8.15
322.349	8.35
322.723	8.41
323.096	7.95
323.469	7.93
323.843	9.58
324.216	8.61
324.589	9.33
324.962	9.05
325.335	8.9
325.708	8.64
326.081	9.14
326.454	8.44
326.827	9.67
327.2	9.2
327.573	8.84
327.945	9.74
328.318	9.41
328.691	8.79
329.063	9.69
329.436	9.07
329.809	9.36
330.181	8.99
330.553	9.34
330.926	9.84
331.298	9.86
331.671	10.43
332.043	10.32
332.415	10.68
332.787	10.29
333.159	10.05
333.532	10.27
333.904	9.98
334.276	11.36
334.648	10.06
335.02	10.29
335.391	10.67
335.763	10.42
336.135	10.84
336.507	10.86
336.879	10.96
337.25	10.83
337.622	10.38
337.993	11.14
338.365	10.64
338.736	11.22
339.108	11.06
339.479	11.53
339.851	10.75
340.222	10.94
340.593	11.34
340.964	11.67
341.336	11.7
341.707	11.43
342.078	11.05
342.449	11.74
342.82	12.33
343.191	12.25
343.562	11.48
343.933	12.05
344.303	11.89
344.674	12.33
345.045	12.29
345.416	12.56
345.786	12
346.157	12.39
346.527	12.74
346.898	12.32
347.268	12.27
347.639	12.68
348.009	12.28
348.38	12.84
348.75	12.92
349.12	13.13
349.49	13.01
349.861	13.54
350.231	13.23
350.601	13.46
350.971	13.49
351.341	13.65
351.711	13.6
352.081	13.7
352.45	13.25
352.82	13.86
353.19	13.21
353.56	14.1
353.929	13.49
354.299	13.49
354.669	14.1
355.038	13.08
355.408	13.76
355.777	13.99
356.147	13.8
356.516	14.1
356.885	14.34
357.254	14.3
357.624	14.27
357.993	14.6
358.362	14.42
358.731	14.65
359.1	14.06
359.469	14.63
359.838	14.59
360.207	14.71
360.576	15.26
360.945	14.87
361.314	15.32
361.682	15.1
362.051	15.42
362.42	15.3
362.788	15.01
363.157	15.65
363.525	15.61
363.894	15.38
364.262	15.23
364.631	15.3
364.999	15.71
365.367	16.09
365.735	15.52
366.104	15.69
366.472	15.88
366.84	16.06
367.208	16.21
367.576	15.93
367.944	16.12
368.312	16.23
368.68	16.36
369.048	16.32
369.416	16.42
369.783	16.76
370.151	16.7
370.519	16.63
370.886	16.65
371.254	16.92
371.621	16.98
371.989	17.12
372.356	17.27
372.724	17.06
373.091	17.31
373.458	16.98
373.826	17.51
374.193	17.37
374.56	17.77
374.927	17.84
375.294	17.8
375.661	18.11
376.028	18.01
376.395	18.04
376.762	18.23
377.129	17.8
377.496	18.46
377.863	18.28
378.229	18.27
378.596	18.17
378.963	18.37
379.329	18.4
379.696	18.31
380.062	18.78
380.429	18.71
380.795	19.14
381.161	19.3
381.528	19.1
381.894	19
382.26	18.47
382.626	19.17
382.993	19.2
383.359	19.07
383.725	19.35
384.091	19.94
384.457	19.5
384.823	19.81
385.188	19.5
385.554	19.61
385.92	19.59
386.286	20.13
386.651	20.24
387.017	20.37
387.383	19.95
387.748	20.35
388.114	20.05
388.479	20.46
388.845	20.59
389.21	20.35
389.575	20.36
389.94	20.53
390.306	20.82
390.671	20.91
391.036	21.01
391.401	20.97
391.766	21.17
392.131	20.88
392.496	21.1
392.861	21.15
393.226	21.39
393.591	21.13
393.956	21.22
394.32	21.64
394.685	21.76
395.05	21.66
395.414	21.74
395.779	21.44
396.143	22
396.508	21.91
396.872	21.9
397.236	21.97
397.601	22.18
397.965	22.24
398.329	22.37
398.694	21.98
399.058	22.5
399.422	22.62
399.786	22.63
400.15	22.34
400.514	22.92
400.878	23.01
401.242	22.87
401.605	23.08
401.969	23.01
402.333	23.29
402.697	23.39
403.06	22.89
403.424	23.3
403.787	23.3
404.151	23.81
404.514	23.27
404.878	23.46
405.241	23.75
405.604	23.42
405.968	23.7
406.331	23.87
406.694	23.88
407.057	23.85
407.42	24.16
407.783	23.85
408.146	24.17
408.509	24.33
408.872	24.24
409.235	24.43
409.598	24.53
409.961	24.85
410.323	24.9
410.686	24.77
411.049	25.07
411.411	24.99
411.774	24.96
412.136	25
412.499	25.03
412.861	25.24
413.223	25.44
413.586	25.08
413.948	25.35
414.31	25.57
414.672	25.56
415.035	25.81
415.397	25.69
415.759	25.61
416.121	25.84
416.483	25.78
416.845	26.05
417.206	25.94
417.568	25.94
417.93	26.25
418.292	26.1
418.653	26.04
419.015	26.11
419.377	26.22
419.738	26.27
420.1	26.34
420.461	26.16
420.822	26.27
421.184	26.29
421.545	26.47
421.906	26.24
422.267	26.29
422.629	26.35
422.99	26.41
423.351	26.3
423.712	26.54
424.073	26.73
424.434	26.94
424.795	26.92
425.155	26.78
425.516	26.96
425.877	27.06
426.238	27.08
426.598	27.14
426.959	27.1
427.32	27.2
427.68	27.56
428.041	27.71
428.401	27.69
428.761	27.8
429.122	28.18
429.482	28.32
429.842	28.34
430.202	28.34
430.563	28.56
430.923	28.66
431.283	28.58
431.643	28.95
432.003	28.57
432.363	29.02
432.722	28.81
433.082	28.9
433.442	29
433.802	29
434.161	29.09
434.521	29.15
434.881	28.99
435.24	29.24
435.6	29.02
435.959	29.15
436.319	29.35
436.678	29.37
437.037	29.64
437.396	29.45
437.756	29.45
438.115	29.69
438.474	29.95
438.833	30.1
439.192	30.26
439.551	29.94
439.91	30.08
440.269	29.97
440.628	30.17
440.987	30.08
441.345	30.26
441.704	30.2
442.063	30.16
442.421	30.33
442.78	30.19
443.138	30.2
443.497	30.47
443.855	30.7
444.214	30.94
444.572	30.93
444.93	30.9
445.288	31.16
445.647	31.28
446.005	31.16
446.363	30.98
446.721	31.14
447.079	31.18
447.437	31.1
447.795	31.25
448.153	31.02
448.51	31.27
448.868	31.23
449.226	31.55
449.584	31.63
449.941	31.55
450.299	31.74
450.656	31.95
451.014	31.9
451.371	32.08
451.729	32.33
452.086	32.22
452.443	32.64
452.801	32.61
453.158	32.49
453.515	32.79
453.872	32.68
454.229	32.64
454.586	32.51
454.943	32.65
455.3	32.88
455.657	32.82
456.014	33.13
456.371	33.11
456.727	33.14
457.084	33.2
457.441	33.48
457.797	33.6
458.154	33.39
458.51	33.79
458.867	33.96
459.223	34.07
459.58	33.58
459.936	33.71
460.292	33.75
460.648	33.78
461.005	33.65
461.361	33.67
461.717	33.59
462.073	33.44
462.429	33.79
462.785	33.99
463.141	34.18
463.496	34.24
463.852	34.57
464.208	34.56
464.564	34.62
464.919	34.89
465.275	35.09
465.631	35.03
465.986	34.93
466.342	34.94
466.697	35.24
467.052	35.34
467.408	35.26
467.763	35.12
468.118	35.33
468.473	35.54
468.829	35.51
469.184	35.55
469.539	35.59
469.894	35.58
470.249	35.64
470.603	35.6
470.958	35.9
471.313	35.7
471.668	36.28
472.023	36.14
472.377	36.06
472.732	35.96
473.086	36.14
473.441	36.5
473.795	36.28
474.15	36.38
474.504	36.27
474.859	36.57
475.213	36.43
475.567	36.83
475.921	36.86
476.275	36.58
476.63	36.6
476.984	37.18
477.338	37.13
477.692	37.08
478.045	37.12
478.399	37.05
478.753	37.22
479.107	37.09
479.461	37.2
479.814	37.65
480.168	37.36
480.521	37.37
480.875	37.21
481.228	37.47
481.582	37.62
481.935	37.67
482.289	37.79
482.642	37.81
482.995	37.45
483.348	37.62
483.701	37.7
484.055	37.54
484.408	37.31
484.761	37.15
485.114	36.93
485.466	36.66
485.819	36.84
486.172	36.83
486.525	36.8
486.878	36.95
487.23	37.16
487.583	37.33
487.936	37.67
488.288	37.71
488.641	37.78
488.993	37.31
489.345	37.42
489.698	37.39
490.05	37.52
490.402	37.64
490.754	37.73
491.107	37.93
491.459	38.29
491.811	38.56
492.163	38.73
492.515	38.69
492.866	38.4
493.218	38.3
493.57	38.21
493.922	38.23
494.274	38.45
494.625	38.68
494.977	38.9
495.328	39.2
495.68	39.46
496.031	39.77
496.383	39.74
496.734	39.99
497.086	40
497.437	40.13
497.788	40.26
498.139	40
498.49	40.08
498.842	40.14
499.193	40.11
499.544	40.16
499.894	40.16
500.245	40.31
500.596	40.35
500.947	40.68
501.298	40.39
501.648	40.69
501.999	40.78
502.35	41.06
502.7	40.95
503.051	40.99
503.401	40.98
503.752	41.11
504.102	41.14
504.452	41.53
504.803	41.22
505.153	41.54
505.503	41.42
505.853	41.65
506.203	41.69
506.553	41.63
506.903	41.37
507.253	41.87
507.603	41.73
507.953	42.08
508.303	41.79
508.652	42.1
509.002	41.91
509.352	41.98
509.701	42
510.051	42.06
510.4	41.92
510.75	41.92
511.099	41.76
511.449	41.71
511.798	42.1
512.147	42.25
512.496	42.26
512.846	42.3
513.195	42.07
513.544	42.41
513.893	42.27
514.242	42.5
514.591	42.41
514.939	42.5
515.288	42.83
515.637	42.73
515.986	42.85
516.334	43.15
516.683	43.11
517.032	43
517.38	43.26
517.729	43.21
518.077	43.23
518.426	43.49
518.774	43.18
519.122	43.17
519.47	43.18
519.819	43.15
520.167	42.82
520.515	42.97
520.863	42.92
521.211	42.89
521.559	43.03
521.907	43.34
522.255	43.4
522.602	43.62
522.95	43.83
523.298	43.97
523.645	43.82
523.993	44.06
524.341	44.17
524.688	44.27
525.036	44.25
525.383	44.05
525.73	44.25
526.078	44.46
526.425	44.34
526.772	44.12
527.119	44.19
527.466	43.85
527.814	43.77
528.161	43.97
528.508	43.99
528.854	44.05
529.201	44.02
529.548	43.89
529.895	43.87
530.242	43.51
530.588	43.51
530.935	43.55
531.282	43.48
531.628	43.51
531.975	43.61
532.321	44.14
532.667	44.27
533.014	44.41
533.36	44.68
533.706	44.68
534.052	44.76
534.399	44.79
534.745	44.66
535.091	44.44
535.437	44.42
535.783	44.54
536.129	44.62
536.474	44.6
536.82	45.1
537.166	45.18
537.512	45.51
537.857	45.48
538.203	45.37
538.549	45.24
538.894	45.4
539.239	45.44
539.585	45.48
539.93	45.53
540.276	45.93
540.621	45.97
540.966	46.15
541.311	46.32
541.656	46.2
542.001	46.26
542.346	46.02
542.691	46.05
543.036	45.53
543.381	45.32
543.726	45.46
544.071	45.4
544.415	45.6
544.76	45.65
545.105	45.99
545.449	46.1
545.794	46.45
546.138	46.43
546.483	46.6
546.827	46.91
547.171	46.83
547.516	46.99
547.86	47.07
548.204	46.96
548.548	46.66
548.892	46.81
549.236	46.97
549.58	47.02
549.924	47.23
550.268	47.4
550.612	47.36
550.956	47.64
551.3	47.95
551.643	47.85
551.987	47.87
552.33	48.15
552.674	48.41
553.017	48.33
553.361	48.28
553.704	48.08
554.048	48.43
554.391	48.08
554.734	48.2
555.077	48.25
555.42	48.11
555.764	48.16
556.107	48.36
556.45	48.38
556.793	48.63
557.135	48.77
557.478	48.91
557.821	48.66
558.164	48.99
558.507	49.17
558.849	49
559.192	48.96
559.534	49.1
559.877	49.23
560.219	49.1
560.562	49.27
560.904	49.09
561.246	49.17
561.589	49.16
561.931	49.18
562.273	49.19
562.615	49.25
562.957	49.51
563.299	49.52
563.641	49.59
563.983	49.45
564.325	49.59
564.667	49.51
565.008	49.57
565.35	49.99
565.692	49.86
566.033	49.91
566.375	49.96
566.716	49.75
567.058	49.85
567.399	49.84
567.741	49.7
568.082	49.7
568.423	49.9
568.764	49.61
569.105	49.86
569.447	49.7
569.788	50.07
570.129	50.01
570.47	50.31
570.811	50.33
571.151	50.22
571.492	50.22
571.833	50.51
572.174	50.19
572.514	50.48
572.855	50.64
573.195	50.34
573.536	50.31
573.876	50.37
574.217	50.43
574.557	50.42
574.898	50.46
575.238	50.74
575.578	50.58
575.918	50.65
576.258	50.73
576.598	50.87
576.938	50.8
577.278	50.84
577.618	50.85
577.958	51
578.298	51.25
578.638	51.22
578.977	50.94
579.317	51.32
579.657	51.03
579.996	51.48
580.336	51.15
580.675	51.62
581.014	51.64
581.354	51.65
581.693	52.02
582.032	51.73
582.372	51.91
582.711	52.09
583.05	51.99
583.389	52.21
583.728	51.89
584.067	51.84
584.406	52.14
584.745	51.95
585.083	52.16
585.422	52.6
585.761	52.23
586.1	52.67
586.438	52.41
586.777	52.43
587.115	52.41
587.454	52.45
587.792	52.42
588.13	52.39
588.469	52.68
588.807	52.61
589.145	52.85
589.483	52.66
589.821	52.56
590.159	52.85
590.497	52.99
590.835	52.57
591.173	53.08
591.511	52.71
591.849	52.77
592.187	52.54
592.524	52.84
592.862	52.66
593.2	52.52
593.537	53.15
593.875	53.32
594.212	53.08
594.55	53.15
594.887	53.28
595.224	52.69
595.561	53.34
595.899	53.19
596.236	53.3
596.573	53.28
596.91	53.38
597.247	53.06
597.584	53.61
597.921	53.34
598.258	53.48
598.594	53.43
598.931	53.4
599.268	53.07
599.604	53.15
599.941	53.2
600.277	53.49
600.614	53.72
600.95	53.49
601.287	53.74
601.623	53.59
601.959	53.94
602.296	54.14
602.632	53.48
602.968	54.04
603.304	53.95
603.64	54.1
603.976	53.83
604.312	54.31
604.648	54.22
604.984	54.31
605.319	54.13
605.655	54.04
605.991	53.94
606.326	53.72
606.662	53.69
606.998	54.13
607.333	54.25
607.668	54.12
608.004	53.99
608.339	54.29
608.674	54.47
609.01	54.57
609.345	54.58
609.68	54.74
610.015	54.4
610.35	54.56
610.685	54.31
611.02	54.68
611.355	54.34
611.689	54.59
612.024	54.59
612.359	54.53
612.694	54.44
613.028	54.68
613.363	54.72
613.697	54.87
614.032	54.66
614.366	55.25
614.7	54.81
615.035	55.05
615.369	55.21
615.703	55.32
616.037	54.72
616.371	55.75
616.705	55.7
617.039	55.53
617.373	55.49
617.707	55.95
618.041	55.91
618.375	55.72
618.709	55.51
619.042	55.87
619.376	55.83
619.71	55.7
620.043	55.71
620.377	55.4
620.71	55.39
621.043	55.89
621.377	55.48
621.71	55.84
622.043	56.11
622.376	56.02
622.709	55.95
623.043	56.03
623.376	56.58
623.709	56.34
624.041	56.42
624.374	56.15
624.707	56.27
625.04	56.38
625.373	56.91
625.705	56.27
626.038	56.29
626.37	56.63
626.703	56.19
627.035	56.12
627.368	56.41
627.7	56.22
628.032	56.78
628.365	56.11
628.697	56.52
629.029	56.45
629.361	56.24
629.693	56.46
630.025	56.33
630.357	56.36
630.689	56.27
631.021	56.8
631.353	56.81
631.684	56.89
632.016	56.97
632.348	56.93
632.679	56.19
633.011	57.12
633.342	57.35
633.674	57.52
634.005	57.11
634.336	57.36
634.668	57.31
634.999	56.99
635.33	56.98
635.661	57.34
635.992	56.84
636.323	57.08
636.654	57.04
636.985	57.26
637.316	57.21
637.647	57.03
637.977	57.46
638.308	57.27
638.639	57.02
638.969	57.44
639.3	57.85
639.63	57.28
639.961	57.64
640.291	57.37
640.622	57.94
640.952	57.94
641.282	58.06
641.612	58.3
641.943	57.77
642.273	57.94
642.603	58.31
642.933	58.02
643.263	57.33
643.592	58.14
643.922	58.03
644.252	58.45
644.582	57.81
644.911	58.18
645.241	57.52
645.571	58.39
645.9	57.53
646.23	57.6
646.559	58.52
646.888	58.14
647.218	58.4
647.547	57.46
647.876	58.35
648.205	57.71
648.534	58.44
648.863	58.3
649.192	58.38
649.521	57.87
649.85	58.14
650.179	58.24
650.508	58.65
650.837	58.11
651.165	58.86
651.494	58.72
651.822	58.32
652.151	58.36
652.479	58.66
652.808	58.28
653.136	58.97
653.465	59.14
653.793	58.64
654.121	58.64
654.449	58.7
654.777	58.68
655.105	58.96
655.433	58.7
655.761	59.67
656.089	58.42
656.417	59.02
656.745	58.86
657.073	58.03
657.4	58.58
657.728	58.32
658.056	59.65
658.383	58.45
658.711	59.34
659.038	58.63
659.365	59.53
659.693	59.21
660.02	58.57
660.347	59.03
660.674	59.33
661.001	59.16
661.329	59.27
661.656	59.44
661.982	58.99
662.309	59.16
662.636	59.17
662.963	59.76
663.29	58.77
663.616	59.44
663.943	58.58
664.27	59.09
664.596	59.13
664.923	59.84
665.249	59.24
665.576	59.37
665.902	60.18
666.228	60.29
666.554	59.29
666.881	58.7
667.207	59.48
667.533	59.41
667.859	60.56
668.185	60.11
668.511	59.99
668.837	59.88
669.162	60.35
669.488	59.55
669.814	59.72
670.139	60.18
670.465	59.9
670.791	59.76
