Data from 431_forehead_Reflection__2__134.txt Node

Date: Tue Dec 12 19:28:56 CST 2023
User: ToomeyLab
Spectrometer: FLMS14357
Trigger mode: 0
Integration Time (sec): 1.000000E-2
Scans to average: 100
Electric dark correction enabled: true
Nonlinearity correction enabled: false
Boxcar width: 0
XAxis mode: Wavelengths
Number of Pixels in Spectrum: 2048
>>>>>Begin Spectral Data<<<<<
189.047	-33.78
189.435	-33.78
189.823	-33.78
190.211	7.67
190.599	87.49
190.987	62.39
191.375	4785.53
191.763	21.95
192.151	134.02
192.538	2
192.926	96.89
193.314	253.25
193.702	63.39
194.089	-4.42
194.477	82.55
194.864	-111.84
195.252	22.72
195.639	-112.29
196.027	7.1
196.414	-58.49
196.801	38.06
197.189	20.1
197.576	94.06
197.963	59.51
198.351	34.4
198.738	69.64
199.125	35.14
199.512	18.89
199.899	80.05
200.286	49.23
200.673	41.51
201.06	45.14
201.447	28.94
201.833	11.65
202.22	24.88
202.607	-16.51
202.994	80.22
203.38	39.05
203.767	29.43
204.154	21.97
204.54	84.97
204.927	42.66
205.313	38
205.699	33.19
206.086	67.42
206.472	72.38
206.858	41.96
207.245	25.82
207.631	44.7
208.017	48.05
208.403	-2.52
208.789	46.37
209.175	61.13
209.561	50.9
209.947	58.93
210.333	49.5
210.719	34.13
211.105	37.2
211.491	8.75
211.876	31.78
212.262	49.12
212.648	13.93
213.034	54.84
213.419	-17.1
213.805	36.15
214.19	27.9
214.576	12.19
214.961	73.22
215.346	2.99
215.732	31.2
216.117	22.45
216.502	26.55
216.888	8.51
217.273	-0.88
217.658	27.13
218.043	41.17
218.428	28.47
218.813	37.46
219.198	3.2
219.583	39.1
219.968	22.96
220.353	27.45
220.738	35.92
221.122	25.45
221.507	-6.72
221.892	13.26
222.276	28.97
222.661	15.02
223.046	3.45
223.43	6.9
223.815	6.99
224.199	23.05
224.583	12.76
224.968	18
225.352	-0.19
225.736	20.36
226.121	12.18
226.505	15.92
226.889	9.4
227.273	9.73
227.657	17.46
228.041	9.45
228.425	8.65
228.809	7.15
229.193	7.43
229.577	8.92
229.961	7.59
230.344	7.85
230.728	8.28
231.112	6.76
231.495	6.49
231.879	7.65
232.263	7.64
232.646	6.89
233.03	7.26
233.413	6.68
233.797	7.98
234.18	7.09
234.563	5.14
234.946	8.02
235.33	9.59
235.713	8.14
236.096	7.77
236.479	6.72
236.862	8.1
237.245	7.15
237.628	7.7
238.011	8.78
238.394	7.06
238.777	7.83
239.16	9.58
239.543	7.59
239.925	8.49
240.308	8.06
240.691	6.39
241.073	7.5
241.456	7.67
241.838	6.64
242.221	7.47
242.603	7.13
242.986	6.81
243.368	6.71
243.75	6.23
244.133	6.61
244.515	6.57
244.897	6.82
245.279	7.12
245.661	6.31
246.043	6.51
246.425	7.35
246.807	6.77
247.189	7.62
247.571	7.8
247.953	6.6
248.335	6.5
248.717	6.41
249.098	6.4
249.48	6.41
249.862	6.41
250.243	6.47
250.625	7.18
251.006	7.01
251.388	7.5
251.769	7.32
252.151	6.91
252.532	7.05
252.913	7.81
253.295	7.67
253.676	6.45
254.057	6.47
254.438	6.96
254.819	6.88
255.2	7.34
255.581	7.69
255.962	7.16
256.343	7.93
256.724	8.26
257.105	8
257.486	6.18
257.867	6.48
258.247	6.26
258.628	6.54
259.009	6.76
259.389	7.34
259.77	7.56
260.15	7.22
260.531	7.04
260.911	7.26
261.292	6.63
261.672	6.41
262.052	6.59
262.432	6.45
262.813	6.87
263.193	7.24
263.573	7.05
263.953	7.58
264.333	7.42
264.713	7.1
265.093	7.29
265.473	7.74
265.853	6.77
266.233	6.58
266.612	5.97
266.992	7.58
267.372	7.43
267.752	7.52
268.131	6.06
268.511	6.34
268.89	6.24
269.27	5.34
269.649	6.76
270.029	6.73
270.408	7.11
270.787	6.95
271.167	6.94
271.546	6.47
271.925	6.93
272.304	7.33
272.683	5.85
273.062	6.66
273.441	6.44
273.82	6.12
274.199	6.49
274.578	6.42
274.957	6.31
275.336	6.71
275.715	6.62
276.093	6.19
276.472	7.03
276.851	7.1
277.229	6.4
277.608	6.84
277.986	6.46
278.365	7.21
278.743	6.93
279.122	7.07
279.5	6.9
279.878	5.89
280.257	6.25
280.635	6.19
281.013	7.03
281.391	6.46
281.769	6.41
282.147	6.91
282.525	6.35
282.903	6.31
283.281	6.94
283.659	6.33
284.037	7
284.415	6.29
284.792	7.01
285.17	6.6
285.548	7.14
285.925	6.58
286.303	6.75
286.68	6.44
287.058	6.51
287.435	6.54
287.813	6.17
288.19	6.67
288.567	6.53
288.945	6.78
289.322	5.99
289.699	7.06
290.076	6.89
290.453	7.05
290.83	6.96
291.207	7.34
291.584	6.98
291.961	7.27
292.338	7.2
292.715	7.22
293.092	7
293.469	6.94
293.845	7.15
294.222	7.38
294.599	7.31
294.975	7.69
295.352	7.58
295.728	7.33
296.105	7.98
296.481	7.92
296.858	8.03
297.234	8.13
297.61	8.3
297.986	8.19
298.363	8.24
298.739	8.09
299.115	7.66
299.491	8.22
299.867	8.27
300.243	8.19
300.619	8.29
300.995	8.98
301.371	8.98
301.746	9.11
302.122	9.65
302.498	9.43
302.874	9.74
303.249	9.56
303.625	9.03
304	9.84
304.376	9.1
304.751	9.27
305.127	9.47
305.502	9.72
305.878	9.42
306.253	9.83
306.628	10.07
307.003	10.05
307.378	10.24
307.754	10.67
308.129	9.98
308.504	11
308.879	10.51
309.254	11.08
309.629	10.74
310.003	10.88
310.378	11.16
310.753	11.31
311.128	11.39
311.502	10.97
311.877	11.64
312.252	10.98
312.626	11.45
313.001	11.86
313.375	11.23
313.75	12.18
314.124	12.06
314.498	12.18
314.873	12.08
315.247	12.7
315.621	12.64
315.995	13.11
316.369	12.96
316.743	12.97
317.117	12.64
317.491	13.05
317.865	13.68
318.239	12.95
318.613	13.69
318.987	13.93
319.361	13.01
319.734	13.32
320.108	13.87
320.482	13.83
320.855	13.79
321.229	14.24
321.602	14.46
321.976	14.55
322.349	14.9
322.723	15.15
323.096	15.33
323.469	14.49
323.843	15.82
324.216	15.59
324.589	15.74
324.962	15.93
325.335	15.7
325.708	15.5
326.081	15.7
326.454	15.68
326.827	16.35
327.2	16.11
327.573	15.61
327.945	16.07
328.318	16.47
328.691	15.79
329.063	16.71
329.436	16.49
329.809	16.22
330.181	16.25
330.553	17.32
330.926	17.54
331.298	17.42
331.671	17.54
332.043	17.01
332.415	17.88
332.787	17.32
333.159	17.6
333.532	17.89
333.904	17.52
334.276	18.14
334.648	17.68
335.02	18.26
335.391	18.13
335.763	17.77
336.135	18.31
336.507	18.63
336.879	17.96
337.25	18.69
337.622	18.41
337.993	18.95
338.365	18.4
338.736	19.16
339.108	18.77
339.479	18.96
339.851	18.76
340.222	19.07
340.593	19.77
340.964	20.2
341.336	19.82
341.707	18.89
342.078	19.43
342.449	19.89
342.82	19.86
343.191	20.02
343.562	20.22
343.933	20.05
344.303	20.82
344.674	20.61
345.045	20.9
345.416	20.8
345.786	20.66
346.157	20.41
346.527	21.1
346.898	20.64
347.268	20.94
347.639	21.25
348.009	21.25
348.38	21.2
348.75	21.37
349.12	21.4
349.49	21.32
349.861	22
350.231	21.63
350.601	21.92
350.971	22.35
351.341	22.38
351.711	22.68
352.081	22.43
352.45	21.94
352.82	22.67
353.19	22.74
353.56	22.38
353.929	22.57
354.299	22.6
354.669	22.56
355.038	22.6
355.408	23.17
355.777	22.95
356.147	23.05
356.516	23.31
356.885	22.96
357.254	23.13
357.624	23.34
357.993	23.54
358.362	23.95
358.731	23.71
359.1	23.6
359.469	23.65
359.838	23.65
360.207	23.86
360.576	24
360.945	24.22
361.314	24.6
361.682	24.54
362.051	24.47
362.42	24.4
362.788	24.23
363.157	24.42
363.525	24.54
363.894	24.57
364.262	24.67
364.631	24.69
364.999	25.18
365.367	25.07
365.735	25.26
366.104	25.34
366.472	24.86
366.84	25.31
367.208	24.98
367.576	25.37
367.944	25.68
368.312	25.92
368.68	25.84
369.048	26.38
369.416	26.21
369.783	26.72
370.151	26.16
370.519	26.43
370.886	26.42
371.254	26.37
371.621	27.07
371.989	26.99
372.356	26.64
372.724	26.77
373.091	26.98
373.458	27.16
373.826	27.14
374.193	27.22
374.56	27.81
374.927	27.78
375.294	27.83
375.661	28.12
376.028	27.72
376.395	27.88
376.762	28.4
377.129	28.23
377.496	28.65
377.863	28.58
378.229	28.17
378.596	28.38
378.963	28.69
379.329	28.38
379.696	28.58
380.062	28.82
380.429	28.71
380.795	28.71
381.161	29.12
381.528	29.26
381.894	29.25
382.26	29.12
382.626	29.25
382.993	29.76
383.359	29.25
383.725	29.72
384.091	29.77
384.457	29.46
384.823	30.01
385.188	29.87
385.554	30.11
385.92	29.91
386.286	30.47
386.651	30.57
387.017	30.9
387.383	30.26
387.748	30.58
388.114	30.97
388.479	31.13
388.845	30.9
389.21	31.12
389.575	31.12
389.94	31.48
390.306	31.21
390.671	31.47
391.036	31.45
391.401	31.49
391.766	31.81
392.131	31.84
392.496	31.59
392.861	31.52
393.226	32.28
393.591	31.88
393.956	31.84
394.32	32.52
394.685	32.37
395.05	32.61
395.414	32.74
395.779	32.31
396.143	32.83
396.508	33
396.872	32.93
397.236	32.95
397.601	33.11
397.965	33.06
398.329	33.09
398.694	33.17
399.058	33.4
399.422	33.38
399.786	33.62
400.15	33.41
400.514	34.04
400.878	33.94
401.242	33.71
401.605	34.11
401.969	34.3
402.333	34.42
402.697	34.44
403.06	34.22
403.424	34.67
403.787	34.72
404.151	34.91
404.514	34.6
404.878	34.99
405.241	34.96
405.604	35.04
405.968	34.8
406.331	35.55
406.694	35.23
407.057	35.37
407.42	35.35
407.783	35.19
408.146	36.05
408.509	35.71
408.872	35.97
409.235	36.04
409.598	36.13
409.961	36.35
410.323	36.41
410.686	36.36
411.049	36.22
411.411	36.46
411.774	36.64
412.136	36.72
412.499	36.72
412.861	36.79
413.223	37.2
413.586	37.11
413.948	37.6
414.31	37.37
414.672	37.5
415.035	37.79
415.397	37.58
415.759	37.63
416.121	37.5
416.483	37.67
416.845	37.61
417.206	37.83
417.568	37.83
417.93	38.29
418.292	38.04
418.653	38.02
419.015	38.44
419.377	38.13
419.738	38.38
420.1	38.31
420.461	38.25
420.822	38.39
421.184	38.26
421.545	38.51
421.906	38.48
422.267	38.46
422.629	38.57
422.99	38.73
423.351	38.64
423.712	38.75
424.073	38.98
424.434	39.14
424.795	39.08
425.155	39.05
425.516	39.25
425.877	39.3
426.238	39.53
426.598	39.48
426.959	39.41
427.32	39.73
427.68	39.99
428.041	39.98
428.401	40.14
428.761	40.37
429.122	40.53
429.482	40.69
429.842	40.8
430.202	40.99
430.563	40.99
430.923	41.46
431.283	41.15
431.643	41.41
432.003	41.22
432.363	41.67
432.722	41.36
433.082	41.78
433.442	41.57
433.802	41.88
434.161	41.86
434.521	41.92
434.881	41.79
435.24	41.94
435.6	41.85
435.959	42.09
436.319	42.14
436.678	42.2
437.037	42.4
437.396	42.61
437.756	42.79
438.115	42.47
438.474	42.92
438.833	43.04
439.192	43.28
439.551	43.02
439.91	42.98
440.269	43.1
440.628	43.23
440.987	43.11
441.345	43.47
441.704	43.38
442.063	43.48
442.421	43.56
442.78	43.57
443.138	43.49
443.497	43.62
443.855	43.9
444.214	44.19
444.572	44.06
444.93	44.06
445.288	44.4
445.647	44.61
446.005	44.22
446.363	44.58
446.721	44.55
447.079	44.7
447.437	44.57
447.795	44.55
448.153	44.67
448.51	44.6
448.868	44.63
449.226	44.88
449.584	45.06
449.941	45.08
450.299	45.16
450.656	45.67
451.014	45.54
451.371	45.76
451.729	45.83
452.086	46.26
452.443	46.13
452.801	46.43
453.158	46.23
453.515	46.33
453.872	46.45
454.229	46.34
454.586	46.38
454.943	46.33
455.3	46.76
455.657	46.62
456.014	46.99
456.371	47
456.727	47.22
457.084	47.45
457.441	47.3
457.797	47.44
458.154	47.81
458.51	47.63
458.867	47.99
459.223	47.71
459.58	47.78
459.936	47.65
460.292	47.92
460.648	48.07
461.005	47.8
461.361	47.78
461.717	47.63
462.073	47.54
462.429	47.69
462.785	48
463.141	48.26
463.496	48.32
463.852	48.76
464.208	48.59
464.564	48.82
464.919	49
465.275	49.24
465.631	49.26
465.986	49.43
466.342	49.09
466.697	49.38
467.052	49.54
467.408	49.67
467.763	49.81
468.118	49.91
468.473	50
468.829	49.94
469.184	49.57
469.539	50.17
469.894	50.16
470.249	50.26
470.603	50.21
470.958	50.6
471.313	50.35
471.668	50.8
472.023	50.66
472.377	50.75
472.732	50.86
473.086	50.85
473.441	51.33
473.795	51.13
474.15	51.21
474.504	51.03
474.859	51.03
475.213	51.23
475.567	51.47
475.921	51.58
476.275	51.34
476.63	51.47
476.984	51.6
477.338	51.85
477.692	51.88
478.045	52.24
478.399	52.03
478.753	51.9
479.107	52.28
479.461	52.06
479.814	52.33
480.168	52.39
480.521	52.16
480.875	52.3
481.228	52.49
481.582	52.38
481.935	52.58
482.289	52.95
482.642	52.98
482.995	52.77
483.348	52.45
483.701	52.52
484.055	52.62
484.408	52.44
484.761	52.19
485.114	51.9
485.466	51.9
485.819	52.08
486.172	52.13
486.525	51.91
486.878	52.08
487.23	52.23
487.583	52.47
487.936	52.9
488.288	52.85
488.641	52.76
488.993	52.5
489.345	52.78
489.698	52.62
490.05	52.71
490.402	52.8
490.754	52.95
491.107	53.2
491.459	53.59
491.811	53.86
492.163	53.99
492.515	54.13
492.866	53.78
493.218	53.6
493.57	53.61
493.922	53.47
494.274	53.71
494.625	53.89
494.977	54.63
495.328	54.58
495.68	55.21
496.031	55.13
496.383	55.21
496.734	55.66
497.086	55.45
497.437	55.62
497.788	55.52
498.139	55.65
498.49	55.43
498.842	55.54
499.193	55.73
499.544	55.82
499.894	55.67
500.245	55.71
500.596	56
500.947	56.16
501.298	56
501.648	56.22
501.999	56.68
502.35	56.69
502.7	56.75
503.051	56.76
503.401	56.92
503.752	56.99
504.102	57.1
504.452	57.34
504.803	57.01
505.153	57.33
505.503	57.35
505.853	57.3
506.203	57.34
506.553	57.3
506.903	57.42
507.253	57.55
507.603	57.79
507.953	57.81
508.303	57.55
508.652	57.93
509.002	57.87
509.352	57.93
509.701	58.14
510.051	58.16
510.4	58.03
510.75	58.04
511.099	57.99
511.449	57.82
511.798	58.24
512.147	58.3
512.496	58.6
512.846	58.24
513.195	58.42
513.544	58.56
513.893	58.77
514.242	58.62
514.591	58.85
514.939	58.74
515.288	58.89
515.637	58.99
515.986	59.04
516.334	59.19
516.683	59.32
517.032	59.37
517.38	59.55
517.729	59.47
518.077	59.7
518.426	59.65
518.774	59.59
519.122	59.73
519.47	59.64
519.819	59.54
520.167	59.28
520.515	59.39
520.863	59.25
521.211	59.33
521.559	59.61
521.907	59.84
522.255	59.96
522.602	60.23
522.95	60.46
523.298	60.45
523.645	60.37
523.993	60.53
524.341	60.84
524.688	60.63
525.036	60.61
525.383	60.68
525.73	60.93
526.078	60.91
526.425	60.88
526.772	60.76
527.119	61.09
527.466	60.7
527.814	60.55
528.161	60.57
528.508	60.81
528.854	60.79
529.201	60.79
529.548	60.53
529.895	60.53
530.242	60.34
530.588	60.62
530.935	60.62
531.282	60.53
531.628	60.54
531.975	60.56
532.321	61.08
532.667	61.08
533.014	61.19
533.36	61.53
533.706	61.78
534.052	61.83
534.399	61.79
534.745	61.55
535.091	61.36
535.437	61.66
535.783	61.43
536.129	61.72
536.474	61.77
536.82	62.37
537.166	62.21
537.512	62.75
537.857	62.83
538.203	62.24
538.549	62.34
538.894	62.48
539.239	62.76
539.585	62.61
539.93	62.95
540.276	63.13
540.621	63.46
540.966	63.35
541.311	63.6
541.656	63.48
542.001	63.66
542.346	63.34
542.691	62.91
543.036	62.71
543.381	62.82
543.726	62.87
544.071	62.91
544.415	62.99
544.76	63.11
545.105	63.39
545.449	63.36
545.794	63.71
546.138	63.85
546.483	63.91
546.827	64
547.171	64.53
547.516	64.6
547.86	64.46
548.204	64.49
548.548	64.32
548.892	64.51
549.236	64.73
549.58	64.5
549.924	64.6
550.268	65.02
550.612	65.26
550.956	65.27
551.3	65.46
551.643	65.6
551.987	65.42
552.33	65.68
552.674	65.95
553.017	66
553.361	66.09
553.704	65.98
554.048	65.87
554.391	65.87
554.734	65.93
555.077	66.02
555.42	65.97
555.764	66.05
556.107	66.11
556.45	66.16
556.793	66.61
557.135	66.4
557.478	66.77
557.821	66.95
558.164	66.84
558.507	66.89
558.849	66.87
559.192	66.97
559.534	67.32
559.877	67.01
560.219	67.13
560.562	67.05
560.904	67.22
561.246	67.4
561.589	67.51
561.931	67.45
562.273	67.34
562.615	67.45
562.957	67.39
563.299	67.63
563.641	67.89
563.983	67.53
564.325	67.72
564.667	67.53
565.008	67.59
565.35	68.4
565.692	68.06
566.033	68.18
566.375	68.58
566.716	68.11
567.058	67.88
567.399	68.15
567.741	68.01
568.082	68.05
568.423	68.34
568.764	68.08
569.105	68.1
569.447	67.98
569.788	68.25
570.129	68.31
570.47	68.61
570.811	68.74
571.151	68.48
571.492	68.87
571.833	68.87
572.174	68.8
572.514	68.6
572.855	69.01
573.195	68.86
573.536	68.63
573.876	68.83
574.217	69.16
574.557	68.96
574.898	69.1
575.238	69.37
575.578	69.33
575.918	69.37
576.258	69.38
576.598	69.39
576.938	69.23
577.278	69.39
577.618	69.53
577.958	69.8
578.298	69.94
578.638	69.99
578.977	69.6
579.317	70.05
579.657	69.93
579.996	70.55
580.336	70.37
580.675	70.51
581.014	70.73
581.354	70.62
581.693	70.83
582.032	71.1
582.372	70.62
582.711	71.02
583.05	70.89
583.389	71.05
583.728	70.9
584.067	70.77
584.406	71.51
584.745	70.79
585.083	71.37
585.422	71.16
585.761	71.53
586.1	71.67
586.438	71.48
586.777	71.56
587.115	71.6
587.454	71.87
587.792	71.71
588.13	71.53
588.469	71.84
588.807	71.82
589.145	71.89
589.483	72.01
589.821	72.46
590.159	71.56
590.497	72.11
590.835	72.13
591.173	72.24
591.511	72.32
591.849	72.3
592.187	72.03
592.524	72.17
592.862	71.98
593.2	72.39
593.537	72.6
593.875	72.54
594.212	72.59
594.55	72.62
594.887	72.67
595.224	72.52
595.561	72.6
595.899	72.74
596.236	72.84
596.573	72.89
596.91	73.16
597.247	72.76
597.584	73.17
597.921	73.16
598.258	72.9
598.594	72.89
598.931	72.66
599.268	72.78
599.604	72.73
599.941	72.84
600.277	73.07
600.614	73.59
600.95	73.25
601.287	73.82
601.623	73.62
601.959	73.96
602.296	73.36
602.632	73.73
602.968	73.47
603.304	73.26
603.64	73.87
603.976	73.56
604.312	74.24
604.648	74.3
604.984	73.83
605.319	73.96
605.655	73.94
605.991	74.02
606.326	73.81
606.662	73.97
606.998	73.96
607.333	73.63
607.668	74.2
608.004	73.87
608.339	74.48
608.674	74.49
609.01	74.67
609.345	74.75
609.68	74.77
610.015	74.39
610.35	74.68
610.685	74.48
611.02	74.27
611.355	74.71
611.689	74.86
612.024	74.84
612.359	74.64
612.694	75.05
613.028	74.55
613.363	74.73
613.697	75.37
614.032	75.06
614.366	75.56
614.7	75.02
615.035	75.54
615.369	75.69
615.703	75.14
616.037	75.16
616.371	75.77
616.705	75.54
617.039	75.94
617.373	75.72
617.707	75.97
618.041	75.64
618.375	75.9
618.709	76.04
619.042	75.84
619.376	75.83
619.71	76.29
620.043	75.83
620.377	76.11
620.71	75.33
621.043	75.81
621.377	76.32
621.71	76.48
622.043	76.6
622.376	76.34
622.709	76.53
623.043	76.53
623.376	76.71
623.709	77.18
624.041	76.81
624.374	76.55
624.707	76.67
625.04	77.27
625.373	76.77
625.705	77
626.038	76.93
626.37	77.03
626.703	76.55
627.035	77.15
627.368	77.12
627.7	76.48
628.032	77.24
628.365	77.02
628.697	77.18
629.029	77.27
629.361	77.24
629.693	77.12
630.025	77.47
630.357	77.23
630.689	77.06
631.021	77.71
631.353	77.57
631.684	78.19
632.016	77.32
632.348	77.97
632.679	77.6
633.011	77.89
633.342	78.48
633.674	78.16
634.005	78.04
634.336	78.46
634.668	77.53
634.999	78.2
635.33	78.42
635.661	78.31
635.992	78.14
636.323	77.85
636.654	77.77
636.985	78.08
637.316	77.94
637.647	77.81
637.977	78.02
638.308	78.55
638.639	77.82
638.969	78.48
639.3	78.75
639.63	78.67
639.961	79.4
640.291	78.44
640.622	78.74
640.952	79.1
641.282	78.97
641.612	79.41
641.943	78.59
642.273	79.26
642.603	79.4
642.933	78.96
643.263	78.48
643.592	78.83
643.922	78.87
644.252	79.74
644.582	79.07
644.911	78.82
645.241	79.93
645.571	79.39
645.9	80.18
646.23	79.6
646.559	79.81
646.888	79.81
647.218	80.4
647.547	79.46
647.876	80.06
648.205	79.59
648.534	80.13
648.863	79.78
649.192	79.65
649.521	79.79
649.85	80.63
650.179	80.15
650.508	80.58
650.837	79.28
651.165	80.36
651.494	79.88
651.822	80.09
652.151	80.02
652.479	80.3
652.808	80.14
653.136	80.4
653.465	80.78
653.793	81.24
654.121	80.26
654.449	80.77
654.777	80.21
655.105	80.56
655.433	80.98
655.761	81.03
656.089	79.7
656.417	80.17
656.745	80.54
657.073	81.42
657.4	80.25
657.728	79.89
658.056	81.26
658.383	80.39
658.711	81.44
659.038	80.05
659.365	82.02
659.693	80.37
660.02	81.19
660.347	80.67
660.674	80.97
661.001	80.78
661.329	80.97
661.656	81.1
661.982	80.65
662.309	81.06
662.636	81.84
662.963	81.17
663.29	80.89
663.616	81.4
663.943	81.87
664.27	81.39
664.596	81.38
664.923	81.48
665.249	81.54
665.576	81.36
665.902	81.71
666.228	81.77
666.554	82.25
666.881	80.82
667.207	81.64
667.533	82.07
667.859	82.83
668.185	82.32
668.511	82.77
668.837	82.09
669.162	83.05
669.488	83.19
