Data from 431_chest_Reflection__0__122.txt Node

Date: Tue Dec 12 19:25:42 CST 2023
User: ToomeyLab
Spectrometer: FLMS14357
Trigger mode: 0
Integration Time (sec): 1.000000E-2
Scans to average: 100
Electric dark correction enabled: true
Nonlinearity correction enabled: false
Boxcar width: 0
XAxis mode: Wavelengths
Number of Pixels in Spectrum: 2048
>>>>>Begin Spectral Data<<<<<
189.047	33.56
189.435	33.56
189.823	33.56
190.211	9.98
190.599	-93.13
190.987	106.57
191.375	4360.53
191.763	-115.43
192.151	123.93
192.538	3.41
192.926	134.29
193.314	-75.46
193.702	-23.43
194.089	5.95
194.477	167.36
194.864	-213.06
195.252	88.61
195.639	213.23
196.027	3.56
196.414	-324.7
196.801	39.12
197.189	264.2
197.576	156.35
197.963	118.15
198.351	12.79
198.738	57.21
199.125	-9.39
199.512	-96.58
199.899	-21.11
200.286	28.22
200.673	-23.21
201.06	3.35
201.447	-125.45
201.833	-4.76
202.22	21.34
202.607	-34.39
202.994	25.81
203.38	13.21
203.767	-10.43
204.154	-14.34
204.54	19.31
204.927	16.38
205.313	9.15
205.699	18.42
206.086	21.16
206.472	27.08
206.858	11.03
207.245	12.68
207.631	37.61
208.017	-19.65
208.403	-4.5
208.789	-3.06
209.175	-37.02
209.561	13.31
209.947	9.84
210.333	26.11
210.719	-16.83
211.105	3.19
211.491	31.18
211.876	-1.24
212.262	14.14
212.648	-37.61
213.034	-166.69
213.419	3.16
213.805	5.32
214.19	20.43
214.576	29.97
214.961	-20.5
215.346	5.78
215.732	34.19
216.117	6.73
216.502	-10.7
216.888	-13.2
217.273	-22.38
217.658	-31.3
218.043	0.1
218.428	15.8
218.813	5.73
219.198	-12.95
219.583	5.68
219.968	-3.08
220.353	0.81
220.738	0.79
221.122	-0.63
221.507	-21.84
221.892	6.48
222.276	17.9
222.661	-1.96
223.046	1.54
223.43	4.92
223.815	-10.19
224.199	3.8
224.583	10.79
224.968	2.69
225.352	-1.34
225.736	8.76
226.121	-2.56
226.505	-3.66
226.889	-1.91
227.273	0.1
227.657	5.61
228.041	6.98
228.425	1.47
228.809	1.18
229.193	-2.78
229.577	2.53
229.961	1.53
230.344	2.93
230.728	3.9
231.112	2.81
231.495	2.04
231.879	2.63
232.263	0.7
232.646	1.93
233.03	3.59
233.413	1.73
233.797	2.49
234.18	0.09
234.563	2.75
234.946	3.65
235.33	3.58
235.713	2.94
236.096	0.93
236.479	1.76
236.862	3.67
237.245	2.14
237.628	2.5
238.011	2.08
238.394	0.54
238.777	4.05
239.16	4.01
239.543	4.57
239.925	2.43
240.308	3.49
240.691	4.13
241.073	2.75
241.456	1.71
241.838	3.98
242.221	2.8
242.603	3.31
242.986	2.48
243.368	3.16
243.75	3.06
244.133	3.13
244.515	3.02
244.897	3.26
245.279	3.17
245.661	2.34
246.043	3.07
246.425	2.83
246.807	1.62
247.189	2.42
247.571	3.42
247.953	3.06
248.335	2.75
248.717	2.97
249.098	3.01
249.48	2.92
249.862	2.97
250.243	3.06
250.625	3.54
251.006	3.12
251.388	2.09
251.769	2.74
252.151	2.83
252.532	2.83
252.913	2.96
253.295	4.24
253.676	2.54
254.057	2.85
254.438	3.18
254.819	2.85
255.2	2.59
255.581	2.39
255.962	2.83
256.343	2.71
256.724	2.62
257.105	3.46
257.486	2.07
257.867	1.94
258.247	1.91
258.628	2.66
259.009	2.31
259.389	3.11
259.77	2.48
260.15	2.73
260.531	3.26
260.911	3.39
261.292	2.51
261.672	2.63
262.052	2.84
262.432	3.04
262.813	2.88
263.193	3.28
263.573	2.53
263.953	3.89
264.333	3.61
264.713	2
265.093	2.79
265.473	3.71
265.853	1.76
266.233	1.64
266.612	2.41
266.992	2.72
267.372	3.11
267.752	4.26
268.131	1.89
268.511	2.1
268.89	2.12
269.27	2.16
269.649	3.17
270.029	3.1
270.408	2.39
270.787	2
271.167	2.24
271.546	2.88
271.925	3.12
272.304	2.93
272.683	2.57
273.062	2.46
273.441	2.44
273.82	2.45
274.199	2.46
274.578	2.8
274.957	2.49
275.336	2.22
275.715	2.94
276.093	2.03
276.472	3.04
276.851	2.96
277.229	2.72
277.608	2.59
277.986	2.12
278.365	2.84
278.743	2.97
279.122	3.31
279.5	2.5
279.878	2.02
280.257	3.01
280.635	2.2
281.013	2.56
281.391	2.2
281.769	2.91
282.147	2.34
282.525	2.55
282.903	2.09
283.281	1.96
283.659	2.8
284.037	2.73
284.415	2.43
284.792	2.78
285.17	2.41
285.548	2.83
285.925	2.73
286.303	2.39
286.68	2.54
287.058	2.6
287.435	2.75
287.813	2.38
288.19	2.72
288.567	2.54
288.945	2.66
289.322	2.1
289.699	2.58
290.076	2.61
290.453	3.18
290.83	2.59
291.207	3.05
291.584	2.29
291.961	2.6
292.338	2.8
292.715	2.61
293.092	2.41
293.469	2.87
293.845	2.51
294.222	2.63
294.599	2.49
294.975	1.96
295.352	2.97
295.728	3
296.105	2.83
296.481	3.11
296.858	2.22
297.234	3.54
297.61	2.83
297.986	3.45
298.363	2.82
298.739	2.97
299.115	2.77
299.491	2.66
299.867	2.56
300.243	2.65
300.619	3
300.995	3.06
301.371	2.88
301.746	2.78
302.122	3.49
302.498	2.86
302.874	2.99
303.249	3.75
303.625	2.81
304	3.08
304.376	2.97
304.751	3.15
305.127	2.8
305.502	2.8
305.878	3.06
306.253	2.83
306.628	3.03
307.003	3.01
307.378	2.92
307.754	3.19
308.129	2.82
308.504	3.64
308.879	2.98
309.254	3.09
309.629	2.84
310.003	3.44
310.378	3.37
310.753	3.76
311.128	3.6
311.502	2.72
311.877	2.6
312.252	2.69
312.626	2.89
313.001	3.15
313.375	2.72
313.75	3.27
314.124	3.29
314.498	2.99
314.873	2.89
315.247	3.72
315.621	3.32
315.995	3.31
316.369	3.34
316.743	3.07
317.117	3.24
317.491	3.5
317.865	3.67
318.239	3.58
318.613	4.02
318.987	3.45
319.361	3.14
319.734	3.13
320.108	3.55
320.482	4.06
320.855	3.28
321.229	3.75
321.602	3.34
321.976	2.97
322.349	3.57
322.723	3.18
323.096	3.32
323.469	3.45
323.843	4.62
324.216	3.87
324.589	3.34
324.962	4.05
325.335	3.55
325.708	3.65
326.081	3.58
326.454	3.27
326.827	3.95
327.2	3.57
327.573	3.56
327.945	3.66
328.318	3.89
328.691	3.05
329.063	3.09
329.436	3.56
329.809	4.03
330.181	3.13
330.553	3.59
330.926	3.41
331.298	3.34
331.671	3.47
332.043	3.02
332.415	3.62
332.787	4.15
333.159	3.42
333.532	3.02
333.904	3.22
334.276	3.85
334.648	3.41
335.02	3.43
335.391	3.48
335.763	3.3
336.135	3.75
336.507	3.78
336.879	3.46
337.25	3.57
337.622	3.44
337.993	3.38
338.365	2.74
338.736	3.41
339.108	3.69
339.479	3.98
339.851	3.19
340.222	3.17
340.593	3.5
340.964	3.56
341.336	3.84
341.707	3.18
342.078	3.12
342.449	3.22
342.82	4.02
343.191	4.02
343.562	3.42
343.933	4.23
344.303	3.69
344.674	3.72
345.045	3.86
345.416	3.56
345.786	3.35
346.157	3.61
346.527	3.95
346.898	3.43
347.268	3.49
347.639	3.54
348.009	3.35
348.38	3.77
348.75	3.8
349.12	3.92
349.49	3.85
349.861	3.99
350.231	3.65
350.601	3.58
350.971	3.83
351.341	4
351.711	4.13
352.081	3.43
352.45	3.49
352.82	3.93
353.19	3.73
353.56	3.55
353.929	3.27
354.299	3.24
354.669	3.74
355.038	3.02
355.408	3.52
355.777	3.9
356.147	3.01
356.516	3.45
356.885	3.76
357.254	3.61
357.624	3.2
357.993	3.8
358.362	3.83
358.731	4.05
359.1	3.7
359.469	3.32
359.838	3.54
360.207	3.57
360.576	3.48
360.945	3.36
361.314	3.72
361.682	3.88
362.051	3.59
362.42	3.93
362.788	3.44
363.157	4.05
363.525	3.79
363.894	3.66
364.262	3.69
364.631	3.47
364.999	3.65
365.367	4.06
365.735	3.59
366.104	3.62
366.472	3.78
366.84	3.77
367.208	3.68
367.576	3.69
367.944	4.05
368.312	3.97
368.68	3.92
369.048	4.01
369.416	3.9
369.783	3.75
370.151	4.17
370.519	3.83
370.886	3.94
371.254	3.52
371.621	4.14
371.989	3.75
372.356	3.84
372.724	3.89
373.091	3.92
373.458	3.53
373.826	3.68
374.193	3.65
374.56	4.28
374.927	4.12
375.294	3.58
375.661	4.06
376.028	3.95
376.395	4.06
376.762	4.3
377.129	4
377.496	3.87
377.863	3.92
378.229	3.64
378.596	3.64
378.963	4.15
379.329	3.63
379.696	3.82
380.062	4.31
380.429	4.06
380.795	4.07
381.161	4.04
381.528	3.91
381.894	4.05
382.26	3.89
382.626	3.84
382.993	4.19
383.359	3.4
383.725	3.89
384.091	4.43
384.457	3.93
384.823	4.02
385.188	3.82
385.554	4.21
385.92	3.95
386.286	4.06
386.651	4.07
387.017	4.26
387.383	3.69
387.748	3.88
388.114	3.96
388.479	4.15
388.845	3.96
389.21	4
389.575	3.52
389.94	3.92
390.306	4.1
390.671	4.02
391.036	4.15
391.401	4.32
391.766	4.18
392.131	4.09
392.496	4.08
392.861	4.1
393.226	4.29
393.591	4.18
393.956	3.91
394.32	4.22
394.685	4.02
395.05	4.24
395.414	4.09
395.779	4.16
396.143	4.4
396.508	3.85
396.872	3.89
397.236	4.14
397.601	4.05
397.965	4.12
398.329	4.02
398.694	3.98
399.058	4.3
399.422	4.05
399.786	4.28
400.15	3.9
400.514	4.46
400.878	4.14
401.242	4
401.605	4.37
401.969	4.25
402.333	4.25
402.697	4.18
403.06	4
403.424	4.28
403.787	4.03
404.151	4.34
404.514	3.85
404.878	4.07
405.241	4.17
405.604	4.01
405.968	4.12
406.331	4.44
406.694	4.31
407.057	4.07
407.42	3.97
407.783	4.22
408.146	4.42
408.509	4.33
408.872	4.22
409.235	4.28
409.598	4
409.961	4.17
410.323	4.32
410.686	4.25
411.049	4.27
411.411	4.21
411.774	4.54
412.136	4.43
412.499	4.07
412.861	4.29
413.223	4.42
413.586	4.17
413.948	4.22
414.31	4.5
414.672	4.25
415.035	4.24
415.397	4.3
415.759	4.16
416.121	4.07
416.483	4.47
416.845	4.36
417.206	4.41
417.568	4.22
417.93	4.46
418.292	4.03
418.653	4.23
419.015	4.32
419.377	4.32
419.738	4.32
420.1	4.21
420.461	4.21
420.822	4.32
421.184	4.24
421.545	4.39
421.906	4.25
422.267	4.25
422.629	4.24
422.99	4.25
423.351	4.24
423.712	4.3
424.073	4.26
424.434	4.21
424.795	4.29
425.155	4.21
425.516	4.11
425.877	4.23
426.238	4.23
426.598	4.25
426.959	4.26
427.32	4.3
427.68	4.38
428.041	4.42
428.401	4.51
428.761	4.33
429.122	4.51
429.482	4.59
429.842	4.51
430.202	4.2
430.563	4.5
430.923	4.44
431.283	4.38
431.643	4.6
432.003	4.37
432.363	4.61
432.722	4.47
433.082	4.48
433.442	4.44
433.802	4.65
434.161	4.37
434.521	4.5
434.881	4.52
435.24	4.49
435.6	4.44
435.959	4.55
436.319	4.49
436.678	4.5
437.037	4.47
437.396	4.52
437.756	4.51
438.115	4.46
438.474	4.5
438.833	4.55
439.192	4.72
439.551	4.54
439.91	4.4
440.269	4.66
440.628	4.49
440.987	4.28
441.345	4.58
441.704	4.37
442.063	4.63
442.421	4.6
442.78	4.52
443.138	4.35
443.497	4.53
443.855	4.6
444.214	4.44
444.572	4.51
444.93	4.61
445.288	4.53
445.647	4.65
446.005	4.53
446.363	4.36
446.721	4.62
447.079	4.58
447.437	4.46
447.795	4.59
448.153	4.44
448.51	4.61
448.868	4.6
449.226	4.56
449.584	4.56
449.941	4.62
450.299	4.78
450.656	4.51
451.014	4.68
451.371	4.53
451.729	4.76
452.086	4.72
452.443	4.94
452.801	4.8
453.158	4.57
453.515	4.78
453.872	4.75
454.229	4.69
454.586	4.66
454.943	4.76
455.3	4.6
455.657	4.7
456.014	4.82
456.371	4.94
456.727	4.77
457.084	4.7
457.441	4.78
457.797	4.72
458.154	4.63
458.51	4.7
458.867	4.88
459.223	4.87
459.58	4.64
459.936	4.6
460.292	4.77
460.648	4.91
461.005	4.76
461.361	4.65
461.717	4.8
462.073	4.63
462.429	4.67
462.785	4.77
463.141	4.91
463.496	4.83
463.852	5.03
464.208	4.99
464.564	5.06
464.919	5.11
465.275	5.03
465.631	4.99
465.986	4.85
466.342	4.73
466.697	5.03
467.052	5.17
467.408	4.96
467.763	5.08
468.118	5.04
468.473	4.88
468.829	5.15
469.184	4.96
469.539	5.2
469.894	5.08
470.249	5
470.603	5.01
470.958	4.98
471.313	5.07
471.668	5.06
472.023	4.91
472.377	4.9
472.732	5.11
473.086	5.24
473.441	5.27
473.795	5.01
474.15	5
474.504	5.07
474.859	5.04
475.213	5
475.567	5.14
475.921	5.13
476.275	5
476.63	5.09
476.984	5.21
477.338	5.07
477.692	5.01
478.045	5.18
478.399	4.98
478.753	5.03
479.107	5.15
479.461	5.1
479.814	5.15
480.168	5
480.521	5.12
480.875	5.3
481.228	5.22
481.582	5.1
481.935	5.32
482.289	5.1
482.642	5.26
482.995	5.26
483.348	5.02
483.701	5.23
484.055	5.23
484.408	5.08
484.761	5.09
485.114	4.95
485.466	4.9
485.819	4.82
486.172	4.87
486.525	4.92
486.878	4.98
487.23	5.01
487.583	5.04
487.936	5.11
488.288	5.07
488.641	5.11
488.993	5.03
489.345	5.02
489.698	5
490.05	5.05
490.402	5.09
490.754	5.11
491.107	5.19
491.459	5.18
491.811	5.35
492.163	5.28
492.515	5.33
492.866	5.11
493.218	5.15
493.57	5.11
493.922	5.09
494.274	5.23
494.625	5.23
494.977	5.44
495.328	5.41
495.68	5.4
496.031	5.49
496.383	5.55
496.734	5.49
497.086	5.53
497.437	5.58
497.788	5.57
498.139	5.45
498.49	5.59
498.842	5.44
499.193	5.57
499.544	5.59
499.894	5.51
500.245	5.59
500.596	5.67
500.947	5.55
501.298	5.69
501.648	5.68
501.999	5.66
502.35	5.67
502.7	5.58
503.051	5.71
503.401	5.76
503.752	5.87
504.102	5.72
504.452	5.56
504.803	5.75
505.153	5.77
505.503	5.89
505.853	5.85
506.203	5.85
506.553	5.68
506.903	5.89
507.253	5.94
507.603	5.84
507.953	5.79
508.303	5.78
508.652	5.84
509.002	5.87
509.352	5.8
509.701	5.95
510.051	5.82
510.4	5.89
510.75	5.92
511.099	5.81
511.449	5.87
511.798	5.86
512.147	5.95
512.496	5.97
512.846	6
513.195	5.92
513.544	5.99
513.893	6
514.242	5.92
514.591	5.95
514.939	5.96
515.288	5.9
515.637	5.97
515.986	6.08
516.334	6.19
516.683	6.03
517.032	6.06
517.38	6.12
517.729	6.17
518.077	6.17
518.426	6.25
518.774	6.15
519.122	6.14
519.47	6.09
519.819	6.11
520.167	6.1
520.515	6.04
520.863	6.13
521.211	6.13
521.559	6.1
521.907	6.14
522.255	6.27
522.602	6.31
522.95	6.33
523.298	6.29
523.645	6.39
523.993	6.37
524.341	6.48
524.688	6.32
525.036	6.65
525.383	6.29
525.73	6.36
526.078	6.54
526.425	6.35
526.772	6.31
527.119	6.32
527.466	6.33
527.814	6.27
528.161	6.35
528.508	6.42
528.854	6.41
529.201	6.42
529.548	6.34
529.895	6.27
530.242	6.19
530.588	6.16
530.935	6.25
531.282	6.3
531.628	6.29
531.975	6.4
532.321	6.44
532.667	6.44
533.014	6.58
533.36	6.55
533.706	6.51
534.052	6.67
534.399	6.65
534.745	6.64
535.091	6.5
535.437	6.58
535.783	6.55
536.129	6.62
536.474	6.62
536.82	6.81
537.166	6.87
537.512	6.9
537.857	6.89
538.203	6.82
538.549	6.78
538.894	6.84
539.239	6.91
539.585	6.96
539.93	6.96
540.276	6.97
540.621	6.94
540.966	7.01
541.311	7.16
541.656	7.05
542.001	7.05
542.346	7.05
542.691	6.96
543.036	6.9
543.381	6.86
543.726	6.95
544.071	6.97
544.415	7
544.76	7.04
545.105	7.21
545.449	7.17
545.794	7.3
546.138	7.18
546.483	7.4
546.827	7.44
547.171	7.47
547.516	7.52
547.86	7.39
548.204	7.37
548.548	7.39
548.892	7.44
549.236	7.51
549.58	7.66
549.924	7.6
550.268	7.61
550.612	7.55
550.956	7.7
551.3	8.03
551.643	7.87
551.987	7.89
552.33	8.05
552.674	8.08
553.017	8.16
553.361	7.99
553.704	7.79
554.048	8.01
554.391	7.98
554.734	7.88
555.077	8.11
555.42	8.02
555.764	8.16
556.107	8.21
556.45	8.02
556.793	8.14
557.135	8.21
557.478	8.26
557.821	8.32
558.164	8.27
558.507	8.52
558.849	8.45
559.192	8.35
559.534	8.52
559.877	8.23
560.219	8.44
560.562	8.41
560.904	8.58
561.246	8.66
561.589	8.71
561.931	8.48
562.273	8.48
562.615	8.54
562.957	8.68
563.299	8.71
563.641	8.76
563.983	8.74
564.325	8.8
564.667	8.84
565.008	8.86
565.35	8.9
565.692	8.81
566.033	8.86
566.375	9.04
566.716	8.97
567.058	8.94
567.399	8.98
567.741	8.97
568.082	8.86
568.423	8.92
568.764	9.1
569.105	9.17
569.447	9.1
569.788	9.24
570.129	9.18
570.47	9.34
570.811	9.36
571.151	9.24
571.492	9.53
571.833	9.44
572.174	9.29
572.514	9.33
572.855	9.48
573.195	9.33
573.536	9.24
573.876	9.52
574.217	9.74
574.557	9.63
574.898	9.6
575.238	9.5
575.578	9.62
575.918	9.61
576.258	9.73
576.598	9.76
576.938	9.82
577.278	9.89
577.618	9.95
577.958	9.93
578.298	10.09
578.638	10.02
578.977	9.98
579.317	10.02
579.657	10.11
579.996	10.47
580.336	10.09
580.675	10.09
581.014	10.27
581.354	10.33
581.693	10.17
582.032	10.36
582.372	10.33
582.711	10.71
583.05	10.62
583.389	10.46
583.728	10.66
584.067	10.7
584.406	10.71
584.745	10.8
585.083	10.55
585.422	11.16
585.761	11.04
586.1	10.85
586.438	10.87
586.777	10.77
587.115	10.77
587.454	10.99
587.792	10.67
588.13	11.34
588.469	11.05
588.807	11.07
589.145	11.17
589.483	11.23
589.821	11.33
590.159	11.23
590.497	11.42
590.835	11.37
591.173	11.52
591.511	11.31
591.849	11.3
592.187	11.5
592.524	11.34
592.862	11.39
593.2	11.49
593.537	11.6
593.875	11.8
594.212	11.65
594.55	11.85
594.887	12.19
595.224	11.75
595.561	12.01
595.899	11.61
596.236	11.95
596.573	11.96
596.91	12.18
597.247	12.21
597.584	12.04
597.921	12.12
598.258	12.2
598.594	12.16
598.931	12.02
599.268	11.92
599.604	11.99
599.941	12.07
600.277	12.45
600.614	12.42
600.95	12.58
601.287	12.42
601.623	12.69
601.959	12.74
602.296	12.8
602.632	12.48
602.968	12.68
603.304	12.63
603.64	12.92
603.976	12.66
604.312	13.01
604.648	13.22
604.984	13.05
605.319	12.8
605.655	12.69
605.991	13.03
606.326	12.81
606.662	13.1
606.998	13.01
607.333	13.01
607.668	13.11
608.004	13.35
608.339	13.47
608.674	13.46
609.01	13.27
609.345	13.45
609.68	13.43
610.015	13.41
610.35	13.49
610.685	13.59
611.02	13.71
611.355	13.39
611.689	13.48
612.024	13.68
612.359	13.73
612.694	13.66
613.028	13.91
613.363	13.86
613.697	14.02
614.032	13.94
614.366	14.22
614.7	14.49
615.035	14.26
615.369	14.36
615.703	14.12
616.037	14.15
616.371	14.24
616.705	14.34
617.039	14.15
617.373	14.53
617.707	14.45
618.041	14.53
618.375	14.25
618.709	15.08
619.042	14.6
619.376	14.52
619.71	14.93
620.043	14.98
620.377	14.97
620.71	14.88
621.043	14.75
621.377	14.63
621.71	15.18
622.043	15.08
622.376	15.49
622.709	15.26
623.043	15.02
623.376	15.35
623.709	15.27
624.041	15.41
624.374	15.45
624.707	15.2
625.04	15.35
625.373	15.86
625.705	15.63
626.038	15.74
626.37	15.55
626.703	15.78
627.035	15.51
627.368	15.83
627.7	15.66
628.032	15.61
628.365	15.86
628.697	15.99
629.029	15.71
629.361	15.83
629.693	16
630.025	16.01
630.357	16
630.689	15.79
631.021	16.43
631.353	16.26
631.684	16.65
632.016	16.25
632.348	16.63
632.679	16.24
633.011	16.97
633.342	16.56
633.674	16.93
634.005	16.78
634.336	16.97
634.668	16.81
634.999	16.74
635.33	16.83
635.661	17.06
635.992	16.85
636.323	16.76
636.654	16.93
636.985	16.79
637.316	17.02
637.647	17.1
637.977	17.41
638.308	17.47
638.639	17.27
638.969	17.32
639.3	17.18
639.63	17.54
639.961	17.65
640.291	17.2
640.622	17.56
640.952	17.98
641.282	17.7
641.612	18.19
641.943	17.62
642.273	17.85
642.603	18.43
642.933	17.9
643.263	18
643.592	18.27
643.922	18.19
644.252	18.63
644.582	17.85
644.911	18.03
645.241	17.74
645.571	18.51
645.9	18.3
646.23	18.23
646.559	18.68
646.888	18.4
647.218	18.55
647.547	18.26
647.876	18.86
648.205	18.57
648.534	18.79
648.863	18.51
649.192	19.09
649.521	19.29
649.85	18.67
650.179	18.98
650.508	19.53
650.837	18.64
651.165	18.67
651.494	19.31
651.822	18.68
652.151	19.09
652.479	19.36
652.808	19.22
653.136	19.8
653.465	19.48
653.793	19.32
654.121	19.82
654.449	19.79
654.777	19.69
655.105	19.47
655.433	19.93
655.761	19.73
656.089	19.7
656.417	20.46
656.745	19.79
657.073	19.59
657.4	20.06
657.728	19.52
658.056	19.67
658.383	20.21
658.711	20.58
659.038	19.61
659.365	20.32
659.693	19.85
660.02	20.09
660.347	20.27
660.674	20.65
661.001	20.22
661.329	20.09
661.656	20.54
661.982	20.5
662.309	20.72
662.636	20.39
662.963	20.56
663.29	20.57
663.616	20.91
663.943	21.57
664.27	20.84
664.596	20.74
664.923	21.65
665.249	20.93
665.576	21.03
665.902	21.15
666.228	21.45
666.554	21.12
666.881	20.55
667.207	21.57
667.533	21.28
667.859	21.87
668.185	21.3
668.511	22.12
668.837	22.04
669.162	22.05
669.488	21.71
669.814	21.8
670.139	22.08
670.465	21.17
670.791	21.48
671.116	21.45
671.442	21.31
671.767	21.86
672.092	22.47
672.418	22.22
672.743	22.1
673.068	21.29
673.393	21.66
673.718	22.48
674.043	22.96
674.368	21.48
674.693	22.13
675.018	22.15
675.343	21.91
675.667	22.82
675.992	22.72
676.317	22.1
676.641	22.31
676.966	22.07
677.29	22.69
677.615	23.1
677.939	22.96
678.264	23.19
678.588	22.1
678.912	23.17
679.236	23.01
679.56	23.31
679.885	22.94
680.209	23.49
680.532	23.18
680.856	23.32
681.18	23.2
681.504	23.21
681.828	24.05
682.152	23.51
682.475	23.63
682.799	23.33
683.122	23.22
683.446	24.23
683.769	24.73
684.093	23.51
684.416	23.9
684.739	23.63
685.062	23.86
685.386	24.39
685.709	24.54
