Data from 431_forehead_Reflection__0__132.txt Node

Date: Tue Dec 12 19:28:33 CST 2023
User: ToomeyLab
Spectrometer: FLMS14357
Trigger mode: 0
Integration Time (sec): 1.000000E-2
Scans to average: 100
Electric dark correction enabled: true
Nonlinearity correction enabled: false
Boxcar width: 0
XAxis mode: Wavelengths
Number of Pixels in Spectrum: 2048
>>>>>Begin Spectral Data<<<<<
189.047	-44.07
189.435	-44.07
189.823	-44.07
190.211	-23.51
190.599	52.75
190.987	57.4
191.375	-4551.32
191.763	14.19
192.151	120.05
192.538	52.45
192.926	53.23
193.314	-36.94
193.702	220.31
194.089	34.38
194.477	232.74
194.864	-287.21
195.252	-47.38
195.639	-260.05
196.027	13.82
196.414	128.01
196.801	49.01
197.189	178.51
197.576	106.57
197.963	-43.51
198.351	65.88
198.738	92.74
199.125	23.66
199.512	-2.36
199.899	56.75
200.286	40.41
200.673	32.32
201.06	29.28
201.447	-36.22
201.833	40.94
202.22	61.4
202.607	-5.39
202.994	65.4
203.38	62.53
203.767	3.49
204.154	56.89
204.54	58.98
204.927	26
205.313	11.77
205.699	26.8
206.086	15.84
206.472	57.76
206.858	40.67
207.245	1.7
207.631	61.89
208.017	11.1
208.403	-13.72
208.789	28.5
209.175	8.63
209.561	18.16
209.947	9.73
210.333	8.05
210.719	-14.26
211.105	-44.09
211.491	39.81
211.876	31.72
212.262	57.15
212.648	-11.35
213.034	-21.8
213.419	19.42
213.805	40.18
214.19	50.47
214.576	13.03
214.961	40.32
215.346	28.16
215.732	57.92
216.117	5.05
216.502	12.56
216.888	14.91
217.273	5.46
217.658	-41.48
218.043	26.54
218.428	24.66
218.813	17.81
219.198	-17.22
219.583	11.31
219.968	13.63
220.353	-1.52
220.738	24.59
221.122	16.15
221.507	-4.53
221.892	6.35
222.276	8.55
222.661	15.61
223.046	-3.66
223.43	12.85
223.815	-12.38
224.199	17.49
224.583	10.61
224.968	12.01
225.352	3.48
225.736	13.46
226.121	11.98
226.505	4.19
226.889	2.94
227.273	1.9
227.657	10.24
228.041	8.92
228.425	1.73
228.809	3.77
229.193	2.37
229.577	5.39
229.961	2.44
230.344	3
230.728	3.9
231.112	3.92
231.495	3.81
231.879	4.36
232.263	4.06
232.646	2.63
233.03	4.37
233.413	2.27
233.797	2.92
234.18	0.86
234.563	3.62
234.946	5.66
235.33	6.84
235.713	3.85
236.096	2.34
236.479	2.96
236.862	3.49
237.245	4.24
237.628	3.57
238.011	3.1
238.394	2.99
238.777	4.21
239.16	4.65
239.543	3.68
239.925	5.64
240.308	5.16
240.691	3.26
241.073	4.61
241.456	3.94
241.838	2.99
242.221	4.73
242.603	4.5
242.986	2.63
243.368	4.17
243.75	3.36
244.133	3.49
244.515	3.89
244.897	3.36
245.279	3.94
245.661	3.72
246.043	3.48
246.425	4.44
246.807	2.88
247.189	4.3
247.571	3.18
247.953	2.81
248.335	3.38
248.717	3.51
249.098	3.41
249.48	3.27
249.862	3.76
250.243	3.55
250.625	3.86
251.006	4.33
251.388	4.19
251.769	4.29
252.151	4.54
252.532	4.15
252.913	4.71
253.295	4.34
253.676	3.32
254.057	3.93
254.438	4.18
254.819	4
255.2	3.73
255.581	2.94
255.962	3.46
256.343	4.31
256.724	4.69
257.105	4.73
257.486	2.88
257.867	3.37
258.247	3.58
258.628	4.04
259.009	2.96
259.389	4.06
259.77	4.55
260.15	4.15
260.531	4.45
260.911	4.09
261.292	3.5
261.672	3.55
262.052	3.65
262.432	3.84
262.813	3.52
263.193	4.43
263.573	3.8
263.953	4.92
264.333	4.18
264.713	4.24
265.093	3.78
265.473	4.82
265.853	4.7
266.233	3.08
266.612	3.91
266.992	4.08
267.372	4.26
267.752	4.09
268.131	3.54
268.511	3.57
268.89	3.01
269.27	3.09
269.649	3.96
270.029	3.92
270.408	3.86
270.787	4.05
271.167	4.24
271.546	3.78
271.925	4.02
272.304	4.65
272.683	3.11
273.062	3.69
273.441	3.85
273.82	3.44
274.199	3.7
274.578	4.06
274.957	3.82
275.336	3.78
275.715	4.38
276.093	3.56
276.472	4.15
276.851	3.79
277.229	2.78
277.608	3.39
277.986	2.48
278.365	3.65
278.743	3.65
279.122	3.78
279.5	3.48
279.878	3.38
280.257	3.59
280.635	3.13
281.013	3.55
281.391	3.89
281.769	3.39
282.147	3.41
282.525	3.72
282.903	3.89
283.281	3.91
283.659	3.8
284.037	4.13
284.415	3.43
284.792	3.97
285.17	3.9
285.548	3.78
285.925	3.69
286.303	3.45
286.68	3.8
287.058	3.89
287.435	3.85
287.813	3.5
288.19	3.8
288.567	3.55
288.945	4.2
289.322	3.42
289.699	4.17
290.076	3.87
290.453	4.06
290.83	4.54
291.207	4.28
291.584	4.39
291.961	4.42
292.338	4.35
292.715	4.2
293.092	4.4
293.469	4.66
293.845	4.36
294.222	4.67
294.599	5.04
294.975	4.71
295.352	5.23
295.728	5.19
296.105	5.37
296.481	5.6
296.858	5.21
297.234	5.11
297.61	5.23
297.986	5.27
298.363	5.49
298.739	4.98
299.115	5.03
299.491	5.15
299.867	5.2
300.243	5.46
300.619	5.34
300.995	5.57
301.371	5.9
301.746	6.14
302.122	7.13
302.498	6.47
302.874	6.22
303.249	6.59
303.625	5.72
304	6.05
304.376	6.39
304.751	6.5
305.127	6.51
305.502	6.93
305.878	6.29
306.253	6.86
306.628	6.62
307.003	6.93
307.378	6.6
307.754	7.13
308.129	6.95
308.504	7.53
308.879	7.24
309.254	7.74
309.629	7.49
310.003	7.89
310.378	7.51
310.753	7.88
311.128	7.92
311.502	7.63
311.877	7.48
312.252	7.59
312.626	8.2
313.001	8.41
313.375	7.92
313.75	8.59
314.124	8.76
314.498	8.31
314.873	8.73
315.247	9.14
315.621	8.7
315.995	9.01
316.369	9.3
316.743	9.07
317.117	8.98
317.491	9.14
317.865	9.41
318.239	9.24
318.613	10.1
318.987	10.17
319.361	9.67
319.734	9.76
320.108	10.79
320.482	10.32
320.855	10.22
321.229	10.82
321.602	10.38
321.976	10.82
322.349	11
322.723	10.52
323.096	11.28
323.469	10.72
323.843	11.64
324.216	11.44
324.589	11.51
324.962	11.8
325.335	12.12
325.708	11.98
326.081	11.61
326.454	11.59
326.827	12.29
327.2	12.18
327.573	11.31
327.945	12.09
328.318	12.14
328.691	11.52
329.063	12.18
329.436	12.34
329.809	12.45
330.181	12.39
330.553	12.39
330.926	13.03
331.298	12.89
331.671	13.39
332.043	13.31
332.415	13.4
332.787	13.51
333.159	13.37
333.532	13.63
333.904	13.6
334.276	14.06
334.648	13.18
335.02	13.46
335.391	13.7
335.763	13.57
336.135	13.84
336.507	14.42
336.879	13.76
337.25	14.62
337.622	14.19
337.993	14.24
338.365	14.28
338.736	14.75
339.108	14.02
339.479	14.58
339.851	14.25
340.222	14.53
340.593	14.98
340.964	14.87
341.336	15.63
341.707	14.94
342.078	14.92
342.449	15.12
342.82	15.43
343.191	15.25
343.562	15.28
343.933	16.24
344.303	15.91
344.674	15.67
345.045	16.51
345.416	16.14
345.786	15.37
346.157	15.71
346.527	16.42
346.898	15.82
347.268	16.34
347.639	16.47
348.009	16.5
348.38	16.58
348.75	16.67
349.12	16.87
349.49	16.78
349.861	17.02
350.231	17.15
350.601	17.39
350.971	16.9
351.341	17.03
351.711	17.73
352.081	17.68
352.45	17.55
352.82	17.68
353.19	17.78
353.56	17.66
353.929	17.46
354.299	18.08
354.669	18.07
355.038	17.79
355.408	17.83
355.777	18.13
356.147	17.8
356.516	18.38
356.885	18.32
357.254	18.2
357.624	18.36
357.993	18.14
358.362	18.65
358.731	19.34
359.1	18.7
359.469	18.66
359.838	18.61
360.207	18.66
360.576	19.37
360.945	19.28
361.314	19.34
361.682	19.66
362.051	19.57
362.42	19.64
362.788	19.46
363.157	19.9
363.525	19.9
363.894	19.68
364.262	19.79
364.631	19.53
364.999	20.17
365.367	20.22
365.735	20.06
366.104	20.42
366.472	20.22
366.84	20.54
367.208	20.69
367.576	20.11
367.944	20.84
368.312	20.72
368.68	20.78
369.048	21.22
369.416	21.4
369.783	21.19
370.151	21.48
370.519	21.22
370.886	21.57
371.254	21.45
371.621	21.89
371.989	21.96
372.356	21.1
372.724	21.9
373.091	21.59
373.458	21.8
373.826	22.19
374.193	22
374.56	22.48
374.927	22.26
375.294	22.33
375.661	23.21
376.028	22.32
376.395	22.95
376.762	23.25
377.129	22.44
377.496	23.14
377.863	23.23
378.229	22.77
378.596	22.79
378.963	23.69
379.329	23.43
379.696	23.48
380.062	23.45
380.429	23.65
380.795	23.8
381.161	23.82
381.528	23.66
381.894	24.2
382.26	23.92
382.626	24.23
382.993	24.45
383.359	23.95
383.725	24.33
384.091	24.13
384.457	24.39
384.823	24.82
385.188	24.7
385.554	24.67
385.92	24.92
386.286	25.09
386.651	24.92
387.017	25.44
387.383	25.17
387.748	25.31
388.114	25.32
388.479	25.63
388.845	25.31
389.21	25.35
389.575	25.48
389.94	25.82
390.306	25.76
390.671	25.43
391.036	26.39
391.401	26.08
391.766	26.14
392.131	26.37
392.496	26.01
392.861	26.23
393.226	26.33
393.591	26.31
393.956	26.28
394.32	26.68
394.685	26.54
395.05	26.74
395.414	27.08
395.779	26.9
396.143	27.1
396.508	26.99
396.872	27.12
397.236	27.42
397.601	27.22
397.965	27.56
398.329	27.73
398.694	27.4
399.058	27.71
399.422	27.52
399.786	27.6
400.15	27.56
400.514	28.15
400.878	28.13
401.242	27.91
401.605	28.29
401.969	28
402.333	28.59
402.697	28.43
403.06	28.21
403.424	28.47
403.787	28.75
404.151	28.77
404.514	28.42
404.878	28.86
405.241	28.71
405.604	28.94
405.968	28.8
406.331	29.26
406.694	29.33
407.057	28.99
407.42	29.08
407.783	29.5
408.146	29.75
408.509	29.72
408.872	29.95
409.235	30.06
409.598	29.93
409.961	30.18
410.323	30.35
410.686	30.12
411.049	30.43
411.411	30.68
411.774	30.43
412.136	30.49
412.499	30.89
412.861	30.52
413.223	31.04
413.586	30.9
413.948	31.05
414.31	31.15
414.672	31.12
415.035	31.21
415.397	31.21
415.759	31.39
416.121	31.1
416.483	31.62
416.845	31.7
417.206	31.2
417.568	31.47
417.93	31.45
418.292	31.53
418.653	31.64
419.015	31.87
419.377	31.46
419.738	31.95
420.1	31.69
420.461	31.79
420.822	31.74
421.184	31.75
421.545	32.02
421.906	31.93
422.267	31.73
422.629	31.87
422.99	31.93
423.351	32
423.712	32.15
424.073	32.18
424.434	32.39
424.795	32.56
425.155	32.35
425.516	32.38
425.877	32.55
426.238	32.68
426.598	32.66
426.959	32.85
427.32	32.93
427.68	33.06
428.041	33.2
428.401	33.28
428.761	33.61
429.122	33.54
429.482	33.92
429.842	34.01
430.202	33.79
430.563	34
430.923	34.24
431.283	34.31
431.643	34.31
432.003	34.43
432.363	34.49
432.722	34.62
433.082	34.74
433.442	34.55
433.802	34.75
434.161	34.62
434.521	34.58
434.881	34.78
435.24	34.85
435.6	34.63
435.959	35.08
436.319	35.01
436.678	35.2
437.037	35.42
437.396	35.26
437.756	35.17
438.115	35.39
438.474	35.5
438.833	35.75
439.192	35.83
439.551	35.95
439.91	35.48
440.269	35.95
440.628	35.71
440.987	36.01
441.345	36.04
441.704	35.96
442.063	36.1
442.421	36.07
442.78	36.19
443.138	36.07
443.497	36.26
443.855	36.24
444.214	36.44
444.572	36.73
444.93	36.46
445.288	36.85
445.647	36.98
446.005	36.66
446.363	37.02
446.721	36.95
447.079	37.01
447.437	36.92
447.795	37.15
448.153	36.88
448.51	36.9
448.868	37.04
449.226	37.12
449.584	37.37
449.941	37.26
450.299	37.47
450.656	37.68
451.014	37.75
451.371	38.06
451.729	38.17
452.086	38.11
452.443	38.3
452.801	38.26
453.158	38.28
453.515	38.54
453.872	38.48
454.229	38.52
454.586	38.41
454.943	38.44
455.3	38.68
455.657	38.87
456.014	38.84
456.371	38.88
456.727	39.13
457.084	39.11
457.441	39.44
457.797	39.47
458.154	39.27
458.51	39.56
458.867	39.67
459.223	39.47
459.58	39.62
459.936	39.55
460.292	39.53
460.648	39.39
461.005	39.4
461.361	39.57
461.717	39.25
462.073	39.36
462.429	39.54
462.785	39.96
463.141	40.24
463.496	40.02
463.852	40.32
464.208	40.29
464.564	40.59
464.919	40.49
465.275	40.73
465.631	40.9
465.986	40.92
466.342	40.83
466.697	40.88
467.052	41.04
467.408	41.3
467.763	41.29
468.118	41.37
468.473	41.24
468.829	41.23
469.184	41.02
469.539	41.73
469.894	41.41
470.249	41.74
470.603	41.65
470.958	41.68
471.313	41.72
471.668	42.11
472.023	41.98
472.377	41.8
472.732	42.01
473.086	42.06
473.441	42.53
473.795	42.44
474.15	42.33
474.504	42.16
474.859	42.15
475.213	42.47
475.567	42.57
475.921	42.69
476.275	42.62
476.63	42.57
476.984	42.97
477.338	42.95
477.692	42.7
478.045	43.01
478.399	42.95
478.753	43.07
479.107	43.11
479.461	42.97
479.814	43.61
480.168	43.19
480.521	43.07
480.875	43.38
481.228	43.36
481.582	43.43
481.935	43.59
482.289	43.5
482.642	43.75
482.995	43.4
483.348	43.47
483.701	43.56
484.055	43.56
484.408	43.25
484.761	43.04
485.114	42.63
485.466	42.4
485.819	42.71
486.172	42.84
486.525	42.89
486.878	43
487.23	43.13
487.583	43.31
487.936	43.49
488.288	43.67
488.641	43.32
488.993	43.22
489.345	43.26
489.698	43.32
490.05	43.36
490.402	43.56
490.754	43.74
491.107	43.96
491.459	44.35
491.811	44.53
492.163	44.61
492.515	44.62
492.866	44.28
493.218	44.16
493.57	44.07
493.922	44.13
494.274	44.49
494.625	44.64
494.977	45.16
495.328	45.04
495.68	45.43
496.031	45.67
496.383	45.68
496.734	46.03
497.086	45.98
497.437	46.1
497.788	45.84
498.139	45.9
498.49	45.76
498.842	45.66
499.193	45.96
499.544	46.2
499.894	46.11
500.245	46.25
500.596	46.13
500.947	46.43
501.298	46.36
501.648	46.51
501.999	46.74
502.35	46.84
502.7	46.8
503.051	46.9
503.401	47.03
503.752	46.93
504.102	47.21
504.452	47.29
504.803	47.13
505.153	47.35
505.503	47.5
505.853	47.57
506.203	47.46
506.553	47.4
506.903	47.65
507.253	47.54
507.603	47.89
507.953	47.67
508.303	47.83
508.652	48.02
509.002	47.93
509.352	47.78
509.701	47.91
510.051	48.01
510.4	47.94
510.75	47.93
511.099	47.93
511.449	47.79
511.798	48.06
512.147	48.11
512.496	48.17
512.846	48.23
513.195	48.17
513.544	48.34
513.893	48.32
514.242	48.37
514.591	48.37
514.939	48.43
515.288	48.6
515.637	48.52
515.986	48.79
516.334	49.1
516.683	49.09
517.032	49.09
517.38	49.09
517.729	49.15
518.077	49.26
518.426	49.27
518.774	49.23
519.122	49.11
519.47	49.15
519.819	48.96
520.167	48.91
520.515	48.79
520.863	48.88
521.211	49.1
521.559	49.17
521.907	49.17
522.255	49.49
522.602	49.58
522.95	49.66
523.298	49.82
523.645	50
523.993	50.09
524.341	50.11
524.688	50.17
525.036	49.93
525.383	50.02
525.73	50.32
526.078	50.23
526.425	50.17
526.772	49.89
527.119	50.23
527.466	49.98
527.814	49.96
528.161	49.98
528.508	50.07
528.854	49.99
529.201	50.04
529.548	49.89
529.895	49.61
530.242	49.48
530.588	49.59
530.935	49.73
531.282	49.79
531.628	49.91
531.975	49.84
532.321	50.16
532.667	50.36
533.014	50.51
533.36	50.72
533.706	50.68
534.052	50.69
534.399	50.77
534.745	50.55
535.091	50.35
535.437	50.54
535.783	50.55
536.129	50.95
536.474	51.11
536.82	51.39
537.166	51.27
537.512	51.71
537.857	51.55
538.203	51.31
538.549	51.43
538.894	51.37
539.239	51.56
539.585	51.71
539.93	51.89
540.276	52.11
540.621	52.27
540.966	52.3
541.311	52.6
541.656	52.24
542.001	52.22
542.346	52.22
542.691	51.78
543.036	51.51
543.381	51.54
543.726	51.69
544.071	51.69
544.415	52.03
544.76	52.13
545.105	52.12
545.449	52.37
545.794	52.76
546.138	52.9
546.483	52.89
546.827	53.05
547.171	53.1
547.516	53.19
547.86	53.22
548.204	53.04
548.548	53.09
548.892	52.97
549.236	53.29
549.58	53.25
549.924	53.39
550.268	53.61
550.612	53.73
550.956	53.79
551.3	54.03
551.643	53.99
551.987	54.18
552.33	54.61
552.674	54.54
553.017	54.56
553.361	54.59
553.704	54.15
554.048	54.56
554.391	54.32
554.734	54.31
555.077	54.4
555.42	54.37
555.764	54.34
556.107	54.58
556.45	54.92
556.793	54.96
557.135	54.95
557.478	55.33
557.821	54.76
558.164	55.23
558.507	55.15
558.849	55.53
559.192	55.26
559.534	55.46
559.877	55.28
560.219	55.67
560.562	55.46
560.904	55.55
561.246	55.65
561.589	55.45
561.931	55.54
562.273	55.47
562.615	55.54
562.957	55.59
563.299	55.63
563.641	55.8
563.983	55.88
564.325	55.88
564.667	56.24
565.008	55.81
565.35	56.08
565.692	56.11
566.033	56.24
566.375	56.41
566.716	56.13
567.058	56.1
567.399	56.2
567.741	56.24
568.082	55.95
568.423	56.11
568.764	56.11
569.105	56.2
569.447	56.17
569.788	56.54
570.129	56.65
570.47	56.87
570.811	56.87
571.151	56.66
571.492	56.84
571.833	56.8
572.174	56.7
572.514	56.73
572.855	57
573.195	56.76
573.536	56.43
573.876	57.08
574.217	56.95
574.557	56.89
574.898	56.99
575.238	57.04
575.578	56.99
575.918	57.29
576.258	57.29
576.598	57.37
576.938	57.42
577.278	57.28
577.618	57.53
577.958	57.71
578.298	57.68
578.638	57.57
578.977	57.69
579.317	57.76
579.657	57.67
579.996	58.28
580.336	58.4
580.675	58.26
581.014	58.52
581.354	58.4
581.693	58.4
582.032	58.86
582.372	58.16
582.711	58.52
583.05	58.35
583.389	58.69
583.728	58.6
584.067	58.6
584.406	58.85
584.745	58.57
585.083	58.94
585.422	58.79
585.761	58.85
586.1	58.88
586.438	59.1
586.777	58.67
587.115	59.11
587.454	58.94
587.792	58.99
588.13	59.27
588.469	59.38
588.807	59.52
589.145	59.31
589.483	59.22
589.821	59.26
590.159	59.43
590.497	59.58
590.835	59.28
591.173	59.66
591.511	59.3
591.849	59.45
592.187	59.38
592.524	59.73
592.862	59.66
593.2	59.32
593.537	59.74
593.875	59.84
594.212	60.1
594.55	60.12
594.887	60.15
595.224	59.98
595.561	60.17
595.899	59.89
596.236	59.62
596.573	60.28
596.91	60.38
597.247	60.2
597.584	60.23
597.921	60.31
598.258	60.25
598.594	60.2
598.931	59.93
599.268	60.12
599.604	60.41
599.941	60.3
600.277	60.46
600.614	60.55
600.95	60.63
601.287	60.73
601.623	60.45
601.959	60.73
602.296	60.8
602.632	60.63
602.968	61.04
603.304	61.02
603.64	61.25
603.976	61.1
604.312	61.19
604.648	61.38
604.984	61.07
605.319	60.95
605.655	61.07
605.991	60.88
606.326	60.77
606.662	60.92
606.998	60.68
607.333	61.13
607.668	61.1
608.004	60.95
608.339	61.64
608.674	61.35
609.01	61.47
609.345	61.69
609.68	61.47
610.015	61.8
610.35	61.71
610.685	61.43
611.02	61.4
611.355	61.71
611.689	61.56
612.024	61.75
612.359	62
612.694	61.75
613.028	61.82
613.363	61.55
613.697	62.1
614.032	62.36
614.366	62.29
614.7	61.85
615.035	62.71
615.369	62.24
615.703	62.18
616.037	62.15
616.371	62.94
616.705	62.81
617.039	62.29
617.373	62.46
617.707	62.41
618.041	62.77
618.375	62.61
618.709	62.71
619.042	62.77
619.376	62.69
619.71	62.8
620.043	62.64
620.377	62.97
620.71	62.37
621.043	62.7
621.377	62.67
621.71	63.14
622.043	63.03
622.376	63.17
622.709	63.23
623.043	62.54
623.376	62.78
623.709	63.37
624.041	63.78
624.374	63.22
624.707	63.3
625.04	63.39
625.373	63.45
625.705	63.62
626.038	63.18
626.37	64.26
626.703	63.83
627.035	63.53
627.368	63.8
627.7	63.17
628.032	63.36
628.365	63.64
628.697	63.67
629.029	63.66
629.361	63.84
629.693	63.94
630.025	63.94
630.357	63.48
630.689	63.69
631.021	63.78
631.353	64
631.684	64.25
632.016	63.74
632.348	64.19
632.679	63.96
633.011	64.24
633.342	64.33
633.674	64.6
634.005	64.39
634.336	65.12
634.668	64.16
634.999	64.5
635.33	64.61
635.661	64.39
635.992	64.2
636.323	63.94
636.654	64.33
636.985	63.99
637.316	64.09
637.647	64.72
637.977	64.34
638.308	65.06
638.639	65
638.969	64.34
639.3	65.49
639.63	64.73
639.961	64.93
640.291	64.5
640.622	65.09
640.952	65.16
641.282	65.42
641.612	65.43
641.943	64.94
642.273	65.49
642.603	65.12
642.933	65.12
643.263	65.68
643.592	65.08
643.922	65.35
644.252	65.1
644.582	65.72
644.911	65.24
645.241	65.73
645.571	65.37
645.9	65.56
646.23	65.35
646.559	66.1
646.888	65.41
647.218	66.04
647.547	64.93
647.876	65.84
648.205	65.83
648.534	65.81
648.863	65.79
649.192	65.86
649.521	65.81
649.85	65.85
650.179	66.39
650.508	66.1
650.837	65.23
651.165	66.32
651.494	65.74
651.822	66.61
652.151	65.94
652.479	66.21
652.808	65.94
653.136	66.11
653.465	66.37
653.793	66.66
654.121	66.24
654.449	66.05
654.777	65.71
655.105	66.71
655.433	66.8
655.761	66.65
656.089	65.56
656.417	66.45
656.745	66.36
657.073	66.39
657.4	65.77
657.728	65.79
658.056	66.73
658.383	66.03
658.711	67.56
659.038	66.31
659.365	66.93
659.693	66.32
660.02	66.8
660.347	66.74
660.674	66.49
661.001	66.05
661.329	66.97
661.656	66.81
661.982	66.8
662.309	66.71
662.636	67.38
662.963	67.4
663.29	66.69
663.616	67.29
663.943	67.37
664.27	66.92
664.596	66.7
664.923	66.84
665.249	66.91
665.576	67.66
665.902	66.52
666.228	67.57
666.554	67.32
666.881	66.64
667.207	67.41
667.533	66.7
667.859	67.54
668.185	67.71
668.511	67.72
668.837	68.03
669.162	67.97
669.488	67.53
