Data from 431_chest_Reflection__2__124.txt Node

Date: Tue Dec 12 19:26:02 CST 2023
User: ToomeyLab
Spectrometer: FLMS14357
Trigger mode: 0
Integration Time (sec): 1.000000E-2
Scans to average: 100
Electric dark correction enabled: true
Nonlinearity correction enabled: false
Boxcar width: 0
XAxis mode: Wavelengths
Number of Pixels in Spectrum: 2048
>>>>>Begin Spectral Data<<<<<
189.047	136.92
189.435	136.92
189.823	136.92
190.211	-85.72
190.599	55.31
190.987	-0.22
191.375	382.89
191.763	22.04
192.151	62.23
192.538	-96.36
192.926	61.05
193.314	-15.05
193.702	47.1
194.089	-30.95
194.477	-297.64
194.864	68.1
195.252	45
195.639	114.35
196.027	54.98
196.414	-267.77
196.801	0.05
197.189	-159.19
197.576	48.2
197.963	151.4
198.351	-10.14
198.738	61.78
199.125	-23.52
199.512	18.12
199.899	41.61
200.286	17.34
200.673	-3.3
201.06	43.92
201.447	-54.91
201.833	4.12
202.22	-14.27
202.607	-58.61
202.994	2.02
203.38	-11.04
203.767	-19.06
204.154	15.44
204.54	19.55
204.927	13.3
205.313	6.63
205.699	-48.9
206.086	-1.19
206.472	11.48
206.858	-18.71
207.245	-22.77
207.631	-17.15
208.017	4.46
208.403	-19.8
208.789	-17.02
209.175	7.92
209.561	13.64
209.947	17.49
210.333	21.24
210.719	-14.31
211.105	-16.03
211.491	23.67
211.876	14.66
212.262	16.53
212.648	-44.39
213.034	-43.36
213.419	-12.42
213.805	17.55
214.19	5
214.576	7.46
214.961	21.8
215.346	11.32
215.732	23.69
216.117	-7.21
216.502	6.94
216.888	6.93
217.273	-13.08
217.658	-30.69
218.043	-20.92
218.428	17.53
218.813	-3.13
219.198	-17.5
219.583	-0.01
219.968	22.82
220.353	-18.48
220.738	17.52
221.122	-6.54
221.507	-3.98
221.892	5.86
222.276	-7.98
222.661	-5.19
223.046	-12.17
223.43	11.71
223.815	-1.13
224.199	11.49
224.583	-5.82
224.968	3.65
225.352	2.49
225.736	9.34
226.121	-3.14
226.505	5.75
226.889	-7.9
227.273	7.46
227.657	9.7
228.041	4.83
228.425	-1.34
228.809	1.27
229.193	-1.79
229.577	1.62
229.961	-1.68
230.344	1.26
230.728	1.89
231.112	1.55
231.495	0.9
231.879	1.54
232.263	1.76
232.646	1.97
233.03	0.74
233.413	0.94
233.797	0.97
234.18	0.04
234.563	-1.73
234.946	1.9
235.33	2.02
235.713	2.74
236.096	1.39
236.479	1.7
236.862	0.26
237.245	2.07
237.628	1.27
238.011	2.82
238.394	1.02
238.777	2.03
239.16	0.4
239.543	1.33
239.925	0.21
240.308	-0.67
240.691	0.01
241.073	3.01
241.456	0.75
241.838	0.81
242.221	1.18
242.603	1.89
242.986	1.08
243.368	2.12
243.75	1.63
244.133	1.65
244.515	1.7
244.897	1.59
245.279	1.8
245.661	0.87
246.043	0.7
246.425	1.91
246.807	1.5
247.189	1.77
247.571	1.9
247.953	0.84
248.335	1.46
248.717	1.23
249.098	1.46
249.48	1.18
249.862	0.99
250.243	1.27
250.625	2.21
251.006	1.16
251.388	2.08
251.769	1.24
252.151	1.53
252.532	2.04
252.913	0.99
253.295	1.8
253.676	1.22
254.057	1.31
254.438	1.56
254.819	1.07
255.2	0.58
255.581	1.45
255.962	0.93
256.343	1.5
256.724	1.48
257.105	1.38
257.486	1.64
257.867	0.57
258.247	-0.35
258.628	1.27
259.009	0
259.389	1.8
259.77	1.1
260.15	1.58
260.531	1.7
260.911	1.52
261.292	1.16
261.672	1.25
262.052	1.26
262.432	1.27
262.813	1.22
263.193	0.81
263.573	1.28
263.953	2.16
264.333	2.46
264.713	1.43
265.093	1.35
265.473	1.78
265.853	0.66
266.233	0.38
266.612	0.58
266.992	1.27
267.372	1.92
267.752	2.49
268.131	0.54
268.511	0.93
268.89	0.66
269.27	0.93
269.649	1.36
270.029	1.2
270.408	1.37
270.787	1.48
271.167	1.02
271.546	1.29
271.925	1.91
272.304	1.6
272.683	0.81
273.062	1.54
273.441	1.44
273.82	0.92
274.199	1.51
274.578	1.04
274.957	1.03
275.336	1.34
275.715	1.24
276.093	0.91
276.472	1.11
276.851	2.12
277.229	0.7
277.608	1.2
277.986	0.44
278.365	0.88
278.743	1.35
279.122	1.63
279.5	1.02
279.878	1.14
280.257	0.7
280.635	1.06
281.013	1.02
281.391	1.25
281.769	1.18
282.147	1.35
282.525	1.27
282.903	1.06
283.281	0.87
283.659	1.21
284.037	1.3
284.415	1.26
284.792	0.96
285.17	1.14
285.548	1.6
285.925	0.99
286.303	1.27
286.68	1.47
287.058	1.52
287.435	1.38
287.813	0.92
288.19	1.23
288.567	1.52
288.945	1.18
289.322	0.84
289.699	1.06
290.076	1.18
290.453	1.56
290.83	0.92
291.207	1.88
291.584	1.75
291.961	1.42
292.338	1.15
292.715	1.26
293.092	1.51
293.469	1.47
293.845	1.09
294.222	1.13
294.599	1.77
294.975	0.94
295.352	1.38
295.728	1.16
296.105	1.45
296.481	1.71
296.858	1.15
297.234	1.48
297.61	1.03
297.986	1.83
298.363	1.69
298.739	1.38
299.115	1.1
299.491	1.43
299.867	1.41
300.243	1.12
300.619	1.29
300.995	1.77
301.371	1.93
301.746	1.61
302.122	1.86
302.498	1.71
302.874	1.48
303.249	2.1
303.625	1.2
304	1.51
304.376	1.89
304.751	1.59
305.127	1.44
305.502	1.6
305.878	1.25
306.253	1.95
306.628	1.15
307.003	1.92
307.378	1.52
307.754	1.8
308.129	1.14
308.504	2.37
308.879	1.22
309.254	1.76
309.629	0.84
310.003	1.55
310.378	1.67
310.753	1.77
311.128	1.84
311.502	1.25
311.877	1.44
312.252	0.83
312.626	1.26
313.001	1.32
313.375	1.58
313.75	1.61
314.124	1.99
314.498	1.72
314.873	1.78
315.247	1.66
315.621	1.67
315.995	1.94
316.369	1.95
316.743	1.06
317.117	0.73
317.491	1.4
317.865	1.82
318.239	1.31
318.613	2.15
318.987	2.42
319.361	1.62
319.734	1.96
320.108	1.91
320.482	1.91
320.855	1.57
321.229	1.83
321.602	2.09
321.976	1.66
322.349	1.45
322.723	1.78
323.096	1.83
323.469	1.83
323.843	2.19
324.216	2.41
324.589	1.74
324.962	1.82
325.335	2.17
325.708	1.8
326.081	2.03
326.454	1.53
326.827	2.45
327.2	2.2
327.573	1.48
327.945	2.03
328.318	1.91
328.691	1.38
329.063	1.86
329.436	1.81
329.809	1.69
330.181	1.52
330.553	1.62
330.926	1.63
331.298	1.61
331.671	1.81
332.043	1.7
332.415	2.24
332.787	2.03
333.159	2.19
333.532	1.69
333.904	1.66
334.276	2.2
334.648	2.01
335.02	1.4
335.391	1.72
335.763	1.73
336.135	2.02
336.507	2.51
336.879	2.26
337.25	1.34
337.622	1.78
337.993	1.49
338.365	1.82
338.736	1.66
339.108	1.84
339.479	2.16
339.851	1.79
340.222	1.6
340.593	1.96
340.964	1.86
341.336	1.96
341.707	1.87
342.078	1.79
342.449	1.88
342.82	2.16
343.191	1.87
343.562	1.9
343.933	2.13
344.303	1.81
344.674	1.91
345.045	1.57
345.416	2.47
345.786	1.59
346.157	1.76
346.527	2.45
346.898	1.69
347.268	1.81
347.639	2.33
348.009	1.87
348.38	1.93
348.75	2.17
349.12	2.13
349.49	2.12
349.861	1.99
350.231	2.05
350.601	2.09
350.971	1.82
351.341	2.14
351.711	2.37
352.081	2.25
352.45	2.23
352.82	2.15
353.19	1.95
353.56	1.65
353.929	1.74
354.299	1.86
354.669	1.88
355.038	1.64
355.408	1.93
355.777	2.09
356.147	2.27
356.516	1.77
356.885	2.11
357.254	2.41
357.624	1.87
357.993	1.94
358.362	2.06
358.731	1.94
359.1	1.63
359.469	2.17
359.838	1.84
360.207	1.79
360.576	2.11
360.945	2.12
361.314	2.22
361.682	2.03
362.051	2.07
362.42	2.26
362.788	2.11
363.157	2.41
363.525	2.07
363.894	2.07
364.262	2.17
364.631	1.57
364.999	2.08
365.367	2.39
365.735	1.73
366.104	2.16
366.472	1.91
366.84	1.89
367.208	2.04
367.576	2.34
367.944	2.32
368.312	2.31
368.68	2
369.048	2.12
369.416	2.02
369.783	2.21
370.151	2.18
370.519	1.94
370.886	2.31
371.254	2
371.621	2.12
371.989	2.14
372.356	1.87
372.724	1.97
373.091	1.86
373.458	2.16
373.826	1.9
374.193	2.06
374.56	2.5
374.927	2.04
375.294	2.06
375.661	2.42
376.028	2.33
376.395	2.54
376.762	2.53
377.129	2.19
377.496	2.31
377.863	2.34
378.229	2.26
378.596	2.03
378.963	2.49
379.329	2.12
379.696	2.04
380.062	2.42
380.429	2.32
380.795	2.58
381.161	2.6
381.528	2.26
381.894	2.62
382.26	2.02
382.626	2.26
382.993	2.56
383.359	2.25
383.725	2.44
384.091	2.29
384.457	2.05
384.823	2.39
385.188	2.25
385.554	2.15
385.92	2.2
386.286	2.52
386.651	2.52
387.017	2.52
387.383	2.31
387.748	2.37
388.114	2.36
388.479	2.43
388.845	2.12
389.21	2.32
389.575	2.05
389.94	2.25
390.306	2.65
390.671	2.58
391.036	2.37
391.401	2.05
391.766	2.59
392.131	2.52
392.496	2.67
392.861	2.12
393.226	2.61
393.591	2.2
393.956	2.31
394.32	2.42
394.685	2.49
395.05	2.23
395.414	2.3
395.779	2.29
396.143	2.51
396.508	2.31
396.872	2.3
397.236	2.24
397.601	2.22
397.965	2.44
398.329	2.46
398.694	2.39
399.058	2.59
399.422	2.28
399.786	2.48
400.15	2.3
400.514	2.51
400.878	2.44
401.242	2.4
401.605	2.37
401.969	2.24
402.333	2.34
402.697	2.38
403.06	1.81
403.424	2.44
403.787	2.3
404.151	2.67
404.514	2.17
404.878	2.41
405.241	2.61
405.604	2.17
405.968	2.08
406.331	2.56
406.694	2.72
407.057	2.41
407.42	2.53
407.783	2.24
408.146	2.33
408.509	2.41
408.872	2.43
409.235	2.44
409.598	2.42
409.961	2.26
410.323	2.38
410.686	2.51
411.049	2.38
411.411	2.64
411.774	2.61
412.136	2.6
412.499	2.36
412.861	2.35
413.223	2.9
413.586	2.44
413.948	2.5
414.31	2.42
414.672	2.65
415.035	2.58
415.397	2.55
415.759	2.49
416.121	2.46
416.483	2.62
416.845	2.52
417.206	2.62
417.568	2.37
417.93	2.63
418.292	2.25
418.653	2.7
419.015	2.49
419.377	2.34
419.738	2.38
420.1	2.49
420.461	2.57
420.822	2.54
421.184	2.46
421.545	2.55
421.906	2.32
422.267	2.45
422.629	2.42
422.99	2.42
423.351	2.49
423.712	2.47
424.073	2.43
424.434	2.55
424.795	2.59
425.155	2.3
425.516	2.3
425.877	2.44
426.238	2.46
426.598	2.4
426.959	2.46
427.32	2.52
427.68	2.6
428.041	2.61
428.401	2.52
428.761	2.45
429.122	2.61
429.482	2.64
429.842	2.68
430.202	2.44
430.563	2.62
430.923	2.52
431.283	2.36
431.643	2.53
432.003	2.38
432.363	2.47
432.722	2.57
433.082	2.52
433.442	2.54
433.802	2.63
434.161	2.66
434.521	2.63
434.881	2.46
435.24	2.61
435.6	2.66
435.959	2.73
436.319	2.61
436.678	2.76
437.037	2.62
437.396	2.58
437.756	2.5
438.115	2.7
438.474	2.66
438.833	2.64
439.192	2.72
439.551	2.71
439.91	2.51
440.269	2.53
440.628	2.52
440.987	2.42
441.345	2.78
441.704	2.68
442.063	2.66
442.421	2.66
442.78	2.65
443.138	2.46
443.497	2.61
443.855	2.57
444.214	2.69
444.572	2.65
444.93	2.6
445.288	2.52
445.647	2.73
446.005	2.61
446.363	2.56
446.721	2.52
447.079	2.72
447.437	2.44
447.795	2.56
448.153	2.56
448.51	2.76
448.868	2.55
449.226	2.68
449.584	2.65
449.941	2.72
450.299	2.66
450.656	2.64
451.014	2.63
451.371	2.57
451.729	2.9
452.086	2.79
452.443	2.8
452.801	2.76
453.158	2.61
453.515	2.71
453.872	2.66
454.229	2.78
454.586	2.58
454.943	2.63
455.3	2.6
455.657	2.74
456.014	2.75
456.371	2.75
456.727	2.67
457.084	2.78
457.441	2.72
457.797	2.89
458.154	2.81
458.51	2.63
458.867	2.85
459.223	2.89
459.58	2.81
459.936	2.63
460.292	2.64
460.648	2.85
461.005	2.69
461.361	2.59
461.717	2.76
462.073	2.68
462.429	2.65
462.785	2.73
463.141	2.72
463.496	2.67
463.852	2.92
464.208	2.84
464.564	2.81
464.919	2.94
465.275	2.91
465.631	2.76
465.986	2.86
466.342	2.76
466.697	2.92
467.052	2.96
467.408	2.88
467.763	3.07
468.118	2.91
468.473	2.99
468.829	2.68
469.184	2.73
469.539	2.91
469.894	2.9
470.249	2.78
470.603	2.79
470.958	2.93
471.313	3.19
471.668	2.97
472.023	2.78
472.377	2.69
472.732	2.92
473.086	2.95
473.441	2.9
473.795	2.87
474.15	3.03
474.504	2.71
474.859	2.99
475.213	2.79
475.567	2.82
475.921	3.04
476.275	2.82
476.63	2.85
476.984	2.91
477.338	2.91
477.692	2.93
478.045	2.89
478.399	2.83
478.753	2.91
479.107	2.91
479.461	2.85
479.814	2.99
480.168	2.79
480.521	2.86
480.875	3.05
481.228	3.11
481.582	3.06
481.935	3.08
482.289	3
482.642	3.05
482.995	2.95
483.348	2.99
483.701	2.98
484.055	2.9
484.408	2.9
484.761	2.92
485.114	2.83
485.466	2.79
485.819	2.75
486.172	2.73
486.525	2.77
486.878	2.79
487.23	2.78
487.583	2.83
487.936	2.91
488.288	2.86
488.641	2.84
488.993	2.84
489.345	2.86
489.698	2.78
490.05	2.87
490.402	2.85
490.754	2.87
491.107	2.85
491.459	2.97
491.811	3.05
492.163	2.96
492.515	2.97
492.866	2.9
493.218	2.86
493.57	2.86
493.922	2.86
494.274	2.93
494.625	3.02
494.977	3.03
495.328	3.15
495.68	3.08
496.031	3.19
496.383	3.09
496.734	3.18
497.086	2.99
497.437	3.13
497.788	3.01
498.139	3.1
498.49	3.17
498.842	3.07
499.193	3.08
499.544	3.06
499.894	3.03
500.245	3.18
500.596	3.18
500.947	3.09
501.298	3.23
501.648	3.17
501.999	3.16
502.35	3.24
502.7	3.12
503.051	3.16
503.401	3.15
503.752	3.25
504.102	3.16
504.452	3.25
504.803	3.38
505.153	3.28
505.503	3.28
505.853	3.45
506.203	3.37
506.553	3.3
506.903	3.23
507.253	3.22
507.603	3.3
507.953	3.22
508.303	3.21
508.652	3.16
509.002	3.29
509.352	3.28
509.701	3.26
510.051	3.26
510.4	3.3
510.75	3.23
511.099	3.2
511.449	3.34
511.798	3.22
512.147	3.23
512.496	3.44
512.846	3.29
513.195	3.24
513.544	3.37
513.893	3.32
514.242	3.28
514.591	3.32
514.939	3.24
515.288	3.31
515.637	3.38
515.986	3.41
516.334	3.46
516.683	3.4
517.032	3.38
517.38	3.34
517.729	3.43
518.077	3.35
518.426	3.43
518.774	3.43
519.122	3.39
519.47	3.35
519.819	3.32
520.167	3.36
520.515	3.32
520.863	3.42
521.211	3.34
521.559	3.51
521.907	3.44
522.255	3.47
522.602	3.48
522.95	3.49
523.298	3.46
523.645	3.59
523.993	3.56
524.341	3.57
524.688	3.45
525.036	3.62
525.383	3.49
525.73	3.41
526.078	3.53
526.425	3.52
526.772	3.4
527.119	3.54
527.466	3.47
527.814	3.43
528.161	3.51
528.508	3.6
528.854	3.57
529.201	3.5
529.548	3.53
529.895	3.48
530.242	3.4
530.588	3.4
530.935	3.41
531.282	3.45
531.628	3.48
531.975	3.49
532.321	3.56
532.667	3.53
533.014	3.52
533.36	3.57
533.706	3.59
534.052	3.63
534.399	3.62
534.745	3.63
535.091	3.56
535.437	3.62
535.783	3.58
536.129	3.64
536.474	3.68
536.82	3.7
537.166	3.79
537.512	3.8
537.857	3.85
538.203	3.71
538.549	3.67
538.894	3.73
539.239	3.74
539.585	3.75
539.93	3.84
540.276	3.82
540.621	3.8
540.966	3.83
541.311	3.88
541.656	3.9
542.001	3.85
542.346	3.91
542.691	3.87
543.036	3.77
543.381	3.72
543.726	3.83
544.071	3.8
544.415	3.84
544.76	3.9
545.105	3.94
545.449	3.95
545.794	4.01
546.138	3.92
546.483	4.08
546.827	4.08
547.171	4.08
547.516	4.01
547.86	4.1
548.204	4.16
548.548	4.06
548.892	4.04
549.236	4.18
549.58	4.18
549.924	4.09
550.268	4.27
550.612	4.22
550.956	4.38
551.3	4.26
551.643	4.5
551.987	4.38
552.33	4.34
552.674	4.31
553.017	4.52
553.361	4.64
553.704	4.39
554.048	4.36
554.391	4.47
554.734	4.41
555.077	4.54
555.42	4.26
555.764	4.57
556.107	4.44
556.45	4.32
556.793	4.46
557.135	4.49
557.478	4.68
557.821	4.62
558.164	4.67
558.507	4.61
558.849	4.62
559.192	4.67
559.534	4.66
559.877	4.61
560.219	4.63
560.562	4.75
560.904	4.87
561.246	4.5
561.589	4.92
561.931	4.65
562.273	4.55
562.615	4.7
562.957	4.93
563.299	4.89
563.641	4.91
563.983	4.87
564.325	5.02
564.667	4.83
565.008	4.9
565.35	4.72
565.692	5
566.033	4.97
566.375	5.06
566.716	4.74
567.058	5.08
567.399	5.14
567.741	5.05
568.082	5.03
568.423	5.04
568.764	4.98
569.105	5.04
569.447	5.13
569.788	5.08
570.129	5.15
570.47	5.17
570.811	5.03
571.151	5.33
571.492	5.25
571.833	5.35
572.174	5.04
572.514	5.25
572.855	5.23
573.195	5.43
573.536	5.12
573.876	5.32
574.217	5.21
574.557	5.26
574.898	5.33
575.238	5.43
575.578	5.33
575.918	5.4
576.258	5.53
576.598	5.44
576.938	5.4
577.278	5.56
577.618	5.68
577.958	5.42
578.298	5.72
578.638	5.5
578.977	5.68
579.317	5.69
579.657	5.65
579.996	5.65
580.336	5.89
580.675	5.87
581.014	5.9
581.354	5.84
581.693	5.65
582.032	5.49
582.372	5.75
582.711	5.92
583.05	6.02
583.389	5.88
583.728	5.8
584.067	6.16
584.406	6.24
584.745	6.17
585.083	5.87
585.422	6.02
585.761	6.42
586.1	6.1
586.438	6.31
586.777	6.27
587.115	6.22
587.454	6.15
587.792	6.01
588.13	6.43
588.469	6.29
588.807	6.21
589.145	6.68
589.483	6.18
589.821	6.63
590.159	6.46
590.497	6.51
590.835	6.48
591.173	6.58
591.511	6.48
591.849	6.28
592.187	6.48
592.524	6.21
592.862	6.47
593.2	6.45
593.537	6.38
593.875	6.88
594.212	6.73
594.55	6.83
594.887	7.2
595.224	6.94
595.561	6.82
595.899	6.7
596.236	6.84
596.573	6.78
596.91	7.12
597.247	6.77
597.584	6.93
597.921	6.95
598.258	7.04
598.594	6.98
598.931	6.89
599.268	6.77
599.604	6.81
599.941	7.11
600.277	6.98
600.614	7.29
600.95	7.37
601.287	7.19
601.623	7.33
601.959	7.16
602.296	7.36
602.632	7.34
602.968	7.15
603.304	7.41
603.64	7.66
603.976	6.97
604.312	7.74
604.648	7.62
604.984	7.47
605.319	7.53
605.655	7.58
605.991	7.82
606.326	7.5
606.662	7.68
606.998	7.38
607.333	7.61
607.668	7.65
608.004	7.92
608.339	7.93
608.674	7.81
609.01	7.89
609.345	7.84
609.68	7.95
610.015	7.45
610.35	8.11
610.685	7.77
611.02	8.05
611.355	8.01
611.689	7.96
612.024	7.9
612.359	8.14
612.694	8.04
613.028	8.1
613.363	8.09
613.697	8.3
614.032	8.34
614.366	8.38
614.7	8.5
615.035	8.39
615.369	8.4
615.703	8.42
616.037	8
616.371	8.53
616.705	8.65
617.039	8.5
617.373	8.51
617.707	8.41
618.041	8.83
618.375	8.46
618.709	8.54
619.042	8.83
619.376	8.54
619.71	8.94
620.043	8.82
620.377	8.87
620.71	8.44
621.043	8.53
621.377	8.8
621.71	9.26
622.043	9.19
622.376	9.39
622.709	9.16
623.043	8.86
623.376	9.55
623.709	9.13
624.041	9.1
624.374	9.05
624.707	8.97
625.04	9.33
625.373	9.6
625.705	9.26
626.038	9.4
626.37	9.65
626.703	9.3
627.035	9.08
627.368	9.67
627.7	9.22
628.032	9.62
628.365	9.47
628.697	9.55
629.029	9.54
629.361	9.43
629.693	9.68
630.025	9.64
630.357	9.69
630.689	9.5
631.021	9.75
631.353	10.09
631.684	10.04
632.016	9.82
632.348	10.1
632.679	10.11
633.011	10.47
633.342	10.37
633.674	10.37
634.005	10.13
634.336	10.31
634.668	10.28
634.999	10.63
635.33	10.63
635.661	10.2
635.992	10.33
636.323	10.28
636.654	10.54
636.985	10.15
637.316	10.23
637.647	10.47
637.977	10.45
638.308	10.84
638.639	10.33
638.969	10.7
639.3	10.65
639.63	10.89
639.961	10.43
640.291	10.63
640.622	10.77
640.952	11.42
641.282	10.75
641.612	10.97
641.943	10.84
642.273	10.95
642.603	11.23
642.933	10.76
643.263	10.98
643.592	11.36
643.922	11.5
644.252	11.19
644.582	11.03
644.911	11.04
645.241	10.89
645.571	11.62
645.9	11.41
646.23	11.27
646.559	11.68
646.888	11.47
647.218	11.9
647.547	11.84
647.876	11.84
648.205	11.29
648.534	11.83
648.863	11.58
649.192	12.78
649.521	12.16
649.85	11.78
650.179	12.32
650.508	11.97
650.837	11.41
651.165	11.65
651.494	11.85
651.822	11.73
652.151	12.55
652.479	12.49
652.808	12.3
653.136	12.4
653.465	12.63
653.793	12.54
654.121	12.51
654.449	12.49
654.777	12.15
655.105	12.77
655.433	12.64
655.761	12.74
656.089	12.28
656.417	12.78
656.745	12.93
657.073	12.35
657.4	13.02
657.728	12.02
658.056	12.46
658.383	12.52
658.711	13.06
659.038	12.64
659.365	12.79
659.693	12.82
660.02	12.66
660.347	12.91
660.674	13.4
661.001	12.99
661.329	13.1
661.656	12.67
661.982	12.92
662.309	13.03
662.636	13.14
662.963	13.3
663.29	13.83
663.616	13.49
663.943	13.55
664.27	13.58
664.596	13.31
664.923	14.14
665.249	13.64
665.576	13.93
665.902	13.32
666.228	13.68
666.554	13.82
666.881	13.13
667.207	14.24
667.533	13.97
667.859	13.55
668.185	14.1
668.511	14.23
668.837	13.7
669.162	14.45
669.488	13.89
669.814	14.64
670.139	13.63
670.465	13.39
670.791	13.83
671.116	13.94
671.442	13.74
671.767	14.32
672.092	14.5
672.418	14.23
672.743	14.78
673.068	14.01
673.393	14.27
673.718	14.9
674.043	14.97
674.368	14.3
674.693	14.98
675.018	14.23
675.343	14.38
675.667	15
675.992	14.77
676.317	14.65
676.641	15.27
676.966	15.15
677.29	14.94
677.615	14.47
677.939	14.76
678.264	15.28
678.588	14.73
678.912	15.74
679.236	15.6
679.56	15.68
679.885	15.42
680.209	15.44
680.532	15.71
680.856	15.16
681.18	15.57
681.504	15.64
681.828	15.63
682.152	15.65
682.475	15.63
682.799	15.73
683.122	15.73
683.446	16.33
683.769	16.41
684.093	15.39
684.416	15.81
684.739	16.2
685.062	16.16
685.386	16.26
685.709	15.9
686.032	15.97
686.355	15.9
686.678	16.43
687.001	16.8
687.324	16.37
687.646	16.86
687.969	16.24
688.292	17.04
