Data from 0076_chest_Reflection__3__363.txt Node

Date: Fri Dec 16 16:56:26 CST 2022
User: ToomeyLab
Spectrometer: FLMS14357
Trigger mode: 0
Integration Time (sec): 1.000000E-2
Scans to average: 100
Electric dark correction enabled: true
Nonlinearity correction enabled: false
Boxcar width: 0
XAxis mode: Wavelengths
Number of Pixels in Spectrum: 2048
>>>>>Begin Spectral Data<<<<<
189.047	70.51
189.435	70.51
189.823	70.51
190.211	-21.3
190.599	-34.56
190.987	-156.15
191.375	-22.41
191.763	323.94
192.151	51.07
192.538	848.5
192.926	102.01
193.314	156.65
193.702	82.23
194.089	0.08
194.477	41.72
194.864	-72.38
195.252	77.79
195.639	83.31
196.027	135.2
196.414	113.8
196.801	88.31
197.189	57.83
197.576	561.26
197.963	414.6
198.351	12.86
198.738	-38.13
199.125	-11.74
199.512	-25
199.899	-41.08
200.286	-29.64
200.673	43.93
201.06	61.59
201.447	13.1
201.833	-40.64
202.22	6.02
202.607	-16.5
202.994	10.65
203.38	4.33
203.767	-35.12
204.154	-32.26
204.54	33.09
204.927	31.77
205.313	9.91
205.699	7.51
206.086	-27.58
206.472	-80.23
206.858	-12.53
207.245	-39.21
207.631	-66.27
208.017	14.32
208.403	0.57
208.789	-19.37
209.175	50.7
209.561	-144.89
209.947	-23.14
210.333	-86.8
210.719	-6.95
211.105	-89.99
211.491	2
211.876	-3.78
212.262	-78.82
212.648	-61.32
213.034	-9.54
213.419	17.56
213.805	1.83
214.19	-9.13
214.576	-40.87
214.961	-39.87
215.346	-25.17
215.732	-13.86
216.117	-35.8
216.502	-14.23
216.888	-57.25
217.273	5.98
217.658	-49.19
218.043	-13.28
218.428	-51.24
218.813	-45.18
219.198	-39.76
219.583	-11.31
219.968	-24.54
220.353	7.19
220.738	-24.46
221.122	-19.92
221.507	-26.02
221.892	-24.75
222.276	-21.49
222.661	-14.4
223.046	-0.87
223.43	-19.25
223.815	-0.65
224.199	4.84
224.583	-9.34
224.968	2.47
225.352	-8.67
225.736	0.12
226.121	-13.59
226.505	2.53
226.889	9.06
227.273	1.03
227.657	-2.54
228.041	1.12
228.425	1.13
228.809	1.75
229.193	0.7
229.577	1.37
229.961	1.82
230.344	2.71
230.728	2.95
231.112	1.99
231.495	2.45
231.879	3.52
232.263	2.09
232.646	2.74
233.03	-0.06
233.413	1.17
233.797	2.63
234.18	1.92
234.563	1.05
234.946	0.68
235.33	2.23
235.713	2.48
236.096	2.84
236.479	2.84
236.862	3.73
237.245	2.97
237.628	3.95
238.011	1.92
238.394	2.37
238.777	4.31
239.16	-0.87
239.543	1.84
239.925	1.85
240.308	2.24
240.691	0.15
241.073	1.21
241.456	1.64
241.838	1.98
242.221	2.76
242.603	2.75
242.986	3.29
243.368	2.84
243.75	2.59
244.133	2.63
244.515	2.88
244.897	2.34
245.279	2.38
245.661	2.43
246.043	3
246.425	2.31
246.807	3.48
247.189	2.04
247.571	2.63
247.953	2.77
248.335	3.18
248.717	3.07
249.098	2.81
249.48	2.77
249.862	2.53
250.243	2.38
250.625	3.08
251.006	2.82
251.388	3.33
251.769	2.8
252.151	2.38
252.532	2.69
252.913	2.95
253.295	2.81
253.676	3.05
254.057	2.55
254.438	2.27
254.819	2.51
255.2	2.16
255.581	1.57
255.962	2.35
256.343	2.16
256.724	2.51
257.105	1.88
257.486	2.04
257.867	1.33
258.247	2.86
258.628	3.13
259.009	2.21
259.389	2.81
259.77	2.36
260.15	3.2
260.531	2.73
260.911	2.79
261.292	2.91
261.672	2.61
262.052	2.61
262.432	2.29
262.813	2.48
263.193	1.54
263.573	2.4
263.953	2.79
264.333	2.31
264.713	1.67
265.093	2.35
265.473	2.8
265.853	2.14
266.233	1.62
266.612	1.87
266.992	2.02
267.372	2.23
267.752	2.2
268.131	2.7
268.511	2.83
268.89	2.98
269.27	2.72
269.649	2.95
270.029	2.62
270.408	2.16
270.787	2.58
271.167	2.39
271.546	2.2
271.925	2.6
272.304	2.47
272.683	2.53
273.062	2.51
273.441	2.61
273.82	2.45
274.199	2.56
274.578	2.26
274.957	2.13
275.336	2.12
275.715	2.52
276.093	3.12
276.472	2.78
276.851	2.87
277.229	2.92
277.608	2.07
277.986	2.76
278.365	2.04
278.743	2.6
279.122	1.63
279.5	2.28
279.878	1.96
280.257	2.14
280.635	2.01
281.013	2.41
281.391	2.41
281.769	2.29
282.147	2.67
282.525	2.28
282.903	2.35
283.281	2.46
283.659	2.33
284.037	2.52
284.415	2.73
284.792	2.2
285.17	2.94
285.548	2.3
285.925	2.01
286.303	2.02
286.68	2.81
287.058	2.53
287.435	2.36
287.813	2.31
288.19	2.9
288.567	2.25
288.945	2.36
289.322	2.55
289.699	2.37
290.076	2.61
290.453	1.73
290.83	2.57
291.207	2.56
291.584	2.3
291.961	2.46
292.338	2.17
292.715	2.34
293.092	2.24
293.469	2.37
293.845	2.58
294.222	2.48
294.599	2.86
294.975	2.65
295.352	2.37
295.728	2.57
296.105	2.21
296.481	3.06
296.858	3.03
297.234	2.62
297.61	2.78
297.986	2.66
298.363	2.5
298.739	2.61
299.115	2.13
299.491	2.37
299.867	2.72
300.243	2.48
300.619	2.45
300.995	2.48
301.371	2.53
301.746	2.42
302.122	2.44
302.498	2.51
302.874	2.7
303.249	2.92
303.625	2.59
304	2.13
304.376	2.81
304.751	1.82
305.127	2.53
305.502	2.6
305.878	2.25
306.253	2.7
306.628	2.56
307.003	2.56
307.378	2.19
307.754	2.96
308.129	2.17
308.504	2.48
308.879	2.54
309.254	2.91
309.629	2.53
310.003	2.64
310.378	2.64
310.753	2.81
311.128	2.68
311.502	2.36
311.877	2.53
312.252	2.19
312.626	2.28
313.001	2.53
313.375	2.83
313.75	2.41
314.124	2.83
314.498	2.48
314.873	2.58
315.247	2.65
315.621	2.64
315.995	2.63
316.369	2.24
316.743	2.72
317.117	2.6
317.491	2.84
317.865	1.81
318.239	2.76
318.613	2.5
318.987	2.39
319.361	2.8
319.734	2.59
320.108	2.13
320.482	2.6
320.855	2.29
321.229	3.35
321.602	2.64
321.976	2.58
322.349	2.05
322.723	1.56
323.096	2.57
323.469	2.25
323.843	2.8
324.216	2
324.589	2.85
324.962	3.11
325.335	2.41
325.708	2.96
326.081	2.72
326.454	2.7
326.827	2.99
327.2	2.96
327.573	2.62
327.945	2.75
328.318	3.03
328.691	3.04
329.063	2.68
329.436	2.16
329.809	1.86
330.181	2.45
330.553	2.6
330.926	2.66
331.298	2.57
331.671	2.48
332.043	2.78
332.415	3.1
332.787	2.92
333.159	3
333.532	2.69
333.904	2.62
334.276	2.54
334.648	2.8
335.02	2.62
335.391	2.57
335.763	2.54
336.135	2.85
336.507	2.55
336.879	2.38
337.25	2.85
337.622	2.77
337.993	3.03
338.365	3.03
338.736	2.71
339.108	2.28
339.479	2.41
339.851	2.92
340.222	2.45
340.593	2.63
340.964	2.63
341.336	2.3
341.707	2.78
342.078	2.58
342.449	2.95
342.82	2.99
343.191	2.4
343.562	2.75
343.933	2.62
344.303	2.8
344.674	2.92
345.045	2.68
345.416	2.94
345.786	2.38
346.157	2.61
346.527	2.55
346.898	2.6
347.268	2.3
347.639	2.75
348.009	2.81
348.38	2.74
348.75	2.57
349.12	2.78
349.49	2.88
349.861	3.2
350.231	2.76
350.601	2.68
350.971	2.76
351.341	2.76
351.711	2.89
352.081	2.64
352.45	2.99
352.82	3
353.19	2.64
353.56	2.15
353.929	2.31
354.299	3.1
354.669	2.72
355.038	2.83
355.408	3.31
355.777	3.04
356.147	2.87
356.516	2.98
356.885	2.91
357.254	3.02
357.624	2.94
357.993	2.71
358.362	3.06
358.731	2.89
359.1	2.82
359.469	2.72
359.838	2.65
360.207	2.54
360.576	2.88
360.945	2.68
361.314	2.86
361.682	2.75
362.051	2.59
362.42	2.97
362.788	3.06
363.157	2.73
363.525	2.89
363.894	2.61
364.262	2.8
364.631	3.53
364.999	2.56
365.367	2.93
365.735	2.45
366.104	2.72
366.472	2.77
366.84	3.19
367.208	2.45
367.576	2.96
367.944	2.84
368.312	2.46
368.68	2.96
369.048	3.13
369.416	2.89
369.783	2.57
370.151	2.93
370.519	2.91
370.886	2.88
371.254	2.66
371.621	2.89
371.989	2.88
372.356	3.14
372.724	3.19
373.091	2.86
373.458	2.73
373.826	3.05
374.193	3.25
374.56	2.72
374.927	2.72
375.294	3.35
375.661	3.08
376.028	2.99
376.395	2.7
376.762	2.99
377.129	3.13
377.496	2.79
377.863	3.01
378.229	2.86
378.596	2.9
378.963	2.88
379.329	2.66
379.696	2.97
380.062	3.11
380.429	2.93
380.795	2.99
381.161	2.95
381.528	2.57
381.894	2.97
382.26	2.96
382.626	2.72
382.993	2.63
383.359	2.7
383.725	3.07
384.091	2.47
384.457	3.11
384.823	2.97
385.188	3.19
385.554	3
385.92	3.22
386.286	3.15
386.651	2.61
387.017	3.11
387.383	3.01
387.748	3
388.114	2.86
388.479	3.01
388.845	3.27
389.21	2.97
389.575	3.05
389.94	2.97
390.306	2.73
390.671	2.89
391.036	2.99
391.401	3.29
391.766	3.14
392.131	3.22
392.496	3.1
392.861	2.9
393.226	3.13
393.591	3.08
393.956	2.93
394.32	3.13
394.685	3.07
395.05	2.99
395.414	3.24
395.779	2.77
396.143	3.28
396.508	3.36
396.872	2.97
397.236	2.99
397.601	3
397.965	2.87
398.329	3.06
398.694	2.9
399.058	3
399.422	3.18
399.786	3.12
400.15	3.03
400.514	3.01
400.878	3.12
401.242	3.29
401.605	2.98
401.969	2.95
402.333	3.03
402.697	3.24
403.06	3.2
403.424	3.21
403.787	3.04
404.151	3.03
404.514	3.39
404.878	3
405.241	3.29
405.604	3.06
405.968	3.11
406.331	3.17
406.694	3.19
407.057	3.23
407.42	3.13
407.783	2.97
408.146	3.31
408.509	2.95
408.872	3.21
409.235	3.16
409.598	3.31
409.961	3.26
410.323	3.3
410.686	2.89
411.049	2.93
411.411	3.02
411.774	3.17
412.136	3.14
412.499	2.86
412.861	2.74
413.223	3.32
413.586	2.98
413.948	3.19
414.31	3.06
414.672	3.19
415.035	3.32
415.397	3.18
415.759	3.07
416.121	3.38
416.483	3.43
416.845	3.08
417.206	3.24
417.568	3.09
417.93	3.06
418.292	3.04
418.653	3.11
419.015	3.16
419.377	3.13
419.738	3.12
420.1	3.11
420.461	3.03
420.822	3.13
421.184	3.07
421.545	3.18
421.906	3.21
422.267	2.95
422.629	3.08
422.99	3.16
423.351	3.22
423.712	3.11
424.073	3.28
424.434	3.12
424.795	3.21
425.155	3.19
425.516	3.03
425.877	3.2
426.238	3.04
426.598	3.13
426.959	3.16
427.32	3.16
427.68	3.26
428.041	3.29
428.401	3.1
428.761	3.12
429.122	3.04
429.482	3.11
429.842	3.11
430.202	3.36
430.563	3.16
430.923	3.2
431.283	3.35
431.643	3.29
432.003	3.13
432.363	3.34
432.722	3.24
433.082	3.41
433.442	3.2
433.802	3.29
434.161	3.26
434.521	3.26
434.881	3.31
435.24	3.17
435.6	3.15
435.959	3.38
436.319	3.23
436.678	3.41
437.037	3.25
437.396	3.13
437.756	3.34
438.115	3.29
438.474	3.38
438.833	3.48
439.192	3.32
439.551	3.27
439.91	3.38
440.269	3.39
440.628	3.29
440.987	3.18
441.345	3.21
441.704	3.3
442.063	3.35
442.421	3.36
442.78	3.2
443.138	3.32
443.497	3.24
443.855	3.32
444.214	3.4
444.572	3.28
444.93	3.4
445.288	3.44
445.647	3.42
446.005	3.21
446.363	3.36
446.721	3.12
447.079	3.3
447.437	3.3
447.795	3.26
448.153	3.34
448.51	3.26
448.868	3.33
449.226	3.38
449.584	3.26
449.941	3.38
450.299	3.3
450.656	3.43
451.014	3.29
451.371	3.36
451.729	3.38
452.086	3.3
452.443	3.31
452.801	3.37
453.158	3.25
453.515	3.29
453.872	3.4
454.229	3.26
454.586	3.44
454.943	3.45
455.3	3.43
455.657	3.43
456.014	3.44
456.371	3.46
456.727	3.44
457.084	3.28
457.441	3.29
457.797	3.34
458.154	3.5
458.51	3.37
458.867	3.33
459.223	3.44
459.58	3.3
459.936	3.36
460.292	3.37
460.648	3.33
461.005	3.33
461.361	3.28
461.717	3.35
462.073	3.43
462.429	3.42
462.785	3.46
463.141	3.57
463.496	3.31
463.852	3.44
464.208	3.4
464.564	3.38
464.919	3.42
465.275	3.56
465.631	3.41
465.986	3.4
466.342	3.6
466.697	3.52
467.052	3.46
467.408	3.33
467.763	3.25
468.118	3.61
468.473	3.54
468.829	3.58
469.184	3.58
469.539	3.39
469.894	3.39
470.249	3.47
470.603	3.57
470.958	3.54
471.313	3.47
471.668	3.65
472.023	3.6
472.377	3.42
472.732	3.44
473.086	3.48
473.441	3.59
473.795	3.53
474.15	3.47
474.504	3.44
474.859	3.52
475.213	3.5
475.567	3.48
475.921	3.59
476.275	3.55
476.63	3.43
476.984	3.53
477.338	3.72
477.692	3.67
478.045	3.53
478.399	3.48
478.753	3.54
479.107	3.45
479.461	3.73
479.814	3.46
480.168	3.44
480.521	3.52
480.875	3.63
481.228	3.61
481.582	3.49
481.935	3.52
482.289	3.46
482.642	3.57
482.995	3.61
483.348	3.49
483.701	3.52
484.055	3.53
484.408	3.49
484.761	3.32
485.114	3.32
485.466	3.32
485.819	3.34
486.172	3.47
486.525	3.5
486.878	3.47
487.23	3.47
487.583	3.42
487.936	3.49
488.288	3.43
488.641	3.44
488.993	3.35
489.345	3.41
489.698	3.46
490.05	3.45
490.402	3.55
490.754	3.61
491.107	3.61
491.459	3.62
491.811	3.66
492.163	3.59
492.515	3.5
492.866	3.45
493.218	3.4
493.57	3.52
493.922	3.54
494.274	3.59
494.625	3.6
494.977	3.58
495.328	3.8
495.68	3.79
496.031	3.73
496.383	3.64
496.734	3.7
497.086	3.58
497.437	3.66
497.788	3.55
498.139	3.59
498.49	3.59
498.842	3.58
499.193	3.69
499.544	3.78
499.894	3.65
500.245	3.73
500.596	3.74
500.947	3.74
501.298	3.62
501.648	3.67
501.999	3.82
502.35	3.92
502.7	3.75
503.051	3.82
503.401	3.76
503.752	3.7
504.102	3.65
504.452	3.8
504.803	3.71
505.153	3.78
505.503	3.66
505.853	3.67
506.203	3.73
506.553	3.8
506.903	3.75
507.253	3.74
507.603	3.82
507.953	3.76
508.303	3.78
508.652	3.84
509.002	3.84
509.352	3.9
509.701	3.76
510.051	3.9
510.4	3.83
510.75	3.73
511.099	3.71
511.449	3.69
511.798	3.91
512.147	3.81
512.496	3.89
512.846	3.83
513.195	3.91
513.544	3.81
513.893	3.67
514.242	3.91
514.591	3.91
514.939	3.8
515.288	3.96
515.637	3.82
515.986	3.82
516.334	4
516.683	3.91
517.032	3.92
517.38	3.93
517.729	3.89
518.077	3.86
518.426	3.74
518.774	3.91
519.122	3.9
519.47	3.86
519.819	3.89
520.167	3.84
520.515	3.9
520.863	3.89
521.211	3.95
521.559	3.87
521.907	3.89
522.255	4.05
522.602	4.01
522.95	4.02
523.298	4.09
523.645	3.86
523.993	4.06
524.341	4.02
524.688	4.06
525.036	4.09
525.383	3.98
525.73	4.06
526.078	4.12
526.425	4.01
526.772	3.83
527.119	3.94
527.466	3.99
527.814	4.06
528.161	4.03
528.508	4.02
528.854	3.84
529.201	3.94
529.548	3.85
529.895	3.82
530.242	3.87
530.588	3.9
530.935	3.95
531.282	3.97
531.628	3.95
531.975	4.06
532.321	4.02
532.667	4.14
533.014	4.03
533.36	4.07
533.706	4.15
534.052	4.02
534.399	3.95
534.745	3.96
535.091	4.03
535.437	4.08
535.783	4.18
536.129	4.13
536.474	4.17
536.82	4.15
537.166	4.25
537.512	4.21
537.857	4.18
538.203	4.22
538.549	4.25
538.894	4.25
539.239	4.32
539.585	4.31
539.93	4.29
540.276	4.27
540.621	4.26
540.966	4.18
541.311	4.34
541.656	4.18
542.001	4.23
542.346	4.22
542.691	4.19
543.036	4.12
543.381	4.22
543.726	4.23
544.071	4.27
544.415	4.31
544.76	4.25
545.105	4.35
545.449	4.23
545.794	4.36
546.138	4.47
546.483	4.32
546.827	4.35
547.171	4.37
547.516	4.44
547.86	4.5
548.204	4.44
548.548	4.5
548.892	4.56
549.236	4.6
549.58	4.44
549.924	4.6
550.268	4.58
550.612	4.71
550.956	4.5
551.3	4.48
551.643	4.66
551.987	4.66
552.33	4.58
552.674	4.74
553.017	4.8
553.361	4.53
553.704	4.67
554.048	4.72
554.391	4.76
554.734	4.64
555.077	4.72
555.42	4.64
555.764	4.88
556.107	4.77
556.45	4.7
556.793	4.92
557.135	4.93
557.478	4.87
557.821	4.74
558.164	4.89
558.507	4.77
558.849	4.67
559.192	4.93
559.534	4.66
559.877	5.02
560.219	5.14
560.562	4.96
560.904	4.94
561.246	4.99
561.589	5.13
561.931	5.16
562.273	4.93
562.615	5
562.957	4.98
563.299	5.02
563.641	5.08
563.983	5
564.325	5.04
564.667	5.13
565.008	5.15
565.35	5.28
565.692	5.24
566.033	5.05
566.375	4.99
566.716	5.27
567.058	5.24
567.399	5.1
567.741	5.28
568.082	5.29
568.423	5.33
568.764	5.21
569.105	5.26
569.447	5.21
569.788	5.27
570.129	5.31
570.47	5.35
570.811	5.41
571.151	5.35
571.492	5.41
571.833	5.46
572.174	5.44
572.514	5.36
572.855	5.51
573.195	5.24
573.536	5.28
573.876	5.36
574.217	5.5
574.557	5.48
574.898	5.52
575.238	5.38
575.578	5.66
575.918	5.58
576.258	5.52
576.598	5.47
576.938	5.63
577.278	5.56
577.618	5.55
577.958	5.65
578.298	5.9
578.638	5.68
578.977	5.49
579.317	5.81
579.657	5.78
579.996	6.02
580.336	5.75
580.675	5.8
581.014	5.76
581.354	5.84
581.693	5.84
582.032	5.68
582.372	5.96
582.711	5.82
583.05	6.02
583.389	5.97
583.728	6.09
584.067	5.98
584.406	6.11
584.745	6.04
585.083	6.39
585.422	6.04
585.761	6.27
586.1	6.32
586.438	6.2
586.777	6.12
587.115	6.26
587.454	6.18
587.792	6.03
588.13	6.5
588.469	6.14
588.807	6.49
589.145	6.44
589.483	6.2
589.821	6.54
590.159	6.22
590.497	6.11
590.835	6.13
591.173	6.45
591.511	6.58
591.849	6.56
592.187	6.68
592.524	6.38
592.862	6.7
593.2	6.72
593.537	6.36
593.875	6.57
594.212	6.69
594.55	6.63
594.887	6.55
595.224	6.72
595.561	6.8
595.899	6.56
596.236	6.93
596.573	6.74
596.91	6.81
597.247	6.84
597.584	6.9
597.921	6.8
598.258	6.76
598.594	6.62
598.931	6.95
599.268	6.82
599.604	6.96
599.941	6.95
600.277	6.94
600.614	7.07
600.95	7.04
601.287	6.84
601.623	7.13
601.959	6.84
602.296	7.22
602.632	7.21
602.968	7.06
603.304	7.15
603.64	7.18
603.976	7.2
604.312	7.3
604.648	7.3
604.984	7.19
605.319	7.17
605.655	7.14
605.991	7.21
606.326	7.11
606.662	7.2
606.998	7.19
607.333	7.41
607.668	7.38
608.004	7.42
608.339	7.5
608.674	7.55
609.01	7.7
609.345	7.64
609.68	7.39
610.015	7.36
610.35	7.59
610.685	7.37
611.02	7.54
611.355	7.53
611.689	7.46
612.024	7.74
612.359	7.68
612.694	7.99
613.028	7.88
613.363	7.77
613.697	7.82
614.032	8.14
614.366	7.63
614.7	8.13
615.035	7.77
615.369	7.76
615.703	8.2
616.037	7.96
616.371	7.8
616.705	8.12
617.039	7.97
617.373	8.14
617.707	8.15
618.041	8.39
618.375	7.9
618.709	8.15
619.042	7.97
619.376	8.21
619.71	8.01
620.043	8.04
620.377	8.27
620.71	8.29
621.043	8.47
621.377	8.44
621.71	8.11
622.043	8.23
622.376	8.41
622.709	8.76
623.043	8.31
623.376	8.61
623.709	8.44
624.041	8.4
624.374	8.58
624.707	8.49
625.04	8.73
625.373	8.44
625.705	8.54
626.038	8.46
626.37	8.51
626.703	8.87
627.035	8.81
627.368	9.18
627.7	8.7
628.032	9.01
628.365	8.55
628.697	8.64
629.029	9.13
629.361	8.76
629.693	9.1
630.025	8.91
630.357	8.99
630.689	9.15
631.021	9.06
631.353	9.2
631.684	8.89
632.016	9.08
632.348	9.08
632.679	9.07
633.011	9.31
633.342	9.49
633.674	9.52
634.005	9.11
634.336	9.12
634.668	9.24
634.999	9.3
635.33	9.24
635.661	9.85
635.992	9.35
636.323	9.42
636.654	9.56
636.985	9.19
637.316	9.61
637.647	9.65
637.977	9.41
638.308	9.41
638.639	9.3
638.969	9.59
639.3	9.56
639.63	9.58
639.961	9.79
640.291	10.17
640.622	9.76
640.952	9.68
641.282	9.36
641.612	9.56
641.943	9.97
642.273	10.02
642.603	9.77
642.933	10.07
643.263	10.04
643.592	10
643.922	10.19
644.252	10.17
644.582	10.18
644.911	9.94
645.241	10.13
645.571	10.23
645.9	10.81
646.23	10.07
646.559	10.59
646.888	9.94
647.218	10.57
647.547	10.66
647.876	10.23
648.205	10.34
648.534	10.48
648.863	10.98
649.192	10.25
649.521	10.56
649.85	10.66
650.179	10.58
650.508	10.86
650.837	10.44
651.165	10.15
651.494	10.66
651.822	10.99
652.151	10.65
652.479	11.2
652.808	10.62
653.136	10.56
653.465	11.05
653.793	10.93
654.121	10.84
654.449	10.83
654.777	10.85
655.105	11.33
655.433	11.52
655.761	11.11
656.089	11.27
656.417	10.76
656.745	11.27
657.073	11.81
657.4	11.28
657.728	11.36
658.056	11.41
658.383	11.27
658.711	11.04
659.038	11.32
659.365	11.39
659.693	10.87
660.02	11.24
660.347	11.16
660.674	11.25
661.001	11.08
661.329	11.3
661.656	11.31
661.982	11.61
662.309	11.29
662.636	11.16
662.963	11.53
663.29	11.57
663.616	11.36
663.943	11.44
664.27	11.63
664.596	11.56
664.923	12.26
665.249	11.42
665.576	11.51
665.902	11.79
666.228	11.57
666.554	11.53
666.881	11.36
667.207	11.42
667.533	12.27
667.859	11.48
668.185	11.8
668.511	11.72
668.837	11.36
669.162	12.22
669.488	11.68
669.814	12.89
670.139	12.67
670.465	11.92
670.791	12.5
671.116	12.15
671.442	12.35
671.767	12.27
672.092	12.79
672.418	12.09
672.743	12.09
673.068	11.99
673.393	12.25
673.718	12.39
674.043	11.76
674.368	12.63
674.693	12.66
675.018	12.56
675.343	13.17
675.667	12.63
675.992	12.8
676.317	12.5
676.641	12.96
676.966	12.97
677.29	12.74
677.615	12.69
677.939	12.39
678.264	12.98
678.588	12.91
678.912	12.95
679.236	13.32
679.56	12.88
679.885	12.73
680.209	11.81
680.532	13.22
680.856	12.82
681.18	12.91
681.504	13.3
681.828	12.58
682.152	13.06
682.475	13.21
682.799	13.26
683.122	13.16
683.446	13.05
683.769	12.96
684.093	13.57
684.416	13.57
684.739	13.26
685.062	13.53
685.386	13.17
685.709	13.05
686.032	13.56
686.355	13.24
686.678	12.95
687.001	12.27
687.324	13.27
687.646	13.25
687.969	13.05
688.292	14.31
688.614	13.72
688.937	12.89
