Data from 0076_forehead_Reflection__2__372.txt Node

Date: Fri Dec 16 16:59:38 CST 2022
User: ToomeyLab
Spectrometer: FLMS14357
Trigger mode: 0
Integration Time (sec): 1.000000E-2
Scans to average: 100
Electric dark correction enabled: true
Nonlinearity correction enabled: false
Boxcar width: 0
XAxis mode: Wavelengths
Number of Pixels in Spectrum: 2048
>>>>>Begin Spectral Data<<<<<
189.047	63.08
189.435	63.08
189.823	63.08
190.211	2.12
190.599	2.6
190.987	-30.32
191.375	70.29
191.763	215.21
192.151	-1.5
192.538	338.01
192.926	-116.87
193.314	255.09
193.702	5.89
194.089	72.5
194.477	-71.46
194.864	-32.63
195.252	88.97
195.639	141.19
196.027	124.16
196.414	411.35
196.801	301.55
197.189	70.32
197.576	395.06
197.963	69.02
198.351	66.53
198.738	16.04
199.125	19.01
199.512	-19.89
199.899	-51.92
200.286	-33.88
200.673	-1.9
201.06	77.91
201.447	41.82
201.833	-15.07
202.22	23.93
202.607	26.93
202.994	-43.72
203.38	-97.62
203.767	-12.43
204.154	-74.47
204.54	22.21
204.927	-0.3
205.313	66.52
205.699	-18.07
206.086	-7.3
206.472	-139.21
206.858	10.12
207.245	8.93
207.631	-12.54
208.017	43.04
208.403	5.86
208.789	25.15
209.175	69.56
209.561	-90.9
209.947	-63.33
210.333	-73.62
210.719	-30.39
211.105	-32.36
211.491	23.14
211.876	12.03
212.262	-68.49
212.648	-52.96
213.034	10.76
213.419	14.55
213.805	14.96
214.19	-3.23
214.576	-12.94
214.961	-23.74
215.346	-28.97
215.732	-6.1
216.117	-24.35
216.502	-31.58
216.888	-52.77
217.273	-9.72
217.658	-30.48
218.043	2.14
218.428	-14.49
218.813	-7.62
219.198	-59.37
219.583	6.37
219.968	-9.49
220.353	19.74
220.738	-17.61
221.122	0.02
221.507	8.89
221.892	2.45
222.276	7.75
222.661	-20.34
223.046	2.46
223.43	-12.14
223.815	13.11
224.199	6.64
224.583	-1.63
224.968	4.39
225.352	-2.33
225.736	8.38
226.121	-7.23
226.505	2.21
226.889	8.37
227.273	0.78
227.657	-1.49
228.041	0.54
228.425	1.41
228.809	1.42
229.193	-0.16
229.577	2.13
229.961	2.09
230.344	1.62
230.728	1.69
231.112	1.98
231.495	0.49
231.879	2.16
232.263	0.68
232.646	1.78
233.03	0.85
233.413	1.89
233.797	2.44
234.18	-0.5
234.563	-0.25
234.946	1.53
235.33	1.84
235.713	1.31
236.096	1.15
236.479	2.58
236.862	1.2
237.245	4.2
237.628	2.52
238.011	1.4
238.394	4.36
238.777	2.33
239.16	-1.59
239.543	0.81
239.925	1.57
240.308	4.13
240.691	1.14
241.073	2.09
241.456	2.07
241.838	1.97
242.221	1.57
242.603	2.72
242.986	2.82
243.368	1.88
243.75	1.78
244.133	1.94
244.515	2.31
244.897	2.16
245.279	1.75
245.661	1.41
246.043	2.49
246.425	1.69
246.807	1.25
247.189	1.9
247.571	1.98
247.953	2
248.335	2.25
248.717	2.45
249.098	2.07
249.48	2.08
249.862	2.03
250.243	2.39
250.625	2.49
251.006	2.33
251.388	2.56
251.769	2.23
252.151	2.58
252.532	2.22
252.913	2.42
253.295	2.66
253.676	2.32
254.057	2.04
254.438	1.35
254.819	1.83
255.2	1.67
255.581	0.9
255.962	1.64
256.343	3
256.724	2.7
257.105	1.7
257.486	2.16
257.867	1.31
258.247	2.79
258.628	2.75
259.009	2.25
259.389	2.6
259.77	1.99
260.15	2.86
260.531	2.05
260.911	2.07
261.292	2.19
261.672	2.26
262.052	2.02
262.432	2.11
262.813	2.18
263.193	1.8
263.573	2.62
263.953	2.5
264.333	2.7
264.713	2.12
265.093	2.45
265.473	3.25
265.853	2.18
266.233	2.24
266.612	2.35
266.992	1.69
267.372	1.7
267.752	1.76
268.131	1.63
268.511	2.45
268.89	2.75
269.27	2.57
269.649	2.27
270.029	1.7
270.408	1.88
270.787	1.93
271.167	2.33
271.546	1.16
271.925	1.72
272.304	2.03
272.683	1.79
273.062	2.24
273.441	2.28
273.82	2.54
274.199	1.77
274.578	1.38
274.957	2.29
275.336	1.87
275.715	2.18
276.093	2.81
276.472	1.84
276.851	2.03
277.229	2.82
277.608	2.23
277.986	2.2
278.365	1.95
278.743	2.43
279.122	1.24
279.5	1.52
279.878	1.89
280.257	2.16
280.635	1.44
281.013	2.13
281.391	1.73
281.769	1.95
282.147	2.37
282.525	2.13
282.903	2.06
283.281	1.78
283.659	2.32
284.037	2.17
284.415	1.93
284.792	2.62
285.17	1.85
285.548	1.98
285.925	2.18
286.303	1.83
286.68	2.38
287.058	2.29
287.435	2.05
287.813	2.14
288.19	2.5
288.567	2.05
288.945	2.37
289.322	1.62
289.699	2.3
290.076	2.55
290.453	2.02
290.83	2.37
291.207	2.39
291.584	2.07
291.961	2.24
292.338	2.24
292.715	2.52
293.092	2.18
293.469	2.57
293.845	2.67
294.222	2.47
294.599	2.46
294.975	2.49
295.352	1.92
295.728	2.59
296.105	3.03
296.481	2.79
296.858	2.58
297.234	2.78
297.61	2.47
297.986	2.77
298.363	2.29
298.739	2.97
299.115	2.42
299.491	2.68
299.867	3.11
300.243	2.67
300.619	2.55
300.995	3.01
301.371	2.96
301.746	2.99
302.122	3.16
302.498	2.72
302.874	2.75
303.249	2.45
303.625	2.97
304	2.98
304.376	3.37
304.751	3.14
305.127	3.11
305.502	3.27
305.878	3.06
306.253	2.59
306.628	3.1
307.003	3.35
307.378	2.6
307.754	3.57
308.129	2.82
308.504	3.26
308.879	3.58
309.254	3.42
309.629	3.51
310.003	3.68
310.378	3.37
310.753	3.66
311.128	3.23
311.502	3.14
311.877	3.35
312.252	3.53
312.626	3.33
313.001	3.3
313.375	3.5
313.75	3.34
314.124	4.03
314.498	3.32
314.873	3.46
315.247	2.94
315.621	3.93
315.995	3.79
316.369	3.89
316.743	3.92
317.117	3.8
317.491	3.68
317.865	2.66
318.239	4.34
318.613	3.59
318.987	3.91
319.361	3.86
319.734	3.72
320.108	3.7
320.482	3.87
320.855	3.59
321.229	4.39
321.602	3.4
321.976	4.15
322.349	3.41
322.723	3.69
323.096	3.75
323.469	4.26
323.843	4.38
324.216	3.32
324.589	4.46
324.962	4.18
325.335	3.94
325.708	4.51
326.081	4.63
326.454	4.45
326.827	4.34
327.2	4.71
327.573	4.24
327.945	4.3
328.318	3.98
328.691	4.2
329.063	4.65
329.436	4.31
329.809	4.15
330.181	4.29
330.553	4.63
330.926	4.24
331.298	4.42
331.671	4.27
332.043	4.71
332.415	4.43
332.787	5.05
333.159	4.68
333.532	4.36
333.904	4.43
334.276	4.36
334.648	4.55
335.02	4.35
335.391	4.4
335.763	4.38
336.135	4.57
336.507	4.29
336.879	4.89
337.25	5.19
337.622	5.32
337.993	5.39
338.365	5.47
338.736	4.88
339.108	4.31
339.479	4.43
339.851	4.81
340.222	4.47
340.593	4.68
340.964	5.02
341.336	4.18
341.707	4.58
342.078	4.6
342.449	5.23
342.82	4.92
343.191	4.6
343.562	5.3
343.933	5.03
344.303	4.94
344.674	5.01
345.045	5.74
345.416	5.12
345.786	4.65
346.157	5.17
346.527	4.9
346.898	5.02
347.268	5
347.639	5.06
348.009	5.51
348.38	4.79
348.75	5.16
349.12	5.35
349.49	5.41
349.861	5.88
350.231	5.76
350.601	5.04
350.971	5.35
351.341	5.74
351.711	4.98
352.081	5.54
352.45	5.59
352.82	5.34
353.19	5.1
353.56	5.54
353.929	5.26
354.299	5.41
354.669	5.84
355.038	5.36
355.408	5.7
355.777	5.3
356.147	5.66
356.516	5.75
356.885	5.62
357.254	5.71
357.624	5.43
357.993	5.31
358.362	5.89
358.731	5.83
359.1	5.96
359.469	5.75
359.838	5.61
360.207	5.41
360.576	5.56
360.945	5.76
361.314	6.19
361.682	5.64
362.051	5.56
362.42	6.23
362.788	5.95
363.157	5.75
363.525	5.68
363.894	5.7
364.262	5.88
364.631	6.78
364.999	6.12
365.367	6.31
365.735	5.78
366.104	5.9
366.472	6.2
366.84	6.13
367.208	5.75
367.576	5.75
367.944	6.38
368.312	5.95
368.68	6.27
369.048	6.49
369.416	6.16
369.783	6.17
370.151	6.15
370.519	5.65
370.886	6.5
371.254	6.09
371.621	6.59
371.989	6.6
372.356	6.36
372.724	6.34
373.091	6.4
373.458	6.31
373.826	6.23
374.193	6.99
374.56	6.2
374.927	6.26
375.294	6.46
375.661	6.69
376.028	6.59
376.395	6.13
376.762	6.92
377.129	6.55
377.496	6.56
377.863	6.76
378.229	6.55
378.596	6.51
378.963	6.52
379.329	6.86
379.696	6.67
380.062	7.19
380.429	6.97
380.795	6.62
381.161	6.93
381.528	6.66
381.894	7.22
382.26	6.73
382.626	6.92
382.993	6.73
383.359	6.67
383.725	7.07
384.091	6.91
384.457	7
384.823	7.11
385.188	7.11
385.554	7.13
385.92	7.35
386.286	7.49
386.651	7.2
387.017	7.19
387.383	7.19
387.748	7.07
388.114	7.31
388.479	7.24
388.845	7.05
389.21	7.24
389.575	7.32
389.94	7.27
390.306	7.18
390.671	7.27
391.036	7.47
391.401	7.84
391.766	7.33
392.131	7.33
392.496	7.27
392.861	7.25
393.226	7.39
393.591	7.55
393.956	7.54
394.32	7.49
394.685	7.64
395.05	7.4
395.414	7.83
395.779	7.7
396.143	7.54
396.508	7.69
396.872	7.81
397.236	7.46
397.601	7.71
397.965	7.6
398.329	7.7
398.694	7.56
399.058	7.87
399.422	7.73
399.786	7.89
400.15	7.84
400.514	7.5
400.878	7.95
401.242	7.79
401.605	7.71
401.969	7.9
402.333	7.8
402.697	8.1
403.06	7.96
403.424	7.87
403.787	7.92
404.151	7.77
404.514	8.19
404.878	7.79
405.241	8.04
405.604	7.92
405.968	7.93
406.331	7.9
406.694	7.89
407.057	8.38
407.42	7.94
407.783	7.93
408.146	7.92
408.509	8.07
408.872	8.06
409.235	8.07
409.598	8.18
409.961	8.45
410.323	8.33
410.686	8.27
411.049	7.99
411.411	8.32
411.774	8.25
412.136	8.31
412.499	8.25
412.861	8.23
413.223	8.44
413.586	7.87
413.948	8.5
414.31	8.58
414.672	8.26
415.035	8.17
415.397	8.44
415.759	8.34
416.121	8.54
416.483	8.58
416.845	8.5
417.206	8.54
417.568	8.48
417.93	8.38
418.292	8.45
418.653	8.51
419.015	8.41
419.377	8.47
419.738	8.43
420.1	8.54
420.461	8.34
420.822	8.54
421.184	8.5
421.545	8.45
421.906	8.48
422.267	8.44
422.629	8.48
422.99	8.48
423.351	8.65
423.712	8.74
424.073	8.87
424.434	8.62
424.795	8.62
425.155	8.76
425.516	8.75
425.877	8.77
426.238	8.75
426.598	8.97
426.959	8.91
427.32	9.04
427.68	9.15
428.041	9.25
428.401	9.16
428.761	9.14
429.122	9.2
429.482	9.28
429.842	9.31
430.202	9.44
430.563	9.66
430.923	9.49
431.283	9.42
431.643	9.53
432.003	9.7
432.363	9.56
432.722	9.66
433.082	9.57
433.442	9.59
433.802	9.62
434.161	9.78
434.521	9.59
434.881	9.78
435.24	9.71
435.6	9.74
435.959	9.93
436.319	9.91
436.678	9.77
437.037	9.98
437.396	10.1
437.756	9.95
438.115	10.1
438.474	10.06
438.833	10.23
439.192	10.24
439.551	10.17
439.91	10.16
440.269	10.21
440.628	10.1
440.987	10.06
441.345	10.14
441.704	10.33
442.063	10.08
442.421	10.33
442.78	10.37
443.138	10.41
443.497	10.36
443.855	10.56
444.214	10.55
444.572	10.54
444.93	10.68
445.288	10.7
445.647	10.56
446.005	10.61
446.363	10.52
446.721	10.47
447.079	10.71
447.437	10.66
447.795	10.58
448.153	10.49
448.51	10.73
448.868	10.79
449.226	10.86
449.584	10.83
449.941	10.98
450.299	10.91
450.656	11.07
451.014	11.13
451.371	11.11
451.729	11.37
452.086	11.16
452.443	11.23
452.801	11.37
453.158	11.1
453.515	11.3
453.872	11.35
454.229	11.38
454.586	11.36
454.943	11.52
455.3	11.51
455.657	11.47
456.014	11.74
456.371	11.56
456.727	11.62
457.084	11.72
457.441	11.73
457.797	11.88
458.154	11.83
458.51	11.93
458.867	11.76
459.223	11.93
459.58	11.8
459.936	11.83
460.292	11.91
460.648	11.83
461.005	11.71
461.361	11.7
461.717	11.81
462.073	11.94
462.429	12.05
462.785	12.29
463.141	12.46
463.496	12.33
463.852	12.4
464.208	12.32
464.564	12.37
464.919	12.31
465.275	12.49
465.631	12.68
465.986	12.52
466.342	12.61
466.697	12.57
467.052	12.72
467.408	12.53
467.763	12.68
468.118	12.59
468.473	12.82
468.829	12.7
469.184	12.89
469.539	12.61
469.894	12.88
470.249	12.88
470.603	12.95
470.958	12.92
471.313	13.01
471.668	13.1
472.023	13.28
472.377	13.03
472.732	13
473.086	12.76
473.441	13.24
473.795	13.24
474.15	13.31
474.504	13.36
474.859	13.34
475.213	13.4
475.567	13.32
475.921	13.46
476.275	13.53
476.63	13.7
476.984	13.61
477.338	13.85
477.692	13.63
478.045	13.37
478.399	13.74
478.753	13.49
479.107	13.6
479.461	13.78
479.814	13.78
480.168	13.76
480.521	13.85
480.875	14.09
481.228	14.07
481.582	13.79
481.935	13.87
482.289	13.82
482.642	14.02
482.995	13.89
483.348	13.81
483.701	13.73
484.055	13.74
484.408	13.55
484.761	13.29
485.114	13.16
485.466	13.15
485.819	13.31
486.172	13.49
486.525	13.66
486.878	13.74
487.23	13.94
487.583	13.94
487.936	13.98
488.288	13.8
488.641	13.73
488.993	13.68
489.345	13.73
489.698	13.94
490.05	13.95
490.402	14.15
490.754	14.3
491.107	14.39
491.459	14.6
491.811	14.7
492.163	14.5
492.515	14.29
492.866	14.11
493.218	14.05
493.57	14.28
493.922	14.48
494.274	14.68
494.625	14.78
494.977	14.85
495.328	15.04
495.68	15.15
496.031	15.21
496.383	15.21
496.734	15.23
497.086	15.22
497.437	15.07
497.788	15.09
498.139	15.22
498.49	15.27
498.842	15.14
499.193	15.26
499.544	15.55
499.894	15.45
500.245	15.47
500.596	15.52
500.947	15.47
501.298	15.55
501.648	15.53
501.999	15.94
502.35	15.8
502.7	15.79
503.051	15.93
503.401	16
503.752	15.73
504.102	15.92
504.452	15.95
504.803	15.71
505.153	15.96
505.503	15.82
505.853	16.03
506.203	16.02
506.553	16.09
506.903	15.94
507.253	16.17
507.603	16.11
507.953	16.28
508.303	16.23
508.652	16.21
509.002	16.36
509.352	16.3
509.701	16.19
510.051	16.23
510.4	16.25
510.75	16.36
511.099	16.25
511.449	16.35
511.798	16.54
512.147	16.39
512.496	16.5
512.846	16.52
513.195	16.6
513.544	16.46
513.893	16.44
514.242	16.73
514.591	16.65
514.939	16.69
515.288	16.8
515.637	16.8
515.986	16.91
516.334	16.95
516.683	16.86
517.032	16.97
517.38	17.05
517.729	17.01
518.077	17.02
518.426	16.9
518.774	17.08
519.122	16.86
519.47	16.81
519.819	16.86
520.167	16.92
520.515	16.78
520.863	16.96
521.211	17.01
521.559	17.08
521.907	17.22
522.255	17.31
522.602	17.38
522.95	17.45
523.298	17.47
523.645	17.5
523.993	17.78
524.341	17.62
524.688	17.6
525.036	17.52
525.383	17.76
525.73	17.69
526.078	17.69
526.425	17.48
526.772	17.38
527.119	17.25
527.466	17.33
527.814	17.47
528.161	17.5
528.508	17.49
528.854	17.38
529.201	17.31
529.548	17.03
529.895	16.87
530.242	16.96
530.588	17.13
530.935	17.29
531.282	17.39
531.628	17.53
531.975	17.72
532.321	17.7
532.667	17.87
533.014	18
533.36	17.93
533.706	17.84
534.052	17.82
534.399	17.7
534.745	17.49
535.091	17.64
535.437	17.8
535.783	17.92
536.129	18.03
536.474	18.22
536.82	18.37
537.166	18.4
537.512	18.29
537.857	18.2
538.203	18.11
538.549	18.3
538.894	18.33
539.239	18.46
539.585	18.73
539.93	18.78
540.276	18.78
540.621	18.86
540.966	18.79
541.311	18.87
541.656	18.74
542.001	18.66
542.346	18.37
542.691	18.12
543.036	18.15
543.381	18.45
543.726	18.47
544.071	18.73
544.415	18.68
544.76	18.75
545.105	18.76
545.449	18.94
545.794	19.1
546.138	19.45
546.483	19.3
546.827	19.45
547.171	19.25
547.516	19.42
547.86	19.37
548.204	19.28
548.548	19.29
548.892	19.5
549.236	19.67
549.58	19.6
549.924	19.73
550.268	19.91
550.612	20.01
550.956	19.92
551.3	19.95
551.643	20.12
551.987	20.03
552.33	20.1
552.674	20.18
553.017	20.06
553.361	20.19
553.704	19.95
554.048	20.26
554.391	20.05
554.734	20.08
555.077	20.28
555.42	20.11
555.764	20.27
556.107	20.4
556.45	20.22
556.793	20.64
557.135	20.69
557.478	20.61
557.821	20.46
558.164	20.58
558.507	20.42
558.849	20.54
559.192	20.76
559.534	20.4
559.877	20.82
560.219	20.98
560.562	20.86
560.904	20.77
561.246	20.91
561.589	20.99
561.931	21.24
562.273	21.1
562.615	21.1
562.957	21.09
563.299	20.92
563.641	21.2
563.983	21.08
564.325	21.21
564.667	21.26
565.008	21.28
565.35	21.37
565.692	21.34
566.033	21.36
566.375	21.25
566.716	21.36
567.058	21.42
567.399	21.41
567.741	21.32
568.082	21.43
568.423	21.36
568.764	21.68
569.105	21.56
569.447	21.66
569.788	21.73
570.129	21.66
570.47	21.77
570.811	21.91
571.151	21.85
571.492	22
571.833	21.69
572.174	21.54
572.514	21.74
572.855	21.81
573.195	21.6
573.536	21.88
573.876	21.77
574.217	21.98
574.557	22.09
574.898	21.98
575.238	22.12
575.578	22.26
575.918	22.22
576.258	22.08
576.598	22.24
576.938	22.37
577.278	22.17
577.618	22.2
577.958	22.52
578.298	22.42
578.638	22.58
578.977	22.52
579.317	22.72
579.657	22.58
579.996	22.74
580.336	22.62
580.675	22.85
581.014	22.63
581.354	22.78
581.693	23
582.032	22.77
582.372	22.88
582.711	23.09
583.05	23.16
583.389	22.96
583.728	23.23
584.067	23.11
584.406	23.21
584.745	23.18
585.083	23.17
585.422	23.29
585.761	23.67
586.1	23.45
586.438	23.47
586.777	23.25
587.115	23.2
587.454	23.42
587.792	23.23
588.13	23.45
588.469	23.42
588.807	23.71
589.145	23.62
589.483	23.54
589.821	23.53
590.159	23.52
590.497	23.34
590.835	23.61
591.173	23.66
591.511	23.67
591.849	23.86
592.187	23.99
592.524	23.9
592.862	23.94
593.2	23.88
593.537	24.09
593.875	23.88
594.212	24.04
594.55	24.1
594.887	24.18
595.224	23.96
595.561	24.19
595.899	23.9
596.236	24.55
596.573	24
596.91	24.59
597.247	24.22
597.584	24.41
597.921	24.15
598.258	24.01
598.594	23.95
598.931	24.18
599.268	24.32
599.604	24.72
599.941	24.58
600.277	24.78
600.614	24.64
600.95	24.72
601.287	25
601.623	24.9
601.959	24.69
602.296	24.81
602.632	24.86
602.968	24.73
603.304	24.86
603.64	24.63
603.976	24.94
604.312	25.26
604.648	25.14
604.984	25.05
605.319	25.02
605.655	24.77
605.991	24.82
606.326	24.83
606.662	24.71
606.998	25.01
607.333	24.92
607.668	25.39
608.004	25.31
608.339	25.19
608.674	25.5
609.01	25.54
609.345	25.55
609.68	25.36
610.015	25.44
610.35	25.27
610.685	25.23
611.02	25.43
611.355	25.5
611.689	25.27
612.024	25.81
612.359	25.72
612.694	25.98
613.028	25.95
613.363	25.88
613.697	25.84
614.032	26.2
614.366	25.79
614.7	26.45
615.035	26.21
615.369	26.46
615.703	26.31
616.037	26.36
616.371	26.2
616.705	26.36
617.039	26.55
617.373	25.97
617.707	26.24
618.041	26.78
618.375	26.66
618.709	26.56
619.042	26.27
619.376	26.52
619.71	26.49
620.043	26.4
620.377	26.57
620.71	26.82
621.043	26.2
621.377	26.73
621.71	27.02
622.043	26.91
622.376	26.51
622.709	27.04
623.043	26.54
623.376	26.9
623.709	27.43
624.041	26.75
624.374	26.89
624.707	26.88
625.04	27.12
625.373	27.22
625.705	27.46
626.038	26.8
626.37	27.23
626.703	27.24
627.035	27.38
627.368	27.31
627.7	27.24
628.032	27.27
628.365	27.2
628.697	27.09
629.029	27.52
629.361	27.37
629.693	27.46
630.025	27.5
630.357	27.45
630.689	27.77
631.021	27.65
631.353	27.85
631.684	27.85
632.016	27.87
632.348	27.82
632.679	27.71
633.011	27.63
633.342	27.93
633.674	28
634.005	28.23
634.336	28.17
634.668	27.88
634.999	28.44
635.33	27.85
635.661	28.42
635.992	28.16
636.323	27.96
636.654	28.1
636.985	28.14
637.316	27.82
637.647	28.5
637.977	28.25
638.308	28.02
638.639	28.21
638.969	28.39
639.3	28.24
639.63	28.28
639.961	28.26
640.291	28.77
640.622	28.98
640.952	28.7
641.282	28.82
641.612	28.42
641.943	29.03
642.273	28.97
642.603	28.69
642.933	28.96
643.263	29.43
643.592	29.63
643.922	29.3
644.252	29.51
644.582	29.02
644.911	29.13
645.241	29.21
645.571	29.48
645.9	29.24
646.23	28.76
646.559	29.03
646.888	29.48
647.218	29.38
647.547	29.33
647.876	29.44
648.205	29.24
648.534	29.36
648.863	29.74
649.192	29.24
649.521	29.7
649.85	30.11
650.179	29.48
650.508	30.02
650.837	29.5
651.165	30.12
651.494	30.19
651.822	29.65
652.151	29.62
652.479	29.93
652.808	29.66
653.136	29.78
653.465	30.19
653.793	29.8
654.121	29.94
654.449	30.12
654.777	30.15
655.105	30.83
655.433	30.45
655.761	30.19
656.089	30.31
656.417	30.12
656.745	30.42
657.073	30.5
657.4	30.14
657.728	30.4
658.056	30.72
658.383	30.69
658.711	30.8
659.038	30.21
659.365	30.68
659.693	29.96
660.02	30.12
660.347	30.39
660.674	30.72
661.001	30.3
661.329	30.51
661.656	30.54
661.982	31.4
662.309	30.88
662.636	30.8
662.963	31.43
663.29	30.84
663.616	31.28
663.943	30.94
664.27	31.21
664.596	30.97
664.923	31.47
665.249	31.25
665.576	30.91
665.902	31.73
666.228	30.93
666.554	31.19
666.881	31.27
667.207	30.97
667.533	31.81
667.859	31.21
668.185	31.47
668.511	31.25
668.837	31.46
669.162	31.67
669.488	31.12
669.814	32.11
670.139	31.64
670.465	31.41
670.791	31.61
671.116	31.69
671.442	32.15
671.767	31.42
672.092	32.49
672.418	32.01
672.743	31.68
673.068	32.05
673.393	31.89
673.718	30.94
674.043	31.64
674.368	31.71
674.693	31.69
675.018	32.1
675.343	32.29
675.667	31.95
675.992	31.43
676.317	32.49
