Data from 0076_crown_Reflection__0__365.txt Node

Date: Fri Dec 16 16:57:33 CST 2022
User: ToomeyLab
Spectrometer: FLMS14357
Trigger mode: 0
Integration Time (sec): 1.000000E-2
Scans to average: 100
Electric dark correction enabled: true
Nonlinearity correction enabled: false
Boxcar width: 0
XAxis mode: Wavelengths
Number of Pixels in Spectrum: 2048
>>>>>Begin Spectral Data<<<<<
189.047	-16.89
189.435	-16.89
189.823	-16.89
190.211	-14.24
190.599	28.63
190.987	66.63
191.375	-19.85
191.763	52.39
192.151	26.65
192.538	1120.6
192.926	-661.3
193.314	162.49
193.702	50.75
194.089	-79.29
194.477	90.49
194.864	-67.99
195.252	79.76
195.639	59.91
196.027	-194.83
196.414	49.08
196.801	101.41
197.189	76.02
197.576	12.87
197.963	275.71
198.351	-33.12
198.738	-32.34
199.125	1.21
199.512	-61.1
199.899	-70.15
200.286	-114.29
200.673	43.52
201.06	10.65
201.447	-1.11
201.833	24.59
202.22	-0.13
202.607	-27.66
202.994	-20.86
203.38	-66.81
203.767	-34.11
204.154	-104.03
204.54	7.52
204.927	21.69
205.313	7.87
205.699	-18.1
206.086	-45.43
206.472	-91.12
206.858	-34.54
207.245	19.98
207.631	6.91
208.017	29.12
208.403	4.29
208.789	-18.05
209.175	27.46
209.561	-106.83
209.947	-52.66
210.333	-116.15
210.719	-16.2
211.105	-83.7
211.491	-34.52
211.876	-48.45
212.262	-12.97
212.648	-42.16
213.034	13.32
213.419	44.12
213.805	-46.67
214.19	-19.38
214.576	-36.28
214.961	-47.63
215.346	-34.06
215.732	-49.35
216.117	-10.38
216.502	-43.88
216.888	-51.06
217.273	3.25
217.658	-16.05
218.043	-18.33
218.428	-18.26
218.813	-3.77
219.198	-109.25
219.583	-28.94
219.968	3.73
220.353	-10.38
220.738	-12.14
221.122	-20.4
221.507	-11
221.892	-7.75
222.276	6.23
222.661	-17.61
223.046	-4.9
223.43	-21.42
223.815	3.2
224.199	2.35
224.583	-11.39
224.968	-0.64
225.352	-14.17
225.736	4.35
226.121	-10.51
226.505	-2.76
226.889	3.84
227.273	1.27
227.657	-5.64
228.041	0.6
228.425	2.26
228.809	0.38
229.193	0.59
229.577	2.51
229.961	4.2
230.344	4.03
230.728	2.59
231.112	2.56
231.495	3.2
231.879	4.03
232.263	1
232.646	2.07
233.03	-0.07
233.413	2.65
233.797	4.76
234.18	-1.34
234.563	0.6
234.946	1.78
235.33	2.4
235.713	1.91
236.096	2.79
236.479	3.72
236.862	2.47
237.245	4.66
237.628	3.99
238.011	3.64
238.394	4.35
238.777	3.59
239.16	1.54
239.543	1.84
239.925	2.9
240.308	3.53
240.691	1.98
241.073	3.37
241.456	2.76
241.838	2.79
242.221	4.28
242.603	3.21
242.986	4.38
243.368	3.35
243.75	3.43
244.133	3.32
244.515	3.63
244.897	3.03
245.279	3.2
245.661	2.43
246.043	2.48
246.425	2.28
246.807	3.15
247.189	2.83
247.571	3.23
247.953	3.38
248.335	3.45
248.717	3.56
249.098	3.33
249.48	3.13
249.862	3.32
250.243	3.33
250.625	2.65
251.006	3.68
251.388	3.42
251.769	2.74
252.151	3
252.532	2.73
252.913	3.07
253.295	2.97
253.676	3.75
254.057	3.43
254.438	2.33
254.819	3.29
255.2	2.75
255.581	2.99
255.962	2.6
256.343	3.38
256.724	2.6
257.105	2.58
257.486	2.81
257.867	2.23
258.247	2.69
258.628	3.48
259.009	3.18
259.389	2.76
259.77	3.41
260.15	3.25
260.531	3.24
260.911	3.39
261.292	3.17
261.672	3.18
262.052	3.27
262.432	3.31
262.813	2.98
263.193	2.93
263.573	2.9
263.953	2.84
264.333	2.74
264.713	2.59
265.093	2.56
265.473	4.46
265.853	3.21
266.233	2.81
266.612	2.78
266.992	2.58
267.372	2.26
267.752	2.19
268.131	2.64
268.511	3.26
268.89	3.2
269.27	3.04
269.649	3.61
270.029	3.05
270.408	3.02
270.787	2.45
271.167	2.96
271.546	2.01
271.925	2.84
272.304	2.8
272.683	3.07
273.062	3.45
273.441	3.04
273.82	2.92
274.199	3.21
274.578	2.91
274.957	3.06
275.336	2.93
275.715	3.6
276.093	3.31
276.472	3.25
276.851	3.24
277.229	3.31
277.608	2.62
277.986	2.46
278.365	2.42
278.743	3.35
279.122	2.31
279.5	2.39
279.878	2.77
280.257	2.66
280.635	2.82
281.013	3.2
281.391	2.88
281.769	2.71
282.147	3.44
282.525	2.99
282.903	3.05
283.281	2.79
283.659	3.18
284.037	3.04
284.415	3.07
284.792	3.2
285.17	2.47
285.548	2.82
285.925	3.16
286.303	2.97
286.68	2.96
287.058	3.13
287.435	3.16
287.813	3.02
288.19	3.42
288.567	2.93
288.945	2.95
289.322	2.73
289.699	3.09
290.076	3.07
290.453	2.68
290.83	3.13
291.207	3.38
291.584	3.23
291.961	3.52
292.338	3.07
292.715	3.28
293.092	2.91
293.469	3.1
293.845	3.46
294.222	2.8
294.599	3.31
294.975	2.89
295.352	2.94
295.728	3.19
296.105	3.13
296.481	3.01
296.858	2.92
297.234	3
297.61	3.35
297.986	3.13
298.363	2.75
298.739	3.36
299.115	3.13
299.491	3.21
299.867	3.05
300.243	2.98
300.619	2.99
300.995	3.1
301.371	3.37
301.746	2.95
302.122	3.05
302.498	3.32
302.874	2.83
303.249	2.99
303.625	3.34
304	2.82
304.376	3.17
304.751	3.12
305.127	2.79
305.502	3.53
305.878	2.99
306.253	3.06
306.628	3
307.003	3.51
307.378	3.25
307.754	3.3
308.129	2.35
308.504	3.2
308.879	2.72
309.254	3.45
309.629	3.47
310.003	3.35
310.378	3.5
310.753	3.37
311.128	3.32
311.502	2.74
311.877	3.42
312.252	2.82
312.626	3.05
313.001	3.21
313.375	3.15
313.75	2.91
314.124	3.43
314.498	2.95
314.873	3.05
315.247	2.96
315.621	3.57
315.995	2.78
316.369	3.46
316.743	3.73
317.117	3.41
317.491	3.27
317.865	2.78
318.239	3.4
318.613	2.88
318.987	3.31
319.361	3.37
319.734	3.06
320.108	3.27
320.482	2.97
320.855	3.5
321.229	2.89
321.602	3.01
321.976	3.12
322.349	2.58
322.723	2.76
323.096	2.84
323.469	2.51
323.843	3.23
324.216	3.13
324.589	3.15
324.962	3.19
325.335	2.94
325.708	3.23
326.081	3.76
326.454	2.78
326.827	3.04
327.2	3.7
327.573	3
327.945	3.06
328.318	3.62
328.691	3.09
329.063	3.32
329.436	3.04
329.809	2.72
330.181	2.96
330.553	3.43
330.926	3.58
331.298	3.18
331.671	3.65
332.043	3.36
332.415	4.08
332.787	3.83
333.159	3.11
333.532	3.17
333.904	3.1
334.276	3.27
334.648	3.27
335.02	3.05
335.391	3.56
335.763	3.1
336.135	3.1
336.507	3.3
336.879	3.04
337.25	3.38
337.622	3.56
337.993	3.4
338.365	3.29
338.736	3.02
339.108	3.45
339.479	3.05
339.851	3.7
340.222	3.51
340.593	3.25
340.964	3.01
341.336	3.07
341.707	3.11
342.078	3.12
342.449	3.09
342.82	3.54
343.191	2.69
343.562	3.44
343.933	3.48
344.303	3.16
344.674	3.01
345.045	3.66
345.416	3.05
345.786	2.52
346.157	3.3
346.527	3
346.898	3.38
347.268	3.37
347.639	3.57
348.009	3.64
348.38	3.16
348.75	3.21
349.12	3.15
349.49	3.19
349.861	3.9
350.231	3.68
350.601	3.16
350.971	2.98
351.341	3.38
351.711	3.14
352.081	3.43
352.45	3.6
352.82	3.54
353.19	3.21
353.56	3.35
353.929	3.2
354.299	2.88
354.669	3.54
355.038	3.44
355.408	3.46
355.777	3.2
356.147	3.95
356.516	3.4
356.885	3.47
357.254	3.47
357.624	3.61
357.993	3.22
358.362	3.44
358.731	3.32
359.1	3.45
359.469	3.33
359.838	3.24
360.207	3.24
360.576	3.57
360.945	3.21
361.314	3.63
361.682	3.37
362.051	3.4
362.42	3.7
362.788	3.56
363.157	3.13
363.525	3.3
363.894	3.12
364.262	3.28
364.631	3.71
364.999	3.09
365.367	3.54
365.735	3.03
366.104	3.11
366.472	3.36
366.84	3.57
367.208	2.91
367.576	3.52
367.944	3.86
368.312	3.1
368.68	3.55
369.048	3.44
369.416	3.64
369.783	3.47
370.151	3.75
370.519	3.22
370.886	3.51
371.254	3.47
371.621	3.3
371.989	3.49
372.356	3.39
372.724	3.39
373.091	3.23
373.458	3.35
373.826	3.26
374.193	3.83
374.56	3.46
374.927	3.48
375.294	3.7
375.661	3.51
376.028	3.55
376.395	3.57
376.762	3.6
377.129	3.71
377.496	3.71
377.863	3.3
378.229	3.5
378.596	3.6
378.963	3.43
379.329	3.46
379.696	3.34
380.062	3.62
380.429	3.32
380.795	3.47
381.161	3.45
381.528	3.35
381.894	3.54
382.26	3.56
382.626	3.46
382.993	3.41
383.359	3.41
383.725	3.63
384.091	3.28
384.457	3.77
384.823	3.55
385.188	3.6
385.554	3.5
385.92	3.6
386.286	3.74
386.651	3.63
387.017	3.54
387.383	3.62
387.748	3.39
388.114	3.55
388.479	3.76
388.845	3.7
389.21	3.7
389.575	3.43
389.94	3.59
390.306	3.54
390.671	3.44
391.036	3.4
391.401	4.08
391.766	3.44
392.131	3.77
392.496	3.59
392.861	3.3
393.226	3.66
393.591	3.92
393.956	3.78
394.32	3.6
394.685	3.78
395.05	3.51
395.414	3.67
395.779	3.7
396.143	3.69
396.508	3.8
396.872	3.77
397.236	3.44
397.601	3.7
397.965	3.37
398.329	3.88
398.694	3.44
399.058	3.53
399.422	3.79
399.786	3.79
400.15	3.63
400.514	3.68
400.878	3.46
401.242	3.76
401.605	3.65
401.969	3.89
402.333	3.63
402.697	4.09
403.06	3.74
403.424	3.74
403.787	3.82
404.151	3.65
404.514	3.45
404.878	3.66
405.241	3.89
405.604	3.83
405.968	3.65
406.331	3.77
406.694	3.7
407.057	3.98
407.42	3.77
407.783	3.63
408.146	3.95
408.509	3.67
408.872	3.45
409.235	3.65
409.598	4.06
409.961	3.71
410.323	3.67
410.686	3.78
411.049	3.51
411.411	3.67
411.774	3.64
412.136	3.74
412.499	3.74
412.861	3.38
413.223	3.88
413.586	3.51
413.948	3.46
414.31	4.23
414.672	3.79
415.035	3.83
415.397	3.65
415.759	3.7
416.121	3.78
416.483	3.59
416.845	3.61
417.206	3.73
417.568	3.74
417.93	3.52
418.292	3.66
418.653	3.86
419.015	3.76
419.377	3.84
419.738	3.73
420.1	3.51
420.461	3.75
420.822	3.68
421.184	3.62
421.545	3.73
421.906	3.63
422.267	3.55
422.629	3.62
422.99	3.56
423.351	3.66
423.712	3.66
424.073	3.76
424.434	3.53
424.795	3.6
425.155	3.59
425.516	3.6
425.877	3.76
426.238	3.68
426.598	3.75
426.959	3.66
427.32	3.77
427.68	3.68
428.041	3.85
428.401	3.62
428.761	3.67
429.122	3.71
429.482	3.62
429.842	3.74
430.202	3.75
430.563	3.56
430.923	3.75
431.283	3.86
431.643	3.72
432.003	3.68
432.363	3.77
432.722	3.75
433.082	3.81
433.442	3.74
433.802	3.82
434.161	3.83
434.521	3.74
434.881	3.89
435.24	3.61
435.6	3.7
435.959	3.81
436.319	3.77
436.678	3.71
437.037	3.75
437.396	3.78
437.756	3.83
438.115	3.79
438.474	3.9
438.833	3.79
439.192	3.68
439.551	3.86
439.91	3.83
440.269	3.98
440.628	3.74
440.987	3.58
441.345	3.75
441.704	3.87
442.063	3.76
442.421	3.71
442.78	3.8
443.138	3.91
443.497	3.72
443.855	3.74
444.214	3.88
444.572	3.92
444.93	3.91
445.288	3.98
445.647	3.87
446.005	3.66
446.363	3.78
446.721	3.76
447.079	3.87
447.437	3.82
447.795	3.71
448.153	3.7
448.51	3.84
448.868	3.85
449.226	3.88
449.584	3.75
449.941	3.91
450.299	3.72
450.656	3.89
451.014	3.77
451.371	4.03
451.729	3.84
452.086	3.88
452.443	3.7
452.801	4.01
453.158	3.92
453.515	3.79
453.872	4.1
454.229	3.74
454.586	3.83
454.943	4.06
455.3	3.94
455.657	3.73
456.014	3.92
456.371	3.92
456.727	3.92
457.084	3.89
457.441	3.74
457.797	3.97
458.154	3.96
458.51	3.91
458.867	3.68
459.223	3.94
459.58	3.85
459.936	3.84
460.292	3.91
460.648	3.74
461.005	3.74
461.361	3.76
461.717	3.91
462.073	3.89
462.429	3.93
462.785	3.93
463.141	3.99
463.496	3.9
463.852	4.11
464.208	3.78
464.564	3.78
464.919	3.95
465.275	3.84
465.631	3.81
465.986	3.68
466.342	3.78
466.697	3.98
467.052	4
467.408	3.98
467.763	3.78
468.118	4.06
468.473	3.92
468.829	3.93
469.184	4.01
469.539	3.91
469.894	3.92
470.249	4
470.603	3.98
470.958	4.08
471.313	3.95
471.668	4.05
472.023	4.14
472.377	3.92
472.732	4.02
473.086	3.83
473.441	4.1
473.795	4.13
474.15	4.02
474.504	3.82
474.859	4.02
475.213	3.98
475.567	3.96
475.921	4.14
476.275	3.97
476.63	3.93
476.984	3.8
477.338	4.13
477.692	3.95
478.045	3.83
478.399	3.96
478.753	3.83
479.107	3.95
479.461	3.98
479.814	3.92
480.168	3.97
480.521	3.85
480.875	4.1
481.228	3.93
481.582	3.84
481.935	3.85
482.289	3.87
482.642	3.96
482.995	3.95
483.348	3.91
483.701	3.88
484.055	3.83
484.408	3.77
484.761	3.69
485.114	3.65
485.466	3.65
485.819	3.69
486.172	3.79
486.525	3.84
486.878	3.87
487.23	3.88
487.583	3.89
487.936	3.88
488.288	3.84
488.641	3.75
488.993	3.68
489.345	3.74
489.698	3.84
490.05	3.84
490.402	3.91
490.754	3.96
491.107	3.92
491.459	3.91
491.811	3.97
492.163	3.98
492.515	3.87
492.866	3.74
493.218	3.77
493.57	3.82
493.922	3.88
494.274	3.95
494.625	3.92
494.977	3.98
495.328	4.07
495.68	4.19
496.031	4.07
496.383	3.93
496.734	4.04
497.086	3.87
497.437	4.11
497.788	3.92
498.139	3.91
498.49	3.97
498.842	3.94
499.193	3.94
499.544	4.08
499.894	3.98
500.245	3.88
500.596	3.99
500.947	3.97
501.298	3.97
501.648	4.02
501.999	4.17
502.35	4.09
502.7	3.98
503.051	4.18
503.401	4.02
503.752	4.1
504.102	4.07
504.452	4.02
504.803	3.88
505.153	4.12
505.503	4.01
505.853	4.01
506.203	4.02
506.553	4.03
506.903	4.01
507.253	4.07
507.603	3.96
507.953	4.12
508.303	3.95
508.652	4.01
509.002	4.01
509.352	4.05
509.701	3.97
510.051	3.98
510.4	4.03
510.75	3.97
511.099	3.91
511.449	3.98
511.798	4.03
512.147	3.98
512.496	4.04
512.846	3.89
513.195	3.97
513.544	3.99
513.893	3.92
514.242	4.07
514.591	4.04
514.939	4.05
515.288	4.05
515.637	4.09
515.986	3.99
516.334	4.15
516.683	4.08
517.032	4.01
517.38	3.98
517.729	4.07
518.077	4.05
518.426	3.98
518.774	3.92
519.122	3.91
519.47	3.93
519.819	4.04
520.167	4
520.515	3.9
520.863	4.11
521.211	4.08
521.559	4.01
521.907	4.02
522.255	4.18
522.602	4.09
522.95	4.09
523.298	4
523.645	4.1
523.993	4.17
524.341	4.06
524.688	3.98
525.036	4.16
525.383	4.1
525.73	4.04
526.078	4.09
526.425	4.02
526.772	3.84
527.119	3.99
527.466	3.96
527.814	3.95
528.161	4.05
528.508	3.98
528.854	3.94
529.201	3.91
529.548	3.82
529.895	3.76
530.242	3.79
530.588	3.87
530.935	3.91
531.282	3.98
531.628	3.98
531.975	4.03
532.321	4.07
532.667	4.07
533.014	4.05
533.36	4.02
533.706	4.14
534.052	3.93
534.399	3.83
534.745	3.89
535.091	3.94
535.437	3.9
535.783	4.09
536.129	4.01
536.474	4.14
536.82	4.04
537.166	4.03
537.512	3.96
537.857	3.93
538.203	3.88
538.549	4.09
538.894	4.06
539.239	4.09
539.585	4.22
539.93	4.15
540.276	4.04
540.621	3.96
540.966	4.04
541.311	4
541.656	4.04
542.001	4.09
542.346	3.97
542.691	3.88
543.036	3.85
543.381	3.96
543.726	4.01
544.071	4.08
544.415	4.01
544.76	3.99
545.105	4.01
545.449	3.95
545.794	4.01
546.138	4.14
546.483	3.99
546.827	4.12
547.171	3.98
547.516	4.19
547.86	4.02
548.204	3.94
548.548	4.11
548.892	4.13
549.236	4.13
549.58	4.13
549.924	4.11
550.268	4.28
550.612	4.2
550.956	4.02
551.3	4.2
551.643	4.09
551.987	4.13
552.33	4.26
552.674	4.32
553.017	4.22
553.361	4.15
553.704	4.09
554.048	4.24
554.391	4
554.734	4.21
555.077	4.11
555.42	4.17
555.764	4.14
556.107	4.26
556.45	4.1
556.793	4.31
557.135	4.25
557.478	4.17
557.821	4.03
558.164	4.23
558.507	4.02
558.849	4.06
559.192	4.23
559.534	4
559.877	4.28
560.219	4.02
560.562	4.15
560.904	4.24
561.246	4.4
561.589	4.13
561.931	4.41
562.273	4.17
562.615	4.07
562.957	4.39
563.299	4.25
563.641	4.33
563.983	4.27
564.325	4.25
564.667	4.12
565.008	4.09
565.35	4.35
565.692	4.19
566.033	4.23
566.375	4.11
566.716	4.13
567.058	4.41
567.399	4.16
567.741	4.28
568.082	4.08
568.423	4.13
568.764	4.26
569.105	4.31
569.447	4.34
569.788	4.33
570.129	4.22
570.47	4.38
570.811	4.28
571.151	4.05
571.492	4.39
571.833	4.27
572.174	4.24
572.514	4.06
572.855	4.26
573.195	4.05
573.536	4.1
573.876	4.23
574.217	4.26
574.557	4.29
574.898	4.13
575.238	4.16
575.578	4.44
575.918	4.06
576.258	4.15
576.598	4.26
576.938	4.42
577.278	4.15
577.618	4.14
577.958	4.22
578.298	4.19
578.638	4.05
578.977	4.41
579.317	4.32
579.657	4.25
579.996	4.26
580.336	4.16
580.675	4.36
581.014	4.31
581.354	4.4
581.693	4.39
582.032	4.25
582.372	4.37
582.711	4.22
583.05	4.35
583.389	4.43
583.728	4.41
584.067	4.38
584.406	4.48
584.745	4.26
585.083	4.55
585.422	4.23
585.761	4.45
586.1	4.28
586.438	4.38
586.777	4.09
587.115	4.79
587.454	4.17
587.792	4.38
588.13	4.59
588.469	4.44
588.807	4.59
589.145	4.59
589.483	4.13
589.821	4.47
590.159	4.27
590.497	4.01
590.835	4.32
591.173	4.35
591.511	4.58
591.849	4.36
592.187	4.32
592.524	4.41
592.862	4.42
593.2	4.28
593.537	4.42
593.875	4.45
594.212	4.46
594.55	4.29
594.887	4.48
595.224	4.38
595.561	4.23
595.899	4.21
596.236	4.41
596.573	4.09
596.91	4.23
597.247	4.38
597.584	4.51
597.921	4.07
598.258	4.3
598.594	4.3
598.931	4.36
599.268	4.36
599.604	4.55
599.941	4.26
600.277	4.39
600.614	4.6
600.95	4.39
601.287	4.21
601.623	4.44
601.959	4.13
602.296	4.43
602.632	4.65
602.968	4.34
603.304	4.12
603.64	4.08
603.976	4.11
604.312	4.63
604.648	4.47
604.984	4.48
605.319	4.45
605.655	4.35
605.991	4.38
606.326	4.22
606.662	4.22
606.998	4.33
607.333	4.37
607.668	4.49
608.004	4.26
608.339	4.34
608.674	4.24
609.01	4.69
609.345	4.67
609.68	4.14
610.015	4.31
610.35	4.5
610.685	4.39
611.02	4.55
611.355	4.38
611.689	4.27
612.024	4.4
612.359	4.41
612.694	4.47
613.028	4.73
613.363	4.4
613.697	4.47
614.032	4.22
614.366	4.21
614.7	4.82
615.035	4.22
615.369	4.61
615.703	4.83
616.037	4.32
616.371	4.35
616.705	4.53
617.039	4.43
617.373	4.39
617.707	4.41
618.041	4.42
618.375	4.69
618.709	4.5
619.042	4.49
619.376	4.18
619.71	4.45
620.043	4.39
620.377	4.45
620.71	4.46
621.043	4.18
621.377	4.44
621.71	4.5
622.043	4.83
622.376	4.21
622.709	4.73
623.043	4.25
623.376	4.35
623.709	4.44
624.041	4.02
624.374	4.44
624.707	4.25
625.04	4.68
625.373	4.3
625.705	4.63
626.038	4.42
626.37	4.44
626.703	4.43
627.035	4.67
627.368	4.53
627.7	4.69
628.032	4.65
628.365	4.39
628.697	4.3
629.029	4.71
629.361	4.38
629.693	4.66
630.025	4.36
630.357	4.2
630.689	4.39
631.021	4.55
631.353	4.78
631.684	4.35
632.016	4.4
632.348	4.35
632.679	4.17
633.011	4.35
633.342	4.86
633.674	4.28
634.005	4.44
634.336	4.62
634.668	4.78
634.999	4.67
635.33	4.23
635.661	4.54
635.992	4.45
636.323	4.47
636.654	4.41
636.985	4.33
637.316	4.6
637.647	4.39
637.977	4.38
638.308	4.02
638.639	4.32
638.969	4.48
639.3	4.65
639.63	4.35
639.961	4.56
640.291	4.85
640.622	4.69
640.952	4.52
641.282	4.17
641.612	4.21
641.943	4.69
642.273	4.54
642.603	4.65
642.933	4.4
643.263	4.84
643.592	4.54
643.922	4.61
644.252	4.58
644.582	4.4
644.911	4.71
645.241	4.23
645.571	4.26
645.9	4.33
646.23	4.43
646.559	4.27
646.888	4.39
647.218	4.51
647.547	4.89
647.876	5.25
648.205	4.27
648.534	4.67
648.863	4.64
649.192	4.14
649.521	4.48
649.85	5.11
650.179	4.28
650.508	4.52
650.837	4.12
651.165	4.39
651.494	4.56
651.822	4.26
652.151	4.85
652.479	4.76
652.808	4.31
653.136	4.45
653.465	4.98
653.793	4.63
654.121	4.95
654.449	4.48
654.777	4.57
655.105	4.43
655.433	4.39
655.761	4.62
656.089	4.43
656.417	4.68
656.745	5.24
657.073	5.06
657.4	4.72
657.728	4.56
658.056	4.76
658.383	4.56
658.711	4.31
659.038	4.99
659.365	4.49
659.693	4.54
660.02	4.58
660.347	4.76
660.674	4.28
661.001	4.41
661.329	4.66
661.656	4.86
661.982	4.61
662.309	4.47
662.636	4.75
662.963	5.02
663.29	4.26
663.616	4.51
663.943	4.95
664.27	4.55
664.596	4.4
664.923	5.06
665.249	4.16
665.576	4.15
665.902	4.26
666.228	4.86
666.554	3.94
666.881	5.02
667.207	3.87
667.533	4.96
667.859	4.18
668.185	4.87
668.511	4.03
668.837	4.19
669.162	4.51
669.488	4.56
669.814	5.04
670.139	5.03
670.465	4.77
670.791	4.9
671.116	4.58
671.442	4.48
671.767	4.39
672.092	4.97
672.418	4.75
672.743	4.56
673.068	4.32
673.393	4.4
673.718	4.76
674.043	4.61
674.368	4.95
674.693	4.51
675.018	4.38
675.343	4.65
675.667	5.11
675.992	3.84
676.317	5.05
676.641	4.81
676.966	4.6
677.29	4.91
677.615	4.68
677.939	4.66
678.264	4.23
678.588	4.98
678.912	4.36
679.236	4.66
679.56	4.18
679.885	4.95
680.209	4.12
680.532	4.23
680.856	4.9
681.18	4.57
681.504	4.5
681.828	4.11
682.152	4.46
682.475	4.49
682.799	4.76
683.122	4.48
683.446	4.14
683.769	5.01
684.093	4.9
684.416	4.49
684.739	5.18
685.062	5
685.386	5.13
685.709	4.55
686.032	4.92
686.355	4.37
686.678	4.21
687.001	3.8
687.324	4.16
687.646	4.6
687.969	4.91
688.292	4.94
688.614	5.43
688.937	4.55
689.26	3.64
689.582	4.32
689.904	4.08
690.227	4.32
690.549	4.9
690.871	4.8
691.194	5.16
691.516	4.7
691.838	4.91
