Data from 0076_forehead_Reflection__0__370.txt Node

Date: Fri Dec 16 16:59:08 CST 2022
User: ToomeyLab
Spectrometer: FLMS14357
Trigger mode: 0
Integration Time (sec): 1.000000E-2
Scans to average: 100
Electric dark correction enabled: true
Nonlinearity correction enabled: false
Boxcar width: 0
XAxis mode: Wavelengths
Number of Pixels in Spectrum: 2048
>>>>>Begin Spectral Data<<<<<
189.047	74.67
189.435	74.67
189.823	74.67
190.211	-18.49
190.599	5.45
190.987	28.45
191.375	335.91
191.763	179.67
192.151	75.48
192.538	237.83
192.926	33.13
193.314	253.86
193.702	-7.67
194.089	104.61
194.477	31.6
194.864	0.28
195.252	290.94
195.639	67.34
196.027	-120.52
196.414	865.64
196.801	-118.59
197.189	107.7
197.576	-117.01
197.963	365.16
198.351	-28.1
198.738	-25.36
199.125	39.94
199.512	1.43
199.899	-84.58
200.286	-57.35
200.673	51.01
201.06	58.11
201.447	42.98
201.833	2.9
202.22	40.78
202.607	-11.39
202.994	-26.01
203.38	-3.25
203.767	-26.66
204.154	-24.19
204.54	36.94
204.927	15.8
205.313	39.32
205.699	-22.86
206.086	-7.87
206.472	-17.35
206.858	44.43
207.245	20.7
207.631	5.96
208.017	13.96
208.403	36.52
208.789	-6.7
209.175	74.45
209.561	-20.61
209.947	51.89
210.333	-99.63
210.719	-3.68
211.105	-4.71
211.491	-15.89
211.876	23.05
212.262	6.9
212.648	-3.11
213.034	-4.27
213.419	12.19
213.805	-8.19
214.19	-11.14
214.576	-23.72
214.961	-7.1
215.346	-30.72
215.732	15.75
216.117	-7.96
216.502	-9.36
216.888	-14.13
217.273	16.7
217.658	-39.99
218.043	-28.13
218.428	-1.86
218.813	-9.73
219.198	-10.38
219.583	9.84
219.968	15.56
220.353	7.31
220.738	-11.67
221.122	0.79
221.507	-4.9
221.892	2.16
222.276	4.93
222.661	-9.51
223.046	-3.62
223.43	-12.97
223.815	6.34
224.199	-4.45
224.583	-8.49
224.968	3.5
225.352	-12.42
225.736	1.92
226.121	-6.73
226.505	3.96
226.889	9.53
227.273	2.82
227.657	2.96
228.041	3.4
228.425	6.48
228.809	2.48
229.193	-0.95
229.577	2.81
229.961	2.52
230.344	2.11
230.728	2.15
231.112	1.51
231.495	2.22
231.879	2.8
232.263	0.81
232.646	1.59
233.03	1.06
233.413	1.81
233.797	3.29
234.18	-0.14
234.563	3.07
234.946	2.94
235.33	3.86
235.713	2.71
236.096	1.4
236.479	1.6
236.862	2.35
237.245	2.89
237.628	2.71
238.011	3.2
238.394	4.9
238.777	1.07
239.16	2.69
239.543	0.17
239.925	3.68
240.308	1.05
240.691	1.76
241.073	2.53
241.456	1.86
241.838	1.91
242.221	2.77
242.603	2.56
242.986	3.3
243.368	2.2
243.75	2.46
244.133	2.74
244.515	2.4
244.897	2.2
245.279	2.31
245.661	2.5
246.043	2.84
246.425	1.55
246.807	2.29
247.189	1.29
247.571	2.65
247.953	2.28
248.335	2.69
248.717	2.55
249.098	2.49
249.48	2.31
249.862	2.23
250.243	2.27
250.625	2.38
251.006	2.98
251.388	3.12
251.769	2.26
252.151	3.65
252.532	2.71
252.913	2.56
253.295	2.11
253.676	2.55
254.057	2.43
254.438	2.11
254.819	3.03
255.2	2.45
255.581	1.89
255.962	1.32
256.343	2.21
256.724	2.34
257.105	2.51
257.486	2.31
257.867	0.8
258.247	3.11
258.628	2.51
259.009	2.11
259.389	2.59
259.77	2.04
260.15	3.35
260.531	2.59
260.911	2.65
261.292	2.45
261.672	2.43
262.052	2.54
262.432	2.35
262.813	2.42
263.193	2.05
263.573	2.51
263.953	2.49
264.333	2.63
264.713	2.18
265.093	2.39
265.473	3.37
265.853	2.63
266.233	2.04
266.612	2.84
266.992	1.83
267.372	2.54
267.752	2.03
268.131	2.4
268.511	2.64
268.89	2.41
269.27	2.56
269.649	2.42
270.029	2.35
270.408	2.19
270.787	1.78
271.167	2.71
271.546	1.89
271.925	2.78
272.304	2.36
272.683	2.25
273.062	3.07
273.441	2.8
273.82	2.59
274.199	2.88
274.578	2.31
274.957	2.56
275.336	2.41
275.715	2.81
276.093	2.83
276.472	2.62
276.851	2
277.229	3.06
277.608	2.26
277.986	2.47
278.365	1.94
278.743	2.53
279.122	1.59
279.5	1.6
279.878	1.59
280.257	2.55
280.635	2.21
281.013	2.77
281.391	2.41
281.769	2.07
282.147	2.4
282.525	2.34
282.903	2.48
283.281	2.16
283.659	2.44
284.037	2.03
284.415	2.06
284.792	2.48
285.17	2.05
285.548	2.35
285.925	2.48
286.303	2.28
286.68	2.52
287.058	2.52
287.435	2.21
287.813	2.27
288.19	2.58
288.567	2.29
288.945	2.42
289.322	2.66
289.699	2.62
290.076	2.61
290.453	2.71
290.83	2.78
291.207	2.72
291.584	2.31
291.961	2.69
292.338	2.47
292.715	2.57
293.092	2.73
293.469	2.63
293.845	3.05
294.222	2.94
294.599	3.09
294.975	2.99
295.352	2.19
295.728	3.07
296.105	2.69
296.481	3.05
296.858	3
297.234	2.74
297.61	3.15
297.986	3.16
298.363	2.27
298.739	2.98
299.115	2.63
299.491	2.91
299.867	3.3
300.243	2.94
300.619	3.04
300.995	3.16
301.371	3.16
301.746	3.13
302.122	3.35
302.498	3.61
302.874	3.05
303.249	3.43
303.625	3.07
304	2.92
304.376	3.49
304.751	3.01
305.127	3.01
305.502	3.34
305.878	3.26
306.253	3.04
306.628	3.52
307.003	3.49
307.378	2.9
307.754	3.66
308.129	3.15
308.504	3.66
308.879	3.64
309.254	3.52
309.629	3.47
310.003	3.93
310.378	3.53
310.753	3.87
311.128	3.52
311.502	3.57
311.877	3.57
312.252	3.76
312.626	3.63
313.001	3.69
313.375	3.92
313.75	3.97
314.124	4.68
314.498	3.53
314.873	4.24
315.247	3.76
315.621	4.12
315.995	4
316.369	4.02
316.743	3.9
317.117	3.92
317.491	3.82
317.865	3.34
318.239	4.1
318.613	3.87
318.987	4.23
319.361	4.1
319.734	4.14
320.108	4.26
320.482	3.84
320.855	4.2
321.229	4.76
321.602	4.07
321.976	4.64
322.349	3.82
322.723	3.95
323.096	4.09
323.469	3.8
323.843	4.01
324.216	4
324.589	5.02
324.962	4.51
325.335	4.68
325.708	4.86
326.081	5.24
326.454	4.84
326.827	5.05
327.2	5.11
327.573	4.72
327.945	4.35
328.318	4.8
328.691	4.85
329.063	4.37
329.436	4.86
329.809	4.41
330.181	4.58
330.553	5.05
330.926	4.59
331.298	4.29
331.671	4.88
332.043	4.4
332.415	5
332.787	5.37
333.159	4.7
333.532	4.83
333.904	4.85
334.276	4.65
334.648	4.95
335.02	4.89
335.391	5
335.763	4.78
336.135	5.55
336.507	4.95
336.879	5.09
337.25	5.07
337.622	5.34
337.993	5.01
338.365	4.82
338.736	5.35
339.108	4.34
339.479	5.12
339.851	5.42
340.222	5.74
340.593	4.63
340.964	4.93
341.336	5.35
341.707	5.33
342.078	5.49
342.449	5.35
342.82	5.28
343.191	5.08
343.562	5.19
343.933	5.68
344.303	5.33
344.674	5.15
345.045	5.65
345.416	5.51
345.786	5
346.157	5.43
346.527	5.21
346.898	4.95
347.268	5.31
347.639	5.4
348.009	5.75
348.38	5.59
348.75	5.27
349.12	5.88
349.49	5.51
349.861	6.03
350.231	5.95
350.601	5.83
350.971	5.58
351.341	5.93
351.711	6.15
352.081	5.97
352.45	6.07
352.82	6.2
353.19	5.92
353.56	5.75
353.929	5.95
354.299	5.52
354.669	6.29
355.038	5.86
355.408	6.26
355.777	5.79
356.147	6.38
356.516	6.6
356.885	6.18
357.254	6.37
357.624	6.12
357.993	5.99
358.362	6.29
358.731	5.92
359.1	6.16
359.469	5.91
359.838	6.24
360.207	6.34
360.576	6.67
360.945	6.41
361.314	6.45
361.682	6.01
362.051	5.95
362.42	6.54
362.788	6.36
363.157	6.24
363.525	6.42
363.894	6.37
364.262	6.61
364.631	6.98
364.999	6.3
365.367	6.57
365.735	6.23
366.104	6.49
366.472	6.67
366.84	6.77
367.208	6.3
367.576	6.85
367.944	6.68
368.312	6.75
368.68	6.59
369.048	6.69
369.416	7.16
369.783	7.14
370.151	6.87
370.519	6.85
370.886	6.86
371.254	6.88
371.621	7.01
371.989	6.77
372.356	7.04
372.724	6.79
373.091	6.95
373.458	6.8
373.826	6.84
374.193	7.5
374.56	7.17
374.927	7
375.294	7.29
375.661	7.02
376.028	7.06
376.395	7.45
376.762	7.64
377.129	7.37
377.496	7.47
377.863	7.22
378.229	7.18
378.596	6.98
378.963	7.11
379.329	7.33
379.696	7.56
380.062	7.69
380.429	7.66
380.795	7.14
381.161	7.59
381.528	6.93
381.894	7.46
382.26	7.31
382.626	7.23
382.993	7.46
383.359	7.54
383.725	8.05
384.091	7.49
384.457	7.74
384.823	7.51
385.188	7.69
385.554	7.69
385.92	8
386.286	8.15
386.651	7.88
387.017	7.71
387.383	7.72
387.748	7.8
388.114	8.2
388.479	7.72
388.845	7.91
389.21	7.98
389.575	8.08
389.94	8.11
390.306	7.86
390.671	7.83
391.036	8.1
391.401	8.14
391.766	8.12
392.131	7.99
392.496	8.13
392.861	7.83
393.226	8.1
393.591	8.11
393.956	8.17
394.32	8.09
394.685	8.15
395.05	8
395.414	8.11
395.779	8.22
396.143	8.52
396.508	8.3
396.872	8.43
397.236	7.94
397.601	8.51
397.965	8.01
398.329	8.49
398.694	8.21
399.058	8.24
399.422	8.22
399.786	8.23
400.15	8.32
400.514	8.36
400.878	8.49
401.242	8.56
401.605	8.4
401.969	8.67
402.333	8.43
402.697	8.76
403.06	8.78
403.424	8.57
403.787	8.84
404.151	8.59
404.514	8.72
404.878	8.64
405.241	8.61
405.604	8.69
405.968	8.66
406.331	8.89
406.694	8.71
407.057	9.15
407.42	8.68
407.783	8.43
408.146	8.77
408.509	8.65
408.872	8.78
409.235	8.86
409.598	8.92
409.961	8.89
410.323	8.78
410.686	8.88
411.049	8.56
411.411	8.85
411.774	8.72
412.136	8.83
412.499	8.83
412.861	8.75
413.223	8.9
413.586	8.96
413.948	8.96
414.31	8.92
414.672	8.97
415.035	9.17
415.397	9.09
415.759	8.94
416.121	9.26
416.483	9.15
416.845	9.11
417.206	9.09
417.568	9.03
417.93	9.11
418.292	9.07
418.653	9.15
419.015	9.11
419.377	9.16
419.738	8.96
420.1	9.06
420.461	9.21
420.822	9.11
421.184	9.06
421.545	9.13
421.906	9.24
422.267	9.06
422.629	9.22
422.99	9.12
423.351	9.35
423.712	9.39
424.073	9.45
424.434	9.45
424.795	9.4
425.155	9.37
425.516	9.27
425.877	9.56
426.238	9.39
426.598	9.61
426.959	9.59
427.32	9.75
427.68	9.75
428.041	9.81
428.401	9.88
428.761	9.78
429.122	9.99
429.482	10.02
429.842	10.07
430.202	10.16
430.563	9.87
430.923	9.99
431.283	10.22
431.643	10.37
432.003	10.3
432.363	10.35
432.722	10.35
433.082	10.21
433.442	10.29
433.802	10.35
434.161	10.38
434.521	10.43
434.881	10.35
435.24	10.36
435.6	10.46
435.959	10.54
436.319	10.6
436.678	10.59
437.037	10.85
437.396	10.62
437.756	10.73
438.115	10.92
438.474	10.98
438.833	10.96
439.192	10.93
439.551	10.95
439.91	10.9
440.269	10.94
440.628	10.87
440.987	10.81
441.345	10.83
441.704	10.92
442.063	10.9
442.421	11.02
442.78	11.02
443.138	11.01
443.497	11
443.855	11.04
444.214	11.08
444.572	11.21
444.93	11.36
445.288	11.32
445.647	11.25
446.005	11.21
446.363	11.3
446.721	11.19
447.079	11.2
447.437	11.32
447.795	11.27
448.153	11.36
448.51	11.34
448.868	11.54
449.226	11.72
449.584	11.68
449.941	11.65
450.299	11.67
450.656	11.85
451.014	11.78
451.371	11.96
451.729	11.92
452.086	11.86
452.443	11.92
452.801	12.23
453.158	11.94
453.515	12.06
453.872	11.97
454.229	12.15
454.586	12.25
454.943	12.17
455.3	12.36
455.657	12.28
456.014	12.25
456.371	12.37
456.727	12.18
457.084	12.4
457.441	12.51
457.797	12.57
458.154	12.63
458.51	12.48
458.867	12.52
459.223	12.6
459.58	12.57
459.936	12.46
460.292	12.42
460.648	12.49
461.005	12.49
461.361	12.37
461.717	12.42
462.073	12.63
462.429	12.7
462.785	12.81
463.141	13.05
463.496	13
463.852	13.12
464.208	13.13
464.564	13.01
464.919	13.15
465.275	13.13
465.631	13.14
465.986	13.18
466.342	13.28
466.697	13.21
467.052	13.38
467.408	13.18
467.763	13.26
468.118	13.38
468.473	13.67
468.829	13.51
469.184	13.43
469.539	13.29
469.894	13.67
470.249	13.76
470.603	13.8
470.958	13.76
471.313	13.64
471.668	13.86
472.023	13.88
472.377	13.73
472.732	13.89
473.086	14
473.441	14.02
473.795	14.07
474.15	14
474.504	14.08
474.859	14.06
475.213	14.13
475.567	14.04
475.921	14.3
476.275	14.2
476.63	14.29
476.984	14.29
477.338	14.33
477.692	14.29
478.045	14.27
478.399	14.4
478.753	14.18
479.107	14.3
479.461	14.44
479.814	14.43
480.168	14.47
480.521	14.49
480.875	14.63
481.228	14.56
481.582	14.6
481.935	14.51
482.289	14.41
482.642	14.61
482.995	14.59
483.348	14.57
483.701	14.48
484.055	14.45
484.408	14.21
484.761	13.98
485.114	13.82
485.466	13.87
485.819	14.01
486.172	14.18
486.525	14.33
486.878	14.48
487.23	14.57
487.583	14.62
487.936	14.6
488.288	14.48
488.641	14.32
488.993	14.29
489.345	14.38
489.698	14.58
490.05	14.61
490.402	14.85
490.754	14.95
491.107	15.02
491.459	15.12
491.811	15.18
492.163	15.25
492.515	15.03
492.866	14.69
493.218	14.71
493.57	14.9
493.922	15.14
494.274	15.37
494.625	15.37
494.977	15.7
495.328	15.68
495.68	15.9
496.031	15.96
496.383	15.82
496.734	16.05
497.086	15.79
497.437	15.95
497.788	15.73
498.139	15.79
498.49	15.84
498.842	15.93
499.193	15.88
499.544	16.04
499.894	16.08
500.245	16.05
500.596	16.24
500.947	16.07
501.298	16.22
501.648	16.28
501.999	16.59
502.35	16.56
502.7	16.49
503.051	16.63
503.401	16.53
503.752	16.55
504.102	16.49
504.452	16.61
504.803	16.49
505.153	16.62
505.503	16.59
505.853	16.5
506.203	16.66
506.553	16.86
506.903	16.69
507.253	16.81
507.603	16.81
507.953	16.86
508.303	16.86
508.652	16.87
509.002	16.89
509.352	16.76
509.701	16.8
510.051	16.93
510.4	16.87
510.75	16.88
511.099	16.85
511.449	16.95
511.798	17.06
512.147	17.07
512.496	17.1
512.846	17.03
513.195	17.13
513.544	17.1
513.893	17.12
514.242	17.4
514.591	17.32
514.939	17.38
515.288	17.36
515.637	17.42
515.986	17.48
516.334	17.54
516.683	17.55
517.032	17.46
517.38	17.51
517.729	17.59
518.077	17.62
518.426	17.53
518.774	17.6
519.122	17.33
519.47	17.41
519.819	17.44
520.167	17.39
520.515	17.27
520.863	17.39
521.211	17.43
521.559	17.69
521.907	17.66
522.255	17.83
522.602	17.95
522.95	17.91
523.298	18.01
523.645	17.99
523.993	18.07
524.341	18.02
524.688	18.11
525.036	18.17
525.383	18.08
525.73	18.22
526.078	18.12
526.425	17.98
526.772	17.8
527.119	17.82
527.466	17.8
527.814	17.86
528.161	17.97
528.508	18.01
528.854	17.75
529.201	17.7
529.548	17.53
529.895	17.32
530.242	17.41
530.588	17.52
530.935	17.71
531.282	17.86
531.628	17.95
531.975	18.03
532.321	18.19
532.667	18.36
533.014	18.36
533.36	18.27
533.706	18.33
534.052	18.26
534.399	17.99
534.745	17.93
535.091	18.11
535.437	18.26
535.783	18.45
536.129	18.35
536.474	18.6
536.82	18.67
537.166	18.7
537.512	18.67
537.857	18.59
538.203	18.56
538.549	18.73
538.894	18.81
539.239	18.96
539.585	19.01
539.93	18.96
540.276	19.01
540.621	19.26
540.966	19.28
541.311	19.21
541.656	19.01
542.001	18.82
542.346	18.75
542.691	18.49
543.036	18.5
543.381	18.73
543.726	18.87
544.071	18.96
544.415	19
544.76	19.02
545.105	19.18
545.449	19.13
545.794	19.24
546.138	19.49
546.483	19.55
546.827	19.71
547.171	19.65
547.516	19.61
547.86	19.58
548.204	19.53
548.548	19.64
548.892	19.64
549.236	19.76
549.58	19.79
549.924	19.95
550.268	20.16
550.612	20.16
550.956	20.11
551.3	20.26
551.643	20.49
551.987	20.28
552.33	20.22
552.674	20.57
553.017	20.5
553.361	20.54
553.704	20.19
554.048	20.41
554.391	20.26
554.734	20.16
555.077	20.46
555.42	20.55
555.764	20.51
556.107	20.51
556.45	20.68
556.793	20.87
557.135	20.87
557.478	20.71
557.821	20.66
558.164	20.85
558.507	20.96
558.849	20.92
559.192	20.79
559.534	20.84
559.877	21
560.219	21.21
560.562	21.18
560.904	21.1
561.246	21.24
561.589	21
561.931	21.3
562.273	20.93
562.615	21.12
562.957	21.31
563.299	21.37
563.641	21.3
563.983	21.18
564.325	21.28
564.667	21.39
565.008	21.46
565.35	21.67
565.692	21.53
566.033	21.45
566.375	21.32
566.716	21.42
567.058	21.26
567.399	21.54
567.741	21.38
568.082	21.48
568.423	21.33
568.764	21.55
569.105	21.52
569.447	21.76
569.788	21.8
570.129	21.9
570.47	21.59
570.811	21.65
571.151	21.69
571.492	21.93
571.833	22.02
572.174	21.74
572.514	21.73
572.855	22
573.195	21.67
573.536	21.71
573.876	21.85
574.217	21.95
574.557	21.97
574.898	21.92
575.238	22.02
575.578	22.12
575.918	21.87
576.258	22.02
576.598	22.24
576.938	22.15
577.278	22.13
577.618	22.34
577.958	22.34
578.298	22.48
578.638	22.39
578.977	22.53
579.317	22.56
579.657	22.47
579.996	22.36
580.336	22.45
580.675	22.94
581.014	22.67
581.354	22.79
581.693	22.78
582.032	22.65
582.372	22.85
582.711	22.66
583.05	22.89
583.389	22.85
583.728	22.95
584.067	23.01
584.406	23.09
584.745	22.8
585.083	23.04
585.422	23.13
585.761	23.15
586.1	23.2
586.438	23.17
586.777	23.16
587.115	23.05
587.454	23.12
587.792	23.21
588.13	23.43
588.469	23.31
588.807	23.56
589.145	23.3
589.483	23.24
589.821	23.43
590.159	23.36
590.497	22.96
590.835	23.43
591.173	23.36
591.511	23.56
591.849	23.68
592.187	23.54
592.524	23.53
592.862	23.79
593.2	23.59
593.537	23.63
593.875	23.73
594.212	23.71
594.55	23.43
594.887	23.91
595.224	23.62
595.561	23.99
595.899	23.69
596.236	23.87
596.573	23.67
596.91	23.84
597.247	23.83
597.584	23.79
597.921	23.6
598.258	23.66
598.594	23.45
598.931	23.8
599.268	23.85
599.604	24.08
599.941	24.19
600.277	24.05
600.614	24.14
600.95	24.24
601.287	24.14
601.623	24.48
601.959	24.13
602.296	24.23
602.632	24.22
602.968	24.54
603.304	24.04
603.64	24.53
603.976	24.24
604.312	24.58
604.648	24.32
604.984	24.29
605.319	24.28
605.655	24.28
605.991	24.19
606.326	24.2
606.662	24.32
606.998	24.48
607.333	24.23
607.668	24.75
608.004	24.81
608.339	24.58
608.674	24.92
609.01	25.08
609.345	24.99
609.68	24.65
610.015	24.65
610.35	24.75
610.685	24.72
611.02	24.67
611.355	24.77
611.689	24.56
612.024	24.83
612.359	25.23
612.694	25.15
613.028	25.47
613.363	25.14
613.697	25.36
614.032	25.39
614.366	25.25
614.7	25.61
615.035	24.99
615.369	25.35
615.703	25.5
616.037	24.99
616.371	25.23
616.705	25.53
617.039	25.58
617.373	25.49
617.707	25.29
618.041	25.66
618.375	25.73
618.709	25.61
619.042	25.42
619.376	25.68
619.71	25.73
620.043	25.87
620.377	25.43
620.71	26.07
621.043	25.66
621.377	25.98
621.71	26.41
622.043	26.05
622.376	25.69
622.709	26.11
623.043	26.07
623.376	26.22
623.709	26.53
624.041	26.27
624.374	25.95
624.707	26.11
625.04	26.28
625.373	26.01
625.705	26
626.038	25.9
626.37	26.1
626.703	26.14
627.035	26.39
627.368	26.42
627.7	26.63
628.032	26.33
628.365	25.96
628.697	26.32
629.029	26.52
629.361	26.62
629.693	26.5
630.025	26.56
630.357	26.64
630.689	26.58
631.021	26.54
631.353	26.55
631.684	27.02
632.016	26.87
632.348	26.27
632.679	26.69
633.011	27.05
633.342	27
633.674	27.07
634.005	27.28
634.336	26.98
634.668	26.56
634.999	26.98
635.33	26.67
635.661	27.01
635.992	26.57
636.323	26.97
636.654	26.83
636.985	26.62
637.316	26.68
637.647	27.14
637.977	26.89
638.308	27.06
638.639	27.27
638.969	27.61
639.3	27.37
639.63	27.31
639.961	27.05
640.291	27.44
640.622	27.62
640.952	27.63
641.282	27.17
641.612	27.35
641.943	27.95
642.273	27.69
642.603	27.66
642.933	27.61
643.263	27.63
643.592	27.43
643.922	27.73
644.252	27.81
644.582	27.55
644.911	27.9
645.241	27.67
645.571	27.82
645.9	27.67
646.23	27.89
646.559	27.97
646.888	27.39
647.218	27.77
647.547	27.73
647.876	28.3
648.205	27.91
648.534	27.58
648.863	28.39
649.192	27.94
649.521	28
649.85	27.99
650.179	28.45
650.508	28.13
650.837	27.99
651.165	28.03
651.494	28.43
651.822	28.2
652.151	28.41
652.479	28.86
652.808	27.95
653.136	28.05
653.465	28.1
653.793	28.85
654.121	28.91
654.449	28.17
654.777	28.4
655.105	28.54
655.433	28.44
655.761	28.58
656.089	28.79
656.417	28.78
656.745	28.72
657.073	28.58
657.4	28.67
657.728	28.62
658.056	28.58
658.383	28.93
658.711	29.09
659.038	28.64
659.365	29.27
659.693	28.8
660.02	28.54
660.347	28.86
660.674	28.64
661.001	28.4
661.329	28.74
661.656	28.72
661.982	29.2
662.309	29.29
662.636	29
662.963	29.03
663.29	29.12
663.616	29.18
663.943	29.22
664.27	29.71
664.596	29.09
664.923	29.66
665.249	29.04
665.576	29.06
665.902	29.83
666.228	29.37
666.554	29.11
666.881	29.21
667.207	28.91
667.533	29.16
667.859	28.88
668.185	30.23
668.511	29.42
668.837	29.2
669.162	28.93
669.488	29.25
669.814	29.68
670.139	29.84
670.465	30.09
670.791	29.65
671.116	29.08
671.442	29.26
671.767	29.61
672.092	29.81
672.418	29.66
672.743	30.05
673.068	29.47
673.393	29.99
673.718	29.7
674.043	29.82
674.368	29.95
674.693	29.96
675.018	30.09
675.343	30.22
675.667	30.84
675.992	29.84
