Data from 0076_crown_Reflection__3__368.txt Node

Date: Fri Dec 16 16:58:09 CST 2022
User: ToomeyLab
Spectrometer: FLMS14357
Trigger mode: 0
Integration Time (sec): 1.000000E-2
Scans to average: 100
Electric dark correction enabled: true
Nonlinearity correction enabled: false
Boxcar width: 0
XAxis mode: Wavelengths
Number of Pixels in Spectrum: 2048
>>>>>Begin Spectral Data<<<<<
189.047	90.44
189.435	90.44
189.823	90.44
190.211	11.19
190.599	-28.61
190.987	-23.28
191.375	190.29
191.763	256.41
192.151	-6.96
192.538	638.39
192.926	133.9
193.314	185.47
193.702	63.07
194.089	-50.73
194.477	51.43
194.864	174.55
195.252	-19.18
195.639	122.21
196.027	-3.17
196.414	270.25
196.801	-477.61
197.189	165.15
197.576	281.49
197.963	497.27
198.351	-54.08
198.738	-56.04
199.125	7.53
199.512	-12.65
199.899	-81.08
200.286	-85.67
200.673	41.73
201.06	23.74
201.447	25.56
201.833	14.46
202.22	4.29
202.607	-9.68
202.994	5.25
203.38	-35
203.767	-21.8
204.154	-80.93
204.54	1.52
204.927	20.41
205.313	20.83
205.699	-60.85
206.086	-6.09
206.472	-88.28
206.858	-11.95
207.245	-14.68
207.631	4.42
208.017	16
208.403	-11.2
208.789	-7.95
209.175	37.37
209.561	47.97
209.947	-121.92
210.333	-93.3
210.719	-2.36
211.105	-7.87
211.491	-13.23
211.876	20.54
212.262	-60.6
212.648	-48.94
213.034	-1.37
213.419	12.55
213.805	-19.22
214.19	-33.21
214.576	-41.72
214.961	-14.12
215.346	-29.33
215.732	-14.21
216.117	14.9
216.502	-56.74
216.888	-69.4
217.273	2.57
217.658	-27.89
218.043	-29.48
218.428	-3.75
218.813	-13.74
219.198	-65.6
219.583	-3.13
219.968	19.81
220.353	20.35
220.738	-21.38
221.122	-8.15
221.507	-25.31
221.892	-14.56
222.276	9.2
222.661	5.16
223.046	1.29
223.43	-7.14
223.815	-4.96
224.199	4.58
224.583	-15.55
224.968	8.97
225.352	3.81
225.736	-1.68
226.121	-7.9
226.505	0.45
226.889	1.3
227.273	0.45
227.657	-2.91
228.041	1.91
228.425	-0.89
228.809	1.87
229.193	2.39
229.577	2.5
229.961	4.57
230.344	3.78
230.728	4.05
231.112	3.07
231.495	2.96
231.879	3.24
232.263	3.08
232.646	3.47
233.03	1.89
233.413	2.11
233.797	3.4
234.18	1.73
234.563	2.46
234.946	2.72
235.33	3.45
235.713	3.51
236.096	3.17
236.479	3.56
236.862	2.34
237.245	2.55
237.628	3.3
238.011	3.02
238.394	4.19
238.777	3.72
239.16	1.01
239.543	2.43
239.925	4.19
240.308	3.46
240.691	2.89
241.073	3.2
241.456	3.65
241.838	3.36
242.221	2.41
242.603	3.25
242.986	4.33
243.368	3.31
243.75	3.63
244.133	3.44
244.515	3.89
244.897	3.03
245.279	2.68
245.661	3.14
246.043	3.79
246.425	2.35
246.807	2.34
247.189	2.9
247.571	3.65
247.953	3.69
248.335	3.63
248.717	3.56
249.098	3.76
249.48	3.3
249.862	3.41
250.243	3.07
250.625	3.29
251.006	3.83
251.388	3.6
251.769	2.56
252.151	2.95
252.532	3.05
252.913	3.23
253.295	2.98
253.676	3.45
254.057	3.07
254.438	3.1
254.819	3.06
255.2	3.43
255.581	2.26
255.962	3.11
256.343	3.01
256.724	3.22
257.105	2.49
257.486	3.33
257.867	1.09
258.247	4.08
258.628	3.25
259.009	4.04
259.389	3.65
259.77	2.83
260.15	3.69
260.531	3.3
260.911	3.51
261.292	3.49
261.672	3.47
262.052	3.34
262.432	3.04
262.813	3.33
263.193	2.52
263.573	3.25
263.953	2.93
264.333	3.74
264.713	3.02
265.093	2.82
265.473	3.71
265.853	3.01
266.233	2.87
266.612	3.31
266.992	3.2
267.372	2.85
267.752	2.88
268.131	3.21
268.511	3.66
268.89	3.04
269.27	2.92
269.649	3.61
270.029	3.12
270.408	2.7
270.787	2.71
271.167	2.75
271.546	2.49
271.925	2.8
272.304	3.28
272.683	3.17
273.062	3.12
273.441	3.18
273.82	3.9
274.199	2.93
274.578	3.24
274.957	3.09
275.336	3.06
275.715	3.11
276.093	3.2
276.472	3.59
276.851	3.46
277.229	3.52
277.608	3.08
277.986	2.74
278.365	2.84
278.743	2.97
279.122	2.72
279.5	2.85
279.878	2.13
280.257	3.8
280.635	3.72
281.013	3.7
281.391	2.82
281.769	2.84
282.147	3.32
282.525	3.01
282.903	3.14
283.281	3.14
283.659	3.24
284.037	2.72
284.415	3.25
284.792	3.78
285.17	2.88
285.548	2.95
285.925	3.01
286.303	3.02
286.68	3.18
287.058	2.79
287.435	2.94
287.813	3.19
288.19	3.63
288.567	2.86
288.945	3.17
289.322	3.16
289.699	3.11
290.076	3.27
290.453	2.92
290.83	2.98
291.207	3.23
291.584	2.96
291.961	3.29
292.338	3.52
292.715	3.4
293.092	3.16
293.469	3.53
293.845	3.36
294.222	2.92
294.599	3.57
294.975	3.27
295.352	2.95
295.728	3.26
296.105	2.87
296.481	3.99
296.858	3.29
297.234	3.12
297.61	2.95
297.986	3.34
298.363	2.82
298.739	3.28
299.115	2.91
299.491	3.37
299.867	3.16
300.243	3.13
300.619	3.72
300.995	3.42
301.371	3.09
301.746	3.29
302.122	3.33
302.498	3.34
302.874	3.31
303.249	3.15
303.625	3.54
304	2.66
304.376	3.5
304.751	3.27
305.127	3.48
305.502	3.55
305.878	3
306.253	3.25
306.628	3.56
307.003	3.15
307.378	3.24
307.754	3.54
308.129	3.47
308.504	3.46
308.879	3.05
309.254	3.65
309.629	3.57
310.003	3.7
310.378	3.35
310.753	3.38
311.128	3.2
311.502	3.14
311.877	3.44
312.252	3.09
312.626	3.29
313.001	3.37
313.375	3.56
313.75	2.91
314.124	3.62
314.498	3.31
314.873	2.99
315.247	2.92
315.621	3.58
315.995	3.36
316.369	3.04
316.743	3.96
317.117	3.41
317.491	3.79
317.865	2.82
318.239	3.47
318.613	3.39
318.987	3.76
319.361	3.14
319.734	3.79
320.108	3.54
320.482	2.98
320.855	2.95
321.229	3.78
321.602	3.01
321.976	3.08
322.349	3.04
322.723	2.46
323.096	3.05
323.469	2.56
323.843	2.66
324.216	2.68
324.589	3.58
324.962	3.63
325.335	3.11
325.708	3.24
326.081	3.8
326.454	3.5
326.827	3.39
327.2	4.39
327.573	3.62
327.945	3.48
328.318	3.64
328.691	3.43
329.063	3.47
329.436	3.2
329.809	3.11
330.181	3.36
330.553	3.93
330.926	3.62
331.298	3.14
331.671	3.51
332.043	3.38
332.415	3.34
332.787	3.48
333.159	3.68
333.532	3.29
333.904	3.25
334.276	3.07
334.648	3.26
335.02	3.13
335.391	3.6
335.763	3.27
336.135	3.97
336.507	3.01
336.879	3.42
337.25	3.74
337.622	3.67
337.993	3.54
338.365	3.45
338.736	3.7
339.108	3.46
339.479	3.37
339.851	3.87
340.222	3.31
340.593	3.44
340.964	3.54
341.336	3.24
341.707	3.37
342.078	3.31
342.449	3.62
342.82	3.29
343.191	3.12
343.562	3.44
343.933	3.39
344.303	3.47
344.674	3.4
345.045	3.59
345.416	3.17
345.786	3.49
346.157	3.4
346.527	3.49
346.898	2.97
347.268	3.14
347.639	3.39
348.009	3.33
348.38	3.37
348.75	3.47
349.12	3.21
349.49	3.76
349.861	3.94
350.231	3.61
350.601	3.46
350.971	3.23
351.341	3.19
351.711	3.52
352.081	3.52
352.45	3.55
352.82	3.65
353.19	3.51
353.56	3.27
353.929	3.67
354.299	3.3
354.669	3.52
355.038	3.45
355.408	3.95
355.777	3.3
356.147	3.78
356.516	3.63
356.885	3.39
357.254	3.57
357.624	3.39
357.993	3.5
358.362	3.42
358.731	3.54
359.1	3.94
359.469	3.52
359.838	3.13
360.207	3.79
360.576	3.52
360.945	3.43
361.314	3.6
361.682	3.24
362.051	3.53
362.42	3.76
362.788	3.85
363.157	3.62
363.525	3.61
363.894	3.43
364.262	3.53
364.631	4.29
364.999	3.66
365.367	3.85
365.735	3.6
366.104	3.4
366.472	3.76
366.84	3.68
367.208	3.24
367.576	3.67
367.944	3.47
368.312	3.1
368.68	3.63
369.048	3.81
369.416	3.61
369.783	3.37
370.151	3.46
370.519	3.48
370.886	3.74
371.254	3.47
371.621	3.91
371.989	3.52
372.356	3.67
372.724	3.72
373.091	3.57
373.458	3.57
373.826	3.45
374.193	4.07
374.56	3.47
374.927	3.46
375.294	3.46
375.661	3.56
376.028	3.46
376.395	3.62
376.762	3.97
377.129	4.05
377.496	3.63
377.863	3.75
378.229	3.67
378.596	3.57
378.963	3.61
379.329	3.92
379.696	3.56
380.062	3.97
380.429	3.59
380.795	3.54
381.161	3.79
381.528	3.27
381.894	3.88
382.26	3.28
382.626	3.58
382.993	3.31
383.359	3.56
383.725	3.9
384.091	3.62
384.457	3.75
384.823	3.64
385.188	3.7
385.554	3.66
385.92	3.74
386.286	4.12
386.651	3.75
387.017	4.02
387.383	3.63
387.748	3.6
388.114	3.9
388.479	3.75
388.845	3.83
389.21	3.81
389.575	3.65
389.94	3.88
390.306	3.64
390.671	3.75
391.036	3.82
391.401	3.75
391.766	3.63
392.131	3.81
392.496	3.85
392.861	3.62
393.226	3.91
393.591	3.97
393.956	3.66
394.32	3.65
394.685	3.95
395.05	3.88
395.414	3.76
395.779	3.81
396.143	3.75
396.508	3.88
396.872	3.75
397.236	3.65
397.601	3.91
397.965	3.64
398.329	3.98
398.694	3.52
399.058	3.92
399.422	3.8
399.786	3.72
400.15	3.79
400.514	3.74
400.878	3.65
401.242	3.76
401.605	3.72
401.969	3.93
402.333	3.6
402.697	3.98
403.06	3.9
403.424	3.96
403.787	3.91
404.151	3.81
404.514	3.94
404.878	3.83
405.241	3.84
405.604	3.77
405.968	3.71
406.331	3.95
406.694	3.71
407.057	3.98
407.42	3.67
407.783	3.51
408.146	3.92
408.509	3.83
408.872	3.78
409.235	3.71
409.598	3.96
409.961	3.85
410.323	3.87
410.686	3.8
411.049	3.7
411.411	3.77
411.774	3.77
412.136	3.94
412.499	3.65
412.861	3.71
413.223	3.97
413.586	3.74
413.948	3.72
414.31	3.65
414.672	3.73
415.035	3.88
415.397	4.07
415.759	3.62
416.121	3.79
416.483	3.94
416.845	4.02
417.206	3.92
417.568	3.8
417.93	3.74
418.292	3.86
418.653	3.81
419.015	3.94
419.377	3.89
419.738	3.67
420.1	3.72
420.461	3.75
420.822	3.87
421.184	3.86
421.545	3.84
421.906	3.75
422.267	3.67
422.629	3.78
422.99	3.83
423.351	3.8
423.712	3.77
424.073	3.83
424.434	3.73
424.795	3.78
425.155	3.74
425.516	3.8
425.877	3.8
426.238	3.76
426.598	3.82
426.959	3.81
427.32	3.99
427.68	3.75
428.041	3.89
428.401	3.82
428.761	3.75
429.122	3.72
429.482	3.68
429.842	3.95
430.202	3.84
430.563	4.02
430.923	3.64
431.283	3.98
431.643	3.88
432.003	3.97
432.363	3.99
432.722	3.81
433.082	3.95
433.442	3.73
433.802	3.99
434.161	3.92
434.521	3.89
434.881	3.95
435.24	3.73
435.6	3.96
435.959	3.95
436.319	3.75
436.678	3.9
437.037	3.98
437.396	3.85
437.756	3.89
438.115	3.88
438.474	3.88
438.833	4.03
439.192	4.02
439.551	3.86
439.91	4.04
440.269	4.07
440.628	3.86
440.987	3.77
441.345	3.87
441.704	3.85
442.063	3.91
442.421	4
442.78	3.77
443.138	3.89
443.497	3.81
443.855	3.99
444.214	3.99
444.572	3.76
444.93	3.99
445.288	4.06
445.647	3.98
446.005	3.79
446.363	3.83
446.721	3.77
447.079	3.91
447.437	3.9
447.795	3.86
448.153	3.81
448.51	3.9
448.868	4.01
449.226	3.94
449.584	3.95
449.941	4.07
450.299	3.89
450.656	4.06
451.014	3.93
451.371	4.07
451.729	3.82
452.086	3.86
452.443	3.86
452.801	3.96
453.158	3.84
453.515	3.94
453.872	4.01
454.229	3.75
454.586	3.99
454.943	3.9
455.3	4.13
455.657	4.02
456.014	4.01
456.371	4.09
456.727	3.87
457.084	3.87
457.441	3.89
457.797	3.96
458.154	4.07
458.51	3.8
458.867	3.93
459.223	3.95
459.58	3.9
459.936	3.96
460.292	3.93
460.648	3.83
461.005	3.81
461.361	3.87
461.717	3.9
462.073	3.87
462.429	3.97
462.785	3.95
463.141	4.06
463.496	4.03
463.852	4.14
464.208	3.96
464.564	3.95
464.919	3.97
465.275	4
465.631	4.04
465.986	3.9
466.342	4.1
466.697	4.02
467.052	4.03
467.408	4.04
467.763	4.01
468.118	4.07
468.473	4.09
468.829	3.99
469.184	4.05
469.539	3.8
469.894	4.11
470.249	4.15
470.603	3.99
470.958	4.13
471.313	4.06
471.668	4.17
472.023	4.08
472.377	4.03
472.732	4.02
473.086	3.93
473.441	3.99
473.795	4.15
474.15	4.08
474.504	3.97
474.859	4.07
475.213	3.95
475.567	3.88
475.921	4.1
476.275	4.12
476.63	4.07
476.984	4.02
477.338	4.12
477.692	4.05
478.045	4.07
478.399	3.84
478.753	4.02
479.107	3.98
479.461	4.16
479.814	3.98
480.168	4.03
480.521	3.95
480.875	4.23
481.228	4.08
481.582	3.95
481.935	4.08
482.289	4
482.642	4.05
482.995	3.9
483.348	3.94
483.701	3.95
484.055	3.9
484.408	3.88
484.761	3.72
485.114	3.75
485.466	3.72
485.819	3.72
486.172	3.82
486.525	3.88
486.878	3.83
487.23	3.92
487.583	3.86
487.936	3.96
488.288	3.86
488.641	3.78
488.993	3.72
489.345	3.77
489.698	3.87
490.05	3.89
490.402	3.98
490.754	3.98
491.107	3.91
491.459	4.02
491.811	3.97
492.163	4
492.515	3.89
492.866	3.76
493.218	3.77
493.57	3.95
493.922	3.91
494.274	4.04
494.625	3.99
494.977	3.9
495.328	4.05
495.68	4.18
496.031	4.06
496.383	4.09
496.734	4.13
497.086	3.96
497.437	4.04
497.788	3.94
498.139	4.07
498.49	4.01
498.842	4.06
499.193	3.99
499.544	4.07
499.894	4.13
500.245	4
500.596	4.05
500.947	4
501.298	4.01
501.648	3.91
501.999	4.24
502.35	4.14
502.7	4.02
503.051	4.23
503.401	4.04
503.752	4.06
504.102	3.99
504.452	4.13
504.803	3.91
505.153	4.14
505.503	3.98
505.853	3.97
506.203	3.95
506.553	4.11
506.903	4.02
507.253	4.04
507.603	4.08
507.953	4.11
508.303	4.06
508.652	3.98
509.002	4.04
509.352	4.04
509.701	4
510.051	4.06
510.4	3.99
510.75	4.05
511.099	4.05
511.449	4.04
511.798	4.23
512.147	4.04
512.496	4.05
512.846	3.98
513.195	4.08
513.544	4.06
513.893	3.92
514.242	4.12
514.591	4.06
514.939	4
515.288	4.05
515.637	4.08
515.986	4.04
516.334	4.12
516.683	4.08
517.032	4.01
517.38	4.07
517.729	4.02
518.077	4.1
518.426	3.96
518.774	4.05
519.122	3.98
519.47	4.03
519.819	4.03
520.167	4.03
520.515	4.02
520.863	4.02
521.211	3.96
521.559	4.02
521.907	4.02
522.255	4.12
522.602	4.1
522.95	4.14
523.298	4.04
523.645	4
523.993	4.23
524.341	4.12
524.688	4.14
525.036	4.11
525.383	4.25
525.73	4.1
526.078	4.18
526.425	3.99
526.772	3.84
527.119	3.95
527.466	3.99
527.814	4.02
528.161	4.06
528.508	4.03
528.854	3.94
529.201	3.86
529.548	3.83
529.895	3.77
530.242	3.78
530.588	3.89
530.935	3.85
531.282	3.96
531.628	3.98
531.975	3.95
532.321	3.96
532.667	3.96
533.014	4.09
533.36	3.98
533.706	4.03
534.052	3.99
534.399	3.88
534.745	3.88
535.091	3.86
535.437	3.93
535.783	4.02
536.129	3.96
536.474	4.06
536.82	3.98
537.166	4.04
537.512	4.08
537.857	4.02
538.203	3.94
538.549	4.04
538.894	3.95
539.239	4.16
539.585	4.14
539.93	4.21
540.276	4.02
540.621	3.98
540.966	4.02
541.311	4.12
541.656	4.07
542.001	4.04
542.346	3.95
542.691	3.89
543.036	3.88
543.381	3.95
543.726	3.96
544.071	4.06
544.415	3.98
544.76	3.94
545.105	4.01
545.449	3.99
545.794	4.04
546.138	4.11
546.483	4.05
546.827	4.08
547.171	4.08
547.516	4.14
547.86	4.04
548.204	3.95
548.548	4.12
548.892	4.02
549.236	4.02
549.58	3.99
549.924	4.26
550.268	4.2
550.612	4.16
550.956	4.22
551.3	4.14
551.643	4.14
551.987	4.16
552.33	4.17
552.674	4.15
553.017	4.14
553.361	4.1
553.704	3.89
554.048	4.03
554.391	3.98
554.734	4.1
555.077	4.17
555.42	4.08
555.764	4
556.107	4.1
556.45	4.15
556.793	4.3
557.135	4.24
557.478	4.24
557.821	4.03
558.164	4.18
558.507	4.09
558.849	4.07
559.192	4.22
559.534	4.04
559.877	4.31
560.219	4.29
560.562	4.11
560.904	4.2
561.246	4.4
561.589	4.23
561.931	4.4
562.273	4.01
562.615	4.15
562.957	4.28
563.299	4.13
563.641	4.26
563.983	4.15
564.325	4.08
564.667	4.08
565.008	4.26
565.35	4.43
565.692	4.34
566.033	4.02
566.375	4.08
566.716	4.2
567.058	4.32
567.399	4.28
567.741	4.34
568.082	4.23
568.423	4.21
568.764	4.14
569.105	4.24
569.447	4.14
569.788	4.33
570.129	4.19
570.47	4.2
570.811	4.27
571.151	4.05
571.492	4.28
571.833	4.33
572.174	4.1
572.514	4.07
572.855	4.38
573.195	4.08
573.536	4.2
573.876	4.12
574.217	4.09
574.557	4.28
574.898	4.17
575.238	4.03
575.578	4.43
575.918	4.13
576.258	4.17
576.598	4.16
576.938	4.42
577.278	4.29
577.618	4.22
577.958	4.23
578.298	4.29
578.638	4.18
578.977	4.28
579.317	4.23
579.657	4.26
579.996	4.25
580.336	4.08
580.675	4.27
581.014	4.22
581.354	4.38
581.693	4.16
582.032	4.2
582.372	4.37
582.711	4.24
583.05	4.5
583.389	4.29
583.728	4.34
584.067	4.27
584.406	4.5
584.745	3.97
585.083	4.52
585.422	4.25
585.761	4.51
586.1	4.24
586.438	4.27
586.777	4.19
587.115	4.41
587.454	4.11
587.792	4.16
588.13	4.42
588.469	4.44
588.807	4.39
589.145	4.29
589.483	4.25
589.821	4.38
590.159	4.37
590.497	4.22
590.835	4.41
591.173	4.28
591.511	4.47
591.849	4.46
592.187	4.33
592.524	4.3
592.862	4.2
593.2	4.31
593.537	4.45
593.875	4.32
594.212	4.33
594.55	4.3
594.887	4.41
595.224	4.26
595.561	4.33
595.899	4.39
596.236	4.34
596.573	4.31
596.91	4.22
597.247	4.3
597.584	4.36
597.921	4.21
598.258	4.28
598.594	4.1
598.931	4.23
599.268	4.14
599.604	4.34
599.941	4.35
600.277	4.4
600.614	4.44
600.95	4.5
601.287	4.37
601.623	4.42
601.959	4.28
602.296	4.41
602.632	4.35
602.968	4.02
603.304	4.28
603.64	4.52
603.976	4.31
604.312	4.44
604.648	4.38
604.984	4.3
605.319	4.39
605.655	4.38
605.991	4.36
606.326	4.27
606.662	4.17
606.998	4.29
607.333	4.25
607.668	4.51
608.004	4.35
608.339	4.34
608.674	4.37
609.01	4.36
609.345	4.62
609.68	4.15
610.015	4.35
610.35	4.26
610.685	4.24
611.02	4.49
611.355	4.4
611.689	4.26
612.024	4.51
612.359	4.41
612.694	4.28
613.028	4.7
613.363	4.08
613.697	4.4
614.032	4.31
614.366	4.21
614.7	4.93
615.035	4.26
615.369	4.38
615.703	4.79
616.037	4.45
616.371	4.4
616.705	4.45
617.039	4.7
617.373	4.62
617.707	4.21
618.041	4.63
618.375	4.28
618.709	4.39
619.042	4.28
619.376	4.21
619.71	4.58
620.043	4.26
620.377	4.62
620.71	4.39
621.043	3.92
621.377	4.45
621.71	4.6
622.043	4.63
622.376	4.05
622.709	4.34
623.043	4.34
623.376	4.65
623.709	4.67
624.041	4.35
624.374	4.29
624.707	4.58
625.04	4.66
625.373	4.07
625.705	4.69
626.038	4.65
626.37	4.43
626.703	4.31
627.035	4.57
627.368	4.57
627.7	4.66
628.032	4.49
628.365	4.41
628.697	4.37
629.029	4.66
629.361	4.13
629.693	4.5
630.025	4.35
630.357	4.49
630.689	4.88
631.021	4.62
631.353	4.67
631.684	4.57
632.016	4.54
632.348	4.17
632.679	4.54
633.011	4.72
633.342	4.71
633.674	4.37
634.005	4.78
634.336	4.54
634.668	4.76
634.999	4.44
635.33	4.48
635.661	4.48
635.992	4.22
636.323	4.16
636.654	4.34
636.985	4.51
637.316	4.37
637.647	4.52
637.977	4.46
638.308	4.39
638.639	4.38
638.969	4.21
639.3	4.4
639.63	4.46
639.961	4.15
640.291	4.81
640.622	4.44
640.952	4.5
641.282	4.14
641.612	4.37
641.943	4.68
642.273	4.36
642.603	4.49
642.933	4.51
643.263	5.21
643.592	4.33
643.922	4.7
644.252	4.4
644.582	4.48
644.911	4.41
645.241	4.32
645.571	4.58
645.9	4.7
646.23	4.39
646.559	4.62
646.888	4.4
647.218	4.3
647.547	4.65
647.876	4.51
648.205	4.35
648.534	4.3
648.863	4.58
649.192	4.32
649.521	4.49
649.85	4.74
650.179	4.35
650.508	4.49
650.837	4.69
651.165	5.06
651.494	4.53
651.822	4.63
652.151	4.59
652.479	4.83
652.808	4.51
653.136	4.46
653.465	4.62
653.793	4.82
654.121	4.87
654.449	4.55
654.777	4.73
655.105	5.07
655.433	4.81
655.761	4.68
656.089	4.89
656.417	4.41
656.745	4.82
657.073	5.05
657.4	4.9
657.728	4.63
658.056	4.36
658.383	4.97
658.711	4.6
659.038	4.95
659.365	4.35
659.693	4.58
660.02	4.56
660.347	4.68
660.674	4.4
661.001	4.51
661.329	4.74
661.656	4.7
661.982	4.94
662.309	4.86
662.636	4.72
662.963	4.87
663.29	4.77
663.616	4.73
663.943	5.18
664.27	4.84
664.596	4.57
664.923	5.01
665.249	5.01
665.576	4.4
665.902	4.99
666.228	4.19
666.554	4.76
666.881	4.59
667.207	4.52
667.533	4.93
667.859	4.69
668.185	4.88
668.511	4.21
668.837	3.95
669.162	4.61
669.488	4.45
669.814	5.19
670.139	5.34
670.465	4.57
670.791	4.95
671.116	4.74
671.442	4.8
671.767	4.49
672.092	4.95
672.418	4.96
672.743	4.55
673.068	4.15
673.393	4.5
673.718	4.57
674.043	5.2
674.368	5.45
674.693	5.06
675.018	4.52
675.343	5.05
675.667	4.63
675.992	4.55
676.317	4.8
676.641	5.13
676.966	5.18
677.29	4.44
677.615	4.54
677.939	4.96
678.264	4.81
678.588	4.66
678.912	4.74
679.236	4.8
679.56	3.9
679.885	4.69
680.209	4.26
680.532	4.09
680.856	5.33
681.18	4.39
681.504	4.74
681.828	4.54
682.152	4.57
682.475	4.54
682.799	4.88
683.122	4.8
683.446	4.15
683.769	4.38
684.093	5.06
684.416	4.9
684.739	5.84
685.062	5.81
685.386	4.52
685.709	4.73
686.032	4.98
686.355	4.5
686.678	4.33
687.001	3.81
687.324	4.16
687.646	4.71
687.969	5.07
688.292	5.5
688.614	4.9
688.937	4.26
689.26	4.68
689.582	4.58
689.904	4.69
690.227	5.08
690.549	4.98
690.871	4.61
691.194	4.99
691.516	4.42
691.838	4.13
692.16	4.95
