Data from 0076_forehead_Reflection__1__371.txt Node

Date: Fri Dec 16 16:59:26 CST 2022
User: ToomeyLab
Spectrometer: FLMS14357
Trigger mode: 0
Integration Time (sec): 1.000000E-2
Scans to average: 100
Electric dark correction enabled: true
Nonlinearity correction enabled: false
Boxcar width: 0
XAxis mode: Wavelengths
Number of Pixels in Spectrum: 2048
>>>>>Begin Spectral Data<<<<<
189.047	6.35
189.435	6.35
189.823	6.35
190.211	26.6
190.599	-58.95
190.987	0.92
191.375	-33.8
191.763	313.3
192.151	99.7
192.538	641.01
192.926	-44.74
193.314	93.5
193.702	55.92
194.089	-13.45
194.477	53.51
194.864	-0.05
195.252	193.2
195.639	129.75
196.027	15.7
196.414	652.45
196.801	-613.1
197.189	80.11
197.576	38.51
197.963	155.08
198.351	-8.26
198.738	-72.03
199.125	18.46
199.512	-41.02
199.899	-69.94
200.286	-31.98
200.673	31.09
201.06	29.95
201.447	22.46
201.833	0.48
202.22	-11
202.607	3.18
202.994	-14.91
203.38	-36.43
203.767	-36.64
204.154	-117.78
204.54	21.61
204.927	-13.39
205.313	33.56
205.699	29.51
206.086	-25.19
206.472	-51.49
206.858	18.91
207.245	25.92
207.631	-36.3
208.017	21.24
208.403	-18.69
208.789	-29.88
209.175	35.73
209.561	107.28
209.947	9.77
210.333	-89.7
210.719	-21.25
211.105	-47.78
211.491	15.75
211.876	-31.94
212.262	-46.25
212.648	-46.72
213.034	-14.54
213.419	-13.97
213.805	-5.72
214.19	-37.6
214.576	-56.77
214.961	-18.26
215.346	-27.96
215.732	-19.59
216.117	-6.16
216.502	-13.52
216.888	-12.95
217.273	1.75
217.658	-31.75
218.043	-26.61
218.428	-14.02
218.813	-15.98
219.198	-66.89
219.583	-19.05
219.968	-21.28
220.353	-0.2
220.738	-21.78
221.122	-3.7
221.507	-12.49
221.892	2.13
222.276	-15.48
222.661	-15.02
223.046	-8.03
223.43	-10.41
223.815	9.83
224.199	-4.51
224.583	-15.43
224.968	6.43
225.352	-4.06
225.736	9.64
226.121	-3.53
226.505	4.5
226.889	2.43
227.273	-0.76
227.657	-4.43
228.041	1.62
228.425	0.89
228.809	1.01
229.193	-2.15
229.577	1.33
229.961	1.43
230.344	1.66
230.728	1.5
231.112	0.62
231.495	1.33
231.879	1.39
232.263	0.11
232.646	-0.75
233.03	-0.77
233.413	0.06
233.797	2.25
234.18	-0.22
234.563	-1.52
234.946	-0.18
235.33	1.53
235.713	1.79
236.096	1.54
236.479	1.94
236.862	0.9
237.245	2.65
237.628	1.91
238.011	1.48
238.394	2.75
238.777	-0.23
239.16	-1.33
239.543	-0.41
239.925	0
240.308	0.71
240.691	1.7
241.073	1.21
241.456	1.57
241.838	0.28
242.221	1.15
242.603	2.35
242.986	2.53
243.368	1.78
243.75	1.78
244.133	1.77
244.515	1.6
244.897	1.66
245.279	0.67
245.661	1.64
246.043	0.99
246.425	2.5
246.807	2.15
247.189	2.38
247.571	2.13
247.953	1.75
248.335	1.96
248.717	2.04
249.098	2.16
249.48	1.49
249.862	1.81
250.243	1.58
250.625	1.84
251.006	2.12
251.388	2.1
251.769	1.55
252.151	2.51
252.532	1.26
252.913	1.25
253.295	1.19
253.676	2.11
254.057	1.34
254.438	1.55
254.819	1.54
255.2	2.29
255.581	1.88
255.962	1.43
256.343	2.08
256.724	1.99
257.105	1.38
257.486	1.7
257.867	0.73
258.247	1.7
258.628	2.59
259.009	2.62
259.389	2.53
259.77	1.73
260.15	2.53
260.531	1.85
260.911	2.1
261.292	1.99
261.672	1.92
262.052	1.89
262.432	1.75
262.813	1.66
263.193	1.22
263.573	1.83
263.953	1.59
264.333	1.46
264.713	1.79
265.093	1.75
265.473	2.71
265.853	1.02
266.233	1.42
266.612	1.91
266.992	1.81
267.372	1.51
267.752	1.41
268.131	1.81
268.511	2.24
268.89	2.53
269.27	2.61
269.649	1.86
270.029	1.76
270.408	1.44
270.787	1.73
271.167	1.45
271.546	1.14
271.925	2.06
272.304	1.69
272.683	1.76
273.062	2.03
273.441	1.93
273.82	2.01
274.199	2.07
274.578	1.86
274.957	1.69
275.336	1.65
275.715	2.12
276.093	2.29
276.472	2.67
276.851	2.14
277.229	2.22
277.608	1.73
277.986	2.31
278.365	1.54
278.743	2.12
279.122	1.47
279.5	1.79
279.878	1.08
280.257	2.1
280.635	1.86
281.013	1.65
281.391	1.63
281.769	2.08
282.147	2.05
282.525	1.71
282.903	1.7
283.281	1.95
283.659	1.79
284.037	1.85
284.415	2.16
284.792	1.74
285.17	2.2
285.548	1.76
285.925	1.83
286.303	1.8
286.68	2.22
287.058	1.82
287.435	1.72
287.813	1.94
288.19	2.16
288.567	1.86
288.945	1.8
289.322	2.13
289.699	1.95
290.076	2.56
290.453	1.79
290.83	2.14
291.207	2.02
291.584	1.82
291.961	2.29
292.338	2.15
292.715	2.46
293.092	2.29
293.469	2.52
293.845	2.78
294.222	2.18
294.599	2.46
294.975	2.68
295.352	1.91
295.728	2.23
296.105	2.29
296.481	2.66
296.858	2.62
297.234	2.71
297.61	2.83
297.986	2.12
298.363	2.22
298.739	2.78
299.115	2.32
299.491	2.72
299.867	2.78
300.243	2.36
300.619	2.45
300.995	2.51
301.371	2.61
301.746	2.49
302.122	2.73
302.498	2.63
302.874	2.5
303.249	3.37
303.625	2.97
304	3.03
304.376	2.65
304.751	2.95
305.127	3.13
305.502	2.99
305.878	2.86
306.253	2.4
306.628	3.36
307.003	3.02
307.378	2.63
307.754	2.64
308.129	2.77
308.504	2.94
308.879	3.18
309.254	3.03
309.629	2.94
310.003	3.45
310.378	3.16
310.753	3.31
311.128	2.97
311.502	3.08
311.877	3.29
312.252	3.06
312.626	3
313.001	3.61
313.375	3.17
313.75	3.3
314.124	3.89
314.498	3.35
314.873	3.2
315.247	2.98
315.621	3.71
315.995	3.39
316.369	3.44
316.743	3.42
317.117	3.35
317.491	3.63
317.865	2.73
318.239	3.55
318.613	3.89
318.987	3.66
319.361	3.65
319.734	3.63
320.108	3.73
320.482	3.7
320.855	3.98
321.229	4.15
321.602	3.91
321.976	3.45
322.349	2.87
322.723	3.16
323.096	3.27
323.469	3.08
323.843	3.71
324.216	3.55
324.589	4.28
324.962	3.9
325.335	3.61
325.708	3.93
326.081	4.37
326.454	3.99
326.827	4.51
327.2	4.39
327.573	4.06
327.945	3.47
328.318	4.54
328.691	4.27
329.063	3.91
329.436	4.02
329.809	3.95
330.181	3.83
330.553	4.45
330.926	4.34
331.298	3.69
331.671	4.29
332.043	3.38
332.415	4.72
332.787	4.22
333.159	4.17
333.532	4.2
333.904	4.28
334.276	4.79
334.648	4.5
335.02	3.77
335.391	4.55
335.763	4.35
336.135	4.85
336.507	4.45
336.879	4.55
337.25	4.58
337.622	4.33
337.993	4.48
338.365	4.97
338.736	4.5
339.108	4.31
339.479	4.19
339.851	4.91
340.222	4.24
340.593	4.08
340.964	4.64
341.336	4.02
341.707	4.86
342.078	4.33
342.449	4.45
342.82	4.64
343.191	4.41
343.562	4.44
343.933	4.68
344.303	4.58
344.674	4.8
345.045	5
345.416	4.89
345.786	4.54
346.157	5.03
346.527	4.35
346.898	4.85
347.268	4.79
347.639	4.68
348.009	5.16
348.38	5.02
348.75	4.88
349.12	4.94
349.49	4.75
349.861	5.04
350.231	5.45
350.601	5.46
350.971	4.75
351.341	5.13
351.711	5.13
352.081	5.04
352.45	5.43
352.82	5.24
353.19	5.06
353.56	4.91
353.929	5.12
354.299	5.5
354.669	4.95
355.038	5.1
355.408	5.76
355.777	5.23
356.147	5.3
356.516	5.61
356.885	5.26
357.254	5.48
357.624	5.94
357.993	5.05
358.362	5.75
358.731	5.66
359.1	5.66
359.469	5.42
359.838	5.26
360.207	5.26
360.576	5.69
360.945	5.25
361.314	5.69
361.682	5.16
362.051	5.72
362.42	5.91
362.788	5.64
363.157	5.29
363.525	5.63
363.894	5.46
364.262	5.55
364.631	6.32
364.999	5.54
365.367	5.73
365.735	5.37
366.104	5.53
366.472	5.8
366.84	5.92
367.208	5.35
367.576	6.17
367.944	6
368.312	5.51
368.68	5.95
369.048	6.25
369.416	5.68
369.783	5.86
370.151	6.06
370.519	5.82
370.886	5.95
371.254	6
371.621	5.93
371.989	6.17
372.356	6.13
372.724	5.94
373.091	6.41
373.458	5.89
373.826	5.84
374.193	6.64
374.56	6.27
374.927	6.35
375.294	6.46
375.661	5.95
376.028	6.51
376.395	6.24
376.762	6.35
377.129	6.73
377.496	6.51
377.863	6.44
378.229	6.54
378.596	6.31
378.963	6.35
379.329	6.42
379.696	6.38
380.062	6.44
380.429	6.72
380.795	6.35
381.161	6.34
381.528	6.12
381.894	6.61
382.26	6.4
382.626	6.22
382.993	6.55
383.359	6.58
383.725	6.7
384.091	6.69
384.457	6.94
384.823	6.74
385.188	6.68
385.554	6.55
385.92	6.94
386.286	7.07
386.651	6.54
387.017	7.07
387.383	6.76
387.748	6.73
388.114	6.88
388.479	6.81
388.845	6.78
389.21	6.98
389.575	7.13
389.94	6.97
390.306	7.03
390.671	6.92
391.036	7.06
391.401	7.15
391.766	6.94
392.131	7.07
392.496	6.82
392.861	6.61
393.226	7.07
393.591	7.05
393.956	7.02
394.32	6.98
394.685	7.11
395.05	6.92
395.414	7.06
395.779	7.03
396.143	7.19
396.508	7.33
396.872	7.35
397.236	7.19
397.601	7.18
397.965	6.85
398.329	7.32
398.694	6.98
399.058	7.18
399.422	7.37
399.786	7.51
400.15	7.33
400.514	7.4
400.878	7.35
401.242	7.55
401.605	7.42
401.969	7.49
402.333	7.41
402.697	7.62
403.06	7.26
403.424	7.1
403.787	7.8
404.151	7.2
404.514	7.53
404.878	7.33
405.241	7.48
405.604	7.34
405.968	7.43
406.331	7.5
406.694	7.44
407.057	7.64
407.42	7.44
407.783	7.41
408.146	7.57
408.509	7.48
408.872	7.76
409.235	7.44
409.598	7.84
409.961	7.55
410.323	7.58
410.686	7.59
411.049	7.55
411.411	7.71
411.774	7.44
412.136	7.79
412.499	7.64
412.861	7.37
413.223	7.81
413.586	7.53
413.948	7.72
414.31	7.82
414.672	7.67
415.035	7.86
415.397	7.85
415.759	7.71
416.121	8.04
416.483	8.12
416.845	7.99
417.206	7.9
417.568	7.93
417.93	7.64
418.292	7.94
418.653	7.94
419.015	7.95
419.377	7.93
419.738	7.79
420.1	7.88
420.461	7.99
420.822	7.91
421.184	7.95
421.545	7.83
421.906	7.96
422.267	7.77
422.629	7.86
422.99	7.95
423.351	8.01
423.712	8.03
424.073	8.16
424.434	8.17
424.795	8.07
425.155	8.15
425.516	8.04
425.877	8.14
426.238	8.16
426.598	8.26
426.959	8.16
427.32	8.38
427.68	8.46
428.041	8.49
428.401	8.48
428.761	8.33
429.122	8.44
429.482	8.46
429.842	8.58
430.202	8.71
430.563	8.6
430.923	8.58
431.283	8.7
431.643	8.74
432.003	8.72
432.363	8.96
432.722	8.79
433.082	8.72
433.442	8.56
433.802	8.87
434.161	8.73
434.521	8.8
434.881	8.89
435.24	8.85
435.6	8.91
435.959	8.97
436.319	8.85
436.678	8.87
437.037	9.05
437.396	9.22
437.756	9.12
438.115	9.15
438.474	9.3
438.833	9.27
439.192	9.29
439.551	9.22
439.91	9.38
440.269	9.33
440.628	9.19
440.987	9.21
441.345	9.25
441.704	9.23
442.063	9.35
442.421	9.23
442.78	9.4
443.138	9.44
443.497	9.27
443.855	9.54
444.214	9.48
444.572	9.5
444.93	9.62
445.288	9.58
445.647	9.64
446.005	9.45
446.363	9.57
446.721	9.38
447.079	9.65
447.437	9.49
447.795	9.6
448.153	9.54
448.51	9.58
448.868	9.77
449.226	9.98
449.584	9.77
449.941	9.91
450.299	9.81
450.656	10.04
451.014	9.94
451.371	10.05
451.729	10.01
452.086	10.13
452.443	9.97
452.801	10.14
453.158	10.15
453.515	9.97
453.872	10.17
454.229	10.16
454.586	10.15
454.943	10.24
455.3	10.59
455.657	10.25
456.014	10.26
456.371	10.4
456.727	10.31
457.084	10.51
457.441	10.54
457.797	10.5
458.154	10.42
458.51	10.52
458.867	10.41
459.223	10.74
459.58	10.6
459.936	10.52
460.292	10.51
460.648	10.38
461.005	10.34
461.361	10.34
461.717	10.57
462.073	10.61
462.429	10.73
462.785	10.83
463.141	10.99
463.496	10.95
463.852	11.07
464.208	10.85
464.564	11
464.919	11.08
465.275	11.15
465.631	11.03
465.986	11.01
466.342	11.08
466.697	11.13
467.052	11.2
467.408	11.15
467.763	10.96
468.118	11.21
468.473	11.21
468.829	11.18
469.184	11.34
469.539	11.14
469.894	11.29
470.249	11.27
470.603	11.4
470.958	11.61
471.313	11.54
471.668	11.78
472.023	11.75
472.377	11.56
472.732	11.6
473.086	11.47
473.441	11.58
473.795	11.87
474.15	11.63
474.504	11.65
474.859	11.65
475.213	11.76
475.567	11.67
475.921	12.02
476.275	11.93
476.63	11.81
476.984	11.78
477.338	11.94
477.692	11.87
478.045	11.61
478.399	11.94
478.753	11.7
479.107	11.98
479.461	11.83
479.814	12.08
480.168	12
480.521	11.98
480.875	12.11
481.228	12.02
481.582	12
481.935	12.09
482.289	11.96
482.642	12.12
482.995	12.11
483.348	12.16
483.701	11.88
484.055	11.84
484.408	11.65
484.761	11.43
485.114	11.31
485.466	11.39
485.819	11.51
486.172	11.85
486.525	11.91
486.878	12.05
487.23	12.14
487.583	12.01
487.936	11.94
488.288	11.88
488.641	11.84
488.993	11.74
489.345	11.85
489.698	12.06
490.05	12.07
490.402	12.31
490.754	12.51
491.107	12.45
491.459	12.65
491.811	12.61
492.163	12.54
492.515	12.37
492.866	11.94
493.218	12.04
493.57	12.34
493.922	12.49
494.274	12.78
494.625	12.86
494.977	12.88
495.328	12.94
495.68	13.15
496.031	13.13
496.383	12.95
496.734	13.21
497.086	12.93
497.437	13.09
497.788	12.97
498.139	12.96
498.49	12.98
498.842	13.16
499.193	13.09
499.544	13.31
499.894	13.31
500.245	13.34
500.596	13.41
500.947	13.22
501.298	13.49
501.648	13.3
501.999	13.7
502.35	13.66
502.7	13.51
503.051	13.8
503.401	13.7
503.752	13.57
504.102	13.51
504.452	13.45
504.803	13.41
505.153	13.67
505.503	13.5
505.853	13.57
506.203	13.71
506.553	13.52
506.903	13.65
507.253	13.81
507.603	13.82
507.953	13.94
508.303	13.71
508.652	13.75
509.002	13.94
509.352	13.87
509.701	13.71
510.051	13.91
510.4	13.87
510.75	13.97
511.099	13.92
511.449	13.88
511.798	13.88
512.147	13.96
512.496	13.98
512.846	14.17
513.195	14.06
513.544	13.96
513.893	13.9
514.242	14.19
514.591	14.14
514.939	14.03
515.288	14.18
515.637	14.29
515.986	14.24
516.334	14.36
516.683	14.37
517.032	14.49
517.38	14.27
517.729	14.3
518.077	14.41
518.426	14.35
518.774	14.22
519.122	14.14
519.47	14.19
519.819	14.09
520.167	14.08
520.515	14.23
520.863	14.32
521.211	14.31
521.559	14.52
521.907	14.58
522.255	14.62
522.602	14.75
522.95	14.68
523.298	14.71
523.645	14.78
523.993	14.81
524.341	14.72
524.688	14.7
525.036	14.79
525.383	14.79
525.73	14.67
526.078	14.81
526.425	14.53
526.772	14.41
527.119	14.35
527.466	14.57
527.814	14.69
528.161	14.73
528.508	14.65
528.854	14.42
529.201	14.31
529.548	14.08
529.895	13.94
530.242	13.96
530.588	14.3
530.935	14.4
531.282	14.56
531.628	14.71
531.975	14.81
532.321	14.98
532.667	14.9
533.014	14.99
533.36	14.98
533.706	14.99
534.052	14.81
534.399	14.6
534.745	14.46
535.091	14.62
535.437	14.84
535.783	15.08
536.129	15.16
536.474	15.35
536.82	15.29
537.166	15.26
537.512	15.12
537.857	14.91
538.203	15.02
538.549	15.11
538.894	15.22
539.239	15.42
539.585	15.54
539.93	15.56
540.276	15.51
540.621	15.63
540.966	15.55
541.311	15.62
541.656	15.4
542.001	15.18
542.346	15
542.691	14.82
543.036	14.9
543.381	15.21
543.726	15.33
544.071	15.51
544.415	15.49
544.76	15.49
545.105	15.58
545.449	15.64
545.794	15.74
546.138	15.92
546.483	15.86
546.827	15.96
547.171	15.92
547.516	16.03
547.86	15.86
548.204	15.67
548.548	15.82
548.892	15.96
549.236	16.11
549.58	16.24
549.924	16.4
550.268	16.37
550.612	16.31
550.956	16.19
551.3	16.3
551.643	16.49
551.987	16.47
552.33	16.47
552.674	16.63
553.017	16.4
553.361	16.49
553.704	16.21
554.048	16.59
554.391	16.35
554.734	16.43
555.077	16.5
555.42	16.6
555.764	16.91
556.107	16.55
556.45	16.5
556.793	16.91
557.135	16.88
557.478	16.79
557.821	16.72
558.164	16.86
558.507	16.82
558.849	16.93
559.192	16.89
559.534	16.61
559.877	17.09
560.219	16.93
560.562	17.05
560.904	17.06
561.246	17.13
561.589	17.14
561.931	17.37
562.273	17.1
562.615	17.22
562.957	16.99
563.299	17.1
563.641	17.16
563.983	17.21
564.325	17.04
564.667	17.4
565.008	17.15
565.35	17.33
565.692	17.33
566.033	17.51
566.375	17.32
566.716	17.32
567.058	17.25
567.399	17.2
567.741	17.16
568.082	17.22
568.423	17.28
568.764	17.34
569.105	17.43
569.447	17.39
569.788	17.61
570.129	17.48
570.47	17.49
570.811	17.47
571.151	17.54
571.492	17.66
571.833	17.5
572.174	17.29
572.514	17.68
572.855	17.51
573.195	17.44
573.536	17.5
573.876	17.43
574.217	17.66
574.557	17.63
574.898	17.87
575.238	17.62
575.578	17.8
575.918	17.59
576.258	17.66
576.598	17.84
576.938	17.89
577.278	18.04
577.618	17.9
577.958	18.01
578.298	17.92
578.638	17.89
578.977	18.1
579.317	18.15
579.657	18.06
579.996	18.01
580.336	18.19
580.675	18.13
581.014	18.38
581.354	18.21
581.693	18.07
582.032	18.24
582.372	18.55
582.711	18.48
583.05	18.32
583.389	18.54
583.728	18.29
584.067	18.48
584.406	18.8
584.745	18.62
585.083	18.72
585.422	18.59
585.761	18.41
586.1	18.79
586.438	18.77
586.777	18.46
587.115	18.81
587.454	18.73
587.792	18.55
588.13	18.75
588.469	18.9
588.807	18.91
589.145	18.78
589.483	18.65
589.821	18.68
590.159	18.78
590.497	18.48
590.835	18.86
591.173	18.86
591.511	18.86
591.849	18.87
592.187	19.1
592.524	18.76
592.862	19.04
593.2	19.16
593.537	19.13
593.875	19.18
594.212	19.23
594.55	18.93
594.887	19.19
595.224	18.91
595.561	19.05
595.899	18.88
596.236	19.15
596.573	19.19
596.91	19.3
597.247	19.22
597.584	19.11
597.921	19.02
598.258	18.93
598.594	18.48
598.931	19.04
599.268	18.89
599.604	19.23
599.941	19.44
600.277	19.51
600.614	19.45
600.95	19.38
601.287	19.58
601.623	19.56
601.959	19.5
602.296	19.37
602.632	19.6
602.968	19.31
603.304	19.11
603.64	19.53
603.976	19.43
604.312	19.71
604.648	19.41
604.984	19.41
605.319	19.42
605.655	19.22
605.991	19.41
606.326	19.25
606.662	19.3
606.998	19.44
607.333	19.56
607.668	19.73
608.004	19.87
608.339	19.87
608.674	19.65
609.01	19.92
609.345	19.9
609.68	19.85
610.015	19.92
610.35	19.57
610.685	19.7
611.02	19.67
611.355	19.73
611.689	19.73
612.024	20.18
612.359	20.39
612.694	20.07
613.028	20.34
613.363	20.25
613.697	20.27
614.032	20.3
614.366	20.09
614.7	20.37
615.035	20.08
615.369	20.69
615.703	20.32
616.037	19.95
616.371	20.29
616.705	20.13
617.039	20.51
617.373	20.14
617.707	20.21
618.041	20.63
618.375	20.22
618.709	20.44
619.042	20.42
619.376	20.44
619.71	20.55
620.043	20.58
620.377	20.74
620.71	20.74
621.043	20.36
621.377	20.48
621.71	20.57
622.043	20.76
622.376	20.44
622.709	20.89
623.043	20.57
623.376	20.66
623.709	21.05
624.041	20.59
624.374	20.43
624.707	20.84
625.04	20.9
625.373	20.48
625.705	20.86
626.038	20.78
626.37	20.84
626.703	20.51
627.035	20.56
627.368	20.64
627.7	20.92
628.032	20.85
628.365	20.71
628.697	20.81
629.029	21.04
629.361	20.65
629.693	21.1
630.025	21.08
630.357	20.98
630.689	21.46
631.021	21.36
631.353	21.56
631.684	21.3
632.016	21.31
632.348	21.05
632.679	21.49
633.011	21.09
633.342	21.04
633.674	21.31
634.005	21.49
634.336	20.92
634.668	21.27
634.999	21.03
635.33	21.14
635.661	21.43
635.992	21.13
636.323	21.35
636.654	21.31
636.985	21.52
637.316	21.29
637.647	21.54
637.977	21.59
638.308	21.59
638.639	21.46
638.969	21.63
639.3	21.5
639.63	21.57
639.961	21.39
640.291	21.83
640.622	21.25
640.952	21.91
641.282	21.87
641.612	21.47
641.943	21.24
642.273	21.87
642.603	21.57
642.933	21.69
643.263	22.06
643.592	21.76
643.922	22.1
644.252	22.15
644.582	21.9
644.911	21.69
645.241	21.79
645.571	21.67
645.9	22.55
646.23	21.5
646.559	21.63
646.888	21.83
647.218	22.38
647.547	22.03
647.876	22.14
648.205	22.04
648.534	21.01
648.863	22.08
649.192	22.34
649.521	22.02
649.85	22.36
650.179	22.16
650.508	22.6
650.837	22.21
651.165	22.65
651.494	22.03
651.822	22.35
652.151	22.35
652.479	22.43
652.808	22.3
653.136	22.31
653.465	22.36
653.793	22.48
654.121	22.29
654.449	22.13
654.777	22.17
655.105	22.67
655.433	22.74
655.761	22.34
656.089	22.62
656.417	22.46
656.745	22.92
657.073	23
657.4	22.51
657.728	22.44
658.056	22.55
658.383	22.3
658.711	22.65
659.038	22.88
659.365	22.55
659.693	22.36
660.02	22.17
660.347	22.5
660.674	22.31
661.001	22.4
661.329	22.53
661.656	21.93
661.982	22.56
662.309	22.89
662.636	22.76
662.963	22.82
663.29	23.55
663.616	22.96
663.943	22.62
664.27	23.37
664.596	22.7
664.923	23.54
665.249	22.74
665.576	23.21
665.902	23.22
666.228	22.47
666.554	22.65
666.881	22.97
667.207	22.79
667.533	23.6
667.859	22.5
668.185	22.82
668.511	22.65
668.837	22.72
669.162	23.57
669.488	22.99
669.814	24.01
670.139	23.6
670.465	23.14
670.791	22.96
671.116	23.01
671.442	23.3
671.767	23.11
672.092	23.47
672.418	23.2
672.743	23.57
673.068	23.25
673.393	23.43
673.718	22.74
674.043	23.21
674.368	23.26
674.693	23.89
675.018	23.97
675.343	22.9
675.667	23.67
675.992	23.35
676.317	23.74
