Data from 0076_crown_Reflection__4__369.txt Node

Date: Fri Dec 16 16:58:22 CST 2022
User: ToomeyLab
Spectrometer: FLMS14357
Trigger mode: 0
Integration Time (sec): 1.000000E-2
Scans to average: 100
Electric dark correction enabled: true
Nonlinearity correction enabled: false
Boxcar width: 0
XAxis mode: Wavelengths
Number of Pixels in Spectrum: 2048
>>>>>Begin Spectral Data<<<<<
189.047	76.01
189.435	76.01
189.823	76.01
190.211	13.3
190.599	-108.55
190.987	-21.88
191.375	171.75
191.763	407.16
192.151	73.05
192.538	-194.94
192.926	388.7
193.314	222.44
193.702	38.08
194.089	58.7
194.477	80.7
194.864	126.11
195.252	386.56
195.639	114.83
196.027	55.79
196.414	-466.56
196.801	198.17
197.189	55.2
197.576	-174.83
197.963	-30.23
198.351	-32.86
198.738	-63.23
199.125	-1.47
199.512	35.84
199.899	-80.45
200.286	-38
200.673	-41.29
201.06	48.52
201.447	17.01
201.833	-7.46
202.22	43.65
202.607	-19.03
202.994	-12.37
203.38	-13.35
203.767	-21.93
204.154	-76.22
204.54	38.17
204.927	-5.52
205.313	-28.58
205.699	-29.66
206.086	-20.72
206.472	-7.13
206.858	-8.09
207.245	50.74
207.631	-24.78
208.017	14.35
208.403	-1.66
208.789	-17.03
209.175	25.05
209.561	-101.8
209.947	-34.44
210.333	32.7
210.719	-14.2
211.105	-39.44
211.491	-22.81
211.876	-19.64
212.262	3.88
212.648	-50.11
213.034	-32.48
213.419	8.31
213.805	-36.77
214.19	-18.95
214.576	4.22
214.961	-21.79
215.346	-39.81
215.732	-31.22
216.117	1.65
216.502	-34.89
216.888	-40.77
217.273	16.23
217.658	-31.29
218.043	-21.27
218.428	-15.47
218.813	4.5
219.198	-80.94
219.583	-1.3
219.968	-2.25
220.353	-4.22
220.738	-16.54
221.122	-12.75
221.507	3.23
221.892	0.07
222.276	2.91
222.661	-4.48
223.046	-11.21
223.43	-7.74
223.815	-14.42
224.199	-4.84
224.583	-12.32
224.968	-0.37
225.352	-10.88
225.736	1.52
226.121	-7.49
226.505	1.37
226.889	4.5
227.273	5.05
227.657	-0.32
228.041	1.57
228.425	2.91
228.809	1.29
229.193	1.94
229.577	2.18
229.961	2.47
230.344	2.81
230.728	2.1
231.112	2.77
231.495	1.68
231.879	1.68
232.263	1.72
232.646	1.36
233.03	0.36
233.413	2.34
233.797	3.01
234.18	-1.87
234.563	2.22
234.946	2.6
235.33	1.29
235.713	1.41
236.096	1.61
236.479	1.14
236.862	2.03
237.245	1.82
237.628	1.56
238.011	2.08
238.394	3.72
238.777	2.36
239.16	0.86
239.543	-1.64
239.925	3.52
240.308	2.21
240.691	2.5
241.073	2.79
241.456	2.3
241.838	1.37
242.221	2.28
242.603	2.06
242.986	3.31
243.368	2.19
243.75	2.11
244.133	2.75
244.515	2.56
244.897	1.88
245.279	2.17
245.661	1.29
246.043	2.55
246.425	1.25
246.807	2.07
247.189	2.41
247.571	2.64
247.953	2.41
248.335	2.37
248.717	2.4
249.098	2.65
249.48	1.88
249.862	2.19
250.243	2.59
250.625	1.87
251.006	2.4
251.388	1.88
251.769	1.77
252.151	1.83
252.532	2.2
252.913	2.11
253.295	2.19
253.676	2.58
254.057	2.28
254.438	1.67
254.819	1.99
255.2	2.05
255.581	0.87
255.962	2.1
256.343	1.6
256.724	1.8
257.105	1
257.486	2.32
257.867	0.89
258.247	2.91
258.628	1.43
259.009	1.95
259.389	2.57
259.77	2.12
260.15	2.57
260.531	2.27
260.911	2.29
261.292	2.13
261.672	1.97
262.052	2.24
262.432	2.29
262.813	2.15
263.193	1.9
263.573	1.78
263.953	1.95
264.333	1.99
264.713	2
265.093	2.28
265.473	2.08
265.853	1.49
266.233	1.45
266.612	1.87
266.992	1.85
267.372	2.19
267.752	1.62
268.131	2.13
268.511	2.42
268.89	2.31
269.27	2.13
269.649	2.67
270.029	2.18
270.408	2.2
270.787	1.91
271.167	1.76
271.546	1.44
271.925	2.21
272.304	2.25
272.683	1.99
273.062	2.34
273.441	2.47
273.82	2.31
274.199	2.42
274.578	1.95
274.957	1.96
275.336	2.42
275.715	2.31
276.093	2.46
276.472	2.26
276.851	2.45
277.229	2.45
277.608	1.78
277.986	1.88
278.365	2.3
278.743	2.42
279.122	1.48
279.5	1.64
279.878	1.7
280.257	2.13
280.635	1.73
281.013	2.43
281.391	2.1
281.769	1.87
282.147	2.72
282.525	2.15
282.903	2.57
283.281	1.98
283.659	2.37
284.037	1.99
284.415	2.22
284.792	2.6
285.17	2
285.548	1.74
285.925	2.11
286.303	1.89
286.68	2.28
287.058	2.09
287.435	1.66
287.813	2.13
288.19	2.8
288.567	2.23
288.945	1.95
289.322	2.11
289.699	2.07
290.076	2.73
290.453	2.06
290.83	2.14
291.207	2.15
291.584	2.03
291.961	2.14
292.338	2.14
292.715	2.45
293.092	1.73
293.469	2.25
293.845	2.32
294.222	2.45
294.599	2.31
294.975	2.63
295.352	1.76
295.728	2.07
296.105	2.06
296.481	2.48
296.858	2.23
297.234	2.54
297.61	2.38
297.986	2.48
298.363	2.03
298.739	2.34
299.115	1.92
299.491	2.15
299.867	2.55
300.243	1.96
300.619	2.14
300.995	2.12
301.371	2.09
301.746	2
302.122	2.56
302.498	2.21
302.874	2.28
303.249	2.56
303.625	2.3
304	2.07
304.376	2.06
304.751	1.92
305.127	2.13
305.502	2.21
305.878	2.3
306.253	1.67
306.628	2.22
307.003	2.32
307.378	2.12
307.754	2.52
308.129	1.93
308.504	2.42
308.879	2.22
309.254	2.73
309.629	1.81
310.003	2.41
310.378	2.38
310.753	2.59
311.128	2.28
311.502	2.24
311.877	2.28
312.252	2.42
312.626	2.44
313.001	2.45
313.375	2.47
313.75	2.17
314.124	2.87
314.498	2.35
314.873	2.48
315.247	2.01
315.621	3.01
315.995	2.48
316.369	2.43
316.743	2.68
317.117	2.44
317.491	2.53
317.865	1.95
318.239	2.75
318.613	2.18
318.987	3.08
319.361	2.77
319.734	2.34
320.108	2.33
320.482	2.55
320.855	2.01
321.229	2.81
321.602	2.17
321.976	2.25
322.349	2.36
322.723	2.05
323.096	1.94
323.469	2.42
323.843	2.11
324.216	2.13
324.589	2.76
324.962	2.13
325.335	1.98
325.708	2.68
326.081	2.84
326.454	2.64
326.827	2.56
327.2	2.84
327.573	2.83
327.945	2.29
328.318	2.65
328.691	2.74
329.063	2.06
329.436	2.64
329.809	2.37
330.181	2.54
330.553	2.89
330.926	2.53
331.298	2.41
331.671	2.12
332.043	2.52
332.415	2.44
332.787	3.01
333.159	2.67
333.532	2.35
333.904	2.46
334.276	2.77
334.648	2.68
335.02	2.12
335.391	2.54
335.763	2.55
336.135	2.71
336.507	2.82
336.879	2.8
337.25	2.28
337.622	2.7
337.993	2.72
338.365	2.64
338.736	2.42
339.108	2.41
339.479	2.72
339.851	3.29
340.222	2.78
340.593	2.48
340.964	2.35
341.336	1.83
341.707	2.44
342.078	2.36
342.449	2.74
342.82	2.19
343.191	2.28
343.562	2.58
343.933	2.38
344.303	2.49
344.674	2.56
345.045	2.63
345.416	2.45
345.786	2.05
346.157	2.81
346.527	2.4
346.898	2.28
347.268	2.45
347.639	2.38
348.009	2.73
348.38	2.67
348.75	2.69
349.12	2.53
349.49	2.97
349.861	2.81
350.231	2.94
350.601	2.62
350.971	2.35
351.341	2.78
351.711	2.8
352.081	2.84
352.45	2.86
352.82	3.04
353.19	2.44
353.56	2.48
353.929	2.71
354.299	2.63
354.669	2.56
355.038	2.78
355.408	3.14
355.777	2.52
356.147	3.25
356.516	2.91
356.885	2.57
357.254	2.88
357.624	2.94
357.993	2.53
358.362	2.8
358.731	2.8
359.1	2.81
359.469	2.86
359.838	2.64
360.207	2.51
360.576	2.48
360.945	2.47
361.314	2.51
361.682	2.54
362.051	2.65
362.42	2.74
362.788	2.89
363.157	2.56
363.525	2.61
363.894	2.89
364.262	2.76
364.631	3.23
364.999	2.69
365.367	2.85
365.735	2.51
366.104	2.6
366.472	2.97
366.84	3.02
367.208	2.49
367.576	2.62
367.944	2.53
368.312	2.48
368.68	2.82
369.048	2.9
369.416	2.38
369.783	2.59
370.151	2.78
370.519	2.68
370.886	2.65
371.254	2.81
371.621	2.72
371.989	2.82
372.356	2.67
372.724	2.85
373.091	2.65
373.458	2.69
373.826	2.27
374.193	3.16
374.56	2.56
374.927	2.67
375.294	3.09
375.661	2.92
376.028	2.96
376.395	2.78
376.762	2.81
377.129	2.77
377.496	3.05
377.863	2.86
378.229	2.71
378.596	2.67
378.963	2.76
379.329	2.76
379.696	2.77
380.062	3.3
380.429	2.9
380.795	2.68
381.161	2.56
381.528	2.43
381.894	3.03
382.26	2.54
382.626	2.74
382.993	2.56
383.359	2.58
383.725	3.14
384.091	2.78
384.457	2.96
384.823	3.04
385.188	2.88
385.554	2.8
385.92	3.13
386.286	3.06
386.651	2.82
387.017	2.97
387.383	2.62
387.748	2.58
388.114	2.86
388.479	3.17
388.845	2.67
389.21	2.94
389.575	2.87
389.94	2.93
390.306	2.51
390.671	2.75
391.036	3
391.401	2.9
391.766	2.96
392.131	2.97
392.496	2.81
392.861	2.61
393.226	2.73
393.591	2.9
393.956	2.98
394.32	2.9
394.685	2.95
395.05	2.77
395.414	3.05
395.779	2.89
396.143	3.08
396.508	3.04
396.872	3.03
397.236	2.47
397.601	3
397.965	2.76
398.329	3.2
398.694	2.77
399.058	2.78
399.422	2.77
399.786	2.84
400.15	2.66
400.514	3.03
400.878	2.64
401.242	2.95
401.605	2.95
401.969	2.81
402.333	2.97
402.697	3.08
403.06	3.16
403.424	2.92
403.787	2.97
404.151	2.79
404.514	3.06
404.878	3.01
405.241	2.92
405.604	2.94
405.968	2.94
406.331	2.8
406.694	2.9
407.057	3.1
407.42	2.96
407.783	2.94
408.146	2.96
408.509	3.1
408.872	2.73
409.235	2.96
409.598	3.06
409.961	2.95
410.323	2.84
410.686	2.86
411.049	3.03
411.411	3.04
411.774	3
412.136	2.78
412.499	3.05
412.861	2.74
413.223	3.27
413.586	2.72
413.948	3.12
414.31	2.96
414.672	3.09
415.035	3.24
415.397	3.14
415.759	2.83
416.121	3.15
416.483	3.27
416.845	3.08
417.206	3.01
417.568	2.99
417.93	2.88
418.292	2.94
418.653	3.07
419.015	3.08
419.377	3.1
419.738	2.83
420.1	2.9
420.461	2.91
420.822	3.06
421.184	2.97
421.545	3.03
421.906	3.04
422.267	2.82
422.629	2.97
422.99	3.06
423.351	2.98
423.712	2.95
424.073	3.03
424.434	2.95
424.795	2.85
425.155	2.97
425.516	2.85
425.877	2.95
426.238	2.79
426.598	2.92
426.959	2.91
427.32	3.09
427.68	3.11
428.041	3.09
428.401	3.04
428.761	3.03
429.122	2.78
429.482	2.92
429.842	3.27
430.202	3.04
430.563	2.98
430.923	2.97
431.283	3.05
431.643	3.02
432.003	3.07
432.363	3.18
432.722	2.92
433.082	2.99
433.442	2.93
433.802	2.99
434.161	2.99
434.521	2.94
434.881	3.22
435.24	2.93
435.6	3.04
435.959	2.94
436.319	2.84
436.678	3.08
437.037	3.17
437.396	3
437.756	3.13
438.115	3.13
438.474	3.1
438.833	3.1
439.192	3.21
439.551	3.14
439.91	3.12
440.269	3.15
440.628	3.04
440.987	3.1
441.345	3.14
441.704	3.05
442.063	3
442.421	3.04
442.78	3.1
443.138	3.04
443.497	3.08
443.855	3.19
444.214	3.05
444.572	3.19
444.93	3.26
445.288	3.08
445.647	3.13
446.005	2.99
446.363	3.01
446.721	2.93
447.079	3.11
447.437	3.04
447.795	2.99
448.153	3.07
448.51	3.05
448.868	3.25
449.226	3.13
449.584	2.94
449.941	3.18
450.299	3.08
450.656	3.16
451.014	3.11
451.371	3.1
451.729	3.12
452.086	3.07
452.443	3.01
452.801	3.17
453.158	3.08
453.515	3.17
453.872	3.28
454.229	3.15
454.586	3.16
454.943	3.16
455.3	3.3
455.657	3.05
456.014	3.16
456.371	3.17
456.727	3.24
457.084	3.16
457.441	3.09
457.797	3.24
458.154	3.19
458.51	3.15
458.867	3.14
459.223	3.05
459.58	3.03
459.936	3.07
460.292	3.19
460.648	3.14
461.005	3.08
461.361	3.04
461.717	3.08
462.073	3.21
462.429	3.16
462.785	3.24
463.141	3.34
463.496	3.14
463.852	3.3
464.208	3.23
464.564	3.13
464.919	3.16
465.275	3.37
465.631	3.29
465.986	3.06
466.342	3.34
466.697	3.15
467.052	3.27
467.408	3.16
467.763	3.13
468.118	3.12
468.473	3.3
468.829	3.26
469.184	3.37
469.539	3.15
469.894	3.3
470.249	3.32
470.603	3.23
470.958	3.39
471.313	3.26
471.668	3.24
472.023	3.43
472.377	3.13
472.732	3.2
473.086	2.94
473.441	3.31
473.795	3.27
474.15	3.08
474.504	3.23
474.859	3.17
475.213	3.26
475.567	3.1
475.921	3.27
476.275	3.3
476.63	3.15
476.984	3.19
477.338	3.52
477.692	3.27
478.045	3.25
478.399	3.34
478.753	3.18
479.107	3.34
479.461	3.34
479.814	3.17
480.168	3.27
480.521	3.2
480.875	3.43
481.228	3.29
481.582	3.21
481.935	3.25
482.289	3.21
482.642	3.27
482.995	3.23
483.348	3.15
483.701	3.17
484.055	3.19
484.408	3.16
484.761	3.05
485.114	3.04
485.466	3
485.819	3.03
486.172	3.11
486.525	3.16
486.878	3.18
487.23	3.18
487.583	3.19
487.936	3.21
488.288	3.13
488.641	3.12
488.993	3.08
489.345	3.08
489.698	3.16
490.05	3.11
490.402	3.23
490.754	3.26
491.107	3.2
491.459	3.23
491.811	3.24
492.163	3.28
492.515	3.17
492.866	3.1
493.218	3.08
493.57	3.17
493.922	3.12
494.274	3.23
494.625	3.21
494.977	3.22
495.328	3.42
495.68	3.44
496.031	3.31
496.383	3.18
496.734	3.36
497.086	3.2
497.437	3.38
497.788	3.21
498.139	3.34
498.49	3.25
498.842	3.27
499.193	3.27
499.544	3.39
499.894	3.25
500.245	3.2
500.596	3.35
500.947	3.22
501.298	3.26
501.648	3.29
501.999	3.5
502.35	3.38
502.7	3.34
503.051	3.48
503.401	3.45
503.752	3.29
504.102	3.33
504.452	3.28
504.803	3.19
505.153	3.3
505.503	3.27
505.853	3.22
506.203	3.31
506.553	3.42
506.903	3.41
507.253	3.39
507.603	3.37
507.953	3.47
508.303	3.36
508.652	3.35
509.002	3.43
509.352	3.44
509.701	3.33
510.051	3.35
510.4	3.33
510.75	3.4
511.099	3.3
511.449	3.31
511.798	3.44
512.147	3.31
512.496	3.34
512.846	3.41
513.195	3.41
513.544	3.35
513.893	3.26
514.242	3.43
514.591	3.42
514.939	3.2
515.288	3.32
515.637	3.46
515.986	3.34
516.334	3.51
516.683	3.37
517.032	3.36
517.38	3.42
517.729	3.45
518.077	3.55
518.426	3.33
518.774	3.3
519.122	3.29
519.47	3.28
519.819	3.3
520.167	3.44
520.515	3.27
520.863	3.28
521.211	3.29
521.559	3.37
521.907	3.44
522.255	3.43
522.602	3.47
522.95	3.47
523.298	3.39
523.645	3.37
523.993	3.51
524.341	3.39
524.688	3.34
525.036	3.51
525.383	3.57
525.73	3.44
526.078	3.37
526.425	3.41
526.772	3.25
527.119	3.28
527.466	3.29
527.814	3.26
528.161	3.35
528.508	3.36
528.854	3.33
529.201	3.26
529.548	3.23
529.895	3.18
530.242	3.21
530.588	3.25
530.935	3.24
531.282	3.34
531.628	3.32
531.975	3.39
532.321	3.37
532.667	3.43
533.014	3.4
533.36	3.36
533.706	3.39
534.052	3.28
534.399	3.28
534.745	3.24
535.091	3.28
535.437	3.32
535.783	3.38
536.129	3.48
536.474	3.41
536.82	3.45
537.166	3.51
537.512	3.47
537.857	3.37
538.203	3.33
538.549	3.45
538.894	3.39
539.239	3.51
539.585	3.5
539.93	3.52
540.276	3.36
540.621	3.34
540.966	3.44
541.311	3.47
541.656	3.43
542.001	3.47
542.346	3.35
542.691	3.29
543.036	3.25
543.381	3.38
543.726	3.39
544.071	3.43
544.415	3.34
544.76	3.39
545.105	3.42
545.449	3.3
545.794	3.43
546.138	3.51
546.483	3.42
546.827	3.59
547.171	3.52
547.516	3.53
547.86	3.4
548.204	3.43
548.548	3.56
548.892	3.51
549.236	3.58
549.58	3.53
549.924	3.47
550.268	3.65
550.612	3.58
550.956	3.34
551.3	3.6
551.643	3.55
551.987	3.5
552.33	3.42
552.674	3.54
553.017	3.59
553.361	3.5
553.704	3.34
554.048	3.62
554.391	3.59
554.734	3.49
555.077	3.56
555.42	3.47
555.764	3.52
556.107	3.65
556.45	3.35
556.793	3.58
557.135	3.63
557.478	3.61
557.821	3.51
558.164	3.69
558.507	3.49
558.849	3.39
559.192	3.5
559.534	3.41
559.877	3.61
560.219	3.77
560.562	3.66
560.904	3.41
561.246	3.8
561.589	3.72
561.931	3.83
562.273	3.56
562.615	3.57
562.957	3.65
563.299	3.52
563.641	3.57
563.983	3.52
564.325	3.43
564.667	3.54
565.008	3.6
565.35	3.6
565.692	3.65
566.033	3.61
566.375	3.4
566.716	3.59
567.058	3.57
567.399	3.57
567.741	3.69
568.082	3.56
568.423	3.52
568.764	3.75
569.105	3.62
569.447	3.62
569.788	3.67
570.129	3.66
570.47	3.67
570.811	3.67
571.151	3.64
571.492	3.72
571.833	3.68
572.174	3.56
572.514	3.45
572.855	3.75
573.195	3.47
573.536	3.54
573.876	3.57
574.217	3.63
574.557	3.71
574.898	3.66
575.238	3.63
575.578	3.77
575.918	3.6
576.258	3.67
576.598	3.64
576.938	3.68
577.278	3.49
577.618	3.59
577.958	3.69
578.298	3.67
578.638	3.65
578.977	3.72
579.317	3.9
579.657	3.73
579.996	3.61
580.336	3.66
580.675	3.65
581.014	3.69
581.354	3.78
581.693	3.52
582.032	3.56
582.372	3.65
582.711	3.57
583.05	3.8
583.389	3.7
583.728	3.89
584.067	3.72
584.406	3.73
584.745	3.71
585.083	3.96
585.422	3.82
585.761	3.9
586.1	3.85
586.438	3.75
586.777	3.66
587.115	3.82
587.454	3.6
587.792	3.89
588.13	3.87
588.469	3.84
588.807	4.01
589.145	3.9
589.483	3.53
589.821	3.65
590.159	3.53
590.497	3.38
590.835	3.51
591.173	3.75
591.511	3.8
591.849	3.77
592.187	3.62
592.524	3.94
592.862	3.69
593.2	3.71
593.537	3.78
593.875	3.6
594.212	3.84
594.55	3.75
594.887	3.83
595.224	3.61
595.561	3.89
595.899	3.64
596.236	3.74
596.573	3.63
596.91	3.82
597.247	3.8
597.584	3.84
597.921	3.69
598.258	3.92
598.594	3.57
598.931	3.71
599.268	3.74
599.604	3.99
599.941	3.78
600.277	3.91
600.614	3.77
600.95	3.76
601.287	3.9
601.623	3.83
601.959	3.62
602.296	3.75
602.632	4.08
602.968	3.81
603.304	3.65
603.64	3.77
603.976	3.72
604.312	4.08
604.648	3.94
604.984	3.83
605.319	3.99
605.655	3.89
605.991	3.91
606.326	3.8
606.662	3.56
606.998	3.94
607.333	3.72
607.668	3.69
608.004	3.85
608.339	3.55
608.674	3.94
609.01	3.86
609.345	4.18
609.68	3.47
610.015	3.99
610.35	3.92
610.685	3.9
611.02	3.91
611.355	4.05
611.689	3.65
612.024	4.14
612.359	3.71
612.694	4.18
613.028	4.32
613.363	3.94
613.697	3.9
614.032	4.08
614.366	3.68
614.7	4.29
615.035	3.57
615.369	3.88
615.703	4.23
616.037	3.72
616.371	3.79
616.705	3.97
617.039	4.08
617.373	4.05
617.707	3.83
618.041	4.17
618.375	3.62
618.709	3.7
619.042	3.86
619.376	3.74
619.71	4.01
620.043	4.01
620.377	3.97
620.71	4.14
621.043	3.96
621.377	3.88
621.71	4.27
622.043	4.22
622.376	3.83
622.709	4.27
623.043	3.68
623.376	4.27
623.709	4.09
624.041	3.88
624.374	4.01
624.707	3.66
625.04	4.24
625.373	3.87
625.705	3.98
626.038	3.95
626.37	3.79
626.703	4.12
627.035	3.72
627.368	4.16
627.7	4.19
628.032	4.22
628.365	3.81
628.697	4
629.029	4.3
629.361	3.9
629.693	4.06
630.025	4.02
630.357	4.1
630.689	4.66
631.021	4.19
631.353	4.15
631.684	4.11
632.016	3.72
632.348	4.13
632.679	4.08
633.011	3.99
633.342	4.14
633.674	4.06
634.005	4.02
634.336	4.39
634.668	4.05
634.999	4.23
635.33	3.85
635.661	4.37
635.992	3.85
636.323	3.96
636.654	4.17
636.985	3.83
637.316	4.15
637.647	4.06
637.977	4.1
638.308	3.91
638.639	4.06
638.969	3.87
639.3	4.3
639.63	3.81
639.961	3.65
640.291	4.54
640.622	4.34
640.952	4.13
641.282	3.54
641.612	4.04
641.943	4.5
642.273	4.41
642.603	4.05
642.933	4.17
643.263	4.58
643.592	4.17
643.922	4.53
644.252	4.1
644.582	4.32
644.911	3.89
645.241	4.2
645.571	4.07
645.9	4.41
646.23	3.72
646.559	4.44
646.888	4.06
647.218	4.24
647.547	4.38
647.876	4.38
648.205	4
648.534	3.9
648.863	4.48
649.192	3.96
649.521	4.37
649.85	4.35
650.179	3.58
650.508	4.32
650.837	4.25
651.165	3.85
651.494	4.27
651.822	4.17
652.151	4.81
652.479	4.42
652.808	4.1
653.136	4.07
653.465	4.13
653.793	4.5
654.121	4.14
654.449	4.48
654.777	4.09
655.105	4.61
655.433	4.07
655.761	3.66
656.089	4.14
656.417	3.66
656.745	4.23
657.073	4.57
657.4	4.1
657.728	4.41
658.056	4.1
658.383	4.21
658.711	4.1
659.038	4.76
659.365	4.17
659.693	4.22
660.02	4
660.347	4.05
660.674	4.11
661.001	4.05
661.329	4.19
661.656	4.11
661.982	4.33
662.309	4.34
662.636	3.96
662.963	4.49
663.29	4.5
663.616	4.4
663.943	4.42
664.27	4.55
664.596	3.68
664.923	4.55
665.249	4.28
665.576	4.45
665.902	4.54
666.228	4.14
666.554	4.34
666.881	4.34
667.207	3.85
667.533	3.99
667.859	4.36
668.185	4.22
668.511	3.81
668.837	3.38
669.162	3.99
669.488	4.1
669.814	4.48
670.139	4.66
670.465	4.5
670.791	4.53
671.116	3.62
671.442	3.97
671.767	4.25
672.092	4.26
672.418	4.61
672.743	4.34
673.068	4.14
673.393	4.38
673.718	4.04
674.043	4.18
674.368	4.06
674.693	4.64
675.018	4.56
675.343	4.61
675.667	4.03
675.992	3.89
676.317	4.2
676.641	4.6
676.966	4.22
677.29	4.12
677.615	4.47
677.939	4.17
678.264	4.33
678.588	4.98
678.912	4.27
679.236	4.77
679.56	4.37
679.885	4.38
680.209	3.54
680.532	4.49
680.856	4.71
681.18	4.31
681.504	4.13
681.828	4.05
682.152	4.38
682.475	4.43
682.799	5.01
683.122	4.16
683.446	4.11
683.769	4.57
684.093	4.09
684.416	3.72
684.739	4.72
685.062	4.36
685.386	4.05
685.709	3.86
686.032	4.66
686.355	4.69
686.678	3.94
687.001	4.32
687.324	3.69
687.646	4.24
687.969	4.66
688.292	4.86
688.614	4.63
688.937	4.08
689.26	3.74
689.582	4.02
689.904	4.91
690.227	4.44
690.549	4.99
690.871	4.5
691.194	5.2
691.516	4.46
691.838	4.18
692.16	4.34
