Data from 0076_forehead_Reflection__3__373.txt Node

Date: Fri Dec 16 16:59:48 CST 2022
User: ToomeyLab
Spectrometer: FLMS14357
Trigger mode: 0
Integration Time (sec): 1.000000E-2
Scans to average: 100
Electric dark correction enabled: true
Nonlinearity correction enabled: false
Boxcar width: 0
XAxis mode: Wavelengths
Number of Pixels in Spectrum: 2048
>>>>>Begin Spectral Data<<<<<
189.047	66.3
189.435	66.3
189.823	66.3
190.211	-3.06
190.599	4.7
190.987	-61.32
191.375	9.2
191.763	234.52
192.151	137.97
192.538	533.71
192.926	62.23
193.314	229.54
193.702	122.72
194.089	108.7
194.477	-7.17
194.864	0.85
195.252	125.98
195.639	79.83
196.027	-6.97
196.414	34.97
196.801	665.07
197.189	84.01
197.576	-143.22
197.963	397.93
198.351	55.25
198.738	-13.95
199.125	61.79
199.512	-2.55
199.899	-5.48
200.286	-91.46
200.673	45.72
201.06	51.38
201.447	1.65
201.833	11.03
202.22	22.14
202.607	20.69
202.994	25.25
203.38	51.96
203.767	-65.68
204.154	-123.24
204.54	57.17
204.927	17.85
205.313	41.53
205.699	6.18
206.086	-23.1
206.472	43.83
206.858	-18.64
207.245	19.02
207.631	-10.29
208.017	21.44
208.403	23.69
208.789	-5.5
209.175	63.93
209.561	145.59
209.947	-72.21
210.333	-63.31
210.719	2.45
211.105	-51.17
211.491	11.6
211.876	-26.42
212.262	-60.42
212.648	-2.9
213.034	-1.1
213.419	-7.55
213.805	-22.23
214.19	6.8
214.576	-0.2
214.961	-6.24
215.346	-9.83
215.732	-3.81
216.117	-29.52
216.502	-4.22
216.888	-17.72
217.273	15.22
217.658	-22.89
218.043	-17.79
218.428	12
218.813	-9.08
219.198	-74.8
219.583	12.49
219.968	8.91
220.353	-8.18
220.738	-16.81
221.122	16.52
221.507	-7.95
221.892	10.11
222.276	20.78
222.661	-4.33
223.046	4.59
223.43	1.12
223.815	-3.56
224.199	-11.52
224.583	-6.38
224.968	5.79
225.352	-5.23
225.736	7.07
226.121	6.63
226.505	0.45
226.889	12.14
227.273	2.34
227.657	3.35
228.041	3.26
228.425	3.48
228.809	4.92
229.193	1.53
229.577	1.51
229.961	3.44
230.344	2.72
230.728	2.52
231.112	2.09
231.495	2.16
231.879	2.78
232.263	0.41
232.646	2.96
233.03	0.37
233.413	1.92
233.797	4.3
234.18	1.5
234.563	3.35
234.946	3.37
235.33	2.98
235.713	1.88
236.096	2.35
236.479	2.98
236.862	2.46
237.245	5.35
237.628	2.84
238.011	2.52
238.394	5.49
238.777	3.52
239.16	2.94
239.543	2.09
239.925	4.3
240.308	3.3
240.691	3.95
241.073	2.83
241.456	3.07
241.838	2.59
242.221	4.01
242.603	3.09
242.986	3.99
243.368	2.89
243.75	3.19
244.133	2.69
244.515	2.83
244.897	2.74
245.279	2.88
245.661	1.62
246.043	2.9
246.425	2.45
246.807	3.24
247.189	3.28
247.571	2.86
247.953	2.84
248.335	3.19
248.717	2.88
249.098	3.14
249.48	2.88
249.862	3.14
250.243	2.85
250.625	2.97
251.006	3.85
251.388	4.09
251.769	3.31
252.151	3.21
252.532	3.38
252.913	3.41
253.295	2.73
253.676	3.55
254.057	2.74
254.438	2.86
254.819	2.64
255.2	3.28
255.581	2.22
255.962	3.08
256.343	2.56
256.724	1.4
257.105	3.55
257.486	3.33
257.867	1.14
258.247	3.22
258.628	3.49
259.009	2.94
259.389	3.75
259.77	2.83
260.15	3.44
260.531	3.11
260.911	2.98
261.292	2.91
261.672	2.61
262.052	2.45
262.432	2.53
262.813	2.72
263.193	2.41
263.573	2.78
263.953	3
264.333	2.74
264.713	2.32
265.093	2.49
265.473	3.68
265.853	2.74
266.233	3.06
266.612	3.1
266.992	2.3
267.372	2.55
267.752	2.29
268.131	2.91
268.511	2.85
268.89	3.44
269.27	3.46
269.649	2.99
270.029	2.22
270.408	2.6
270.787	2.53
271.167	3.14
271.546	2.27
271.925	3.24
272.304	2.97
272.683	2.79
273.062	3.18
273.441	3.32
273.82	3.04
274.199	3.35
274.578	2.35
274.957	2.96
275.336	2.81
275.715	3.23
276.093	2.95
276.472	2.94
276.851	3.14
277.229	3
277.608	2.27
277.986	2.4
278.365	2.38
278.743	2.92
279.122	2.59
279.5	2.35
279.878	1.86
280.257	3.03
280.635	2.19
281.013	3.21
281.391	2.83
281.769	2.95
282.147	3.36
282.525	2.64
282.903	3.1
283.281	3.11
283.659	2.91
284.037	2.63
284.415	2.87
284.792	2.56
285.17	2.34
285.548	3.01
285.925	3.09
286.303	2.72
286.68	2.96
287.058	2.72
287.435	2.78
287.813	2.81
288.19	3.25
288.567	2.72
288.945	3.34
289.322	2.96
289.699	2.95
290.076	3.31
290.453	2.68
290.83	3.07
291.207	2.8
291.584	2.83
291.961	3.23
292.338	3.04
292.715	3.23
293.092	3.2
293.469	3.67
293.845	3.57
294.222	3.38
294.599	3.64
294.975	3.13
295.352	2.89
295.728	3.56
296.105	3.21
296.481	3.74
296.858	3.82
297.234	3.48
297.61	3.61
297.986	3.68
298.363	3.26
298.739	3.9
299.115	3.21
299.491	3.74
299.867	3.7
300.243	3.58
300.619	3.7
300.995	3.94
301.371	4.4
301.746	3.85
302.122	3.91
302.498	3.73
302.874	4.09
303.249	4.53
303.625	4.32
304	3.7
304.376	4.15
304.751	3.5
305.127	3.87
305.502	4.36
305.878	3.97
306.253	3.66
306.628	3.98
307.003	3.86
307.378	4.37
307.754	4.28
308.129	3.8
308.504	4.02
308.879	4.31
309.254	4.29
309.629	4.27
310.003	4.5
310.378	4.4
310.753	4.4
311.128	4.36
311.502	4.15
311.877	4.34
312.252	4.35
312.626	4.64
313.001	4.28
313.375	4.55
313.75	4.57
314.124	4.92
314.498	4.48
314.873	4.43
315.247	4.41
315.621	5.03
315.995	4.88
316.369	4.96
316.743	5.24
317.117	4.62
317.491	4.52
317.865	4.3
318.239	5.07
318.613	4.69
318.987	5.47
319.361	4.81
319.734	5.14
320.108	4.83
320.482	4.68
320.855	4.99
321.229	5.44
321.602	5.27
321.976	5.32
322.349	4.94
322.723	4.91
323.096	4.95
323.469	4.84
323.843	5.38
324.216	5.54
324.589	5.23
324.962	5.53
325.335	5.31
325.708	4.99
326.081	5.46
326.454	5.46
326.827	5.81
327.2	5.45
327.573	5.13
327.945	5.46
328.318	5.6
328.691	5.6
329.063	5.36
329.436	5.31
329.809	5.4
330.181	5.52
330.553	5.47
330.926	5.51
331.298	4.77
331.671	5.82
332.043	5.57
332.415	5.75
332.787	6.33
333.159	5.52
333.532	5.77
333.904	6.07
334.276	5.58
334.648	5.56
335.02	5.28
335.391	6.58
335.763	6.01
336.135	5.83
336.507	6.25
336.879	5.76
337.25	6.06
337.622	6.36
337.993	6.4
338.365	5.76
338.736	5.97
339.108	5.58
339.479	5.65
339.851	6.73
340.222	6.13
340.593	5.59
340.964	6.39
341.336	5.84
341.707	6.03
342.078	5.47
342.449	6.22
342.82	6.02
343.191	5.78
343.562	6.23
343.933	6.19
344.303	6.18
344.674	6.19
345.045	6.65
345.416	5.72
345.786	6.4
346.157	6.61
346.527	6.33
346.898	6.04
347.268	6.29
347.639	6.11
348.009	6.61
348.38	6.54
348.75	6.89
349.12	6.6
349.49	6.26
349.861	6.65
350.231	6.87
350.601	6.21
350.971	6.72
351.341	6.97
351.711	6.44
352.081	6.98
352.45	6.89
352.82	6.79
353.19	6.8
353.56	6.32
353.929	6.73
354.299	6.69
354.669	6.46
355.038	6.87
355.408	7.24
355.777	6.69
356.147	7.21
356.516	7.02
356.885	6.57
357.254	7.2
357.624	7.03
357.993	6.99
358.362	7
358.731	6.84
359.1	7.32
359.469	7.23
359.838	7
360.207	6.82
360.576	7.12
360.945	7.21
361.314	7.35
361.682	6.89
362.051	7.15
362.42	7.37
362.788	7.16
363.157	7.13
363.525	7.23
363.894	7.13
364.262	7.15
364.631	7.83
364.999	6.92
365.367	7.38
365.735	7.27
366.104	7.03
366.472	7.45
366.84	7.56
367.208	7.4
367.576	7.49
367.944	7.71
368.312	7
368.68	7.86
369.048	7.62
369.416	7.56
369.783	7.76
370.151	8.28
370.519	7.45
370.886	7.51
371.254	8.16
371.621	7.78
371.989	7.91
372.356	8
372.724	7.74
373.091	8.06
373.458	8.04
373.826	7.83
374.193	8.36
374.56	7.96
374.927	7.78
375.294	8.39
375.661	7.95
376.028	8.22
376.395	8.02
376.762	8.38
377.129	8.11
377.496	7.8
377.863	8.33
378.229	8.01
378.596	8.11
378.963	8.04
379.329	8
379.696	8.07
380.062	8.44
380.429	8.35
380.795	8.23
381.161	8.16
381.528	7.86
381.894	8.47
382.26	8.15
382.626	8.1
382.993	8.07
383.359	8.4
383.725	8.76
384.091	8.49
384.457	8.67
384.823	8.55
385.188	8.37
385.554	8.27
385.92	8.72
386.286	8.97
386.651	8.53
387.017	8.51
387.383	8.67
387.748	8.53
388.114	8.82
388.479	8.6
388.845	8.79
389.21	8.85
389.575	8.8
389.94	8.71
390.306	8.85
390.671	8.71
391.036	9.06
391.401	9.29
391.766	8.8
392.131	8.93
392.496	9.05
392.861	8.86
393.226	9.15
393.591	8.82
393.956	8.97
394.32	8.87
394.685	9.2
395.05	8.76
395.414	9.12
395.779	8.87
396.143	9.07
396.508	9.21
396.872	9.27
397.236	8.99
397.601	9.3
397.965	8.93
398.329	9.26
398.694	9.08
399.058	9.33
399.422	9.1
399.786	9.33
400.15	9.22
400.514	9.15
400.878	9.19
401.242	9.51
401.605	9.26
401.969	9.46
402.333	9.39
402.697	9.39
403.06	9.54
403.424	9.29
403.787	9.61
404.151	9.31
404.514	9.43
404.878	9.58
405.241	9.52
405.604	9.47
405.968	9.38
406.331	9.37
406.694	9.55
407.057	9.69
407.42	9.48
407.783	9.43
408.146	9.51
408.509	9.35
408.872	9.4
409.235	9.42
409.598	9.64
409.961	9.8
410.323	9.61
410.686	9.6
411.049	9.66
411.411	9.71
411.774	9.76
412.136	9.68
412.499	9.75
412.861	9.68
413.223	9.6
413.586	9.72
413.948	9.77
414.31	9.93
414.672	9.89
415.035	9.63
415.397	9.73
415.759	9.76
416.121	10.14
416.483	10.22
416.845	10.12
417.206	9.78
417.568	10.01
417.93	9.84
418.292	10.17
418.653	10.06
419.015	10.16
419.377	9.8
419.738	9.9
420.1	9.97
420.461	9.78
420.822	9.95
421.184	9.92
421.545	10.03
421.906	9.95
422.267	9.81
422.629	9.96
422.99	10.02
423.351	9.97
423.712	10.11
424.073	10.17
424.434	10.01
424.795	10.16
425.155	10.09
425.516	10.18
425.877	10.26
426.238	10.12
426.598	10.3
426.959	10.33
427.32	10.35
427.68	10.5
428.041	10.5
428.401	10.46
428.761	10.6
429.122	10.62
429.482	10.59
429.842	10.79
430.202	10.67
430.563	10.82
430.923	10.64
431.283	10.97
431.643	10.97
432.003	10.93
432.363	11.12
432.722	11.06
433.082	11.03
433.442	10.99
433.802	10.93
434.161	11.1
434.521	11.17
434.881	11.06
435.24	10.96
435.6	11.28
435.959	11.32
436.319	11.26
436.678	11.28
437.037	11.47
437.396	11.37
437.756	11.26
438.115	11.57
438.474	11.55
438.833	11.53
439.192	11.58
439.551	11.59
439.91	11.71
440.269	11.67
440.628	11.53
440.987	11.5
441.345	11.59
441.704	11.6
442.063	11.65
442.421	11.72
442.78	11.54
443.138	11.67
443.497	11.69
443.855	11.79
444.214	12.07
444.572	11.96
444.93	12.06
445.288	11.96
445.647	12.1
446.005	11.98
446.363	11.99
446.721	11.93
447.079	12.16
447.437	11.95
447.795	11.99
448.153	11.87
448.51	11.96
448.868	12.21
449.226	12.29
449.584	12.23
449.941	12.33
450.299	12.47
450.656	12.38
451.014	12.4
451.371	12.66
451.729	12.44
452.086	12.45
452.443	12.67
452.801	12.82
453.158	12.75
453.515	12.76
453.872	12.84
454.229	12.8
454.586	12.81
454.943	12.76
455.3	12.98
455.657	12.91
456.014	12.86
456.371	13.06
456.727	13.02
457.084	13.2
457.441	13.1
457.797	13.28
458.154	13.27
458.51	13.34
458.867	13.07
459.223	13.25
459.58	13.24
459.936	13.27
460.292	13.28
460.648	13.37
461.005	13.19
461.361	13.17
461.717	13.23
462.073	13.33
462.429	13.35
462.785	13.48
463.141	13.6
463.496	13.7
463.852	13.82
464.208	13.68
464.564	13.73
464.919	13.76
465.275	13.75
465.631	13.89
465.986	13.89
466.342	14.01
466.697	13.92
467.052	14
467.408	13.91
467.763	13.96
468.118	14.09
468.473	14.1
468.829	14.03
469.184	14.15
469.539	14.06
469.894	14.29
470.249	14.32
470.603	14.33
470.958	14.49
471.313	14.32
471.668	14.56
472.023	14.59
472.377	14.58
472.732	14.44
473.086	14.45
473.441	14.53
473.795	14.63
474.15	14.68
474.504	14.7
474.859	14.66
475.213	14.71
475.567	14.79
475.921	14.96
476.275	14.79
476.63	15.06
476.984	14.95
477.338	15.01
477.692	14.9
478.045	14.9
478.399	14.89
478.753	14.97
479.107	14.98
479.461	15.06
479.814	15
480.168	15.18
480.521	15.16
480.875	15.18
481.228	15.17
481.582	15.33
481.935	15.32
482.289	15.17
482.642	15.35
482.995	15.17
483.348	15.23
483.701	15.15
484.055	15.13
484.408	15.01
484.761	14.77
485.114	14.75
485.466	14.59
485.819	14.63
486.172	14.76
486.525	14.87
486.878	14.92
487.23	15.12
487.583	15.33
487.936	15.26
488.288	15.16
488.641	15.12
488.993	15.04
489.345	15.08
489.698	15.2
490.05	15.24
490.402	15.36
490.754	15.44
491.107	15.64
491.459	15.83
491.811	15.83
492.163	15.9
492.515	15.77
492.866	15.46
493.218	15.49
493.57	15.56
493.922	15.71
494.274	15.88
494.625	16
494.977	16.05
495.328	16.41
495.68	16.46
496.031	16.5
496.383	16.47
496.734	16.7
497.086	16.51
497.437	16.64
497.788	16.57
498.139	16.59
498.49	16.51
498.842	16.56
499.193	16.42
499.544	16.67
499.894	16.72
500.245	16.72
500.596	16.86
500.947	16.8
501.298	16.91
501.648	16.96
501.999	17.19
502.35	17.12
502.7	16.99
503.051	17.17
503.401	17.17
503.752	17.08
504.102	17.28
504.452	17.18
504.803	17.13
505.153	17.23
505.503	17.32
505.853	17.38
506.203	17.34
506.553	17.36
506.903	17.38
507.253	17.5
507.603	17.4
507.953	17.82
508.303	17.54
508.652	17.53
509.002	17.64
509.352	17.59
509.701	17.62
510.051	17.68
510.4	17.62
510.75	17.69
511.099	17.6
511.449	17.79
511.798	17.87
512.147	17.82
512.496	17.82
512.846	17.81
513.195	17.97
513.544	17.85
513.893	17.88
514.242	18.08
514.591	18.08
514.939	18.06
515.288	18.04
515.637	18.16
515.986	18.2
516.334	18.24
516.683	18.21
517.032	18.36
517.38	18.3
517.729	18.34
518.077	18.3
518.426	18.3
518.774	18.25
519.122	18.22
519.47	18.13
519.819	18.17
520.167	18.2
520.515	18.04
520.863	18.09
521.211	18.3
521.559	18.34
521.907	18.42
522.255	18.6
522.602	18.56
522.95	18.76
523.298	18.76
523.645	18.71
523.993	18.82
524.341	18.92
524.688	19
525.036	18.89
525.383	19.01
525.73	18.99
526.078	19.04
526.425	18.97
526.772	18.76
527.119	18.65
527.466	18.62
527.814	18.69
528.161	18.74
528.508	18.74
528.854	18.76
529.201	18.75
529.548	18.55
529.895	18.37
530.242	18.33
530.588	18.43
530.935	18.42
531.282	18.56
531.628	18.74
531.975	18.88
532.321	19.06
532.667	19.16
533.014	19.22
533.36	19.29
533.706	19.3
534.052	19.12
534.399	19.11
534.745	18.95
535.091	18.94
535.437	19.11
535.783	19.17
536.129	19.32
536.474	19.42
536.82	19.52
537.166	19.63
537.512	19.58
537.857	19.59
538.203	19.55
538.549	19.56
538.894	19.64
539.239	19.75
539.585	20.01
539.93	19.92
540.276	20.07
540.621	20.03
540.966	20.14
541.311	20.23
541.656	20.07
542.001	19.97
542.346	19.77
542.691	19.62
543.036	19.61
543.381	19.67
543.726	19.73
544.071	19.83
544.415	19.92
544.76	19.91
545.105	20.12
545.449	20.17
545.794	20.28
546.138	20.52
546.483	20.45
546.827	20.61
547.171	20.53
547.516	20.8
547.86	20.61
548.204	20.52
548.548	20.49
548.892	20.61
549.236	20.85
549.58	20.87
549.924	20.93
550.268	21.23
550.612	21.28
550.956	21.24
551.3	21.21
551.643	21.41
551.987	21.34
552.33	21.39
552.674	21.38
553.017	21.29
553.361	21.33
553.704	21.3
554.048	21.58
554.391	21.29
554.734	21.46
555.077	21.51
555.42	21.45
555.764	21.37
556.107	21.7
556.45	21.55
556.793	21.88
557.135	21.95
557.478	21.95
557.821	21.85
558.164	21.8
558.507	22.11
558.849	21.8
559.192	22
559.534	21.63
559.877	22.2
560.219	22.26
560.562	22.12
560.904	22.25
561.246	22.14
561.589	22.2
561.931	22.36
562.273	22.48
562.615	22.19
562.957	22.37
563.299	22.38
563.641	22.44
563.983	22.31
564.325	22.44
564.667	22.61
565.008	22.22
565.35	22.66
565.692	22.58
566.033	22.6
566.375	22.52
566.716	22.6
567.058	22.76
567.399	22.74
567.741	22.75
568.082	22.75
568.423	22.5
568.764	22.65
569.105	22.58
569.447	22.79
569.788	22.93
570.129	23.04
570.47	22.94
570.811	23.08
571.151	23.01
571.492	23.22
571.833	22.73
572.174	22.84
572.514	22.92
572.855	23.23
573.195	23.02
573.536	23.07
573.876	23.15
574.217	23.06
574.557	23.17
574.898	23.17
575.238	23.2
575.578	23.3
575.918	23.34
576.258	23.33
576.598	23.41
576.938	23.47
577.278	23.32
577.618	23.45
577.958	23.62
578.298	23.71
578.638	23.73
578.977	23.54
579.317	23.67
579.657	23.74
579.996	23.82
580.336	23.6
580.675	23.88
581.014	24.21
581.354	23.96
581.693	24.07
582.032	24.14
582.372	24.13
582.711	24.17
583.05	24.33
583.389	24.27
583.728	24.36
584.067	24.25
584.406	24.64
584.745	24.2
585.083	24.45
585.422	24.3
585.761	24.4
586.1	24.51
586.438	24.87
586.777	24.32
587.115	24.77
587.454	24.4
587.792	24.51
588.13	24.79
588.469	24.87
588.807	24.69
589.145	25.08
589.483	24.62
589.821	24.74
590.159	24.48
590.497	24.51
590.835	24.69
591.173	25.13
591.511	25.08
591.849	24.97
592.187	25.02
592.524	25.18
592.862	25.09
593.2	25.04
593.537	24.9
593.875	25.19
594.212	25.16
594.55	25.22
594.887	25.08
595.224	25.13
595.561	25.04
595.899	25.12
596.236	25.22
596.573	25.21
596.91	25.44
597.247	25.18
597.584	25.63
597.921	25.38
598.258	25.32
598.594	25.13
598.931	25.4
599.268	25.51
599.604	25.62
599.941	25.44
600.277	25.71
600.614	25.68
600.95	25.76
601.287	25.74
601.623	26.14
601.959	25.92
602.296	25.78
602.632	26.09
602.968	26.09
603.304	26.1
603.64	25.96
603.976	25.89
604.312	26.22
604.648	26.25
604.984	26.05
605.319	26.1
605.655	25.86
605.991	25.88
606.326	26.08
606.662	26.03
606.998	25.92
607.333	26.06
607.668	26.25
608.004	26.7
608.339	26.37
608.674	26.59
609.01	26.61
609.345	26.6
609.68	26.65
610.015	26.67
610.35	26.67
610.685	26.47
611.02	26.76
611.355	26.53
611.689	26.49
612.024	26.67
612.359	26.87
612.694	26.56
613.028	27.08
613.363	27.02
613.697	27.17
614.032	26.88
614.366	27.11
614.7	27.28
615.035	26.91
615.369	27.18
615.703	27.23
616.037	26.92
616.371	27.32
616.705	27.39
617.039	27.57
617.373	27.48
617.707	27.18
618.041	27.61
618.375	27.17
618.709	27.36
619.042	27.28
619.376	27.29
619.71	27.48
620.043	27.48
620.377	27.92
620.71	27.94
621.043	27.48
621.377	27.81
621.71	27.87
622.043	27.91
622.376	27.38
622.709	28.01
623.043	27.49
623.376	28.34
623.709	28.32
624.041	28.34
624.374	27.94
624.707	27.66
625.04	28.28
625.373	28.07
625.705	28.08
626.038	27.94
626.37	28.59
626.703	28.09
627.035	28.28
627.368	28.07
627.7	28.32
628.032	28.31
628.365	27.96
628.697	28.11
629.029	28.62
629.361	28.54
629.693	28.6
630.025	28.25
630.357	28.27
630.689	28.52
631.021	28.71
631.353	28.67
631.684	28.53
632.016	28.77
632.348	28.63
632.679	29.07
633.011	29.01
633.342	28.69
633.674	28.96
634.005	28.95
634.336	28.61
634.668	28.87
634.999	29.03
635.33	28.72
635.661	29.09
635.992	29.02
636.323	28.85
636.654	29.16
636.985	28.77
637.316	29.13
637.647	29.25
637.977	28.97
638.308	29.36
638.639	29.22
638.969	29.09
639.3	29.05
639.63	29.35
639.961	29.21
640.291	29.86
640.622	29.77
640.952	29.59
641.282	29.31
641.612	29.48
641.943	29.51
642.273	29.5
642.603	29.7
642.933	29.46
643.263	29.77
643.592	29.49
643.922	30.19
644.252	30.43
644.582	30
644.911	29.93
645.241	29.92
645.571	29.96
645.9	30.41
646.23	29.85
646.559	29.78
646.888	30.33
647.218	30.16
647.547	30.41
647.876	30.38
648.205	29.84
648.534	29.9
648.863	30.9
649.192	30.2
649.521	30.46
649.85	30.47
650.179	30.25
650.508	30.73
650.837	30.54
651.165	30.14
651.494	30.21
651.822	30.81
652.151	31.13
652.479	30.82
652.808	30.24
653.136	30.75
653.465	30.88
653.793	31.25
654.121	30.71
654.449	30.77
654.777	30.55
655.105	31.08
655.433	31.2
655.761	30.61
656.089	31.07
656.417	30.56
656.745	31.46
657.073	31.18
657.4	30.91
657.728	30.49
658.056	30.87
658.383	31.24
658.711	30.87
659.038	31.45
659.365	31.37
659.693	31.14
660.02	30.95
660.347	31.2
660.674	31.14
661.001	30.8
661.329	31
661.656	30.76
661.982	31.33
662.309	31.44
662.636	31.21
662.963	31.52
663.29	31.76
663.616	31.62
663.943	31.57
664.27	31.75
664.596	32.11
664.923	32.6
665.249	31.5
665.576	31.94
665.902	31.79
666.228	31.78
666.554	32.1
666.881	31.81
667.207	31.75
667.533	32.38
667.859	32.42
668.185	31.55
668.511	31.62
668.837	30.83
669.162	31.64
669.488	33.02
669.814	32.47
670.139	32.24
670.465	32.42
670.791	32.57
671.116	32.15
671.442	32.2
671.767	32.2
672.092	32.36
672.418	32.23
672.743	32.47
673.068	32.41
673.393	33
673.718	32.51
674.043	32.51
674.368	32.82
674.693	32.66
675.018	32.82
675.343	32.03
675.667	32.99
