Data from 0076_chest_Reflection__2__362.txt Node

Date: Fri Dec 16 16:55:52 CST 2022
User: ToomeyLab
Spectrometer: FLMS14357
Trigger mode: 0
Integration Time (sec): 1.000000E-2
Scans to average: 100
Electric dark correction enabled: true
Nonlinearity correction enabled: false
Boxcar width: 0
XAxis mode: Wavelengths
Number of Pixels in Spectrum: 2048
>>>>>Begin Spectral Data<<<<<
189.047	106.54
189.435	106.54
189.823	106.54
190.211	46.39
190.599	82.13
190.987	107.02
191.375	-116.42
191.763	254.64
192.151	101.43
192.538	760.11
192.926	-238.54
193.314	138.68
193.702	84.46
194.089	42.24
194.477	-58.34
194.864	-34.23
195.252	823.41
195.639	99.64
196.027	-131.99
196.414	1235.28
196.801	-541.55
197.189	96.23
197.576	505.17
197.963	221
198.351	30.76
198.738	-6.03
199.125	34.25
199.512	-47.97
199.899	7.14
200.286	-22.78
200.673	75.83
201.06	31.57
201.447	34.49
201.833	19.66
202.22	23.01
202.607	-11.74
202.994	33.12
203.38	-66
203.767	-69.72
204.154	-66.57
204.54	18.47
204.927	-2.52
205.313	-17.89
205.699	-64.81
206.086	-22.8
206.472	-8.44
206.858	59.74
207.245	-9
207.631	1.47
208.017	2.7
208.403	19.33
208.789	-18.44
209.175	22.16
209.561	49.79
209.947	-14.85
210.333	-19.81
210.719	-4.78
211.105	14.96
211.491	-3.8
211.876	9.35
212.262	-43.68
212.648	-55.99
213.034	1.4
213.419	32.14
213.805	-14.72
214.19	-30.03
214.576	-34.47
214.961	-13.15
215.346	-3.57
215.732	-9.88
216.117	13.71
216.502	-0.31
216.888	-51.32
217.273	21.91
217.658	-17.38
218.043	28.77
218.428	-10.06
218.813	6.31
219.198	-38.73
219.583	38.96
219.968	8.47
220.353	8.33
220.738	-6.46
221.122	1.34
221.507	6.08
221.892	-2.79
222.276	1.76
222.661	-9.68
223.046	-0.5
223.43	-5.47
223.815	0.73
224.199	4.3
224.583	-5.08
224.968	6.1
225.352	8.25
225.736	4.67
226.121	-1.46
226.505	-1.26
226.889	7.45
227.273	3.34
227.657	-2.66
228.041	1.68
228.425	5.15
228.809	3.01
229.193	1.32
229.577	3.52
229.961	4.68
230.344	3.62
230.728	3.99
231.112	4.07
231.495	3.88
231.879	4.53
232.263	2.4
232.646	4.31
233.03	3.2
233.413	1.63
233.797	7.22
234.18	4.26
234.563	2.74
234.946	4.67
235.33	4.47
235.713	3.97
236.096	3.97
236.479	5.9
236.862	5.29
237.245	3.48
237.628	4.22
238.011	3.25
238.394	5.99
238.777	4.16
239.16	2.32
239.543	2.74
239.925	5.38
240.308	5.68
240.691	3.47
241.073	3.78
241.456	3.22
241.838	3.97
242.221	4.03
242.603	5.3
242.986	5.45
243.368	4.45
243.75	4.4
244.133	4.33
244.515	4.49
244.897	4.06
245.279	3.59
245.661	3.98
246.043	4.33
246.425	3.42
246.807	4.5
247.189	3.82
247.571	4.72
247.953	4.59
248.335	4.67
248.717	4.51
249.098	4.46
249.48	4.14
249.862	4.25
250.243	4.48
250.625	4.27
251.006	4.32
251.388	5.22
251.769	3.98
252.151	5.08
252.532	4.7
252.913	4.93
253.295	4.47
253.676	4.7
254.057	4.29
254.438	4.32
254.819	4.9
255.2	4.27
255.581	4.65
255.962	3.8
256.343	5.09
256.724	3
257.105	4.18
257.486	4.32
257.867	3.59
258.247	4.8
258.628	4.67
259.009	4.06
259.389	4.58
259.77	4.64
260.15	5.07
260.531	4.59
260.911	4.34
261.292	4.25
261.672	4.24
262.052	3.88
262.432	3.91
262.813	4.02
263.193	3.74
263.573	4.47
263.953	3.92
264.333	4.26
264.713	4.08
265.093	3.98
265.473	4.97
265.853	3.37
266.233	3.52
266.612	4.25
266.992	3.64
267.372	4.53
267.752	4.04
268.131	4.4
268.511	4.36
268.89	4.39
269.27	3.98
269.649	4.23
270.029	4.1
270.408	3.77
270.787	3.89
271.167	4.39
271.546	3.35
271.925	4.12
272.304	4.11
272.683	4.22
273.062	4.13
273.441	4.28
273.82	4.33
274.199	4.24
274.578	3.84
274.957	3.93
275.336	4.13
275.715	4.9
276.093	4.07
276.472	4.22
276.851	4.2
277.229	4.67
277.608	4.18
277.986	4.12
278.365	4.38
278.743	4.37
279.122	3.38
279.5	4.07
279.878	4.14
280.257	4.23
280.635	4.04
281.013	3.86
281.391	3.93
281.769	3.64
282.147	4.42
282.525	4.07
282.903	4.28
283.281	4.31
283.659	4.07
284.037	4.14
284.415	3.78
284.792	4.33
285.17	3.72
285.548	3.77
285.925	4.17
286.303	4.03
286.68	4.12
287.058	4.3
287.435	3.79
287.813	3.81
288.19	4.08
288.567	3.77
288.945	4.16
289.322	3.82
289.699	4.34
290.076	4.21
290.453	4.07
290.83	4.49
291.207	4.16
291.584	4
291.961	4.38
292.338	4.37
292.715	4.3
293.092	4.05
293.469	4.29
293.845	4.58
294.222	4.22
294.599	4.17
294.975	4.01
295.352	3.48
295.728	4.56
296.105	4.4
296.481	4.64
296.858	4.63
297.234	4.36
297.61	4.3
297.986	4.23
298.363	4.07
298.739	4.46
299.115	4.08
299.491	4.33
299.867	4.34
300.243	4.16
300.619	4.4
300.995	4.76
301.371	4.55
301.746	4.23
302.122	4.52
302.498	4.62
302.874	4.25
303.249	4.02
303.625	4.69
304	3.85
304.376	3.69
304.751	4.58
305.127	3.86
305.502	4.12
305.878	4.2
306.253	4.4
306.628	4.66
307.003	4.43
307.378	4.47
307.754	4.64
308.129	3.65
308.504	4.58
308.879	4.7
309.254	4.8
309.629	4.25
310.003	4.64
310.378	4.46
310.753	4.87
311.128	4.16
311.502	4.09
311.877	4.41
312.252	4.66
312.626	4.48
313.001	4.65
313.375	4.4
313.75	4.06
314.124	4.88
314.498	4.01
314.873	4.33
315.247	4.32
315.621	5.06
315.995	4.79
316.369	4.61
316.743	5.01
317.117	5.01
317.491	4.51
317.865	4.17
318.239	4.76
318.613	4.41
318.987	4.74
319.361	4.27
319.734	5.31
320.108	4.56
320.482	4.49
320.855	4.11
321.229	5.18
321.602	4.96
321.976	4.58
322.349	3.72
322.723	4.32
323.096	4.32
323.469	4.59
323.843	5.02
324.216	3.9
324.589	5.34
324.962	4.8
325.335	4.73
325.708	4.79
326.081	5.22
326.454	4.4
326.827	4.83
327.2	5.04
327.573	4.77
327.945	4.22
328.318	4.58
328.691	4.57
329.063	4.6
329.436	4.57
329.809	4.01
330.181	4.72
330.553	5.15
330.926	4.39
331.298	4.44
331.671	4.88
332.043	4.72
332.415	5.36
332.787	5.01
333.159	4.75
333.532	4.52
333.904	5.23
334.276	5.11
334.648	5.04
335.02	4.73
335.391	4.85
335.763	4.54
336.135	4.65
336.507	4.69
336.879	4.7
337.25	4.67
337.622	4.35
337.993	4.89
338.365	4.71
338.736	4.77
339.108	4.44
339.479	4.8
339.851	4.94
340.222	4.89
340.593	4.61
340.964	4.57
341.336	3.89
341.707	4.64
342.078	4.59
342.449	4.68
342.82	5.03
343.191	4.43
343.562	4.81
343.933	5.21
344.303	4.69
344.674	4.76
345.045	4.52
345.416	4.91
345.786	4.42
346.157	4.72
346.527	4.77
346.898	4.76
347.268	4.9
347.639	4.55
348.009	4.78
348.38	4.77
348.75	4.47
349.12	5.2
349.49	4.49
349.861	4.81
350.231	5.11
350.601	5.15
350.971	4.6
351.341	5.06
351.711	5.08
352.081	5.11
352.45	5.01
352.82	4.92
353.19	4.9
353.56	4.77
353.929	5.05
354.299	4.82
354.669	4.86
355.038	5.01
355.408	5.16
355.777	4.9
356.147	5.03
356.516	5.2
356.885	4.88
357.254	5
357.624	4.89
357.993	4.93
358.362	4.95
358.731	5.02
359.1	4.87
359.469	4.88
359.838	5.01
360.207	4.86
360.576	4.95
360.945	4.81
361.314	4.91
361.682	4.9
362.051	4.67
362.42	5.26
362.788	5.19
363.157	4.94
363.525	4.91
363.894	4.9
364.262	4.68
364.631	5.46
364.999	4.96
365.367	4.76
365.735	4.67
366.104	4.99
366.472	5.22
366.84	5.12
367.208	4.55
367.576	5.08
367.944	5.55
368.312	4.54
368.68	5.14
369.048	5.36
369.416	4.91
369.783	5.09
370.151	4.92
370.519	4.88
370.886	5.27
371.254	5.1
371.621	5.08
371.989	4.89
372.356	4.76
372.724	4.96
373.091	5.02
373.458	4.92
373.826	4.93
374.193	5.48
374.56	4.63
374.927	4.91
375.294	5.04
375.661	4.88
376.028	5.1
376.395	4.88
376.762	5.03
377.129	5.49
377.496	5.03
377.863	4.85
378.229	5.05
378.596	5.04
378.963	5.09
379.329	4.83
379.696	4.94
380.062	5.23
380.429	5.04
380.795	4.92
381.161	5.07
381.528	4.94
381.894	5.24
382.26	4.72
382.626	5.05
382.993	4.82
383.359	4.74
383.725	5.37
384.091	5.4
384.457	5.1
384.823	5.16
385.188	5.36
385.554	5.12
385.92	5.23
386.286	5.57
386.651	5.31
387.017	5.28
387.383	5.17
387.748	4.92
388.114	5.29
388.479	5.47
388.845	5.02
389.21	5.33
389.575	5.3
389.94	5.26
390.306	5.18
390.671	5.26
391.036	5.12
391.401	5.57
391.766	5.16
392.131	5.13
392.496	5.23
392.861	4.93
393.226	5.2
393.591	5.24
393.956	5.42
394.32	5.26
394.685	5.14
395.05	5.14
395.414	5.39
395.779	5.08
396.143	5.02
396.508	5.08
396.872	5.16
397.236	4.87
397.601	5.32
397.965	4.86
398.329	5.31
398.694	5.07
399.058	5.08
399.422	5.37
399.786	5.05
400.15	5.04
400.514	5.29
400.878	5.16
401.242	5.22
401.605	5.08
401.969	5.23
402.333	5.31
402.697	5.43
403.06	5.38
403.424	4.99
403.787	5.42
404.151	5.16
404.514	5.42
404.878	5.33
405.241	5.61
405.604	5.25
405.968	5.27
406.331	5.48
406.694	5.19
407.057	5.49
407.42	5.37
407.783	5.29
408.146	4.88
408.509	5.32
408.872	5.39
409.235	5.23
409.598	5.38
409.961	5.54
410.323	5.16
410.686	5.35
411.049	5.25
411.411	5.32
411.774	5.36
412.136	5.29
412.499	5.15
412.861	5.03
413.223	5.07
413.586	5.27
413.948	5.34
414.31	5.44
414.672	5.37
415.035	5.46
415.397	5.55
415.759	5.42
416.121	5.52
416.483	5.38
416.845	5.37
417.206	5.46
417.568	5.39
417.93	5.38
418.292	5.5
418.653	5.42
419.015	5.44
419.377	5.45
419.738	5.31
420.1	5.33
420.461	5.32
420.822	5.31
421.184	5.33
421.545	5.3
421.906	5.37
422.267	5.32
422.629	5.36
422.99	5.37
423.351	5.37
423.712	5.21
424.073	5.43
424.434	5.38
424.795	5.22
425.155	5.4
425.516	5.28
425.877	5.4
426.238	5.29
426.598	5.41
426.959	5.27
427.32	5.46
427.68	5.41
428.041	5.52
428.401	5.33
428.761	5.28
429.122	5.42
429.482	5.45
429.842	5.49
430.202	5.42
430.563	5.43
430.923	5.38
431.283	5.7
431.643	5.46
432.003	5.43
432.363	5.72
432.722	5.45
433.082	5.38
433.442	5.44
433.802	5.67
434.161	5.37
434.521	5.41
434.881	5.59
435.24	5.51
435.6	5.35
435.959	5.58
436.319	5.43
436.678	5.56
437.037	5.66
437.396	5.51
437.756	5.5
438.115	5.51
438.474	5.67
438.833	5.6
439.192	5.67
439.551	5.66
439.91	5.64
440.269	5.54
440.628	5.59
440.987	5.52
441.345	5.48
441.704	5.57
442.063	5.66
442.421	5.55
442.78	5.55
443.138	5.48
443.497	5.39
443.855	5.63
444.214	5.51
444.572	5.51
444.93	5.67
445.288	5.64
445.647	5.62
446.005	5.45
446.363	5.72
446.721	5.45
447.079	5.66
447.437	5.59
447.795	5.58
448.153	5.54
448.51	5.51
448.868	5.64
449.226	5.63
449.584	5.53
449.941	5.7
450.299	5.65
450.656	5.67
451.014	5.66
451.371	5.67
451.729	5.6
452.086	5.55
452.443	5.68
452.801	5.67
453.158	5.68
453.515	5.58
453.872	5.69
454.229	5.5
454.586	5.7
454.943	5.71
455.3	5.79
455.657	5.58
456.014	5.72
456.371	5.84
456.727	5.62
457.084	5.57
457.441	5.58
457.797	5.75
458.154	5.82
458.51	5.59
458.867	5.69
459.223	5.71
459.58	5.69
459.936	5.8
460.292	5.88
460.648	5.63
461.005	5.69
461.361	5.75
461.717	5.63
462.073	5.62
462.429	5.74
462.785	5.77
463.141	5.85
463.496	5.76
463.852	5.92
464.208	5.76
464.564	5.92
464.919	5.7
465.275	5.83
465.631	5.91
465.986	5.83
466.342	5.81
466.697	5.81
467.052	5.92
467.408	5.81
467.763	5.8
468.118	5.83
468.473	6.07
468.829	5.94
469.184	6.17
469.539	5.81
469.894	5.9
470.249	5.93
470.603	6
470.958	6.15
471.313	5.94
471.668	6.01
472.023	6.13
472.377	5.81
472.732	5.89
473.086	5.72
473.441	5.85
473.795	6.13
474.15	5.86
474.504	5.9
474.859	5.96
475.213	5.88
475.567	5.82
475.921	6.19
476.275	5.92
476.63	6.11
476.984	5.95
477.338	6.17
477.692	6.05
478.045	5.92
478.399	6.04
478.753	5.8
479.107	5.97
479.461	5.99
479.814	5.88
480.168	6.11
480.521	5.96
480.875	6.12
481.228	6.04
481.582	5.88
481.935	6
482.289	5.77
482.642	6.01
482.995	6
483.348	5.97
483.701	6
484.055	5.92
484.408	5.95
484.761	5.72
485.114	5.77
485.466	5.74
485.819	5.71
486.172	5.77
486.525	5.78
486.878	5.85
487.23	5.89
487.583	5.89
487.936	5.94
488.288	5.93
488.641	5.92
488.993	5.81
489.345	5.83
489.698	5.85
490.05	5.89
490.402	5.92
490.754	5.98
491.107	5.99
491.459	6.11
491.811	6.19
492.163	6.09
492.515	6.08
492.866	5.91
493.218	5.9
493.57	5.92
493.922	5.99
494.274	5.97
494.625	6.01
494.977	6.14
495.328	6.17
495.68	6.37
496.031	6.24
496.383	6.08
496.734	6.28
497.086	6.12
497.437	6.33
497.788	6.13
498.139	6.29
498.49	6.22
498.842	6.22
499.193	6.25
499.544	6.24
499.894	6.29
500.245	6.27
500.596	6.33
500.947	6.18
501.298	6.31
501.648	6.43
501.999	6.43
502.35	6.41
502.7	6.4
503.051	6.47
503.401	6.34
503.752	6.27
504.102	6.49
504.452	6.38
504.803	6.24
505.153	6.41
505.503	6.41
505.853	6.35
506.203	6.52
506.553	6.38
506.903	6.35
507.253	6.56
507.603	6.54
507.953	6.4
508.303	6.5
508.652	6.47
509.002	6.49
509.352	6.51
509.701	6.42
510.051	6.49
510.4	6.48
510.75	6.52
511.099	6.43
511.449	6.48
511.798	6.48
512.147	6.54
512.496	6.64
512.846	6.47
513.195	6.52
513.544	6.48
513.893	6.33
514.242	6.58
514.591	6.5
514.939	6.53
515.288	6.62
515.637	6.65
515.986	6.52
516.334	6.7
516.683	6.7
517.032	6.55
517.38	6.61
517.729	6.65
518.077	6.68
518.426	6.6
518.774	6.6
519.122	6.64
519.47	6.64
519.819	6.64
520.167	6.63
520.515	6.65
520.863	6.62
521.211	6.62
521.559	6.6
521.907	6.72
522.255	6.82
522.602	6.77
522.95	6.89
523.298	6.7
523.645	6.68
523.993	6.9
524.341	6.9
524.688	6.85
525.036	6.79
525.383	6.98
525.73	6.89
526.078	6.87
526.425	6.84
526.772	6.72
527.119	6.85
527.466	6.75
527.814	6.78
528.161	6.84
528.508	6.77
528.854	6.86
529.201	6.86
529.548	6.82
529.895	6.68
530.242	6.65
530.588	6.72
530.935	6.77
531.282	6.77
531.628	6.83
531.975	6.85
532.321	6.81
532.667	6.93
533.014	6.96
533.36	6.98
533.706	6.93
534.052	6.99
534.399	6.94
534.745	6.88
535.091	6.94
535.437	6.96
535.783	6.97
536.129	7.05
536.474	7.12
536.82	6.97
537.166	7.13
537.512	7.22
537.857	7.05
538.203	7.06
538.549	7.16
538.894	7.18
539.239	7.25
539.585	7.29
539.93	7.28
540.276	7.27
540.621	7.37
540.966	7.3
541.311	7.3
541.656	7.3
542.001	7.27
542.346	7.24
542.691	7.17
543.036	7.14
543.381	7.23
543.726	7.24
544.071	7.27
544.415	7.26
544.76	7.22
545.105	7.35
545.449	7.37
545.794	7.34
546.138	7.58
546.483	7.34
546.827	7.58
547.171	7.5
547.516	7.57
547.86	7.49
548.204	7.43
548.548	7.58
548.892	7.6
549.236	7.65
549.58	7.61
549.924	7.6
550.268	7.8
550.612	7.83
550.956	7.51
551.3	7.63
551.643	7.73
551.987	7.77
552.33	7.87
552.674	7.76
553.017	7.78
553.361	7.81
553.704	7.89
554.048	7.9
554.391	7.78
554.734	7.74
555.077	7.86
555.42	7.98
555.764	8.03
556.107	8.01
556.45	7.85
556.793	8.19
557.135	8.23
557.478	7.93
557.821	7.93
558.164	8.23
558.507	8.01
558.849	8.25
559.192	8.11
559.534	8.04
559.877	8.18
560.219	8.42
560.562	8.25
560.904	8.16
561.246	8.35
561.589	8.37
561.931	8.4
562.273	8.34
562.615	8.29
562.957	8.2
563.299	8.41
563.641	8.62
563.983	8.18
564.325	8.32
564.667	8.3
565.008	8.51
565.35	8.52
565.692	8.7
566.033	8.46
566.375	8.5
566.716	8.65
567.058	8.56
567.399	8.53
567.741	8.69
568.082	8.57
568.423	8.61
568.764	8.77
569.105	8.64
569.447	8.63
569.788	8.89
570.129	8.69
570.47	8.72
570.811	8.91
571.151	8.9
571.492	8.89
571.833	8.94
572.174	8.67
572.514	8.81
572.855	8.98
573.195	8.86
573.536	8.8
573.876	9.08
574.217	8.93
574.557	9.1
574.898	8.99
575.238	8.92
575.578	9.04
575.918	9.06
576.258	9.21
576.598	9.18
576.938	9.37
577.278	9.12
577.618	9.12
577.958	9.18
578.298	9.35
578.638	9.21
578.977	9.16
579.317	9.5
579.657	9.23
579.996	9.3
580.336	9.26
580.675	9.38
581.014	9.46
581.354	9.55
581.693	9.45
582.032	9.41
582.372	9.54
582.711	9.4
583.05	9.7
583.389	9.47
583.728	9.79
584.067	9.65
584.406	9.69
584.745	9.63
585.083	9.91
585.422	9.76
585.761	9.98
586.1	10.19
586.438	9.93
586.777	9.79
587.115	9.78
587.454	9.72
587.792	9.83
588.13	10.2
588.469	10.14
588.807	10.04
589.145	10.34
589.483	9.86
589.821	10.24
590.159	9.97
590.497	9.67
590.835	10.24
591.173	10.19
591.511	10.12
591.849	10.19
592.187	10.26
592.524	10.2
592.862	10.5
593.2	10.08
593.537	10.15
593.875	10.59
594.212	10.52
594.55	10.28
594.887	10.75
595.224	10.37
595.561	10.46
595.899	10.38
596.236	10.72
596.573	10.32
596.91	10.67
597.247	10.57
597.584	10.47
597.921	10.42
598.258	10.4
598.594	10.47
598.931	10.62
599.268	10.48
599.604	10.63
599.941	10.71
600.277	10.77
600.614	10.91
600.95	10.9
601.287	10.88
601.623	10.95
601.959	10.84
602.296	10.68
602.632	11.04
602.968	10.84
603.304	11.03
603.64	10.73
603.976	11.1
604.312	11.39
604.648	11.31
604.984	11.17
605.319	11.09
605.655	11.14
605.991	10.95
606.326	11.19
606.662	11.19
606.998	11.18
607.333	10.98
607.668	11.29
608.004	11.41
608.339	11.11
608.674	11.22
609.01	11.4
609.345	11.62
609.68	11.15
610.015	11.3
610.35	11.5
610.685	11.59
611.02	11.53
611.355	11.6
611.689	11.27
612.024	11.58
612.359	11.55
612.694	11.68
613.028	11.8
613.363	11.5
613.697	11.87
614.032	11.8
614.366	11.92
614.7	11.76
615.035	11.98
615.369	12.01
615.703	12.25
616.037	12.12
616.371	11.77
616.705	12.09
617.039	12.22
617.373	12.08
617.707	11.97
618.041	12.39
618.375	12.23
618.709	12.34
619.042	11.92
619.376	12.08
619.71	12.32
620.043	12.23
620.377	12.4
620.71	12.53
621.043	11.89
621.377	12.31
621.71	12.77
622.043	12.7
622.376	12.33
622.709	12.6
623.043	12.24
623.376	12.83
623.709	12.54
624.041	12.35
624.374	12.07
624.707	12.89
625.04	12.94
625.373	12.8
625.705	12.86
626.038	12.95
626.37	12.83
626.703	12.71
627.035	13.25
627.368	13.05
627.7	13.38
628.032	13.23
628.365	12.92
628.697	13.04
629.029	13.26
629.361	12.86
629.693	13.09
630.025	12.92
630.357	13.06
630.689	13.52
631.021	13.36
631.353	13.37
631.684	13.45
632.016	13.15
632.348	13.44
632.679	13.34
633.011	13.33
633.342	13.31
633.674	13.64
634.005	13.43
634.336	13.49
634.668	13.87
634.999	13.44
635.33	13.2
635.661	13.97
635.992	13.53
636.323	13.83
636.654	13.99
636.985	13.71
637.316	13.63
637.647	14.04
637.977	13.6
638.308	14
638.639	13.99
638.969	13.76
639.3	14.07
639.63	13.85
639.961	13.93
640.291	14.53
640.622	13.94
640.952	14.03
641.282	14.11
641.612	13.92
641.943	14.57
642.273	14.12
642.603	14.3
642.933	14.16
643.263	14.44
643.592	13.93
643.922	14.61
644.252	14.91
644.582	14.25
644.911	14.03
645.241	14.19
645.571	14.57
645.9	14.85
646.23	14.55
646.559	14.39
646.888	14.33
647.218	14.58
647.547	14.57
647.876	14.94
648.205	14.5
648.534	14.5
648.863	15.03
649.192	14.69
649.521	14.69
649.85	14.82
650.179	14.79
650.508	14.85
650.837	14.7
651.165	15
651.494	15.18
651.822	14.86
652.151	15.34
652.479	15.18
652.808	14.56
653.136	15.2
653.465	15.2
653.793	15.37
654.121	15.39
654.449	15.18
654.777	15.13
655.105	15.62
655.433	15.95
655.761	15.43
656.089	15.67
656.417	15.07
656.745	16.31
657.073	15.6
657.4	15.59
657.728	15.37
658.056	15.54
658.383	15.77
658.711	15.9
659.038	15.83
659.365	15.73
659.693	15.65
660.02	15.79
660.347	15.55
660.674	15.71
661.001	15.63
661.329	15.97
661.656	15.88
661.982	16.15
662.309	15.98
662.636	15.92
662.963	16.18
663.29	16.14
663.616	16.6
663.943	16.39
664.27	16.08
664.596	16.09
664.923	16.92
665.249	16.45
665.576	16.26
665.902	16.04
666.228	16.04
666.554	15.76
666.881	15.8
667.207	15.58
667.533	16.37
667.859	16.31
668.185	16.71
668.511	16.4
668.837	15.85
669.162	16.18
669.488	16.37
669.814	16.79
670.139	16.74
670.465	17.08
670.791	16.44
671.116	17.05
671.442	16.44
671.767	17.04
672.092	17.08
672.418	17.24
672.743	16.25
673.068	16.45
673.393	17.55
673.718	16.26
674.043	17.02
674.368	16.93
674.693	17.53
675.018	16.64
675.343	17.47
675.667	17.66
675.992	16.89
676.317	17.37
676.641	16.84
676.966	17.68
677.29	17.19
677.615	16.95
677.939	16.99
678.264	17.89
678.588	17.39
678.912	17.48
679.236	17.61
679.56	16.97
679.885	17.48
680.209	17.05
680.532	17.52
680.856	17.95
681.18	17.89
681.504	17.73
681.828	17.22
682.152	17.94
682.475	18.01
682.799	18.02
683.122	17.49
683.446	17.51
683.769	17.88
684.093	18.4
684.416	18.11
684.739	17.66
685.062	18
685.386	18
685.709	17.96
686.032	18.39
