Data from 0076_forehead_Reflection__4__374.txt Node

Date: Fri Dec 16 16:59:59 CST 2022
User: ToomeyLab
Spectrometer: FLMS14357
Trigger mode: 0
Integration Time (sec): 1.000000E-2
Scans to average: 100
Electric dark correction enabled: true
Nonlinearity correction enabled: false
Boxcar width: 0
XAxis mode: Wavelengths
Number of Pixels in Spectrum: 2048
>>>>>Begin Spectral Data<<<<<
189.047	31.98
189.435	31.98
189.823	31.98
190.211	22.04
190.599	-10.34
190.987	-46.03
191.375	-193.8
191.763	157.23
192.151	-22.88
192.538	832.77
192.926	101.39
193.314	221.96
193.702	125.53
194.089	77.16
194.477	33.96
194.864	-159.44
195.252	-31.57
195.639	44.97
196.027	92.76
196.414	1059.82
196.801	60.7
197.189	43.13
197.576	-154.6
197.963	489.55
198.351	42.39
198.738	10.26
199.125	61.68
199.512	1.94
199.899	4.86
200.286	5.55
200.673	14.51
201.06	46.94
201.447	26.57
201.833	30.2
202.22	27.94
202.607	10.14
202.994	53.77
203.38	-28.89
203.767	8.92
204.154	-9.33
204.54	36.06
204.927	26.9
205.313	19.27
205.699	9.4
206.086	-17.62
206.472	34.38
206.858	41.79
207.245	34.66
207.631	18.25
208.017	17.9
208.403	14.78
208.789	16.9
209.175	13.61
209.561	7.54
209.947	18.87
210.333	7.74
210.719	35.47
211.105	-8.65
211.491	-13.82
211.876	-22.34
212.262	-20.12
212.648	-23.19
213.034	9.25
213.419	13.99
213.805	2.82
214.19	6.19
214.576	16.66
214.961	30
215.346	-10.59
215.732	27.93
216.117	-19.84
216.502	-10.57
216.888	-7.89
217.273	39.45
217.658	-32.77
218.043	-25.42
218.428	21.24
218.813	-11.94
219.198	-83.19
219.583	24.01
219.968	-2.25
220.353	15.44
220.738	20.79
221.122	-6.41
221.507	16.27
221.892	-4.12
222.276	12.81
222.661	-9.75
223.046	-9.83
223.43	3.23
223.815	8.43
224.199	8.54
224.583	-2.95
224.968	10.21
225.352	-1.91
225.736	8.6
226.121	2.5
226.505	-5.72
226.889	8.51
227.273	4.37
227.657	6.61
228.041	9.77
228.425	3.57
228.809	0.34
229.193	0.68
229.577	2.49
229.961	2.36
230.344	3.29
230.728	2.49
231.112	2.84
231.495	2.29
231.879	4.04
232.263	1.54
232.646	1.85
233.03	1.76
233.413	1.54
233.797	4.78
234.18	-0.51
234.563	1.75
234.946	2.91
235.33	2.56
235.713	1.79
236.096	2.86
236.479	2.17
236.862	2.84
237.245	3.36
237.628	4.1
238.011	3.28
238.394	6.22
238.777	2.1
239.16	0.8
239.543	1.5
239.925	3.05
240.308	3.01
240.691	2.17
241.073	3.03
241.456	2
241.838	3.61
242.221	3.16
242.603	3.3
242.986	3.96
243.368	2.66
243.75	3.14
244.133	3.24
244.515	3.41
244.897	3.12
245.279	1.94
245.661	2.94
246.043	3.44
246.425	3.16
246.807	2.96
247.189	3.16
247.571	3.27
247.953	2.91
248.335	3.32
248.717	3.28
249.098	3.37
249.48	2.98
249.862	3.43
250.243	3.11
250.625	3.43
251.006	3.46
251.388	3.21
251.769	2.88
252.151	2.56
252.532	2.45
252.913	2.56
253.295	3.49
253.676	3.3
254.057	3.07
254.438	3.25
254.819	3.35
255.2	3.18
255.581	2.43
255.962	2.92
256.343	4.03
256.724	3.28
257.105	3.57
257.486	3.89
257.867	2.74
258.247	3.66
258.628	3.55
259.009	3.2
259.389	3.11
259.77	3.53
260.15	3.35
260.531	3.35
260.911	3.01
261.292	3.12
261.672	3.04
262.052	3.01
262.432	2.66
262.813	3.33
263.193	2.44
263.573	3.28
263.953	3.28
264.333	3.86
264.713	2.91
265.093	2.46
265.473	3.67
265.853	3.08
266.233	2.84
266.612	3.56
266.992	2.8
267.372	3.55
267.752	2.41
268.131	3.31
268.511	3.5
268.89	3.28
269.27	2.84
269.649	3.4
270.029	2.86
270.408	3.75
270.787	2.92
271.167	3.32
271.546	3.04
271.925	2.87
272.304	3.56
272.683	3.37
273.062	3.44
273.441	3.17
273.82	3.36
274.199	3.27
274.578	2.83
274.957	3.53
275.336	3.32
275.715	3.77
276.093	3.81
276.472	3.47
276.851	4
277.229	3.99
277.608	2.81
277.986	3.26
278.365	2.99
278.743	3.13
279.122	2.71
279.5	2.81
279.878	2.74
280.257	2.78
280.635	2.82
281.013	3.96
281.391	3.69
281.769	3
282.147	3.32
282.525	2.58
282.903	3.56
283.281	3.27
283.659	3.22
284.037	3.04
284.415	3.39
284.792	3.04
285.17	3.01
285.548	2.97
285.925	2.77
286.303	2.75
286.68	3.53
287.058	3.2
287.435	2.93
287.813	3.19
288.19	3.62
288.567	2.94
288.945	3.34
289.322	2.84
289.699	3.3
290.076	3.55
290.453	3.06
290.83	3.55
291.207	3.33
291.584	3.36
291.961	3.73
292.338	3.49
292.715	3.78
293.092	2.84
293.469	3.94
293.845	4.12
294.222	3.58
294.599	3.81
294.975	4.11
295.352	3.16
295.728	3.71
296.105	3.42
296.481	3.94
296.858	3.96
297.234	3.5
297.61	3.86
297.986	3.63
298.363	3.55
298.739	3.92
299.115	3.13
299.491	3.79
299.867	3.81
300.243	3.82
300.619	3.6
300.995	3.79
301.371	4.63
301.746	3.63
302.122	3.69
302.498	4.16
302.874	4.12
303.249	4.19
303.625	4.3
304	4.12
304.376	4.07
304.751	3.98
305.127	3.7
305.502	4.37
305.878	3.89
306.253	3.93
306.628	4.05
307.003	4.04
307.378	3.8
307.754	4.29
308.129	4.26
308.504	4.58
308.879	4.22
309.254	4.43
309.629	4.28
310.003	4.42
310.378	4.74
310.753	4.92
311.128	4.5
311.502	4.16
311.877	4.28
312.252	4.73
312.626	4.18
313.001	4.39
313.375	4.57
313.75	4.37
314.124	5.07
314.498	3.99
314.873	4.84
315.247	4.68
315.621	5.08
315.995	4.75
316.369	4.86
316.743	4.65
317.117	4.94
317.491	4.86
317.865	4.37
318.239	5.16
318.613	5.07
318.987	4.76
319.361	4.76
319.734	5.14
320.108	5.02
320.482	5.53
320.855	5.04
321.229	5.62
321.602	5.31
321.976	4.89
322.349	4.51
322.723	4.44
323.096	4.72
323.469	4.89
323.843	5.01
324.216	4.96
324.589	5.85
324.962	5.33
325.335	5.37
325.708	5.7
326.081	6.38
326.454	5.44
326.827	5.5
327.2	6.01
327.573	5.57
327.945	5.42
328.318	5.84
328.691	5.76
329.063	5.74
329.436	5.56
329.809	5.67
330.181	5.68
330.553	5.82
330.926	5.97
331.298	5.84
331.671	5.63
332.043	6.33
332.415	6.29
332.787	6.52
333.159	5.83
333.532	5.85
333.904	5.83
334.276	5.81
334.648	5.65
335.02	6.12
335.391	6.6
335.763	6.07
336.135	5.89
336.507	6.43
336.879	5.83
337.25	6.62
337.622	6.8
337.993	6.46
338.365	6.67
338.736	6.86
339.108	5.87
339.479	6.14
339.851	6.72
340.222	6.59
340.593	6.18
340.964	5.84
341.336	5.9
341.707	6.59
342.078	6.47
342.449	6.78
342.82	6.49
343.191	6.07
343.562	6.58
343.933	6.69
344.303	6.96
344.674	6.58
345.045	6.92
345.416	6.34
345.786	6.13
346.157	6.45
346.527	6.61
346.898	6.43
347.268	6.32
347.639	6.78
348.009	6.77
348.38	6.73
348.75	7.06
349.12	6.83
349.49	6.59
349.861	7.31
350.231	7.16
350.601	6.77
350.971	6.68
351.341	7.28
351.711	7.02
352.081	7.16
352.45	7.39
352.82	7.21
353.19	6.9
353.56	7.15
353.929	7.51
354.299	7.32
354.669	7.17
355.038	7.53
355.408	7.35
355.777	7.14
356.147	7.55
356.516	7.65
356.885	6.8
357.254	7.6
357.624	7.36
357.993	7.43
358.362	7.59
358.731	7.14
359.1	7.62
359.469	7.86
359.838	7.72
360.207	7.43
360.576	7.71
360.945	7.66
361.314	7.56
361.682	7.57
362.051	7.75
362.42	7.73
362.788	7.63
363.157	7.64
363.525	7.56
363.894	7.58
364.262	7.84
364.631	8.54
364.999	7.66
365.367	7.99
365.735	7.67
366.104	7.87
366.472	8.32
366.84	7.97
367.208	7.78
367.576	8.05
367.944	8.27
368.312	7.84
368.68	8.05
369.048	8.43
369.416	8.34
369.783	8.03
370.151	8.47
370.519	8.21
370.886	8.09
371.254	8.3
371.621	8.08
371.989	8.47
372.356	8.54
372.724	8.42
373.091	8.57
373.458	8.29
373.826	8.49
374.193	8.95
374.56	8.34
374.927	8.56
375.294	8.91
375.661	8.58
376.028	8.59
376.395	8.47
376.762	9.12
377.129	8.71
377.496	8.63
377.863	8.91
378.229	8.42
378.596	8.65
378.963	8.66
379.329	8.53
379.696	8.91
380.062	9.2
380.429	9.26
380.795	8.62
381.161	9.05
381.528	8.54
381.894	9.18
382.26	8.74
382.626	9.05
382.993	8.75
383.359	9
383.725	9.38
384.091	9.15
384.457	9.22
384.823	9.46
385.188	9.24
385.554	9.31
385.92	9.21
386.286	9.72
386.651	9.48
387.017	9.39
387.383	9.39
387.748	9.17
388.114	9.53
388.479	9.3
388.845	9.59
389.21	9.65
389.575	9.58
389.94	9.51
390.306	9.61
390.671	9.74
391.036	9.66
391.401	9.98
391.766	9.73
392.131	9.74
392.496	9.67
392.861	9.56
393.226	9.77
393.591	9.95
393.956	9.78
394.32	10.04
394.685	10.15
395.05	9.62
395.414	9.8
395.779	9.89
396.143	10.04
396.508	10.17
396.872	10.17
397.236	9.79
397.601	10.2
397.965	9.93
398.329	10.19
398.694	9.74
399.058	10.24
399.422	9.89
399.786	9.89
400.15	10.2
400.514	10.23
400.878	10.24
401.242	10.4
401.605	10.18
401.969	10.3
402.333	10.28
402.697	10.68
403.06	10.38
403.424	9.98
403.787	10.35
404.151	10.3
404.514	10.16
404.878	10.43
405.241	10.35
405.604	10.47
405.968	10.39
406.331	10.25
406.694	10.4
407.057	10.61
407.42	10.54
407.783	10.48
408.146	10.6
408.509	10.46
408.872	10.37
409.235	10.71
409.598	10.91
409.961	10.59
410.323	10.5
410.686	10.79
411.049	10.43
411.411	10.83
411.774	10.41
412.136	10.83
412.499	10.85
412.861	10.63
413.223	10.9
413.586	10.55
413.948	10.8
414.31	11.08
414.672	10.81
415.035	10.93
415.397	10.75
415.759	10.86
416.121	11.11
416.483	10.9
416.845	10.8
417.206	10.86
417.568	11.01
417.93	10.94
418.292	10.92
418.653	10.99
419.015	11.06
419.377	11
419.738	10.73
420.1	10.86
420.461	10.79
420.822	10.99
421.184	11.05
421.545	11.04
421.906	11.08
422.267	10.91
422.629	10.97
422.99	11.05
423.351	11.18
423.712	11.15
424.073	11.28
424.434	11.05
424.795	11.18
425.155	11.22
425.516	11.22
425.877	11.33
426.238	11.35
426.598	11.46
426.959	11.38
427.32	11.54
427.68	11.66
428.041	11.75
428.401	11.76
428.761	11.68
429.122	11.68
429.482	11.94
429.842	12.11
430.202	11.95
430.563	11.99
430.923	12.12
431.283	12.21
431.643	12.21
432.003	12.28
432.363	12.14
432.722	12.3
433.082	12.41
433.442	12.13
433.802	12.17
434.161	12.16
434.521	12.3
434.881	12.43
435.24	12.21
435.6	12.36
435.959	12.36
436.319	12.44
436.678	12.68
437.037	12.69
437.396	12.73
437.756	12.84
438.115	12.66
438.474	12.94
438.833	12.82
439.192	12.9
439.551	12.94
439.91	12.88
440.269	13.03
440.628	12.83
440.987	12.8
441.345	12.86
441.704	12.92
442.063	12.96
442.421	12.96
442.78	13.11
443.138	13.21
443.497	13.03
443.855	13.08
444.214	13.39
444.572	13.29
444.93	13.4
445.288	13.43
445.647	13.54
446.005	13.32
446.363	13.46
446.721	13.25
447.079	13.47
447.437	13.42
447.795	13.29
448.153	13.48
448.51	13.45
448.868	13.59
449.226	13.76
449.584	13.8
449.941	13.91
450.299	13.81
450.656	13.85
451.014	13.95
451.371	14.03
451.729	14.13
452.086	14.17
452.443	14.09
452.801	14.36
453.158	14.25
453.515	14.01
453.872	14.34
454.229	14.21
454.586	14.39
454.943	14.39
455.3	14.56
455.657	14.59
456.014	14.55
456.371	14.64
456.727	14.49
457.084	14.73
457.441	14.56
457.797	14.67
458.154	14.93
458.51	14.74
458.867	14.86
459.223	14.99
459.58	14.75
459.936	14.76
460.292	15.03
460.648	14.76
461.005	14.69
461.361	14.79
461.717	14.87
462.073	15.1
462.429	15.03
462.785	15.13
463.141	15.56
463.496	15.31
463.852	15.62
464.208	15.34
464.564	15.44
464.919	15.41
465.275	15.61
465.631	15.59
465.986	15.56
466.342	15.58
466.697	15.69
467.052	15.8
467.408	15.84
467.763	15.72
468.118	15.79
468.473	15.9
468.829	15.82
469.184	15.9
469.539	16.08
469.894	16.02
470.249	16.05
470.603	16.32
470.958	16.45
471.313	16.32
471.668	16.45
472.023	16.3
472.377	16.2
472.732	16.35
473.086	16.07
473.441	16.19
473.795	16.59
474.15	16.36
474.504	16.39
474.859	16.48
475.213	16.57
475.567	16.69
475.921	16.74
476.275	16.86
476.63	16.64
476.984	16.57
477.338	16.84
477.692	16.69
478.045	16.67
478.399	16.79
478.753	16.75
479.107	16.91
479.461	16.84
479.814	16.93
480.168	17.09
480.521	16.99
480.875	17.19
481.228	17.25
481.582	17.15
481.935	17.09
482.289	17.08
482.642	17.2
482.995	17.2
483.348	17.22
483.701	17.03
484.055	17.03
484.408	16.82
484.761	16.45
485.114	16.36
485.466	16.31
485.819	16.55
486.172	16.71
486.525	16.91
486.878	17
487.23	17.03
487.583	17.32
487.936	17.19
488.288	16.99
488.641	16.86
488.993	16.88
489.345	16.91
489.698	17.13
490.05	17.19
490.402	17.37
490.754	17.62
491.107	17.67
491.459	17.84
491.811	17.84
492.163	17.76
492.515	17.53
492.866	17.29
493.218	17.3
493.57	17.47
493.922	17.78
494.274	18
494.625	18.11
494.977	18.37
495.328	18.48
495.68	18.55
496.031	18.53
496.383	18.52
496.734	18.64
497.086	18.45
497.437	18.79
497.788	18.61
498.139	18.6
498.49	18.57
498.842	18.59
499.193	18.61
499.544	18.79
499.894	18.98
500.245	18.79
500.596	18.9
500.947	18.98
501.298	19.09
501.648	19.02
501.999	19.12
502.35	19.24
502.7	19.23
503.051	19.43
503.401	19.49
503.752	19.26
504.102	19.52
504.452	19.29
504.803	19.28
505.153	19.54
505.503	19.53
505.853	19.45
506.203	19.59
506.553	19.55
506.903	19.43
507.253	19.71
507.603	19.69
507.953	19.8
508.303	19.87
508.652	19.73
509.002	19.76
509.352	19.9
509.701	19.55
510.051	19.76
510.4	19.76
510.75	19.64
511.099	19.78
511.449	19.87
511.798	19.95
512.147	19.91
512.496	19.99
512.846	20.06
513.195	20.14
513.544	19.95
513.893	19.95
514.242	20.28
514.591	20.24
514.939	20.17
515.288	20.31
515.637	20.4
515.986	20.38
516.334	20.4
516.683	20.51
517.032	20.53
517.38	20.64
517.729	20.5
518.077	20.54
518.426	20.43
518.774	20.49
519.122	20.35
519.47	20.37
519.819	20.32
520.167	20.34
520.515	20.21
520.863	20.5
521.211	20.48
521.559	20.61
521.907	20.61
522.255	20.91
522.602	21
522.95	20.93
523.298	20.97
523.645	20.94
523.993	21.09
524.341	21.24
524.688	21.13
525.036	21.32
525.383	21.11
525.73	21.22
526.078	21.19
526.425	20.97
526.772	20.72
527.119	20.79
527.466	20.78
527.814	20.81
528.161	20.99
528.508	20.87
528.854	20.87
529.201	20.76
529.548	20.51
529.895	20.23
530.242	20.33
530.588	20.55
530.935	20.66
531.282	20.87
531.628	21.04
531.975	21.18
532.321	21.3
532.667	21.35
533.014	21.37
533.36	21.44
533.706	21.31
534.052	21.26
534.399	20.97
534.745	20.87
535.091	21.07
535.437	21.31
535.783	21.41
536.129	21.6
536.474	21.69
536.82	21.76
537.166	21.66
537.512	21.79
537.857	21.67
538.203	21.62
538.549	21.77
538.894	21.76
539.239	22.03
539.585	22.14
539.93	22.13
540.276	22.27
540.621	22.21
540.966	22.24
541.311	22.22
541.656	22.03
542.001	22.03
542.346	21.71
542.691	21.53
543.036	21.5
543.381	21.79
543.726	21.89
544.071	21.96
544.415	22.11
544.76	22.13
545.105	22.26
545.449	22.33
545.794	22.56
546.138	22.77
546.483	22.55
546.827	22.94
547.171	22.83
547.516	22.83
547.86	22.75
548.204	22.57
548.548	22.76
548.892	22.94
549.236	23.02
549.58	23.05
549.924	23.21
550.268	23.24
550.612	23.44
550.956	23.28
551.3	23.53
551.643	23.57
551.987	23.55
552.33	23.55
552.674	23.6
553.017	23.63
553.361	23.52
553.704	23.39
554.048	23.58
554.391	23.45
554.734	23.52
555.077	23.5
555.42	23.59
555.764	23.72
556.107	23.81
556.45	23.88
556.793	24.07
557.135	24.14
557.478	24.31
557.821	24.04
558.164	23.97
558.507	24.13
558.849	24.1
559.192	24.2
559.534	24.23
559.877	24.32
560.219	24.51
560.562	24.3
560.904	24.41
561.246	24.51
561.589	24.37
561.931	24.56
562.273	24.42
562.615	24.41
562.957	24.44
563.299	24.73
563.641	24.51
563.983	24.58
564.325	24.44
564.667	24.88
565.008	24.82
565.35	24.96
565.692	24.82
566.033	24.89
566.375	24.75
566.716	24.82
567.058	24.94
567.399	24.79
567.741	24.75
568.082	24.75
568.423	24.61
568.764	24.84
569.105	25.01
569.447	25.06
569.788	25.09
570.129	25.03
570.47	25
570.811	25.23
571.151	25.1
571.492	25.16
571.833	25.21
572.174	25.14
572.514	24.99
572.855	25.44
573.195	25.13
573.536	25.11
573.876	25.1
574.217	25.14
574.557	25.3
574.898	25.12
575.238	25.49
575.578	25.39
575.918	25.4
576.258	25.42
576.598	25.34
576.938	25.59
577.278	25.59
577.618	25.56
577.958	25.85
578.298	25.94
578.638	25.85
578.977	25.84
579.317	25.75
579.657	25.7
579.996	25.85
580.336	25.8
580.675	26.21
581.014	26.08
581.354	26.08
581.693	26.15
582.032	26
582.372	26.26
582.711	26.33
583.05	26.16
583.389	26.42
583.728	26.4
584.067	26.4
584.406	26.57
584.745	26.16
585.083	26.68
585.422	26.57
585.761	26.65
586.1	26.61
586.438	26.68
586.777	26.65
587.115	26.75
587.454	26.67
587.792	26.38
588.13	27.05
588.469	26.8
588.807	26.93
589.145	26.73
589.483	26.53
589.821	26.91
590.159	26.68
590.497	26.44
590.835	26.64
591.173	27.05
591.511	26.64
591.849	27.05
592.187	26.93
592.524	26.88
592.862	27.05
593.2	27.2
593.537	27.06
593.875	27.12
594.212	27.45
594.55	26.99
594.887	27.21
595.224	27.14
595.561	27
595.899	27.31
596.236	27.6
596.573	27.41
596.91	27.63
597.247	27.26
597.584	27.42
597.921	27.07
598.258	27.25
598.594	26.82
598.931	27.31
599.268	27.25
599.604	27.55
599.941	27.4
600.277	27.28
600.614	27.93
600.95	27.79
601.287	27.69
601.623	27.67
601.959	27.67
602.296	27.87
602.632	27.88
602.968	27.83
603.304	27.86
603.64	27.73
603.976	27.81
604.312	27.7
604.648	27.82
604.984	27.86
605.319	27.85
605.655	27.82
605.991	27.82
606.326	27.61
606.662	27.72
606.998	27.85
607.333	27.86
607.668	28.01
608.004	28.4
608.339	28.21
608.674	28.35
609.01	28.38
609.345	28.55
609.68	28.13
610.015	28.02
610.35	28.04
610.685	27.97
611.02	28.28
611.355	28.22
611.689	28.26
612.024	28.52
612.359	28.74
612.694	28.61
613.028	28.88
613.363	28.69
613.697	28.92
614.032	29.04
614.366	28.83
614.7	29.31
615.035	28.82
615.369	28.77
615.703	29.27
616.037	28.79
616.371	29.06
616.705	28.95
617.039	29.63
617.373	29.03
617.707	28.95
618.041	29.44
618.375	29.07
618.709	29.1
619.042	29.2
619.376	29.31
619.71	29.1
620.043	29.46
620.377	29.43
620.71	29.36
621.043	29.17
621.377	29.27
621.71	29.58
622.043	29.53
622.376	29.59
622.709	29.56
623.043	29.65
623.376	29.82
623.709	29.98
624.041	29.64
624.374	29.57
624.707	29.88
625.04	30.03
625.373	29.89
625.705	29.87
626.038	29.78
626.37	30
626.703	29.46
627.035	29.76
627.368	29.72
627.7	30.03
628.032	29.89
628.365	29.48
628.697	29.95
629.029	29.93
629.361	29.96
629.693	30.43
630.025	30.18
630.357	30.1
630.689	30.38
631.021	30.15
631.353	30.55
631.684	30.29
632.016	30.36
632.348	30.41
632.679	30.48
633.011	30.49
633.342	30.51
633.674	30.75
634.005	30.77
634.336	30.5
634.668	30.61
634.999	30.37
635.33	30.21
635.661	30.51
635.992	30.28
636.323	30.61
636.654	30.77
636.985	30.33
637.316	30.59
637.647	30.98
637.977	30.78
638.308	30.98
638.639	30.8
638.969	30.53
639.3	31.22
639.63	30.7
639.961	30.9
640.291	31.27
640.622	31.15
640.952	31.25
641.282	30.9
641.612	30.94
641.943	31.29
642.273	30.98
642.603	31.17
642.933	31.34
643.263	31.57
643.592	31.18
643.922	31.18
644.252	31.4
644.582	31.55
644.911	30.97
645.241	31.39
645.571	31.53
645.9	31.57
646.23	31.29
646.559	31.2
646.888	31.48
647.218	31.35
647.547	31.69
647.876	31.49
648.205	31.45
648.534	31.67
648.863	31.99
649.192	31.8
649.521	32.13
649.85	32.08
650.179	31.82
650.508	32.41
650.837	31.53
651.165	31.95
651.494	32.18
651.822	31.49
652.151	31.84
652.479	32.28
652.808	31.24
653.136	31.7
653.465	32.36
653.793	31.77
654.121	32.11
654.449	32.19
654.777	32.44
655.105	32.54
655.433	32.08
655.761	32.29
656.089	32.24
656.417	32.34
656.745	32.73
657.073	31.8
657.4	32.42
657.728	32.01
658.056	32.29
658.383	32.29
658.711	32.25
659.038	32.58
659.365	32.32
659.693	31.91
660.02	32.27
660.347	32.09
660.674	32.01
661.001	32.23
661.329	32.8
661.656	32.14
661.982	32.47
662.309	32.59
662.636	32.6
662.963	32.77
663.29	32.36
663.616	32.76
663.943	33.11
664.27	33.01
664.596	32.96
664.923	33.45
665.249	33.18
665.576	33.03
665.902	32.88
666.228	33.03
666.554	32.45
666.881	33.16
667.207	32.36
667.533	33.33
667.859	32.8
668.185	32.79
668.511	32.86
668.837	32.84
669.162	32.84
669.488	33.04
669.814	33.4
670.139	33.15
670.465	33.04
670.791	33.23
671.116	33.35
671.442	33.35
671.767	33.4
672.092	33.39
672.418	33.61
672.743	33.46
673.068	33.25
673.393	33.67
673.718	33.24
