Data from 0076_chest_Reflection__1__361.txt Node

Date: Fri Dec 16 16:55:42 CST 2022
User: ToomeyLab
Spectrometer: FLMS14357
Trigger mode: 0
Integration Time (sec): 1.000000E-2
Scans to average: 100
Electric dark correction enabled: true
Nonlinearity correction enabled: false
Boxcar width: 0
XAxis mode: Wavelengths
Number of Pixels in Spectrum: 2048
>>>>>Begin Spectral Data<<<<<
189.047	-56.29
189.435	-56.29
189.823	-56.29
190.211	55.7
190.599	-41.05
190.987	50.67
191.375	-114.09
191.763	210.98
192.151	11.36
192.538	559.36
192.926	118.11
193.314	160.72
193.702	25.14
194.089	-34.11
194.477	32.58
194.864	48.11
195.252	204.68
195.639	124.07
196.027	54.7
196.414	-276.38
196.801	-381.55
197.189	135.26
197.576	87.7
197.963	-9.51
198.351	-102.94
198.738	-41.41
199.125	10.68
199.512	18.18
199.899	-113.56
200.286	-76.2
200.673	29.8
201.06	48.42
201.447	-19.75
201.833	6.12
202.22	-34.2
202.607	-13.86
202.994	-22.84
203.38	-93.7
203.767	-64.91
204.154	-92.39
204.54	8.02
204.927	26.82
205.313	23.05
205.699	-16.21
206.086	-24.66
206.472	-75.22
206.858	18.09
207.245	65.92
207.631	-44.22
208.017	12.71
208.403	38.15
208.789	-15.69
209.175	69.2
209.561	-121.31
209.947	0.1
210.333	-28.13
210.719	0.51
211.105	-28.33
211.491	-6.93
211.876	-14.95
212.262	-30.14
212.648	-69.03
213.034	-17.22
213.419	8.12
213.805	-9.38
214.19	-17.36
214.576	-19.22
214.961	7.4
215.346	6.69
215.732	-43.8
216.117	-4.18
216.502	4.36
216.888	-38.68
217.273	22.99
217.658	-11.46
218.043	-6.6
218.428	-23.23
218.813	12.42
219.198	-43.79
219.583	-27.8
219.968	-0.66
220.353	13.8
220.738	20.31
221.122	6.77
221.507	-10.03
221.892	-2.92
222.276	-0.68
222.661	-11.16
223.046	-0.03
223.43	-5.84
223.815	1.21
224.199	-3.83
224.583	3.94
224.968	-1.8
225.352	-10.24
225.736	4.13
226.121	-6.82
226.505	-5.15
226.889	2.84
227.273	5.12
227.657	-2.23
228.041	3.73
228.425	3.07
228.809	0.75
229.193	1.47
229.577	2.34
229.961	2.9
230.344	2.55
230.728	2.77
231.112	2.71
231.495	2.7
231.879	3.05
232.263	1.5
232.646	1.07
233.03	1.19
233.413	-0.18
233.797	5.72
234.18	1.84
234.563	0.9
234.946	3
235.33	3.51
235.713	4.24
236.096	1.85
236.479	3.92
236.862	4.16
237.245	3.39
237.628	4.3
238.011	2.6
238.394	4.65
238.777	3.57
239.16	1.95
239.543	0.32
239.925	3.67
240.308	3.47
240.691	2.04
241.073	3
241.456	1.55
241.838	3.18
242.221	2.97
242.603	3.41
242.986	4.27
243.368	3
243.75	2.71
244.133	2.75
244.515	2.93
244.897	2.87
245.279	2.26
245.661	3.1
246.043	2.29
246.425	2.62
246.807	2.84
247.189	2.97
247.571	3.22
247.953	2.74
248.335	3.19
248.717	3.17
249.098	3.26
249.48	3.09
249.862	3.03
250.243	2.65
250.625	3.07
251.006	3.57
251.388	3.84
251.769	2.56
252.151	3.08
252.532	3.29
252.913	3.11
253.295	2.86
253.676	3.35
254.057	2.66
254.438	2.48
254.819	2.48
255.2	2.97
255.581	2.37
255.962	2.61
256.343	3.84
256.724	2.16
257.105	2.8
257.486	3.34
257.867	1.56
258.247	2.75
258.628	3
259.009	3.08
259.389	3.53
259.77	2.69
260.15	3.15
260.531	3.26
260.911	2.94
261.292	2.99
261.672	2.87
262.052	2.77
262.432	2.71
262.813	2.55
263.193	2.62
263.573	3.41
263.953	2.7
264.333	2.72
264.713	2.81
265.093	2.79
265.473	3.58
265.853	2.61
266.233	2.53
266.612	3.06
266.992	2.22
267.372	2.36
267.752	2.94
268.131	2.99
268.511	3.29
268.89	3.11
269.27	3.23
269.649	3.34
270.029	2.42
270.408	2.36
270.787	2.95
271.167	3.07
271.546	2.54
271.925	2.76
272.304	3.03
272.683	2.6
273.062	3.02
273.441	3
273.82	3.04
274.199	3
274.578	2.78
274.957	2.48
275.336	2.63
275.715	3.35
276.093	3.62
276.472	2.57
276.851	3.01
277.229	3.38
277.608	2.23
277.986	3.01
278.365	2.51
278.743	2.95
279.122	2.22
279.5	2.13
279.878	1.99
280.257	2.54
280.635	2.53
281.013	3.57
281.391	2.91
281.769	2.25
282.147	3.01
282.525	2.21
282.903	2.64
283.281	2.95
283.659	3.07
284.037	2.8
284.415	3.25
284.792	2.9
285.17	2.68
285.548	2.88
285.925	3.09
286.303	2.68
286.68	2.94
287.058	2.55
287.435	2.83
287.813	2.9
288.19	3.01
288.567	2.78
288.945	2.37
289.322	2.31
289.699	2.23
290.076	2.95
290.453	2.56
290.83	2.82
291.207	2.81
291.584	2.29
291.961	2.83
292.338	2.76
292.715	2.96
293.092	2.75
293.469	3.06
293.845	3.19
294.222	2.68
294.599	3.19
294.975	3.3
295.352	2.36
295.728	2.91
296.105	2.81
296.481	3.29
296.858	2.74
297.234	2.79
297.61	2.91
297.986	3.05
298.363	2.62
298.739	2.94
299.115	2.57
299.491	2.96
299.867	3.11
300.243	2.61
300.619	2.96
300.995	2.81
301.371	3.04
301.746	2.62
302.122	2.58
302.498	3.35
302.874	3.23
303.249	2.77
303.625	2.42
304	2.63
304.376	2.87
304.751	3.17
305.127	2.89
305.502	3.37
305.878	2.91
306.253	2.56
306.628	3.07
307.003	2.75
307.378	2.47
307.754	2.96
308.129	2.39
308.504	2.44
308.879	2.97
309.254	3.05
309.629	2.92
310.003	3.42
310.378	3.31
310.753	2.94
311.128	2.9
311.502	2.72
311.877	3.26
312.252	3.13
312.626	2.77
313.001	3
313.375	3.06
313.75	2.77
314.124	3.6
314.498	2.71
314.873	2.7
315.247	2.38
315.621	3.47
315.995	3.09
316.369	3.46
316.743	3.23
317.117	3.36
317.491	2.65
317.865	2.51
318.239	3.47
318.613	2.89
318.987	3.15
319.361	3.14
319.734	3.12
320.108	3.2
320.482	3.02
320.855	3.42
321.229	3.48
321.602	2.82
321.976	2.82
322.349	2.41
322.723	2.82
323.096	2.66
323.469	2.7
323.843	3
324.216	2.81
324.589	3.1
324.962	3.04
325.335	2.88
325.708	3.46
326.081	3.44
326.454	2.99
326.827	3.05
327.2	3.36
327.573	3.3
327.945	3.2
328.318	3.47
328.691	2.95
329.063	2.44
329.436	2.83
329.809	2.6
330.181	2.93
330.553	3.26
330.926	3.11
331.298	2.3
331.671	2.94
332.043	2.74
332.415	3.23
332.787	3.42
333.159	2.9
333.532	3.32
333.904	2.93
334.276	3.4
334.648	3.07
335.02	2.66
335.391	3.38
335.763	3.1
336.135	3.49
336.507	3.19
336.879	3.55
337.25	3.26
337.622	3.21
337.993	3.07
338.365	3.28
338.736	3.18
339.108	2.61
339.479	3.34
339.851	3.5
340.222	2.66
340.593	2.79
340.964	2.75
341.336	2.87
341.707	2.7
342.078	2.36
342.449	3.23
342.82	2.91
343.191	2.83
343.562	3.14
343.933	3.51
344.303	3.26
344.674	3.22
345.045	3.2
345.416	2.93
345.786	2.66
346.157	3.2
346.527	3.08
346.898	2.94
347.268	3.14
347.639	3.21
348.009	3.45
348.38	3.39
348.75	2.63
349.12	3
349.49	3.05
349.861	3.26
350.231	3.84
350.601	3.22
350.971	2.95
351.341	3.59
351.711	2.93
352.081	2.85
352.45	3.31
352.82	3.42
353.19	3.06
353.56	3.19
353.929	3.62
354.299	3.35
354.669	3.21
355.038	3.33
355.408	3.65
355.777	3.03
356.147	3.55
356.516	3.39
356.885	3.33
357.254	3.45
357.624	3.46
357.993	3.01
358.362	3.19
358.731	3.02
359.1	3.45
359.469	3.55
359.838	3.07
360.207	3.03
360.576	3.32
360.945	2.83
361.314	3.41
361.682	2.94
362.051	3.25
362.42	3.37
362.788	3.38
363.157	3.23
363.525	3.18
363.894	3.24
364.262	3.12
364.631	4.07
364.999	3.23
365.367	3.62
365.735	2.96
366.104	2.95
366.472	3.41
366.84	3.65
367.208	3.08
367.576	3.31
367.944	3.54
368.312	3.07
368.68	3.28
369.048	3.29
369.416	3.35
369.783	3.16
370.151	3.33
370.519	2.86
370.886	3.39
371.254	3.5
371.621	3.23
371.989	3.32
372.356	3.09
372.724	3.09
373.091	3.23
373.458	3.2
373.826	2.94
374.193	3.95
374.56	3.25
374.927	3.35
375.294	3.4
375.661	3.26
376.028	3.6
376.395	3.11
376.762	3.4
377.129	3.76
377.496	3.47
377.863	3.43
378.229	3.12
378.596	3.29
378.963	3.14
379.329	3.26
379.696	3.4
380.062	3.57
380.429	3.24
380.795	3.11
381.161	3.71
381.528	2.78
381.894	3.39
382.26	3.21
382.626	3
382.993	3.26
383.359	3.28
383.725	3.51
384.091	3.46
384.457	3.46
384.823	3.66
385.188	3.47
385.554	3.62
385.92	3.52
386.286	3.76
386.651	3.62
387.017	3.38
387.383	3.41
387.748	3.3
388.114	3.42
388.479	3.57
388.845	3.57
389.21	3.47
389.575	3.53
389.94	3.37
390.306	3.33
390.671	3.51
391.036	3.7
391.401	3.92
391.766	3.58
392.131	3.57
392.496	3.38
392.861	3.16
393.226	3.44
393.591	3.61
393.956	3.42
394.32	3.3
394.685	3.76
395.05	3.56
395.414	3.32
395.779	3.43
396.143	3.58
396.508	3.49
396.872	3.59
397.236	3.04
397.601	3.82
397.965	3.13
398.329	3.68
398.694	3.42
399.058	3.49
399.422	3.57
399.786	3.5
400.15	3.51
400.514	3.85
400.878	3.54
401.242	3.51
401.605	3.51
401.969	3.34
402.333	3.54
402.697	3.53
403.06	3.63
403.424	3.48
403.787	3.79
404.151	3.27
404.514	3.58
404.878	3.59
405.241	3.54
405.604	3.76
405.968	3.65
406.331	3.59
406.694	3.59
407.057	4.04
407.42	3.63
407.783	3.44
408.146	3.54
408.509	3.25
408.872	3.52
409.235	3.57
409.598	3.72
409.961	3.5
410.323	3.79
410.686	3.54
411.049	3.55
411.411	3.59
411.774	3.53
412.136	3.53
412.499	3.49
412.861	3.44
413.223	3.73
413.586	3.25
413.948	3.57
414.31	3.75
414.672	3.67
415.035	3.72
415.397	3.76
415.759	3.51
416.121	3.66
416.483	3.79
416.845	3.56
417.206	3.74
417.568	3.63
417.93	3.67
418.292	3.59
418.653	3.85
419.015	3.75
419.377	3.7
419.738	3.53
420.1	3.66
420.461	3.53
420.822	3.73
421.184	3.74
421.545	3.76
421.906	3.64
422.267	3.62
422.629	3.71
422.99	3.71
423.351	3.61
423.712	3.69
424.073	3.76
424.434	3.62
424.795	3.58
425.155	3.65
425.516	3.62
425.877	3.71
426.238	3.54
426.598	3.73
426.959	3.67
427.32	3.74
427.68	3.73
428.041	3.72
428.401	3.81
428.761	3.73
429.122	3.68
429.482	3.75
429.842	3.81
430.202	3.82
430.563	3.89
430.923	3.73
431.283	3.91
431.643	3.68
432.003	3.76
432.363	3.82
432.722	3.69
433.082	3.85
433.442	3.86
433.802	3.76
434.161	3.68
434.521	3.77
434.881	3.83
435.24	3.5
435.6	3.77
435.959	3.86
436.319	3.7
436.678	3.86
437.037	3.9
437.396	3.87
437.756	3.75
438.115	3.79
438.474	3.99
438.833	3.94
439.192	3.88
439.551	4.04
439.91	3.94
440.269	3.93
440.628	3.77
440.987	3.73
441.345	3.78
441.704	3.97
442.063	3.78
442.421	3.83
442.78	3.7
443.138	3.72
443.497	3.75
443.855	3.86
444.214	3.85
444.572	3.86
444.93	3.74
445.288	3.83
445.647	4.05
446.005	3.73
446.363	4.02
446.721	3.73
447.079	3.86
447.437	3.89
447.795	3.84
448.153	3.81
448.51	3.81
448.868	3.9
449.226	3.86
449.584	3.89
449.941	3.95
450.299	3.86
450.656	3.9
451.014	3.99
451.371	3.97
451.729	4.01
452.086	3.79
452.443	3.76
452.801	3.96
453.158	3.86
453.515	3.89
453.872	3.99
454.229	3.87
454.586	3.92
454.943	3.92
455.3	3.99
455.657	3.9
456.014	3.94
456.371	3.87
456.727	3.86
457.084	3.79
457.441	3.97
457.797	4.02
458.154	3.88
458.51	4.03
458.867	4
459.223	3.94
459.58	3.89
459.936	4
460.292	3.94
460.648	3.91
461.005	3.98
461.361	3.97
461.717	3.94
462.073	4.03
462.429	4.1
462.785	3.96
463.141	4.04
463.496	4.04
463.852	4.02
464.208	3.94
464.564	3.89
464.919	4.02
465.275	4.11
465.631	4.04
465.986	3.74
466.342	4.06
466.697	4.07
467.052	4.04
467.408	4.03
467.763	3.9
468.118	4.04
468.473	4.15
468.829	4.12
469.184	4.24
469.539	4.05
469.894	4.16
470.249	4.11
470.603	4.15
470.958	4.17
471.313	4.15
471.668	4.16
472.023	4.31
472.377	4.14
472.732	4.12
473.086	3.92
473.441	4.21
473.795	4.36
474.15	4.11
474.504	4.17
474.859	4.09
475.213	4.1
475.567	4.17
475.921	4.39
476.275	4.26
476.63	3.97
476.984	4.1
477.338	4.33
477.692	4.15
478.045	4.09
478.399	4.14
478.753	4.06
479.107	4.02
479.461	4.23
479.814	4.21
480.168	4.31
480.521	4.18
480.875	4.22
481.228	4.34
481.582	4.1
481.935	4.14
482.289	4.23
482.642	4.18
482.995	4.25
483.348	4.22
483.701	4.25
484.055	4.13
484.408	4.15
484.761	4.01
485.114	4.03
485.466	4
485.819	3.98
486.172	4.04
486.525	4.11
486.878	4.14
487.23	4.14
487.583	4.17
487.936	4.16
488.288	4.17
488.641	4.17
488.993	4.06
489.345	4.08
489.698	4.19
490.05	4.15
490.402	4.25
490.754	4.24
491.107	4.23
491.459	4.26
491.811	4.33
492.163	4.31
492.515	4.34
492.866	4.15
493.218	4.16
493.57	4.19
493.922	4.13
494.274	4.25
494.625	4.33
494.977	4.4
495.328	4.4
495.68	4.54
496.031	4.47
496.383	4.32
496.734	4.44
497.086	4.43
497.437	4.44
497.788	4.37
498.139	4.38
498.49	4.5
498.842	4.49
499.193	4.35
499.544	4.54
499.894	4.45
500.245	4.55
500.596	4.42
500.947	4.44
501.298	4.35
501.648	4.51
501.999	4.62
502.35	4.56
502.7	4.52
503.051	4.56
503.401	4.52
503.752	4.47
504.102	4.38
504.452	4.54
504.803	4.52
505.153	4.67
505.503	4.58
505.853	4.57
506.203	4.55
506.553	4.61
506.903	4.54
507.253	4.54
507.603	4.56
507.953	4.75
508.303	4.64
508.652	4.67
509.002	4.63
509.352	4.61
509.701	4.59
510.051	4.62
510.4	4.7
510.75	4.74
511.099	4.64
511.449	4.65
511.798	4.76
512.147	4.6
512.496	4.67
512.846	4.67
513.195	4.72
513.544	4.71
513.893	4.59
514.242	4.77
514.591	4.77
514.939	4.68
515.288	4.8
515.637	4.84
515.986	4.74
516.334	4.78
516.683	4.83
517.032	4.72
517.38	4.76
517.729	4.78
518.077	4.82
518.426	4.75
518.774	4.81
519.122	4.86
519.47	4.76
519.819	4.76
520.167	4.87
520.515	4.75
520.863	4.8
521.211	4.73
521.559	4.84
521.907	4.83
522.255	4.94
522.602	4.86
522.95	4.97
523.298	4.92
523.645	4.89
523.993	5.05
524.341	5.01
524.688	5.1
525.036	5.09
525.383	5.07
525.73	5.02
526.078	5.03
526.425	5.05
526.772	4.96
527.119	4.97
527.466	5.01
527.814	4.97
528.161	5
528.508	5
528.854	4.92
529.201	4.96
529.548	4.91
529.895	4.86
530.242	4.86
530.588	4.9
530.935	4.92
531.282	4.93
531.628	4.97
531.975	5.01
532.321	5.03
532.667	5.05
533.014	5.12
533.36	5.21
533.706	5.13
534.052	5.09
534.399	5.07
534.745	5.03
535.091	5.07
535.437	5.13
535.783	5.12
536.129	5.08
536.474	5.16
536.82	5.13
537.166	5.26
537.512	5.26
537.857	5.23
538.203	5.28
538.549	5.33
538.894	5.21
539.239	5.43
539.585	5.28
539.93	5.38
540.276	5.34
540.621	5.36
540.966	5.41
541.311	5.43
541.656	5.29
542.001	5.42
542.346	5.34
542.691	5.35
543.036	5.29
543.381	5.35
543.726	5.39
544.071	5.33
544.415	5.4
544.76	5.36
545.105	5.46
545.449	5.52
545.794	5.37
546.138	5.61
546.483	5.55
546.827	5.73
547.171	5.57
547.516	5.69
547.86	5.67
548.204	5.56
548.548	5.77
548.892	5.66
549.236	5.76
549.58	5.69
549.924	5.84
550.268	5.88
550.612	5.91
550.956	5.87
551.3	5.87
551.643	5.79
551.987	5.8
552.33	5.87
552.674	5.88
553.017	5.91
553.361	5.83
553.704	5.74
554.048	5.83
554.391	5.88
554.734	5.86
555.077	5.96
555.42	5.96
555.764	6.01
556.107	6.12
556.45	5.93
556.793	6.27
557.135	6.2
557.478	6.23
557.821	6.07
558.164	6.11
558.507	6.01
558.849	6.01
559.192	6.2
559.534	6.15
559.877	6.44
560.219	6.45
560.562	6.27
560.904	6.17
561.246	6.49
561.589	6.37
561.931	6.6
562.273	6.35
562.615	6.33
562.957	6.37
563.299	6.42
563.641	6.47
563.983	6.31
564.325	6.21
564.667	6.64
565.008	6.49
565.35	6.59
565.692	6.65
566.033	6.38
566.375	6.28
566.716	6.61
567.058	6.71
567.399	6.55
567.741	6.74
568.082	6.45
568.423	6.62
568.764	6.74
569.105	6.7
569.447	6.6
569.788	6.88
570.129	6.83
570.47	6.62
570.811	6.89
571.151	6.78
571.492	7
571.833	7.02
572.174	6.86
572.514	6.82
572.855	7.07
573.195	6.83
573.536	6.79
573.876	6.8
574.217	6.99
574.557	7.14
574.898	6.88
575.238	6.85
575.578	7.12
575.918	6.97
576.258	7.15
576.598	7.05
576.938	7.16
577.278	7.08
577.618	7.24
577.958	7.13
578.298	7.32
578.638	7.27
578.977	7.23
579.317	7.33
579.657	7.39
579.996	7.38
580.336	7.19
580.675	7.41
581.014	7.24
581.354	7.47
581.693	7.47
582.032	7.41
582.372	7.62
582.711	7.41
583.05	7.59
583.389	7.78
583.728	7.62
584.067	7.45
584.406	7.56
584.745	7.69
585.083	7.85
585.422	7.71
585.761	7.85
586.1	7.78
586.438	8.06
586.777	7.73
587.115	7.87
587.454	7.75
587.792	8.02
588.13	7.91
588.469	7.93
588.807	8.32
589.145	8.16
589.483	7.88
589.821	8.01
590.159	8.07
590.497	7.85
590.835	8.19
591.173	8.14
591.511	8.17
591.849	8.17
592.187	8.02
592.524	8
592.862	8.29
593.2	7.92
593.537	8.06
593.875	8.41
594.212	8.42
594.55	8.3
594.887	8.48
595.224	8.37
595.561	8.43
595.899	8.37
596.236	8.44
596.573	8.24
596.91	8.33
597.247	8.42
597.584	8.44
597.921	8.38
598.258	8.42
598.594	8.28
598.931	8.52
599.268	8.47
599.604	8.9
599.941	8.66
600.277	8.76
600.614	8.79
600.95	8.77
601.287	8.87
601.623	8.84
601.959	8.69
602.296	8.92
602.632	8.88
602.968	8.77
603.304	8.9
603.64	9.03
603.976	8.9
604.312	9.12
604.648	9.04
604.984	9.19
605.319	9.17
605.655	9.13
605.991	9.19
606.326	9.12
606.662	9.09
606.998	9.27
607.333	9.18
607.668	9.14
608.004	9.39
608.339	9.18
608.674	9.35
609.01	9.35
609.345	9.68
609.68	9.39
610.015	9.49
610.35	9.33
610.685	9.58
611.02	9.64
611.355	9.52
611.689	9.29
612.024	9.61
612.359	9.67
612.694	9.73
613.028	9.85
613.363	9.67
613.697	9.87
614.032	9.77
614.366	9.79
614.7	10.1
615.035	9.64
615.369	10.06
615.703	10.14
616.037	9.92
616.371	9.69
616.705	10.03
617.039	10.05
617.373	10.29
617.707	9.99
618.041	10.33
618.375	9.7
618.709	10.29
619.042	10.08
619.376	10.15
619.71	10.11
620.043	10.12
620.377	10.3
620.71	10.48
621.043	10.07
621.377	10.18
621.71	10.57
622.043	10.44
622.376	10.28
622.709	10.86
623.043	10.27
623.376	10.63
623.709	10.62
624.041	10.61
624.374	10.59
624.707	10.29
625.04	10.81
625.373	10.59
625.705	10.95
626.038	10.41
626.37	10.8
626.703	10.62
627.035	10.72
627.368	10.95
627.7	11
628.032	11.01
628.365	10.88
628.697	10.86
629.029	11.12
629.361	10.85
629.693	10.92
630.025	11.07
630.357	10.98
630.689	11.58
631.021	11.3
631.353	11.64
631.684	11.25
632.016	11.25
632.348	11.31
632.679	11.41
633.011	11.43
633.342	11.4
633.674	11.03
634.005	11
634.336	11.46
634.668	11.52
634.999	11.44
635.33	11.46
635.661	11.48
635.992	11.81
636.323	11.55
636.654	11.6
636.985	11.46
637.316	11.65
637.647	11.82
637.977	11.96
638.308	11.86
638.639	11.75
638.969	11.9
639.3	11.77
639.63	11.52
639.961	11.73
640.291	12.28
640.622	12.38
640.952	12.4
641.282	11.29
641.612	11.93
641.943	12.09
642.273	11.83
642.603	12.56
642.933	12.29
643.263	12.54
643.592	12.38
643.922	12.45
644.252	12.09
644.582	12.13
644.911	12.03
645.241	12.52
645.571	12.36
645.9	12.66
646.23	12.44
646.559	12.62
646.888	12.57
647.218	12.28
647.547	12.75
647.876	12.83
648.205	12.74
648.534	12.58
648.863	12.88
649.192	12.34
649.521	12.5
649.85	12.97
650.179	12.36
650.508	12.81
650.837	12.91
651.165	12.92
651.494	12.69
651.822	12.88
652.151	13.11
652.479	13.53
652.808	12.81
653.136	12.99
653.465	13.27
653.793	13.3
654.121	13.43
654.449	13.33
654.777	13.49
655.105	13.63
655.433	13.72
655.761	13.18
656.089	13.33
656.417	13.48
656.745	14.28
657.073	14.06
657.4	13.68
657.728	13.75
658.056	13.36
658.383	14.18
658.711	13.67
659.038	13.72
659.365	13.86
659.693	13.7
660.02	13.94
660.347	14.01
660.674	13.92
661.001	13.55
661.329	14.06
661.656	13.67
661.982	13.7
662.309	13.92
662.636	14.08
662.963	14.29
663.29	13.86
663.616	13.89
663.943	14.64
664.27	14.13
664.596	14.14
664.923	14.67
665.249	14.85
665.576	14.06
665.902	14.35
666.228	14.49
666.554	14.34
666.881	14.06
667.207	14.22
667.533	15.48
667.859	14.16
668.185	14.41
668.511	14.31
668.837	14.03
669.162	14.76
669.488	14.9
669.814	15.3
670.139	15.18
670.465	15.1
670.791	15
671.116	14.83
671.442	14.94
671.767	14.61
672.092	15.18
672.418	14.99
672.743	14.89
673.068	14.73
673.393	15.31
673.718	14.33
674.043	15.25
674.368	15.12
674.693	15.22
675.018	14.32
675.343	15.48
675.667	15.03
675.992	14.62
676.317	15.69
676.641	15.58
676.966	15.64
677.29	15.16
677.615	15.36
677.939	15.54
678.264	15.63
678.588	15.73
678.912	15.73
679.236	15.6
679.56	15.2
679.885	15.71
680.209	15.51
680.532	15.82
680.856	16.11
681.18	15.79
681.504	15.71
681.828	15.71
682.152	16.12
682.475	15.95
682.799	16.35
683.122	15.82
683.446	15.44
683.769	16.32
684.093	16.26
684.416	16.48
684.739	16.65
685.062	16.18
685.386	16.25
685.709	16.12
686.032	15.97
686.355	16.5
686.678	15.7
687.001	15.25
687.324	16.24
