Data from 0004_chest_Reflection__1__378.txt Node

Date: Thu Dec 15 19:33:10 CST 2022
User: ToomeyLab
Spectrometer: FLMS14357
Trigger mode: 0
Integration Time (sec): 1.000000E-2
Scans to average: 100
Electric dark correction enabled: true
Nonlinearity correction enabled: false
Boxcar width: 0
XAxis mode: Wavelengths
Number of Pixels in Spectrum: 2048
>>>>>Begin Spectral Data<<<<<
189.047	-153.56
189.435	-153.56
189.823	-153.56
190.211	-15.61
190.599	-15.04
190.987	69.78
191.375	0.9
191.763	-121.07
192.151	57.39
192.538	78.4
192.926	72.81
193.314	352.6
193.702	-879.22
194.089	54.03
194.477	-195.66
194.864	118.7
195.252	276.03
195.639	92.71
196.027	77.55
196.414	284.58
196.801	-505.86
197.189	104.29
197.576	-219.82
197.963	-82.87
198.351	31.7
198.738	-49.85
199.125	-32.3
199.512	11.56
199.899	-33.27
200.286	-36.61
200.673	35.13
201.06	-12.78
201.447	18.22
201.833	-26.45
202.22	-26.34
202.607	-121.92
202.994	24.71
203.38	-15.63
203.767	-31.21
204.154	8.7
204.54	35.44
204.927	-12.16
205.313	39.26
205.699	-1
206.086	10.98
206.472	23.24
206.858	-4.05
207.245	0.37
207.631	-52.36
208.017	27.59
208.403	-62.12
208.789	-25.78
209.175	-12.23
209.561	-150.47
209.947	-0.16
210.333	-29
210.719	47.5
211.105	17.65
211.491	-15.56
211.876	-83.8
212.262	12.98
212.648	-12.4
213.034	-32.05
213.419	-9.54
213.805	-56.69
214.19	-46.62
214.576	-13.93
214.961	8.08
215.346	-90.15
215.732	-26.97
216.117	-12.51
216.502	-42.74
216.888	-10.86
217.273	-2.5
217.658	-10.2
218.043	-44.15
218.428	-3.03
218.813	5.02
219.198	-40.03
219.583	-17.26
219.968	-34.2
220.353	-32
220.738	17.54
221.122	-7.49
221.507	-12.24
221.892	-46.52
222.276	-28.19
222.661	-4.39
223.046	-19.06
223.43	9.8
223.815	-0.08
224.199	-7.56
224.583	-10.06
224.968	-0.2
225.352	-6.45
225.736	10.82
226.121	-7.03
226.505	-1.49
226.889	-3.53
227.273	-2.59
227.657	4.63
228.041	1.44
228.425	-5.32
228.809	-2.55
229.193	0.7
229.577	2.83
229.961	2.73
230.344	3.58
230.728	3.28
231.112	3.61
231.495	2.16
231.879	2.73
232.263	2.06
232.646	2.44
233.03	4.69
233.413	1.39
233.797	-0.18
234.18	2.21
234.563	3.11
234.946	1.07
235.33	2.36
235.713	3.56
236.096	2.45
236.479	1.48
236.862	1.53
237.245	3.18
237.628	3.98
238.011	1.73
238.394	3.58
238.777	1.68
239.16	4.49
239.543	4.05
239.925	2.43
240.308	3.8
240.691	2.27
241.073	0.65
241.456	2.79
241.838	3.19
242.221	3.18
242.603	3.43
242.986	3.08
243.368	3.29
243.75	3.1
244.133	2.97
244.515	3.15
244.897	2.31
245.279	2.22
245.661	1.65
246.043	2.04
246.425	3.22
246.807	3.19
247.189	2.72
247.571	2.51
247.953	2.8
248.335	3.06
248.717	3.01
249.098	2.86
249.48	2.9
249.862	2.87
250.243	2.65
250.625	2.8
251.006	3.1
251.388	2.49
251.769	1.2
252.151	3.03
252.532	2.31
252.913	2.34
253.295	2.46
253.676	3.08
254.057	2.64
254.438	2.51
254.819	3.07
255.2	2.89
255.581	3.13
255.962	2.77
256.343	4.17
256.724	2.9
257.105	1.52
257.486	1.72
257.867	2.68
258.247	2.4
258.628	2.57
259.009	1.93
259.389	1.38
259.77	2.45
260.15	3.21
260.531	2.87
260.911	2.56
261.292	2.92
261.672	2.78
262.052	2.65
262.432	2.59
262.813	2.48
263.193	2.02
263.573	2.16
263.953	2.22
264.333	2.71
264.713	2.42
265.093	2.17
265.473	2.94
265.853	2.3
266.233	2.6
266.612	2.2
266.992	2.5
267.372	2.8
267.752	2.63
268.131	2.4
268.511	2.55
268.89	3.27
269.27	1.97
269.649	2.35
270.029	2.47
270.408	1.95
270.787	2.55
271.167	2.29
271.546	3.25
271.925	2.72
272.304	2.3
272.683	2.02
273.062	2.07
273.441	1.95
273.82	2.71
274.199	2.35
274.578	2.4
274.957	2.44
275.336	2.84
275.715	2.38
276.093	1.66
276.472	2.17
276.851	2.12
277.229	2.38
277.608	2.13
277.986	2.31
278.365	2.95
278.743	2.48
279.122	1.85
279.5	2.27
279.878	1.94
280.257	2.69
280.635	2.78
281.013	1.78
281.391	2.01
281.769	3.23
282.147	2.4
282.525	1.81
282.903	2.6
283.281	2.76
283.659	2.54
284.037	2.38
284.415	2.76
284.792	2.66
285.17	2.42
285.548	2.65
285.925	2.24
286.303	3.06
286.68	2.73
287.058	2.56
287.435	2.16
287.813	2.5
288.19	2.2
288.567	2.2
288.945	2.49
289.322	2.39
289.699	2.43
290.076	2.16
290.453	2.01
290.83	2.87
291.207	2.52
291.584	2.46
291.961	2.13
292.338	2.15
292.715	2.15
293.092	2.74
293.469	1.93
293.845	2
294.222	2.61
294.599	2.16
294.975	2
295.352	2.22
295.728	2.68
296.105	2.09
296.481	2.22
296.858	2.35
297.234	1.74
297.61	2.57
297.986	2.55
298.363	2.55
298.739	2.77
299.115	2.43
299.491	2.58
299.867	2.05
300.243	2.3
300.619	2.17
300.995	2.48
301.371	2.53
301.746	2.26
302.122	2.38
302.498	2.56
302.874	2.61
303.249	2.5
303.625	1.83
304	2.71
304.376	3.05
304.751	1.83
305.127	2.35
305.502	2.39
305.878	2.84
306.253	2.24
306.628	2.33
307.003	2.62
307.378	1.97
307.754	2.48
308.129	2.36
308.504	2.61
308.879	2.3
309.254	2.9
309.629	2.83
310.003	2.21
310.378	2.75
310.753	2.79
311.128	2.11
311.502	2.86
311.877	2.43
312.252	2.64
312.626	2.85
313.001	2.63
313.375	2.52
313.75	2.49
314.124	2.44
314.498	2.64
314.873	1.84
315.247	2.26
315.621	2.38
315.995	2.55
316.369	2.12
316.743	2.29
317.117	2.14
317.491	2.54
317.865	2.16
318.239	3.25
318.613	2.39
318.987	1.81
319.361	2.36
319.734	2.25
320.108	2.2
320.482	2.56
320.855	2.51
321.229	2.55
321.602	2.61
321.976	1.56
322.349	2.84
322.723	2.07
323.096	2.43
323.469	1.84
323.843	1.68
324.216	2.83
324.589	2.73
324.962	2.26
325.335	2.29
325.708	2.4
326.081	2.22
326.454	2.61
326.827	2.68
327.2	2.29
327.573	2.96
327.945	2.07
328.318	2.38
328.691	2.36
329.063	1.81
329.436	1.84
329.809	2.79
330.181	2.84
330.553	2.71
330.926	2.75
331.298	2.26
331.671	2.8
332.043	2.34
332.415	2.32
332.787	2.62
333.159	2.08
333.532	2.1
333.904	2.62
334.276	2.54
334.648	2.48
335.02	2.59
335.391	2.06
335.763	2.58
336.135	2.67
336.507	2.94
336.879	2.5
337.25	2.34
337.622	2.76
337.993	2.57
338.365	2.35
338.736	2.45
339.108	2.97
339.479	2.58
339.851	2.87
340.222	2.79
340.593	2.62
340.964	2.38
341.336	2.89
341.707	2.65
342.078	2.35
342.449	2.49
342.82	2.7
343.191	2.76
343.562	2.96
343.933	2.56
344.303	2.7
344.674	2.61
345.045	2.58
345.416	2.73
345.786	2.36
346.157	2.55
346.527	2.43
346.898	2.28
347.268	2.63
347.639	2.36
348.009	2.4
348.38	2.49
348.75	2.63
349.12	2.61
349.49	2.42
349.861	2.8
350.231	2.2
350.601	2.58
350.971	2.15
351.341	2.78
351.711	2.56
352.081	2.44
352.45	2.56
352.82	1.93
353.19	2.55
353.56	2.63
353.929	2.64
354.299	2.75
354.669	2.85
355.038	2.77
355.408	2.69
355.777	2.72
356.147	2.75
356.516	2.35
356.885	2.64
357.254	2.48
357.624	2.6
357.993	2.72
358.362	2.62
358.731	2.9
359.1	2.7
359.469	2.73
359.838	2.8
360.207	2.75
360.576	2.74
360.945	2.77
361.314	2.45
361.682	2.49
362.051	2.61
362.42	2.85
362.788	2.61
363.157	2.65
363.525	2.94
363.894	2.62
364.262	2.74
364.631	2.65
364.999	2.73
365.367	2.67
365.735	2.61
366.104	2.74
366.472	2.7
366.84	2.73
367.208	2.82
367.576	2.46
367.944	2.82
368.312	2.76
368.68	3.05
369.048	2.84
369.416	2.54
369.783	2.68
370.151	3.03
370.519	2.85
370.886	2.83
371.254	2.97
371.621	3.09
371.989	3.1
372.356	2.58
372.724	2.65
373.091	2.85
373.458	2.58
373.826	2.84
374.193	2.74
374.56	2.85
374.927	2.69
375.294	2.86
375.661	2.78
376.028	2.85
376.395	2.82
376.762	2.66
377.129	2.41
377.496	2.9
377.863	2.92
378.229	3.04
378.596	3.07
378.963	2.89
379.329	2.78
379.696	2.7
380.062	3
380.429	2.56
380.795	3
381.161	2.28
381.528	2.61
381.894	2.71
382.26	2.88
382.626	2.85
382.993	3.11
383.359	2.73
383.725	2.73
384.091	2.91
384.457	2.69
384.823	2.91
385.188	2.89
385.554	2.96
385.92	2.86
386.286	2.72
386.651	2.69
387.017	2.82
387.383	2.95
387.748	2.91
388.114	3.07
388.479	2.75
388.845	2.57
389.21	2.96
389.575	3.06
389.94	3.15
390.306	3.04
390.671	2.83
391.036	2.96
391.401	2.85
391.766	2.9
392.131	3.05
392.496	2.87
392.861	2.8
393.226	2.66
393.591	2.95
393.956	2.96
394.32	3.08
394.685	2.87
395.05	2.99
395.414	2.98
395.779	2.97
396.143	2.87
396.508	2.93
396.872	3.02
397.236	3.12
397.601	2.87
397.965	3.05
398.329	3.3
398.694	2.69
399.058	3.02
399.422	2.94
399.786	2.79
400.15	2.87
400.514	3.08
400.878	2.87
401.242	2.9
401.605	3.04
401.969	2.74
402.333	3.12
402.697	3.16
403.06	3.05
403.424	3.08
403.787	3.14
404.151	2.8
404.514	2.96
404.878	3.04
405.241	2.92
405.604	2.92
405.968	3.04
406.331	3.08
406.694	3.03
407.057	3.04
407.42	2.94
407.783	3.13
408.146	2.9
408.509	3.14
408.872	2.92
409.235	3.09
409.598	2.97
409.961	2.94
410.323	2.8
410.686	3
411.049	3.02
411.411	2.82
411.774	3.03
412.136	3.22
412.499	3.11
412.861	2.59
413.223	2.92
413.586	3.03
413.948	3.13
414.31	3.01
414.672	3.03
415.035	3.1
415.397	3.04
415.759	2.9
416.121	3.12
416.483	3.03
416.845	3.07
417.206	2.98
417.568	2.85
417.93	3.12
418.292	2.96
418.653	2.95
419.015	2.95
419.377	2.92
419.738	3.04
420.1	2.99
420.461	2.91
420.822	3
421.184	3.05
421.545	3.08
421.906	3.07
422.267	2.99
422.629	2.99
422.99	2.88
423.351	2.96
423.712	3.05
424.073	3.03
424.434	3.11
424.795	3
425.155	2.93
425.516	3
425.877	3.02
426.238	3.07
426.598	3.03
426.959	2.99
427.32	2.94
427.68	3.12
428.041	3.1
428.401	2.98
428.761	3.15
429.122	3.16
429.482	3.08
429.842	3.03
430.202	3.07
430.563	3.04
430.923	3
431.283	3.22
431.643	3.16
432.003	3.1
432.363	3.2
432.722	3.09
433.082	2.96
433.442	3.17
433.802	3.1
434.161	2.97
434.521	3.07
434.881	3.17
435.24	3.07
435.6	3.04
435.959	3.18
436.319	3.17
436.678	3.28
437.037	3.08
437.396	2.99
437.756	3
438.115	3.04
438.474	3.21
438.833	3.09
439.192	3.08
439.551	3.15
439.91	3.2
440.269	3.13
440.628	3.14
440.987	3.13
441.345	3.12
441.704	3
442.063	3.11
442.421	3.13
442.78	3.15
443.138	3.12
443.497	3.05
443.855	3.15
444.214	2.93
444.572	3.2
444.93	3.18
445.288	3.05
445.647	3
446.005	3.05
446.363	3.09
446.721	3.09
447.079	3.09
447.437	3.16
447.795	3.16
448.153	3.13
448.51	3.08
448.868	3.05
449.226	3.08
449.584	3.07
449.941	3.05
450.299	3.1
450.656	3.21
451.014	3.18
451.371	3.23
451.729	3.11
452.086	3.08
452.443	3.26
452.801	3.17
453.158	3.33
453.515	3.09
453.872	3.21
454.229	3.08
454.586	2.97
454.943	3.09
455.3	3.17
455.657	3.18
456.014	3.21
456.371	3.29
456.727	3.22
457.084	3.28
457.441	3.22
457.797	3.18
458.154	3.24
458.51	3.14
458.867	3.12
459.223	3.03
459.58	3.27
459.936	3.11
460.292	3.1
460.648	3.12
461.005	3.14
461.361	3.14
461.717	3.02
462.073	3.23
462.429	3.2
462.785	3.38
463.141	3.21
463.496	3.25
463.852	3.26
464.208	3.3
464.564	3.08
464.919	3.2
465.275	3.21
465.631	3.46
465.986	3.46
466.342	3.18
466.697	3.21
467.052	3.36
467.408	3.19
467.763	3.1
468.118	3.14
468.473	3.23
468.829	3.1
469.184	3.38
469.539	3.23
469.894	3.31
470.249	3.3
470.603	3.45
470.958	3.39
471.313	3.35
471.668	3.29
472.023	3.31
472.377	3.26
472.732	3.34
473.086	3.25
473.441	3.2
473.795	3.37
474.15	3.26
474.504	3.3
474.859	3.12
475.213	3.55
475.567	3.15
475.921	3.25
476.275	3.31
476.63	3.37
476.984	3.12
477.338	3.49
477.692	3.28
478.045	3.22
478.399	3.31
478.753	3.33
479.107	3.41
479.461	3.31
479.814	3.32
480.168	3.22
480.521	3.4
480.875	3.38
481.228	3.29
481.582	3.39
481.935	3.42
482.289	3.32
482.642	3.45
482.995	3.36
483.348	3.26
483.701	3.26
484.055	3.24
484.408	3.25
484.761	3.17
485.114	3.11
485.466	3.08
485.819	3.12
486.172	3.18
486.525	3.2
486.878	3.27
487.23	3.28
487.583	3.25
487.936	3.22
488.288	3.23
488.641	3.23
488.993	3.18
489.345	3.16
489.698	3.19
490.05	3.21
490.402	3.25
490.754	3.29
491.107	3.2
491.459	3.39
491.811	3.35
492.163	3.27
492.515	3.26
492.866	3.19
493.218	3.2
493.57	3.28
493.922	3.28
494.274	3.44
494.625	3.41
494.977	3.41
495.328	3.46
495.68	3.38
496.031	3.35
496.383	3.38
496.734	3.39
497.086	3.53
497.437	3.56
497.788	3.46
498.139	3.43
498.49	3.41
498.842	3.45
499.193	3.37
499.544	3.42
499.894	3.41
500.245	3.51
500.596	3.57
500.947	3.37
501.298	3.43
501.648	3.49
501.999	3.61
502.35	3.37
502.7	3.62
503.051	3.52
503.401	3.61
503.752	3.51
504.102	3.44
504.452	3.32
504.803	3.56
505.153	3.48
505.503	3.53
505.853	3.6
506.203	3.7
506.553	3.41
506.903	3.5
507.253	3.55
507.603	3.62
507.953	3.44
508.303	3.58
508.652	3.55
509.002	3.61
509.352	3.59
509.701	3.47
510.051	3.67
510.4	3.62
510.75	3.53
511.099	3.42
511.449	3.6
511.798	3.61
512.147	3.57
512.496	3.65
512.846	3.58
513.195	3.62
513.544	3.69
513.893	3.56
514.242	3.56
514.591	3.63
514.939	3.62
515.288	3.66
515.637	3.65
515.986	3.54
516.334	3.68
516.683	3.67
517.032	3.53
517.38	3.56
517.729	3.68
518.077	3.7
518.426	3.77
518.774	3.63
519.122	3.67
519.47	3.59
519.819	3.65
520.167	3.72
520.515	3.69
520.863	3.65
521.211	3.68
521.559	3.66
521.907	3.76
522.255	3.7
522.602	3.82
522.95	3.81
523.298	3.75
523.645	3.69
523.993	3.73
524.341	3.74
524.688	3.68
525.036	3.8
525.383	3.8
525.73	3.78
526.078	3.89
526.425	3.79
526.772	3.79
527.119	3.76
527.466	3.78
527.814	3.8
528.161	3.83
528.508	3.86
528.854	3.77
529.201	3.68
529.548	3.74
529.895	3.63
530.242	3.65
530.588	3.7
530.935	3.71
531.282	3.76
531.628	3.82
531.975	3.78
532.321	3.81
532.667	3.86
533.014	3.97
533.36	3.85
533.706	3.93
534.052	3.96
534.399	3.88
534.745	3.83
535.091	3.83
535.437	3.86
535.783	3.89
536.129	3.88
536.474	3.95
536.82	4.07
537.166	3.9
537.512	4.03
537.857	4.03
538.203	3.97
538.549	3.96
538.894	4.08
539.239	4.12
539.585	4.09
539.93	4.26
540.276	4.04
540.621	4.16
540.966	4.17
541.311	4.17
541.656	4.01
542.001	4.1
542.346	4.02
542.691	4
543.036	4
543.381	4.01
543.726	4.14
544.071	4.11
544.415	4.15
544.76	4.2
545.105	4.14
545.449	4.19
545.794	4.14
546.138	4.2
546.483	4.32
546.827	4.23
547.171	4.23
547.516	4.28
547.86	4.3
548.204	4.27
548.548	4.32
548.892	4.39
549.236	4.37
549.58	4.32
549.924	4.53
550.268	4.45
550.612	4.43
550.956	4.54
551.3	4.48
551.643	4.48
551.987	4.7
552.33	4.7
552.674	4.5
553.017	4.56
553.361	4.66
553.704	4.64
554.048	4.45
554.391	4.69
554.734	4.52
555.077	4.64
555.42	4.68
555.764	4.67
556.107	4.73
556.45	4.66
556.793	4.71
557.135	4.71
557.478	4.61
557.821	4.72
558.164	4.83
558.507	4.74
558.849	4.9
559.192	4.72
559.534	4.72
559.877	4.83
560.219	4.69
560.562	4.84
560.904	5.03
561.246	4.88
561.589	4.97
561.931	4.96
562.273	4.95
562.615	4.83
562.957	4.79
563.299	4.88
563.641	4.89
563.983	4.89
564.325	4.83
564.667	4.99
565.008	4.96
565.35	4.97
565.692	5.05
566.033	5.07
566.375	5.07
566.716	4.93
567.058	5.06
567.399	5.16
567.741	5.11
568.082	5.21
568.423	4.99
568.764	5.15
569.105	5.26
569.447	5.12
569.788	5.15
570.129	5.27
570.47	5.33
570.811	5.21
571.151	5.27
571.492	5.36
571.833	5.25
572.174	5.37
572.514	5.36
572.855	5.47
573.195	5.27
573.536	5.53
573.876	5.48
574.217	5.37
574.557	5.38
574.898	5.41
575.238	5.51
575.578	5.57
575.918	5.48
576.258	5.81
576.598	5.5
576.938	5.54
577.278	5.55
577.618	5.61
577.958	5.73
578.298	5.55
578.638	5.54
578.977	5.7
579.317	5.64
579.657	5.57
579.996	5.86
580.336	5.84
580.675	5.73
581.014	6.05
581.354	5.67
581.693	5.86
582.032	6.18
582.372	5.67
582.711	5.99
583.05	5.73
583.389	6.07
583.728	6.07
584.067	6.02
584.406	5.89
584.745	6.03
585.083	5.94
585.422	6.29
585.761	6.19
586.1	6.35
586.438	6.21
586.777	6.26
587.115	6.32
587.454	6.1
587.792	6.28
588.13	6.21
588.469	6.36
588.807	6.28
589.145	6.32
589.483	6.19
589.821	6.65
590.159	6.45
590.497	6.62
590.835	6.65
591.173	6.5
591.511	6.62
591.849	6.53
592.187	6.28
592.524	6.66
592.862	6.52
593.2	6.57
593.537	6.56
593.875	6.71
594.212	6.67
594.55	6.88
594.887	6.91
595.224	6.88
595.561	6.6
595.899	6.87
596.236	7.01
596.573	6.81
596.91	6.92
597.247	6.91
597.584	6.92
597.921	6.77
598.258	7.03
598.594	6.92
598.931	6.72
599.268	6.78
599.604	6.98
599.941	6.97
600.277	7.2
600.614	7.15
600.95	7.16
601.287	7.24
601.623	6.94
601.959	7.43
602.296	7.23
602.632	7.21
602.968	7.25
603.304	7.48
603.64	7.23
603.976	7.29
604.312	7.22
604.648	7.37
604.984	7.54
605.319	7.51
605.655	7.36
605.991	7.3
606.326	7.51
606.662	7.26
606.998	7.64
607.333	7.61
607.668	7.64
608.004	7.57
608.339	7.45
608.674	7.61
609.01	7.71
609.345	7.71
609.68	7.63
610.015	7.62
610.35	8.03
610.685	7.64
611.02	7.6
611.355	7.65
611.689	7.82
612.024	7.92
612.359	7.84
612.694	7.94
613.028	7.92
613.363	8.05
613.697	7.9
614.032	8
614.366	8.03
614.7	8.17
615.035	8.05
615.369	8.28
615.703	8.35
616.037	8.3
616.371	8.06
616.705	8.19
617.039	8.46
617.373	8.27
617.707	8.56
618.041	8.29
618.375	8.06
618.709	8.5
619.042	8.57
619.376	8.42
619.71	8.34
620.043	9
620.377	8.48
620.71	8.66
621.043	9.12
621.377	8.81
621.71	8.93
622.043	8.7
622.376	8.72
622.709	8.87
623.043	8.42
623.376	8.8
623.709	9.04
624.041	8.79
624.374	8.98
624.707	8.94
625.04	8.9
625.373	9.21
625.705	9.23
626.038	8.83
626.37	9.06
626.703	9.17
627.035	8.97
627.368	9.35
627.7	9.17
628.032	9.23
628.365	9.28
628.697	9.45
629.029	9.12
629.361	9.38
629.693	9.4
630.025	9.27
630.357	9.44
630.689	9.41
631.021	9.51
631.353	9.75
631.684	9.69
632.016	8.97
632.348	9.33
632.679	9.7
633.011	9.38
633.342	9.82
633.674	9.58
634.005	9.84
634.336	10.05
634.668	9.76
634.999	9.44
635.33	9.79
635.661	9.73
635.992	9.97
636.323	9.93
636.654	9.98
636.985	9.73
637.316	9.83
637.647	10.31
637.977	9.81
638.308	10.27
638.639	10.36
638.969	9.99
639.3	9.93
639.63	9.94
639.961	10.16
640.291	10.18
640.622	10.59
640.952	10.75
641.282	9.99
641.612	10.27
641.943	10.42
642.273	10.42
642.603	10.4
642.933	10.74
643.263	10.85
643.592	11.09
643.922	10.94
644.252	10.66
644.582	10.62
644.911	10.58
645.241	10.66
645.571	10.97
645.9	10.87
646.23	10.86
646.559	10.62
646.888	10.93
647.218	10.74
647.547	10.87
647.876	10.97
648.205	10.44
648.534	10.51
648.863	10.69
649.192	11.07
649.521	11.1
649.85	11.43
650.179	11.33
650.508	11.04
650.837	11.32
651.165	11.64
651.494	11.31
651.822	11.23
652.151	11.19
652.479	11.3
652.808	10.92
653.136	10.96
653.465	11.47
653.793	11.39
654.121	11.46
654.449	11.73
654.777	11.69
655.105	11.43
655.433	12.01
655.761	11.7
656.089	11.91
656.417	12.37
656.745	11.69
657.073	11.65
657.4	11.54
657.728	11.45
658.056	11.77
658.383	11.64
658.711	12.25
659.038	12.1
659.365	12.45
659.693	12.03
660.02	11.87
660.347	12.18
660.674	11.85
661.001	11.93
661.329	12.04
661.656	11.99
661.982	12.06
662.309	12.3
662.636	12.22
662.963	12.53
663.29	12.56
663.616	11.86
663.943	12.39
664.27	12.37
664.596	11.92
664.923	12.58
665.249	12.52
665.576	12.38
665.902	12.33
666.228	13.18
666.554	13.46
666.881	12.28
667.207	12.35
667.533	12.86
667.859	13.14
668.185	12.3
668.511	12.93
668.837	13.19
669.162	13.41
669.488	12.67
669.814	13.12
670.139	12.98
670.465	13.42
670.791	12.87
671.116	12.67
671.442	12.61
671.767	13.15
672.092	13.07
672.418	13.4
672.743	13.45
673.068	12.8
673.393	13.44
673.718	12.67
674.043	13.32
674.368	13.15
674.693	13.46
675.018	13.79
675.343	14.27
675.667	13.49
675.992	13.38
676.317	12.99
676.641	13.86
676.966	13.6
677.29	13.51
677.615	13.52
677.939	14.65
678.264	13.24
678.588	13.75
678.912	14.06
679.236	13.64
679.56	13.25
679.885	14.21
680.209	13.9
680.532	14.25
680.856	14.3
681.18	14.66
681.504	13.94
681.828	13.84
682.152	14.23
682.475	14.15
682.799	14.52
683.122	14.56
683.446	13.57
683.769	14.81
684.093	14.5
684.416	14.02
684.739	13.89
685.062	14.29
685.386	14.72
685.709	15.22
686.032	14.4
686.355	14.75
686.678	15.02
687.001	14.81
687.324	14.1
687.646	14.65
687.969	14.22
688.292	14.21
688.614	14.96
688.937	15.58
