Data from 0004_forehead_Reflection__2__389.txt Node

Date: Thu Dec 15 19:36:15 CST 2022
User: ToomeyLab
Spectrometer: FLMS14357
Trigger mode: 0
Integration Time (sec): 1.000000E-2
Scans to average: 100
Electric dark correction enabled: true
Nonlinearity correction enabled: false
Boxcar width: 0
XAxis mode: Wavelengths
Number of Pixels in Spectrum: 2048
>>>>>Begin Spectral Data<<<<<
189.047	-109.13
189.435	-109.13
189.823	-109.13
190.211	-2.79
190.599	10.37
190.987	333.16
191.375	44.19
191.763	-1.27
192.151	100.5
192.538	56.32
192.926	152.06
193.314	1213.15
193.702	1024.68
194.089	148.6
194.477	-50.17
194.864	166.1
195.252	17.4
195.639	146.7
196.027	-7.97
196.414	209
196.801	-91.49
197.189	327.98
197.576	31.46
197.963	-33.9
198.351	-21.52
198.738	11.95
199.125	-37.02
199.512	30.42
199.899	-12.27
200.286	-57.36
200.673	53.07
201.06	-23.44
201.447	20.32
201.833	-45.35
202.22	7.95
202.607	-14.38
202.994	29.16
203.38	34.29
203.767	-7.88
204.154	32.35
204.54	-8.77
204.927	17.02
205.313	5.86
205.699	28.75
206.086	44.27
206.472	8.88
206.858	-5.72
207.245	6.76
207.631	-9.43
208.017	36.07
208.403	-60.22
208.789	20.53
209.175	41.36
209.561	-157.24
209.947	18.78
210.333	-7.96
210.719	-5.23
211.105	32.04
211.491	-11.83
211.876	-75.64
212.262	5.61
212.648	39.75
213.034	-27.03
213.419	17.46
213.805	-16.92
214.19	-53.81
214.576	-14.22
214.961	8.53
215.346	-18.5
215.732	20.52
216.117	-1.28
216.502	-4.77
216.888	13.91
217.273	2.33
217.658	-3.54
218.043	-10.3
218.428	-7.8
218.813	24.6
219.198	-28.72
219.583	6.49
219.968	7.56
220.353	-17.97
220.738	6.67
221.122	-7.41
221.507	2.4
221.892	-29.3
222.276	-29.72
222.661	-16.3
223.046	0.18
223.43	12.08
223.815	-10.06
224.199	1.21
224.583	-5.98
224.968	0.76
225.352	-6.92
225.736	12.43
226.121	-5.47
226.505	-0.55
226.889	5.5
227.273	3.81
227.657	5.02
228.041	2.29
228.425	1.51
228.809	-0.11
229.193	3.77
229.577	1.29
229.961	0.64
230.344	2.78
230.728	2.55
231.112	2.03
231.495	0.65
231.879	2.37
232.263	2.25
232.646	3.12
233.03	2.98
233.413	1.85
233.797	-1.16
234.18	3.02
234.563	3.68
234.946	1.14
235.33	2.52
235.713	3.27
236.096	2.84
236.479	3.37
236.862	0.91
237.245	2.19
237.628	2.56
238.011	1.73
238.394	0.14
238.777	2.07
239.16	4.26
239.543	2.46
239.925	1.91
240.308	-0.6
240.691	1.1
241.073	0.85
241.456	1.68
241.838	1.74
242.221	1.63
242.603	2.54
242.986	2.73
243.368	2.13
243.75	2.34
244.133	2.5
244.515	1.96
244.897	2.44
245.279	2.07
245.661	3.01
246.043	2.18
246.425	2.82
246.807	1.55
247.189	1.42
247.571	2.22
247.953	2.03
248.335	2.23
248.717	2.24
249.098	2.08
249.48	2.03
249.862	2.26
250.243	2.34
250.625	2.62
251.006	3.06
251.388	2.56
251.769	2.22
252.151	2.99
252.532	2.23
252.913	2.73
253.295	2.21
253.676	1.95
254.057	2.08
254.438	2.16
254.819	3
255.2	3.48
255.581	2.61
255.962	2.62
256.343	3.35
256.724	1.78
257.105	2.58
257.486	1.53
257.867	1.44
258.247	2.17
258.628	3.35
259.009	1.92
259.389	1.42
259.77	1.93
260.15	2.73
260.531	2.32
260.911	2.19
261.292	2.41
261.672	2.15
262.052	2.33
262.432	1.96
262.813	2.42
263.193	2.01
263.573	2.31
263.953	2.1
264.333	1.96
264.713	2.54
265.093	2.43
265.473	3
265.853	2.26
266.233	2.65
266.612	1.95
266.992	2.52
267.372	2.54
267.752	2.37
268.131	2.35
268.511	2.1
268.89	2.74
269.27	1.88
269.649	1.9
270.029	2.2
270.408	2.23
270.787	2.44
271.167	2.44
271.546	3.04
271.925	2.71
272.304	1.97
272.683	1.66
273.062	2.2
273.441	1.49
273.82	1.87
274.199	2.2
274.578	2.22
274.957	1.98
275.336	2.63
275.715	2.44
276.093	1.69
276.472	2.17
276.851	2.53
277.229	2.07
277.608	1.49
277.986	2.42
278.365	2.59
278.743	2.01
279.122	1.69
279.5	2.08
279.878	1.96
280.257	1.79
280.635	2.76
281.013	1.5
281.391	2.16
281.769	2.19
282.147	1.85
282.525	2.27
282.903	1.88
283.281	2.47
283.659	2.66
284.037	2.05
284.415	2.42
284.792	1.9
285.17	1.78
285.548	1.98
285.925	2.23
286.303	2.8
286.68	2.18
287.058	2.21
287.435	2.12
287.813	2.03
288.19	2
288.567	2.44
288.945	2.18
289.322	2.2
289.699	2.62
290.076	1.99
290.453	2.22
290.83	2.48
291.207	2.47
291.584	2.71
291.961	2.4
292.338	2.24
292.715	2.22
293.092	2.72
293.469	2.31
293.845	2.39
294.222	3.14
294.599	2.07
294.975	2.07
295.352	2.81
295.728	2.67
296.105	2.52
296.481	2.6
296.858	2.98
297.234	2.42
297.61	2.49
297.986	3.2
298.363	2.85
298.739	3.08
299.115	3.03
299.491	3.21
299.867	2.41
300.243	2.96
300.619	2.6
300.995	2.63
301.371	3.28
301.746	3.05
302.122	2.5
302.498	3.14
302.874	3.68
303.249	3.07
303.625	2.74
304	3.23
304.376	3.62
304.751	3.09
305.127	2.69
305.502	3.17
305.878	3.59
306.253	3.27
306.628	3.54
307.003	3.39
307.378	3.41
307.754	3.68
308.129	3.31
308.504	3.94
308.879	4.35
309.254	3.72
309.629	4.08
310.003	3.94
310.378	4.22
310.753	4.14
311.128	4.02
311.502	3.98
311.877	3.85
312.252	4.57
312.626	4.41
313.001	4.46
313.375	4.46
313.75	4.42
314.124	4.57
314.498	4.79
314.873	4.46
315.247	4.39
315.621	4.1
315.995	4.27
316.369	4.78
316.743	4.35
317.117	4.62
317.491	4.97
317.865	4.81
318.239	5.18
318.613	5.02
318.987	4.64
319.361	4.47
319.734	4.94
320.108	5.01
320.482	5.18
320.855	5.37
321.229	5.24
321.602	5.13
321.976	5.18
322.349	6.21
322.723	5.68
323.096	6.04
323.469	5.44
323.843	5.39
324.216	5.32
324.589	5.47
324.962	5.64
325.335	5.86
325.708	5.88
326.081	5.75
326.454	5.75
326.827	5.7
327.2	5.65
327.573	6.22
327.945	5.62
328.318	6.04
328.691	6.36
329.063	6.05
329.436	5.67
329.809	6.58
330.181	7.02
330.553	7.41
330.926	6.69
331.298	6.63
331.671	6.59
332.043	6.17
332.415	7.01
332.787	7.03
333.159	6.5
333.532	7.32
333.904	6.68
334.276	7.13
334.648	6.98
335.02	6.57
335.391	6.89
335.763	7.11
336.135	7.1
336.507	6.97
336.879	7.59
337.25	7.3
337.622	7.44
337.993	7.28
338.365	7.16
338.736	7.78
339.108	7.49
339.479	7.58
339.851	7.87
340.222	7.71
340.593	8.41
340.964	7.66
341.336	7.76
341.707	7.5
342.078	7.65
342.449	8.31
342.82	7.9
343.191	7.64
343.562	8.09
343.933	8.03
344.303	8.32
344.674	8.06
345.045	8.17
345.416	8.69
345.786	8.37
346.157	8.59
346.527	8.81
346.898	8.27
347.268	8.6
347.639	8.58
348.009	8.63
348.38	8.3
348.75	8.74
349.12	8.89
349.49	8.22
349.861	9.18
350.231	8.96
350.601	8.65
350.971	8.86
351.341	9.43
351.711	9.23
352.081	9.01
352.45	9.04
352.82	9.04
353.19	9.02
353.56	9.48
353.929	9.5
354.299	9.75
354.669	9.44
355.038	9.94
355.408	9.73
355.777	9.91
356.147	10.17
356.516	9.74
356.885	9.91
357.254	9.63
357.624	9.71
357.993	10.2
358.362	10.45
358.731	10.58
359.1	10.24
359.469	10.32
359.838	10.37
360.207	10.63
360.576	10.45
360.945	10.59
361.314	10.56
361.682	10.32
362.051	10.45
362.42	10.66
362.788	10.76
363.157	10.65
363.525	10.93
363.894	10.77
364.262	11.04
364.631	11.22
364.999	11.13
365.367	11.35
365.735	10.98
366.104	11.4
366.472	11.36
366.84	11.56
367.208	11.82
367.576	11.77
367.944	11.56
368.312	11.37
368.68	11.97
369.048	11.86
369.416	11.81
369.783	11.84
370.151	12.02
370.519	12.13
370.886	12.35
371.254	12.19
371.621	12.3
371.989	12.55
372.356	12.35
372.724	12.23
373.091	12.33
373.458	12.34
373.826	12.59
374.193	12.75
374.56	12.82
374.927	12.33
375.294	13.01
375.661	12.65
376.028	12.98
376.395	13.12
376.762	12.77
377.129	13.26
377.496	12.98
377.863	13.28
378.229	13.61
378.596	13.4
378.963	13.5
379.329	13.3
379.696	13.36
380.062	13.54
380.429	13.47
380.795	13.87
381.161	13.51
381.528	13.49
381.894	13.79
382.26	13.96
382.626	13.91
382.993	14.48
383.359	14.06
383.725	14.12
384.091	14.36
384.457	14.1
384.823	14.31
385.188	14.44
385.554	14.51
385.92	14.41
386.286	14.6
386.651	14.8
387.017	14.65
387.383	14.78
387.748	14.72
388.114	14.92
388.479	14.95
388.845	14.92
389.21	15.45
389.575	15.44
389.94	15.27
390.306	15.42
390.671	15.46
391.036	15.43
391.401	15.49
391.766	15.44
392.131	15.86
392.496	15.71
392.861	15.59
393.226	15.43
393.591	15.73
393.956	15.89
394.32	16.07
394.685	15.72
395.05	16.08
395.414	16.03
395.779	16.22
396.143	16.01
396.508	16.36
396.872	16.22
397.236	16.65
397.601	16.74
397.965	16.41
398.329	16.85
398.694	16.8
399.058	16.85
399.422	16.67
399.786	16.8
400.15	16.84
400.514	17.07
400.878	17.11
401.242	17.19
401.605	17.08
401.969	16.99
402.333	17.12
402.697	17.69
403.06	17.39
403.424	17.54
403.787	17.57
404.151	17.72
404.514	17.81
404.878	17.48
405.241	17.93
405.604	17.61
405.968	17.77
406.331	17.78
406.694	18.04
407.057	17.86
407.42	18.04
407.783	18.25
408.146	17.99
408.509	18.41
408.872	18.3
409.235	18.51
409.598	18.7
409.961	18.67
410.323	18.44
410.686	18.77
411.049	18.69
411.411	18.64
411.774	18.66
412.136	18.63
412.499	18.85
412.861	18.74
413.223	18.95
413.586	19.19
413.948	19.06
414.31	19.19
414.672	19.14
415.035	19.43
415.397	19.29
415.759	19.22
416.121	19.49
416.483	19.4
416.845	19.53
417.206	19.44
417.568	19.53
417.93	19.58
418.292	19.51
418.653	19.36
419.015	19.49
419.377	19.42
419.738	19.61
420.1	19.75
420.461	19.55
420.822	19.78
421.184	19.85
421.545	19.8
421.906	19.9
422.267	19.76
422.629	19.73
422.99	19.77
423.351	19.89
423.712	20.05
424.073	20.21
424.434	20.34
424.795	20.17
425.155	20.07
425.516	20.1
425.877	20.18
426.238	20.23
426.598	20.48
426.959	20.47
427.32	20.52
427.68	20.68
428.041	20.87
428.401	21.06
428.761	21.18
429.122	21.15
429.482	21.28
429.842	21.28
430.202	21.35
430.563	21.36
430.923	21.39
431.283	21.76
431.643	21.66
432.003	21.68
432.363	21.8
432.722	21.68
433.082	21.75
433.442	21.69
433.802	21.9
434.161	21.85
434.521	21.92
434.881	21.78
435.24	21.84
435.6	22.04
435.959	22.05
436.319	22.2
436.678	22.32
437.037	22.15
437.396	22.32
437.756	22.31
438.115	22.45
438.474	22.62
438.833	22.48
439.192	22.3
439.551	22.48
439.91	22.8
440.269	22.52
440.628	22.59
440.987	22.74
441.345	22.65
441.704	22.61
442.063	22.54
442.421	22.79
442.78	22.64
443.138	22.87
443.497	23.02
443.855	23
444.214	22.99
444.572	23.31
444.93	23.23
445.288	23.39
445.647	23.2
446.005	23.25
446.363	23.41
446.721	23.29
447.079	23.2
447.437	23.24
447.795	23.22
448.153	23.28
448.51	23.32
448.868	23.37
449.226	23.5
449.584	23.55
449.941	23.8
450.299	23.65
450.656	23.81
451.014	24.13
451.371	24.38
451.729	24.21
452.086	24.24
452.443	24.54
452.801	24.37
453.158	24.49
453.515	24.46
453.872	24.57
454.229	24.46
454.586	24.47
454.943	24.45
455.3	24.72
455.657	24.78
456.014	24.77
456.371	24.77
456.727	24.91
457.084	24.98
457.441	25.12
457.797	24.95
458.154	25.18
458.51	25.2
458.867	25.35
459.223	25.19
459.58	25.33
459.936	25.38
460.292	25.14
460.648	25.09
461.005	25.09
461.361	24.83
461.717	25.11
462.073	25.17
462.429	25.3
462.785	25.52
463.141	25.48
463.496	25.7
463.852	25.82
464.208	25.9
464.564	25.82
464.919	26.01
465.275	26.28
465.631	26.1
465.986	26.25
466.342	26.14
466.697	26.33
467.052	26.44
467.408	26.43
467.763	26.32
468.118	26.19
468.473	26.28
468.829	26.42
469.184	26.45
469.539	26.45
469.894	26.61
470.249	26.61
470.603	26.66
470.958	26.92
471.313	26.78
471.668	26.62
472.023	27.1
472.377	26.82
472.732	27.31
473.086	26.99
473.441	26.88
473.795	27.47
474.15	27.18
474.504	27.06
474.859	27.05
475.213	27.29
475.567	27.33
475.921	27.5
476.275	27.47
476.63	27.64
476.984	27.69
477.338	27.67
477.692	27.61
478.045	27.72
478.399	27.5
478.753	27.59
479.107	27.83
479.461	27.72
479.814	27.85
480.168	27.67
480.521	28.04
480.875	27.87
481.228	27.89
481.582	27.94
481.935	27.98
482.289	28.03
482.642	28.03
482.995	27.98
483.348	27.78
483.701	28
484.055	27.78
484.408	27.65
484.761	27.29
485.114	27.16
485.466	27.21
485.819	27.25
486.172	27.21
486.525	27.34
486.878	27.58
487.23	27.53
487.583	27.8
487.936	27.89
488.288	27.76
488.641	27.7
488.993	27.75
489.345	27.77
489.698	27.78
490.05	27.83
490.402	28.05
490.754	28.2
491.107	28.24
491.459	28.61
491.811	28.53
492.163	28.61
492.515	28.55
492.866	28.32
493.218	28.32
493.57	28.38
493.922	28.4
494.274	28.73
494.625	28.86
494.977	29.11
495.328	29.2
495.68	29.45
496.031	29.73
496.383	29.59
496.734	29.84
497.086	29.56
497.437	29.71
497.788	29.78
498.139	29.62
498.49	29.7
498.842	29.81
499.193	29.74
499.544	29.86
499.894	30
500.245	30.2
500.596	30.21
500.947	30.3
501.298	30.3
501.648	30.45
501.999	30.39
502.35	30.38
502.7	30.48
503.051	30.62
503.401	30.74
503.752	30.57
504.102	30.74
504.452	30.72
504.803	30.58
505.153	30.74
505.503	30.75
505.853	30.82
506.203	30.96
506.553	30.83
506.903	31.04
507.253	31.06
507.603	31.02
507.953	31.02
508.303	31.2
508.652	31.31
509.002	31.15
509.352	31.17
509.701	31.17
510.051	31.22
510.4	31.33
510.75	31.12
511.099	31.08
511.449	31.34
511.798	31.37
512.147	31.58
512.496	31.54
512.846	31.6
513.195	31.52
513.544	31.47
513.893	31.51
514.242	31.64
514.591	31.73
514.939	31.75
515.288	31.93
515.637	32.02
515.986	32
516.334	32.32
516.683	32.09
517.032	32.18
517.38	32.15
517.729	32.34
518.077	32.34
518.426	32.31
518.774	32.29
519.122	32.15
519.47	32.05
519.819	31.92
520.167	31.84
520.515	32.09
520.863	31.99
521.211	32.22
521.559	32.27
521.907	32.29
522.255	32.41
522.602	32.63
522.95	32.83
523.298	32.78
523.645	32.74
523.993	33
524.341	32.97
524.688	32.82
525.036	32.86
525.383	33
525.73	33.08
526.078	33.03
526.425	32.91
526.772	32.77
527.119	32.82
527.466	32.88
527.814	32.61
528.161	32.89
528.508	32.9
528.854	32.86
529.201	32.71
529.548	32.46
529.895	32.35
530.242	32.41
530.588	32.61
530.935	32.65
531.282	32.49
531.628	32.6
531.975	32.82
532.321	33.03
532.667	33.36
533.014	33.36
533.36	33.33
533.706	33.43
534.052	33.43
534.399	33.31
534.745	33.19
535.091	33.16
535.437	33.37
535.783	33.49
536.129	33.51
536.474	33.64
536.82	33.85
537.166	33.98
537.512	34.07
537.857	34.05
538.203	33.88
538.549	33.93
538.894	34
539.239	34.12
539.585	34.23
539.93	34.54
540.276	34.53
540.621	34.62
540.966	34.72
541.311	34.81
541.656	34.6
542.001	34.65
542.346	34.33
542.691	33.97
543.036	33.92
543.381	34.07
543.726	34.15
544.071	34.19
544.415	34.49
544.76	34.48
545.105	34.6
545.449	34.76
545.794	34.94
546.138	35.11
546.483	35.2
546.827	35.16
547.171	35.33
547.516	35.25
547.86	35.28
548.204	35.39
548.548	35.27
548.892	35.37
549.236	35.37
549.58	35.56
549.924	35.63
550.268	35.98
550.612	35.9
550.956	36.01
551.3	36.33
551.643	36.11
551.987	36.42
552.33	36.21
552.674	36.33
553.017	36.49
553.361	36.52
553.704	36.43
554.048	36.21
554.391	36.35
554.734	36.2
555.077	36.27
555.42	36.28
555.764	36.56
556.107	36.87
556.45	36.79
556.793	36.81
557.135	36.69
557.478	36.87
557.821	36.97
558.164	36.99
558.507	36.81
558.849	37.03
559.192	37.19
559.534	37.15
559.877	37.08
560.219	37.27
560.562	37.43
560.904	37.4
561.246	37.46
561.589	37.43
561.931	37.41
562.273	37.2
562.615	37.47
562.957	37.29
563.299	37.38
563.641	37.64
563.983	37.54
564.325	37.68
564.667	37.5
565.008	37.77
565.35	37.45
565.692	37.91
566.033	37.93
566.375	37.88
566.716	37.69
567.058	37.69
567.399	37.91
567.741	37.65
568.082	37.7
568.423	37.96
568.764	38.04
569.105	37.95
569.447	37.92
569.788	38.09
570.129	37.85
570.47	38.13
570.811	38.23
571.151	38.4
571.492	38.15
571.833	38.56
572.174	38.41
572.514	38.34
572.855	38.49
573.195	38.18
573.536	38.57
573.876	38.45
574.217	38.48
574.557	38.48
574.898	38.45
575.238	38.49
575.578	38.65
575.918	38.47
576.258	38.94
576.598	38.46
576.938	38.78
577.278	38.81
577.618	38.76
577.958	38.96
578.298	38.94
578.638	38.91
578.977	39.33
579.317	39.18
579.657	39.31
579.996	39.22
580.336	39.6
580.675	39.35
581.014	39.42
581.354	39.35
581.693	39.61
582.032	39.63
582.372	39.58
582.711	39.86
583.05	39.67
583.389	39.7
583.728	39.8
584.067	40
584.406	39.45
584.745	40.02
585.083	40.21
585.422	40.21
585.761	39.99
586.1	40.31
586.438	40.17
586.777	40.27
587.115	40.48
587.454	40.08
587.792	40.49
588.13	40.21
588.469	40.29
588.807	40.27
589.145	40.02
589.483	40.33
589.821	40.44
590.159	40.15
590.497	40.66
590.835	40.4
591.173	40.8
591.511	40.41
591.849	40.51
592.187	40.37
592.524	40.59
592.862	40.65
593.2	40.72
593.537	40.36
593.875	40.71
594.212	40.87
594.55	40.92
594.887	41
595.224	40.95
595.561	41.01
595.899	40.87
596.236	41.14
596.573	41.03
596.91	40.72
597.247	41.06
597.584	40.96
597.921	40.94
598.258	41
598.594	40.76
598.931	41.2
599.268	40.68
599.604	40.91
599.941	41.07
600.277	41.25
600.614	41.26
600.95	41.3
601.287	41.35
601.623	41.51
601.959	41.82
602.296	41.65
602.632	41.71
602.968	41.46
603.304	41.8
603.64	41.88
603.976	41.89
604.312	41.59
604.648	41.52
604.984	41.78
605.319	41.5
605.655	41.48
605.991	41.74
606.326	41.63
606.662	41.62
606.998	41.56
607.333	41.66
607.668	41.79
608.004	41.94
608.339	41.87
608.674	41.72
609.01	42.21
609.345	42.37
609.68	42.38
610.015	42.14
610.35	42.73
610.685	42.25
611.02	42.08
611.355	42.35
611.689	42.11
612.024	42.15
612.359	42.16
612.694	42.33
613.028	42.16
613.363	42.36
613.697	42.33
614.032	42.33
614.366	42.52
614.7	42.74
615.035	43.18
615.369	42.93
615.703	43.32
616.037	43.03
616.371	43.06
616.705	42.87
617.039	42.9
617.373	42.79
617.707	43.35
618.041	42.99
618.375	42.93
618.709	43.57
619.042	43.16
619.376	42.9
619.71	43.37
620.043	43.42
620.377	43.37
620.71	43.08
621.043	43.48
621.377	43.56
621.71	43.65
622.043	43.34
622.376	43.33
622.709	43.8
623.043	43.54
623.376	43.37
623.709	44.04
624.041	43.68
624.374	43.6
624.707	43.73
625.04	43.6
625.373	44.22
625.705	44.25
626.038	43.65
626.37	43.8
626.703	44.09
627.035	43.99
627.368	44.28
627.7	43.79
628.032	44.04
628.365	43.95
628.697	43.86
629.029	43.98
629.361	44.12
629.693	44.03
630.025	43.92
630.357	44.46
630.689	44.26
631.021	44.24
631.353	44.21
631.684	44.11
632.016	44.04
632.348	44.53
632.679	44.3
633.011	44.24
633.342	44.74
633.674	44.29
634.005	44.6
634.336	44.87
634.668	44.66
634.999	44.35
635.33	44.37
635.661	44.74
635.992	44.69
636.323	44.52
636.654	44.78
636.985	44.51
637.316	44.65
637.647	44.99
637.977	44.76
638.308	45.41
638.639	44.85
638.969	44.84
639.3	44.42
639.63	45.15
639.961	45.17
640.291	45.03
640.622	45.11
640.952	45.27
641.282	44.94
641.612	45.08
641.943	45.29
642.273	45.48
642.603	45.1
642.933	45.63
643.263	45.2
643.592	45.65
643.922	45.4
644.252	45.61
644.582	45.86
644.911	45.5
645.241	45.49
645.571	45.4
645.9	46.28
646.23	46.1
646.559	45.91
646.888	45.55
647.218	45.85
647.547	45.69
647.876	45.8
648.205	45.81
648.534	45.68
648.863	45.29
649.192	45.69
649.521	45.54
649.85	46.17
650.179	45.87
650.508	46.02
650.837	46.26
651.165	46.12
651.494	45.92
651.822	46.24
652.151	46.19
652.479	46.21
652.808	45.95
653.136	46.06
653.465	45.81
653.793	46.06
654.121	46.03
654.449	46.4
654.777	46.01
655.105	46.5
655.433	46.53
655.761	46.48
656.089	46.68
656.417	46.45
656.745	46.35
657.073	46.54
657.4	46.84
657.728	46.46
658.056	46.1
658.383	46.52
658.711	46.59
659.038	46.48
659.365	46.46
659.693	46.58
660.02	46.11
660.347	46.7
660.674	46.3
661.001	46.54
661.329	46.58
661.656	46.42
661.982	46.45
662.309	46.89
662.636	47.39
662.963	47.16
663.29	47.23
663.616	46.7
663.943	47.2
664.27	46.93
664.596	47.52
664.923	46.72
665.249	47.42
665.576	47.23
665.902	46.79
666.228	47.19
666.554	47.49
666.881	46.31
667.207	47.19
667.533	47.73
667.859	47.84
668.185	47.4
668.511	47.1
668.837	47.29
669.162	46.84
669.488	47.5
669.814	48.06
670.139	47.19
670.465	47.62
670.791	47.47
671.116	47.75
671.442	47.44
