Data from 0004_forehead_Reflection__4__391.txt Node

Date: Thu Dec 15 19:36:37 CST 2022
User: ToomeyLab
Spectrometer: FLMS14357
Trigger mode: 0
Integration Time (sec): 1.000000E-2
Scans to average: 100
Electric dark correction enabled: true
Nonlinearity correction enabled: false
Boxcar width: 0
XAxis mode: Wavelengths
Number of Pixels in Spectrum: 2048
>>>>>Begin Spectral Data<<<<<
189.047	29.21
189.435	29.21
189.823	29.21
190.211	122.88
190.599	93.41
190.987	-120.26
191.375	105.14
191.763	-557.6
192.151	67.57
192.538	-38.87
192.926	-5.96
193.314	1615.6
193.702	1310.39
194.089	-97.11
194.477	-273.81
194.864	96.48
195.252	78.34
195.639	75.47
196.027	-82.37
196.414	153.68
196.801	25.47
197.189	274.98
197.576	103.4
197.963	9.07
198.351	-19.08
198.738	-40.87
199.125	1.45
199.512	15.7
199.899	-5.17
200.286	-28.14
200.673	43.98
201.06	-67.52
201.447	25.62
201.833	72.32
202.22	40.9
202.607	-106.28
202.994	16.89
203.38	48.68
203.767	-6.46
204.154	16.64
204.54	-4.89
204.927	5.38
205.313	35.92
205.699	24.74
206.086	27.49
206.472	19.75
206.858	-3.93
207.245	15.11
207.631	-2.28
208.017	31.04
208.403	-98.81
208.789	28.43
209.175	-1.39
209.561	-75.96
209.947	0.12
210.333	-17.3
210.719	14
211.105	32.74
211.491	25.85
211.876	-25.37
212.262	63.22
212.648	10.31
213.034	-3
213.419	2.23
213.805	-29.05
214.19	-23.14
214.576	-3.74
214.961	20.84
215.346	5.79
215.732	27.79
216.117	-17.79
216.502	-25.41
216.888	-16.75
217.273	-2.51
217.658	3.64
218.043	-30.63
218.428	-6.66
218.813	15.4
219.198	-20.89
219.583	-23.96
219.968	22.94
220.353	-33.99
220.738	-10.9
221.122	-17.68
221.507	-16.63
221.892	-58.87
222.276	-37.44
222.661	-17.56
223.046	-7.61
223.43	15.74
223.815	1.72
224.199	-2.33
224.583	-0.65
224.968	8.71
225.352	-3.39
225.736	11.96
226.121	-3.7
226.505	0.84
226.889	-2.95
227.273	-3.79
227.657	3.67
228.041	1.9
228.425	-3.75
228.809	-0.97
229.193	0.54
229.577	0.52
229.961	0.36
230.344	1.51
230.728	2.2
231.112	1.48
231.495	1.34
231.879	0.12
232.263	1.29
232.646	1.47
233.03	1.43
233.413	-0.04
233.797	0.77
234.18	3.62
234.563	4
234.946	-2.19
235.33	1.68
235.713	0.28
236.096	2.77
236.479	2.38
236.862	0.17
237.245	0.32
237.628	1
238.011	2.62
238.394	0.44
238.777	1.55
239.16	2.5
239.543	1.98
239.925	-0.48
240.308	0.62
240.691	0.42
241.073	0.5
241.456	1.35
241.838	2.61
242.221	1.64
242.603	1.34
242.986	1.06
243.368	1.43
243.75	1.37
244.133	1.66
244.515	1.22
244.897	1.48
245.279	1.07
245.661	0.93
246.043	1.8
246.425	1.52
246.807	1.46
247.189	1.65
247.571	1.19
247.953	1.41
248.335	1.38
248.717	1.47
249.098	1.33
249.48	1.16
249.862	1.63
250.243	1.8
250.625	1.59
251.006	2.64
251.388	0.86
251.769	0.94
252.151	2.03
252.532	0.66
252.913	0.77
253.295	1.71
253.676	1.5
254.057	0.81
254.438	1.95
254.819	1.12
255.2	1.63
255.581	2.52
255.962	0.82
256.343	2.02
256.724	1.33
257.105	1.87
257.486	0.61
257.867	1.41
258.247	0.76
258.628	1.6
259.009	1.44
259.389	0.65
259.77	1.2
260.15	2.13
260.531	1.1
260.911	1.42
261.292	1.47
261.672	1.67
262.052	1.5
262.432	1.33
262.813	1.67
263.193	1.55
263.573	1.18
263.953	1.11
264.333	1.74
264.713	1.82
265.093	1.71
265.473	2.2
265.853	1.53
266.233	2.04
266.612	1.53
266.992	1.24
267.372	2.33
267.752	1.7
268.131	1.48
268.511	1.24
268.89	2.15
269.27	1.39
269.649	1.29
270.029	1.26
270.408	1
270.787	1.67
271.167	1.55
271.546	2.14
271.925	1.73
272.304	1.22
272.683	1.2
273.062	1.6
273.441	1.13
273.82	1.61
274.199	1.14
274.578	2.03
274.957	1.47
275.336	1.65
275.715	2.36
276.093	1.14
276.472	1.49
276.851	1.66
277.229	1.61
277.608	1.45
277.986	1.03
278.365	1.77
278.743	1.58
279.122	1.25
279.5	1.42
279.878	0.96
280.257	2.41
280.635	1.77
281.013	0.57
281.391	1.57
281.769	1.68
282.147	1.49
282.525	0.86
282.903	1.11
283.281	1.98
283.659	2.04
284.037	1.66
284.415	1.34
284.792	1.33
285.17	1.49
285.548	1.31
285.925	1.08
286.303	2.07
286.68	1.71
287.058	1.72
287.435	1.5
287.813	1.6
288.19	1.22
288.567	1.82
288.945	1.32
289.322	1.79
289.699	1.69
290.076	1.53
290.453	1.48
290.83	1.74
291.207	1.41
291.584	1.95
291.961	1.69
292.338	1.52
292.715	1.77
293.092	1.47
293.469	1.65
293.845	1.67
294.222	2.04
294.599	1.7
294.975	0.95
295.352	2.01
295.728	1.96
296.105	1.85
296.481	1.67
296.858	1.96
297.234	1.41
297.61	2.05
297.986	2.27
298.363	2.22
298.739	2.24
299.115	1.81
299.491	2.4
299.867	1.99
300.243	1.95
300.619	1.84
300.995	2.34
301.371	2.58
301.746	2.05
302.122	1.47
302.498	2.43
302.874	2.63
303.249	2.15
303.625	1.44
304	2.31
304.376	2.83
304.751	2.2
305.127	2.01
305.502	2.23
305.878	2.71
306.253	2.13
306.628	2.5
307.003	2.19
307.378	1.82
307.754	2.6
308.129	1.99
308.504	2.56
308.879	2.19
309.254	2.78
309.629	2.98
310.003	2.71
310.378	2.71
310.753	3.09
311.128	2.9
311.502	2.73
311.877	2.62
312.252	3.15
312.626	3.3
313.001	3.2
313.375	2.99
313.75	3.21
314.124	3.31
314.498	3.91
314.873	3.01
315.247	3.18
315.621	3.02
315.995	3.24
316.369	3.08
316.743	3.4
317.117	3.22
317.491	3.37
317.865	3.02
318.239	3.73
318.613	3.51
318.987	3.14
319.361	3.71
319.734	3.92
320.108	3.81
320.482	4.04
320.855	3.74
321.229	3.37
321.602	3.65
321.976	3.22
322.349	4.41
322.723	3.58
323.096	3.9
323.469	4
323.843	3.77
324.216	4.28
324.589	3.92
324.962	3.9
325.335	3.79
325.708	4.09
326.081	4.44
326.454	4.7
326.827	4.29
327.2	3.86
327.573	4.67
327.945	4.5
328.318	4.48
328.691	4.48
329.063	4.23
329.436	4.3
329.809	4.43
330.181	5.01
330.553	5.16
330.926	5.48
331.298	4.52
331.671	5.01
332.043	4.77
332.415	5.23
332.787	5.29
333.159	4.8
333.532	4.95
333.904	4.9
334.276	5.36
334.648	5.22
335.02	5.43
335.391	5.17
335.763	5.53
336.135	5.5
336.507	5.26
336.879	5.13
337.25	5.34
337.622	5.35
337.993	5.43
338.365	6.21
338.736	5.6
339.108	5.91
339.479	5.73
339.851	5.77
340.222	5.9
340.593	5.53
340.964	5.47
341.336	5.52
341.707	5.81
342.078	5.23
342.449	5.94
342.82	6.16
343.191	6.06
343.562	5.98
343.933	6.11
344.303	6.87
344.674	6.2
345.045	6.27
345.416	6.66
345.786	6.19
346.157	6.45
346.527	6.42
346.898	6.1
347.268	6.68
347.639	6.26
348.009	6.62
348.38	6.41
348.75	6.83
349.12	6.58
349.49	6.57
349.861	6.38
350.231	6.78
350.601	6.72
350.971	7.03
351.341	7.15
351.711	6.8
352.081	6.85
352.45	6.93
352.82	6.69
353.19	7.37
353.56	7.44
353.929	7.33
354.299	7.54
354.669	7.3
355.038	7.86
355.408	7.28
355.777	7.64
356.147	7.52
356.516	7.63
356.885	7.61
357.254	7.78
357.624	7.39
357.993	7.96
358.362	7.81
358.731	7.92
359.1	7.6
359.469	7.8
359.838	7.9
360.207	7.89
360.576	8.23
360.945	8.22
361.314	7.87
361.682	8.04
362.051	8.15
362.42	8.15
362.788	8.42
363.157	8.12
363.525	8.47
363.894	8.17
364.262	8.19
364.631	8.65
364.999	8.53
365.367	8.29
365.735	8.43
366.104	8.69
366.472	8.58
366.84	8.94
367.208	9.26
367.576	8.71
367.944	9.14
368.312	8.94
368.68	9.29
369.048	8.88
369.416	9.04
369.783	9.34
370.151	9.48
370.519	9.79
370.886	9.55
371.254	9.72
371.621	9.63
371.989	9.9
372.356	9.67
372.724	9.69
373.091	9.65
373.458	9.7
373.826	9.8
374.193	9.89
374.56	10.02
374.927	9.59
375.294	10.02
375.661	9.81
376.028	10.07
376.395	10.13
376.762	9.95
377.129	10.09
377.496	10.13
377.863	10.4
378.229	10.6
378.596	10.53
378.963	10.32
379.329	10.49
379.696	10.37
380.062	10.69
380.429	10.51
380.795	10.74
381.161	10.43
381.528	10.4
381.894	10.79
382.26	11.09
382.626	10.93
382.993	11.03
383.359	11.11
383.725	10.84
384.091	11.46
384.457	11.02
384.823	11.42
385.188	11.09
385.554	11.52
385.92	11.29
386.286	11.71
386.651	11.34
387.017	11.73
387.383	11.44
387.748	11.85
388.114	11.67
388.479	11.75
388.845	11.79
389.21	12.01
389.575	12.45
389.94	12.05
390.306	11.96
390.671	12.31
391.036	11.98
391.401	12.32
391.766	12.11
392.131	12.41
392.496	12.46
392.861	12.09
393.226	12.38
393.591	12.45
393.956	12.62
394.32	12.94
394.685	12.54
395.05	12.61
395.414	12.63
395.779	12.78
396.143	12.67
396.508	12.68
396.872	12.86
397.236	13.24
397.601	13.22
397.965	13.19
398.329	13.3
398.694	13.2
399.058	13.31
399.422	13.12
399.786	13.06
400.15	13.46
400.514	13.6
400.878	13.49
401.242	13.65
401.605	13.49
401.969	13.75
402.333	13.79
402.697	14.14
403.06	13.69
403.424	13.95
403.787	13.91
404.151	14.03
404.514	13.91
404.878	13.77
405.241	13.98
405.604	14.02
405.968	14.03
406.331	14.32
406.694	14.1
407.057	14.17
407.42	14.28
407.783	14.36
408.146	14.32
408.509	14.57
408.872	14.48
409.235	14.67
409.598	14.84
409.961	14.86
410.323	14.98
410.686	15.1
411.049	14.98
411.411	14.92
411.774	14.96
412.136	15.1
412.499	15.23
412.861	14.89
413.223	15.07
413.586	15.26
413.948	15.31
414.31	15.45
414.672	15.14
415.035	15.49
415.397	15.49
415.759	15.35
416.121	15.66
416.483	15.49
416.845	15.47
417.206	15.42
417.568	15.64
417.93	15.7
418.292	15.52
418.653	15.51
419.015	15.74
419.377	15.65
419.738	15.68
420.1	15.7
420.461	15.71
420.822	15.77
421.184	15.79
421.545	15.9
421.906	15.8
422.267	15.76
422.629	15.78
422.99	15.76
423.351	15.87
423.712	16.04
424.073	16.11
424.434	16.4
424.795	16.17
425.155	15.99
425.516	16.08
425.877	16.12
426.238	16.26
426.598	16.41
426.959	16.43
427.32	16.48
427.68	16.55
428.041	16.78
428.401	16.71
428.761	16.91
429.122	17.14
429.482	17
429.842	17.09
430.202	17.15
430.563	17.08
430.923	17.15
431.283	17.59
431.643	17.53
432.003	17.38
432.363	17.71
432.722	17.73
433.082	17.64
433.442	17.66
433.802	17.58
434.161	17.5
434.521	17.54
434.881	17.75
435.24	17.73
435.6	17.69
435.959	17.84
436.319	17.78
436.678	18.09
437.037	17.95
437.396	18.2
437.756	18.11
438.115	18.17
438.474	18.33
438.833	18.19
439.192	18.26
439.551	18.12
439.91	18.24
440.269	18.35
440.628	18.16
440.987	18.35
441.345	18.25
441.704	18.37
442.063	18.34
442.421	18.36
442.78	18.47
443.138	18.48
443.497	18.55
443.855	18.83
444.214	18.55
444.572	18.92
444.93	18.87
445.288	18.9
445.647	18.73
446.005	18.81
446.363	19
446.721	18.88
447.079	18.89
447.437	18.86
447.795	18.82
448.153	18.93
448.51	18.97
448.868	18.94
449.226	19.03
449.584	19.07
449.941	19.39
450.299	19.42
450.656	19.63
451.014	19.56
451.371	19.65
451.729	19.87
452.086	19.76
452.443	19.94
452.801	19.96
453.158	20.21
453.515	19.95
453.872	20.08
454.229	19.78
454.586	19.9
454.943	20.21
455.3	20.35
455.657	20.27
456.014	20.37
456.371	20.37
456.727	20.41
457.084	20.57
457.441	20.43
457.797	20.58
458.154	20.71
458.51	20.54
458.867	20.65
459.223	20.69
459.58	20.75
459.936	20.77
460.292	20.64
460.648	20.51
461.005	20.51
461.361	20.4
461.717	20.53
462.073	20.65
462.429	20.9
462.785	20.86
463.141	21.13
463.496	21.25
463.852	21.4
464.208	21.36
464.564	21.45
464.919	21.47
465.275	21.42
465.631	21.56
465.986	21.59
466.342	21.61
466.697	21.73
467.052	21.71
467.408	22.08
467.763	21.59
468.118	21.58
468.473	21.93
468.829	21.58
469.184	21.99
469.539	22
469.894	22.12
470.249	22.12
470.603	22.16
470.958	22.3
471.313	22.2
471.668	22.34
472.023	22.21
472.377	22.17
472.732	22.48
473.086	22.39
473.441	22.46
473.795	22.64
474.15	22.64
474.504	22.5
474.859	22.44
475.213	22.67
475.567	22.72
475.921	22.93
476.275	22.9
476.63	22.94
476.984	22.89
477.338	22.95
477.692	22.91
478.045	22.93
478.399	22.87
478.753	22.98
479.107	23
479.461	22.98
479.814	23.11
480.168	22.9
480.521	23.28
480.875	23.19
481.228	23.34
481.582	23.43
481.935	23.29
482.289	23.44
482.642	23.3
482.995	23.33
483.348	23.19
483.701	23.2
484.055	23.03
484.408	22.94
484.761	22.49
485.114	22.36
485.466	22.3
485.819	22.36
486.172	22.64
486.525	22.91
486.878	23.16
487.23	23.11
487.583	23.26
487.936	23.22
488.288	23.15
488.641	22.93
488.993	22.96
489.345	23.04
489.698	23.04
490.05	23.35
490.402	23.32
490.754	23.56
491.107	23.66
491.459	23.96
491.811	24.07
492.163	24.03
492.515	23.83
492.866	23.52
493.218	23.41
493.57	23.57
493.922	23.76
494.274	24.21
494.625	24.36
494.977	24.59
495.328	24.8
495.68	24.81
496.031	25.12
496.383	24.92
496.734	24.94
497.086	25.1
497.437	25.16
497.788	25.07
498.139	24.93
498.49	25.02
498.842	24.88
499.193	25.06
499.544	25.27
499.894	25.25
500.245	25.5
500.596	25.47
500.947	25.51
501.298	25.58
501.648	25.69
501.999	25.79
502.35	25.72
502.7	25.96
503.051	25.94
503.401	25.97
503.752	25.99
504.102	26.03
504.452	25.86
504.803	26.07
505.153	26.32
505.503	26.14
505.853	26.34
506.203	26.23
506.553	26.1
506.903	26.31
507.253	26.22
507.603	26.46
507.953	26.52
508.303	26.44
508.652	26.47
509.002	26.43
509.352	26.62
509.701	26.49
510.051	26.48
510.4	26.58
510.75	26.49
511.099	26.53
511.449	26.68
511.798	26.61
512.147	26.79
512.496	26.85
512.846	26.77
513.195	26.83
513.544	26.75
513.893	26.94
514.242	26.94
514.591	27.03
514.939	27.1
515.288	27.33
515.637	27.39
515.986	27.24
516.334	27.35
516.683	27.62
517.032	27.45
517.38	27.51
517.729	27.42
518.077	27.59
518.426	27.56
518.774	27.51
519.122	27.47
519.47	27.36
519.819	27.13
520.167	27.09
520.515	27.37
520.863	27.3
521.211	27.7
521.559	27.7
521.907	27.85
522.255	27.86
522.602	28.11
522.95	28.18
523.298	28.11
523.645	28.24
523.993	28.25
524.341	28.27
524.688	28.34
525.036	28.4
525.383	28.34
525.73	28.34
526.078	28.3
526.425	28.23
526.772	27.94
527.119	28.08
527.466	28.06
527.814	28.01
528.161	28.18
528.508	28.2
528.854	28.16
529.201	28.05
529.548	27.79
529.895	27.45
530.242	27.53
530.588	27.71
530.935	28.04
531.282	28.07
531.628	28.33
531.975	28.47
532.321	28.66
532.667	28.81
533.014	28.98
533.36	28.86
533.706	28.98
534.052	28.74
534.399	28.6
534.745	28.31
535.091	28.44
535.437	28.68
535.783	28.8
536.129	29.1
536.474	29.32
536.82	29.36
537.166	29.43
537.512	29.54
537.857	29.32
538.203	29.16
538.549	29.13
538.894	29.35
539.239	29.72
539.585	29.94
539.93	30.01
540.276	30.32
540.621	30.41
540.966	30.24
541.311	30.32
541.656	29.91
542.001	29.76
542.346	29.56
542.691	29.21
543.036	29.18
543.381	29.43
543.726	29.72
544.071	29.84
544.415	30.05
544.76	30.07
545.105	30.18
545.449	30.25
545.794	30.47
546.138	30.67
546.483	30.7
546.827	30.67
547.171	30.76
547.516	30.89
547.86	30.89
548.204	30.8
548.548	30.79
548.892	30.98
549.236	31.11
549.58	31.15
549.924	31.49
550.268	31.39
550.612	31.79
550.956	31.67
551.3	31.8
551.643	31.96
551.987	31.93
552.33	31.82
552.674	32.08
553.017	31.84
553.361	32.05
553.704	31.98
554.048	31.8
554.391	31.92
554.734	31.77
555.077	31.86
555.42	32.06
555.764	32.24
556.107	32.35
556.45	32.34
556.793	32.54
557.135	32.44
557.478	32.63
557.821	32.6
558.164	32.73
558.507	32.46
558.849	32.79
559.192	32.7
559.534	32.76
559.877	32.96
560.219	33.06
560.562	32.98
560.904	33.13
561.246	32.99
561.589	33.14
561.931	33.2
562.273	32.99
562.615	33.1
562.957	33.05
563.299	33.15
563.641	33.33
563.983	33.12
564.325	33.45
564.667	33.31
565.008	33.36
565.35	33.39
565.692	33.61
566.033	33.35
566.375	33.64
566.716	33.5
567.058	33.42
567.399	33.51
567.741	33.29
568.082	33.29
568.423	33.52
568.764	33.53
569.105	33.89
569.447	33.82
569.788	33.79
570.129	33.93
570.47	33.83
570.811	34.06
571.151	34.05
571.492	34.08
571.833	34.14
572.174	34.19
572.514	34.15
572.855	34.36
573.195	33.91
573.536	34.14
573.876	34.02
574.217	34.1
574.557	34.22
574.898	34.28
575.238	34.58
575.578	34.31
575.918	34.55
576.258	34.71
576.598	34.39
576.938	34.5
577.278	34.67
577.618	34.59
577.958	34.87
578.298	34.66
578.638	34.89
578.977	35.25
579.317	34.96
579.657	34.83
579.996	35.21
580.336	35.52
580.675	35.74
581.014	35.64
581.354	35.36
581.693	35.6
582.032	35.78
582.372	35.83
582.711	35.61
583.05	35.79
583.389	35.92
583.728	35.8
584.067	36.21
584.406	36.01
584.745	35.89
585.083	35.8
585.422	36.05
585.761	36.12
586.1	36.17
586.438	35.91
586.777	36.19
587.115	36.39
587.454	35.92
587.792	36.53
588.13	36.42
588.469	36.55
588.807	36.43
589.145	36.23
589.483	36.54
589.821	36.24
590.159	36.62
590.497	36.74
590.835	36.79
591.173	36.28
591.511	36.63
591.849	36.47
592.187	36.54
592.524	36.79
592.862	36.92
593.2	36.89
593.537	36.58
593.875	36.68
594.212	37.07
594.55	37.06
594.887	37.07
595.224	36.81
595.561	37.24
595.899	37.17
596.236	37.08
596.573	37.09
596.91	37.24
597.247	37.16
597.584	37.3
597.921	37
598.258	37.08
598.594	36.86
598.931	37.07
599.268	36.83
599.604	37.17
599.941	37.65
600.277	37.59
600.614	37.39
600.95	37.84
601.287	37.57
601.623	37.46
601.959	38.01
602.296	37.99
602.632	37.98
602.968	37.61
603.304	38.2
603.64	38.11
603.976	37.7
604.312	37.76
604.648	37.66
604.984	37.79
605.319	37.59
605.655	37.69
605.991	37.76
606.326	37.76
606.662	37.69
606.998	37.93
607.333	38.22
607.668	38.24
608.004	38.41
608.339	38.29
608.674	38.68
609.01	38.77
609.345	38.61
609.68	38.81
610.015	38.35
610.35	38.49
610.685	38.5
611.02	38.15
611.355	38.5
611.689	38.41
612.024	38.53
612.359	38.65
612.694	38.83
613.028	38.58
613.363	38.61
613.697	39.16
614.032	38.79
614.366	39.06
614.7	39.05
615.035	39.14
615.369	39.47
615.703	39.45
616.037	39.5
616.371	39.24
616.705	39.54
617.039	39.16
617.373	39.65
617.707	39.88
618.041	39.28
618.375	39.16
618.709	39.85
619.042	39.51
619.376	39.29
619.71	39.78
620.043	39.86
620.377	39.69
620.71	39.7
621.043	39.54
621.377	40.26
621.71	40.19
622.043	40.16
622.376	40.21
622.709	39.87
623.043	39.72
623.376	40.28
623.709	40.23
624.041	40.33
624.374	39.9
624.707	40.05
625.04	39.86
625.373	40.14
625.705	40.44
626.038	40.27
626.37	39.98
626.703	40.48
627.035	40.41
627.368	40.51
627.7	40.42
628.032	40.23
628.365	40.27
628.697	40.59
629.029	40.35
629.361	40.67
629.693	40.52
630.025	40.51
630.357	41.12
630.689	40.69
631.021	40.78
631.353	40.88
631.684	40.84
632.016	40.44
632.348	40.91
632.679	40.86
633.011	40.74
633.342	41.32
633.674	41.11
634.005	41.06
634.336	41.14
634.668	41.01
634.999	40.96
635.33	41.16
635.661	41.1
635.992	41
636.323	40.89
636.654	41.5
636.985	41.65
637.316	41.15
637.647	41.65
637.977	41.46
638.308	41.7
638.639	41.52
638.969	41.84
639.3	41.34
639.63	41.65
639.961	42.13
640.291	41.53
640.622	41.91
640.952	41.97
641.282	41.49
641.612	41.8
641.943	42.02
642.273	41.93
642.603	42.18
642.933	42.66
643.263	41.92
643.592	42.28
643.922	42.5
644.252	42.55
644.582	42.02
644.911	41.78
645.241	41.9
645.571	42.09
645.9	42.48
646.23	42.42
646.559	42.62
646.888	42.47
647.218	42.06
647.547	42.77
647.876	42.39
648.205	42.68
648.534	42.58
648.863	43.29
649.192	43.02
649.521	43.31
649.85	43.03
650.179	42.96
650.508	42.78
650.837	42.78
651.165	42.73
651.494	42.59
651.822	42.98
652.151	42.62
652.479	43.15
652.808	43.12
653.136	42.9
653.465	42.82
653.793	42.46
654.121	43
654.449	42.79
654.777	42.79
655.105	43.44
655.433	43.23
655.761	43.77
656.089	43.69
656.417	43.23
656.745	43.7
657.073	42.7
657.4	43.1
657.728	43.42
658.056	43.16
658.383	43.45
658.711	43.37
659.038	43.82
659.365	43.63
659.693	43.19
660.02	43.36
660.347	43.71
660.674	42.91
661.001	42.8
661.329	43.31
661.656	43.1
661.982	43.48
662.309	43.81
662.636	43.9
662.963	43.55
663.29	43.93
663.616	43.24
663.943	43.95
664.27	44.13
664.596	44.19
664.923	44.01
665.249	44.39
665.576	43.75
665.902	43.91
666.228	43.82
666.554	44.79
666.881	43.8
667.207	43.9
667.533	44.18
667.859	44.61
668.185	44.6
668.511	44.65
668.837	44.18
669.162	43.97
669.488	44.41
669.814	44.7
670.139	44.24
670.465	44.49
670.791	44.56
671.116	44.78
671.442	43.84
671.767	44.64
672.092	44.54
672.418	45.21
