Data from 0004_crown_Reflection__0__382.txt Node

Date: Thu Dec 15 19:34:26 CST 2022
User: ToomeyLab
Spectrometer: FLMS14357
Trigger mode: 0
Integration Time (sec): 1.000000E-2
Scans to average: 100
Electric dark correction enabled: true
Nonlinearity correction enabled: false
Boxcar width: 0
XAxis mode: Wavelengths
Number of Pixels in Spectrum: 2048
>>>>>Begin Spectral Data<<<<<
189.047	-91.39
189.435	-91.39
189.823	-91.39
190.211	-107.65
190.599	103.84
190.987	-56.2
191.375	-79.7
191.763	-623.87
192.151	260.4
192.538	54.14
192.926	113.93
193.314	415.6
193.702	-367.53
194.089	-45.81
194.477	125.12
194.864	-17.67
195.252	240.36
195.639	44.53
196.027	43.84
196.414	117.69
196.801	-47.94
197.189	371.8
197.576	-50.16
197.963	-99.47
198.351	-5.52
198.738	-56.73
199.125	-90.83
199.512	-8.83
199.899	-23.26
200.286	-9.67
200.673	22.06
201.06	-25.53
201.447	17.95
201.833	-61.51
202.22	-40.56
202.607	-107.16
202.994	-30.43
203.38	55.46
203.767	-36.19
204.154	-34.38
204.54	0.32
204.927	12.7
205.313	58.56
205.699	-24.76
206.086	7.4
206.472	11.63
206.858	-32.17
207.245	-25.76
207.631	-6.77
208.017	34.61
208.403	-60.04
208.789	3.39
209.175	19.78
209.561	-144.18
209.947	-40.64
210.333	-17.47
210.719	24.08
211.105	34.76
211.491	-22.7
211.876	-3.79
212.262	2.15
212.648	-10.81
213.034	-27.3
213.419	-17.72
213.805	-40.65
214.19	-79.08
214.576	-31.39
214.961	5.9
215.346	-51.23
215.732	-44.73
216.117	-32.37
216.502	-61.71
216.888	-1.12
217.273	-20.04
217.658	-24.04
218.043	-29.56
218.428	-28.79
218.813	-21.47
219.198	-32.8
219.583	-25.63
219.968	-17.38
220.353	-61.29
220.738	-1.68
221.122	-15.87
221.507	-24.06
221.892	-21.02
222.276	-17.17
222.661	-23.37
223.046	-28.04
223.43	11.73
223.815	-10.43
224.199	-11
224.583	-11.01
224.968	-9.67
225.352	-16.04
225.736	7.02
226.121	-3.01
226.505	-1.08
226.889	-1.05
227.273	-6.36
227.657	5.25
228.041	2.55
228.425	-3.22
228.809	-5.88
229.193	2.03
229.577	1.99
229.961	1.01
230.344	2.71
230.728	2.75
231.112	1.66
231.495	0.36
231.879	0.82
232.263	2.92
232.646	0.82
233.03	3.24
233.413	1.62
233.797	-0.8
234.18	2.52
234.563	1.5
234.946	-0.93
235.33	1.03
235.713	3.68
236.096	2.48
236.479	2.72
236.862	0.73
237.245	0.37
237.628	2.79
238.011	0.22
238.394	0.78
238.777	0.49
239.16	1.08
239.543	2.18
239.925	1.57
240.308	-1.16
240.691	1.78
241.073	0.48
241.456	1.7
241.838	1.12
242.221	2.64
242.603	1.98
242.986	2.94
243.368	2.34
243.75	2.55
244.133	2.47
244.515	2.3
244.897	2
245.279	2.1
245.661	1.58
246.043	1.94
246.425	2.63
246.807	2.25
247.189	1.9
247.571	2.02
247.953	2.33
248.335	2.44
248.717	2.35
249.098	2.45
249.48	1.88
249.862	2.43
250.243	2.53
250.625	2.15
251.006	2.07
251.388	1.82
251.769	0.62
252.151	2.19
252.532	1.23
252.913	2.36
253.295	1.61
253.676	2.06
254.057	1.8
254.438	0.99
254.819	2.41
255.2	2.88
255.581	2.91
255.962	2.2
256.343	0.85
256.724	1.63
257.105	1.9
257.486	-0.04
257.867	1.23
258.247	1.52
258.628	2.41
259.009	1.37
259.389	0.96
259.77	1.63
260.15	2.34
260.531	2.46
260.911	2.03
261.292	2.16
261.672	2.04
262.052	2.24
262.432	1.89
262.813	1.81
263.193	2.46
263.573	2.36
263.953	1.57
264.333	2.55
264.713	2.1
265.093	2.1
265.473	2.34
265.853	1.61
266.233	2.11
266.612	0.59
266.992	1.57
267.372	1.89
267.752	2.21
268.131	1.65
268.511	1.65
268.89	2.52
269.27	1.19
269.649	1.55
270.029	2.14
270.408	1.89
270.787	1.87
271.167	2.5
271.546	2.28
271.925	2.25
272.304	2.22
272.683	2
273.062	1.91
273.441	1.51
273.82	1.86
274.199	1.75
274.578	2.31
274.957	2.04
275.336	2.29
275.715	2.04
276.093	0.95
276.472	1.79
276.851	2.31
277.229	2.04
277.608	1.63
277.986	2.47
278.365	2.43
278.743	2.6
279.122	1.62
279.5	1.6
279.878	1.36
280.257	2.43
280.635	2.73
281.013	1.48
281.391	1.86
281.769	2.34
282.147	1.5
282.525	1.22
282.903	1.3
283.281	2.04
283.659	2.46
284.037	1.81
284.415	1.62
284.792	2.17
285.17	1.37
285.548	1.59
285.925	1.44
286.303	2.32
286.68	2.17
287.058	2.04
287.435	1.89
287.813	2
288.19	1.91
288.567	2.02
288.945	1.79
289.322	2.04
289.699	2.17
290.076	1.7
290.453	1.65
290.83	2.04
291.207	1.98
291.584	2.1
291.961	2.2
292.338	1.98
292.715	1.51
293.092	2.25
293.469	1.76
293.845	1.88
294.222	2.15
294.599	1.44
294.975	1.44
295.352	2.18
295.728	1.91
296.105	1.74
296.481	1.78
296.858	1.78
297.234	1.61
297.61	1.74
297.986	2.49
298.363	2
298.739	2.31
299.115	1.84
299.491	2.3
299.867	1.81
300.243	1.78
300.619	1.42
300.995	2.26
301.371	2.33
301.746	2.21
302.122	1.45
302.498	1.35
302.874	2
303.249	1.95
303.625	1.5
304	1.52
304.376	2.48
304.751	2.33
305.127	1.44
305.502	2.09
305.878	1.88
306.253	1.64
306.628	1.87
307.003	2
307.378	1.86
307.754	1.69
308.129	1.18
308.504	1.73
308.879	1.62
309.254	1.95
309.629	1.86
310.003	1.88
310.378	1.92
310.753	1.95
311.128	1.71
311.502	2.19
311.877	2.12
312.252	2.26
312.626	2.64
313.001	2.1
313.375	2.31
313.75	1.74
314.124	2.15
314.498	2.15
314.873	1.78
315.247	1.95
315.621	1.89
315.995	1.71
316.369	1.58
316.743	1.44
317.117	1.87
317.491	2.15
317.865	1.07
318.239	1.81
318.613	1.85
318.987	1.42
319.361	1.53
319.734	1.98
320.108	2.33
320.482	2.06
320.855	1.48
321.229	2.04
321.602	2.39
321.976	1.13
322.349	2.81
322.723	2
323.096	1.83
323.469	1.84
323.843	1.95
324.216	2.35
324.589	1.95
324.962	1.75
325.335	1.99
325.708	2.15
326.081	2.11
326.454	2.32
326.827	1.76
327.2	1.81
327.573	2.58
327.945	1.83
328.318	1.96
328.691	1.55
329.063	1.63
329.436	1.61
329.809	2.17
330.181	2.67
330.553	2.01
330.926	2.35
331.298	2.1
331.671	2.24
332.043	1.92
332.415	2.39
332.787	2.01
333.159	1.46
333.532	2.28
333.904	2.08
334.276	2.3
334.648	2
335.02	2.13
335.391	1.76
335.763	2.22
336.135	2.56
336.507	1.9
336.879	2.13
337.25	1.92
337.622	2.19
337.993	2.12
338.365	1.93
338.736	2.03
339.108	1.85
339.479	1.9
339.851	2.17
340.222	2.25
340.593	1.77
340.964	1.92
341.336	1.89
341.707	1.65
342.078	1.49
342.449	2.26
342.82	2.34
343.191	1.95
343.562	2.41
343.933	1.9
344.303	2.49
344.674	2.21
345.045	2.01
345.416	2.12
345.786	2.03
346.157	2.14
346.527	2.1
346.898	1.76
347.268	2.42
347.639	1.62
348.009	1.96
348.38	2.13
348.75	2.31
349.12	2.25
349.49	2.05
349.861	2.02
350.231	2.11
350.601	2.2
350.971	1.84
351.341	2.42
351.711	2.06
352.081	2.07
352.45	1.7
352.82	1.5
353.19	2.16
353.56	2.32
353.929	2.36
354.299	2.25
354.669	2.34
355.038	2.3
355.408	2.05
355.777	2.48
356.147	2.11
356.516	2.01
356.885	2.25
357.254	2.15
357.624	1.76
357.993	2.48
358.362	2.15
358.731	2.32
359.1	2.26
359.469	2.34
359.838	2.32
360.207	2.37
360.576	2.52
360.945	2.32
361.314	2.32
361.682	2.11
362.051	2.21
362.42	2.18
362.788	2.46
363.157	2.21
363.525	2.24
363.894	2.1
364.262	2.15
364.631	2.62
364.999	2.26
365.367	2.33
365.735	2.3
366.104	2.18
366.472	2.3
366.84	2.44
367.208	2.25
367.576	1.95
367.944	2.26
368.312	2.2
368.68	2.43
369.048	2.06
369.416	1.98
369.783	2.4
370.151	2.2
370.519	2.83
370.886	2.55
371.254	2.41
371.621	2.48
371.989	2.25
372.356	2.42
372.724	2.2
373.091	2.15
373.458	1.95
373.826	2.28
374.193	2.33
374.56	2.33
374.927	2.21
375.294	2.35
375.661	2.38
376.028	2.37
376.395	2.5
376.762	2.17
377.129	2.39
377.496	2.6
377.863	2.61
378.229	1.99
378.596	2.4
378.963	2.35
379.329	2.29
379.696	2.19
380.062	2.41
380.429	2.25
380.795	2.73
381.161	2.06
381.528	1.86
381.894	1.99
382.26	2.26
382.626	2.47
382.993	2.69
383.359	2.48
383.725	2.17
384.091	2.51
384.457	2.34
384.823	2.46
385.188	2.24
385.554	2.61
385.92	2.3
386.286	2.58
386.651	2.24
387.017	2.61
387.383	2.22
387.748	2.67
388.114	2.39
388.479	2.35
388.845	2.19
389.21	2.75
389.575	2.75
389.94	2.55
390.306	2.42
390.671	2.55
391.036	2.32
391.401	2.65
391.766	2.28
392.131	2.68
392.496	2.24
392.861	2.46
393.226	2.4
393.591	2.46
393.956	2.56
394.32	2.62
394.685	2.28
395.05	2.48
395.414	2.41
395.779	2.5
396.143	2.29
396.508	2.36
396.872	2.27
397.236	2.71
397.601	2.28
397.965	2.5
398.329	2.37
398.694	2.31
399.058	2.55
399.422	2.43
399.786	2.24
400.15	2.44
400.514	2.51
400.878	2.38
401.242	2.54
401.605	2.53
401.969	2.51
402.333	2.21
402.697	2.64
403.06	2.46
403.424	2.5
403.787	2.51
404.151	2.58
404.514	2.56
404.878	2.44
405.241	2.44
405.604	2.56
405.968	2.51
406.331	2.85
406.694	2.59
407.057	2.48
407.42	2.53
407.783	2.46
408.146	2.43
408.509	2.59
408.872	2.44
409.235	2.66
409.598	2.38
409.961	2.48
410.323	2.39
410.686	2.32
411.049	2.68
411.411	2.53
411.774	2.65
412.136	2.58
412.499	2.55
412.861	2.23
413.223	2.42
413.586	2.38
413.948	2.59
414.31	2.63
414.672	2.24
415.035	2.66
415.397	2.45
415.759	2.03
416.121	2.6
416.483	2.53
416.845	2.59
417.206	2.57
417.568	2.28
417.93	2.57
418.292	2.45
418.653	2.28
419.015	2.36
419.377	2.4
419.738	2.5
420.1	2.48
420.461	2.42
420.822	2.47
421.184	2.52
421.545	2.53
421.906	2.57
422.267	2.45
422.629	2.49
422.99	2.46
423.351	2.49
423.712	2.58
424.073	2.66
424.434	2.54
424.795	2.38
425.155	2.44
425.516	2.42
425.877	2.56
426.238	2.46
426.598	2.58
426.959	2.48
427.32	2.42
427.68	2.61
428.041	2.63
428.401	2.44
428.761	2.55
429.122	2.5
429.482	2.5
429.842	2.49
430.202	2.55
430.563	2.59
430.923	2.62
431.283	2.75
431.643	2.67
432.003	2.52
432.363	2.66
432.722	2.51
433.082	2.46
433.442	2.64
433.802	2.44
434.161	2.59
434.521	2.6
434.881	2.52
435.24	2.65
435.6	2.66
435.959	2.68
436.319	2.6
436.678	2.67
437.037	2.57
437.396	2.48
437.756	2.4
438.115	2.56
438.474	2.62
438.833	2.63
439.192	2.52
439.551	2.46
439.91	2.59
440.269	2.53
440.628	2.6
440.987	2.7
441.345	2.65
441.704	2.56
442.063	2.55
442.421	2.64
442.78	2.58
443.138	2.56
443.497	2.64
443.855	2.67
444.214	2.5
444.572	2.78
444.93	2.44
445.288	2.64
445.647	2.4
446.005	2.51
446.363	2.75
446.721	2.63
447.079	2.59
447.437	2.6
447.795	2.6
448.153	2.62
448.51	2.69
448.868	2.6
449.226	2.67
449.584	2.62
449.941	2.65
450.299	2.67
450.656	2.57
451.014	2.61
451.371	2.76
451.729	2.57
452.086	2.67
452.443	2.73
452.801	2.73
453.158	2.76
453.515	2.62
453.872	2.72
454.229	2.57
454.586	2.57
454.943	2.6
455.3	2.63
455.657	2.66
456.014	2.8
456.371	2.8
456.727	2.78
457.084	2.72
457.441	2.62
457.797	2.58
458.154	2.67
458.51	2.56
458.867	2.8
459.223	2.61
459.58	2.58
459.936	2.72
460.292	2.61
460.648	2.53
461.005	2.59
461.361	2.54
461.717	2.52
462.073	2.75
462.429	2.74
462.785	2.75
463.141	2.67
463.496	2.61
463.852	2.76
464.208	2.58
464.564	2.66
464.919	2.74
465.275	2.66
465.631	2.88
465.986	2.7
466.342	2.61
466.697	2.72
467.052	2.81
467.408	2.81
467.763	2.76
468.118	2.64
468.473	2.66
468.829	2.65
469.184	2.78
469.539	2.76
469.894	2.68
470.249	2.85
470.603	2.89
470.958	2.68
471.313	2.77
471.668	2.69
472.023	2.91
472.377	2.71
472.732	2.89
473.086	2.68
473.441	2.68
473.795	2.85
474.15	2.68
474.504	2.68
474.859	2.51
475.213	2.82
475.567	2.72
475.921	2.85
476.275	2.84
476.63	2.82
476.984	2.62
477.338	2.76
477.692	2.78
478.045	2.7
478.399	2.75
478.753	2.75
479.107	2.69
479.461	2.75
479.814	2.73
480.168	2.78
480.521	2.86
480.875	2.77
481.228	2.82
481.582	2.82
481.935	2.83
482.289	2.81
482.642	2.84
482.995	2.75
483.348	2.69
483.701	2.8
484.055	2.74
484.408	2.7
484.761	2.69
485.114	2.6
485.466	2.59
485.819	2.58
486.172	2.66
486.525	2.64
486.878	2.72
487.23	2.76
487.583	2.83
487.936	2.72
488.288	2.72
488.641	2.7
488.993	2.68
489.345	2.68
489.698	2.69
490.05	2.66
490.402	2.69
490.754	2.72
491.107	2.74
491.459	2.85
491.811	2.76
492.163	2.78
492.515	2.68
492.866	2.68
493.218	2.67
493.57	2.77
493.922	2.73
494.274	2.86
494.625	2.92
494.977	2.92
495.328	2.83
495.68	2.84
496.031	2.82
496.383	2.79
496.734	2.78
497.086	2.88
497.437	2.86
497.788	2.93
498.139	2.79
498.49	2.9
498.842	2.89
499.193	2.74
499.544	2.85
499.894	2.87
500.245	2.87
500.596	2.93
500.947	2.85
501.298	2.89
501.648	2.89
501.999	2.92
502.35	2.95
502.7	3.02
503.051	2.77
503.401	2.89
503.752	2.84
504.102	2.89
504.452	2.78
504.803	2.78
505.153	2.91
505.503	2.92
505.853	2.89
506.203	2.89
506.553	2.85
506.903	2.98
507.253	2.89
507.603	2.9
507.953	2.91
508.303	2.89
508.652	2.85
509.002	2.98
509.352	2.95
509.701	2.79
510.051	2.98
510.4	2.95
510.75	2.82
511.099	2.83
511.449	2.89
511.798	2.79
512.147	2.81
512.496	2.85
512.846	2.94
513.195	2.91
513.544	3
513.893	2.88
514.242	2.8
514.591	2.82
514.939	2.94
515.288	2.91
515.637	2.96
515.986	2.95
516.334	3.02
516.683	2.95
517.032	3.03
517.38	2.9
517.729	2.86
518.077	2.93
518.426	2.92
518.774	2.94
519.122	2.93
519.47	2.92
519.819	2.94
520.167	2.92
520.515	2.89
520.863	2.89
521.211	2.9
521.559	2.86
521.907	2.97
522.255	2.9
522.602	3.08
522.95	3
523.298	2.98
523.645	3.02
523.993	3.03
524.341	2.99
524.688	2.99
525.036	2.96
525.383	2.96
525.73	2.93
526.078	3.09
526.425	2.97
526.772	2.91
527.119	2.96
527.466	2.98
527.814	2.96
528.161	2.99
528.508	3.04
528.854	3.04
529.201	2.82
529.548	2.9
529.895	2.83
530.242	2.81
530.588	2.83
530.935	2.89
531.282	2.88
531.628	2.94
531.975	2.92
532.321	2.96
532.667	3.07
533.014	3.03
533.36	3.03
533.706	2.99
534.052	3
534.399	2.97
534.745	2.87
535.091	2.88
535.437	2.93
535.783	2.92
536.129	2.93
536.474	3.07
536.82	3.1
537.166	3
537.512	2.96
537.857	3.08
538.203	3.04
538.549	2.94
538.894	2.98
539.239	3.09
539.585	3.04
539.93	3.18
540.276	3
540.621	3.21
540.966	3.08
541.311	3
541.656	3.05
542.001	2.99
542.346	3.01
542.691	2.91
543.036	2.93
543.381	2.98
543.726	3.03
544.071	3.04
544.415	3.02
544.76	2.99
545.105	3.04
545.449	3.01
545.794	3.12
546.138	3.17
546.483	3.1
546.827	3.23
547.171	3.15
547.516	3.02
547.86	3.11
548.204	3.13
548.548	3.04
548.892	3.14
549.236	3.1
549.58	3.14
549.924	3.19
550.268	3.23
550.612	3.18
550.956	3.24
551.3	3.35
551.643	3.16
551.987	3.15
552.33	3.3
552.674	3.17
553.017	3.29
553.361	3.3
553.704	3.28
554.048	3.08
554.391	3.28
554.734	3.1
555.077	3.2
555.42	3.16
555.764	3.12
556.107	3.27
556.45	3.26
556.793	3.32
557.135	3.36
557.478	3.28
557.821	3.33
558.164	3.35
558.507	3.09
558.849	3.32
559.192	3.25
559.534	3.13
559.877	3.18
560.219	3.2
560.562	3.24
560.904	3.42
561.246	3.21
561.589	3.38
561.931	3.27
562.273	3.22
562.615	3.06
562.957	3.14
563.299	3.2
563.641	3.32
563.983	3.13
564.325	3.2
564.667	3.26
565.008	3.25
565.35	3.07
565.692	3.34
566.033	3
566.375	3.24
566.716	3.09
567.058	3.23
567.399	3.27
567.741	3.24
568.082	3.28
568.423	3.13
568.764	3.3
569.105	3.28
569.447	3.35
569.788	3.16
570.129	3.01
570.47	3.21
570.811	3.07
571.151	3.3
571.492	3.2
571.833	3.27
572.174	3.38
572.514	3.25
572.855	3.39
573.195	3.32
573.536	3.32
573.876	3.24
574.217	3.2
574.557	3.22
574.898	3.13
575.238	3.46
575.578	3.34
575.918	3.37
576.258	3.47
576.598	3.31
576.938	3.23
577.278	3.27
577.618	3.23
577.958	3.27
578.298	3.44
578.638	3.27
578.977	3.36
579.317	3.46
579.657	3.34
579.996	3.57
580.336	3.48
580.675	3.29
581.014	3.37
581.354	3.28
581.693	3.39
582.032	3.53
582.372	3.42
582.711	3.39
583.05	3.4
583.389	3.57
583.728	3.46
584.067	3.27
584.406	3.33
584.745	3.32
585.083	3.29
585.422	3.58
585.761	3.27
586.1	3.46
586.438	3.34
586.777	3.4
587.115	3.44
587.454	3.2
587.792	3.54
588.13	3.29
588.469	3.21
588.807	3.77
589.145	3.48
589.483	3.39
589.821	3.43
590.159	3.57
590.497	3.4
590.835	3.56
591.173	3.75
591.511	3.5
591.849	3.44
592.187	3.32
592.524	3.57
592.862	3.32
593.2	3.54
593.537	3.67
593.875	3.56
594.212	3.56
594.55	3.45
594.887	3.75
595.224	3.57
595.561	3.41
595.899	3.68
596.236	3.56
596.573	3.18
596.91	3.46
597.247	3.71
597.584	3.62
597.921	3.52
598.258	3.52
598.594	3.37
598.931	3.37
599.268	3.4
599.604	3.54
599.941	3.62
600.277	3.52
600.614	3.53
600.95	3.68
601.287	3.35
601.623	3.44
601.959	3.74
602.296	3.62
602.632	3.61
602.968	3.35
603.304	3.58
603.64	3.44
603.976	3.24
604.312	3.45
604.648	3.41
604.984	3.74
605.319	3.56
605.655	3.54
605.991	3.44
606.326	3.51
606.662	3.54
606.998	3.59
607.333	3.51
607.668	3.39
608.004	3.48
608.339	3.4
608.674	3.8
609.01	3.7
609.345	3.49
609.68	3.6
610.015	3.57
610.35	3.68
610.685	3.33
611.02	3.52
611.355	3.53
611.689	3.59
612.024	3.69
612.359	3.74
612.694	3.73
613.028	3.48
613.363	3.59
613.697	3.68
614.032	3.65
614.366	3.6
614.7	3.55
615.035	3.65
615.369	3.7
615.703	3.61
616.037	3.45
616.371	3.24
616.705	3.61
617.039	3.57
617.373	3.78
617.707	3.45
618.041	3.47
618.375	3.4
618.709	3.82
619.042	3.89
619.376	3.61
619.71	3.5
620.043	3.79
620.377	3.81
620.71	3.6
621.043	3.71
621.377	3.77
621.71	3.82
622.043	4.03
622.376	3.62
622.709	4.03
623.043	3.62
623.376	3.59
623.709	4.07
624.041	3.45
624.374	3.68
624.707	3.68
625.04	3.69
625.373	3.9
625.705	3.74
626.038	3.7
626.37	3.45
626.703	3.51
627.035	3.67
627.368	4.16
627.7	3.82
628.032	3.89
628.365	4.19
628.697	3.94
629.029	3.67
629.361	3.91
629.693	3.78
630.025	3.87
630.357	3.94
630.689	3.75
631.021	3.79
631.353	3.91
631.684	3.51
632.016	3.63
632.348	3.53
632.679	4.21
633.011	3.88
633.342	3.9
633.674	3.75
634.005	4.24
634.336	3.87
634.668	3.81
634.999	3.76
635.33	3.74
635.661	3.51
635.992	4.12
636.323	3.88
636.654	3.89
636.985	3.83
637.316	3.81
637.647	3.76
637.977	3.96
638.308	3.81
638.639	3.56
638.969	3.78
639.3	3.59
639.63	3.73
639.961	4.08
640.291	3.6
640.622	4.01
640.952	4.19
641.282	3.63
641.612	4.18
641.943	3.84
642.273	3.62
642.603	3.84
642.933	4.18
643.263	4.13
643.592	4.14
643.922	4.25
644.252	3.86
644.582	3.95
644.911	4.1
645.241	3.56
645.571	3.76
645.9	4.49
646.23	4.06
646.559	3.67
646.888	4.13
647.218	3.9
647.547	3.99
647.876	3.82
648.205	3.45
648.534	3.65
648.863	3.96
649.192	3.8
649.521	4.4
649.85	4.38
650.179	4.18
650.508	3.84
650.837	4
651.165	4.06
651.494	3.98
651.822	3.98
652.151	3.89
652.479	4.23
652.808	4.06
653.136	3.57
653.465	3.85
653.793	4.08
654.121	4.16
654.449	3.33
654.777	3.86
655.105	3.86
655.433	3.98
655.761	4.1
656.089	4.37
656.417	4.65
656.745	4.52
657.073	4.44
657.4	3.82
657.728	3.83
658.056	4.25
658.383	3.94
658.711	4.17
659.038	4.24
659.365	4.22
659.693	4.23
660.02	3.99
660.347	4
660.674	3.76
661.001	4.16
661.329	3.82
661.656	3.49
661.982	3.81
662.309	4.14
662.636	4.48
662.963	4.23
663.29	4.25
663.616	4.65
663.943	4.15
664.27	4.23
664.596	4.08
664.923	3.92
665.249	4.32
665.576	3.84
665.902	3.99
666.228	3.92
666.554	4.74
666.881	4.07
667.207	4.21
667.533	3.95
667.859	4.01
668.185	4.06
668.511	4.66
668.837	4.21
669.162	4.23
669.488	4.12
669.814	4
670.139	3.83
670.465	4.54
670.791	4.17
671.116	4.23
671.442	3.89
671.767	4.05
672.092	3.91
672.418	4.09
672.743	4.09
673.068	3.89
673.393	4.6
673.718	4.05
674.043	3.65
674.368	4.04
674.693	4.62
675.018	4.36
675.343	5.07
675.667	4.2
675.992	4.33
676.317	3.87
676.641	4.35
676.966	4.57
677.29	3.98
677.615	3.85
677.939	4.73
678.264	4.13
678.588	4.63
678.912	4.66
679.236	4.17
679.56	3.83
679.885	4.36
680.209	4.27
680.532	5.23
680.856	4.74
681.18	4.46
681.504	4.56
681.828	3.99
682.152	4.4
682.475	4.43
682.799	4.18
683.122	4.25
683.446	3.98
683.769	4.52
684.093	5.05
684.416	4.34
684.739	4.06
685.062	4.71
685.386	4.29
685.709	4.82
686.032	4.43
686.355	4.55
686.678	4.57
687.001	4.8
687.324	4.04
687.646	4.53
687.969	4.64
688.292	4.76
688.614	4.48
688.937	4.71
689.26	4.53
689.582	4.85
689.904	4.72
690.227	4.66
690.549	4.92
690.871	4.36
691.194	4.27
691.516	4.95
691.838	4.35
692.16	3.77
