Data from 0004_forehead_Reflection__3__390.txt Node

Date: Thu Dec 15 19:36:26 CST 2022
User: ToomeyLab
Spectrometer: FLMS14357
Trigger mode: 0
Integration Time (sec): 1.000000E-2
Scans to average: 100
Electric dark correction enabled: true
Nonlinearity correction enabled: false
Boxcar width: 0
XAxis mode: Wavelengths
Number of Pixels in Spectrum: 2048
>>>>>Begin Spectral Data<<<<<
189.047	46.44
189.435	46.44
189.823	46.44
190.211	65.28
190.599	25.73
190.987	74.19
191.375	3.91
191.763	-595.33
192.151	60.28
192.538	-21.25
192.926	90.96
193.314	479.2
193.702	-1676.62
194.089	112.09
194.477	-83.3
194.864	78.56
195.252	161.81
195.639	50.94
196.027	115.69
196.414	311.83
196.801	-167.41
197.189	291.27
197.576	80.64
197.963	-117.08
198.351	4.37
198.738	-76
199.125	26.04
199.512	18.2
199.899	2.58
200.286	4.74
200.673	37
201.06	2.3
201.447	30.7
201.833	30.31
202.22	13.54
202.607	-56.61
202.994	-19.47
203.38	41.17
203.767	24.77
204.154	36.54
204.54	36.24
204.927	4.87
205.313	38.17
205.699	34.48
206.086	19.04
206.472	29.48
206.858	27.5
207.245	-0.62
207.631	-0.26
208.017	31.55
208.403	-46.38
208.789	20.65
209.175	3.03
209.561	-78.06
209.947	17.15
210.333	8.74
210.719	29.52
211.105	32.36
211.491	21.34
211.876	25.17
212.262	15.85
212.648	12.2
213.034	-6.89
213.419	2.7
213.805	-28.26
214.19	-25.89
214.576	22.59
214.961	14.53
215.346	12.18
215.732	10.27
216.117	53.19
216.502	23.01
216.888	16.06
217.273	16.97
217.658	-17.06
218.043	-37.26
218.428	-3.31
218.813	37.77
219.198	6.89
219.583	15.37
219.968	1.61
220.353	-12.04
220.738	12.11
221.122	8.39
221.507	-2.12
221.892	-23.89
222.276	-8.51
222.661	-6.35
223.046	-25.51
223.43	16.09
223.815	7.27
224.199	10.3
224.583	-6.34
224.968	-1.63
225.352	-5.74
225.736	13.42
226.121	5.32
226.505	4.23
226.889	3.3
227.273	-0.54
227.657	0.91
228.041	0.6
228.425	-1.55
228.809	4.31
229.193	1.38
229.577	1.38
229.961	1.19
230.344	0.85
230.728	2.55
231.112	2.48
231.495	0.65
231.879	0.98
232.263	3.05
232.646	1.63
233.03	2.7
233.413	1.8
233.797	0.63
234.18	1.43
234.563	3.07
234.946	-0.81
235.33	1.74
235.713	1.97
236.096	3.98
236.479	3.92
236.862	-0.66
237.245	1.2
237.628	1.63
238.011	1.82
238.394	2.47
238.777	3.6
239.16	3.12
239.543	4.48
239.925	1.36
240.308	0.3
240.691	1.59
241.073	2.26
241.456	1.67
241.838	1.99
242.221	2.29
242.603	1.81
242.986	1.68
243.368	2.32
243.75	1.94
244.133	2.06
244.515	1.71
244.897	1.6
245.279	1.75
245.661	2.21
246.043	1.05
246.425	3.13
246.807	2.07
247.189	1.88
247.571	1.8
247.953	1.85
248.335	1.84
248.717	2.12
249.098	2.17
249.48	2.08
249.862	1.83
250.243	1.91
250.625	2.66
251.006	3.52
251.388	1.84
251.769	2.38
252.151	1.7
252.532	1.53
252.913	2.79
253.295	2.26
253.676	1.94
254.057	1.91
254.438	2.51
254.819	1.63
255.2	3.61
255.581	3.52
255.962	2.37
256.343	2.21
256.724	2.49
257.105	2.58
257.486	0.92
257.867	2.73
258.247	2.49
258.628	2.56
259.009	1.95
259.389	0.87
259.77	1.65
260.15	2.36
260.531	2.31
260.911	2.17
261.292	2
261.672	2.13
262.052	2.01
262.432	1.89
262.813	2.17
263.193	2.28
263.573	1.62
263.953	2.02
264.333	2.21
264.713	2.32
265.093	1.77
265.473	3.01
265.853	3.01
266.233	2.39
266.612	1.72
266.992	2.05
267.372	2.15
267.752	2.65
268.131	1.78
268.511	2.02
268.89	2.29
269.27	1.71
269.649	1.62
270.029	1.63
270.408	1.85
270.787	2.07
271.167	2.17
271.546	2.17
271.925	1.8
272.304	1.64
272.683	1.61
273.062	1.66
273.441	1.89
273.82	1.97
274.199	1.46
274.578	2.16
274.957	1.63
275.336	2.25
275.715	2.54
276.093	1.24
276.472	1.56
276.851	1.93
277.229	2.09
277.608	1.9
277.986	1.93
278.365	2.52
278.743	2.01
279.122	1.51
279.5	1.69
279.878	1.63
280.257	1.77
280.635	2.54
281.013	1.98
281.391	1.93
281.769	2.39
282.147	1.72
282.525	1.18
282.903	1.84
283.281	2.08
283.659	2.06
284.037	1.39
284.415	1.59
284.792	1.99
285.17	1.65
285.548	2.15
285.925	1.81
286.303	2.45
286.68	2.02
287.058	1.83
287.435	1.75
287.813	2.08
288.19	1.85
288.567	2.07
288.945	1.83
289.322	1.9
289.699	2.27
290.076	2.19
290.453	1.9
290.83	2.25
291.207	2.13
291.584	2.65
291.961	2.16
292.338	2.19
292.715	1.77
293.092	2.24
293.469	2.4
293.845	2.13
294.222	2.29
294.599	1.77
294.975	1.88
295.352	2.4
295.728	2.21
296.105	2.09
296.481	2.56
296.858	2.21
297.234	2.3
297.61	2.49
297.986	2.87
298.363	2.55
298.739	3.05
299.115	2.36
299.491	2.66
299.867	2.4
300.243	2.77
300.619	2.53
300.995	2.71
301.371	2.7
301.746	2.75
302.122	2.53
302.498	2.63
302.874	2.65
303.249	2.7
303.625	2.5
304	2.99
304.376	3.06
304.751	2.6
305.127	3.05
305.502	3.2
305.878	2.89
306.253	2.75
306.628	2.87
307.003	2.94
307.378	3.06
307.754	3.24
308.129	2.93
308.504	3.51
308.879	3.75
309.254	3.48
309.629	3.26
310.003	3.52
310.378	3.84
310.753	3.56
311.128	3.48
311.502	3.72
311.877	3.73
312.252	3.55
312.626	3.9
313.001	4.01
313.375	4.04
313.75	3.83
314.124	4.45
314.498	4.28
314.873	4.02
315.247	4.48
315.621	3.54
315.995	4.24
316.369	3.66
316.743	3.82
317.117	4.44
317.491	4.61
317.865	3.83
318.239	4.87
318.613	4.32
318.987	3.9
319.361	4.74
319.734	4.47
320.108	4.65
320.482	4.66
320.855	4.43
321.229	5.08
321.602	5.18
321.976	4.55
322.349	5.12
322.723	5.2
323.096	5.47
323.469	5
323.843	4.05
324.216	4.86
324.589	5.7
324.962	4.9
325.335	4.99
325.708	5.26
326.081	4.92
326.454	5.42
326.827	5.64
327.2	5.44
327.573	6.02
327.945	5.11
328.318	5.28
328.691	6.01
329.063	5.03
329.436	5.54
329.809	6.14
330.181	6.7
330.553	5.83
330.926	5.97
331.298	5.84
331.671	6.27
332.043	5.75
332.415	6.01
332.787	5.95
333.159	5.76
333.532	6.62
333.904	6.48
334.276	6.13
334.648	6.21
335.02	6.18
335.391	6.03
335.763	6.58
336.135	6.34
336.507	6.49
336.879	6.65
337.25	6.63
337.622	7.12
337.993	6.51
338.365	7.07
338.736	6.89
339.108	6.75
339.479	6.53
339.851	6.92
340.222	7.22
340.593	7.2
340.964	7.17
341.336	6.78
341.707	6.97
342.078	7.03
342.449	7.18
342.82	7.77
343.191	7.26
343.562	7.2
343.933	7.57
344.303	7.72
344.674	7.25
345.045	7.6
345.416	7.57
345.786	7.7
346.157	7.81
346.527	7.88
346.898	7.66
347.268	8.2
347.639	7.53
348.009	7.92
348.38	7.56
348.75	8.32
349.12	8.25
349.49	7.91
349.861	8.32
350.231	8.3
350.601	8.27
350.971	7.79
351.341	8.61
351.711	8.31
352.081	8.48
352.45	8.39
352.82	8.25
353.19	9.02
353.56	8.41
353.929	8.68
354.299	8.93
354.669	8.96
355.038	9.44
355.408	9.13
355.777	9.03
356.147	8.93
356.516	9.28
356.885	9.14
357.254	9.28
357.624	8.99
357.993	9.46
358.362	9.44
358.731	9.68
359.1	9.2
359.469	9.41
359.838	9.67
360.207	9.73
360.576	9.95
360.945	9.86
361.314	9.75
361.682	9.57
362.051	9.83
362.42	9.9
362.788	9.99
363.157	9.92
363.525	9.94
363.894	9.76
364.262	10.22
364.631	10.4
364.999	10.23
365.367	10.26
365.735	10.2
366.104	10.17
366.472	10.4
366.84	10.63
367.208	10.74
367.576	10.48
367.944	10.49
368.312	10.74
368.68	11.16
369.048	11.22
369.416	10.53
369.783	11.11
370.151	11.29
370.519	11.51
370.886	11.13
371.254	11.18
371.621	11.41
371.989	11.43
372.356	11.36
372.724	11.1
373.091	11.48
373.458	11.3
373.826	11.83
374.193	11.39
374.56	12.1
374.927	11.91
375.294	12.11
375.661	11.97
376.028	12.01
376.395	11.94
376.762	11.75
377.129	12.19
377.496	12.05
377.863	12.18
378.229	12.61
378.596	12.55
378.963	12.49
379.329	12.14
379.696	12.32
380.062	12.74
380.429	12.2
380.795	12.86
381.161	12.55
381.528	12.6
381.894	12.97
382.26	12.9
382.626	13.01
382.993	13.09
383.359	13.18
383.725	12.88
384.091	13.34
384.457	13
384.823	13.44
385.188	13.37
385.554	13.46
385.92	13.44
386.286	13.62
386.651	13.51
387.017	13.71
387.383	13.5
387.748	13.94
388.114	13.65
388.479	13.84
388.845	13.81
389.21	14.16
389.575	14.43
389.94	14.36
390.306	14.34
390.671	14.16
391.036	14.52
391.401	14.5
391.766	14.35
392.131	14.6
392.496	14.57
392.861	14.67
393.226	14.48
393.591	14.67
393.956	14.68
394.32	14.7
394.685	14.72
395.05	14.95
395.414	14.9
395.779	15.26
396.143	14.86
396.508	15.07
396.872	15.02
397.236	15.57
397.601	15.46
397.965	15.43
398.329	15.28
398.694	15.12
399.058	15.34
399.422	15.42
399.786	15.57
400.15	15.63
400.514	15.79
400.878	15.78
401.242	15.97
401.605	15.82
401.969	15.91
402.333	15.99
402.697	16.33
403.06	16.32
403.424	16.09
403.787	16.15
404.151	16.46
404.514	16.46
404.878	16.17
405.241	16.48
405.604	16.28
405.968	16.56
406.331	16.55
406.694	16.67
407.057	16.59
407.42	16.61
407.783	16.98
408.146	16.79
408.509	16.95
408.872	16.88
409.235	17.27
409.598	17.4
409.961	17.26
410.323	17.28
410.686	17.3
411.049	17.41
411.411	17.36
411.774	17.48
412.136	17.43
412.499	17.89
412.861	17.19
413.223	17.61
413.586	17.68
413.948	17.78
414.31	17.73
414.672	17.75
415.035	18.07
415.397	18.18
415.759	17.89
416.121	18.29
416.483	18.07
416.845	18.28
417.206	18.21
417.568	18.31
417.93	18.39
418.292	18.28
418.653	18.07
419.015	18.02
419.377	18.15
419.738	18.26
420.1	18.25
420.461	18.2
420.822	18.39
421.184	18.52
421.545	18.59
421.906	18.54
422.267	18.34
422.629	18.31
422.99	18.4
423.351	18.53
423.712	18.64
424.073	18.79
424.434	18.81
424.795	18.81
425.155	18.66
425.516	18.67
425.877	18.84
426.238	18.76
426.598	19.01
426.959	19.1
427.32	19.2
427.68	19.27
428.041	19.46
428.401	19.34
428.761	19.79
429.122	19.65
429.482	19.76
429.842	19.87
430.202	19.96
430.563	19.98
430.923	19.91
431.283	20.11
431.643	20.31
432.003	20.09
432.363	20.45
432.722	20.3
433.082	20.47
433.442	20.37
433.802	20.4
434.161	20.32
434.521	20.45
434.881	20.42
435.24	20.52
435.6	20.43
435.959	20.68
436.319	20.65
436.678	20.66
437.037	20.88
437.396	20.79
437.756	20.75
438.115	20.97
438.474	21.05
438.833	21.04
439.192	20.94
439.551	20.95
439.91	21.17
440.269	21.03
440.628	21.09
440.987	21.13
441.345	21.16
441.704	21.12
442.063	21.18
442.421	21.18
442.78	21.32
443.138	21.3
443.497	21.38
443.855	21.6
444.214	21.6
444.572	21.87
444.93	21.81
445.288	22.05
445.647	21.7
446.005	21.79
446.363	22.01
446.721	21.77
447.079	21.75
447.437	21.78
447.795	21.69
448.153	21.78
448.51	21.76
448.868	21.9
449.226	21.86
449.584	22.05
449.941	22.26
450.299	22.28
450.656	22.41
451.014	22.62
451.371	22.61
451.729	22.62
452.086	22.92
452.443	22.9
452.801	22.9
453.158	23.12
453.515	22.81
453.872	22.93
454.229	22.85
454.586	22.99
454.943	23.06
455.3	23.14
455.657	23.31
456.014	23.27
456.371	23.3
456.727	23.49
457.084	23.56
457.441	23.58
457.797	23.75
458.154	23.76
458.51	23.65
458.867	23.6
459.223	23.68
459.58	23.76
459.936	23.83
460.292	23.79
460.648	23.51
461.005	23.4
461.361	23.44
461.717	23.51
462.073	23.57
462.429	23.76
462.785	24.02
463.141	24.19
463.496	24.2
463.852	24.39
464.208	24.48
464.564	24.43
464.919	24.47
465.275	24.69
465.631	24.69
465.986	24.79
466.342	24.53
466.697	24.75
467.052	25
467.408	24.86
467.763	24.96
468.118	24.86
468.473	24.93
468.829	25
469.184	24.95
469.539	25.02
469.894	25.13
470.249	25.24
470.603	25.24
470.958	25.24
471.313	25.41
471.668	25.35
472.023	25.44
472.377	25.41
472.732	25.84
473.086	25.3
473.441	25.54
473.795	25.78
474.15	25.61
474.504	25.54
474.859	25.57
475.213	25.95
475.567	25.81
475.921	25.87
476.275	25.99
476.63	26.15
476.984	26.01
477.338	26.34
477.692	26.18
478.045	26.23
478.399	26.18
478.753	26.17
479.107	26.28
479.461	26.16
479.814	26.49
480.168	26.27
480.521	26.59
480.875	26.51
481.228	26.5
481.582	26.33
481.935	26.69
482.289	26.5
482.642	26.56
482.995	26.55
483.348	26.44
483.701	26.34
484.055	26.33
484.408	26.21
484.761	25.74
485.114	25.63
485.466	25.52
485.819	25.62
486.172	25.75
486.525	25.86
486.878	26.1
487.23	26.25
487.583	26.4
487.936	26.35
488.288	26.36
488.641	26.13
488.993	26.26
489.345	26.16
489.698	26.26
490.05	26.45
490.402	26.62
490.754	26.7
491.107	26.95
491.459	27.2
491.811	27.22
492.163	27.21
492.515	27.01
492.866	26.91
493.218	26.83
493.57	26.87
493.922	27.02
494.274	27.26
494.625	27.55
494.977	27.75
495.328	28.01
495.68	28.17
496.031	28.2
496.383	28.36
496.734	28.27
497.086	28.45
497.437	28.51
497.788	28.37
498.139	28.25
498.49	28.28
498.842	28.26
499.193	28.29
499.544	28.47
499.894	28.53
500.245	28.81
500.596	28.78
500.947	28.91
501.298	28.9
501.648	28.98
501.999	28.98
502.35	29.08
502.7	29.27
503.051	29.32
503.401	29.3
503.752	29.25
504.102	29.36
504.452	29.59
504.803	29.34
505.153	29.46
505.503	29.32
505.853	29.56
506.203	29.54
506.553	29.34
506.903	29.69
507.253	29.81
507.603	29.82
507.953	29.74
508.303	29.82
508.652	29.74
509.002	29.95
509.352	29.92
509.701	29.81
510.051	29.83
510.4	29.96
510.75	29.77
511.099	29.76
511.449	30.07
511.798	30.05
512.147	30.13
512.496	30.14
512.846	30.25
513.195	30.2
513.544	30.15
513.893	30.3
514.242	30.31
514.591	30.46
514.939	30.53
515.288	30.78
515.637	30.69
515.986	30.75
516.334	30.85
516.683	30.72
517.032	30.77
517.38	30.9
517.729	30.89
518.077	30.98
518.426	30.94
518.774	30.87
519.122	30.75
519.47	30.8
519.819	30.57
520.167	30.49
520.515	30.67
520.863	30.72
521.211	31.01
521.559	31.03
521.907	31.12
522.255	31.2
522.602	31.54
522.95	31.68
523.298	31.49
523.645	31.6
523.993	31.77
524.341	31.69
524.688	31.72
525.036	31.71
525.383	31.91
525.73	31.86
526.078	31.83
526.425	31.66
526.772	31.58
527.119	31.56
527.466	31.6
527.814	31.43
528.161	31.74
528.508	31.64
528.854	31.63
529.201	31.45
529.548	31.34
529.895	31
530.242	31.04
530.588	31.22
530.935	31.37
531.282	31.41
531.628	31.56
531.975	31.77
532.321	31.95
532.667	32.05
533.014	32.23
533.36	32.13
533.706	32.2
534.052	32.24
534.399	31.95
534.745	31.89
535.091	31.92
535.437	32.03
535.783	32.2
536.129	32.26
536.474	32.56
536.82	32.62
537.166	32.81
537.512	32.82
537.857	32.76
538.203	32.69
538.549	32.58
538.894	32.92
539.239	32.97
539.585	33.08
539.93	33.26
540.276	33.36
540.621	33.76
540.966	33.6
541.311	33.77
541.656	33.56
542.001	33.37
542.346	33.13
542.691	32.87
543.036	32.82
543.381	32.94
543.726	32.96
544.071	33.08
544.415	33.19
544.76	33.23
545.105	33.6
545.449	33.58
545.794	33.86
546.138	33.85
546.483	34.04
546.827	34.06
547.171	34.15
547.516	34.21
547.86	34.1
548.204	34.31
548.548	34.17
548.892	34.3
549.236	34.38
549.58	34.48
549.924	34.66
550.268	34.83
550.612	34.85
550.956	35.11
551.3	35.22
551.643	35.13
551.987	35.37
552.33	35.36
552.674	35.17
553.017	35.35
553.361	35.28
553.704	35.43
554.048	35.26
554.391	35.27
554.734	35.23
555.077	35.22
555.42	35.23
555.764	35.63
556.107	35.78
556.45	35.67
556.793	35.74
557.135	35.93
557.478	35.96
557.821	36.15
558.164	35.99
558.507	36.01
558.849	36.23
559.192	35.87
559.534	36.12
559.877	36.1
560.219	36.14
560.562	36.53
560.904	36.55
561.246	36.19
561.589	36.43
561.931	36.53
562.273	36.37
562.615	36.52
562.957	36.47
563.299	36.71
563.641	36.47
563.983	36.48
564.325	36.59
564.667	36.79
565.008	36.74
565.35	36.57
565.692	37.06
566.033	37.02
566.375	36.99
566.716	36.93
567.058	36.83
567.399	36.8
567.741	36.92
568.082	36.8
568.423	36.86
568.764	36.94
569.105	37.18
569.447	37.16
569.788	36.84
570.129	37.1
570.47	37.43
570.811	37.51
571.151	37.24
571.492	37.52
571.833	37.49
572.174	37.61
572.514	37.65
572.855	37.76
573.195	37.33
573.536	37.58
573.876	37.61
574.217	37.28
574.557	37.36
574.898	37.56
575.238	37.71
575.578	37.69
575.918	37.86
576.258	38.12
576.598	37.66
576.938	37.69
577.278	38.12
577.618	38.11
577.958	38.18
578.298	38.09
578.638	38.22
578.977	38.32
579.317	38.31
579.657	38.56
579.996	38.39
580.336	38.8
580.675	38.8
581.014	38.69
581.354	38.66
581.693	38.91
582.032	39.04
582.372	39.31
582.711	39.16
583.05	39.25
583.389	39.07
583.728	39.11
584.067	38.95
584.406	39.17
584.745	39.17
585.083	39.32
585.422	39.14
585.761	39.51
586.1	39.33
586.438	39.36
586.777	39.64
587.115	39.61
587.454	39.2
587.792	39.46
588.13	39.65
588.469	39.6
588.807	39.53
589.145	39.61
589.483	39.74
589.821	39.82
590.159	39.97
590.497	39.76
590.835	39.99
591.173	39.7
591.511	39.92
591.849	39.92
592.187	39.62
592.524	39.65
592.862	40.14
593.2	40.1
593.537	40.08
593.875	39.94
594.212	40.29
594.55	40.09
594.887	40.58
595.224	40.41
595.561	40.34
595.899	40.34
596.236	40.27
596.573	40.07
596.91	40.37
597.247	40.59
597.584	40.61
597.921	40.48
598.258	40.11
598.594	40.14
598.931	40.42
599.268	40.26
599.604	40.32
599.941	40.29
600.277	40.64
600.614	40.71
600.95	40.94
601.287	40.77
601.623	40.88
601.959	41.05
602.296	41.06
602.632	41.39
602.968	40.89
603.304	41.39
603.64	41.1
603.976	41.37
604.312	41.09
604.648	41.21
604.984	40.81
605.319	40.93
605.655	40.78
605.991	40.9
606.326	41.13
606.662	40.88
606.998	41.21
607.333	41.24
607.668	41.24
608.004	41.16
608.339	41.14
608.674	41.54
609.01	41.67
609.345	41.65
609.68	41.96
610.015	41.51
610.35	41.97
610.685	41.58
611.02	41.43
611.355	41.57
611.689	41.54
612.024	41.85
612.359	41.65
612.694	42.05
613.028	41.67
613.363	41.78
613.697	42.28
614.032	42.24
614.366	42.27
614.7	42.17
615.035	42.41
615.369	42.48
615.703	42.63
616.037	42.56
616.371	42.57
616.705	42.73
617.039	42.34
617.373	42.54
617.707	42.77
618.041	42.59
618.375	42.39
618.709	42.95
619.042	42.74
619.376	42.11
619.71	42.98
620.043	43.22
620.377	43
620.71	42.62
621.043	42.97
621.377	43.25
621.71	42.92
622.043	43.13
622.376	42.87
622.709	43.46
623.043	43.33
623.376	43.02
623.709	43.2
624.041	43.39
624.374	43.43
624.707	43
625.04	43.82
625.373	43.62
625.705	43.44
626.038	43.58
626.37	43.31
626.703	43.23
627.035	43.25
627.368	43.62
627.7	43.43
628.032	43.82
628.365	43.84
628.697	43.54
629.029	43.36
629.361	43.76
629.693	43.48
630.025	43.7
630.357	44.03
630.689	43.78
631.021	43.79
631.353	43.63
631.684	43.95
632.016	43.5
632.348	44.05
632.679	44.08
633.011	44.3
633.342	44.37
633.674	44.17
634.005	43.94
634.336	44.49
634.668	44.15
634.999	44.39
635.33	44.54
635.661	44.27
635.992	44.27
636.323	44.1
636.654	44.14
636.985	44.02
637.316	44.82
637.647	44.69
637.977	44.97
638.308	44.83
638.639	44.5
638.969	44.64
639.3	44.77
639.63	45.03
639.961	44.82
640.291	44.42
640.622	44.99
640.952	45.33
641.282	45.1
641.612	45.09
641.943	44.88
642.273	45.57
642.603	45.83
642.933	45.36
643.263	44.76
643.592	44.68
643.922	44.95
644.252	44.97
644.582	45.34
644.911	45.52
645.241	45.56
645.571	45.52
645.9	45.71
646.23	45.34
646.559	45.33
646.888	45.45
647.218	45.58
647.547	45.5
647.876	45.11
648.205	45.16
648.534	45.3
648.863	45.67
649.192	45.38
649.521	46.05
649.85	46.55
650.179	45.87
650.508	45.8
650.837	46.13
651.165	45.97
651.494	46.05
651.822	46.23
652.151	45.71
652.479	46.01
652.808	46.06
653.136	46.06
653.465	45.53
653.793	46.36
654.121	46.15
654.449	46.2
654.777	46.07
655.105	46.23
655.433	46.2
655.761	46.36
656.089	46.12
656.417	45.94
656.745	46.38
657.073	45.81
657.4	46.07
657.728	46.26
658.056	46.54
658.383	46.39
658.711	46.76
659.038	46.77
659.365	46.77
659.693	46.57
660.02	46.36
660.347	46.48
660.674	45.76
661.001	45.88
661.329	46.68
661.656	46.42
661.982	46.77
662.309	47.01
662.636	47.14
662.963	46.75
663.29	46.83
663.616	46.9
663.943	47.05
664.27	47.12
664.596	46.91
664.923	46.94
665.249	47.68
665.576	47.01
665.902	46.63
666.228	46.99
666.554	47.02
666.881	47.2
667.207	47.63
667.533	47.41
667.859	47.26
668.185	47.33
668.511	47.5
668.837	46.93
669.162	47.31
669.488	47.32
669.814	47.14
670.139	47.47
670.465	48.01
670.791	47.22
671.116	47.85
671.442	47.22
671.767	47.86
672.092	47.17
