Data from 0004_chest_Reflection__4__381.txt Node

Date: Thu Dec 15 19:33:41 CST 2022
User: ToomeyLab
Spectrometer: FLMS14357
Trigger mode: 0
Integration Time (sec): 1.000000E-2
Scans to average: 100
Electric dark correction enabled: true
Nonlinearity correction enabled: false
Boxcar width: 0
XAxis mode: Wavelengths
Number of Pixels in Spectrum: 2048
>>>>>Begin Spectral Data<<<<<
189.047	-53.52
189.435	-53.52
189.823	-53.52
190.211	-62.81
190.599	53.93
190.987	139.84
191.375	58.41
191.763	-540.27
192.151	202.58
192.538	-13.22
192.926	128.35
193.314	-315.9
193.702	1319.05
194.089	36.74
194.477	-231.33
194.864	106.3
195.252	175.09
195.639	64.26
196.027	-2.1
196.414	234.09
196.801	2.86
197.189	264.62
197.576	-104.05
197.963	-89.19
198.351	29.17
198.738	-66.68
199.125	-126.25
199.512	-1.49
199.899	-55.3
200.286	-10.49
200.673	25.51
201.06	-57.85
201.447	-31.94
201.833	-46.54
202.22	-39.03
202.607	-108.6
202.994	-7.28
203.38	-9.06
203.767	16.83
204.154	32.62
204.54	-4.15
204.927	-23.82
205.313	13.38
205.699	-24.45
206.086	8.54
206.472	20
206.858	-45.53
207.245	-3.81
207.631	-30.35
208.017	41.67
208.403	-121.3
208.789	-16.49
209.175	-64.97
209.561	-71.13
209.947	-26.97
210.333	-14.83
210.719	47.26
211.105	14.27
211.491	19.48
211.876	-40.8
212.262	4.71
212.648	-11.95
213.034	-26.7
213.419	-20.82
213.805	-45.11
214.19	-43.64
214.576	-16.15
214.961	-23.09
215.346	-42.92
215.732	-29.24
216.117	-23.19
216.502	-37.39
216.888	-11.02
217.273	-4.03
217.658	-27.75
218.043	-43.98
218.428	-16.05
218.813	-13.64
219.198	-49.1
219.583	-35.95
219.968	-11.85
220.353	-30.17
220.738	-44.34
221.122	-16.95
221.507	-31.41
221.892	-32.85
222.276	-44.07
222.661	-23.53
223.046	-38.38
223.43	3.15
223.815	-15.54
224.199	-3.96
224.583	-4.81
224.968	-4.87
225.352	-14.88
225.736	2.55
226.121	-8.76
226.505	-10.93
226.889	-3.26
227.273	-7.11
227.657	-3.54
228.041	-1.85
228.425	-4.17
228.809	0.14
229.193	1.45
229.577	0.74
229.961	1.04
230.344	3.52
230.728	3.12
231.112	2.57
231.495	1.44
231.879	3.85
232.263	2.23
232.646	0.89
233.03	2.23
233.413	1.76
233.797	-2.81
234.18	0.6
234.563	2.73
234.946	0
235.33	2.08
235.713	4.59
236.096	2.78
236.479	2.39
236.862	0.38
237.245	-0.69
237.628	2.51
238.011	0.41
238.394	0.57
238.777	3.05
239.16	4.49
239.543	4.1
239.925	1.87
240.308	0.92
240.691	0.63
241.073	1.71
241.456	1.82
241.838	2.56
242.221	1.83
242.603	2.7
242.986	3.2
243.368	2.5
243.75	3.35
244.133	3.4
244.515	2.94
244.897	2.19
245.279	2.05
245.661	2.78
246.043	1.91
246.425	3.28
246.807	2.85
247.189	2.39
247.571	2.74
247.953	2.64
248.335	2.92
248.717	3.15
249.098	2.88
249.48	2.83
249.862	2.85
250.243	2.91
250.625	2.79
251.006	3.5
251.388	2.51
251.769	2.21
252.151	2.37
252.532	2.95
252.913	2
253.295	2.58
253.676	2.83
254.057	2.86
254.438	2.61
254.819	2.38
255.2	2.61
255.581	2.62
255.962	2.54
256.343	2.27
256.724	3.35
257.105	1.28
257.486	1.34
257.867	2.39
258.247	2.09
258.628	2.47
259.009	2.24
259.389	1.85
259.77	2.2
260.15	3.26
260.531	3.08
260.911	2.64
261.292	2.8
261.672	2.71
262.052	2.57
262.432	2.09
262.813	2.74
263.193	3.06
263.573	2.84
263.953	2.15
264.333	2.62
264.713	2.22
265.093	1.62
265.473	3.19
265.853	2.35
266.233	1.98
266.612	1.57
266.992	2.39
267.372	2.4
267.752	2.2
268.131	2.04
268.511	2.48
268.89	2.57
269.27	2.18
269.649	2.7
270.029	2.72
270.408	2.51
270.787	2.65
271.167	2.51
271.546	3.3
271.925	2.23
272.304	2.25
272.683	2.35
273.062	2.42
273.441	2.19
273.82	2.57
274.199	2.5
274.578	2.81
274.957	2.46
275.336	2.84
275.715	2.4
276.093	1.87
276.472	1.8
276.851	2.65
277.229	2.5
277.608	2.1
277.986	2.59
278.365	2.48
278.743	2.47
279.122	2.3
279.5	1.85
279.878	2.52
280.257	2.41
280.635	2.51
281.013	1.72
281.391	2.32
281.769	2.75
282.147	2.08
282.525	2.16
282.903	1.93
283.281	3.17
283.659	2.87
284.037	2.12
284.415	2.33
284.792	2.24
285.17	2.63
285.548	2.22
285.925	2.5
286.303	2.99
286.68	2.23
287.058	2.65
287.435	2.35
287.813	2.56
288.19	2.13
288.567	1.97
288.945	1.89
289.322	2.65
289.699	2.44
290.076	2.23
290.453	2.31
290.83	2.37
291.207	2.35
291.584	2.64
291.961	2.25
292.338	2.09
292.715	2.14
293.092	2.29
293.469	2.5
293.845	2.23
294.222	2.79
294.599	2.37
294.975	2.02
295.352	2.5
295.728	2.43
296.105	2.5
296.481	2.44
296.858	2.48
297.234	2.42
297.61	2.75
297.986	2.66
298.363	2.54
298.739	2.79
299.115	2.59
299.491	2.74
299.867	2.13
300.243	2.79
300.619	2.43
300.995	2.76
301.371	2.71
301.746	2.44
302.122	1.71
302.498	2.58
302.874	2.58
303.249	2.42
303.625	2.49
304	2.74
304.376	2.83
304.751	2.48
305.127	2.5
305.502	2.29
305.878	2.66
306.253	2.19
306.628	2.41
307.003	2.24
307.378	2.16
307.754	2.32
308.129	1.9
308.504	2.6
308.879	2.07
309.254	2.92
309.629	2.44
310.003	2.72
310.378	2.83
310.753	2.72
311.128	2.19
311.502	2.7
311.877	2.67
312.252	2.91
312.626	3.09
313.001	2.42
313.375	2.52
313.75	2.56
314.124	2.62
314.498	2.92
314.873	2.25
315.247	2
315.621	2.33
315.995	2.29
316.369	2.23
316.743	2.28
317.117	2.13
317.491	2.65
317.865	2.24
318.239	3.02
318.613	2.57
318.987	2.12
319.361	2.5
319.734	2.23
320.108	2.57
320.482	2.49
320.855	2.52
321.229	2.5
321.602	3.01
321.976	2
322.349	2.83
322.723	2.23
323.096	2.22
323.469	2.02
323.843	2.39
324.216	2.18
324.589	2.78
324.962	2.19
325.335	2.46
325.708	2.46
326.081	2.67
326.454	2.73
326.827	2.64
327.2	2.12
327.573	2.89
327.945	2.48
328.318	2.56
328.691	2.52
329.063	2.39
329.436	2.32
329.809	3.04
330.181	3.4
330.553	3.15
330.926	3.35
331.298	2.58
331.671	2.73
332.043	2.58
332.415	2.93
332.787	2.61
333.159	1.95
333.532	3.12
333.904	2.63
334.276	2.8
334.648	2.61
335.02	2.54
335.391	2.53
335.763	2.89
336.135	2.59
336.507	2.59
336.879	2.43
337.25	2.71
337.622	2.91
337.993	2.43
338.365	2.86
338.736	2.75
339.108	2.73
339.479	2.8
339.851	2.77
340.222	3.06
340.593	2.79
340.964	2.53
341.336	2.11
341.707	2.51
342.078	2.56
342.449	2.73
342.82	2.77
343.191	2.56
343.562	3.12
343.933	2.5
344.303	2.8
344.674	2.81
345.045	2.81
345.416	3.12
345.786	2.67
346.157	2.74
346.527	2.6
346.898	2.58
347.268	2.64
347.639	2.66
348.009	2.93
348.38	2.59
348.75	2.8
349.12	2.58
349.49	2.82
349.861	2.54
350.231	2.47
350.601	2.46
350.971	2.63
351.341	2.85
351.711	2.95
352.081	2.44
352.45	2.52
352.82	2.27
353.19	2.29
353.56	2.59
353.929	2.79
354.299	2.79
354.669	3.09
355.038	2.92
355.408	2.82
355.777	3.15
356.147	2.92
356.516	2.68
356.885	2.72
357.254	2.89
357.624	2.53
357.993	2.97
358.362	3.07
358.731	3.06
359.1	2.85
359.469	3.02
359.838	2.87
360.207	2.85
360.576	2.69
360.945	2.86
361.314	2.87
361.682	2.47
362.051	2.7
362.42	2.9
362.788	2.98
363.157	2.7
363.525	2.86
363.894	2.78
364.262	2.95
364.631	3.2
364.999	2.79
365.367	2.77
365.735	2.68
366.104	2.74
366.472	2.73
366.84	2.96
367.208	3.09
367.576	2.79
367.944	3.11
368.312	2.65
368.68	3.38
369.048	2.69
369.416	2.49
369.783	2.79
370.151	3.14
370.519	3.39
370.886	3.11
371.254	3.4
371.621	3.26
371.989	2.85
372.356	2.98
372.724	2.7
373.091	2.86
373.458	2.58
373.826	3.06
374.193	2.84
374.56	2.97
374.927	2.68
375.294	3.27
375.661	3
376.028	2.91
376.395	3.03
376.762	2.85
377.129	2.85
377.496	2.91
377.863	2.94
378.229	3.31
378.596	3.16
378.963	2.93
379.329	3.21
379.696	3.05
380.062	3.02
380.429	2.87
380.795	3.16
381.161	2.92
381.528	2.53
381.894	2.98
382.26	2.75
382.626	2.99
382.993	3.37
383.359	2.94
383.725	2.96
384.091	3.03
384.457	3.01
384.823	2.79
385.188	2.99
385.554	2.92
385.92	2.99
386.286	2.85
386.651	2.71
387.017	3.1
387.383	2.89
387.748	3.21
388.114	3.13
388.479	2.94
388.845	2.73
389.21	3.31
389.575	3.33
389.94	3.24
390.306	3.09
390.671	2.96
391.036	3.07
391.401	3.28
391.766	3.01
392.131	3.3
392.496	3.16
392.861	3.12
393.226	3.05
393.591	3.01
393.956	3
394.32	3.35
394.685	2.94
395.05	3.03
395.414	3.07
395.779	3.41
396.143	3.07
396.508	3.09
396.872	3.18
397.236	3.26
397.601	3.1
397.965	3
398.329	3.27
398.694	2.85
399.058	3.19
399.422	2.99
399.786	3.09
400.15	3.02
400.514	3.23
400.878	3.23
401.242	3.34
401.605	3.32
401.969	3.16
402.333	2.98
402.697	3.1
403.06	3.07
403.424	3.07
403.787	3.19
404.151	3.17
404.514	3.31
404.878	2.92
405.241	3.17
405.604	3.26
405.968	3.16
406.331	3.23
406.694	3.16
407.057	3.01
407.42	3.08
407.783	3.48
408.146	3.1
408.509	3.28
408.872	3.18
409.235	3.17
409.598	3.09
409.961	3.26
410.323	3.05
410.686	3.21
411.049	3.39
411.411	3.07
411.774	3.16
412.136	3.18
412.499	3.42
412.861	2.73
413.223	3.01
413.586	3.18
413.948	3.2
414.31	3.12
414.672	3.15
415.035	3.29
415.397	3.21
415.759	2.95
416.121	3.15
416.483	3.3
416.845	3.25
417.206	3.29
417.568	3.26
417.93	3.3
418.292	3.04
418.653	3.23
419.015	3.12
419.377	3.15
419.738	3.27
420.1	3.32
420.461	3.1
420.822	3.35
421.184	3.22
421.545	3.32
421.906	3.24
422.267	3.21
422.629	3.15
422.99	3.19
423.351	3.25
423.712	3.31
424.073	3.26
424.434	3.4
424.795	3.11
425.155	3.11
425.516	3.16
425.877	3.21
426.238	3.16
426.598	3.32
426.959	3.25
427.32	3.21
427.68	3.24
428.041	3.31
428.401	3.24
428.761	3.49
429.122	3.33
429.482	3.17
429.842	3.16
430.202	3.38
430.563	3.17
430.923	3.35
431.283	3.39
431.643	3.47
432.003	3.32
432.363	3.34
432.722	3.28
433.082	3.2
433.442	3.35
433.802	3.18
434.161	3.47
434.521	3.28
434.881	3.44
435.24	3.26
435.6	3.45
435.959	3.37
436.319	3.43
436.678	3.36
437.037	3.19
437.396	3.37
437.756	3.35
438.115	3.23
438.474	3.29
438.833	3.5
439.192	3.32
439.551	3.26
439.91	3.41
440.269	3.37
440.628	3.3
440.987	3.36
441.345	3.31
441.704	3.42
442.063	3.3
442.421	3.3
442.78	3.36
443.138	3.31
443.497	3.39
443.855	3.5
444.214	3.34
444.572	3.47
444.93	3.41
445.288	3.34
445.647	3.35
446.005	3.35
446.363	3.43
446.721	3.3
447.079	3.26
447.437	3.35
447.795	3.36
448.153	3.35
448.51	3.44
448.868	3.37
449.226	3.42
449.584	3.46
449.941	3.34
450.299	3.36
450.656	3.36
451.014	3.49
451.371	3.42
451.729	3.39
452.086	3.44
452.443	3.44
452.801	3.44
453.158	3.6
453.515	3.32
453.872	3.5
454.229	3.28
454.586	3.31
454.943	3.48
455.3	3.44
455.657	3.27
456.014	3.39
456.371	3.49
456.727	3.55
457.084	3.59
457.441	3.37
457.797	3.45
458.154	3.46
458.51	3.38
458.867	3.5
459.223	3.35
459.58	3.36
459.936	3.46
460.292	3.39
460.648	3.33
461.005	3.43
461.361	3.45
461.717	3.39
462.073	3.5
462.429	3.49
462.785	3.59
463.141	3.49
463.496	3.59
463.852	3.68
464.208	3.5
464.564	3.47
464.919	3.49
465.275	3.58
465.631	3.67
465.986	3.59
466.342	3.42
466.697	3.49
467.052	3.67
467.408	3.77
467.763	3.59
468.118	3.3
468.473	3.63
468.829	3.53
469.184	3.68
469.539	3.36
469.894	3.6
470.249	3.58
470.603	3.51
470.958	3.6
471.313	3.63
471.668	3.65
472.023	3.66
472.377	3.49
472.732	3.73
473.086	3.6
473.441	3.65
473.795	3.77
474.15	3.69
474.504	3.5
474.859	3.53
475.213	3.67
475.567	3.48
475.921	3.67
476.275	3.73
476.63	3.68
476.984	3.61
477.338	3.76
477.692	3.72
478.045	3.61
478.399	3.72
478.753	3.6
479.107	3.68
479.461	3.53
479.814	3.74
480.168	3.69
480.521	3.74
480.875	3.72
481.228	3.79
481.582	3.76
481.935	3.72
482.289	3.54
482.642	3.79
482.995	3.66
483.348	3.54
483.701	3.71
484.055	3.65
484.408	3.62
484.761	3.54
485.114	3.42
485.466	3.47
485.819	3.46
486.172	3.53
486.525	3.59
486.878	3.6
487.23	3.65
487.583	3.62
487.936	3.6
488.288	3.63
488.641	3.6
488.993	3.55
489.345	3.59
489.698	3.6
490.05	3.6
490.402	3.63
490.754	3.65
491.107	3.69
491.459	3.76
491.811	3.77
492.163	3.7
492.515	3.69
492.866	3.66
493.218	3.56
493.57	3.68
493.922	3.71
494.274	3.83
494.625	3.8
494.977	3.8
495.328	3.93
495.68	3.91
496.031	3.94
496.383	3.82
496.734	3.83
497.086	3.76
497.437	3.87
497.788	3.99
498.139	3.75
498.49	3.92
498.842	3.81
499.193	3.8
499.544	3.88
499.894	3.97
500.245	3.94
500.596	3.89
500.947	3.9
501.298	3.88
501.648	3.9
501.999	4.08
502.35	3.87
502.7	4.03
503.051	3.99
503.401	3.92
503.752	3.81
504.102	3.86
504.452	3.81
504.803	3.87
505.153	3.95
505.503	3.99
505.853	3.97
506.203	4
506.553	4.04
506.903	4.1
507.253	4.04
507.603	4.1
507.953	3.95
508.303	4.01
508.652	3.94
509.002	4.02
509.352	4.02
509.701	3.84
510.051	4.15
510.4	4.06
510.75	3.91
511.099	3.96
511.449	4.11
511.798	3.97
512.147	4.01
512.496	4.01
512.846	4.13
513.195	4.04
513.544	4.13
513.893	4.17
514.242	4.11
514.591	4.06
514.939	4.18
515.288	4.14
515.637	4.15
515.986	4.18
516.334	4.23
516.683	4.16
517.032	4.12
517.38	4.2
517.729	4.19
518.077	4.3
518.426	4.16
518.774	4.15
519.122	4.2
519.47	4.08
519.819	4.05
520.167	4.09
520.515	4.22
520.863	4.12
521.211	4.22
521.559	4.16
521.907	4.29
522.255	4.23
522.602	4.39
522.95	4.34
523.298	4.27
523.645	4.26
523.993	4.34
524.341	4.28
524.688	4.28
525.036	4.16
525.383	4.39
525.73	4.22
526.078	4.34
526.425	4.32
526.772	4.24
527.119	4.27
527.466	4.31
527.814	4.27
528.161	4.39
528.508	4.36
528.854	4.34
529.201	4.28
529.548	4.25
529.895	4.16
530.242	4.15
530.588	4.19
530.935	4.24
531.282	4.32
531.628	4.36
531.975	4.39
532.321	4.43
532.667	4.45
533.014	4.5
533.36	4.4
533.706	4.53
534.052	4.48
534.399	4.47
534.745	4.36
535.091	4.39
535.437	4.4
535.783	4.51
536.129	4.51
536.474	4.58
536.82	4.64
537.166	4.51
537.512	4.53
537.857	4.55
538.203	4.49
538.549	4.56
538.894	4.53
539.239	4.63
539.585	4.61
539.93	4.72
540.276	4.71
540.621	4.91
540.966	4.74
541.311	4.82
541.656	4.69
542.001	4.63
542.346	4.67
542.691	4.56
543.036	4.53
543.381	4.59
543.726	4.69
544.071	4.75
544.415	4.71
544.76	4.79
545.105	4.8
545.449	4.79
545.794	4.82
546.138	4.83
546.483	4.9
546.827	4.9
547.171	4.86
547.516	5
547.86	4.9
548.204	4.91
548.548	4.9
548.892	4.99
549.236	4.93
549.58	5.02
549.924	5.14
550.268	5.23
550.612	5.15
550.956	5.2
551.3	5.26
551.643	4.98
551.987	5.23
552.33	5.33
552.674	5.17
553.017	5.25
553.361	5.22
553.704	5.25
554.048	5.15
554.391	5.29
554.734	5.06
555.077	5.26
555.42	5.3
555.764	5.34
556.107	5.37
556.45	5.36
556.793	5.45
557.135	5.36
557.478	5.35
557.821	5.45
558.164	5.42
558.507	5.36
558.849	5.41
559.192	5.6
559.534	5.53
559.877	5.55
560.219	5.57
560.562	5.4
560.904	5.63
561.246	5.63
561.589	5.68
561.931	5.58
562.273	5.57
562.615	5.47
562.957	5.59
563.299	5.66
563.641	5.76
563.983	5.57
564.325	5.71
564.667	5.68
565.008	5.68
565.35	5.63
565.692	5.75
566.033	5.7
566.375	5.81
566.716	5.58
567.058	5.84
567.399	5.94
567.741	5.82
568.082	5.78
568.423	5.66
568.764	5.92
569.105	5.91
569.447	5.95
569.788	5.82
570.129	5.94
570.47	6.03
570.811	5.92
571.151	6.03
571.492	6.02
571.833	5.92
572.174	6.18
572.514	6.25
572.855	6.06
573.195	6.05
573.536	6.14
573.876	6
574.217	6.16
574.557	6.18
574.898	6.03
575.238	6.35
575.578	6.41
575.918	6.31
576.258	6.38
576.598	6.23
576.938	6.25
577.278	6.38
577.618	6.18
577.958	6.49
578.298	6.38
578.638	6.33
578.977	6.41
579.317	6.53
579.657	6.52
579.996	6.57
580.336	6.51
580.675	6.44
581.014	6.7
581.354	6.43
581.693	6.69
582.032	6.82
582.372	6.71
582.711	6.81
583.05	6.86
583.389	6.67
583.728	6.96
584.067	6.85
584.406	6.87
584.745	6.84
585.083	6.76
585.422	7.26
585.761	6.9
586.1	7.23
586.438	6.95
586.777	7.25
587.115	7.11
587.454	6.84
587.792	7.25
588.13	7.03
588.469	7.17
588.807	7.03
589.145	7.12
589.483	6.97
589.821	7.23
590.159	7.23
590.497	7.28
590.835	7.38
591.173	7.47
591.511	7.32
591.849	7.33
592.187	7.11
592.524	7.43
592.862	7.39
593.2	7.52
593.537	7.3
593.875	7.58
594.212	7.62
594.55	7.61
594.887	7.65
595.224	7.62
595.561	7.44
595.899	7.64
596.236	7.6
596.573	7.41
596.91	7.59
597.247	7.85
597.584	7.68
597.921	7.73
598.258	7.84
598.594	7.64
598.931	7.57
599.268	7.71
599.604	7.97
599.941	8.01
600.277	8
600.614	8.02
600.95	7.99
601.287	7.82
601.623	7.82
601.959	8.21
602.296	8.14
602.632	8.2
602.968	7.92
603.304	8.12
603.64	8.23
603.976	8.12
604.312	8.27
604.648	8.2
604.984	8.32
605.319	8.23
605.655	8.25
605.991	8.2
606.326	8.32
606.662	8.18
606.998	8.57
607.333	8.38
607.668	8.47
608.004	8.44
608.339	8.53
608.674	8.62
609.01	8.73
609.345	8.72
609.68	8.53
610.015	8.53
610.35	8.7
610.685	8.34
611.02	8.66
611.355	8.59
611.689	8.78
612.024	8.87
612.359	9.15
612.694	9.06
613.028	8.66
613.363	8.91
613.697	8.93
614.032	8.92
614.366	8.95
614.7	9.08
615.035	9.06
615.369	9.08
615.703	9.18
616.037	8.88
616.371	9.32
616.705	9.38
617.039	9.06
617.373	9.27
617.707	9.49
618.041	9.37
618.375	9.08
618.709	9.59
619.042	9.42
619.376	9.52
619.71	9.25
620.043	9.93
620.377	9.45
620.71	9.6
621.043	9.63
621.377	9.94
621.71	9.62
622.043	9.83
622.376	9.61
622.709	10.24
623.043	9.84
623.376	9.74
623.709	10.14
624.041	10.11
624.374	9.96
624.707	9.8
625.04	9.76
625.373	9.91
625.705	10.2
626.038	10.04
626.37	9.78
626.703	10.17
627.035	10.29
627.368	10.53
627.7	9.97
628.032	10.28
628.365	10.46
628.697	10.53
629.029	9.97
629.361	10.4
629.693	10.44
630.025	10.46
630.357	10.78
630.689	10.64
631.021	10.41
631.353	10.57
631.684	10.5
632.016	10.19
632.348	10.65
632.679	10.73
633.011	10.74
633.342	10.53
633.674	10.36
634.005	10.74
634.336	11.27
634.668	10.97
634.999	10.61
635.33	10.84
635.661	10.79
635.992	10.99
636.323	10.88
636.654	10.7
636.985	10.88
637.316	11.09
637.647	10.97
637.977	11.09
638.308	11.29
638.639	11.21
638.969	11.11
639.3	11.05
639.63	11.48
639.961	11.31
640.291	11.29
640.622	11.41
640.952	11.7
641.282	10.9
641.612	11.49
641.943	11.18
642.273	11.39
642.603	11.73
642.933	11.88
643.263	11.38
643.592	11.72
643.922	11.8
644.252	11.83
644.582	12.23
644.911	11.89
645.241	11.4
645.571	12.09
645.9	12.19
646.23	12.41
646.559	11.65
646.888	12.03
647.218	12.15
647.547	12.03
647.876	11.98
648.205	11.97
648.534	12.23
648.863	12.15
649.192	12.3
649.521	12.16
649.85	12.41
650.179	12.53
650.508	12.49
650.837	12.32
651.165	12.51
651.494	12.74
651.822	12.43
652.151	12.18
652.479	12.72
652.808	12.46
653.136	12.43
653.465	12.53
653.793	12.88
654.121	12.43
654.449	12.27
654.777	12.33
655.105	12.1
655.433	12.8
655.761	13.14
656.089	12.61
656.417	13.08
656.745	12.99
657.073	12.92
657.4	12.97
657.728	12.94
658.056	12.78
658.383	13.36
658.711	13.05
659.038	13.52
659.365	13.38
659.693	13.14
660.02	13.14
660.347	13.77
660.674	13.07
661.001	13.24
661.329	13.5
661.656	13.38
661.982	13.25
662.309	13.7
662.636	13.84
662.963	13.73
663.29	14.12
663.616	13.94
663.943	13.61
664.27	14.09
664.596	13.55
664.923	13.91
665.249	14.06
665.576	13.78
665.902	14.01
666.228	13.69
666.554	14.26
666.881	13.85
667.207	14.53
667.533	13.9
667.859	14.64
668.185	13.66
668.511	14.13
668.837	13.86
669.162	13.93
669.488	13.76
669.814	14.34
670.139	13.99
670.465	14.7
670.791	14.16
671.116	14.65
671.442	13.84
671.767	15.09
672.092	14.77
672.418	14.89
672.743	14.49
673.068	14.19
673.393	14.86
673.718	14.43
674.043	14.59
674.368	14.73
674.693	15.07
675.018	15.52
675.343	15.33
675.667	14.6
675.992	15.49
676.317	14.57
676.641	15.19
676.966	15.15
677.29	14.85
677.615	15.38
677.939	15.67
678.264	14.91
678.588	15.72
678.912	15.4
679.236	14.99
679.56	14.61
679.885	15.23
680.209	16
680.532	15.83
680.856	15.46
681.18	15.78
681.504	15.17
681.828	15.58
682.152	15.32
682.475	16.2
682.799	15.3
683.122	15.84
683.446	15.62
683.769	15.81
684.093	16.34
684.416	15.51
684.739	16.01
685.062	15.74
685.386	16.01
685.709	15.88
686.032	16.33
686.355	16.65
686.678	16.44
687.001	16.32
687.324	16.17
