Data from 0004_crown_Reflection__1__383.txt Node

Date: Thu Dec 15 19:34:39 CST 2022
User: ToomeyLab
Spectrometer: FLMS14357
Trigger mode: 0
Integration Time (sec): 1.000000E-2
Scans to average: 100
Electric dark correction enabled: true
Nonlinearity correction enabled: false
Boxcar width: 0
XAxis mode: Wavelengths
Number of Pixels in Spectrum: 2048
>>>>>Begin Spectral Data<<<<<
189.047	-81.41
189.435	-81.41
189.823	-81.41
190.211	23.14
190.599	41.96
190.987	29.26
191.375	-87.41
191.763	-231.52
192.151	454.87
192.538	95.88
192.926	108.37
193.314	-267.58
193.702	-919.05
194.089	83.99
194.477	-166
194.864	21.79
195.252	335.81
195.639	145.56
196.027	57.22
196.414	51.57
196.801	11.93
197.189	213.55
197.576	-225.31
197.963	-8.91
198.351	16.24
198.738	-60.16
199.125	-23.35
199.512	0.22
199.899	-23.45
200.286	-66.18
200.673	13.16
201.06	-60.3
201.447	-18.13
201.833	-38.44
202.22	-48.56
202.607	-106.64
202.994	7.89
203.38	22.72
203.767	-0.48
204.154	4.16
204.54	-21.38
204.927	-29.48
205.313	14
205.699	33.69
206.086	34.11
206.472	30.72
206.858	-26.62
207.245	-15.3
207.631	-14.66
208.017	10.95
208.403	-73.2
208.789	5.21
209.175	-37.48
209.561	-137.75
209.947	-31.09
210.333	-13.38
210.719	19.12
211.105	-12.73
211.491	-16.97
211.876	-57.79
212.262	5.08
212.648	-0.33
213.034	-58.46
213.419	4.65
213.805	-43.28
214.19	-7.75
214.576	-10.87
214.961	7.5
215.346	-87.96
215.732	-19.92
216.117	4.4
216.502	-6.07
216.888	14.77
217.273	13.86
217.658	-9.34
218.043	-22
218.428	-37.02
218.813	-12.07
219.198	-38.65
219.583	-31.85
219.968	-9.29
220.353	-25.8
220.738	-46.95
221.122	-10.36
221.507	-11.44
221.892	-36.58
222.276	-30.19
222.661	-10.17
223.046	-15.22
223.43	2.57
223.815	-15.29
224.199	-3.92
224.583	-8.19
224.968	-15.33
225.352	-16.33
225.736	0.95
226.121	6.02
226.505	-6.61
226.889	1.48
227.273	-6.99
227.657	1.63
228.041	0.49
228.425	-4.53
228.809	-4.03
229.193	2.06
229.577	2.34
229.961	1.5
230.344	2.45
230.728	2.38
231.112	3.28
231.495	0.31
231.879	2.02
232.263	3.29
232.646	1.23
233.03	3.16
233.413	1.58
233.797	0.56
234.18	-1.29
234.563	2.86
234.946	-1.22
235.33	1.12
235.713	3.06
236.096	3.64
236.479	3
236.862	2.51
237.245	1.7
237.628	2.68
238.011	1.6
238.394	-0.81
238.777	2.51
239.16	2.91
239.543	2.3
239.925	1.34
240.308	0.82
240.691	0.27
241.073	1.5
241.456	1.61
241.838	2
242.221	2.42
242.603	3.04
242.986	1.92
243.368	2.68
243.75	2.46
244.133	2.76
244.515	2.73
244.897	2.42
245.279	2.15
245.661	1.84
246.043	1.76
246.425	1.51
246.807	1.22
247.189	2.15
247.571	1.67
247.953	2.67
248.335	2.44
248.717	2.38
249.098	2.27
249.48	2.13
249.862	2.44
250.243	2.51
250.625	2.56
251.006	3.17
251.388	1.92
251.769	1.57
252.151	2.62
252.532	2.19
252.913	2.49
253.295	2.41
253.676	2.07
254.057	1.99
254.438	2.01
254.819	2.26
255.2	1.74
255.581	3.34
255.962	1.88
256.343	1.97
256.724	2.05
257.105	1.47
257.486	0.97
257.867	1.19
258.247	2.33
258.628	2.09
259.009	1.54
259.389	1.61
259.77	1.33
260.15	3
260.531	1.92
260.911	2.07
261.292	2.26
261.672	2.26
262.052	2.24
262.432	1.8
262.813	2.02
263.193	2.25
263.573	2
263.953	2.48
264.333	1.89
264.713	2.42
265.093	1.57
265.473	2.87
265.853	2.38
266.233	1.66
266.612	1.47
266.992	1.88
267.372	2.05
267.752	2.4
268.131	1.61
268.511	1.9
268.89	2.52
269.27	1.54
269.649	1.94
270.029	2.06
270.408	1.83
270.787	1.44
271.167	1.85
271.546	2.93
271.925	2
272.304	1.79
272.683	1.43
273.062	1.92
273.441	2.17
273.82	2.3
274.199	2.1
274.578	2.21
274.957	2.11
275.336	2.41
275.715	2.15
276.093	1.62
276.472	1.41
276.851	2.1
277.229	2.32
277.608	1.64
277.986	1.83
278.365	2.39
278.743	2.04
279.122	1.81
279.5	1.51
279.878	1.55
280.257	1.89
280.635	2.05
281.013	0.78
281.391	1.92
281.769	2.2
282.147	2.04
282.525	1.71
282.903	1.52
283.281	2.02
283.659	2.1
284.037	1.8
284.415	1.98
284.792	1.78
285.17	1.51
285.548	2.07
285.925	1.91
286.303	2.48
286.68	1.92
287.058	2.34
287.435	1.83
287.813	1.89
288.19	1.83
288.567	1.69
288.945	1.84
289.322	2.15
289.699	2.21
290.076	1.79
290.453	1.84
290.83	1.97
291.207	1.77
291.584	2.25
291.961	1.78
292.338	1.77
292.715	2.09
293.092	2.3
293.469	1.83
293.845	1.84
294.222	1.94
294.599	1.41
294.975	1.35
295.352	2.12
295.728	2.14
296.105	1.58
296.481	1.91
296.858	1.82
297.234	1.54
297.61	1.66
297.986	2.59
298.363	1.96
298.739	1.92
299.115	2.06
299.491	2.16
299.867	1.58
300.243	1.56
300.619	1.48
300.995	1.72
301.371	1.89
301.746	1.95
302.122	1.32
302.498	1.99
302.874	1.78
303.249	1.66
303.625	1.6
304	1.81
304.376	2.56
304.751	1.94
305.127	1.45
305.502	1.7
305.878	2.06
306.253	1.39
306.628	1.6
307.003	2.05
307.378	1.94
307.754	1.77
308.129	1.64
308.504	2.11
308.879	1.8
309.254	2.37
309.629	1.98
310.003	1.87
310.378	2.1
310.753	1.83
311.128	1.47
311.502	1.51
311.877	1.94
312.252	1.58
312.626	2.14
313.001	1.83
313.375	1.69
313.75	2.03
314.124	1.88
314.498	1.96
314.873	1.5
315.247	1.54
315.621	1.28
315.995	1.9
316.369	1.33
316.743	1.54
317.117	1.35
317.491	1.99
317.865	1.62
318.239	2.44
318.613	1.66
318.987	1.58
319.361	1.98
319.734	2.08
320.108	1.66
320.482	2.01
320.855	1.83
321.229	1.7
321.602	1.86
321.976	1.08
322.349	2.37
322.723	2.03
323.096	1.48
323.469	1.49
323.843	1.28
324.216	1.84
324.589	1.88
324.962	1.85
325.335	1.73
325.708	1.73
326.081	1.44
326.454	1.69
326.827	2.11
327.2	1.27
327.573	2.34
327.945	1.81
328.318	1.8
328.691	2
329.063	1.71
329.436	1.88
329.809	2.2
330.181	2
330.553	2.22
330.926	2.1
331.298	1.68
331.671	2.22
332.043	1.45
332.415	1.63
332.787	2.09
333.159	1.54
333.532	1.76
333.904	2.18
334.276	2.13
334.648	2
335.02	1.81
335.391	1.57
335.763	2.17
336.135	1.63
336.507	1.81
336.879	2.06
337.25	1.81
337.622	2.21
337.993	1.71
338.365	2.2
338.736	2.01
339.108	2.09
339.479	2
339.851	2.22
340.222	2.72
340.593	2
340.964	1.95
341.336	1.72
341.707	1.93
342.078	1.99
342.449	2.04
342.82	2.24
343.191	1.78
343.562	2.26
343.933	1.5
344.303	2.16
344.674	1.85
345.045	1.92
345.416	2.11
345.786	1.85
346.157	2.17
346.527	2.02
346.898	1.64
347.268	2.06
347.639	1.89
348.009	2.1
348.38	1.72
348.75	2
349.12	1.86
349.49	2.07
349.861	2.21
350.231	1.84
350.601	1.94
350.971	1.93
351.341	2.27
351.711	1.89
352.081	1.64
352.45	1.57
352.82	1.8
353.19	2.18
353.56	1.8
353.929	2.16
354.299	2.16
354.669	2.06
355.038	2.24
355.408	2.17
355.777	2.12
356.147	2.11
356.516	1.72
356.885	1.97
357.254	1.8
357.624	1.7
357.993	2.08
358.362	2.28
358.731	2.04
359.1	2
359.469	2.33
359.838	2.35
360.207	2.03
360.576	2.27
360.945	2.37
361.314	2.01
361.682	1.74
362.051	2.05
362.42	2.06
362.788	2.3
363.157	2.03
363.525	2.32
363.894	1.96
364.262	2.13
364.631	2.31
364.999	2.23
365.367	2.11
365.735	2.1
366.104	2.02
366.472	1.99
366.84	1.66
367.208	2.36
367.576	2.25
367.944	2.28
368.312	1.96
368.68	2.17
369.048	2.04
369.416	1.81
369.783	2.09
370.151	2.36
370.519	2.56
370.886	2.17
371.254	2.49
371.621	2.26
371.989	1.96
372.356	2.04
372.724	2.17
373.091	1.85
373.458	1.82
373.826	2.27
374.193	2.17
374.56	2.1
374.927	2.02
375.294	2.33
375.661	2.21
376.028	2.01
376.395	2.17
376.762	2.01
377.129	1.86
377.496	2.23
377.863	2.41
378.229	2.4
378.596	2.06
378.963	2.35
379.329	2.22
379.696	2.2
380.062	2.2
380.429	1.89
380.795	2.43
381.161	2
381.528	1.88
381.894	2.22
382.26	2.11
382.626	2.4
382.993	2.51
383.359	2.19
383.725	2.08
384.091	2.23
384.457	1.82
384.823	2.22
385.188	2.46
385.554	2.26
385.92	2.01
386.286	1.91
386.651	1.97
387.017	2.52
387.383	2.07
387.748	2.46
388.114	2.33
388.479	2.35
388.845	2.21
389.21	2.4
389.575	2.55
389.94	2.48
390.306	2.55
390.671	2.2
391.036	2.21
391.401	2.23
391.766	2.06
392.131	2.47
392.496	2.21
392.861	2.15
393.226	1.94
393.591	2.27
393.956	2.38
394.32	2.42
394.685	2.41
395.05	2.37
395.414	2.26
395.779	2.33
396.143	2.2
396.508	2.26
396.872	2.38
397.236	2.65
397.601	2.51
397.965	2.43
398.329	2.17
398.694	1.94
399.058	2.38
399.422	2.35
399.786	2.21
400.15	2.36
400.514	2.57
400.878	2.37
401.242	2.45
401.605	2.23
401.969	2.34
402.333	2.28
402.697	2.6
403.06	2.38
403.424	2.27
403.787	2.32
404.151	2.22
404.514	2.32
404.878	2.2
405.241	2.16
405.604	2.4
405.968	2.37
406.331	2.3
406.694	2.36
407.057	2.34
407.42	2.3
407.783	2.67
408.146	2.41
408.509	2.41
408.872	2.3
409.235	2.42
409.598	2.55
409.961	2.5
410.323	2.31
410.686	2.38
411.049	2.33
411.411	2.51
411.774	2.28
412.136	2.47
412.499	2.62
412.861	2.08
413.223	2.31
413.586	2.43
413.948	2.42
414.31	2.35
414.672	2.3
415.035	2.32
415.397	2.34
415.759	2.09
416.121	2.4
416.483	2.32
416.845	2.32
417.206	2.39
417.568	2.45
417.93	2.61
418.292	2.3
418.653	2.33
419.015	2.34
419.377	2.38
419.738	2.41
420.1	2.34
420.461	2.33
420.822	2.39
421.184	2.35
421.545	2.42
421.906	2.5
422.267	2.36
422.629	2.3
422.99	2.34
423.351	2.41
423.712	2.43
424.073	2.46
424.434	2.43
424.795	2.33
425.155	2.32
425.516	2.31
425.877	2.4
426.238	2.41
426.598	2.35
426.959	2.35
427.32	2.28
427.68	2.34
428.041	2.56
428.401	2.29
428.761	2.5
429.122	2.45
429.482	2.47
429.842	2.36
430.202	2.47
430.563	2.36
430.923	2.48
431.283	2.48
431.643	2.52
432.003	2.39
432.363	2.56
432.722	2.42
433.082	2.3
433.442	2.65
433.802	2.35
434.161	2.43
434.521	2.32
434.881	2.46
435.24	2.49
435.6	2.53
435.959	2.44
436.319	2.55
436.678	2.45
437.037	2.45
437.396	2.48
437.756	2.33
438.115	2.27
438.474	2.51
438.833	2.39
439.192	2.41
439.551	2.21
439.91	2.43
440.269	2.49
440.628	2.46
440.987	2.38
441.345	2.41
441.704	2.36
442.063	2.37
442.421	2.45
442.78	2.41
443.138	2.49
443.497	2.32
443.855	2.62
444.214	2.36
444.572	2.62
444.93	2.38
445.288	2.41
445.647	2.25
446.005	2.44
446.363	2.41
446.721	2.39
447.079	2.31
447.437	2.43
447.795	2.49
448.153	2.44
448.51	2.45
448.868	2.41
449.226	2.54
449.584	2.41
449.941	2.42
450.299	2.39
450.656	2.42
451.014	2.52
451.371	2.48
451.729	2.44
452.086	2.42
452.443	2.6
452.801	2.51
453.158	2.54
453.515	2.42
453.872	2.48
454.229	2.3
454.586	2.3
454.943	2.54
455.3	2.56
455.657	2.47
456.014	2.5
456.371	2.62
456.727	2.43
457.084	2.56
457.441	2.41
457.797	2.53
458.154	2.5
458.51	2.42
458.867	2.53
459.223	2.51
459.58	2.46
459.936	2.44
460.292	2.46
460.648	2.43
461.005	2.43
461.361	2.39
461.717	2.49
462.073	2.51
462.429	2.58
462.785	2.54
463.141	2.52
463.496	2.55
463.852	2.68
464.208	2.46
464.564	2.4
464.919	2.36
465.275	2.47
465.631	2.67
465.986	2.74
466.342	2.43
466.697	2.45
467.052	2.73
467.408	2.58
467.763	2.48
468.118	2.33
468.473	2.53
468.829	2.47
469.184	2.52
469.539	2.4
469.894	2.52
470.249	2.5
470.603	2.61
470.958	2.69
471.313	2.59
471.668	2.6
472.023	2.6
472.377	2.57
472.732	2.69
473.086	2.51
473.441	2.42
473.795	2.65
474.15	2.38
474.504	2.49
474.859	2.27
475.213	2.56
475.567	2.58
475.921	2.66
476.275	2.65
476.63	2.6
476.984	2.38
477.338	2.69
477.692	2.46
478.045	2.5
478.399	2.56
478.753	2.44
479.107	2.56
479.461	2.5
479.814	2.61
480.168	2.6
480.521	2.7
480.875	2.59
481.228	2.61
481.582	2.57
481.935	2.73
482.289	2.53
482.642	2.66
482.995	2.57
483.348	2.49
483.701	2.59
484.055	2.53
484.408	2.53
484.761	2.42
485.114	2.33
485.466	2.35
485.819	2.4
486.172	2.46
486.525	2.45
486.878	2.54
487.23	2.52
487.583	2.53
487.936	2.48
488.288	2.45
488.641	2.43
488.993	2.41
489.345	2.41
489.698	2.47
490.05	2.46
490.402	2.48
490.754	2.47
491.107	2.46
491.459	2.63
491.811	2.55
492.163	2.57
492.515	2.42
492.866	2.37
493.218	2.41
493.57	2.47
493.922	2.5
494.274	2.6
494.625	2.66
494.977	2.54
495.328	2.61
495.68	2.63
496.031	2.55
496.383	2.57
496.734	2.56
497.086	2.57
497.437	2.61
497.788	2.6
498.139	2.58
498.49	2.52
498.842	2.65
499.193	2.57
499.544	2.7
499.894	2.45
500.245	2.72
500.596	2.68
500.947	2.55
501.298	2.55
501.648	2.67
501.999	2.68
502.35	2.54
502.7	2.71
503.051	2.62
503.401	2.65
503.752	2.56
504.102	2.52
504.452	2.48
504.803	2.6
505.153	2.77
505.503	2.66
505.853	2.69
506.203	2.65
506.553	2.65
506.903	2.61
507.253	2.59
507.603	2.71
507.953	2.56
508.303	2.66
508.652	2.61
509.002	2.65
509.352	2.57
509.701	2.49
510.051	2.75
510.4	2.62
510.75	2.57
511.099	2.54
511.449	2.64
511.798	2.56
512.147	2.64
512.496	2.66
512.846	2.64
513.195	2.68
513.544	2.69
513.893	2.63
514.242	2.61
514.591	2.59
514.939	2.71
515.288	2.71
515.637	2.58
515.986	2.69
516.334	2.76
516.683	2.62
517.032	2.63
517.38	2.65
517.729	2.54
518.077	2.55
518.426	2.71
518.774	2.61
519.122	2.62
519.47	2.54
519.819	2.62
520.167	2.52
520.515	2.6
520.863	2.56
521.211	2.65
521.559	2.53
521.907	2.72
522.255	2.65
522.602	2.55
522.95	2.74
523.298	2.77
523.645	2.6
523.993	2.65
524.341	2.67
524.688	2.59
525.036	2.67
525.383	2.61
525.73	2.55
526.078	2.79
526.425	2.64
526.772	2.51
527.119	2.66
527.466	2.64
527.814	2.6
528.161	2.7
528.508	2.71
528.854	2.59
529.201	2.56
529.548	2.61
529.895	2.53
530.242	2.51
530.588	2.48
530.935	2.59
531.282	2.58
531.628	2.65
531.975	2.61
532.321	2.66
532.667	2.67
533.014	2.68
533.36	2.69
533.706	2.68
534.052	2.64
534.399	2.59
534.745	2.6
535.091	2.54
535.437	2.59
535.783	2.61
536.129	2.64
536.474	2.75
536.82	2.75
537.166	2.55
537.512	2.69
537.857	2.67
538.203	2.58
538.549	2.57
538.894	2.69
539.239	2.69
539.585	2.7
539.93	2.68
540.276	2.66
540.621	2.81
540.966	2.67
541.311	2.65
541.656	2.63
542.001	2.58
542.346	2.67
542.691	2.54
543.036	2.57
543.381	2.58
543.726	2.72
544.071	2.7
544.415	2.66
544.76	2.71
545.105	2.67
545.449	2.66
545.794	2.71
546.138	2.7
546.483	2.84
546.827	2.76
547.171	2.79
547.516	2.75
547.86	2.77
548.204	2.62
548.548	2.62
548.892	2.69
549.236	2.75
549.58	2.74
549.924	2.74
550.268	2.8
550.612	2.8
550.956	2.84
551.3	2.96
551.643	2.76
551.987	2.92
552.33	2.88
552.674	2.67
553.017	2.8
553.361	2.82
553.704	2.72
554.048	2.69
554.391	2.87
554.734	2.56
555.077	2.66
555.42	2.74
555.764	2.81
556.107	2.72
556.45	2.94
556.793	2.9
557.135	2.83
557.478	2.84
557.821	2.72
558.164	2.89
558.507	2.74
558.849	2.95
559.192	2.86
559.534	2.8
559.877	2.7
560.219	2.76
560.562	2.9
560.904	3.1
561.246	2.79
561.589	3.01
561.931	2.8
562.273	2.79
562.615	2.79
562.957	2.78
563.299	2.8
563.641	2.82
563.983	2.66
564.325	2.84
564.667	2.86
565.008	2.67
565.35	2.68
565.692	2.86
566.033	2.84
566.375	2.75
566.716	2.76
567.058	2.8
567.399	2.77
567.741	2.75
568.082	2.79
568.423	2.78
568.764	2.98
569.105	2.82
569.447	2.81
569.788	2.89
570.129	2.73
570.47	2.89
570.811	2.68
571.151	2.77
571.492	2.86
571.833	2.7
572.174	2.86
572.514	2.83
572.855	2.94
573.195	2.78
573.536	2.91
573.876	2.89
574.217	2.93
574.557	2.87
574.898	2.78
575.238	2.93
575.578	2.91
575.918	2.82
576.258	3.08
576.598	2.71
576.938	2.85
577.278	2.73
577.618	2.89
577.958	3.01
578.298	3.09
578.638	3
578.977	2.91
579.317	2.93
579.657	2.95
579.996	2.96
580.336	3.01
580.675	2.82
581.014	2.96
581.354	2.91
581.693	3.03
582.032	3.05
582.372	3
582.711	2.89
583.05	3.14
583.389	2.94
583.728	3.04
584.067	2.86
584.406	3.16
584.745	2.85
585.083	2.8
585.422	3.05
585.761	3.07
586.1	3.15
586.438	2.69
586.777	2.83
587.115	3.04
587.454	2.98
587.792	2.86
588.13	2.84
588.469	2.75
588.807	2.88
589.145	3.09
589.483	2.8
589.821	2.94
590.159	3.1
590.497	3.1
590.835	3.04
591.173	3.02
591.511	3.16
591.849	2.98
592.187	2.79
592.524	3.04
592.862	2.72
593.2	2.95
593.537	3.02
593.875	3.07
594.212	3.15
594.55	3.17
594.887	2.82
595.224	3.14
595.561	3.05
595.899	3.23
596.236	2.96
596.573	3.03
596.91	3.04
597.247	3.06
597.584	3.37
597.921	2.86
598.258	3.04
598.594	2.82
598.931	2.76
599.268	2.73
599.604	3.18
599.941	2.98
600.277	2.9
600.614	3.09
600.95	2.93
601.287	2.73
601.623	2.71
601.959	3.26
602.296	3.14
602.632	2.88
602.968	3.07
603.304	2.89
603.64	2.89
603.976	2.9
604.312	2.85
604.648	2.99
604.984	3.01
605.319	3.11
605.655	2.94
605.991	3.06
606.326	2.96
606.662	2.91
606.998	3.21
607.333	3.13
607.668	2.89
608.004	2.83
608.339	3.07
608.674	3.12
609.01	3.32
609.345	3.18
609.68	2.72
610.015	3.11
610.35	2.99
610.685	2.66
611.02	2.99
611.355	2.99
611.689	3.16
612.024	2.98
612.359	3.17
612.694	3.11
613.028	2.97
613.363	2.97
613.697	3.23
614.032	3.02
614.366	2.93
614.7	3.07
615.035	3.05
615.369	3.08
615.703	3.24
616.037	2.97
616.371	2.87
616.705	2.96
617.039	3.06
617.373	2.96
617.707	3.36
618.041	3.03
618.375	2.51
618.709	2.96
619.042	2.85
619.376	3.2
619.71	3.14
620.043	3.39
620.377	3.18
620.71	3.04
621.043	3.32
621.377	3.46
621.71	3.3
622.043	3.14
622.376	3.08
622.709	3.2
623.043	2.98
623.376	2.49
623.709	3.3
624.041	2.93
624.374	3.32
624.707	3.12
625.04	3.19
625.373	3.64
625.705	3.27
626.038	3.37
626.37	3.03
626.703	3.07
627.035	3.16
627.368	3.43
627.7	3.25
628.032	3.1
628.365	3.16
628.697	3.39
629.029	3.09
629.361	3.46
629.693	3.17
630.025	3.38
630.357	3.32
630.689	3.31
631.021	3.09
631.353	3.09
631.684	3
632.016	2.97
632.348	3.09
632.679	3.49
633.011	3.12
633.342	3.02
633.674	2.87
634.005	3.03
634.336	3.37
634.668	3.25
634.999	3.08
635.33	3.33
635.661	2.97
635.992	3.14
636.323	2.99
636.654	3.29
636.985	3.02
637.316	3.42
637.647	3.49
637.977	3.16
638.308	3.31
638.639	3.16
638.969	2.89
639.3	3.32
639.63	3.24
639.961	3.39
640.291	3.29
640.622	3.63
640.952	3.43
641.282	3.02
641.612	3.11
641.943	2.95
642.273	3.01
642.603	3.71
642.933	3.56
643.263	3.2
643.592	3.53
643.922	3.68
644.252	3.07
644.582	3.71
644.911	3.34
645.241	2.89
645.571	3.18
645.9	3.19
646.23	3.56
646.559	2.89
646.888	3.42
647.218	2.75
647.547	3.13
647.876	2.96
648.205	3.07
648.534	3.46
648.863	3.3
649.192	3.35
649.521	3.4
649.85	3.29
650.179	3.29
650.508	3.04
650.837	3.46
651.165	3.41
651.494	3.12
651.822	3.46
652.151	3.41
652.479	3.28
652.808	3.11
653.136	2.86
653.465	3.14
653.793	3.67
654.121	3.5
654.449	2.97
654.777	3.06
655.105	2.99
655.433	3.47
655.761	3.09
656.089	3.53
656.417	3.3
656.745	3.72
657.073	3.4
657.4	3.58
657.728	2.84
658.056	3.45
658.383	3.45
658.711	3.69
659.038	3.56
659.365	3.34
659.693	3.23
660.02	3.55
660.347	3.74
660.674	3.12
661.001	3.56
661.329	3.29
661.656	3.09
661.982	3.36
662.309	3.67
662.636	3.34
662.963	3.29
663.29	3.78
663.616	3.12
663.943	3.53
664.27	3.33
664.596	3.25
664.923	3.56
665.249	3.59
665.576	3.26
665.902	2.94
666.228	3.38
666.554	3.79
666.881	2.58
667.207	3.6
667.533	3.18
667.859	3.11
668.185	3.42
668.511	3.49
668.837	3.21
669.162	4.01
669.488	2.59
669.814	3.45
670.139	3.2
670.465	3.72
670.791	3.12
671.116	2.8
671.442	2.88
671.767	3.01
672.092	2.97
672.418	3.77
672.743	2.93
673.068	2.99
673.393	3.46
673.718	2.78
674.043	3.42
674.368	2.54
674.693	3.94
675.018	3.87
675.343	3.59
675.667	3.09
675.992	3.34
676.317	2.89
676.641	3.89
676.966	3.98
677.29	3.08
677.615	3.31
677.939	3.71
678.264	3.57
678.588	3.46
678.912	3.52
679.236	2.98
679.56	3.27
679.885	3.21
680.209	4.26
680.532	3.53
680.856	3.6
681.18	4.26
681.504	3.65
681.828	3.42
682.152	3.52
682.475	3.31
682.799	3.33
683.122	3.7
683.446	3.14
683.769	3.93
684.093	3.89
684.416	3.75
684.739	3.18
685.062	3.64
685.386	3.18
685.709	3.42
686.032	3.76
686.355	2.99
686.678	4.38
687.001	3.77
687.324	3.74
687.646	3.76
687.969	3.69
688.292	3.85
688.614	4.09
688.937	4.01
689.26	4.01
689.582	3.74
689.904	3.72
690.227	3.74
690.549	4.11
690.871	3.07
691.194	3.82
691.516	3.19
691.838	3.58
692.16	3.31
