Data from 0004_chest_Reflection__3__380.txt Node

Date: Thu Dec 15 19:33:31 CST 2022
User: ToomeyLab
Spectrometer: FLMS14357
Trigger mode: 0
Integration Time (sec): 1.000000E-2
Scans to average: 100
Electric dark correction enabled: true
Nonlinearity correction enabled: false
Boxcar width: 0
XAxis mode: Wavelengths
Number of Pixels in Spectrum: 2048
>>>>>Begin Spectral Data<<<<<
189.047	85.71
189.435	85.71
189.823	85.71
190.211	90.77
190.599	-0.79
190.987	175.1
191.375	-88.26
191.763	-276.47
192.151	262.85
192.538	67.05
192.926	109.81
193.314	1293.58
193.702	-662.34
194.089	-27.58
194.477	-209.89
194.864	81.13
195.252	416.61
195.639	91.59
196.027	39.85
196.414	137.07
196.801	-194.7
197.189	200.59
197.576	-70.5
197.963	-52.97
198.351	-12.71
198.738	-61.01
199.125	-75.18
199.512	26.2
199.899	-61.29
200.286	-85.79
200.673	27.37
201.06	-74.04
201.447	-50.16
201.833	-42.12
202.22	8.95
202.607	-70.83
202.994	-41.79
203.38	-4.95
203.767	15.17
204.154	31.12
204.54	9.35
204.927	15.61
205.313	34.49
205.699	28.58
206.086	28.45
206.472	2.71
206.858	-24.28
207.245	-41.32
207.631	-48.42
208.017	34.9
208.403	-48.71
208.789	-26.05
209.175	11.41
209.561	-207.69
209.947	-29.76
210.333	-5.7
210.719	28.22
211.105	21.62
211.491	-2.67
211.876	-37.53
212.262	27.59
212.648	21.01
213.034	3.87
213.419	2.58
213.805	-32.71
214.19	-18.49
214.576	-70.28
214.961	0.4
215.346	-29.2
215.732	-15.9
216.117	33.62
216.502	-37.13
216.888	-21.52
217.273	-24.23
217.658	-30.29
218.043	-34.5
218.428	-22.49
218.813	28.98
219.198	-36.51
219.583	-31.16
219.968	-6.46
220.353	-25.28
220.738	-8.76
221.122	-10.44
221.507	-17.26
221.892	-39.3
222.276	-42.01
222.661	-6.11
223.046	-11.14
223.43	14.65
223.815	-5.35
224.199	-9.4
224.583	-2.81
224.968	-2.04
225.352	-14.02
225.736	11.21
226.121	-6.62
226.505	-11.6
226.889	1.35
227.273	-0.31
227.657	-0.57
228.041	1.36
228.425	-2.19
228.809	-0.11
229.193	5.02
229.577	3.33
229.961	2.78
230.344	3.05
230.728	3.89
231.112	3.93
231.495	1.87
231.879	2.64
232.263	3.59
232.646	2.07
233.03	4.73
233.413	1.47
233.797	-1.35
234.18	2.1
234.563	3.69
234.946	0.59
235.33	1.39
235.713	3.58
236.096	4.1
236.479	2.56
236.862	0.94
237.245	3.7
237.628	4.84
238.011	1.31
238.394	2.36
238.777	0.69
239.16	4.66
239.543	5.31
239.925	3.22
240.308	1.54
240.691	2.67
241.073	2.85
241.456	2.81
241.838	3.13
242.221	3.32
242.603	3.36
242.986	3.16
243.368	3.53
243.75	3.14
244.133	3.36
244.515	3.54
244.897	3.36
245.279	3.44
245.661	2.39
246.043	3.29
246.425	2.52
246.807	3.24
247.189	3.48
247.571	2.72
247.953	2.77
248.335	3.48
248.717	3.4
249.098	3.2
249.48	3.16
249.862	3.31
250.243	3.46
250.625	3.02
251.006	3.62
251.388	2.2
251.769	1.76
252.151	2.79
252.532	3.32
252.913	2.56
253.295	2.94
253.676	3.44
254.057	2.41
254.438	2.66
254.819	3.44
255.2	2.78
255.581	3.55
255.962	3.27
256.343	2.71
256.724	3.53
257.105	2.32
257.486	2.17
257.867	2.26
258.247	2.87
258.628	2.77
259.009	2.58
259.389	2.5
259.77	3.15
260.15	3.75
260.531	3
260.911	2.79
261.292	2.99
261.672	2.97
262.052	2.88
262.432	3.01
262.813	2.73
263.193	3
263.573	2.36
263.953	2.48
264.333	3.17
264.713	2.58
265.093	2.26
265.473	3.76
265.853	2.36
266.233	2.55
266.612	2.03
266.992	2.58
267.372	2.57
267.752	3.7
268.131	2.76
268.511	2.71
268.89	2.96
269.27	2.21
269.649	2.35
270.029	2.69
270.408	2.3
270.787	2.75
271.167	3.04
271.546	3.27
271.925	2.94
272.304	2.52
272.683	2.43
273.062	2.48
273.441	2.55
273.82	2.78
274.199	2.59
274.578	2.84
274.957	2.34
275.336	2.6
275.715	2.84
276.093	2.44
276.472	2.17
276.851	2.72
277.229	2.41
277.608	2.01
277.986	2.55
278.365	2.98
278.743	2.52
279.122	2.44
279.5	3.22
279.878	2.83
280.257	2.64
280.635	2.82
281.013	2.38
281.391	2.21
281.769	2.68
282.147	3.16
282.525	2.25
282.903	2.74
283.281	3.01
283.659	3.23
284.037	2.37
284.415	2.72
284.792	2.66
285.17	2.45
285.548	2.45
285.925	2.69
286.303	2.83
286.68	2.58
287.058	2.67
287.435	2.44
287.813	2.63
288.19	2.13
288.567	2.89
288.945	2.55
289.322	2.99
289.699	2.86
290.076	2.36
290.453	2.17
290.83	2.66
291.207	2.51
291.584	2.91
291.961	2.88
292.338	2.44
292.715	2.47
293.092	2.81
293.469	2.53
293.845	2.86
294.222	2.91
294.599	2.79
294.975	2.09
295.352	3.09
295.728	2.57
296.105	2.63
296.481	2.58
296.858	2.54
297.234	2.02
297.61	3.16
297.986	2.87
298.363	2.88
298.739	2.93
299.115	2.51
299.491	2.88
299.867	2.47
300.243	2.31
300.619	2.32
300.995	2.79
301.371	2.7
301.746	2.78
302.122	2.71
302.498	2.4
302.874	2.64
303.249	2.58
303.625	2.18
304	2.78
304.376	2.77
304.751	2.52
305.127	2.53
305.502	2.84
305.878	2.95
306.253	1.8
306.628	2.88
307.003	2.37
307.378	2.77
307.754	2.81
308.129	2.39
308.504	2.44
308.879	2.6
309.254	3.07
309.629	2.43
310.003	2.25
310.378	2.85
310.753	2.8
311.128	2.53
311.502	2.49
311.877	2.68
312.252	2.71
312.626	3.19
313.001	2.88
313.375	2.99
313.75	2.59
314.124	2.62
314.498	2.92
314.873	2.34
315.247	3.08
315.621	2.11
315.995	2.39
316.369	2.28
316.743	2.43
317.117	2.27
317.491	2.62
317.865	2.01
318.239	2.99
318.613	3
318.987	2.41
319.361	2.48
319.734	2.74
320.108	2.66
320.482	2.69
320.855	2.66
321.229	2.66
321.602	2.6
321.976	2.04
322.349	3.29
322.723	2.48
323.096	2.38
323.469	2.23
323.843	2.49
324.216	2.84
324.589	3.07
324.962	2.27
325.335	2.44
325.708	2.92
326.081	2.5
326.454	2.72
326.827	2.43
327.2	1.67
327.573	2.73
327.945	2.43
328.318	2.42
328.691	2.82
329.063	2.28
329.436	2.21
329.809	3.28
330.181	3.14
330.553	2.89
330.926	2.59
331.298	2.56
331.671	2.73
332.043	2.8
332.415	2.53
332.787	2.77
333.159	2.57
333.532	2.95
333.904	2.7
334.276	2.58
334.648	2.35
335.02	2.68
335.391	2.51
335.763	2.55
336.135	2.29
336.507	2.26
336.879	2.42
337.25	2.95
337.622	2.71
337.993	2.72
338.365	2.89
338.736	2.89
339.108	2.99
339.479	2.48
339.851	2.82
340.222	3.02
340.593	2.43
340.964	2.76
341.336	2.82
341.707	2.36
342.078	2.25
342.449	2.93
342.82	2.8
343.191	2.81
343.562	2.66
343.933	2.48
344.303	2.36
344.674	2.29
345.045	3.05
345.416	3.2
345.786	2.7
346.157	2.82
346.527	2.77
346.898	2.45
347.268	3.16
347.639	2.73
348.009	2.58
348.38	2.51
348.75	2.64
349.12	2.89
349.49	2.59
349.861	2.82
350.231	2.45
350.601	2.64
350.971	2.35
351.341	2.82
351.711	2.7
352.081	2.43
352.45	2.35
352.82	2.35
353.19	2.44
353.56	2.55
353.929	2.73
354.299	2.61
354.669	2.63
355.038	2.74
355.408	2.77
355.777	3.13
356.147	2.75
356.516	2.51
356.885	2.82
357.254	2.64
357.624	2.42
357.993	2.77
358.362	2.91
358.731	3.09
359.1	2.7
359.469	3.15
359.838	2.82
360.207	2.85
360.576	3.09
360.945	3.16
361.314	2.45
361.682	2.7
362.051	2.74
362.42	2.91
362.788	3.01
363.157	2.84
363.525	2.83
363.894	2.78
364.262	2.8
364.631	3.14
364.999	2.75
365.367	2.7
365.735	2.54
366.104	2.83
366.472	2.59
366.84	3.01
367.208	3.23
367.576	2.77
367.944	2.83
368.312	2.88
368.68	3.12
369.048	2.83
369.416	2.89
369.783	2.68
370.151	3.13
370.519	3.09
370.886	2.89
371.254	3.19
371.621	2.97
371.989	2.86
372.356	3.14
372.724	2.91
373.091	2.86
373.458	2.61
373.826	3.04
374.193	2.98
374.56	3.18
374.927	2.55
375.294	2.96
375.661	2.92
376.028	3
376.395	2.65
376.762	2.77
377.129	2.6
377.496	3.18
377.863	2.91
378.229	3.11
378.596	2.99
378.963	2.92
379.329	2.84
379.696	2.88
380.062	2.9
380.429	2.59
380.795	2.97
381.161	2.51
381.528	2.87
381.894	3.14
382.26	3.03
382.626	3.24
382.993	3.09
383.359	2.79
383.725	2.89
384.091	2.94
384.457	2.73
384.823	3.14
385.188	3.3
385.554	2.94
385.92	2.84
386.286	3.03
386.651	2.76
387.017	3.11
387.383	2.89
387.748	2.94
388.114	2.95
388.479	3.02
388.845	2.76
389.21	3.26
389.575	3.35
389.94	3.25
390.306	3.42
390.671	3.26
391.036	2.88
391.401	2.94
391.766	3.06
392.131	3.32
392.496	3.28
392.861	2.83
393.226	2.96
393.591	3.07
393.956	3.12
394.32	3.23
394.685	3.15
395.05	3.04
395.414	3.12
395.779	3.32
396.143	2.99
396.508	2.93
396.872	3.05
397.236	3.35
397.601	3.41
397.965	3.13
398.329	3.13
398.694	2.98
399.058	3.1
399.422	3.04
399.786	2.77
400.15	2.91
400.514	3.16
400.878	3.17
401.242	3.32
401.605	3.11
401.969	3.08
402.333	3.01
402.697	3.4
403.06	3.15
403.424	3.07
403.787	3.06
404.151	3.07
404.514	3.17
404.878	3.07
405.241	3.16
405.604	2.91
405.968	3.25
406.331	3.27
406.694	3.29
407.057	2.99
407.42	3.23
407.783	3.09
408.146	3.09
408.509	3.29
408.872	3.22
409.235	3.29
409.598	2.97
409.961	3.27
410.323	3.05
410.686	2.88
411.049	3.04
411.411	3.18
411.774	3.13
412.136	3.08
412.499	3.39
412.861	2.9
413.223	3.15
413.586	3.15
413.948	3.33
414.31	3.49
414.672	3.13
415.035	3.41
415.397	3.04
415.759	2.82
416.121	3.28
416.483	3.22
416.845	3.27
417.206	3.29
417.568	3.22
417.93	3.21
418.292	3.06
418.653	3.11
419.015	3.18
419.377	3.16
419.738	3.18
420.1	3.05
420.461	3.14
420.822	3.35
421.184	3.12
421.545	3.22
421.906	3.19
422.267	3.12
422.629	3.11
422.99	3.11
423.351	3.1
423.712	3.23
424.073	3.2
424.434	3.26
424.795	3.12
425.155	3.14
425.516	3.09
425.877	3.24
426.238	3.14
426.598	3.2
426.959	3.27
427.32	3.18
427.68	3.19
428.041	3.31
428.401	3.13
428.761	3.28
429.122	3.18
429.482	3.14
429.842	3.07
430.202	3.31
430.563	3.15
430.923	3.24
431.283	3.35
431.643	3.44
432.003	3.45
432.363	3.36
432.722	3.23
433.082	3.17
433.442	3.34
433.802	3.21
434.161	3.17
434.521	3.25
434.881	3.21
435.24	3.27
435.6	3.34
435.959	3.39
436.319	3.21
436.678	3.5
437.037	3.29
437.396	3.22
437.756	3.28
438.115	3.28
438.474	3.23
438.833	3.32
439.192	3.14
439.551	3.13
439.91	3.36
440.269	3.35
440.628	3.27
440.987	3.25
441.345	3.27
441.704	3.33
442.063	3.19
442.421	3.28
442.78	3.22
443.138	3.28
443.497	3.28
443.855	3.35
444.214	3.19
444.572	3.47
444.93	3.18
445.288	3.21
445.647	3.16
446.005	3.19
446.363	3.28
446.721	3.41
447.079	3.28
447.437	3.22
447.795	3.33
448.153	3.24
448.51	3.31
448.868	3.27
449.226	3.28
449.584	3.23
449.941	3.3
450.299	3.26
450.656	3.31
451.014	3.37
451.371	3.46
451.729	3.39
452.086	3.25
452.443	3.43
452.801	3.34
453.158	3.48
453.515	3.26
453.872	3.4
454.229	3.29
454.586	3.18
454.943	3.47
455.3	3.41
455.657	3.26
456.014	3.45
456.371	3.54
456.727	3.57
457.084	3.45
457.441	3.31
457.797	3.39
458.154	3.39
458.51	3.22
458.867	3.36
459.223	3.33
459.58	3.48
459.936	3.26
460.292	3.33
460.648	3.31
461.005	3.34
461.361	3.27
461.717	3.29
462.073	3.51
462.429	3.41
462.785	3.52
463.141	3.4
463.496	3.47
463.852	3.52
464.208	3.44
464.564	3.25
464.919	3.37
465.275	3.46
465.631	3.53
465.986	3.57
466.342	3.37
466.697	3.31
467.052	3.5
467.408	3.46
467.763	3.28
468.118	3.36
468.473	3.41
468.829	3.3
469.184	3.48
469.539	3.43
469.894	3.41
470.249	3.41
470.603	3.5
470.958	3.48
471.313	3.49
471.668	3.53
472.023	3.5
472.377	3.45
472.732	3.6
473.086	3.55
473.441	3.49
473.795	3.57
474.15	3.5
474.504	3.5
474.859	3.34
475.213	3.57
475.567	3.42
475.921	3.44
476.275	3.57
476.63	3.57
476.984	3.49
477.338	3.5
477.692	3.41
478.045	3.35
478.399	3.52
478.753	3.48
479.107	3.72
479.461	3.5
479.814	3.55
480.168	3.52
480.521	3.57
480.875	3.62
481.228	3.51
481.582	3.47
481.935	3.67
482.289	3.49
482.642	3.66
482.995	3.61
483.348	3.43
483.701	3.48
484.055	3.51
484.408	3.48
484.761	3.34
485.114	3.33
485.466	3.33
485.819	3.35
486.172	3.42
486.525	3.43
486.878	3.51
487.23	3.44
487.583	3.47
487.936	3.49
488.288	3.46
488.641	3.43
488.993	3.44
489.345	3.41
489.698	3.44
490.05	3.43
490.402	3.5
490.754	3.52
491.107	3.45
491.459	3.59
491.811	3.54
492.163	3.58
492.515	3.47
492.866	3.51
493.218	3.48
493.57	3.47
493.922	3.49
494.274	3.69
494.625	3.63
494.977	3.61
495.328	3.71
495.68	3.65
496.031	3.56
496.383	3.66
496.734	3.67
497.086	3.68
497.437	3.74
497.788	3.7
498.139	3.67
498.49	3.79
498.842	3.7
499.193	3.6
499.544	3.64
499.894	3.67
500.245	3.81
500.596	3.73
500.947	3.75
501.298	3.71
501.648	3.72
501.999	3.74
502.35	3.67
502.7	3.83
503.051	3.75
503.401	3.83
503.752	3.68
504.102	3.73
504.452	3.69
504.803	3.6
505.153	3.89
505.503	3.67
505.853	3.85
506.203	3.8
506.553	3.71
506.903	3.78
507.253	3.67
507.603	3.89
507.953	3.86
508.303	3.75
508.652	3.79
509.002	3.84
509.352	3.8
509.701	3.7
510.051	3.83
510.4	3.82
510.75	3.79
511.099	3.76
511.449	3.96
511.798	3.75
512.147	3.77
512.496	3.81
512.846	3.81
513.195	3.95
513.544	3.84
513.893	3.89
514.242	3.86
514.591	3.83
514.939	3.94
515.288	3.97
515.637	3.88
515.986	3.84
516.334	3.94
516.683	3.99
517.032	3.84
517.38	3.81
517.729	3.86
518.077	3.89
518.426	3.96
518.774	3.9
519.122	3.9
519.47	3.91
519.819	3.88
520.167	3.89
520.515	3.8
520.863	3.86
521.211	3.92
521.559	3.89
521.907	3.98
522.255	3.92
522.602	4.02
522.95	4.09
523.298	3.95
523.645	4.01
523.993	4.09
524.341	4.01
524.688	4.07
525.036	4.02
525.383	4.09
525.73	4.03
526.078	4.03
526.425	3.93
526.772	4.01
527.119	3.97
527.466	4.08
527.814	4.07
528.161	4.08
528.508	4.15
528.854	4.06
529.201	4.03
529.548	4.01
529.895	3.95
530.242	3.91
530.588	3.94
530.935	4
531.282	3.99
531.628	4.07
531.975	4.08
532.321	4.11
532.667	4.19
533.014	4.26
533.36	4.22
533.706	4.17
534.052	4.16
534.399	4.09
534.745	4.1
535.091	4.08
535.437	4.12
535.783	4.18
536.129	4.2
536.474	4.29
536.82	4.4
537.166	4.21
537.512	4.26
537.857	4.24
538.203	4.23
538.549	4.25
538.894	4.3
539.239	4.28
539.585	4.42
539.93	4.41
540.276	4.41
540.621	4.47
540.966	4.32
541.311	4.4
541.656	4.39
542.001	4.35
542.346	4.31
542.691	4.27
543.036	4.28
543.381	4.27
543.726	4.42
544.071	4.36
544.415	4.42
544.76	4.4
545.105	4.38
545.449	4.46
545.794	4.47
546.138	4.54
546.483	4.51
546.827	4.48
547.171	4.57
547.516	4.6
547.86	4.61
548.204	4.63
548.548	4.55
548.892	4.65
549.236	4.6
549.58	4.58
549.924	4.74
550.268	4.75
550.612	4.74
550.956	4.7
551.3	4.82
551.643	4.81
551.987	4.75
552.33	4.94
552.674	4.79
553.017	4.82
553.361	4.96
553.704	4.89
554.048	4.81
554.391	4.92
554.734	4.69
555.077	4.82
555.42	4.86
555.764	4.95
556.107	4.86
556.45	4.94
556.793	4.85
557.135	5.1
557.478	5.11
557.821	5.05
558.164	5.03
558.507	4.94
558.849	5.2
559.192	5
559.534	5.11
559.877	5.04
560.219	5.02
560.562	5.02
560.904	5.32
561.246	4.93
561.589	5.38
561.931	5.21
562.273	5.07
562.615	5.08
562.957	5.18
563.299	5.26
563.641	5.32
563.983	5.19
564.325	5.28
564.667	5.24
565.008	5.15
565.35	5.37
565.692	5.3
566.033	5.42
566.375	5.49
566.716	5.28
567.058	5.22
567.399	5.33
567.741	5.37
568.082	5.35
568.423	5.5
568.764	5.39
569.105	5.4
569.447	5.4
569.788	5.38
570.129	5.41
570.47	5.38
570.811	5.38
571.151	5.55
571.492	5.53
571.833	5.62
572.174	5.57
572.514	5.59
572.855	5.74
573.195	5.58
573.536	5.65
573.876	5.68
574.217	5.71
574.557	5.7
574.898	5.56
575.238	5.69
575.578	5.83
575.918	5.72
576.258	6.09
576.598	5.78
576.938	5.75
577.278	5.89
577.618	5.92
577.958	5.87
578.298	6
578.638	5.84
578.977	6.05
579.317	6.03
579.657	6.01
579.996	6.2
580.336	6.11
580.675	6.14
581.014	6.24
581.354	5.97
581.693	6.27
582.032	6.36
582.372	6.2
582.711	6.4
583.05	6.21
583.389	6.29
583.728	6.32
584.067	6.07
584.406	6.43
584.745	6.17
585.083	6.28
585.422	6.54
585.761	6.32
586.1	6.29
586.438	6.45
586.777	6.58
587.115	6.54
587.454	6.4
587.792	6.37
588.13	6.42
588.469	6.69
588.807	6.43
589.145	6.48
589.483	6.68
589.821	6.59
590.159	6.87
590.497	6.47
590.835	6.84
591.173	6.92
591.511	7.02
591.849	6.93
592.187	6.72
592.524	7.1
592.862	6.61
593.2	6.82
593.537	6.78
593.875	6.9
594.212	7
594.55	7.02
594.887	7.06
595.224	7.04
595.561	7.06
595.899	6.97
596.236	7.13
596.573	7.05
596.91	7
597.247	7.19
597.584	7.2
597.921	7.08
598.258	7.19
598.594	7.24
598.931	7.05
599.268	7
599.604	7.26
599.941	7.25
600.277	7.28
600.614	7.16
600.95	7.29
601.287	7.28
601.623	7.09
601.959	7.8
602.296	7.57
602.632	7.52
602.968	7.46
603.304	7.64
603.64	7.48
603.976	7.45
604.312	7.51
604.648	7.56
604.984	7.56
605.319	7.63
605.655	7.73
605.991	7.69
606.326	7.75
606.662	7.64
606.998	8.02
607.333	7.66
607.668	7.67
608.004	7.81
608.339	7.72
608.674	8.22
609.01	8.04
609.345	7.97
609.68	7.87
610.015	8.01
610.35	8.08
610.685	7.96
611.02	7.98
611.355	8.2
611.689	8.02
612.024	8.24
612.359	7.99
612.694	8.38
613.028	8.23
613.363	8.26
613.697	8.34
614.032	8.16
614.366	8.29
614.7	8.45
615.035	8.25
615.369	8.33
615.703	8.4
616.037	8.28
616.371	8.29
616.705	8.61
617.039	8.57
617.373	8.4
617.707	8.52
618.041	8.32
618.375	8.1
618.709	8.26
619.042	8.56
619.376	8.9
619.71	8.73
620.043	9.17
620.377	8.82
620.71	8.46
621.043	8.92
621.377	8.95
621.71	8.95
622.043	8.94
622.376	8.86
622.709	9.59
623.043	8.85
623.376	8.89
623.709	9.16
624.041	8.86
624.374	9.16
624.707	8.88
625.04	8.98
625.373	9.28
625.705	9.07
626.038	9.22
626.37	9.11
626.703	9.31
627.035	9.65
627.368	9.65
627.7	9.49
628.032	9.26
628.365	9.37
628.697	9.55
629.029	9.27
629.361	9.63
629.693	9.39
630.025	9.64
630.357	9.41
630.689	9.66
631.021	9.73
631.353	9.46
631.684	9.51
632.016	9.23
632.348	9.67
632.679	9.76
633.011	9.59
633.342	9.85
633.674	9.5
634.005	9.88
634.336	10.01
634.668	9.73
634.999	9.96
635.33	10.17
635.661	9.71
635.992	9.87
636.323	10.4
636.654	9.96
636.985	10.1
637.316	9.8
637.647	10.05
637.977	10.42
638.308	10.03
638.639	10.45
638.969	10.17
639.3	9.91
639.63	10.18
639.961	10.42
640.291	10.23
640.622	10.48
640.952	10.85
641.282	10.09
641.612	10.49
641.943	10.29
642.273	10.66
642.603	10.49
642.933	10.63
643.263	10.66
643.592	11.06
643.922	11.24
644.252	10.47
644.582	10.75
644.911	10.69
645.241	10.88
645.571	10.75
645.9	11.19
646.23	10.72
646.559	10.82
646.888	11.06
647.218	11.21
647.547	10.83
647.876	10.86
648.205	11.4
648.534	10.87
648.863	10.8
649.192	11.44
649.521	11.34
649.85	11.18
650.179	11.7
650.508	11.15
650.837	11.44
651.165	11.33
651.494	11.44
651.822	11.66
652.151	11.09
652.479	11.3
652.808	11.97
653.136	11.11
653.465	11.23
653.793	11.1
654.121	11.3
654.449	11.1
654.777	11.53
655.105	11.74
655.433	11.78
655.761	11.4
656.089	11.69
656.417	11.97
656.745	11.98
657.073	12.13
657.4	11.42
657.728	10.93
658.056	11.84
658.383	11.66
658.711	12.5
659.038	12.32
659.365	12.16
659.693	11.76
660.02	11.79
660.347	12.22
660.674	11.8
661.001	12.04
661.329	11.77
661.656	11.98
661.982	12.13
662.309	11.99
662.636	12.06
662.963	12.08
663.29	12.45
663.616	12.45
663.943	12.39
664.27	12.27
664.596	11.96
664.923	12.3
665.249	12.94
665.576	12.2
665.902	12.19
666.228	12.84
666.554	12.86
666.881	12.47
667.207	12.51
667.533	12.69
667.859	12.93
668.185	12.67
668.511	13.06
668.837	12.62
669.162	13.39
669.488	12.15
669.814	12.87
670.139	12.2
670.465	13.3
670.791	12.91
671.116	12.83
671.442	12.79
671.767	13.19
672.092	12.63
672.418	13.27
672.743	13.18
673.068	12.89
673.393	13.1
673.718	12.76
674.043	12.61
674.368	13.12
674.693	13.49
675.018	13.76
675.343	13.17
675.667	13.32
675.992	13.17
676.317	13.04
676.641	13.7
676.966	13.45
677.29	13.01
677.615	12.93
677.939	13.53
678.264	13.46
678.588	13.83
678.912	14.38
679.236	13.6
679.56	13.14
679.885	13.76
680.209	14.28
680.532	13.92
680.856	13.92
681.18	13.92
681.504	14.09
681.828	13.57
682.152	13.63
682.475	14.18
682.799	13.73
683.122	14.09
683.446	13.58
683.769	14.46
684.093	14.14
684.416	13.77
684.739	14.36
685.062	14.24
685.386	14.12
685.709	14.01
686.032	14.16
686.355	14.43
686.678	14.47
687.001	13.82
687.324	14.63
687.646	14.47
687.969	14.66
