Data from 0004_crown_Reflection__3__385.txt Node

Date: Thu Dec 15 19:35:14 CST 2022
User: ToomeyLab
Spectrometer: FLMS14357
Trigger mode: 0
Integration Time (sec): 1.000000E-2
Scans to average: 100
Electric dark correction enabled: true
Nonlinearity correction enabled: false
Boxcar width: 0
XAxis mode: Wavelengths
Number of Pixels in Spectrum: 2048
>>>>>Begin Spectral Data<<<<<
189.047	-57.95
189.435	-57.95
189.823	-57.95
190.211	123.68
190.599	20.72
190.987	219.07
191.375	20.98
191.763	-191.59
192.151	38.15
192.538	100.95
192.926	150.11
193.314	278.59
193.702	-2126.84
194.089	-87.98
194.477	-53.37
194.864	116.94
195.252	2.38
195.639	61.73
196.027	120.99
196.414	-36.14
196.801	-55.76
197.189	414.43
197.576	-243.75
197.963	-112.84
198.351	-36.5
198.738	-19.67
199.125	-73.82
199.512	23.14
199.899	-70.65
200.286	-77.19
200.673	56.26
201.06	-7.42
201.447	-34.09
201.833	-60.4
202.22	-13.69
202.607	-112.6
202.994	-2.21
203.38	-15.74
203.767	-13.21
204.154	18.38
204.54	-33.24
204.927	-26.46
205.313	-7.97
205.699	-10.69
206.086	31.22
206.472	8.98
206.858	-25.92
207.245	-37.14
207.631	-4.38
208.017	27.84
208.403	-128.13
208.789	-38.94
209.175	5.14
209.561	-158.87
209.947	-63.4
210.333	-29.47
210.719	-21.03
211.105	-2.23
211.491	-14.86
211.876	-66.77
212.262	12.75
212.648	-5.9
213.034	-31.5
213.419	-19.52
213.805	-65.29
214.19	-54.82
214.576	-37.57
214.961	-0.98
215.346	-73.16
215.732	-37.85
216.117	-21.85
216.502	-39.21
216.888	-29.16
217.273	9.73
217.658	-51.51
218.043	-50.9
218.428	-18.05
218.813	-9.61
219.198	-25.92
219.583	-20.44
219.968	8.22
220.353	-34.9
220.738	-20.73
221.122	0
221.507	-23.38
221.892	-39.18
222.276	-55.63
222.661	-24.02
223.046	-35.7
223.43	3.75
223.815	-7.43
224.199	-1.53
224.583	-11.49
224.968	-15.63
225.352	-1.18
225.736	9.15
226.121	-2.88
226.505	5.23
226.889	-6.96
227.273	-4.61
227.657	4.79
228.041	0.06
228.425	-3.75
228.809	-1.01
229.193	2.76
229.577	1.83
229.961	3.35
230.344	4.44
230.728	5.17
231.112	3.96
231.495	2.47
231.879	4.42
232.263	3.85
232.646	3.61
233.03	6.49
233.413	3.94
233.797	1
234.18	1.18
234.563	3.66
234.946	2.24
235.33	2.52
235.713	3.96
236.096	3.63
236.479	4.52
236.862	1.44
237.245	1.88
237.628	3.68
238.011	3.09
238.394	2.35
238.777	2.99
239.16	4.37
239.543	3.04
239.925	3.35
240.308	1.29
240.691	1.88
241.073	3.17
241.456	2.84
241.838	3.37
242.221	4.89
242.603	4.51
242.986	3.78
243.368	4.29
243.75	4.89
244.133	4.44
244.515	4.41
244.897	4.07
245.279	3.28
245.661	3.53
246.043	4.19
246.425	4.76
246.807	3.5
247.189	3.62
247.571	3.2
247.953	3.6
248.335	3.99
248.717	4.3
249.098	4.21
249.48	3.93
249.862	4.13
250.243	3.92
250.625	3.95
251.006	4.44
251.388	3.82
251.769	3.35
252.151	3.75
252.532	2.61
252.913	3.3
253.295	3.5
253.676	3.63
254.057	3.64
254.438	3.17
254.819	3.65
255.2	2.58
255.581	4.39
255.962	3.02
256.343	4.27
256.724	3.49
257.105	3.24
257.486	2.36
257.867	3.33
258.247	3.87
258.628	3.91
259.009	2.84
259.389	2.71
259.77	2.87
260.15	4.5
260.531	3.45
260.911	3.39
261.292	3.93
261.672	3.72
262.052	3.96
262.432	3.5
262.813	3.78
263.193	3.59
263.573	2.82
263.953	3.27
264.333	3.94
264.713	4.02
265.093	2.61
265.473	3.58
265.853	3.47
266.233	3.36
266.612	2.93
266.992	3.7
267.372	3.97
267.752	4.2
268.131	3.37
268.511	3.49
268.89	3.78
269.27	3.44
269.649	3.49
270.029	3.4
270.408	3.11
270.787	3.83
271.167	2.86
271.546	3.8
271.925	3.53
272.304	3.22
272.683	3.35
273.062	3.43
273.441	3.26
273.82	3.46
274.199	3.05
274.578	3.47
274.957	3.3
275.336	3.88
275.715	3.58
276.093	2.77
276.472	2.74
276.851	3.28
277.229	3.53
277.608	3.55
277.986	3.55
278.365	3.9
278.743	3.69
279.122	3.43
279.5	3.18
279.878	2.65
280.257	3.16
280.635	3.04
281.013	3.17
281.391	3.31
281.769	4.01
282.147	3.86
282.525	3.27
282.903	2.83
283.281	3.63
283.659	3.82
284.037	3.35
284.415	3.07
284.792	3.49
285.17	3.24
285.548	3.22
285.925	3.15
286.303	3.89
286.68	3.56
287.058	3.49
287.435	3.51
287.813	3.3
288.19	3.34
288.567	3.73
288.945	2.81
289.322	3.73
289.699	3.36
290.076	3.29
290.453	2.94
290.83	3.7
291.207	3.3
291.584	3.46
291.961	3.55
292.338	3.25
292.715	3.2
293.092	3.53
293.469	3.41
293.845	3.08
294.222	3.53
294.599	2.82
294.975	2.95
295.352	3.87
295.728	3.29
296.105	3.26
296.481	3.54
296.858	3.47
297.234	3.08
297.61	3.4
297.986	3.79
298.363	3.63
298.739	3.68
299.115	3.53
299.491	4.04
299.867	3.25
300.243	3.18
300.619	3.2
300.995	3.49
301.371	3.61
301.746	3.49
302.122	2.8
302.498	2.96
302.874	3.95
303.249	3.22
303.625	2.87
304	3.55
304.376	3.62
304.751	3.31
305.127	3.56
305.502	3.46
305.878	3.21
306.253	3.06
306.628	3.37
307.003	3.02
307.378	2.99
307.754	3.56
308.129	3.7
308.504	3.05
308.879	3.01
309.254	3.48
309.629	3.23
310.003	3.13
310.378	3.38
310.753	3.55
311.128	3.15
311.502	3.54
311.877	3.25
312.252	3.42
312.626	3.61
313.001	3.62
313.375	3.31
313.75	3.39
314.124	3.19
314.498	3.37
314.873	3.38
315.247	2.62
315.621	3.12
315.995	3.72
316.369	2.97
316.743	2.87
317.117	3.42
317.491	3.25
317.865	2.72
318.239	3.47
318.613	3.45
318.987	2.71
319.361	3.39
319.734	3.33
320.108	3.12
320.482	3.44
320.855	3.05
321.229	3.27
321.602	3.1
321.976	2.64
322.349	3.36
322.723	3.14
323.096	3.03
323.469	3.55
323.843	3.2
324.216	3.33
324.589	3.64
324.962	2.84
325.335	3.1
325.708	3.4
326.081	3.33
326.454	3.64
326.827	3.27
327.2	2.77
327.573	3.79
327.945	3.29
328.318	3.46
328.691	3.31
329.063	2.82
329.436	2.95
329.809	3.34
330.181	3.82
330.553	3.88
330.926	3.63
331.298	3.28
331.671	3.81
332.043	3.34
332.415	3.39
332.787	3.16
333.159	2.92
333.532	3.12
333.904	3.26
334.276	3.12
334.648	3.23
335.02	3.15
335.391	3.14
335.763	3.2
336.135	3.33
336.507	2.63
336.879	3.2
337.25	3.13
337.622	3.46
337.993	3.58
338.365	3.35
338.736	3.41
339.108	3.55
339.479	3.3
339.851	3.6
340.222	3.87
340.593	3.35
340.964	3.37
341.336	3.09
341.707	3.09
342.078	3.13
342.449	3.36
342.82	3.38
343.191	3.29
343.562	3.37
343.933	3.12
344.303	3.64
344.674	3.32
345.045	3.6
345.416	3.76
345.786	3.42
346.157	3.62
346.527	3.63
346.898	3.21
347.268	3.64
347.639	3.37
348.009	3.52
348.38	3.1
348.75	3.67
349.12	3.62
349.49	3.49
349.861	3.86
350.231	3.4
350.601	3.31
350.971	3.21
351.341	3.49
351.711	3.46
352.081	3.13
352.45	3.21
352.82	3.16
353.19	3.36
353.56	3.19
353.929	3.37
354.299	3.72
354.669	3.68
355.038	3.75
355.408	3.51
355.777	3.52
356.147	3.45
356.516	3.15
356.885	3.49
357.254	3.09
357.624	2.93
357.993	3.65
358.362	3.23
358.731	3.88
359.1	3.77
359.469	3.61
359.838	3.63
360.207	3.54
360.576	3.99
360.945	3.6
361.314	3.6
361.682	3.32
362.051	3.44
362.42	3.6
362.788	3.72
363.157	3.3
363.525	3.68
363.894	3.43
364.262	3.53
364.631	3.59
364.999	3.49
365.367	3.41
365.735	3.42
366.104	3.62
366.472	3.57
366.84	3.47
367.208	3.62
367.576	3.61
367.944	3.65
368.312	3.26
368.68	3.78
369.048	3.51
369.416	3.05
369.783	3.53
370.151	3.72
370.519	3.86
370.886	3.68
371.254	3.94
371.621	3.75
371.989	3.61
372.356	3.6
372.724	3.6
373.091	3.51
373.458	3.6
373.826	3.9
374.193	3.59
374.56	3.89
374.927	3.55
375.294	3.46
375.661	3.54
376.028	3.56
376.395	3.63
376.762	3.44
377.129	3.37
377.496	3.79
377.863	3.7
378.229	4.06
378.596	3.71
378.963	3.52
379.329	3.78
379.696	3.46
380.062	3.72
380.429	3.54
380.795	3.79
381.161	3.29
381.528	3.43
381.894	3.21
382.26	3.79
382.626	3.67
382.993	3.91
383.359	3.54
383.725	3.5
384.091	3.96
384.457	3.48
384.823	3.78
385.188	3.7
385.554	3.69
385.92	3.46
386.286	3.43
386.651	3.52
387.017	3.85
387.383	3.43
387.748	3.84
388.114	3.74
388.479	3.64
388.845	3.39
389.21	3.85
389.575	3.99
389.94	4
390.306	3.65
390.671	3.74
391.036	3.59
391.401	3.75
391.766	3.52
392.131	3.99
392.496	3.75
392.861	3.52
393.226	3.71
393.591	3.71
393.956	3.86
394.32	3.69
394.685	3.74
395.05	3.65
395.414	3.62
395.779	3.94
396.143	3.54
396.508	3.73
396.872	3.59
397.236	4.02
397.601	3.65
397.965	3.77
398.329	3.88
398.694	3.65
399.058	3.85
399.422	3.69
399.786	3.59
400.15	3.63
400.514	3.87
400.878	3.67
401.242	3.83
401.605	3.79
401.969	3.55
402.333	3.58
402.697	3.99
403.06	3.57
403.424	3.9
403.787	3.77
404.151	3.59
404.514	3.76
404.878	3.62
405.241	3.56
405.604	3.54
405.968	3.76
406.331	3.91
406.694	3.84
407.057	3.68
407.42	3.82
407.783	3.84
408.146	3.8
408.509	3.78
408.872	3.74
409.235	3.74
409.598	3.73
409.961	3.86
410.323	3.83
410.686	3.79
411.049	3.95
411.411	3.81
411.774	3.9
412.136	3.75
412.499	4.01
412.861	3.42
413.223	3.58
413.586	3.59
413.948	3.73
414.31	3.72
414.672	3.83
415.035	3.82
415.397	3.75
415.759	3.61
416.121	3.86
416.483	3.62
416.845	3.56
417.206	3.79
417.568	3.69
417.93	3.9
418.292	3.49
418.653	3.53
419.015	3.73
419.377	3.63
419.738	3.84
420.1	3.7
420.461	3.67
420.822	3.79
421.184	3.72
421.545	3.7
421.906	3.69
422.267	3.6
422.629	3.65
422.99	3.63
423.351	3.67
423.712	3.72
424.073	3.71
424.434	3.61
424.795	3.64
425.155	3.58
425.516	3.67
425.877	3.72
426.238	3.59
426.598	3.75
426.959	3.71
427.32	3.67
427.68	3.71
428.041	3.71
428.401	3.49
428.761	3.67
429.122	3.7
429.482	3.74
429.842	3.65
430.202	3.91
430.563	3.64
430.923	3.84
431.283	4.02
431.643	3.86
432.003	3.78
432.363	3.95
432.722	3.71
433.082	3.65
433.442	3.63
433.802	3.68
434.161	3.65
434.521	3.67
434.881	3.9
435.24	3.67
435.6	3.81
435.959	3.74
436.319	3.67
436.678	3.77
437.037	3.69
437.396	3.71
437.756	3.6
438.115	3.81
438.474	3.76
438.833	3.76
439.192	3.69
439.551	3.68
439.91	3.84
440.269	3.69
440.628	3.53
440.987	3.74
441.345	3.72
441.704	3.57
442.063	3.64
442.421	3.69
442.78	3.64
443.138	3.69
443.497	3.63
443.855	3.77
444.214	3.56
444.572	3.78
444.93	3.68
445.288	3.81
445.647	3.58
446.005	3.67
446.363	3.72
446.721	3.77
447.079	3.71
447.437	3.73
447.795	3.67
448.153	3.69
448.51	3.67
448.868	3.62
449.226	3.73
449.584	3.69
449.941	3.69
450.299	3.54
450.656	3.64
451.014	3.71
451.371	3.82
451.729	3.81
452.086	3.55
452.443	3.78
452.801	3.69
453.158	3.89
453.515	3.73
453.872	3.71
454.229	3.53
454.586	3.47
454.943	3.64
455.3	3.78
455.657	3.61
456.014	3.63
456.371	3.75
456.727	3.79
457.084	3.8
457.441	3.63
457.797	3.63
458.154	3.7
458.51	3.6
458.867	3.7
459.223	3.66
459.58	3.69
459.936	3.61
460.292	3.65
460.648	3.58
461.005	3.69
461.361	3.57
461.717	3.61
462.073	3.71
462.429	3.73
462.785	3.77
463.141	3.68
463.496	3.65
463.852	3.77
464.208	3.58
464.564	3.62
464.919	3.68
465.275	3.64
465.631	4.1
465.986	3.74
466.342	3.55
466.697	3.73
467.052	3.74
467.408	3.86
467.763	3.73
468.118	3.44
468.473	3.8
468.829	3.74
469.184	3.74
469.539	3.63
469.894	3.69
470.249	3.78
470.603	3.75
470.958	3.82
471.313	3.76
471.668	3.78
472.023	3.76
472.377	3.85
472.732	3.87
473.086	3.72
473.441	3.69
473.795	3.81
474.15	3.79
474.504	3.63
474.859	3.59
475.213	3.89
475.567	3.66
475.921	3.7
476.275	3.82
476.63	3.77
476.984	3.66
477.338	3.85
477.692	3.69
478.045	3.78
478.399	3.85
478.753	3.61
479.107	3.68
479.461	3.68
479.814	3.64
480.168	3.81
480.521	3.79
480.875	3.78
481.228	3.71
481.582	3.58
481.935	3.84
482.289	3.83
482.642	3.78
482.995	3.71
483.348	3.61
483.701	3.66
484.055	3.73
484.408	3.66
484.761	3.59
485.114	3.5
485.466	3.51
485.819	3.48
486.172	3.56
486.525	3.54
486.878	3.62
487.23	3.64
487.583	3.66
487.936	3.63
488.288	3.68
488.641	3.58
488.993	3.55
489.345	3.55
489.698	3.58
490.05	3.59
490.402	3.62
490.754	3.63
491.107	3.59
491.459	3.75
491.811	3.65
492.163	3.74
492.515	3.6
492.866	3.58
493.218	3.59
493.57	3.64
493.922	3.6
494.274	3.74
494.625	3.73
494.977	3.64
495.328	3.76
495.68	3.7
496.031	3.77
496.383	3.63
496.734	3.62
497.086	3.8
497.437	3.73
497.788	3.83
498.139	3.68
498.49	3.77
498.842	3.8
499.193	3.64
499.544	3.79
499.894	3.74
500.245	3.81
500.596	3.82
500.947	3.69
501.298	3.75
501.648	3.77
501.999	3.81
502.35	3.69
502.7	4.01
503.051	3.7
503.401	3.74
503.752	3.74
504.102	3.66
504.452	3.65
504.803	3.65
505.153	3.71
505.503	3.72
505.853	3.79
506.203	3.77
506.553	3.69
506.903	3.87
507.253	3.7
507.603	3.81
507.953	3.72
508.303	3.71
508.652	3.59
509.002	3.75
509.352	3.84
509.701	3.67
510.051	3.74
510.4	3.82
510.75	3.7
511.099	3.65
511.449	3.78
511.798	3.7
512.147	3.71
512.496	3.72
512.846	3.72
513.195	3.79
513.544	3.79
513.893	3.71
514.242	3.71
514.591	3.67
514.939	3.81
515.288	3.8
515.637	3.77
515.986	3.81
516.334	3.72
516.683	3.75
517.032	3.7
517.38	3.66
517.729	3.71
518.077	3.71
518.426	3.8
518.774	3.7
519.122	3.75
519.47	3.59
519.819	3.73
520.167	3.68
520.515	3.7
520.863	3.64
521.211	3.7
521.559	3.65
521.907	3.79
522.255	3.76
522.602	3.78
522.95	3.76
523.298	3.81
523.645	3.72
523.993	3.75
524.341	3.68
524.688	3.72
525.036	3.75
525.383	3.8
525.73	3.7
526.078	3.84
526.425	3.7
526.772	3.67
527.119	3.71
527.466	3.74
527.814	3.7
528.161	3.77
528.508	3.78
528.854	3.76
529.201	3.6
529.548	3.64
529.895	3.58
530.242	3.55
530.588	3.57
530.935	3.63
531.282	3.61
531.628	3.62
531.975	3.65
532.321	3.67
532.667	3.76
533.014	3.67
533.36	3.72
533.706	3.85
534.052	3.76
534.399	3.7
534.745	3.67
535.091	3.61
535.437	3.69
535.783	3.69
536.129	3.76
536.474	3.83
536.82	3.82
537.166	3.67
537.512	3.72
537.857	3.66
538.203	3.69
538.549	3.7
538.894	3.69
539.239	3.78
539.585	3.8
539.93	3.67
540.276	3.79
540.621	3.81
540.966	3.73
541.311	3.86
541.656	3.73
542.001	3.66
542.346	3.67
542.691	3.63
543.036	3.65
543.381	3.7
543.726	3.73
544.071	3.68
544.415	3.71
544.76	3.76
545.105	3.75
545.449	3.7
545.794	3.7
546.138	3.82
546.483	3.85
546.827	3.66
547.171	3.86
547.516	3.77
547.86	3.85
548.204	3.86
548.548	3.75
548.892	3.86
549.236	3.79
549.58	3.82
549.924	3.9
550.268	3.84
550.612	3.96
550.956	4
551.3	3.98
551.643	3.94
551.987	4.04
552.33	4.06
552.674	3.69
553.017	3.85
553.361	3.89
553.704	4.03
554.048	3.91
554.391	3.98
554.734	3.82
555.077	3.94
555.42	3.84
555.764	3.68
556.107	4.04
556.45	3.79
556.793	3.9
557.135	3.8
557.478	3.96
557.821	3.94
558.164	3.68
558.507	3.95
558.849	4.02
559.192	4.02
559.534	3.71
559.877	3.7
560.219	3.87
560.562	3.88
560.904	4.09
561.246	3.9
561.589	4.09
561.931	4.12
562.273	3.85
562.615	3.89
562.957	3.87
563.299	3.9
563.641	3.93
563.983	3.81
564.325	3.93
564.667	3.89
565.008	3.95
565.35	3.89
565.692	3.89
566.033	3.84
566.375	4.1
566.716	3.87
567.058	3.84
567.399	3.9
567.741	3.96
568.082	3.82
568.423	3.8
568.764	3.87
569.105	3.96
569.447	3.84
569.788	4.02
570.129	3.77
570.47	3.87
570.811	3.68
571.151	4.12
571.492	3.89
571.833	4.01
572.174	4.13
572.514	3.95
572.855	3.99
573.195	3.85
573.536	4.03
573.876	3.8
574.217	3.94
574.557	3.9
574.898	3.86
575.238	4.06
575.578	3.97
575.918	3.98
576.258	4.22
576.598	3.84
576.938	3.95
577.278	3.89
577.618	3.85
577.958	4.19
578.298	4.01
578.638	3.98
578.977	3.99
579.317	3.92
579.657	3.89
579.996	4.17
580.336	3.96
580.675	3.98
581.014	4.04
581.354	3.86
581.693	3.92
582.032	4.23
582.372	3.82
582.711	4.06
583.05	3.87
583.389	4.16
583.728	4.1
584.067	4.13
584.406	4.06
584.745	4.04
585.083	3.95
585.422	4.13
585.761	4.09
586.1	4
586.438	3.9
586.777	3.99
587.115	4.09
587.454	3.94
587.792	4.02
588.13	3.97
588.469	4.01
588.807	4.28
589.145	4.13
589.483	3.92
589.821	3.84
590.159	4.04
590.497	4.28
590.835	4.16
591.173	4.1
591.511	4.04
591.849	4.07
592.187	4.06
592.524	4.14
592.862	3.94
593.2	4.08
593.537	3.93
593.875	4.12
594.212	4.1
594.55	3.88
594.887	4.12
595.224	4.27
595.561	4.02
595.899	4.23
596.236	4.14
596.573	4.04
596.91	4.07
597.247	4.22
597.584	4.19
597.921	4.11
598.258	4.03
598.594	4.1
598.931	4.04
599.268	3.87
599.604	4.02
599.941	4.12
600.277	3.97
600.614	4.03
600.95	4.07
601.287	3.94
601.623	3.8
601.959	4.47
602.296	4.29
602.632	4.35
602.968	4.04
603.304	4.33
603.64	4.22
603.976	4.13
604.312	4.05
604.648	4.34
604.984	4.27
605.319	4.12
605.655	3.87
605.991	4.18
606.326	4.15
606.662	3.98
606.998	4.19
607.333	4.09
607.668	4.13
608.004	4.02
608.339	4.06
608.674	4.19
609.01	4.27
609.345	4.19
609.68	4.01
610.015	4.13
610.35	4.26
610.685	3.88
611.02	4.09
611.355	4.07
611.689	4.2
612.024	4.23
612.359	4.21
612.694	4.34
613.028	4.2
613.363	4.03
613.697	4.18
614.032	4.24
614.366	4.05
614.7	4.11
615.035	4.5
615.369	4.54
615.703	4.06
616.037	4.19
616.371	4.28
616.705	4.54
617.039	4.25
617.373	4.31
617.707	4.41
618.041	3.89
618.375	3.62
618.709	4.43
619.042	4.23
619.376	4.12
619.71	4.13
620.043	4.53
620.377	4.4
620.71	4.12
621.043	4.24
621.377	4.39
621.71	4.73
622.043	4.18
622.376	4.4
622.709	4.58
623.043	4.28
623.376	3.98
623.709	4.87
624.041	4.01
624.374	4.13
624.707	4.37
625.04	4.02
625.373	4.29
625.705	4.77
626.038	4.37
626.37	4.13
626.703	4.05
627.035	4.33
627.368	4.67
627.7	4.21
628.032	4.42
628.365	4.82
628.697	4.39
629.029	4.36
629.361	4.56
629.693	4.43
630.025	4.4
630.357	4.59
630.689	4.45
631.021	4.55
631.353	4.25
631.684	4.19
632.016	4.09
632.348	4.31
632.679	4.44
633.011	4.2
633.342	4.64
633.674	4.34
634.005	4.6
634.336	4.53
634.668	4.5
634.999	4.53
635.33	4.65
635.661	4.38
635.992	4.69
636.323	4.23
636.654	4.2
636.985	4.23
637.316	4.15
637.647	4.45
637.977	4.44
638.308	4.74
638.639	4.46
638.969	4.32
639.3	4.51
639.63	4.52
639.961	4.56
640.291	3.95
640.622	4.43
640.952	4.64
641.282	4.05
641.612	4.15
641.943	4.41
642.273	4.2
642.603	4.6
642.933	4.54
643.263	4.46
643.592	4.4
643.922	4.86
644.252	4.32
644.582	4.61
644.911	4.31
645.241	4.44
645.571	4.34
645.9	4.62
646.23	4.59
646.559	4.52
646.888	4.66
647.218	4.31
647.547	4.98
647.876	4.04
648.205	3.92
648.534	4.4
648.863	4.48
649.192	4.57
649.521	4.26
649.85	4.29
650.179	4.32
650.508	4.65
650.837	4.97
651.165	4.25
651.494	4.58
651.822	4.6
652.151	4.33
652.479	4.52
652.808	4.83
653.136	4.63
653.465	4.48
653.793	4.6
654.121	4.27
654.449	4.35
654.777	4.04
655.105	4.46
655.433	4.43
655.761	4.44
656.089	4.31
656.417	5.04
656.745	4.7
657.073	4.16
657.4	4.78
657.728	4.42
658.056	5.26
658.383	4.67
658.711	5.13
659.038	4.98
659.365	4.75
659.693	4.54
660.02	4.46
660.347	4.83
660.674	4.58
661.001	4.8
661.329	4.32
661.656	4.3
661.982	4.46
662.309	4.43
662.636	4.53
662.963	4.64
663.29	4.88
663.616	4.62
663.943	4.57
664.27	4.69
664.596	4.45
664.923	5.02
665.249	5
665.576	4.49
665.902	4.48
666.228	4.91
666.554	4.86
666.881	3.97
667.207	4.55
667.533	4.64
667.859	4.31
668.185	4.29
668.511	4.75
668.837	4.79
669.162	4.48
669.488	4.63
669.814	5.08
670.139	4.25
670.465	5.16
670.791	4.25
671.116	4.32
671.442	3.56
671.767	5.07
672.092	4.76
672.418	4.9
672.743	4.32
673.068	4.45
673.393	4.6
673.718	4.3
674.043	4.49
674.368	4.74
674.693	4.59
675.018	5.2
675.343	5.11
675.667	4.63
675.992	5.5
676.317	3.94
676.641	4.84
676.966	5.23
677.29	4.74
677.615	4.8
677.939	5.03
678.264	4.29
678.588	5.1
678.912	5.12
679.236	4.92
679.56	4.29
679.885	4.77
680.209	5.15
680.532	5.12
680.856	5.02
681.18	5.6
681.504	5.11
681.828	4.6
682.152	5.02
682.475	4.93
682.799	4.7
683.122	4.89
683.446	4.49
683.769	5.3
684.093	4.61
684.416	4.21
684.739	4.73
685.062	4.96
685.386	5.13
685.709	4.81
686.032	4.76
686.355	4.26
686.678	5.71
687.001	4.59
687.324	5.09
687.646	4.99
687.969	4.94
688.292	5.03
688.614	6.09
688.937	5.16
689.26	5.31
689.582	5.07
689.904	4.86
690.227	5.19
690.549	5
690.871	4.68
691.194	4.9
691.516	5.44
