Data from 0004_forehead_Reflection__0__387.txt Node

Date: Thu Dec 15 19:35:53 CST 2022
User: ToomeyLab
Spectrometer: FLMS14357
Trigger mode: 0
Integration Time (sec): 1.000000E-2
Scans to average: 100
Electric dark correction enabled: true
Nonlinearity correction enabled: false
Boxcar width: 0
XAxis mode: Wavelengths
Number of Pixels in Spectrum: 2048
>>>>>Begin Spectral Data<<<<<
189.047	48.32
189.435	48.32
189.823	48.32
190.211	14.34
190.599	87.06
190.987	-40.58
191.375	67.93
191.763	-270.77
192.151	166.12
192.538	18.01
192.926	13.11
193.314	1258.41
193.702	-691.34
194.089	-1.45
194.477	-320.84
194.864	39.52
195.252	628.23
195.639	196.52
196.027	73.06
196.414	193.98
196.801	-370.9
197.189	488.16
197.576	-231.46
197.963	-96.94
198.351	-20.53
198.738	-61.39
199.125	-53.36
199.512	12.84
199.899	-65.26
200.286	0.66
200.673	57.16
201.06	-21.39
201.447	3.09
201.833	-39.15
202.22	61.46
202.607	-1.66
202.994	15.14
203.38	45.64
203.767	16.41
204.154	2.99
204.54	-4.11
204.927	9.56
205.313	14.11
205.699	29.84
206.086	21.51
206.472	-3.68
206.858	2.32
207.245	-24.41
207.631	-0.96
208.017	14.59
208.403	-28.66
208.789	10.82
209.175	-31.87
209.561	-132.82
209.947	7.81
210.333	-0.31
210.719	4.38
211.105	24.03
211.491	5.48
211.876	-44.73
212.262	-19.08
212.648	-12.12
213.034	-15.17
213.419	8.62
213.805	-44.62
214.19	5.91
214.576	-64.37
214.961	0.74
215.346	-66.35
215.732	-9.54
216.117	-12.65
216.502	-7.31
216.888	4.61
217.273	-6.09
217.658	-36.47
218.043	-24.17
218.428	-1.48
218.813	1.28
219.198	-62.52
219.583	-27.85
219.968	-31.38
220.353	-27.03
220.738	14.06
221.122	2.68
221.507	-10.95
221.892	-16.18
222.276	-36.93
222.661	-15.99
223.046	-22.07
223.43	0.96
223.815	6.44
224.199	-4.45
224.583	-13.74
224.968	-3.35
225.352	-9.21
225.736	-4.4
226.121	-3.96
226.505	-14.31
226.889	-0.9
227.273	-9.78
227.657	-0.71
228.041	2.43
228.425	-4.58
228.809	-0.95
229.193	0.33
229.577	-0.91
229.961	0.7
230.344	1.14
230.728	1.91
231.112	0.73
231.495	-0.52
231.879	0.89
232.263	1.35
232.646	0.42
233.03	1.49
233.413	1.25
233.797	0.29
234.18	0.49
234.563	2.81
234.946	0.09
235.33	-0.31
235.713	1.55
236.096	2.1
236.479	1.56
236.862	1.51
237.245	2.44
237.628	1.33
238.011	0.76
238.394	0.23
238.777	0.89
239.16	0.89
239.543	1.74
239.925	1.55
240.308	-1
240.691	1.09
241.073	-0.38
241.456	1.88
241.838	0.72
242.221	1.91
242.603	1.79
242.986	0.91
243.368	1.39
243.75	1.13
244.133	1.69
244.515	1.47
244.897	1.35
245.279	1.38
245.661	1.35
246.043	0.86
246.425	1.83
246.807	1.06
247.189	1.1
247.571	0.83
247.953	1.57
248.335	1.81
248.717	1.54
249.098	1.53
249.48	1.41
249.862	1.55
250.243	1.78
250.625	1.78
251.006	2.38
251.388	1.07
251.769	0.05
252.151	1.48
252.532	-0
252.913	1.71
253.295	1.34
253.676	1.25
254.057	1.4
254.438	0.9
254.819	1.58
255.2	1.63
255.581	1.75
255.962	1.97
256.343	2.04
256.724	1.53
257.105	0.51
257.486	0.07
257.867	1.05
258.247	1.57
258.628	2.43
259.009	1.3
259.389	0.4
259.77	1.14
260.15	1.64
260.531	1.81
260.911	1.63
261.292	1.75
261.672	1.65
262.052	1.53
262.432	1.66
262.813	1.33
263.193	1.55
263.573	1.75
263.953	1.67
264.333	1.52
264.713	1.64
265.093	1.8
265.473	2.48
265.853	1.44
266.233	1.6
266.612	0
266.992	0.84
267.372	1.72
267.752	1.73
268.131	1.56
268.511	1.52
268.89	2.08
269.27	1.17
269.649	1.26
270.029	1.41
270.408	1.63
270.787	1.93
271.167	2.01
271.546	2.18
271.925	2.03
272.304	1.57
272.683	1.44
273.062	1.67
273.441	1.27
273.82	1.71
274.199	1.56
274.578	1.62
274.957	1.47
275.336	1.86
275.715	1.87
276.093	1.08
276.472	1.26
276.851	1.22
277.229	1.87
277.608	1.3
277.986	1.57
278.365	1.97
278.743	0.94
279.122	1.16
279.5	1.54
279.878	1.27
280.257	1.19
280.635	1.53
281.013	1.04
281.391	1.58
281.769	1.86
282.147	1.34
282.525	0.97
282.903	1.48
283.281	1.78
283.659	1.63
284.037	1.23
284.415	1.3
284.792	1.38
285.17	1.56
285.548	1.33
285.925	1.71
286.303	1.74
286.68	1.76
287.058	1.66
287.435	1.44
287.813	1.37
288.19	1.41
288.567	1.19
288.945	1.19
289.322	1.77
289.699	1.93
290.076	1.4
290.453	1.3
290.83	1.76
291.207	1.36
291.584	1.99
291.961	1.6
292.338	1.66
292.715	1.6
293.092	2.34
293.469	1.88
293.845	1.65
294.222	2.04
294.599	1.17
294.975	0.79
295.352	1.85
295.728	2.05
296.105	1.91
296.481	2.46
296.858	2.11
297.234	1.45
297.61	2.08
297.986	2.47
298.363	2.27
298.739	2.29
299.115	2.1
299.491	2.5
299.867	1.82
300.243	2.16
300.619	1.91
300.995	2.01
301.371	2.38
301.746	2.48
302.122	2.18
302.498	2.16
302.874	2.62
303.249	2.43
303.625	2.01
304	2.52
304.376	2.93
304.751	2.69
305.127	2.75
305.502	2.9
305.878	2.87
306.253	2.35
306.628	2.5
307.003	2.77
307.378	2.82
307.754	2.96
308.129	2.32
308.504	3.08
308.879	2.9
309.254	3.13
309.629	2.51
310.003	2.97
310.378	3.3
310.753	3.06
311.128	2.88
311.502	2.89
311.877	2.88
312.252	3.4
312.626	3.52
313.001	3.38
313.375	3.42
313.75	3.28
314.124	3.38
314.498	3.66
314.873	3.25
315.247	3.24
315.621	3.2
315.995	3.77
316.369	3.19
316.743	3.46
317.117	3.37
317.491	3.53
317.865	3.26
318.239	3.72
318.613	3.7
318.987	3.55
319.361	3.14
319.734	3.8
320.108	3.75
320.482	4.06
320.855	4.08
321.229	3.67
321.602	3.64
321.976	3.52
322.349	4.78
322.723	4.01
323.096	3.91
323.469	3.93
323.843	3.83
324.216	4.25
324.589	4.2
324.962	3.98
325.335	4.18
325.708	4.23
326.081	4.16
326.454	4.45
326.827	4.32
327.2	4.28
327.573	4.55
327.945	4.12
328.318	4.62
328.691	4.76
329.063	4.65
329.436	4.03
329.809	5.06
330.181	5.36
330.553	5.61
330.926	5.31
331.298	4.83
331.671	4.75
332.043	4.48
332.415	5.56
332.787	4.96
333.159	4.72
333.532	5.2
333.904	5.34
334.276	4.98
334.648	4.84
335.02	5.45
335.391	5.14
335.763	5.22
336.135	5.26
336.507	5.51
336.879	5.31
337.25	5.51
337.622	5.45
337.993	5.68
338.365	5.42
338.736	5.58
339.108	5.69
339.479	5.29
339.851	5.32
340.222	6.15
340.593	5.86
340.964	5.53
341.336	5.66
341.707	5.79
342.078	5.59
342.449	5.93
342.82	6.16
343.191	5.87
343.562	6.15
343.933	5.6
344.303	6.2
344.674	5.88
345.045	5.9
345.416	6.43
345.786	5.68
346.157	5.99
346.527	6.39
346.898	5.9
347.268	6.62
347.639	6.17
348.009	6.79
348.38	6.03
348.75	6.54
349.12	6.51
349.49	6.61
349.861	6.95
350.231	6.82
350.601	6.45
350.971	6.72
351.341	6.3
351.711	6.62
352.081	6.48
352.45	6.76
352.82	6.31
353.19	7.08
353.56	6.98
353.929	7.1
354.299	7.21
354.669	7.38
355.038	7.62
355.408	7.11
355.777	7.2
356.147	7.13
356.516	7.25
356.885	7.28
357.254	7.13
357.624	7.11
357.993	7.51
358.362	7.49
358.731	7.72
359.1	7.78
359.469	7.45
359.838	7.53
360.207	7.79
360.576	7.78
360.945	7.79
361.314	7.79
361.682	7.46
362.051	7.98
362.42	7.92
362.788	7.9
363.157	7.83
363.525	8.09
363.894	7.71
364.262	8.05
364.631	8.31
364.999	8.46
365.367	8.29
365.735	8.13
366.104	8.31
366.472	8.19
366.84	8.64
367.208	8.73
367.576	8.49
367.944	8.58
368.312	8.52
368.68	8.94
369.048	8.63
369.416	8.36
369.783	8.25
370.151	8.98
370.519	9.21
370.886	8.95
371.254	9.05
371.621	8.99
371.989	9.03
372.356	9.19
372.724	9.02
373.091	8.84
373.458	8.87
373.826	9.5
374.193	9.34
374.56	9.09
374.927	9.27
375.294	9.49
375.661	9.32
376.028	9.21
376.395	9.59
376.762	9.25
377.129	9.57
377.496	9.63
377.863	9.6
378.229	9.79
378.596	9.81
378.963	9.66
379.329	9.62
379.696	9.74
380.062	10.03
380.429	9.74
380.795	10.31
381.161	9.91
381.528	9.61
381.894	9.97
382.26	10.19
382.626	10.25
382.993	10.42
383.359	10.58
383.725	10.2
384.091	10.46
384.457	10.32
384.823	10.55
385.188	10.68
385.554	10.76
385.92	10.34
386.286	10.72
386.651	10.65
387.017	10.7
387.383	11
387.748	10.9
388.114	10.58
388.479	10.92
388.845	10.62
389.21	11.13
389.575	11.17
389.94	11.41
390.306	11.18
390.671	11.25
391.036	11.37
391.401	11.35
391.766	11.34
392.131	11.52
392.496	11.4
392.861	11.44
393.226	11.35
393.591	11.48
393.956	11.45
394.32	11.82
394.685	11.72
395.05	11.83
395.414	12.04
395.779	12.08
396.143	11.58
396.508	11.98
396.872	11.86
397.236	12.39
397.601	12.05
397.965	12.18
398.329	12.36
398.694	12.07
399.058	12.3
399.422	12.14
399.786	12.04
400.15	12.42
400.514	12.39
400.878	12.47
401.242	12.5
401.605	12.39
401.969	12.56
402.333	12.74
402.697	13.12
403.06	12.35
403.424	12.79
403.787	12.64
404.151	12.81
404.514	12.96
404.878	12.85
405.241	12.86
405.604	12.83
405.968	12.83
406.331	13.01
406.694	13.05
407.057	13.04
407.42	13.06
407.783	13.46
408.146	13.22
408.509	13.43
408.872	13.49
409.235	13.64
409.598	13.45
409.961	13.53
410.323	13.21
410.686	13.65
411.049	13.73
411.411	13.46
411.774	13.76
412.136	13.83
412.499	14.06
412.861	13.43
413.223	13.81
413.586	14.24
413.948	14.18
414.31	14.19
414.672	14.09
415.035	14.33
415.397	14.24
415.759	14.05
416.121	14.1
416.483	13.99
416.845	14.41
417.206	14.33
417.568	14.09
417.93	14.13
418.292	14.3
418.653	14.11
419.015	14.3
419.377	14.28
419.738	14.35
420.1	14.33
420.461	14.16
420.822	14.42
421.184	14.45
421.545	14.5
421.906	14.55
422.267	14.44
422.629	14.44
422.99	14.36
423.351	14.57
423.712	14.66
424.073	14.78
424.434	14.81
424.795	14.74
425.155	14.82
425.516	14.59
425.877	14.73
426.238	14.77
426.598	14.9
426.959	15.06
427.32	15.06
427.68	15.04
428.041	15.31
428.401	15.3
428.761	15.59
429.122	15.43
429.482	15.55
429.842	15.57
430.202	15.57
430.563	15.68
430.923	15.68
431.283	15.83
431.643	15.94
432.003	15.78
432.363	16.04
432.722	15.98
433.082	16.1
433.442	15.93
433.802	16.08
434.161	15.96
434.521	16.05
434.881	15.98
435.24	15.99
435.6	16.02
435.959	16.12
436.319	16.18
436.678	16.38
437.037	16.27
437.396	16.22
437.756	16.19
438.115	16.38
438.474	16.62
438.833	16.33
439.192	16.46
439.551	16.47
439.91	16.56
440.269	16.51
440.628	16.53
440.987	16.71
441.345	16.65
441.704	16.51
442.063	16.63
442.421	16.66
442.78	16.76
443.138	16.81
443.497	16.81
443.855	17.08
444.214	16.97
444.572	17.25
444.93	17
445.288	17.16
445.647	17.06
446.005	17.12
446.363	17.25
446.721	17.13
447.079	17.27
447.437	17.17
447.795	16.92
448.153	17.06
448.51	17.1
448.868	17.12
449.226	17.36
449.584	17.47
449.941	17.5
450.299	17.59
450.656	17.62
451.014	17.74
451.371	17.72
451.729	17.81
452.086	17.89
452.443	18.16
452.801	17.93
453.158	18.21
453.515	18.1
453.872	18.07
454.229	17.81
454.586	18.05
454.943	18.12
455.3	18.37
455.657	18.25
456.014	18.21
456.371	18.45
456.727	18.61
457.084	18.49
457.441	18.54
457.797	18.64
458.154	18.72
458.51	18.84
458.867	18.72
459.223	18.63
459.58	18.6
459.936	18.67
460.292	18.68
460.648	18.47
461.005	18.52
461.361	18.39
461.717	18.36
462.073	18.73
462.429	18.73
462.785	19.02
463.141	19.11
463.496	19.09
463.852	19.18
464.208	19.18
464.564	19.44
464.919	19.24
465.275	19.54
465.631	19.45
465.986	19.49
466.342	19.39
466.697	19.67
467.052	19.68
467.408	19.54
467.763	19.63
468.118	19.73
468.473	19.83
468.829	19.69
469.184	19.87
469.539	19.79
469.894	19.94
470.249	20.05
470.603	20.08
470.958	20.05
471.313	20.15
471.668	19.99
472.023	20.36
472.377	20.06
472.732	20.42
473.086	20.31
473.441	20.35
473.795	20.49
474.15	20.35
474.504	20.28
474.859	20.23
475.213	20.57
475.567	20.41
475.921	20.52
476.275	20.71
476.63	20.71
476.984	20.86
477.338	20.69
477.692	20.77
478.045	20.8
478.399	20.62
478.753	20.79
479.107	20.75
479.461	20.76
479.814	20.86
480.168	20.85
480.521	21.13
480.875	21.05
481.228	21.18
481.582	21.01
481.935	21.24
482.289	21.16
482.642	21.16
482.995	20.92
483.348	20.76
483.701	21.01
484.055	20.85
484.408	20.7
484.761	20.42
485.114	20.16
485.466	20.08
485.819	20.17
486.172	20.39
486.525	20.74
486.878	20.92
487.23	20.96
487.583	21.11
487.936	21.1
488.288	20.9
488.641	20.62
488.993	20.72
489.345	20.67
489.698	20.83
490.05	20.93
490.402	21.22
490.754	21.37
491.107	21.51
491.459	21.72
491.811	21.85
492.163	21.75
492.515	21.51
492.866	21.15
493.218	21.15
493.57	21.27
493.922	21.54
494.274	21.85
494.625	22.14
494.977	22.26
495.328	22.51
495.68	22.54
496.031	22.51
496.383	22.7
496.734	22.71
497.086	22.95
497.437	22.7
497.788	22.78
498.139	22.71
498.49	22.61
498.842	22.61
499.193	22.7
499.544	22.85
499.894	22.91
500.245	23.11
500.596	22.91
500.947	23.2
501.298	23.15
501.648	23.32
501.999	23.33
502.35	23.33
502.7	23.56
503.051	23.61
503.401	23.52
503.752	23.45
504.102	23.57
504.452	23.7
504.803	23.7
505.153	23.71
505.503	23.68
505.853	23.96
506.203	23.81
506.553	23.81
506.903	23.89
507.253	23.95
507.603	24.03
507.953	24.06
508.303	24.15
508.652	23.99
509.002	24.21
509.352	24.07
509.701	23.9
510.051	23.92
510.4	24.23
510.75	23.89
511.099	24.02
511.449	24.25
511.798	24.04
512.147	24.27
512.496	24.29
512.846	24.25
513.195	24.29
513.544	24.32
513.893	24.29
514.242	24.45
514.591	24.53
514.939	24.39
515.288	24.86
515.637	24.68
515.986	24.88
516.334	24.86
516.683	24.96
517.032	25
517.38	24.98
517.729	24.95
518.077	25
518.426	25.02
518.774	25.09
519.122	24.73
519.47	24.85
519.819	24.6
520.167	24.52
520.515	24.71
520.863	24.85
521.211	24.99
521.559	25.03
521.907	25.06
522.255	25.21
522.602	25.48
522.95	25.53
523.298	25.63
523.645	25.73
523.993	25.55
524.341	25.74
524.688	25.75
525.036	25.87
525.383	25.57
525.73	25.56
526.078	25.7
526.425	25.67
526.772	25.53
527.119	25.42
527.466	25.59
527.814	25.48
528.161	25.69
528.508	25.68
528.854	25.7
529.201	25.45
529.548	25.18
529.895	24.95
530.242	24.91
530.588	25.12
530.935	25.37
531.282	25.69
531.628	25.76
531.975	26
532.321	26.08
532.667	26.2
533.014	26.43
533.36	26.29
533.706	26.41
534.052	26.22
534.399	26.11
534.745	25.81
535.091	25.75
535.437	25.97
535.783	26.27
536.129	26.53
536.474	26.76
536.82	26.86
537.166	26.81
537.512	26.88
537.857	26.69
538.203	26.51
538.549	26.66
538.894	26.77
539.239	27.15
539.585	27.12
539.93	27.32
540.276	27.38
540.621	27.58
540.966	27.58
541.311	27.56
541.656	27.34
542.001	27.18
542.346	26.93
542.691	26.51
543.036	26.56
543.381	26.86
543.726	27.04
544.071	27.2
544.415	27.33
544.76	27.36
545.105	27.47
545.449	27.5
545.794	27.83
546.138	27.98
546.483	28.01
546.827	28.05
547.171	28.03
547.516	28.1
547.86	28.08
548.204	28.15
548.548	28.08
548.892	28.19
549.236	28.43
549.58	28.48
549.924	28.73
550.268	28.79
550.612	28.97
550.956	28.94
551.3	29.06
551.643	29.21
551.987	29.22
552.33	29.13
552.674	29.2
553.017	29.26
553.361	29.41
553.704	29.17
554.048	29.05
554.391	29.2
554.734	28.92
555.077	29.09
555.42	29.21
555.764	29.34
556.107	29.56
556.45	29.54
556.793	29.68
557.135	29.93
557.478	29.71
557.821	30.03
558.164	29.94
558.507	29.94
558.849	29.82
559.192	29.95
559.534	30
559.877	30.07
560.219	30.09
560.562	30.2
560.904	30.28
561.246	30.33
561.589	30.37
561.931	30.46
562.273	30.41
562.615	30.09
562.957	30.14
563.299	30.35
563.641	30.49
563.983	30.28
564.325	30.67
564.667	30.55
565.008	30.39
565.35	30.37
565.692	30.54
566.033	30.69
566.375	30.7
566.716	30.89
567.058	30.59
567.399	30.67
567.741	30.63
568.082	30.38
568.423	30.64
568.764	30.72
569.105	30.92
569.447	30.85
569.788	31.11
570.129	30.99
570.47	31.11
570.811	31.14
571.151	31.15
571.492	31.2
571.833	31.35
572.174	31.34
572.514	31.29
572.855	31.32
573.195	31.21
573.536	31.29
573.876	31.3
574.217	31.15
574.557	31.41
574.898	31.31
575.238	31.51
575.578	31.51
575.918	31.7
576.258	31.85
576.598	31.55
576.938	31.59
577.278	31.75
577.618	32.04
577.958	32.09
578.298	32.07
578.638	32.13
578.977	31.99
579.317	32.24
579.657	32.15
579.996	32.5
580.336	32.48
580.675	32.62
581.014	32.79
581.354	32.4
581.693	32.57
582.032	32.78
582.372	32.59
582.711	32.82
583.05	32.83
583.389	32.97
583.728	32.65
584.067	32.93
584.406	32.7
584.745	32.86
585.083	33.17
585.422	33.1
585.761	33.15
586.1	33.09
586.438	33.21
586.777	33.2
587.115	33.45
587.454	33.31
587.792	33.5
588.13	33.44
588.469	33.61
588.807	33.02
589.145	33.27
589.483	33.45
589.821	33.59
590.159	33.37
590.497	33.4
590.835	33.63
591.173	33.79
591.511	33.77
591.849	33.5
592.187	33.68
592.524	33.73
592.862	33.62
593.2	33.8
593.537	33.93
593.875	34.07
594.212	33.97
594.55	33.94
594.887	34.22
595.224	33.92
595.561	34.07
595.899	34
596.236	34.13
596.573	33.98
596.91	34.34
597.247	34.18
597.584	34.22
597.921	34.06
598.258	33.96
598.594	33.96
598.931	33.91
599.268	33.83
599.604	34.37
599.941	34.48
600.277	34.5
600.614	34.54
600.95	34.51
601.287	34.71
601.623	34.73
601.959	34.87
602.296	34.83
602.632	35.04
602.968	34.83
603.304	34.96
603.64	34.97
603.976	34.97
604.312	34.74
604.648	35.1
604.984	34.47
605.319	34.69
605.655	34.64
605.991	34.88
606.326	34.72
606.662	34.79
606.998	35.12
607.333	35.02
607.668	35.18
608.004	35.08
608.339	35.11
608.674	35.4
609.01	35.4
609.345	35.84
609.68	35.49
610.015	35.36
610.35	35.68
610.685	35.35
611.02	34.93
611.355	35.23
611.689	35.17
612.024	35.67
612.359	36.02
612.694	35.77
613.028	35.49
613.363	35.87
613.697	35.84
614.032	36.19
614.366	35.76
614.7	36.02
615.035	36.26
615.369	36.21
615.703	36.29
616.037	35.76
616.371	36.3
616.705	36.06
617.039	36.21
617.373	36.22
617.707	36.39
618.041	36.07
618.375	36.18
618.709	36.67
619.042	36.45
619.376	36.24
619.71	36.66
620.043	36.91
620.377	36.45
620.71	36.63
621.043	37.09
621.377	37.19
621.71	36.67
622.043	36.94
622.376	36.85
622.709	37.08
623.043	36.88
623.376	36.99
623.709	37.22
624.041	37.39
624.374	37.02
624.707	37.2
625.04	37.02
625.373	37.08
625.705	37.03
626.038	37.1
626.37	37.12
626.703	37.25
627.035	37.42
627.368	37.15
627.7	37.35
628.032	37.27
628.365	37
628.697	37.4
629.029	37.28
629.361	37.49
629.693	37.42
630.025	37.52
630.357	37.82
630.689	38.03
631.021	37.84
631.353	37.76
631.684	37.77
632.016	37.5
632.348	37.92
632.679	37.78
633.011	38.06
633.342	38.16
633.674	38.01
634.005	37.45
634.336	38.04
634.668	38.08
634.999	38.1
635.33	38.35
635.661	38.3
635.992	38.16
636.323	38.08
636.654	38.2
636.985	38.07
637.316	38.41
637.647	38.3
637.977	38.52
638.308	38.33
638.639	38.67
638.969	38.64
639.3	38.26
639.63	38.75
639.961	38.55
640.291	38.43
640.622	38.5
640.952	38.85
641.282	38.59
641.612	38.79
641.943	38.8
642.273	38.92
642.603	38.92
642.933	39.17
643.263	39.3
643.592	39.31
643.922	39.23
644.252	39.16
644.582	39.57
644.911	39.07
645.241	39.4
645.571	39.09
645.9	39.21
646.23	39.53
646.559	39.39
646.888	39.43
647.218	39.24
647.547	39.91
647.876	39.3
648.205	39.34
648.534	38.84
648.863	39.5
649.192	39.58
649.521	39.4
649.85	39.96
650.179	39.9
650.508	39.79
650.837	39.89
651.165	40.28
651.494	39.9
651.822	39.99
652.151	39.42
652.479	39.56
652.808	39.74
653.136	39.43
653.465	39.82
653.793	39.75
654.121	39.76
654.449	39.84
654.777	39.3
655.105	39.65
655.433	40.37
655.761	40.23
656.089	40.04
656.417	40.04
656.745	40.28
657.073	40.2
657.4	40.29
657.728	39.75
658.056	40.01
658.383	40.37
658.711	40.59
659.038	40.93
659.365	40.45
659.693	40.45
660.02	39.63
660.347	40.13
660.674	39.98
661.001	40.09
661.329	39.82
661.656	40.22
661.982	40.42
662.309	40.77
662.636	41.03
662.963	40.64
663.29	40.84
663.616	40.84
663.943	40.48
664.27	41.08
664.596	40.52
664.923	40.6
665.249	41.07
665.576	41.05
665.902	40.87
666.228	40.95
666.554	41.34
666.881	40.36
667.207	41.53
667.533	41.28
667.859	41.33
668.185	40.77
668.511	40.82
668.837	41.04
669.162	41.37
669.488	41.49
669.814	41.84
670.139	41.35
670.465	41.1
670.791	41.79
671.116	41.54
671.442	41.58
671.767	41.53
672.092	40.87
