Data from 0004_forehead_Reflection__1__388.txt Node

Date: Thu Dec 15 19:36:04 CST 2022
User: ToomeyLab
Spectrometer: FLMS14357
Trigger mode: 0
Integration Time (sec): 1.000000E-2
Scans to average: 100
Electric dark correction enabled: true
Nonlinearity correction enabled: false
Boxcar width: 0
XAxis mode: Wavelengths
Number of Pixels in Spectrum: 2048
>>>>>Begin Spectral Data<<<<<
189.047	122.9
189.435	122.9
189.823	122.9
190.211	170.11
190.599	11.06
190.987	0.79
191.375	5.2
191.763	-286.66
192.151	306.6
192.538	29.09
192.926	103.7
193.314	-181.65
193.702	2118.61
194.089	-45.32
194.477	-153.77
194.864	62.69
195.252	184.98
195.639	78.27
196.027	51
196.414	70.03
196.801	218.98
197.189	428.57
197.576	-117.07
197.963	-24.75
198.351	9.18
198.738	-98.6
199.125	-76.55
199.512	34.19
199.899	-10.4
200.286	-20.98
200.673	38.86
201.06	-12.94
201.447	4.17
201.833	-56.72
202.22	-10.08
202.607	-58.51
202.994	14.94
203.38	-6.07
203.767	32.55
204.154	33
204.54	22.14
204.927	4.88
205.313	11.22
205.699	47.3
206.086	34.6
206.472	5.23
206.858	-8.32
207.245	-3.99
207.631	5.2
208.017	27.2
208.403	3.58
208.789	25.9
209.175	-40.28
209.561	-95.73
209.947	-45.8
210.333	-21.97
210.719	-6.58
211.105	38.04
211.491	40.21
211.876	-32.01
212.262	-14.16
212.648	-3.14
213.034	-22.16
213.419	7.57
213.805	-67.25
214.19	-59.61
214.576	-31.07
214.961	-0.53
215.346	-29.28
215.732	-16.17
216.117	-35.4
216.502	-30.4
216.888	-23.95
217.273	0.01
217.658	-14.5
218.043	-31.22
218.428	-11.8
218.813	-9.26
219.198	-41.94
219.583	-16.45
219.968	4.74
220.353	-9.65
220.738	-6.75
221.122	-15.49
221.507	-2.04
221.892	-29.94
222.276	-27.44
222.661	-13.41
223.046	-22.8
223.43	19.95
223.815	1.15
224.199	-0.29
224.583	-0.51
224.968	-9.78
225.352	-5.42
225.736	-3.34
226.121	12.83
226.505	-13.05
226.889	-5.93
227.273	-2.54
227.657	4.77
228.041	-1.93
228.425	1.28
228.809	-3.55
229.193	1.41
229.577	1.34
229.961	0.73
230.344	2.2
230.728	2.11
231.112	1.85
231.495	0.02
231.879	1.19
232.263	1.27
232.646	-0.4
233.03	1.94
233.413	0.36
233.797	-1.3
234.18	1.89
234.563	2.5
234.946	0.01
235.33	0.11
235.713	1.16
236.096	2.24
236.479	1.86
236.862	0.33
237.245	0.33
237.628	1.41
238.011	0.18
238.394	0.8
238.777	2.85
239.16	0.51
239.543	3.16
239.925	1.32
240.308	0.59
240.691	0.51
241.073	-0.17
241.456	1.74
241.838	0.51
242.221	0.47
242.603	1.2
242.986	1.06
243.368	1.28
243.75	1.22
244.133	1.59
244.515	1.3
244.897	1.48
245.279	0.78
245.661	0.91
246.043	1.07
246.425	1.27
246.807	0.95
247.189	1.33
247.571	1
247.953	1.13
248.335	1.54
248.717	1.67
249.098	1.55
249.48	1.58
249.862	1.49
250.243	1.75
250.625	1.54
251.006	1.96
251.388	1.57
251.769	1.01
252.151	1.22
252.532	0.92
252.913	1.23
253.295	1.33
253.676	1.69
254.057	1.33
254.438	1.17
254.819	1.8
255.2	2.17
255.581	2.93
255.962	1.26
256.343	2.89
256.724	1.87
257.105	2.09
257.486	0.68
257.867	1.71
258.247	1.33
258.628	1.08
259.009	1.15
259.389	0.48
259.77	1.31
260.15	2.28
260.531	1.71
260.911	1.79
261.292	1.72
261.672	1.69
262.052	1.65
262.432	1.53
262.813	1.57
263.193	1.52
263.573	1.99
263.953	1.22
264.333	1.36
264.713	1.94
265.093	1.42
265.473	2.43
265.853	2.02
266.233	1.71
266.612	0.24
266.992	1.55
267.372	1.79
267.752	2.06
268.131	1.37
268.511	1.57
268.89	2.16
269.27	0.87
269.649	1.13
270.029	1.37
270.408	0.96
270.787	1.35
271.167	1.66
271.546	2.43
271.925	1.95
272.304	1.6
272.683	1.33
273.062	1.58
273.441	1.33
273.82	2.2
274.199	1.56
274.578	1.73
274.957	1.2
275.336	1.76
275.715	2.33
276.093	1.05
276.472	1.37
276.851	1.67
277.229	1.43
277.608	1.18
277.986	1.53
278.365	1.69
278.743	1.79
279.122	1.73
279.5	1.41
279.878	1.34
280.257	1.1
280.635	1.81
281.013	0.89
281.391	1.44
281.769	2.07
282.147	1.37
282.525	1.23
282.903	1.39
283.281	1.89
283.659	1.61
284.037	1.35
284.415	1.39
284.792	1.39
285.17	1.09
285.548	1.61
285.925	1.47
286.303	2.2
286.68	1.66
287.058	2
287.435	1.28
287.813	1.65
288.19	1.56
288.567	1.42
288.945	1.26
289.322	1.76
289.699	1.67
290.076	1.51
290.453	1.8
290.83	1.87
291.207	1.52
291.584	2.06
291.961	1.86
292.338	1.49
292.715	1.53
293.092	2.31
293.469	1.44
293.845	2.09
294.222	1.74
294.599	1.59
294.975	1.42
295.352	1.71
295.728	1.93
296.105	1.83
296.481	1.9
296.858	1.78
297.234	1.54
297.61	1.68
297.986	2.18
298.363	2.17
298.739	2.5
299.115	2.3
299.491	2.36
299.867	2.3
300.243	1.96
300.619	1.93
300.995	2.15
301.371	2.36
301.746	2.49
302.122	1.49
302.498	1.77
302.874	2.57
303.249	2.13
303.625	2.16
304	2.4
304.376	2.62
304.751	2.44
305.127	2.34
305.502	2.49
305.878	2.78
306.253	1.91
306.628	2.43
307.003	2.78
307.378	2.76
307.754	2.59
308.129	2.5
308.504	2.7
308.879	2.89
309.254	3.19
309.629	2.96
310.003	2.39
310.378	3.37
310.753	3.08
311.128	2.62
311.502	3.2
311.877	2.74
312.252	2.79
312.626	3.33
313.001	3.26
313.375	3.2
313.75	3.66
314.124	3.2
314.498	3.48
314.873	2.97
315.247	3.12
315.621	3.3
315.995	3.52
316.369	3.13
316.743	3.04
317.117	3.67
317.491	3.59
317.865	3.44
318.239	3.91
318.613	3.34
318.987	3.11
319.361	3.76
319.734	3.56
320.108	4.12
320.482	3.71
320.855	3.83
321.229	3.75
321.602	4.17
321.976	3.25
322.349	4.96
322.723	4.21
323.096	3.79
323.469	3.87
323.843	3.53
324.216	3.88
324.589	4.27
324.962	3.86
325.335	3.92
325.708	4.73
326.081	4.23
326.454	4.71
326.827	4.35
327.2	4.39
327.573	4.5
327.945	4.03
328.318	4.73
328.691	4.45
329.063	4.29
329.436	3.82
329.809	5.02
330.181	5.16
330.553	4.85
330.926	4.68
331.298	4.58
331.671	4.91
332.043	5.22
332.415	4.91
332.787	4.9
333.159	4.87
333.532	4.77
333.904	5.08
334.276	5.02
334.648	5
335.02	4.98
335.391	4.93
335.763	4.97
336.135	5.12
336.507	5.4
336.879	5.24
337.25	5.28
337.622	5.66
337.993	5.3
338.365	5.54
338.736	5.71
339.108	5.67
339.479	5.51
339.851	5.95
340.222	5.62
340.593	5.81
340.964	6
341.336	5.63
341.707	6.43
342.078	5.73
342.449	5.74
342.82	5.75
343.191	5.98
343.562	5.71
343.933	5.8
344.303	6.07
344.674	5.85
345.045	6.1
345.416	6.55
345.786	6.13
346.157	6.14
346.527	6.54
346.898	6.19
347.268	6.76
347.639	6.4
348.009	6.71
348.38	6.24
348.75	6.78
349.12	6.61
349.49	6.57
349.861	6.53
350.231	6.45
350.601	7.26
350.971	6.61
351.341	7.11
351.711	7.01
352.081	6.6
352.45	6.6
352.82	6.63
353.19	6.65
353.56	6.77
353.929	6.97
354.299	6.87
354.669	7.23
355.038	7.24
355.408	6.92
355.777	7.69
356.147	7.3
356.516	7.22
356.885	7.36
357.254	7.2
357.624	7.02
357.993	7.63
358.362	7.46
358.731	7.73
359.1	7.48
359.469	8.05
359.838	7.55
360.207	7.56
360.576	7.79
360.945	7.82
361.314	7.76
361.682	7.67
362.051	7.66
362.42	7.79
362.788	7.9
363.157	7.86
363.525	8
363.894	8.05
364.262	8.27
364.631	8.41
364.999	8.22
365.367	8.42
365.735	8.16
366.104	8.16
366.472	8.59
366.84	8.59
367.208	8.79
367.576	8.36
367.944	8.76
368.312	8.46
368.68	8.92
369.048	8.74
369.416	8.46
369.783	8.85
370.151	9.4
370.519	9.22
370.886	9.05
371.254	9.08
371.621	8.93
371.989	9.1
372.356	8.98
372.724	9.33
373.091	9.08
373.458	9.21
373.826	9.43
374.193	9.56
374.56	9.62
374.927	9.03
375.294	9.69
375.661	9.52
376.028	9.58
376.395	9.54
376.762	9.45
377.129	9.51
377.496	9.98
377.863	9.91
378.229	10.01
378.596	9.91
378.963	10.02
379.329	9.94
379.696	10.12
380.062	10.25
380.429	9.75
380.795	10.05
381.161	10.08
381.528	9.67
381.894	10.04
382.26	10.31
382.626	10.27
382.993	10.25
383.359	10.57
383.725	10.23
384.091	10.58
384.457	10.66
384.823	10.65
385.188	10.88
385.554	10.81
385.92	10.38
386.286	10.91
386.651	10.72
387.017	11.05
387.383	10.83
387.748	11.06
388.114	11.24
388.479	11.13
388.845	10.96
389.21	11.21
389.575	11.51
389.94	11.59
390.306	11.29
390.671	11.49
391.036	11.19
391.401	11.44
391.766	11.53
392.131	11.87
392.496	11.66
392.861	11.4
393.226	11.59
393.591	11.66
393.956	11.65
394.32	12.04
394.685	11.75
395.05	11.84
395.414	11.97
395.779	12.08
396.143	11.7
396.508	11.94
396.872	11.91
397.236	12.47
397.601	12.28
397.965	12.12
398.329	12.24
398.694	12.05
399.058	12.27
399.422	12.37
399.786	12.49
400.15	12.67
400.514	12.45
400.878	12.71
401.242	12.8
401.605	12.59
401.969	12.69
402.333	12.54
402.697	13.06
403.06	12.96
403.424	13.1
403.787	12.89
404.151	13.05
404.514	13.15
404.878	12.98
405.241	13.29
405.604	12.9
405.968	13.26
406.331	13.23
406.694	13.29
407.057	13.27
407.42	13.06
407.783	13.5
408.146	13.29
408.509	13.59
408.872	13.54
409.235	13.78
409.598	13.69
409.961	13.69
410.323	13.55
410.686	13.74
411.049	13.83
411.411	13.83
411.774	13.67
412.136	14.04
412.499	13.88
412.861	13.61
413.223	13.76
413.586	14.23
413.948	14.03
414.31	14.15
414.672	14.1
415.035	14.61
415.397	14.04
415.759	14.2
416.121	14.42
416.483	14.27
416.845	14.29
417.206	14.24
417.568	14.4
417.93	14.57
418.292	14.38
418.653	14.42
419.015	14.5
419.377	14.41
419.738	14.72
420.1	14.46
420.461	14.28
420.822	14.61
421.184	14.6
421.545	14.65
421.906	14.59
422.267	14.65
422.629	14.6
422.99	14.59
423.351	14.71
423.712	14.88
424.073	14.97
424.434	14.93
424.795	14.94
425.155	14.88
425.516	14.71
425.877	14.97
426.238	14.86
426.598	15.16
426.959	15.13
427.32	15.16
427.68	15.32
428.041	15.45
428.401	15.48
428.761	15.63
429.122	15.5
429.482	15.69
429.842	15.55
430.202	15.77
430.563	15.91
430.923	15.97
431.283	15.96
431.643	15.86
432.003	15.99
432.363	16.02
432.722	16.03
433.082	16.17
433.442	16.18
433.802	16.03
434.161	16.17
434.521	16.22
434.881	16.23
435.24	16.16
435.6	16.23
435.959	16.28
436.319	16.3
436.678	16.48
437.037	16.39
437.396	16.42
437.756	16.35
438.115	16.35
438.474	16.78
438.833	16.48
439.192	16.55
439.551	16.61
439.91	16.66
440.269	16.71
440.628	16.68
440.987	16.77
441.345	16.64
441.704	16.83
442.063	16.52
442.421	16.75
442.78	16.88
443.138	16.81
443.497	16.92
443.855	17.18
444.214	17.15
444.572	17.13
444.93	17.19
445.288	17.37
445.647	16.94
446.005	17.19
446.363	17.31
446.721	17.15
447.079	17.06
447.437	17.22
447.795	17.12
448.153	17.15
448.51	17.16
448.868	17.19
449.226	17.31
449.584	17.41
449.941	17.56
450.299	17.58
450.656	17.66
451.014	17.77
451.371	17.78
451.729	17.95
452.086	17.87
452.443	18.07
452.801	18.12
453.158	18.38
453.515	17.86
453.872	17.99
454.229	17.95
454.586	17.98
454.943	18.25
455.3	18.36
455.657	18.22
456.014	18.22
456.371	18.25
456.727	18.38
457.084	18.61
457.441	18.56
457.797	18.46
458.154	18.71
458.51	18.42
458.867	18.53
459.223	18.59
459.58	18.73
459.936	18.73
460.292	18.59
460.648	18.49
461.005	18.42
461.361	18.3
461.717	18.35
462.073	18.66
462.429	18.68
462.785	19.05
463.141	18.97
463.496	19.06
463.852	19.1
464.208	19.21
464.564	19.32
464.919	19.42
465.275	19.42
465.631	19.49
465.986	19.36
466.342	19.37
466.697	19.36
467.052	19.5
467.408	19.47
467.763	19.48
468.118	19.33
468.473	19.62
468.829	19.38
469.184	19.74
469.539	19.46
469.894	19.71
470.249	19.67
470.603	19.85
470.958	19.99
471.313	20.06
471.668	19.79
472.023	20.06
472.377	19.98
472.732	20.12
473.086	19.92
473.441	19.97
473.795	20.15
474.15	20.2
474.504	20.05
474.859	19.97
475.213	20.42
475.567	20.42
475.921	20.4
476.275	20.39
476.63	20.51
476.984	20.36
477.338	20.58
477.692	20.52
478.045	20.5
478.399	20.56
478.753	20.51
479.107	20.54
479.461	20.56
479.814	20.62
480.168	20.61
480.521	20.8
480.875	20.73
481.228	20.79
481.582	20.82
481.935	20.84
482.289	20.67
482.642	20.72
482.995	20.71
483.348	20.62
483.701	20.6
484.055	20.59
484.408	20.38
484.761	20.11
485.114	19.84
485.466	19.77
485.819	19.88
486.172	20.06
486.525	20.25
486.878	20.5
487.23	20.54
487.583	20.63
487.936	20.65
488.288	20.58
488.641	20.36
488.993	20.37
489.345	20.38
489.698	20.38
490.05	20.52
490.402	20.72
490.754	20.89
491.107	21.09
491.459	21.33
491.811	21.25
492.163	21.36
492.515	21.23
492.866	20.9
493.218	20.8
493.57	20.8
493.922	21.07
494.274	21.48
494.625	21.56
494.977	21.75
495.328	21.8
495.68	21.92
496.031	22.13
496.383	22.07
496.734	22.13
497.086	22.24
497.437	22.18
497.788	22.07
498.139	22.15
498.49	22.02
498.842	22.14
499.193	22.05
499.544	22.16
499.894	22.25
500.245	22.49
500.596	22.36
500.947	22.31
501.298	22.64
501.648	22.61
501.999	22.7
502.35	22.54
502.7	22.94
503.051	22.94
503.401	22.82
503.752	22.64
504.102	22.84
504.452	22.77
504.803	22.77
505.153	23.07
505.503	22.99
505.853	23.06
506.203	23.15
506.553	23.05
506.903	23.14
507.253	23
507.603	23.09
507.953	23.21
508.303	23.15
508.652	23.15
509.002	23.42
509.352	23.14
509.701	23.14
510.051	23.13
510.4	23.21
510.75	23.05
511.099	23.12
511.449	23.42
511.798	23.42
512.147	23.36
512.496	23.35
512.846	23.4
513.195	23.49
513.544	23.46
513.893	23.63
514.242	23.49
514.591	23.55
514.939	23.64
515.288	23.79
515.637	23.77
515.986	23.87
516.334	23.95
516.683	23.78
517.032	23.79
517.38	23.93
517.729	24.07
518.077	24.05
518.426	24.05
518.774	23.89
519.122	23.92
519.47	23.79
519.819	23.73
520.167	23.77
520.515	23.72
520.863	23.86
521.211	23.9
521.559	24
521.907	24.12
522.255	24.19
522.602	24.56
522.95	24.64
523.298	24.3
523.645	24.53
523.993	24.59
524.341	24.68
524.688	24.61
525.036	24.45
525.383	24.5
525.73	24.58
526.078	24.68
526.425	24.39
526.772	24.26
527.119	24.2
527.466	24.45
527.814	24.33
528.161	24.61
528.508	24.49
528.854	24.36
529.201	24.33
529.548	24.06
529.895	23.9
530.242	23.76
530.588	23.94
530.935	24.17
531.282	24.18
531.628	24.35
531.975	24.53
532.321	24.66
532.667	24.8
533.014	24.98
533.36	24.95
533.706	25.12
534.052	24.89
534.399	24.78
534.745	24.47
535.091	24.46
535.437	24.63
535.783	24.91
536.129	25.04
536.474	25.29
536.82	25.29
537.166	25.3
537.512	25.39
537.857	25.27
538.203	25.14
538.549	25.17
538.894	25.28
539.239	25.52
539.585	25.55
539.93	25.76
540.276	25.93
540.621	25.78
540.966	25.89
541.311	26
541.656	25.74
542.001	25.61
542.346	25.41
542.691	25.07
543.036	25.05
543.381	25.26
543.726	25.45
544.071	25.55
544.415	25.64
544.76	25.69
545.105	25.86
545.449	25.86
545.794	26.09
546.138	26.26
546.483	26.32
546.827	26.3
547.171	26.42
547.516	26.46
547.86	26.37
548.204	26.22
548.548	26.31
548.892	26.37
549.236	26.54
549.58	26.57
549.924	26.87
550.268	26.94
550.612	27.03
550.956	27.21
551.3	27.02
551.643	27.27
551.987	27.39
552.33	27.31
552.674	27.1
553.017	27.23
553.361	27.23
553.704	27.24
554.048	27.13
554.391	27.27
554.734	26.97
555.077	27.14
555.42	27.37
555.764	27.46
556.107	27.42
556.45	27.66
556.793	27.69
557.135	27.56
557.478	27.65
557.821	27.75
558.164	27.74
558.507	27.59
558.849	27.88
559.192	27.6
559.534	27.84
559.877	27.76
560.219	27.97
560.562	27.9
560.904	28.11
561.246	27.77
561.589	28.13
561.931	27.95
562.273	27.94
562.615	28.04
562.957	28.01
563.299	28.06
563.641	28.12
563.983	28
564.325	28.22
564.667	28.17
565.008	28.17
565.35	28.19
565.692	28.47
566.033	28.4
566.375	28.28
566.716	28.17
567.058	28.3
567.399	28.26
567.741	28.08
568.082	28.17
568.423	28.26
568.764	28.51
569.105	28.6
569.447	28.53
569.788	28.61
570.129	28.62
570.47	28.63
570.811	28.74
571.151	28.67
571.492	28.87
571.833	28.77
572.174	29.07
572.514	28.93
572.855	28.89
573.195	28.78
573.536	29.02
573.876	28.72
574.217	28.8
574.557	28.83
574.898	28.69
575.238	28.83
575.578	28.89
575.918	29.05
576.258	29.23
576.598	28.96
576.938	28.97
577.278	29.07
577.618	28.92
577.958	29.2
578.298	29.24
578.638	29.26
578.977	29.51
579.317	29.55
579.657	29.49
579.996	29.64
580.336	29.73
580.675	29.76
581.014	29.8
581.354	29.66
581.693	29.79
582.032	29.82
582.372	30.05
582.711	29.82
583.05	29.75
583.389	30.26
583.728	29.88
584.067	30.05
584.406	29.85
584.745	29.89
585.083	30.07
585.422	30.22
585.761	29.91
586.1	30.2
586.438	30.24
586.777	30.29
587.115	30.17
587.454	30.01
587.792	30.39
588.13	30.24
588.469	30.34
588.807	30.33
589.145	30.07
589.483	30.2
589.821	30.41
590.159	30.4
590.497	30.4
590.835	30.44
591.173	30.35
591.511	30.57
591.849	30.54
592.187	30.44
592.524	30.55
592.862	30.56
593.2	30.62
593.537	30.53
593.875	30.74
594.212	30.65
594.55	30.73
594.887	30.82
595.224	30.85
595.561	30.6
595.899	30.7
596.236	31
596.573	30.77
596.91	30.67
597.247	30.84
597.584	30.96
597.921	30.85
598.258	30.76
598.594	30.64
598.931	30.61
599.268	30.67
599.604	30.71
599.941	31.11
600.277	30.97
600.614	31.06
600.95	31.07
601.287	31.12
601.623	31.28
601.959	31.33
602.296	31.43
602.632	31.54
602.968	31.33
603.304	31.49
603.64	31.62
603.976	31.2
604.312	31.29
604.648	31.3
604.984	31.32
605.319	31.35
605.655	31.12
605.991	31.04
606.326	31.3
606.662	31.05
606.998	31.54
607.333	31.37
607.668	31.63
608.004	31.74
608.339	31.64
608.674	31.55
609.01	31.8
609.345	31.82
609.68	31.71
610.015	31.86
610.35	31.92
610.685	31.67
611.02	31.56
611.355	31.58
611.689	31.79
612.024	31.87
612.359	32.18
612.694	31.94
613.028	31.87
613.363	31.8
613.697	31.99
614.032	32.09
614.366	31.85
614.7	31.86
615.035	32.27
615.369	32.33
615.703	32.03
616.037	32.32
616.371	32.35
616.705	32.56
617.039	32.11
617.373	32.27
617.707	32.64
618.041	32.08
618.375	32.25
618.709	32.36
619.042	32.43
619.376	32.41
619.71	32.18
620.043	32.99
620.377	32.81
620.71	32.11
621.043	32.82
621.377	32.72
621.71	32.87
622.043	32.72
622.376	32.48
622.709	32.98
623.043	32.84
623.376	32.9
623.709	33.16
624.041	33.26
624.374	33.27
624.707	32.78
625.04	32.91
625.373	32.96
625.705	33.42
626.038	32.99
626.37	32.82
626.703	32.97
627.035	33.08
627.368	33.31
627.7	33.08
628.032	32.88
628.365	33.17
628.697	33.22
629.029	32.95
629.361	33.13
629.693	32.86
630.025	33.4
630.357	33.68
630.689	33.18
631.021	33.55
631.353	33.66
631.684	32.91
632.016	33.08
632.348	33.41
632.679	33.64
633.011	33.24
633.342	33.67
633.674	33.31
634.005	33.43
634.336	33.97
634.668	33.33
634.999	33.41
635.33	33.1
635.661	33.38
635.992	33.66
636.323	33.88
636.654	33.72
636.985	33.49
637.316	33.85
637.647	33.68
637.977	33.87
638.308	34.11
638.639	33.97
638.969	33.62
639.3	33.74
639.63	33.9
639.961	34.05
640.291	33.77
640.622	33.92
640.952	34.23
641.282	33.82
641.612	34.54
641.943	34.22
642.273	34.39
642.603	34.53
642.933	34.55
643.263	34.15
643.592	34.34
643.922	34.42
644.252	34.59
644.582	34.35
644.911	34.43
645.241	34.47
645.571	34.55
645.9	34.72
646.23	34.86
646.559	34.12
646.888	34.65
647.218	34.12
647.547	34.53
647.876	35
648.205	34.46
648.534	34.7
648.863	34.65
649.192	35.02
649.521	34.78
649.85	34.73
650.179	34.77
650.508	34.68
650.837	34.68
651.165	35.01
651.494	34.8
651.822	35.02
652.151	34.65
652.479	34.61
652.808	34.93
653.136	34.76
653.465	34.63
653.793	34.86
654.121	34.48
654.449	34.94
654.777	34.59
655.105	35.37
655.433	35.23
655.761	35.44
656.089	35.13
656.417	34.6
656.745	34.88
657.073	35.27
657.4	34.93
657.728	34.79
658.056	35.08
658.383	35.39
658.711	35.38
659.038	36.04
659.365	35.48
659.693	35.16
660.02	34.79
660.347	35.12
660.674	34.7
661.001	35.26
661.329	34.72
661.656	34.96
661.982	35.22
662.309	35.61
662.636	35.53
662.963	35.78
663.29	36.04
663.616	35.83
663.943	35.72
664.27	35.48
664.596	35.39
664.923	35.79
665.249	35.91
665.576	35.53
665.902	35.22
666.228	35.72
666.554	35.99
666.881	35.35
667.207	35.69
667.533	36.07
667.859	35.73
668.185	35.46
668.511	35.53
668.837	35.9
669.162	35.36
669.488	35.36
669.814	35.82
670.139	35.88
670.465	36.1
670.791	35.99
671.116	35.8
671.442	35.58
671.767	36.09
672.092	35.58
672.418	36.04
