Data from 0004_crown_Reflection__4__386.txt Node

Date: Thu Dec 15 19:35:25 CST 2022
User: ToomeyLab
Spectrometer: FLMS14357
Trigger mode: 0
Integration Time (sec): 1.000000E-2
Scans to average: 100
Electric dark correction enabled: true
Nonlinearity correction enabled: false
Boxcar width: 0
XAxis mode: Wavelengths
Number of Pixels in Spectrum: 2048
>>>>>Begin Spectral Data<<<<<
189.047	42.09
189.435	42.09
189.823	42.09
190.211	-13.19
190.599	3.9
190.987	63.67
191.375	-20
191.763	-171.71
192.151	-120.36
192.538	-1.82
192.926	50.69
193.314	1665.14
193.702	687.88
194.089	-62.58
194.477	-124.32
194.864	18.19
195.252	-53.5
195.639	87.23
196.027	-1.02
196.414	91.05
196.801	-34.96
197.189	655.29
197.576	-78.81
197.963	-112.64
198.351	-20.26
198.738	-46.13
199.125	-107.7
199.512	1.91
199.899	-67.42
200.286	-39.03
200.673	-7.55
201.06	-16.84
201.447	-19.76
201.833	-23.01
202.22	37.99
202.607	-65.05
202.994	-27.21
203.38	31.06
203.767	-1.7
204.154	6.2
204.54	-7.42
204.927	19.67
205.313	34.6
205.699	0.33
206.086	-11.89
206.472	-2.13
206.858	-7.47
207.245	-39.06
207.631	-38.31
208.017	49.75
208.403	-42.52
208.789	-6.8
209.175	3.73
209.561	-135.3
209.947	-1.97
210.333	-9.15
210.719	24.66
211.105	13.48
211.491	-21.1
211.876	-44.03
212.262	31.53
212.648	-25.8
213.034	-3.42
213.419	-4.17
213.805	-42.98
214.19	-53.73
214.576	-42.43
214.961	-14.78
215.346	-23.53
215.732	-17.8
216.117	-2.61
216.502	-74.33
216.888	-18.12
217.273	-28.22
217.658	-35.16
218.043	-38.24
218.428	-40.83
218.813	-14.49
219.198	-48.66
219.583	-22.07
219.968	-11.08
220.353	-59.87
220.738	-4.82
221.122	-8.11
221.507	-23.61
221.892	-45.9
222.276	-54.11
222.661	-16.45
223.046	-12.17
223.43	11.1
223.815	2
224.199	-7.53
224.583	-10.71
224.968	-9.36
225.352	-13.9
225.736	5.25
226.121	-5.62
226.505	-9.12
226.889	-5.69
227.273	-13.13
227.657	4.64
228.041	2.01
228.425	-1.15
228.809	-0.04
229.193	-0.82
229.577	0.48
229.961	0.96
230.344	2.74
230.728	2.69
231.112	2.56
231.495	1.57
231.879	-0.45
232.263	2.02
232.646	1.76
233.03	3.39
233.413	2.16
233.797	1.67
234.18	2.95
234.563	-1.01
234.946	-0.58
235.33	0.21
235.713	2.25
236.096	3.05
236.479	1.83
236.862	0.81
237.245	1.04
237.628	3.88
238.011	1.71
238.394	0.46
238.777	0.33
239.16	1.82
239.543	1.86
239.925	0.08
240.308	1.92
240.691	1.78
241.073	0.68
241.456	1.68
241.838	2.32
242.221	2
242.603	1.9
242.986	1.9
243.368	1.93
243.75	2.41
244.133	2.71
244.515	2.23
244.897	2.14
245.279	0.95
245.661	1.69
246.043	1.85
246.425	2.65
246.807	2.19
247.189	1.11
247.571	1.88
247.953	1.94
248.335	2.25
248.717	2.36
249.098	2.33
249.48	2.18
249.862	2.27
250.243	2.28
250.625	2.23
251.006	2.36
251.388	1.62
251.769	1.35
252.151	2.41
252.532	1.57
252.913	1.85
253.295	1.34
253.676	2.04
254.057	2.14
254.438	1.98
254.819	0.88
255.2	2.3
255.581	2.03
255.962	1.73
256.343	2.45
256.724	2.28
257.105	1.02
257.486	0.86
257.867	0.72
258.247	1.88
258.628	2.38
259.009	1.45
259.389	0.73
259.77	1.87
260.15	1.98
260.531	1.92
260.911	2
261.292	2.06
261.672	2.23
262.052	2.13
262.432	2.13
262.813	1.83
263.193	2.28
263.573	1.81
263.953	1.41
264.333	1.56
264.713	1.96
265.093	1.48
265.473	2.47
265.853	1.76
266.233	2.38
266.612	1.5
266.992	0.89
267.372	1.83
267.752	2.1
268.131	1.9
268.511	1.77
268.89	2.35
269.27	1.73
269.649	1.89
270.029	2
270.408	1.83
270.787	1.93
271.167	2.17
271.546	3.05
271.925	2.53
272.304	1.76
272.683	1.62
273.062	1.9
273.441	1.38
273.82	1.94
274.199	2.18
274.578	1.68
274.957	1.96
275.336	2.07
275.715	2.25
276.093	2.03
276.472	1.32
276.851	1.45
277.229	1.92
277.608	1.12
277.986	2.11
278.365	2.28
278.743	2.28
279.122	1.65
279.5	1.59
279.878	1.63
280.257	1.68
280.635	2.24
281.013	1.31
281.391	2.2
281.769	2.6
282.147	1.77
282.525	1.48
282.903	1.84
283.281	2.45
283.659	1.82
284.037	1.63
284.415	1.83
284.792	2.21
285.17	1.57
285.548	1.65
285.925	1.37
286.303	2.51
286.68	1.9
287.058	2.25
287.435	1.79
287.813	2.19
288.19	2.03
288.567	1.64
288.945	1.73
289.322	1.88
289.699	2.31
290.076	1.97
290.453	1.2
290.83	2.15
291.207	1.98
291.584	1.98
291.961	1.93
292.338	1.89
292.715	1.81
293.092	2.28
293.469	1.6
293.845	1.95
294.222	2.41
294.599	1.76
294.975	1.51
295.352	1.96
295.728	1.73
296.105	1.55
296.481	1.78
296.858	1.84
297.234	1.37
297.61	2.18
297.986	2.19
298.363	1.96
298.739	2.21
299.115	1.99
299.491	2.07
299.867	1.63
300.243	1.68
300.619	1.46
300.995	1.75
301.371	1.78
301.746	1.96
302.122	1.62
302.498	1.66
302.874	2.27
303.249	2.14
303.625	1.55
304	1.91
304.376	2.49
304.751	1.96
305.127	1.97
305.502	1.97
305.878	1.83
306.253	1.59
306.628	1.47
307.003	1.63
307.378	1.77
307.754	1.43
308.129	1.93
308.504	1.76
308.879	1.6
309.254	2.28
309.629	2.09
310.003	1.54
310.378	2.15
310.753	2.13
311.128	1.57
311.502	1.73
311.877	1.83
312.252	2.01
312.626	1.98
313.001	1.95
313.375	1.99
313.75	1.56
314.124	1.88
314.498	2.1
314.873	1.45
315.247	1.75
315.621	1.54
315.995	1.99
316.369	1.15
316.743	1.52
317.117	1.59
317.491	1.91
317.865	1.22
318.239	2.03
318.613	1.64
318.987	1.31
319.361	1.77
319.734	1.75
320.108	2.17
320.482	2.07
320.855	1.5
321.229	1.58
321.602	1.58
321.976	1.31
322.349	1.98
322.723	1.57
323.096	1.81
323.469	1.72
323.843	1.42
324.216	1.78
324.589	1.98
324.962	1.63
325.335	1.51
325.708	1.98
326.081	1.9
326.454	1.98
326.827	1.87
327.2	1.5
327.573	1.85
327.945	1.7
328.318	1.83
328.691	2.17
329.063	1.95
329.436	1.52
329.809	2.41
330.181	2.69
330.553	2.12
330.926	2.38
331.298	1.48
331.671	2.18
332.043	1.4
332.415	1.89
332.787	1.86
333.159	1.44
333.532	1.9
333.904	1.92
334.276	2.02
334.648	1.78
335.02	1.81
335.391	1.9
335.763	1.77
336.135	1.62
336.507	1.58
336.879	1.7
337.25	2.05
337.622	1.48
337.993	1.62
338.365	2.02
338.736	1.91
339.108	2.11
339.479	1.94
339.851	2.41
340.222	2.42
340.593	2.02
340.964	2.13
341.336	1.72
341.707	1.81
342.078	1.6
342.449	1.91
342.82	1.82
343.191	1.96
343.562	2.17
343.933	1.91
344.303	1.81
344.674	1.86
345.045	1.46
345.416	2.07
345.786	1.77
346.157	1.92
346.527	1.76
346.898	1.74
347.268	2
347.639	1.69
348.009	2.13
348.38	1.76
348.75	2.08
349.12	1.9
349.49	1.74
349.861	1.89
350.231	1.89
350.601	1.63
350.971	1.68
351.341	2.07
351.711	2.31
352.081	1.98
352.45	1.52
352.82	1.76
353.19	1.74
353.56	1.79
353.929	1.79
354.299	2.28
354.669	2.19
355.038	2.37
355.408	2.27
355.777	1.95
356.147	1.77
356.516	1.54
356.885	1.91
357.254	1.79
357.624	1.63
357.993	2.38
358.362	1.89
358.731	2.14
359.1	2.07
359.469	2.26
359.838	2.11
360.207	1.99
360.576	2.2
360.945	1.89
361.314	1.89
361.682	1.89
362.051	1.77
362.42	2
362.788	2.02
363.157	1.85
363.525	2
363.894	1.87
364.262	1.8
364.631	2.06
364.999	2.21
365.367	1.86
365.735	1.98
366.104	1.89
366.472	2
366.84	1.85
367.208	2.51
367.576	1.73
367.944	2.13
368.312	1.85
368.68	2.3
369.048	2.05
369.416	1.98
369.783	1.81
370.151	2.08
370.519	2.65
370.886	2.47
371.254	2.07
371.621	2.21
371.989	2.14
372.356	1.82
372.724	1.89
373.091	1.95
373.458	1.9
373.826	2.12
374.193	1.89
374.56	2.24
374.927	1.96
375.294	2.59
375.661	1.92
376.028	2.12
376.395	2.27
376.762	1.69
377.129	1.76
377.496	2.13
377.863	2.18
378.229	2.39
378.596	2.32
378.963	2.06
379.329	2.07
379.696	2.03
380.062	2.12
380.429	2.01
380.795	2.33
381.161	1.53
381.528	1.79
381.894	1.95
382.26	2.21
382.626	2.04
382.993	2.42
383.359	2.04
383.725	1.97
384.091	2.08
384.457	1.89
384.823	2
385.188	2.26
385.554	1.92
385.92	1.85
386.286	2.01
386.651	1.9
387.017	2.56
387.383	2.02
387.748	2.09
388.114	2.22
388.479	1.98
388.845	2.16
389.21	2.41
389.575	2.27
389.94	2.05
390.306	2.05
390.671	1.96
391.036	1.98
391.401	2.34
391.766	2.06
392.131	2.25
392.496	1.96
392.861	2.17
393.226	2.12
393.591	2.08
393.956	2.14
394.32	2.09
394.685	2.36
395.05	2.19
395.414	2.16
395.779	2.47
396.143	1.95
396.508	2.22
396.872	2.17
397.236	2.44
397.601	2.27
397.965	2.46
398.329	2.14
398.694	2.04
399.058	1.96
399.422	2.2
399.786	1.94
400.15	2.23
400.514	2.18
400.878	2.18
401.242	2.15
401.605	1.99
401.969	2.18
402.333	2.14
402.697	2.62
403.06	2.11
403.424	2.31
403.787	2.34
404.151	2.29
404.514	2.24
404.878	2.02
405.241	2.21
405.604	2.21
405.968	2.1
406.331	2.35
406.694	2.19
407.057	2.22
407.42	2.19
407.783	2.35
408.146	2.06
408.509	2.29
408.872	2.14
409.235	2.39
409.598	2.25
409.961	2.33
410.323	2.05
410.686	2.13
411.049	2.14
411.411	2.34
411.774	2.17
412.136	2.24
412.499	2.36
412.861	1.95
413.223	1.97
413.586	2.21
413.948	2.3
414.31	2.34
414.672	2.1
415.035	2.32
415.397	2.11
415.759	2.05
416.121	2.33
416.483	2.28
416.845	2.08
417.206	2.32
417.568	2.02
417.93	2.41
418.292	2.31
418.653	2.1
419.015	2.21
419.377	2.24
419.738	2.39
420.1	2.18
420.461	2.16
420.822	2.31
421.184	2.32
421.545	2.24
421.906	2.3
422.267	2.2
422.629	2.22
422.99	2.25
423.351	2.2
423.712	2.24
424.073	2.32
424.434	2.36
424.795	2.2
425.155	2.22
425.516	2.21
425.877	2.26
426.238	2.18
426.598	2.39
426.959	2.24
427.32	2.25
427.68	2.16
428.041	2.28
428.401	2.28
428.761	2.33
429.122	2.33
429.482	2.2
429.842	2.23
430.202	2.28
430.563	2.3
430.923	2.36
431.283	2.44
431.643	2.33
432.003	2.3
432.363	2.37
432.722	2.32
433.082	2.29
433.442	2.45
433.802	2.22
434.161	2.25
434.521	2.29
434.881	2.38
435.24	2.3
435.6	2.46
435.959	2.43
436.319	2.32
436.678	2.47
437.037	2.41
437.396	2.31
437.756	2.26
438.115	2.33
438.474	2.51
438.833	2.41
439.192	2.26
439.551	2.4
439.91	2.44
440.269	2.34
440.628	2.35
440.987	2.28
441.345	2.35
441.704	2.34
442.063	2.36
442.421	2.4
442.78	2.33
443.138	2.36
443.497	2.37
443.855	2.43
444.214	2.13
444.572	2.53
444.93	2.37
445.288	2.39
445.647	2.25
446.005	2.33
446.363	2.43
446.721	2.39
447.079	2.27
447.437	2.39
447.795	2.51
448.153	2.37
448.51	2.45
448.868	2.37
449.226	2.44
449.584	2.36
449.941	2.4
450.299	2.4
450.656	2.48
451.014	2.43
451.371	2.52
451.729	2.34
452.086	2.45
452.443	2.46
452.801	2.45
453.158	2.44
453.515	2.3
453.872	2.42
454.229	2.29
454.586	2.33
454.943	2.47
455.3	2.33
455.657	2.34
456.014	2.46
456.371	2.53
456.727	2.53
457.084	2.62
457.441	2.42
457.797	2.43
458.154	2.4
458.51	2.35
458.867	2.36
459.223	2.23
459.58	2.46
459.936	2.38
460.292	2.36
460.648	2.25
461.005	2.41
461.361	2.53
461.717	2.43
462.073	2.5
462.429	2.51
462.785	2.6
463.141	2.47
463.496	2.55
463.852	2.51
464.208	2.57
464.564	2.51
464.919	2.42
465.275	2.41
465.631	2.72
465.986	2.32
466.342	2.36
466.697	2.53
467.052	2.6
467.408	2.62
467.763	2.48
468.118	2.53
468.473	2.44
468.829	2.54
469.184	2.51
469.539	2.55
469.894	2.56
470.249	2.54
470.603	2.57
470.958	2.58
471.313	2.53
471.668	2.65
472.023	2.63
472.377	2.41
472.732	2.59
473.086	2.5
473.441	2.48
473.795	2.66
474.15	2.57
474.504	2.56
474.859	2.32
475.213	2.47
475.567	2.49
475.921	2.6
476.275	2.64
476.63	2.52
476.984	2.48
477.338	2.67
477.692	2.69
478.045	2.65
478.399	2.53
478.753	2.52
479.107	2.56
479.461	2.55
479.814	2.54
480.168	2.53
480.521	2.72
480.875	2.57
481.228	2.6
481.582	2.59
481.935	2.73
482.289	2.6
482.642	2.68
482.995	2.59
483.348	2.56
483.701	2.62
484.055	2.56
484.408	2.59
484.761	2.49
485.114	2.42
485.466	2.44
485.819	2.45
486.172	2.46
486.525	2.51
486.878	2.59
487.23	2.55
487.583	2.59
487.936	2.55
488.288	2.53
488.641	2.54
488.993	2.5
489.345	2.52
489.698	2.52
490.05	2.52
490.402	2.54
490.754	2.56
491.107	2.51
491.459	2.56
491.811	2.65
492.163	2.56
492.515	2.45
492.866	2.45
493.218	2.55
493.57	2.64
493.922	2.58
494.274	2.75
494.625	2.73
494.977	2.65
495.328	2.64
495.68	2.65
496.031	2.62
496.383	2.59
496.734	2.63
497.086	2.77
497.437	2.67
497.788	2.77
498.139	2.69
498.49	2.69
498.842	2.73
499.193	2.58
499.544	2.69
499.894	2.66
500.245	2.77
500.596	2.81
500.947	2.72
501.298	2.64
501.648	2.71
501.999	2.92
502.35	2.6
502.7	2.96
503.051	2.84
503.401	2.75
503.752	2.65
504.102	2.63
504.452	2.67
504.803	2.71
505.153	2.84
505.503	2.77
505.853	2.76
506.203	2.72
506.553	2.75
506.903	2.73
507.253	2.71
507.603	2.8
507.953	2.81
508.303	2.8
508.652	2.68
509.002	2.81
509.352	2.78
509.701	2.63
510.051	2.82
510.4	2.93
510.75	2.75
511.099	2.63
511.449	2.85
511.798	2.75
512.147	2.76
512.496	2.78
512.846	2.77
513.195	2.77
513.544	2.88
513.893	2.78
514.242	2.75
514.591	2.71
514.939	2.81
515.288	2.86
515.637	2.73
515.986	2.7
516.334	2.82
516.683	2.81
517.032	2.83
517.38	2.71
517.729	2.76
518.077	2.82
518.426	2.87
518.774	2.75
519.122	2.82
519.47	2.73
519.819	2.78
520.167	2.76
520.515	2.87
520.863	2.85
521.211	2.78
521.559	2.69
521.907	2.82
522.255	2.85
522.602	2.8
522.95	2.84
523.298	2.83
523.645	2.9
523.993	2.74
524.341	2.89
524.688	2.86
525.036	2.85
525.383	2.93
525.73	2.84
526.078	2.91
526.425	2.81
526.772	2.77
527.119	2.85
527.466	2.88
527.814	2.86
528.161	2.91
528.508	2.96
528.854	2.77
529.201	2.81
529.548	2.81
529.895	2.76
530.242	2.75
530.588	2.75
530.935	2.8
531.282	2.8
531.628	2.81
531.975	2.84
532.321	2.86
532.667	2.88
533.014	2.86
533.36	2.94
533.706	2.94
534.052	2.92
534.399	2.9
534.745	2.82
535.091	2.79
535.437	2.87
535.783	2.84
536.129	2.88
536.474	2.97
536.82	2.97
537.166	2.93
537.512	2.91
537.857	2.94
538.203	2.92
538.549	2.83
538.894	2.92
539.239	2.96
539.585	2.99
539.93	2.9
540.276	3
540.621	3.03
540.966	2.9
541.311	3.03
541.656	2.93
542.001	2.88
542.346	2.85
542.691	2.88
543.036	2.87
543.381	2.87
543.726	2.93
544.071	2.94
544.415	2.96
544.76	2.94
545.105	2.9
545.449	2.89
545.794	2.95
546.138	2.93
546.483	3
546.827	2.94
547.171	3.08
547.516	2.98
547.86	3.06
548.204	2.99
548.548	2.96
548.892	3.01
549.236	2.86
549.58	3.07
549.924	3.09
550.268	3.08
550.612	3.01
550.956	3.16
551.3	3.21
551.643	3.23
551.987	3.12
552.33	3.23
552.674	3.03
553.017	3.1
553.361	3.14
553.704	3.11
554.048	3.24
554.391	3.19
554.734	3.1
555.077	3.05
555.42	3.07
555.764	3.23
556.107	3.15
556.45	3.14
556.793	3.24
557.135	3.15
557.478	3.15
557.821	3.18
558.164	3.26
558.507	3.06
558.849	3.13
559.192	3.15
559.534	3.02
559.877	3.12
560.219	3.22
560.562	3.13
560.904	3.39
561.246	3.06
561.589	3.31
561.931	3.25
562.273	3.1
562.615	3.05
562.957	3.13
563.299	3.11
563.641	3.16
563.983	3.09
564.325	3.24
564.667	3.21
565.008	3.16
565.35	2.93
565.692	3.24
566.033	3.08
566.375	3.05
566.716	3.07
567.058	3.17
567.399	3.24
567.741	3.11
568.082	3.16
568.423	3.15
568.764	3.22
569.105	3.17
569.447	3.14
569.788	3.23
570.129	3.25
570.47	3.2
570.811	3.21
571.151	3.19
571.492	3.27
571.833	3.13
572.174	3.25
572.514	3.21
572.855	3.21
573.195	3.18
573.536	3.37
573.876	3.19
574.217	3.18
574.557	3.23
574.898	3.12
575.238	3.36
575.578	3.34
575.918	3.29
576.258	3.4
576.598	3.14
576.938	3.17
577.278	3.2
577.618	3.39
577.958	3.28
578.298	3.4
578.638	3.19
578.977	3.35
579.317	3.45
579.657	3.11
579.996	3.33
580.336	3.49
580.675	3.3
581.014	3.26
581.354	3.21
581.693	3.47
582.032	3.41
582.372	3.41
582.711	3.4
583.05	3.24
583.389	3.48
583.728	3.4
584.067	3.32
584.406	3.49
584.745	3.33
585.083	3.2
585.422	3.42
585.761	3.42
586.1	3.39
586.438	3.33
586.777	3.47
587.115	3.57
587.454	3.19
587.792	3.3
588.13	3.26
588.469	3.26
588.807	3.47
589.145	3.38
589.483	3.14
589.821	3.31
590.159	3.53
590.497	3.36
590.835	3.42
591.173	3.57
591.511	3.54
591.849	3.37
592.187	3.19
592.524	3.48
592.862	3.23
593.2	3.29
593.537	3.36
593.875	3.3
594.212	3.52
594.55	3.48
594.887	3.46
595.224	3.66
595.561	3.44
595.899	3.49
596.236	3.57
596.573	3.29
596.91	3.49
597.247	3.56
597.584	3.44
597.921	3.4
598.258	3.55
598.594	3.42
598.931	3.27
599.268	3.19
599.604	3.36
599.941	3.49
600.277	3.42
600.614	3.4
600.95	3.4
601.287	3.19
601.623	3.38
601.959	3.55
602.296	3.72
602.632	3.37
602.968	3.39
603.304	3.37
603.64	3.66
603.976	3.34
604.312	3.65
604.648	3.72
604.984	3.58
605.319	3.52
605.655	3.55
605.991	3.49
606.326	3.54
606.662	3.37
606.998	3.69
607.333	3.55
607.668	3.57
608.004	3.36
608.339	3.42
608.674	3.54
609.01	3.79
609.345	3.48
609.68	3.5
610.015	3.63
610.35	3.66
610.685	3.36
611.02	3.53
611.355	3.48
611.689	3.51
612.024	3.52
612.359	3.63
612.694	3.66
613.028	3.5
613.363	3.65
613.697	3.68
614.032	3.61
614.366	3.68
614.7	3.66
615.035	3.54
615.369	3.7
615.703	3.49
616.037	3.72
616.371	3.18
616.705	3.87
617.039	3.61
617.373	3.74
617.707	3.56
618.041	3.46
618.375	3.08
618.709	3.84
619.042	3.51
619.376	3.6
619.71	3.64
620.043	3.83
620.377	3.7
620.71	3.54
621.043	3.76
621.377	3.66
621.71	3.85
622.043	3.81
622.376	3.74
622.709	3.99
623.043	3.44
623.376	3.56
623.709	3.83
624.041	3.9
624.374	3.75
624.707	3.67
625.04	3.31
625.373	3.82
625.705	3.96
626.038	3.87
626.37	3.22
626.703	3.87
627.035	3.79
627.368	3.91
627.7	3.87
628.032	3.55
628.365	3.98
628.697	4.14
629.029	3.69
629.361	3.74
629.693	3.78
630.025	3.89
630.357	3.82
630.689	3.7
631.021	3.95
631.353	3.78
631.684	3.9
632.016	3.61
632.348	3.45
632.679	3.92
633.011	3.69
633.342	4.12
633.674	3.51
634.005	4.04
634.336	3.96
634.668	4.04
634.999	3.55
635.33	3.82
635.661	3.78
635.992	3.66
636.323	3.98
636.654	3.78
636.985	3.83
637.316	3.75
637.647	4.22
637.977	3.68
638.308	4.08
638.639	3.72
638.969	3.98
639.3	4
639.63	3.88
639.961	3.83
640.291	3.9
640.622	3.81
640.952	4.39
641.282	3.84
641.612	4.04
641.943	3.78
642.273	4.18
642.603	4.27
642.933	3.92
643.263	3.61
643.592	4.12
643.922	4.31
644.252	3.78
644.582	3.84
644.911	3.9
645.241	3.73
645.571	3.65
645.9	4.23
646.23	3.89
646.559	3.73
646.888	4.52
647.218	3.87
647.547	3.71
647.876	4.15
648.205	4.13
648.534	4.18
648.863	3.62
649.192	4.21
649.521	4.02
649.85	4.16
650.179	3.86
650.508	4.02
650.837	4.15
651.165	4.07
651.494	4
651.822	4.17
652.151	3.66
652.479	4.34
652.808	4.08
653.136	3.71
653.465	3.47
653.793	3.98
654.121	4
654.449	3.83
654.777	3.76
655.105	4.05
655.433	4.07
655.761	4.23
656.089	4.14
656.417	4.3
656.745	4.2
657.073	4.08
657.4	3.76
657.728	3.57
658.056	3.83
658.383	4.22
658.711	4.16
659.038	3.99
659.365	4.44
659.693	4.13
660.02	4.17
660.347	4.19
660.674	3.74
661.001	4.09
661.329	4.05
661.656	3.87
661.982	4.16
662.309	4.3
662.636	4.28
662.963	4.07
663.29	4.14
663.616	4.39
663.943	3.93
664.27	4.09
664.596	3.88
664.923	4.62
665.249	4.41
665.576	3.98
665.902	4.15
666.228	4.04
666.554	4.87
666.881	3.6
667.207	4.45
667.533	3.84
667.859	3.88
668.185	4.15
668.511	4.47
668.837	4.4
669.162	4.74
669.488	3.5
669.814	4.01
670.139	3.78
670.465	4.95
670.791	4.04
671.116	3.99
671.442	3.62
671.767	3.99
672.092	4.44
672.418	4.39
672.743	3.6
673.068	3.97
673.393	4.17
673.718	4.25
674.043	4.29
674.368	3.61
674.693	4.55
675.018	4.23
675.343	4.74
675.667	4.51
675.992	4.3
676.317	3.49
676.641	4.23
676.966	3.82
677.29	4.03
677.615	3.96
677.939	4.19
678.264	3.68
678.588	4.67
678.912	4.02
679.236	4.24
679.56	4.3
679.885	4.07
680.209	4.47
680.532	4.53
680.856	4.46
681.18	4.91
681.504	4.76
681.828	4.2
682.152	4.35
682.475	4.21
682.799	4.03
683.122	4.77
683.446	3.39
683.769	4.77
684.093	4.42
684.416	3.98
684.739	4.35
685.062	5.07
685.386	5.11
685.709	4.3
686.032	4.28
686.355	4.16
686.678	5.17
687.001	4.73
687.324	4.11
687.646	4.98
687.969	5.31
688.292	4.53
688.614	4.37
688.937	4.19
689.26	4.34
689.582	4.85
689.904	4.6
690.227	4.87
690.549	4.47
690.871	4.36
691.194	4.24
691.516	4.3
691.838	4.33
