Data from 0004_chest_Reflection__0__377.txt Node

Date: Thu Dec 15 19:32:59 CST 2022
User: ToomeyLab
Spectrometer: FLMS14357
Trigger mode: 0
Integration Time (sec): 1.000000E-2
Scans to average: 100
Electric dark correction enabled: true
Nonlinearity correction enabled: false
Boxcar width: 0
XAxis mode: Wavelengths
Number of Pixels in Spectrum: 2048
>>>>>Begin Spectral Data<<<<<
189.047	24.22
189.435	24.22
189.823	24.22
190.211	-22.31
190.599	85.96
190.987	-146.24
191.375	-148.18
191.763	-332.37
192.151	-27.66
192.538	75.52
192.926	-105.84
193.314	1211.01
193.702	-287.45
194.089	-29.06
194.477	-127.72
194.864	125.46
195.252	95.31
195.639	56.14
196.027	139.35
196.414	198.66
196.801	-67.55
197.189	342.86
197.576	53.89
197.963	-1.47
198.351	23.34
198.738	-42.82
199.125	-60.44
199.512	28
199.899	-39.04
200.286	-34.35
200.673	31.79
201.06	-38.03
201.447	22.9
201.833	-20.66
202.22	-20.29
202.607	-71.83
202.994	-1.11
203.38	-6.68
203.767	-42.81
204.154	-4.89
204.54	67.05
204.927	-7.63
205.313	22.36
205.699	50.71
206.086	53.34
206.472	-10.39
206.858	19.35
207.245	-22.7
207.631	-16.81
208.017	35.94
208.403	-42
208.789	-18.13
209.175	8.38
209.561	-120.66
209.947	3.33
210.333	-0.24
210.719	19.62
211.105	16.9
211.491	16.45
211.876	-26.69
212.262	-2.44
212.648	-30.45
213.034	-2.91
213.419	-8.32
213.805	-17.91
214.19	-44.91
214.576	-47.1
214.961	-35.44
215.346	-58.69
215.732	-23.64
216.117	-17.12
216.502	-20.43
216.888	-7.07
217.273	-5.03
217.658	-12.13
218.043	-37.11
218.428	-19.47
218.813	1.26
219.198	-71.7
219.583	-37.35
219.968	-6.57
220.353	-18.34
220.738	-32.05
221.122	3.71
221.507	-12.68
221.892	-15.57
222.276	-11.49
222.661	-28.64
223.046	-20.13
223.43	9.05
223.815	-5.69
224.199	-6.08
224.583	-12.27
224.968	-11.92
225.352	-21.73
225.736	1
226.121	2.25
226.505	-7.17
226.889	4.13
227.273	-0.82
227.657	6
228.041	0.52
228.425	-2.28
228.809	1.67
229.193	0.17
229.577	-0.01
229.961	0.93
230.344	2.62
230.728	1.83
231.112	2.51
231.495	0.17
231.879	2.06
232.263	1.74
232.646	0.4
233.03	2.75
233.413	-0.31
233.797	0
234.18	-0.38
234.563	0.76
234.946	-1.2
235.33	0.17
235.713	2.76
236.096	2.16
236.479	2.25
236.862	0.19
237.245	0.58
237.628	1.7
238.011	1
238.394	-0.59
238.777	1.35
239.16	2.82
239.543	2.22
239.925	1.22
240.308	0.38
240.691	-0.74
241.073	-0.55
241.456	0.63
241.838	1.6
242.221	1.11
242.603	1.63
242.986	2.09
243.368	2.51
243.75	1.57
244.133	2.27
244.515	1.76
244.897	2.46
245.279	1.29
245.661	2.02
246.043	0.75
246.425	2.21
246.807	2.01
247.189	1.7
247.571	1.8
247.953	1.8
248.335	1.95
248.717	2.13
249.098	2
249.48	1.71
249.862	1.79
250.243	2.27
250.625	2.01
251.006	2.55
251.388	2
251.769	1.45
252.151	2.02
252.532	1.69
252.913	2.16
253.295	1.59
253.676	1.91
254.057	1.65
254.438	1.65
254.819	1.46
255.2	1.36
255.581	2.54
255.962	1.87
256.343	1.12
256.724	1.8
257.105	2.36
257.486	0.21
257.867	0.56
258.247	1.37
258.628	1.91
259.009	1.65
259.389	0.9
259.77	1.52
260.15	2.81
260.531	1.96
260.911	1.54
261.292	2.04
261.672	1.81
262.052	1.94
262.432	1.71
262.813	1.65
263.193	1.88
263.573	1.22
263.953	1.87
264.333	2.43
264.713	2.77
265.093	1.68
265.473	2.37
265.853	2.21
266.233	1.91
266.612	0.88
266.992	1.4
267.372	1.33
267.752	2.1
268.131	1.77
268.511	1.94
268.89	2.12
269.27	1.3
269.649	1.3
270.029	2.24
270.408	1.62
270.787	1.7
271.167	1.95
271.546	2.56
271.925	2.05
272.304	1.79
272.683	1.48
273.062	1.97
273.441	1.99
273.82	2.22
274.199	1.7
274.578	1.87
274.957	1.75
275.336	2.22
275.715	1.56
276.093	1.43
276.472	1.05
276.851	1.56
277.229	1.66
277.608	1.44
277.986	2.06
278.365	1.27
278.743	2.07
279.122	1.42
279.5	1.64
279.878	1.63
280.257	1.91
280.635	1.41
281.013	1.26
281.391	2.04
281.769	1.79
282.147	1.99
282.525	1.61
282.903	2.03
283.281	2.31
283.659	1.74
284.037	1.5
284.415	1.68
284.792	1.65
285.17	1.81
285.548	2.08
285.925	1.45
286.303	2.85
286.68	1.96
287.058	1.89
287.435	1.88
287.813	2.04
288.19	1.47
288.567	1.6
288.945	1.73
289.322	2.03
289.699	1.89
290.076	1.79
290.453	1.27
290.83	1.87
291.207	1.93
291.584	2.11
291.961	1.91
292.338	1.92
292.715	1.93
293.092	1.85
293.469	1.83
293.845	2.24
294.222	1.95
294.599	1.26
294.975	1.22
295.352	2.21
295.728	2.25
296.105	2.01
296.481	1.99
296.858	1.99
297.234	1.76
297.61	2.19
297.986	2.58
298.363	2.28
298.739	2.28
299.115	2.07
299.491	2.57
299.867	1.9
300.243	1.98
300.619	1.75
300.995	1.73
301.371	2.23
301.746	2.31
302.122	1.74
302.498	2.16
302.874	2.44
303.249	2.41
303.625	1.95
304	2.05
304.376	2.22
304.751	2.63
305.127	2.32
305.502	2.47
305.878	2.46
306.253	2.05
306.628	2.25
307.003	2
307.378	1.83
307.754	2.46
308.129	2.11
308.504	2.84
308.879	2.65
309.254	2.96
309.629	2.36
310.003	2.32
310.378	2.58
310.753	2.17
311.128	2.44
311.502	2.65
311.877	2.23
312.252	2.52
312.626	2.64
313.001	2.3
313.375	2.77
313.75	2.73
314.124	2.36
314.498	2.95
314.873	2.26
315.247	2.64
315.621	2.34
315.995	2.34
316.369	2.03
316.743	2.38
317.117	2.09
317.491	2.62
317.865	2.36
318.239	2.85
318.613	2.75
318.987	2.03
319.361	2.2
319.734	2.36
320.108	2.37
320.482	3.17
320.855	2.4
321.229	2.4
321.602	2.81
321.976	2.14
322.349	2.73
322.723	2.23
323.096	2.17
323.469	1.98
323.843	2.38
324.216	2.24
324.589	2.84
324.962	2.38
325.335	2.49
325.708	2.6
326.081	2.78
326.454	2.82
326.827	2.86
327.2	2.73
327.573	3.38
327.945	2.61
328.318	2.73
328.691	2.77
329.063	2.7
329.436	2.2
329.809	2.88
330.181	2.62
330.553	3.43
330.926	3.13
331.298	2.62
331.671	3.41
332.043	2.36
332.415	3.1
332.787	2.89
333.159	2.08
333.532	2.68
333.904	3.21
334.276	2.67
334.648	2.77
335.02	2.58
335.391	2.55
335.763	2.74
336.135	2.81
336.507	2.77
336.879	2.61
337.25	2.74
337.622	2.64
337.993	2.8
338.365	2.62
338.736	2.92
339.108	3.14
339.479	2.76
339.851	2.99
340.222	2.84
340.593	2.68
340.964	2.59
341.336	2.26
341.707	2.92
342.078	2.61
342.449	2.66
342.82	2.73
343.191	2.74
343.562	2.93
343.933	3.02
344.303	3.29
344.674	2.59
345.045	2.85
345.416	3.34
345.786	3.02
346.157	2.94
346.527	2.49
346.898	2.78
347.268	3.26
347.639	2.44
348.009	3.05
348.38	3.14
348.75	3.6
349.12	2.94
349.49	3.04
349.861	3.01
350.231	2.92
350.601	2.89
350.971	2.89
351.341	2.98
351.711	2.87
352.081	2.89
352.45	2.66
352.82	2.66
353.19	3.06
353.56	2.75
353.929	2.98
354.299	3.46
354.669	3.05
355.038	3.35
355.408	2.94
355.777	3.26
356.147	2.83
356.516	2.61
356.885	3.07
357.254	2.77
357.624	2.43
357.993	2.88
358.362	2.98
358.731	3.31
359.1	3.12
359.469	3.25
359.838	3.02
360.207	2.94
360.576	2.97
360.945	3.05
361.314	3.04
361.682	2.91
362.051	2.94
362.42	2.98
362.788	3
363.157	3.02
363.525	3.22
363.894	2.94
364.262	3.24
364.631	3.3
364.999	3.04
365.367	2.73
365.735	2.89
366.104	3.1
366.472	3.02
366.84	3.15
367.208	3.54
367.576	3.21
367.944	3.39
368.312	3.1
368.68	3.34
369.048	3.16
369.416	3.05
369.783	3.11
370.151	3.37
370.519	3.7
370.886	3.16
371.254	3.39
371.621	3.15
371.989	3.41
372.356	3.26
372.724	3.12
373.091	3.07
373.458	3.05
373.826	3.21
374.193	3.12
374.56	3.58
374.927	3.05
375.294	3.35
375.661	3.31
376.028	3.21
376.395	3.32
376.762	3.14
377.129	3.33
377.496	3.45
377.863	3.4
378.229	3.67
378.596	3.58
378.963	3.36
379.329	3.27
379.696	3.09
380.062	3.28
380.429	3.18
380.795	3.45
381.161	3.04
381.528	3.17
381.894	3.24
382.26	3.25
382.626	3.05
382.993	3.5
383.359	3.38
383.725	3.38
384.091	3.54
384.457	3.19
384.823	3.4
385.188	3.32
385.554	3.45
385.92	3.08
386.286	3.43
386.651	3.33
387.017	3.49
387.383	3.26
387.748	3.34
388.114	3.45
388.479	3.36
388.845	3.18
389.21	3.7
389.575	3.68
389.94	3.49
390.306	3.55
390.671	3.57
391.036	3.44
391.401	3.49
391.766	3.34
392.131	3.6
392.496	3.59
392.861	3.37
393.226	3.33
393.591	3.5
393.956	3.58
394.32	3.65
394.685	3.49
395.05	3.43
395.414	3.71
395.779	3.71
396.143	3.42
396.508	3.52
396.872	3.34
397.236	4.2
397.601	3.79
397.965	3.6
398.329	3.56
398.694	3.37
399.058	3.52
399.422	3.83
399.786	3.44
400.15	3.86
400.514	3.71
400.878	3.48
401.242	3.64
401.605	3.64
401.969	3.38
402.333	3.68
402.697	3.74
403.06	3.56
403.424	3.84
403.787	3.7
404.151	3.67
404.514	3.46
404.878	3.53
405.241	3.65
405.604	3.6
405.968	3.64
406.331	3.82
406.694	3.76
407.057	3.48
407.42	3.68
407.783	3.71
408.146	3.51
408.509	3.78
408.872	3.73
409.235	3.71
409.598	3.72
409.961	3.78
410.323	3.57
410.686	3.62
411.049	3.85
411.411	3.76
411.774	3.65
412.136	3.66
412.499	4.03
412.861	3.59
413.223	3.72
413.586	3.75
413.948	3.89
414.31	3.67
414.672	3.74
415.035	3.97
415.397	3.36
415.759	3.62
416.121	3.91
416.483	3.77
416.845	3.68
417.206	3.89
417.568	3.7
417.93	3.84
418.292	3.58
418.653	3.82
419.015	3.72
419.377	3.73
419.738	3.93
420.1	3.73
420.461	3.74
420.822	3.78
421.184	3.78
421.545	3.77
421.906	3.76
422.267	3.78
422.629	3.76
422.99	3.75
423.351	3.72
423.712	3.86
424.073	3.86
424.434	3.93
424.795	3.68
425.155	3.76
425.516	3.78
425.877	3.86
426.238	3.81
426.598	3.86
426.959	3.87
427.32	3.87
427.68	3.8
428.041	3.94
428.401	3.81
428.761	4.09
429.122	3.94
429.482	3.9
429.842	3.9
430.202	3.93
430.563	3.97
430.923	3.96
431.283	3.96
431.643	4.06
432.003	4.05
432.363	4.14
432.722	3.92
433.082	4
433.442	4.1
433.802	3.94
434.161	4.09
434.521	4.04
434.881	3.9
435.24	4.01
435.6	4.1
435.959	3.92
436.319	4.03
436.678	4.12
437.037	4.07
437.396	4.04
437.756	3.94
438.115	4.11
438.474	4.18
438.833	3.98
439.192	4.03
439.551	3.97
439.91	4.08
440.269	4
440.628	4
440.987	3.99
441.345	3.96
441.704	4.03
442.063	3.93
442.421	4.04
442.78	4.03
443.138	4.03
443.497	4.01
443.855	4.1
444.214	3.96
444.572	4.29
444.93	4.08
445.288	4.06
445.647	4.04
446.005	4.05
446.363	4.06
446.721	4.15
447.079	3.99
447.437	4.1
447.795	4.08
448.153	4.1
448.51	4.09
448.868	4.05
449.226	4.11
449.584	4.03
449.941	4.09
450.299	4.15
450.656	4.2
451.014	4.34
451.371	4.23
451.729	4.11
452.086	4.12
452.443	4.36
452.801	4.3
453.158	4.31
453.515	4.13
453.872	4.2
454.229	4.09
454.586	4.08
454.943	4.18
455.3	4.26
455.657	4.13
456.014	4.26
456.371	4.3
456.727	4.31
457.084	4.48
457.441	4.23
457.797	4.33
458.154	4.14
458.51	4.3
458.867	4.2
459.223	4.27
459.58	4.32
459.936	4.27
460.292	4.25
460.648	4.16
461.005	4.31
461.361	4.15
461.717	4.24
462.073	4.28
462.429	4.34
462.785	4.4
463.141	4.38
463.496	4.28
463.852	4.44
464.208	4.25
464.564	4.22
464.919	4.4
465.275	4.5
465.631	4.5
465.986	4.64
466.342	4.32
466.697	4.41
467.052	4.48
467.408	4.57
467.763	4.51
468.118	4.27
468.473	4.42
468.829	4.3
469.184	4.4
469.539	4.35
469.894	4.54
470.249	4.44
470.603	4.59
470.958	4.68
471.313	4.52
471.668	4.53
472.023	4.67
472.377	4.52
472.732	4.75
473.086	4.46
473.441	4.65
473.795	4.7
474.15	4.39
474.504	4.48
474.859	4.43
475.213	4.73
475.567	4.52
475.921	4.6
476.275	4.43
476.63	4.6
476.984	4.38
477.338	4.69
477.692	4.49
478.045	4.65
478.399	4.53
478.753	4.44
479.107	4.63
479.461	4.55
479.814	4.64
480.168	4.61
480.521	4.71
480.875	4.7
481.228	4.69
481.582	4.59
481.935	4.75
482.289	4.63
482.642	4.74
482.995	4.63
483.348	4.63
483.701	4.62
484.055	4.59
484.408	4.55
484.761	4.46
485.114	4.39
485.466	4.38
485.819	4.39
486.172	4.46
486.525	4.5
486.878	4.55
487.23	4.59
487.583	4.67
487.936	4.62
488.288	4.57
488.641	4.54
488.993	4.5
489.345	4.51
489.698	4.57
490.05	4.57
490.402	4.62
490.754	4.68
491.107	4.68
491.459	4.74
491.811	4.74
492.163	4.7
492.515	4.66
492.866	4.59
493.218	4.63
493.57	4.74
493.922	4.66
494.274	4.83
494.625	4.83
494.977	4.89
495.328	5.03
495.68	4.97
496.031	4.86
496.383	4.93
496.734	4.97
497.086	4.95
497.437	5.02
497.788	5.04
498.139	4.86
498.49	4.99
498.842	4.97
499.193	4.94
499.544	4.97
499.894	5.04
500.245	5.06
500.596	4.96
500.947	4.94
501.298	5.09
501.648	4.98
501.999	5.14
502.35	5
502.7	5.29
503.051	5.14
503.401	5.09
503.752	5.06
504.102	5.01
504.452	5.1
504.803	5
505.153	5.16
505.503	5.22
505.853	5.12
506.203	5.22
506.553	5.11
506.903	5.24
507.253	5.27
507.603	5.21
507.953	5.2
508.303	5.23
508.652	5.17
509.002	5.25
509.352	5.26
509.701	5.19
510.051	5.27
510.4	5.3
510.75	5.24
511.099	5.22
511.449	5.36
511.798	5.29
512.147	5.34
512.496	5.32
512.846	5.45
513.195	5.33
513.544	5.43
513.893	5.35
514.242	5.36
514.591	5.35
514.939	5.44
515.288	5.51
515.637	5.51
515.986	5.51
516.334	5.57
516.683	5.56
517.032	5.51
517.38	5.44
517.729	5.48
518.077	5.5
518.426	5.58
518.774	5.48
519.122	5.46
519.47	5.46
519.819	5.48
520.167	5.4
520.515	5.44
520.863	5.45
521.211	5.49
521.559	5.53
521.907	5.55
522.255	5.59
522.602	5.77
522.95	5.78
523.298	5.68
523.645	5.76
523.993	5.82
524.341	5.67
524.688	5.66
525.036	5.65
525.383	5.7
525.73	5.69
526.078	5.88
526.425	5.73
526.772	5.73
527.119	5.76
527.466	5.73
527.814	5.73
528.161	5.83
528.508	5.92
528.854	5.83
529.201	5.77
529.548	5.67
529.895	5.61
530.242	5.63
530.588	5.64
530.935	5.77
531.282	5.75
531.628	5.77
531.975	5.92
532.321	6.04
532.667	6.06
533.014	6.04
533.36	5.96
533.706	6.11
534.052	6.04
534.399	5.98
534.745	5.9
535.091	5.91
535.437	5.95
535.783	6.03
536.129	6.08
536.474	6.14
536.82	6.2
537.166	6.06
537.512	6.23
537.857	6.18
538.203	6.22
538.549	6.25
538.894	6.18
539.239	6.36
539.585	6.34
539.93	6.37
540.276	6.42
540.621	6.45
540.966	6.45
541.311	6.52
541.656	6.38
542.001	6.34
542.346	6.36
542.691	6.27
543.036	6.27
543.381	6.27
543.726	6.36
544.071	6.42
544.415	6.42
544.76	6.54
545.105	6.54
545.449	6.62
545.794	6.53
546.138	6.57
546.483	6.75
546.827	6.67
547.171	6.69
547.516	6.78
547.86	6.77
548.204	6.83
548.548	6.74
548.892	6.79
549.236	6.72
549.58	6.8
549.924	6.93
550.268	6.88
550.612	7.14
550.956	7.07
551.3	7.12
551.643	7.13
551.987	7.36
552.33	7.29
552.674	7.2
553.017	7.14
553.361	7.22
553.704	7.28
554.048	7.05
554.391	7.22
554.734	7.09
555.077	7.34
555.42	7.13
555.764	7.39
556.107	7.43
556.45	7.45
556.793	7.41
557.135	7.35
557.478	7.41
557.821	7.5
558.164	7.51
558.507	7.38
558.849	7.65
559.192	7.71
559.534	7.54
559.877	7.44
560.219	7.56
560.562	7.62
560.904	7.93
561.246	7.6
561.589	7.86
561.931	7.76
562.273	7.75
562.615	7.7
562.957	7.77
563.299	7.71
563.641	7.72
563.983	7.61
564.325	7.96
564.667	7.79
565.008	7.89
565.35	7.69
565.692	7.82
566.033	7.91
566.375	8
566.716	8
567.058	7.96
567.399	8.22
567.741	8.03
568.082	8.04
568.423	8.11
568.764	8.18
569.105	8.17
569.447	8.23
569.788	8.32
570.129	8.18
570.47	8.37
570.811	8.2
571.151	8.34
571.492	8.39
571.833	8.32
572.174	8.49
572.514	8.45
572.855	8.55
573.195	8.27
573.536	8.6
573.876	8.47
574.217	8.38
574.557	8.62
574.898	8.5
575.238	8.61
575.578	8.69
575.918	8.76
576.258	8.84
576.598	8.67
576.938	8.7
577.278	8.81
577.618	8.68
577.958	8.88
578.298	9.01
578.638	8.94
578.977	8.95
579.317	9.1
579.657	9.05
579.996	9.14
580.336	9.13
580.675	9.17
581.014	9.25
581.354	8.92
581.693	9.49
582.032	9.64
582.372	9.36
582.711	9.29
583.05	9.55
583.389	9.4
583.728	9.56
584.067	9.51
584.406	9.44
584.745	9.18
585.083	9.53
585.422	9.75
585.761	9.75
586.1	9.94
586.438	9.72
586.777	9.89
587.115	9.85
587.454	9.32
587.792	9.65
588.13	9.73
588.469	9.97
588.807	9.94
589.145	9.75
589.483	9.78
589.821	9.97
590.159	10.02
590.497	10.28
590.835	10.09
591.173	10.03
591.511	10.33
591.849	10.23
592.187	10.1
592.524	10.38
592.862	10.03
593.2	10.15
593.537	10.18
593.875	10.32
594.212	10.32
594.55	10.43
594.887	10.44
595.224	10.6
595.561	10.43
595.899	10.51
596.236	10.68
596.573	10.45
596.91	10.66
597.247	10.71
597.584	10.62
597.921	10.85
598.258	10.58
598.594	10.45
598.931	10.64
599.268	10.58
599.604	10.94
599.941	10.88
600.277	10.84
600.614	10.74
600.95	10.8
601.287	10.77
601.623	10.79
601.959	11.16
602.296	11.24
602.632	11.24
602.968	10.98
603.304	11.29
603.64	11.24
603.976	11.11
604.312	10.94
604.648	11.34
604.984	11.38
605.319	11.32
605.655	11.41
605.991	11.25
606.326	11.35
606.662	11.22
606.998	11.49
607.333	11.43
607.668	11.36
608.004	11.48
608.339	11.31
608.674	11.56
609.01	11.88
609.345	11.84
609.68	11.66
610.015	11.68
610.35	11.8
610.685	11.75
611.02	11.59
611.355	11.64
611.689	11.82
612.024	12.07
612.359	11.89
612.694	12.07
613.028	11.91
613.363	12.09
613.697	12.16
614.032	12.14
614.366	11.93
614.7	12.37
615.035	12.18
615.369	12.59
615.703	12.27
616.037	12.43
616.371	12.38
616.705	12.67
617.039	12.63
617.373	12.52
617.707	12.58
618.041	12.43
618.375	12.36
618.709	12.69
619.042	12.52
619.376	12.54
619.71	12.48
620.043	13.2
620.377	12.8
620.71	13.08
621.043	13.12
621.377	13.01
621.71	13.46
622.043	13.19
622.376	13.06
622.709	13.25
623.043	12.72
623.376	12.95
623.709	13.24
624.041	13.17
624.374	13.54
624.707	13.33
625.04	13.14
625.373	13.61
625.705	13.32
626.038	13.61
626.37	12.92
626.703	13.48
627.035	13.16
627.368	13.65
627.7	13.85
628.032	13.39
628.365	13.67
628.697	13.85
629.029	13.27
629.361	13.72
629.693	13.44
630.025	13.63
630.357	14.05
630.689	13.99
631.021	14.22
631.353	13.72
631.684	13.89
632.016	13.64
632.348	13.89
632.679	13.99
633.011	14.01
633.342	13.6
633.674	13.81
634.005	13.83
634.336	14.24
634.668	14.02
634.999	14.07
635.33	14.43
635.661	14.46
635.992	14.63
636.323	14.14
636.654	14.41
636.985	14.16
637.316	14.71
637.647	14.63
637.977	14.36
638.308	14.65
638.639	14.43
638.969	14.85
639.3	14.66
639.63	14.55
639.961	14.36
640.291	14.8
640.622	15.06
640.952	14.85
641.282	14.74
641.612	14.84
641.943	14.65
642.273	15.06
642.603	15.31
642.933	15.22
643.263	14.98
643.592	15.35
643.922	15.65
644.252	15.12
644.582	15.26
644.911	15.19
645.241	14.8
645.571	15.11
645.9	16.01
646.23	15.36
646.559	15.16
646.888	16.14
647.218	15.26
647.547	15.38
647.876	15.34
648.205	15.14
648.534	15.4
648.863	15.47
649.192	15.69
649.521	15.63
649.85	15.91
650.179	15.77
650.508	15.57
650.837	16.02
651.165	16.16
651.494	15.9
651.822	16.07
652.151	15.78
652.479	16.06
652.808	16.37
653.136	15.8
653.465	16
653.793	15.97
654.121	16.14
654.449	15.96
654.777	15.88
655.105	16.03
655.433	16.33
655.761	16.14
656.089	15.98
656.417	16.89
656.745	16.43
657.073	16.28
657.4	16.45
657.728	16.33
658.056	16.51
658.383	16.43
658.711	16.51
659.038	17.18
659.365	16.38
659.693	16.51
660.02	16.82
660.347	16.69
660.674	16.36
661.001	16.71
661.329	16.72
661.656	16.47
661.982	16.64
662.309	16.97
662.636	16.31
662.963	17.3
663.29	17.15
663.616	16.76
663.943	17.12
664.27	17.4
664.596	16.85
664.923	17.2
665.249	17.6
665.576	16.85
665.902	16.66
666.228	17.43
666.554	17.97
666.881	17.43
667.207	16.99
667.533	17.26
667.859	18.43
668.185	17.82
668.511	17.75
668.837	17.51
669.162	16.9
669.488	17.33
669.814	18.01
670.139	17.39
670.465	18.1
670.791	17.41
671.116	17.92
671.442	17.23
671.767	17.9
672.092	17.77
672.418	17.79
672.743	17.66
673.068	17.59
673.393	18.26
673.718	17.57
674.043	18.13
674.368	17.88
674.693	18.13
675.018	18.28
675.343	18.31
675.667	18.09
675.992	18.28
676.317	18.15
676.641	18.28
676.966	18.16
677.29	18.07
677.615	18.45
677.939	18.84
678.264	17.76
678.588	18.46
678.912	18.38
679.236	18.57
679.56	18.25
679.885	18.46
680.209	18.86
680.532	18.93
680.856	18.78
681.18	19.23
681.504	19.03
681.828	18.52
682.152	18.45
682.475	18.97
682.799	18.72
683.122	18.82
683.446	18.31
683.769	18.89
684.093	18.98
684.416	18.95
684.739	18.74
685.062	19.21
