Data from 446_forehead_Reflection__0__25.txt Node

Date: Tue Dec 12 18:23:53 CST 2023
User: ToomeyLab
Spectrometer: FLMS14357
Trigger mode: 0
Integration Time (sec): 1.000000E-2
Scans to average: 100
Electric dark correction enabled: true
Nonlinearity correction enabled: false
Boxcar width: 0
XAxis mode: Wavelengths
Number of Pixels in Spectrum: 2048
>>>>>Begin Spectral Data<<<<<
189.047	-21.63
189.435	-21.63
189.823	-21.63
190.211	-1869.26
190.599	1415.69
190.987	29.68
191.375	-188.03
191.763	679.82
192.151	-214.71
192.538	92.88
192.926	51.4
193.314	61.44
193.702	1366.49
194.089	53.8
194.477	47.25
194.864	4.9
195.252	-59.65
195.639	586.09
196.027	53.86
196.414	1262.25
196.801	-6.04
197.189	182.17
197.576	62
197.963	72.53
198.351	35.35
198.738	53.21
199.125	16.39
199.512	-11.73
199.899	29.48
200.286	53.17
200.673	-12.07
201.06	59.63
201.447	-27.42
201.833	27.22
202.22	7.77
202.607	41.61
202.994	40.17
203.38	20.19
203.767	-20.89
204.154	24.91
204.54	50.31
204.927	20.47
205.313	52.39
205.699	7.89
206.086	18.54
206.472	36.46
206.858	29.92
207.245	13.83
207.631	37.35
208.017	31.36
208.403	1.87
208.789	49.07
209.175	57.63
209.561	43.77
209.947	17.29
210.333	40.27
210.719	28.31
211.105	25.8
211.491	11.38
211.876	11.76
212.262	14.3
212.648	18.3
213.034	-9.05
213.419	23.65
213.805	42.81
214.19	57.32
214.576	17.06
214.961	38.27
215.346	0.19
215.732	51.34
216.117	10.42
216.502	1.49
216.888	20.19
217.273	16.86
217.658	-19.49
218.043	-4.43
218.428	30.49
218.813	21.48
219.198	16.34
219.583	21.32
219.968	25.97
220.353	22.2
220.738	22.96
221.122	16.1
221.507	4.18
221.892	23.77
222.276	14.62
222.661	10.91
223.046	-4.06
223.43	11.46
223.815	9.9
224.199	12.46
224.583	11.54
224.968	12.68
225.352	-0.84
225.736	12.03
226.121	5.75
226.505	6.4
226.889	11.42
227.273	7.03
227.657	11.88
228.041	9.76
228.425	8.55
228.809	6.69
229.193	6.81
229.577	6.06
229.961	4
230.344	4.84
230.728	5.08
231.112	4.17
231.495	4
231.879	5.14
232.263	3.76
232.646	5.42
233.03	5.23
233.413	3.7
233.797	5.03
234.18	5.06
234.563	5.14
234.946	6.21
235.33	6.32
235.713	6.45
236.096	5.21
236.479	5.48
236.862	5.86
237.245	5.56
237.628	7.3
238.011	4.93
238.394	4
238.777	4.95
239.16	3.99
239.543	5.98
239.925	6.22
240.308	4.88
240.691	5.14
241.073	4.05
241.456	5.51
241.838	4.91
242.221	4.51
242.603	5.22
242.986	4.26
243.368	4.39
243.75	4.42
244.133	4.38
244.515	4.77
244.897	4.49
245.279	4.89
245.661	4.38
246.043	3.88
246.425	5.62
246.807	4.79
247.189	4.81
247.571	4.92
247.953	4.37
248.335	4.43
248.717	4.28
249.098	4.35
249.48	4.18
249.862	4.32
250.243	4.32
250.625	4.59
251.006	4.81
251.388	5.29
251.769	5.25
252.151	4.74
252.532	4.03
252.913	5
253.295	5.42
253.676	4.21
254.057	3.87
254.438	4.78
254.819	4.45
255.2	4.29
255.581	5.72
255.962	3.97
256.343	4.55
256.724	4.35
257.105	5.05
257.486	4.66
257.867	4.3
258.247	4.95
258.628	5.05
259.009	4.35
259.389	4.74
259.77	4.46
260.15	3.86
260.531	5.23
260.911	4.4
261.292	3.85
261.672	4.13
262.052	4.1
262.432	4.47
262.813	4.61
263.193	4.25
263.573	4.96
263.953	5.34
264.333	5.53
264.713	4.79
265.093	4.56
265.473	5.04
265.853	4.02
266.233	5.04
266.612	4.63
266.992	4.89
267.372	5.24
267.752	5.45
268.131	3.65
268.511	4.25
268.89	4.09
269.27	3.79
269.649	4.41
270.029	4.46
270.408	4.55
270.787	4.65
271.167	4.6
271.546	4.71
271.925	5.48
272.304	4.45
272.683	4.08
273.062	4.22
273.441	4.37
273.82	3.97
274.199	4.11
274.578	4.41
274.957	4.37
275.336	4.48
275.715	4.7
276.093	3.64
276.472	4.79
276.851	4.88
277.229	4.39
277.608	4.16
277.986	3.85
278.365	4.65
278.743	4.21
279.122	4.28
279.5	4.44
279.878	4.06
280.257	4.66
280.635	3.91
281.013	4.73
281.391	4.66
281.769	4.44
282.147	4.55
282.525	3.98
282.903	4.41
283.281	3.99
283.659	4.31
284.037	4.41
284.415	4.52
284.792	4.8
285.17	4
285.548	4.24
285.925	4.33
286.303	4.45
286.68	4.6
287.058	4.57
287.435	4.39
287.813	4.46
288.19	4.73
288.567	4.31
288.945	4.76
289.322	3.94
289.699	4.71
290.076	4.7
290.453	4.8
290.83	4.48
291.207	5.38
291.584	4.77
291.961	4.89
292.338	4.65
292.715	4.65
293.092	4.67
293.469	4.75
293.845	4.81
294.222	4.7
294.599	5.15
294.975	4.52
295.352	4.98
295.728	4.87
296.105	4.94
296.481	5.35
296.858	5.31
297.234	5.54
297.61	5.42
297.986	5.53
298.363	5.22
298.739	5.04
299.115	4.68
299.491	5.1
299.867	5
300.243	4.9
300.619	5.57
300.995	5.72
301.371	5.48
301.746	5.41
302.122	6.18
302.498	5.72
302.874	5.4
303.249	5.83
303.625	5.56
304	5.68
304.376	5.54
304.751	6.1
305.127	5.96
305.502	6.39
305.878	5.63
306.253	5.62
306.628	5.97
307.003	5.76
307.378	6.17
307.754	6.18
308.129	5.64
308.504	6.49
308.879	5.66
309.254	6.97
309.629	6.43
310.003	6.18
310.378	6.49
310.753	6.41
311.128	6.34
311.502	6.16
311.877	5.87
312.252	6.01
312.626	6.1
313.001	6.23
313.375	6.12
313.75	6.45
314.124	6.69
314.498	6.58
314.873	6.41
315.247	7.15
315.621	7.02
315.995	7.23
316.369	6.74
316.743	6.13
317.117	6.59
317.491	6.8
317.865	7.2
318.239	7.17
318.613	7.56
318.987	7.26
319.361	7.09
319.734	6.87
320.108	7.01
320.482	7.37
320.855	7.21
321.229	7.49
321.602	7.42
321.976	7.57
322.349	7.63
322.723	7.51
323.096	7.06
323.469	7.89
323.843	8.23
324.216	7.48
324.589	7.85
324.962	7.72
325.335	8.26
325.708	7.48
326.081	8.09
326.454	7.52
326.827	8.34
327.2	8.17
327.573	7.67
327.945	8.22
328.318	8.42
328.691	7.53
329.063	8.14
329.436	8.33
329.809	8.2
330.181	7.57
330.553	7.93
330.926	8.77
331.298	8.44
331.671	8.57
332.043	8.15
332.415	8.23
332.787	8.25
333.159	8.38
333.532	8.77
333.904	7.91
334.276	8.63
334.648	8.8
335.02	8.17
335.391	8.46
335.763	8.26
336.135	8.75
336.507	9.36
336.879	8.66
337.25	8.47
337.622	8.96
337.993	8.34
338.365	8.66
338.736	8.78
339.108	8.82
339.479	8.74
339.851	8.64
340.222	8.5
340.593	8.8
340.964	8.78
341.336	9.26
341.707	8.89
342.078	8.77
342.449	8.86
342.82	9.22
343.191	9.38
343.562	9.39
343.933	9.6
344.303	9.55
344.674	9.32
345.045	9.64
345.416	9.57
345.786	9.3
346.157	9.36
346.527	9.56
346.898	9.23
347.268	9.49
347.639	9.94
348.009	9.89
348.38	9.79
348.75	10.17
349.12	9.79
349.49	9.56
349.861	10.65
350.231	10.21
350.601	10.26
350.971	9.81
351.341	9.96
351.711	10.44
352.081	10.2
352.45	10.02
352.82	10.55
353.19	10
353.56	10.12
353.929	10.17
354.299	9.76
354.669	10.26
355.038	10.14
355.408	10.36
355.777	10.47
356.147	10.15
356.516	10.68
356.885	10.51
357.254	10.54
357.624	10.59
357.993	10.69
358.362	10.57
358.731	10.94
359.1	10.43
359.469	10.82
359.838	10.56
360.207	10.69
360.576	10.68
360.945	10.59
361.314	11.12
361.682	11.12
362.051	11.03
362.42	11.26
362.788	10.84
363.157	11.32
363.525	11.26
363.894	11.09
364.262	10.96
364.631	11.11
364.999	11.55
365.367	11.36
365.735	11.53
366.104	11.56
366.472	11.55
366.84	11.64
367.208	11.84
367.576	11.55
367.944	11.91
368.312	11.78
368.68	12.08
369.048	11.63
369.416	11.89
369.783	11.75
370.151	12.05
370.519	11.99
370.886	12.36
371.254	12.29
371.621	12.3
371.989	12.16
372.356	12.3
372.724	12.17
373.091	12.27
373.458	12.35
373.826	12.71
374.193	12.17
374.56	12.49
374.927	12.67
375.294	12.34
375.661	13.02
376.028	12.78
376.395	13.01
376.762	13.09
377.129	12.76
377.496	12.96
377.863	12.85
378.229	13.03
378.596	12.92
378.963	13.12
379.329	13.08
379.696	12.96
380.062	13.22
380.429	13.33
380.795	13.48
381.161	13.05
381.528	13.22
381.894	13.24
382.26	13.25
382.626	13.33
382.993	13.33
383.359	13.58
383.725	13.59
384.091	13.49
384.457	13.55
384.823	13.7
385.188	13.85
385.554	13.79
385.92	13.79
386.286	14.03
386.651	13.94
387.017	14
387.383	13.78
387.748	13.9
388.114	13.85
388.479	14.16
388.845	14.27
389.21	14.15
389.575	14.02
389.94	14.35
390.306	14.38
390.671	14.49
391.036	14.77
391.401	14.54
391.766	14.41
392.131	14.49
392.496	14.56
392.861	14.66
393.226	14.48
393.591	14.38
393.956	14.38
394.32	14.73
394.685	14.83
395.05	14.61
395.414	14.62
395.779	14.79
396.143	14.72
396.508	14.78
396.872	15.04
397.236	14.9
397.601	14.99
397.965	15.11
398.329	15.4
398.694	15.17
399.058	15.55
399.422	15.39
399.786	15.08
400.15	15.22
400.514	15.46
400.878	15.69
401.242	15.25
401.605	15.41
401.969	15.39
402.333	15.77
402.697	15.33
403.06	15.55
403.424	15.87
403.787	15.62
404.151	16.02
404.514	15.56
404.878	15.75
405.241	15.95
405.604	15.77
405.968	15.73
406.331	15.78
406.694	16.26
407.057	16.12
407.42	15.98
407.783	15.92
408.146	15.99
408.509	16.21
408.872	16.32
409.235	16.49
409.598	16.37
409.961	16.4
410.323	16.43
410.686	16.49
411.049	16.45
411.411	16.78
411.774	16.65
412.136	16.7
412.499	16.72
412.861	16.77
413.223	17
413.586	16.82
413.948	16.72
414.31	16.96
414.672	17.02
415.035	16.85
415.397	17.13
415.759	17.24
416.121	17.08
416.483	17.33
416.845	17.07
417.206	17.08
417.568	17.39
417.93	17.07
418.292	17.03
418.653	17.37
419.015	17.18
419.377	17.22
419.738	17.29
420.1	17.09
420.461	17.3
420.822	17.28
421.184	17.34
421.545	17.42
421.906	17.33
422.267	17.39
422.629	17.25
422.99	17.21
423.351	17.23
423.712	17.44
424.073	17.45
424.434	17.47
424.795	17.75
425.155	17.47
425.516	17.46
425.877	17.52
426.238	17.54
426.598	17.58
426.959	17.7
427.32	17.92
427.68	17.84
428.041	18.09
428.401	18.07
428.761	18.07
429.122	18.52
429.482	18.62
429.842	18.49
430.202	18.38
430.563	18.63
430.923	18.59
431.283	18.32
431.643	18.72
432.003	18.46
432.363	18.74
432.722	18.66
433.082	18.85
433.442	18.82
433.802	18.93
434.161	18.86
434.521	18.86
434.881	18.83
435.24	18.76
435.6	18.8
435.959	18.88
436.319	18.94
436.678	19.08
437.037	19.19
437.396	19.33
437.756	19.37
438.115	19.34
438.474	19.16
438.833	19.52
439.192	19.44
439.551	19.24
439.91	19.13
440.269	19.46
440.628	19.47
440.987	19.33
441.345	19.46
441.704	19.45
442.063	19.36
442.421	19.51
442.78	19.51
443.138	19.58
443.497	19.77
443.855	19.67
444.214	19.73
444.572	19.94
444.93	19.95
445.288	20.03
445.647	20.04
446.005	19.81
446.363	19.83
446.721	19.96
447.079	20.07
447.437	19.83
447.795	19.83
448.153	19.71
448.51	19.89
448.868	19.95
449.226	19.98
449.584	20.26
449.941	20.18
450.299	20.39
450.656	20.25
451.014	20.56
451.371	20.67
451.729	20.73
452.086	20.63
452.443	20.89
452.801	20.93
453.158	20.91
453.515	21.06
453.872	20.95
454.229	21.21
454.586	20.75
454.943	20.89
455.3	21
455.657	21.21
456.014	21.21
456.371	21.41
456.727	21.25
457.084	21.3
457.441	21.33
457.797	21.39
458.154	21.41
458.51	21.28
458.867	21.68
459.223	21.73
459.58	21.66
459.936	21.42
460.292	21.57
460.648	21.55
461.005	21.4
461.361	21.29
461.717	21.22
462.073	21.29
462.429	21.44
462.785	21.51
463.141	21.56
463.496	21.68
463.852	22.11
464.208	22.12
464.564	22.37
464.919	22.26
465.275	22.27
465.631	22.42
465.986	22.16
466.342	22.28
466.697	22.41
467.052	22.33
467.408	22.38
467.763	22.45
468.118	22.43
468.473	22.65
468.829	22.78
469.184	22.54
469.539	22.6
469.894	22.58
470.249	22.6
470.603	22.95
470.958	22.84
471.313	23.23
471.668	23.11
472.023	22.76
472.377	22.84
472.732	22.9
473.086	23.16
473.441	23.13
473.795	23.19
474.15	23.13
474.504	23.13
474.859	23.21
475.213	23.11
475.567	23.34
475.921	23.43
476.275	23.4
476.63	23.46
476.984	23.62
477.338	23.58
477.692	23.6
478.045	23.56
478.399	23.54
478.753	23.51
479.107	23.72
479.461	23.63
479.814	23.47
480.168	23.68
480.521	23.67
480.875	23.77
481.228	23.87
481.582	23.83
481.935	23.94
482.289	23.88
482.642	23.99
482.995	24
483.348	23.86
483.701	23.88
484.055	23.75
484.408	23.63
484.761	23.47
485.114	23.12
485.466	22.92
485.819	22.88
486.172	23.01
486.525	23.27
486.878	23.48
487.23	23.49
487.583	23.71
487.936	23.81
488.288	23.77
488.641	23.61
488.993	23.58
489.345	23.61
489.698	23.59
490.05	23.62
490.402	23.84
490.754	24.06
491.107	24.16
491.459	24.31
491.811	24.52
492.163	24.5
492.515	24.46
492.866	24.19
493.218	24.01
493.57	23.98
493.922	24.16
494.274	24.39
494.625	24.71
494.977	24.82
495.328	25.07
495.68	25.26
496.031	25.55
496.383	25.33
496.734	25.5
497.086	25.44
497.437	25.54
497.788	25.67
498.139	25.4
498.49	25.55
498.842	25.41
499.193	25.66
499.544	25.42
499.894	25.6
500.245	25.79
500.596	25.91
500.947	25.67
501.298	25.94
501.648	26.1
501.999	25.95
502.35	26.08
502.7	26.22
503.051	26.21
503.401	26.4
503.752	26.44
504.102	26.29
504.452	26.52
504.803	26.37
505.153	26.57
505.503	26.6
505.853	26.65
506.203	26.58
506.553	26.52
506.903	26.68
507.253	26.78
507.603	26.63
507.953	26.82
508.303	26.84
508.652	26.64
509.002	26.86
509.352	26.88
509.701	26.8
510.051	26.88
510.4	26.8
510.75	26.84
511.099	26.87
511.449	26.98
511.798	26.89
512.147	27.14
512.496	27.17
512.846	27.07
513.195	27.26
513.544	27.22
513.893	27.06
514.242	27.2
514.591	27.22
514.939	27.37
515.288	27.51
515.637	27.54
515.986	27.56
516.334	27.63
516.683	27.7
517.032	27.79
517.38	27.79
517.729	27.88
518.077	27.95
518.426	27.95
518.774	28.09
519.122	27.73
519.47	27.72
519.819	27.71
520.167	27.38
520.515	27.27
520.863	27.55
521.211	27.61
521.559	27.72
521.907	27.82
522.255	27.94
522.602	28.26
522.95	28.26
523.298	28.28
523.645	28.49
523.993	28.34
524.341	28.71
524.688	28.49
525.036	28.7
525.383	28.52
525.73	28.52
526.078	28.55
526.425	28.44
526.772	28.48
527.119	28.34
527.466	28.03
527.814	28.11
528.161	28.16
528.508	28.36
528.854	28.36
529.201	28.41
529.548	28.28
529.895	27.94
530.242	27.55
530.588	27.77
530.935	27.95
531.282	28.14
531.628	28.25
531.975	28.33
532.321	28.5
532.667	28.59
533.014	28.93
533.36	28.78
533.706	28.83
534.052	29
534.399	28.83
534.745	28.64
535.091	28.44
535.437	28.64
535.783	28.74
536.129	29.03
536.474	29.16
536.82	29.24
537.166	29.48
537.512	29.6
537.857	29.49
538.203	29.33
538.549	29.25
538.894	29.37
539.239	29.62
539.585	29.66
539.93	29.93
540.276	29.99
540.621	30.11
540.966	30.09
541.311	30.19
541.656	30.2
542.001	30.14
542.346	29.9
542.691	29.49
543.036	29.22
543.381	29.23
543.726	29.46
544.071	29.59
544.415	29.73
544.76	29.82
545.105	29.91
545.449	30.1
545.794	30.31
546.138	30.28
546.483	30.47
546.827	30.48
547.171	30.58
547.516	30.45
547.86	30.69
548.204	30.7
548.548	30.65
548.892	30.63
549.236	30.88
549.58	30.99
549.924	30.95
550.268	31.22
550.612	31.19
550.956	31.46
551.3	31.44
551.643	31.63
551.987	31.69
552.33	31.69
552.674	31.55
553.017	31.54
553.361	31.71
553.704	31.86
554.048	31.7
554.391	31.57
554.734	31.52
555.077	31.96
555.42	31.73
555.764	32.1
556.107	31.94
556.45	31.88
556.793	32.15
557.135	32.18
557.478	32.38
557.821	32.44
558.164	32.47
558.507	32.37
558.849	32.23
559.192	32.36
559.534	32.56
559.877	32.41
560.219	32.56
560.562	32.41
560.904	32.67
561.246	32.58
561.589	32.66
561.931	32.66
562.273	32.63
562.615	32.78
562.957	32.88
563.299	32.82
563.641	32.83
563.983	32.98
564.325	32.93
564.667	32.93
565.008	32.89
565.35	32.88
565.692	33.16
566.033	33
566.375	33.2
566.716	33.04
567.058	33.42
567.399	33.07
567.741	32.96
568.082	33.09
568.423	32.96
568.764	33.12
569.105	33.12
569.447	33.27
569.788	33.35
570.129	33.36
570.47	33.39
570.811	33.69
571.151	33.72
571.492	33.47
571.833	33.76
572.174	33.58
572.514	33.74
572.855	33.56
573.195	33.62
573.536	33.32
573.876	33.62
574.217	33.89
574.557	33.54
574.898	33.94
575.238	34.23
575.578	33.76
575.918	34.05
576.258	33.81
576.598	34.03
576.938	34.04
577.278	34.01
577.618	34.11
577.958	34.42
578.298	34.16
578.638	34.06
578.977	34.25
579.317	34.38
579.657	34.53
579.996	34.51
580.336	34.42
580.675	34.68
581.014	34.77
581.354	34.88
581.693	34.8
582.032	34.67
582.372	35.15
582.711	34.94
583.05	35.14
583.389	35.13
583.728	35.06
584.067	34.95
584.406	35.35
584.745	35.16
585.083	35.02
585.422	35.52
585.761	35.56
586.1	35.16
586.438	35.61
586.777	35.34
587.115	35.45
587.454	35.65
587.792	35.27
588.13	35.38
588.469	35.81
588.807	35.69
589.145	35.67
589.483	35.97
589.821	35.89
590.159	35.67
590.497	35.79
590.835	35.77
591.173	35.72
591.511	35.83
591.849	35.89
592.187	35.77
592.524	35.79
592.862	35.93
593.2	36.06
593.537	35.93
593.875	36.61
594.212	36.1
594.55	36.08
594.887	36.46
595.224	36.22
595.561	36.43
595.899	35.8
596.236	36.27
596.573	36.54
596.91	36.14
597.247	36.31
597.584	36.61
597.921	36.24
598.258	35.99
598.594	36.17
598.931	35.98
599.268	35.97
599.604	36.08
599.941	36.31
600.277	36.29
600.614	36.66
600.95	36.75
601.287	36.71
601.623	36.87
601.959	36.77
602.296	37.13
602.632	36.83
602.968	37.2
603.304	36.96
603.64	37.09
603.976	36.58
604.312	36.93
604.648	37.07
604.984	36.54
605.319	36.79
605.655	36.85
605.991	36.63
606.326	36.93
606.662	36.42
606.998	36.66
607.333	36.71
607.668	36.8
608.004	37.15
608.339	37.16
608.674	37.36
609.01	37.32
609.345	37.55
609.68	37.73
610.015	37.37
610.35	37.37
610.685	37.53
611.02	37.37
611.355	37.38
611.689	37.19
612.024	37.3
612.359	37.36
612.694	37.54
613.028	37.89
613.363	37.73
613.697	38.06
614.032	38.1
614.366	38.15
614.7	38.09
615.035	37.75
615.369	38.2
615.703	38.34
616.037	38.05
616.371	37.98
616.705	37.99
617.039	38
617.373	38.37
617.707	37.95
618.041	38.21
618.375	38.27
618.709	38.55
619.042	38.63
619.376	38.18
619.71	38.31
620.043	38.46
620.377	38.21
620.71	38.58
621.043	39.17
621.377	38.61
621.71	39.11
622.043	38.75
622.376	39.06
622.709	39.02
623.043	38.61
623.376	39.17
623.709	39.08
624.041	38.88
624.374	38.68
624.707	38.83
625.04	38.9
625.373	39.16
625.705	39.39
626.038	39.39
626.37	39.4
626.703	39.16
627.035	39.02
627.368	39.44
627.7	38.81
628.032	39.12
628.365	38.78
628.697	39.09
629.029	38.98
629.361	38.89
629.693	38.99
630.025	39.2
630.357	39.61
630.689	39.24
631.021	39.37
631.353	39.41
631.684	39.74
632.016	39.33
632.348	39.51
632.679	39.66
633.011	39.94
633.342	39.72
633.674	39.6
634.005	40.03
634.336	39.73
634.668	40.09
634.999	39.77
635.33	39.87
635.661	39.76
635.992	39.6
636.323	40.12
636.654	39.54
636.985	39.73
637.316	40.03
637.647	39.82
637.977	39.98
638.308	40.1
638.639	39.93
638.969	40.33
639.3	39.93
639.63	40.39
639.961	40.53
640.291	40.48
640.622	40.62
640.952	40.24
641.282	40.42
641.612	40.39
641.943	40.43
642.273	40.7
642.603	40.85
642.933	40.67
643.263	40.42
643.592	40.83
643.922	40.77
644.252	40.8
644.582	40.26
644.911	40.77
645.241	41.01
645.571	40.74
645.9	40.31
646.23	41.51
646.559	41.26
646.888	40.56
647.218	40.96
647.547	40.69
647.876	40.82
648.205	41.28
648.534	41.18
648.863	40.92
649.192	41.14
649.521	41.77
649.85	41.17
650.179	41.18
650.508	41.27
650.837	41.27
651.165	41.14
651.494	41.05
651.822	41.56
652.151	41.48
652.479	41.23
652.808	41.58
653.136	41.53
653.465	41.74
653.793	41.29
654.121	40.79
654.449	41
654.777	41.63
655.105	41.37
655.433	41.57
655.761	41.8
656.089	42.07
656.417	41.58
656.745	41.81
657.073	41.61
657.4	42.35
657.728	41.68
658.056	42.48
658.383	41.55
658.711	41.78
659.038	41.27
659.365	41.56
659.693	41.44
660.02	41.91
660.347	42.52
660.674	41.99
661.001	41.8
661.329	41.75
661.656	41.97
661.982	41.87
662.309	42.12
662.636	41.99
662.963	42.13
663.29	42.65
663.616	41.74
663.943	42.25
664.27	42.62
664.596	42.48
664.923	42.78
665.249	41.65
665.576	42.2
665.902	42.44
666.228	42.45
666.554	42.22
666.881	42.3
667.207	42.79
667.533	42.79
667.859	42.6
668.185	42.58
668.511	43.31
668.837	42.31
669.162	42.85
669.488	42.74
669.814	43.17
670.139	42.34
670.465	42.3
670.791	42.64
