Data from 446_crown_Reflection__0__20.txt Node

Date: Tue Dec 12 18:22:22 CST 2023
User: ToomeyLab
Spectrometer: FLMS14357
Trigger mode: 0
Integration Time (sec): 1.000000E-2
Scans to average: 100
Electric dark correction enabled: true
Nonlinearity correction enabled: false
Boxcar width: 0
XAxis mode: Wavelengths
Number of Pixels in Spectrum: 2048
>>>>>Begin Spectral Data<<<<<
189.047	52.91
189.435	52.91
189.823	52.91
190.211	-1610
190.599	1148.54
190.987	77.07
191.375	-234.93
191.763	-1913.16
192.151	-1340.66
192.538	-26.5
192.926	440.96
193.314	1.51
193.702	-85.13
194.089	72.57
194.477	62.69
194.864	41.64
195.252	93.35
195.639	-204.74
196.027	22.16
196.414	125.95
196.801	54.55
197.189	-31.82
197.576	-183.66
197.963	45.52
198.351	13.5
198.738	34.08
199.125	24.27
199.512	7.52
199.899	39.57
200.286	3.64
200.673	7.28
201.06	18.69
201.447	-48.64
201.833	-2.63
202.22	5.81
202.607	-83.29
202.994	40.56
203.38	11.43
203.767	-1.22
204.154	6.68
204.54	22.58
204.927	7.15
205.313	26.85
205.699	41.02
206.086	37.07
206.472	31.29
206.858	35.02
207.245	3.88
207.631	5.64
208.017	28.09
208.403	-13.51
208.789	39.13
209.175	-9.96
209.561	11.17
209.947	10.35
210.333	26.97
210.719	3.91
211.105	11.4
211.491	22.29
211.876	25.52
212.262	19.13
212.648	-20.54
213.034	11.48
213.419	3.44
213.805	7.16
214.19	34.7
214.576	21.5
214.961	9.96
215.346	5.88
215.732	19.47
216.117	13.61
216.502	3.62
216.888	7.67
217.273	-34.19
217.658	-11.87
218.043	-5.77
218.428	16.05
218.813	9.93
219.198	-19.27
219.583	5.62
219.968	-2.49
220.353	13.48
220.738	22.43
221.122	7.51
221.507	19.89
221.892	4.29
222.276	10.41
222.661	11.12
223.046	-2.39
223.43	0.62
223.815	2.85
224.199	14.64
224.583	10.95
224.968	6.75
225.352	-1.75
225.736	15.18
226.121	5.2
226.505	5.07
226.889	0.28
227.273	8.41
227.657	10.32
228.041	3.25
228.425	4.14
228.809	3.01
229.193	6.24
229.577	5.28
229.961	4.75
230.344	6.27
230.728	6.63
231.112	5.29
231.495	5.41
231.879	6.8
232.263	5.6
232.646	4.43
233.03	5.19
233.413	4.65
233.797	5.49
234.18	3.17
234.563	3.62
234.946	5.06
235.33	7.37
235.713	6.36
236.096	3.97
236.479	5.05
236.862	5.7
237.245	6.2
237.628	4.43
238.011	5.2
238.394	5.11
238.777	6.53
239.16	5.62
239.543	6.95
239.925	6.83
240.308	5.51
240.691	5.55
241.073	7
241.456	5.23
241.838	4.97
242.221	6.55
242.603	5.24
242.986	4.27
243.368	4.7
243.75	4.96
244.133	5.12
244.515	5.19
244.897	5.16
245.279	5.94
245.661	4.35
246.043	5.39
246.425	6.32
246.807	4.81
247.189	5.46
247.571	5.22
247.953	4.59
248.335	4.3
248.717	4.7
249.098	4.91
249.48	4.68
249.862	4.62
250.243	5.07
250.625	5.25
251.006	5.39
251.388	5.34
251.769	5.03
252.151	4.37
252.532	4.28
252.913	5.68
253.295	5.16
253.676	4.04
254.057	4.16
254.438	4.61
254.819	4.81
255.2	5.14
255.581	4.4
255.962	3.76
256.343	5.23
256.724	5.52
257.105	5.62
257.486	4.8
257.867	5.15
258.247	4.26
258.628	5.25
259.009	4.42
259.389	4.66
259.77	4.93
260.15	5.32
260.531	4.39
260.911	5.07
261.292	4.1
261.672	4.3
262.052	4.39
262.432	4.5
262.813	4.46
263.193	4.83
263.573	4.42
263.953	4.71
264.333	5.5
264.713	4.44
265.093	4.67
265.473	4.78
265.853	4.18
266.233	4.47
266.612	3.73
266.992	4.59
267.372	4.8
267.752	5.6
268.131	4.04
268.511	4.22
268.89	3.67
269.27	4.02
269.649	4.53
270.029	4.24
270.408	4.32
270.787	3.89
271.167	4.38
271.546	3.72
271.925	4.74
272.304	4.31
272.683	4
273.062	4.21
273.441	4.3
273.82	4.04
274.199	4.3
274.578	4.03
274.957	4.13
275.336	4.38
275.715	4.61
276.093	3.52
276.472	4.82
276.851	4.07
277.229	3.93
277.608	3.78
277.986	3.96
278.365	4.75
278.743	4.37
279.122	4.7
279.5	3.33
279.878	2.93
280.257	4.28
280.635	4.37
281.013	4.29
281.391	4.31
281.769	3.99
282.147	4.06
282.525	3.56
282.903	3.92
283.281	3.96
283.659	3.8
284.037	4
284.415	3.84
284.792	3.63
285.17	3.6
285.548	3.85
285.925	3.81
286.303	3.99
286.68	3.89
287.058	3.84
287.435	4.02
287.813	3.67
288.19	3.99
288.567	3.85
288.945	3.92
289.322	3.17
289.699	4
290.076	3.9
290.453	4.33
290.83	3.9
291.207	4.24
291.584	4.01
291.961	4.07
292.338	4.01
292.715	3.41
293.092	3.78
293.469	3.48
293.845	3.46
294.222	4.11
294.599	4.07
294.975	3.15
295.352	4.16
295.728	4.03
296.105	3.7
296.481	4.25
296.858	3.66
297.234	4
297.61	3.85
297.986	3.87
298.363	3.71
298.739	3.71
299.115	3.25
299.491	3.45
299.867	3.57
300.243	3.52
300.619	3.61
300.995	4.09
301.371	3.72
301.746	3.76
302.122	4.27
302.498	3.77
302.874	3.69
303.249	3.93
303.625	3.11
304	3.54
304.376	3.69
304.751	4.24
305.127	3.46
305.502	3.75
305.878	3.53
306.253	3.63
306.628	3.86
307.003	3.27
307.378	3.3
307.754	4.26
308.129	3.83
308.504	4.2
308.879	3.5
309.254	3.88
309.629	3.64
310.003	3.77
310.378	3.62
310.753	4.2
311.128	3.85
311.502	3.05
311.877	3.08
312.252	3.12
312.626	3.18
313.001	2.94
313.375	3.39
313.75	3.51
314.124	3.66
314.498	3.35
314.873	3.33
315.247	3.63
315.621	3.12
315.995	3.89
316.369	3.92
316.743	3.5
317.117	2.99
317.491	3.46
317.865	3.41
318.239	3.38
318.613	3.97
318.987	3.6
319.361	2.99
319.734	3.82
320.108	4.57
320.482	3.12
320.855	3.2
321.229	3.67
321.602	3.57
321.976	3.4
322.349	3.79
322.723	3.1
323.096	3.64
323.469	3.25
323.843	4.32
324.216	3.85
324.589	3.28
324.962	3.79
325.335	3.75
325.708	3.69
326.081	3.42
326.454	3.27
326.827	4.15
327.2	3.36
327.573	2.88
327.945	3.46
328.318	3.92
328.691	3.12
329.063	3.27
329.436	3.45
329.809	3.35
330.181	2.74
330.553	3.11
330.926	3.74
331.298	3.1
331.671	3.87
332.043	3.56
332.415	3.13
332.787	3.22
333.159	3.53
333.532	3.67
333.904	3.51
334.276	3.94
334.648	2.81
335.02	3.06
335.391	3.01
335.763	3.01
336.135	3.58
336.507	4.04
336.879	3.52
337.25	3.44
337.622	3.48
337.993	2.78
338.365	3.14
338.736	3.23
339.108	3.05
339.479	3.62
339.851	2.92
340.222	2.54
340.593	2.95
340.964	3.32
341.336	3.48
341.707	3.02
342.078	2.86
342.449	3.27
342.82	3.22
343.191	2.58
343.562	3.55
343.933	3.34
344.303	3.57
344.674	3.37
345.045	3.56
345.416	3.54
345.786	2.88
346.157	3.18
346.527	3.58
346.898	3.07
347.268	3.48
347.639	3.55
348.009	3.35
348.38	3.06
348.75	3.89
349.12	3.49
349.49	3.1
349.861	3.8
350.231	3.49
350.601	3.47
350.971	3.51
351.341	3.41
351.711	3.55
352.081	3.81
352.45	3.2
352.82	3.37
353.19	3.37
353.56	3.24
353.929	3.28
354.299	3.32
354.669	3.12
355.038	2.91
355.408	3.32
355.777	3.52
356.147	3.12
356.516	3.72
356.885	3.43
357.254	3.44
357.624	3.35
357.993	3.62
358.362	3.21
358.731	3.64
359.1	3.02
359.469	3.55
359.838	3.23
360.207	3.12
360.576	3.72
360.945	3.11
361.314	3.74
361.682	3.17
362.051	3.25
362.42	3.59
362.788	3.52
363.157	3.64
363.525	3.31
363.894	3.29
364.262	3.35
364.631	3.28
364.999	3.31
365.367	3.66
365.735	3.37
366.104	3.42
366.472	3.28
366.84	3.44
367.208	3.53
367.576	3.45
367.944	3.55
368.312	3.64
368.68	3.81
369.048	3.86
369.416	3.39
369.783	3.55
370.151	3.46
370.519	3.65
370.886	3.29
371.254	3.66
371.621	3.72
371.989	3.4
372.356	3.4
372.724	3.52
373.091	3.58
373.458	3.53
373.826	3.44
374.193	3.2
374.56	3.69
374.927	3.44
375.294	3.62
375.661	3.73
376.028	3.73
376.395	3.97
376.762	4.21
377.129	3.47
377.496	3.69
377.863	3.61
378.229	3.53
378.596	3.56
378.963	3.95
379.329	3.59
379.696	3.39
380.062	3.77
380.429	3.73
380.795	3.81
381.161	3.64
381.528	3.9
381.894	3.94
382.26	3.59
382.626	3.53
382.993	3.68
383.359	3.62
383.725	3.55
384.091	3.54
384.457	3.76
384.823	3.89
385.188	3.48
385.554	3.87
385.92	3.73
386.286	3.74
386.651	3.9
387.017	3.96
387.383	3.79
387.748	3.8
388.114	3.95
388.479	3.85
388.845	3.82
389.21	3.98
389.575	3.6
389.94	3.84
390.306	3.95
390.671	3.71
391.036	3.92
391.401	3.79
391.766	3.97
392.131	3.88
392.496	3.75
392.861	3.61
393.226	3.96
393.591	3.54
393.956	3.93
394.32	4.05
394.685	3.92
395.05	3.6
395.414	3.76
395.779	3.82
396.143	3.68
396.508	3.64
396.872	3.65
397.236	3.92
397.601	3.81
397.965	3.81
398.329	3.83
398.694	3.63
399.058	4.14
399.422	3.72
399.786	3.79
400.15	3.78
400.514	4.03
400.878	3.66
401.242	4.13
401.605	4.18
401.969	3.87
402.333	3.98
402.697	3.78
403.06	3.58
403.424	4.03
403.787	3.69
404.151	4.1
404.514	3.33
404.878	4.05
405.241	3.98
405.604	3.8
405.968	3.75
406.331	3.96
406.694	4.27
407.057	3.76
407.42	3.63
407.783	3.87
408.146	3.96
408.509	3.93
408.872	4.12
409.235	3.95
409.598	3.86
409.961	3.98
410.323	4.11
410.686	3.99
411.049	4.08
411.411	4.08
411.774	4.03
412.136	4.1
412.499	4.09
412.861	4.1
413.223	4.33
413.586	3.9
413.948	4.08
414.31	4.17
414.672	4.3
415.035	3.99
415.397	4.16
415.759	3.97
416.121	4.17
416.483	4.25
416.845	4.09
417.206	4.17
417.568	4.1
417.93	4.15
418.292	4.03
418.653	4.04
419.015	3.89
419.377	3.99
419.738	4.02
420.1	3.93
420.461	4
420.822	3.87
421.184	4
421.545	4.15
421.906	3.94
422.267	3.97
422.629	3.98
422.99	3.85
423.351	3.96
423.712	3.81
424.073	3.96
424.434	3.88
424.795	4.06
425.155	3.82
425.516	3.87
425.877	3.86
426.238	3.95
426.598	3.93
426.959	4
427.32	4.01
427.68	4.07
428.041	3.98
428.401	4.21
428.761	3.96
429.122	4.15
429.482	4.21
429.842	4.17
430.202	4.06
430.563	4.24
430.923	4.07
431.283	4.12
431.643	4.28
432.003	4.07
432.363	4.1
432.722	3.94
433.082	4.11
433.442	4.11
433.802	4.19
434.161	4.21
434.521	4.18
434.881	4.18
435.24	4.13
435.6	4.1
435.959	4.06
436.319	4.2
436.678	4.36
437.037	4.07
437.396	4.08
437.756	4.14
438.115	4.3
438.474	4.2
438.833	4.29
439.192	4.45
439.551	4.18
439.91	4.09
440.269	4.13
440.628	4.06
440.987	3.9
441.345	4.18
441.704	4.02
442.063	4.2
442.421	4.18
442.78	4.1
443.138	4.01
443.497	4.14
443.855	4.15
444.214	4.24
444.572	4.25
444.93	4.2
445.288	3.95
445.647	4.24
446.005	4.13
446.363	4.04
446.721	4.16
447.079	4.19
447.437	4.08
447.795	4.12
448.153	4.15
448.51	4.12
448.868	4.14
449.226	4.18
449.584	4.19
449.941	4.14
450.299	4.26
450.656	4.23
451.014	4.23
451.371	4.13
451.729	4.38
452.086	4.18
452.443	4.31
452.801	4.28
453.158	4.24
453.515	4.36
453.872	4.34
454.229	4.32
454.586	4.23
454.943	4.19
455.3	4.24
455.657	4.38
456.014	4.37
456.371	4.34
456.727	4.36
457.084	4.42
457.441	4.25
457.797	4.17
458.154	4.42
458.51	4.25
458.867	4.33
459.223	4.36
459.58	4.2
459.936	4.21
460.292	4.2
460.648	4.29
461.005	4.22
461.361	4.26
461.717	4.28
462.073	4.21
462.429	4.21
462.785	4.25
463.141	4.28
463.496	4.23
463.852	4.5
464.208	4.38
464.564	4.38
464.919	4.31
465.275	4.27
465.631	4.48
465.986	4.34
466.342	4.35
466.697	4.41
467.052	4.49
467.408	4.32
467.763	4.43
468.118	4.52
468.473	4.46
468.829	4.36
469.184	4.15
469.539	4.47
469.894	4.39
470.249	4.5
470.603	4.47
470.958	4.42
471.313	4.48
471.668	4.39
472.023	4.38
472.377	4.28
472.732	4.48
473.086	4.32
473.441	4.47
473.795	4.48
474.15	4.45
474.504	4.31
474.859	4.36
475.213	4.21
475.567	4.34
475.921	4.31
476.275	4.37
476.63	4.4
476.984	4.41
477.338	4.36
477.692	4.22
478.045	4.34
478.399	4.32
478.753	4.31
479.107	4.47
479.461	4.39
479.814	4.44
480.168	4.3
480.521	4.25
480.875	4.42
481.228	4.5
481.582	4.35
481.935	4.39
482.289	4.43
482.642	4.46
482.995	4.45
483.348	4.35
483.701	4.49
484.055	4.3
484.408	4.26
484.761	4.28
485.114	4.09
485.466	4.08
485.819	4.02
486.172	4.04
486.525	4.18
486.878	4.19
487.23	4.18
487.583	4.19
487.936	4.26
488.288	4.17
488.641	4.21
488.993	4.19
489.345	4.12
489.698	4.12
490.05	4.18
490.402	4.23
490.754	4.25
491.107	4.3
491.459	4.32
491.811	4.36
492.163	4.24
492.515	4.35
492.866	4.19
493.218	4.17
493.57	4.19
493.922	4.21
494.274	4.23
494.625	4.36
494.977	4.41
495.328	4.45
495.68	4.29
496.031	4.37
496.383	4.39
496.734	4.46
497.086	4.38
497.437	4.31
497.788	4.48
498.139	4.28
498.49	4.48
498.842	4.26
499.193	4.47
499.544	4.44
499.894	4.3
500.245	4.49
500.596	4.42
500.947	4.43
501.298	4.6
501.648	4.51
501.999	4.37
502.35	4.37
502.7	4.47
503.051	4.34
503.401	4.42
503.752	4.62
504.102	4.52
504.452	4.54
504.803	4.46
505.153	4.37
505.503	4.52
505.853	4.56
506.203	4.55
506.553	4.52
506.903	4.47
507.253	4.47
507.603	4.37
507.953	4.4
508.303	4.5
508.652	4.41
509.002	4.53
509.352	4.4
509.701	4.48
510.051	4.37
510.4	4.37
510.75	4.41
511.099	4.32
511.449	4.48
511.798	4.47
512.147	4.45
512.496	4.55
512.846	4.37
513.195	4.48
513.544	4.54
513.893	4.36
514.242	4.44
514.591	4.34
514.939	4.37
515.288	4.27
515.637	4.33
515.986	4.49
516.334	4.51
516.683	4.46
517.032	4.49
517.38	4.25
517.729	4.44
518.077	4.38
518.426	4.53
518.774	4.43
519.122	4.38
519.47	4.38
519.819	4.36
520.167	4.32
520.515	4.27
520.863	4.38
521.211	4.23
521.559	4.4
521.907	4.34
522.255	4.44
522.602	4.47
522.95	4.4
523.298	4.36
523.645	4.44
523.993	4.51
524.341	4.48
524.688	4.35
525.036	4.55
525.383	4.46
525.73	4.44
526.078	4.41
526.425	4.36
526.772	4.28
527.119	4.21
527.466	4.33
527.814	4.21
528.161	4.4
528.508	4.37
528.854	4.3
529.201	4.29
529.548	4.23
529.895	4.18
530.242	4.09
530.588	4.09
530.935	4.17
531.282	4.23
531.628	4.27
531.975	4.23
532.321	4.25
532.667	4.14
533.014	4.28
533.36	4.28
533.706	4.29
534.052	4.28
534.399	4.31
534.745	4.32
535.091	4.15
535.437	4.25
535.783	4.19
536.129	4.32
536.474	4.32
536.82	4.33
537.166	4.32
537.512	4.39
537.857	4.38
538.203	4.32
538.549	4.2
538.894	4.33
539.239	4.28
539.585	4.33
539.93	4.36
540.276	4.34
540.621	4.31
540.966	4.34
541.311	4.41
541.656	4.4
542.001	4.37
542.346	4.24
542.691	4.18
543.036	4.1
543.381	4.15
543.726	4.16
544.071	4.13
544.415	4.24
544.76	4.23
545.105	4.23
545.449	4.28
545.794	4.36
546.138	4.16
546.483	4.38
546.827	4.35
547.171	4.26
547.516	4.35
547.86	4.4
548.204	4.33
548.548	4.28
548.892	4.17
549.236	4.33
549.58	4.43
549.924	4.29
550.268	4.4
550.612	4.3
550.956	4.51
551.3	4.45
551.643	4.37
551.987	4.5
552.33	4.54
552.674	4.48
553.017	4.49
553.361	4.48
553.704	4.5
554.048	4.49
554.391	4.37
554.734	4.35
555.077	4.45
555.42	4.26
555.764	4.35
556.107	4.39
556.45	4.22
556.793	4.25
557.135	4.43
557.478	4.3
557.821	4.34
558.164	4.31
558.507	4.4
558.849	4.46
559.192	4.42
559.534	4.38
559.877	4.34
560.219	4.42
560.562	4.35
560.904	4.38
561.246	4.34
561.589	4.28
561.931	4.3
562.273	4.29
562.615	4.44
562.957	4.47
563.299	4.28
563.641	4.29
563.983	4.28
564.325	4.29
564.667	4.32
565.008	4.2
565.35	4.31
565.692	4.35
566.033	4.32
566.375	4.33
566.716	4.26
567.058	4.42
567.399	4.45
567.741	4.39
568.082	4.16
568.423	4.25
568.764	4.38
569.105	4.31
569.447	4.37
569.788	4.35
570.129	4.24
570.47	4.41
570.811	4.5
571.151	4.4
571.492	4.4
571.833	4.34
572.174	4.28
572.514	4.23
572.855	4.5
573.195	4.22
573.536	4.01
573.876	4.27
574.217	4.3
574.557	4.12
574.898	4.25
575.238	4.46
575.578	4.22
575.918	4.37
576.258	4.43
576.598	4.22
576.938	4.19
577.278	4.1
577.618	4.32
577.958	4.28
578.298	4.21
578.638	4.26
578.977	4.27
579.317	4.36
579.657	4.32
579.996	4.38
580.336	4.21
580.675	4.2
581.014	4.25
581.354	4.42
581.693	3.96
582.032	4.3
582.372	4.32
582.711	4.19
583.05	4.22
583.389	4.3
583.728	4.13
584.067	4.38
584.406	4.45
584.745	4.47
585.083	4.05
585.422	4.29
585.761	4.22
586.1	4.27
586.438	4.42
586.777	4.31
587.115	4.29
587.454	4.35
587.792	4.1
588.13	4.48
588.469	4.41
588.807	4.28
589.145	4.44
589.483	4.2
589.821	4.41
590.159	4.42
590.497	4.24
590.835	4.09
591.173	4.02
591.511	4.21
591.849	4.16
592.187	4.23
592.524	4.11
592.862	4.22
593.2	3.95
593.537	4
593.875	4.31
594.212	4.14
594.55	4.33
594.887	4.43
595.224	4.05
595.561	4.54
595.899	4.25
596.236	4.27
596.573	4.1
596.91	4.36
597.247	4.32
597.584	4.27
597.921	4.25
598.258	4.29
598.594	4.27
598.931	4.05
599.268	3.89
599.604	4.1
599.941	4.2
600.277	3.99
600.614	4.25
600.95	4.37
601.287	4.07
601.623	4.09
601.959	4.07
602.296	4.39
602.632	4.07
602.968	4.24
603.304	3.95
603.64	4.5
603.976	4.15
604.312	4.12
604.648	4.04
604.984	4.1
605.319	4.09
605.655	4.07
605.991	4.39
606.326	4.05
606.662	4.21
606.998	3.92
607.333	4.08
607.668	3.92
608.004	4.22
608.339	4.58
608.674	4.03
609.01	4.12
609.345	4.31
609.68	3.89
610.015	3.92
610.35	4.24
610.685	4.24
611.02	4.23
611.355	4.02
611.689	3.96
612.024	4.09
612.359	4.27
612.694	4.06
613.028	4.09
613.363	4.08
613.697	4.22
614.032	4.25
614.366	4.15
614.7	3.97
615.035	4.07
615.369	4.04
615.703	4.19
616.037	4.02
616.371	4
616.705	4.33
617.039	4.38
617.373	4.1
617.707	3.76
618.041	4.01
618.375	3.85
618.709	4.25
619.042	3.92
619.376	3.81
619.71	4.35
620.043	4.11
620.377	4.26
620.71	4.08
621.043	4.31
621.377	3.59
621.71	4.19
622.043	4.19
622.376	4.46
622.709	4.06
623.043	4.04
623.376	4.39
623.709	4.37
624.041	4.22
624.374	3.98
624.707	4.19
625.04	4.04
625.373	4.64
625.705	4.04
626.038	4.03
626.37	4.02
626.703	4.28
627.035	3.92
627.368	4.15
627.7	3.93
628.032	3.81
628.365	3.75
628.697	3.87
629.029	3.99
629.361	3.71
629.693	3.74
630.025	3.73
630.357	4.03
630.689	4.05
631.021	4.15
631.353	4.18
631.684	4.2
632.016	3.97
632.348	3.94
632.679	3.73
633.011	4.3
633.342	4.24
633.674	4.18
634.005	4.17
634.336	4.34
634.668	3.99
634.999	4.33
635.33	3.89
635.661	4.42
635.992	4.03
636.323	4.13
636.654	4.25
636.985	4.14
637.316	3.97
637.647	4.02
637.977	4.15
638.308	4.01
638.639	4.43
638.969	4.29
639.3	4.09
639.63	4.13
639.961	4.32
640.291	3.87
640.622	3.97
640.952	4.33
641.282	4.09
641.612	3.93
641.943	4.22
642.273	4.12
642.603	4.45
642.933	4.3
643.263	3.96
643.592	4.29
643.922	4.55
644.252	4.71
644.582	3.57
644.911	4.09
645.241	3.63
645.571	4.73
645.9	3.62
646.23	3.81
646.559	4.59
646.888	4.17
647.218	4.39
647.547	3.89
647.876	4.37
648.205	3.94
648.534	4.31
648.863	4.19
649.192	4.5
649.521	4.29
649.85	3.99
650.179	4.07
650.508	4.38
650.837	3.85
651.165	3.99
651.494	4.29
651.822	3.92
652.151	4.28
652.479	3.99
652.808	4.05
653.136	4.56
653.465	4.34
653.793	4.05
654.121	4.31
654.449	4.01
654.777	4.61
655.105	4.17
655.433	4.44
655.761	3.99
656.089	4.27
656.417	4.27
656.745	4.19
657.073	3.83
657.4	4.06
657.728	3.59
658.056	4.04
658.383	3.85
658.711	4.48
659.038	4.24
659.365	3.98
659.693	3.88
660.02	3.82
660.347	4.31
660.674	4.46
661.001	4.11
661.329	4.21
661.656	4.03
661.982	3.6
662.309	4.07
662.636	4.19
662.963	4.28
663.29	4.41
663.616	3.91
663.943	4.35
664.27	4.29
664.596	4.44
664.923	4.61
665.249	3.46
665.576	4.1
665.902	4.34
666.228	4.03
666.554	3.97
666.881	3.41
667.207	4.34
667.533	3.82
667.859	3.9
668.185	3.92
668.511	4.38
668.837	4.12
669.162	4.68
669.488	3.97
669.814	4.09
670.139	3.63
670.465	3.8
670.791	4.13
671.116	4.22
671.442	3.94
671.767	4.09
672.092	4.83
672.418	3.88
672.743	4.09
673.068	3.52
673.393	4.42
673.718	4.49
674.043	4.22
674.368	3.55
674.693	3.93
675.018	3.83
675.343	3.79
675.667	3.84
675.992	3.99
676.317	3.72
676.641	3.99
676.966	3.92
677.29	3.95
677.615	4.19
677.939	4.95
678.264	4.68
678.588	4.19
678.912	5.03
679.236	3.97
679.56	4.74
679.885	4.46
680.209	4.46
680.532	4.19
680.856	3.89
681.18	4.13
681.504	4.69
681.828	3.99
682.152	3.81
682.475	4.2
682.799	4.58
683.122	3.86
683.446	3.9
683.769	5.35
684.093	3.52
684.416	4.02
684.739	4.26
685.062	4.31
685.386	4.48
685.709	4.54
686.032	4.2
686.355	4.14
686.678	4.44
687.001	4.43
687.324	4.46
687.646	4.92
687.969	4.61
688.292	4.1
688.614	4.74
688.937	4.03
689.26	4.09
689.582	3.3
689.904	3.95
690.227	4.29
690.549	3.61
690.871	4.35
691.194	3.82
691.516	4.44
691.838	3.82
692.16	4.83
692.482	4.12
692.804	3.81
693.126	4.47
