Data from 446_chest_Reflection__4__19.txt Node

Date: Tue Dec 12 18:20:19 CST 2023
User: ToomeyLab
Spectrometer: FLMS14357
Trigger mode: 0
Integration Time (sec): 1.000000E-2
Scans to average: 100
Electric dark correction enabled: true
Nonlinearity correction enabled: false
Boxcar width: 0
XAxis mode: Wavelengths
Number of Pixels in Spectrum: 2048
>>>>>Begin Spectral Data<<<<<
189.047	8.01
189.435	8.01
189.823	8.01
190.211	467.78
190.599	601.82
190.987	61.91
191.375	-29.22
191.763	-1514.91
192.151	-644.81
192.538	113.04
192.926	168.22
193.314	-5.58
193.702	601.97
194.089	-100.8
194.477	44.68
194.864	42.93
195.252	8.94
195.639	357.03
196.027	139.56
196.414	491.87
196.801	29.7
197.189	-884.27
197.576	-257.51
197.963	9.27
198.351	5.68
198.738	26.89
199.125	-6.72
199.512	41.74
199.899	37.33
200.286	8.72
200.673	-25.08
201.06	14.83
201.447	4.23
201.833	-13.57
202.22	-12.01
202.607	-17.39
202.994	58.94
203.38	16.62
203.767	-9.14
204.154	25.42
204.54	52.21
204.927	2.84
205.313	22.58
205.699	7.04
206.086	5.66
206.472	33.72
206.858	16.73
207.245	12.06
207.631	8.16
208.017	5.84
208.403	-0.55
208.789	33.7
209.175	-17.48
209.561	3.65
209.947	23.96
210.333	19.78
210.719	12.45
211.105	3.14
211.491	29.5
211.876	32.69
212.262	5.56
212.648	-57.23
213.034	-7.77
213.419	21.27
213.805	26.62
214.19	37.62
214.576	7.12
214.961	27.08
215.346	9.97
215.732	23.6
216.117	2.02
216.502	10.3
216.888	17.83
217.273	-15.43
217.658	-7.18
218.043	-10.12
218.428	6.67
218.813	14.05
219.198	-19.32
219.583	20.22
219.968	26.24
220.353	5.89
220.738	4.74
221.122	4.67
221.507	-12.06
221.892	8.98
222.276	5.73
222.661	6.86
223.046	-0.22
223.43	2.8
223.815	0.56
224.199	13.2
224.583	1.8
224.968	6.93
225.352	4.4
225.736	7.77
226.121	-3.39
226.505	12.83
226.889	3.27
227.273	7.65
227.657	8.19
228.041	9.27
228.425	4.92
228.809	4.86
229.193	4.31
229.577	5.38
229.961	4.51
230.344	5.52
230.728	4.58
231.112	5.09
231.495	4.6
231.879	5.28
232.263	3.44
232.646	4.82
233.03	5.1
233.413	5.12
233.797	5.51
234.18	1.44
234.563	2.67
234.946	3.08
235.33	6.12
235.713	4.92
236.096	3.81
236.479	4.9
236.862	5.23
237.245	5.23
237.628	5.33
238.011	5.84
238.394	4.98
238.777	5.53
239.16	4.49
239.543	4.86
239.925	4.86
240.308	3.29
240.691	3.35
241.073	4.75
241.456	5.23
241.838	4.27
242.221	3.86
242.603	5.47
242.986	4.5
243.368	5.4
243.75	4.23
244.133	4.6
244.515	4.74
244.897	5.26
245.279	4.84
245.661	4.77
246.043	4.44
246.425	5.52
246.807	3.89
247.189	4.74
247.571	4.23
247.953	4.14
248.335	4.39
248.717	4.59
249.098	4.58
249.48	4.43
249.862	4.56
250.243	4.28
250.625	4.98
251.006	4.99
251.388	5.28
251.769	3.88
252.151	3.98
252.532	4.03
252.913	5.05
253.295	4.88
253.676	4.18
254.057	3.9
254.438	4.71
254.819	3.92
255.2	4.52
255.581	4.04
255.962	4.25
256.343	3.99
256.724	5.46
257.105	4.87
257.486	4.14
257.867	4.78
258.247	4.47
258.628	4.7
259.009	4.81
259.389	4.58
259.77	4.23
260.15	4.57
260.531	4.28
260.911	4.6
261.292	4.08
261.672	4.16
262.052	4.17
262.432	4.26
262.813	4.32
263.193	4.49
263.573	4.15
263.953	5.38
264.333	5.14
264.713	4.11
265.093	3.66
265.473	4.15
265.853	4.48
266.233	4.21
266.612	4.32
266.992	4.1
267.372	4.18
267.752	4.69
268.131	3.62
268.511	3.65
268.89	3.54
269.27	3.82
269.649	4.54
270.029	3.98
270.408	4.89
270.787	3.8
271.167	3.99
271.546	4.36
271.925	4.74
272.304	3.81
272.683	3.77
273.062	4.23
273.441	4.6
273.82	3.73
274.199	4.19
274.578	4.1
274.957	3.9
275.336	4.47
275.715	4.05
276.093	3.63
276.472	4.58
276.851	4.03
277.229	4.02
277.608	4.21
277.986	4.03
278.365	4.32
278.743	3.81
279.122	4.27
279.5	4
279.878	3.1
280.257	3.73
280.635	3.66
281.013	3.82
281.391	4.27
281.769	4.4
282.147	3.92
282.525	4.13
282.903	3.92
283.281	3.67
283.659	3.98
284.037	4.15
284.415	3.46
284.792	4.21
285.17	3.97
285.548	4.01
285.925	4.18
286.303	3.77
286.68	4.09
287.058	4.07
287.435	3.96
287.813	3.65
288.19	3.92
288.567	3.92
288.945	4.03
289.322	3.04
289.699	4.18
290.076	3.66
290.453	3.96
290.83	3.35
291.207	4.04
291.584	4.07
291.961	3.82
292.338	3.8
292.715	3.68
293.092	3.76
293.469	3.95
293.845	4.35
294.222	3.3
294.599	4.19
294.975	3.39
295.352	3.92
295.728	3.59
296.105	3.91
296.481	4.09
296.858	3.38
297.234	4.15
297.61	3.6
297.986	3.99
298.363	4.07
298.739	3.69
299.115	3.59
299.491	3.82
299.867	3.61
300.243	3.74
300.619	3.99
300.995	3.92
301.371	3.98
301.746	3.43
302.122	4.35
302.498	3.95
302.874	3.97
303.249	4.38
303.625	3.56
304	3.89
304.376	3.78
304.751	3.84
305.127	3.74
305.502	3.69
305.878	4.26
306.253	3.94
306.628	3.86
307.003	4.01
307.378	3.87
307.754	3.63
308.129	3.88
308.504	4.87
308.879	3.39
309.254	3.79
309.629	3.59
310.003	4.23
310.378	4.05
310.753	4.28
311.128	4.04
311.502	3.4
311.877	3.04
312.252	3.1
312.626	3.98
313.001	3.52
313.375	3.56
313.75	3.57
314.124	3.64
314.498	3.74
314.873	3.71
315.247	3.79
315.621	3.64
315.995	3.99
316.369	3.73
316.743	3.14
317.117	3.22
317.491	3.61
317.865	3.67
318.239	3.51
318.613	4.22
318.987	3.76
319.361	3.22
319.734	3.8
320.108	3.98
320.482	4.09
320.855	3.49
321.229	3.4
321.602	4.13
321.976	3.57
322.349	4.19
322.723	3.59
323.096	3.67
323.469	3.28
323.843	4.45
324.216	3.7
324.589	3.84
324.962	3.77
325.335	4.22
325.708	3.57
326.081	3.65
326.454	3.46
326.827	3.87
327.2	4.12
327.573	3.31
327.945	3.32
328.318	4.28
328.691	3.66
329.063	3.72
329.436	3.74
329.809	4.06
330.181	2.85
330.553	3.86
330.926	3.48
331.298	3.5
331.671	3.54
332.043	3.67
332.415	3.65
332.787	3.36
333.159	4.07
333.532	3.89
333.904	3.39
334.276	4.11
334.648	3.41
335.02	2.91
335.391	3.84
335.763	3.57
336.135	3.74
336.507	4.07
336.879	3.72
337.25	3.79
337.622	3.9
337.993	3.44
338.365	3.13
338.736	3.86
339.108	3.63
339.479	3.62
339.851	3.5
340.222	3.03
340.593	3.89
340.964	3.4
341.336	3.94
341.707	3.46
342.078	3.26
342.449	3.33
342.82	3.82
343.191	4.06
343.562	3.44
343.933	3.79
344.303	3.92
344.674	3.85
345.045	3.87
345.416	4.03
345.786	3.46
346.157	3.72
346.527	3.75
346.898	3.4
347.268	3.77
347.639	3.83
348.009	3.62
348.38	3.57
348.75	3.7
349.12	4.15
349.49	3.7
349.861	3.72
350.231	3.82
350.601	4.2
350.971	3.86
351.341	3.63
351.711	4.17
352.081	3.8
352.45	3.56
352.82	3.91
353.19	3.28
353.56	3.58
353.929	3.54
354.299	3.03
354.669	3.57
355.038	3.33
355.408	3.59
355.777	3.76
356.147	3.65
356.516	4.17
356.885	3.83
357.254	3.93
357.624	3.44
357.993	3.84
358.362	3.63
358.731	3.79
359.1	3.38
359.469	3.46
359.838	3.56
360.207	3.77
360.576	3.74
360.945	3.5
361.314	3.78
361.682	3.85
362.051	3.93
362.42	3.67
362.788	3.62
363.157	4.04
363.525	3.94
363.894	3.47
364.262	3.79
364.631	3.44
364.999	3.8
365.367	4.06
365.735	3.82
366.104	3.99
366.472	3.73
366.84	3.86
367.208	3.5
367.576	3.56
367.944	3.93
368.312	3.86
368.68	3.83
369.048	3.96
369.416	3.82
369.783	3.76
370.151	3.77
370.519	3.82
370.886	3.6
371.254	3.77
371.621	3.89
371.989	3.79
372.356	3.77
372.724	3.56
373.091	3.7
373.458	3.64
373.826	3.82
374.193	3.47
374.56	3.82
374.927	4.18
375.294	3.89
375.661	3.85
376.028	4.33
376.395	4.09
376.762	4.25
377.129	3.95
377.496	3.97
377.863	3.98
378.229	3.88
378.596	3.67
378.963	3.84
379.329	3.59
379.696	3.75
380.062	3.73
380.429	3.86
380.795	3.98
381.161	3.98
381.528	3.82
381.894	3.85
382.26	3.67
382.626	3.91
382.993	3.91
383.359	3.89
383.725	4.01
384.091	3.82
384.457	3.74
384.823	3.82
385.188	3.92
385.554	4.02
385.92	3.99
386.286	3.91
386.651	4.12
387.017	4.19
387.383	3.96
387.748	3.98
388.114	4.23
388.479	4.02
388.845	4.01
389.21	3.8
389.575	3.76
389.94	3.67
390.306	4.06
390.671	3.96
391.036	3.98
391.401	3.85
391.766	4.2
392.131	4.23
392.496	3.94
392.861	3.98
393.226	4.03
393.591	4.02
393.956	3.66
394.32	4.06
394.685	3.9
395.05	3.75
395.414	3.92
395.779	3.77
396.143	4.18
396.508	3.67
396.872	4
397.236	3.69
397.601	4.02
397.965	4.02
398.329	4.06
398.694	3.87
399.058	4.23
399.422	3.84
399.786	3.95
400.15	3.76
400.514	4.12
400.878	4.05
401.242	3.93
401.605	3.9
401.969	3.83
402.333	4.04
402.697	3.85
403.06	3.94
403.424	4.1
403.787	3.74
404.151	4.04
404.514	3.76
404.878	4.02
405.241	4.13
405.604	3.87
405.968	4.12
406.331	4.04
406.694	4.17
407.057	3.82
407.42	3.84
407.783	3.96
408.146	3.9
408.509	3.91
408.872	3.99
409.235	4.18
409.598	4.03
409.961	4.11
410.323	4.16
410.686	4.04
411.049	4.09
411.411	4.11
411.774	4.2
412.136	4.05
412.499	4.16
412.861	4.29
413.223	4.25
413.586	4.01
413.948	3.96
414.31	4.27
414.672	4.27
415.035	4.1
415.397	4.03
415.759	4.19
416.121	4.09
416.483	4.12
416.845	4.02
417.206	4.05
417.568	3.98
417.93	4.11
418.292	3.94
418.653	4.05
419.015	3.92
419.377	4.12
419.738	3.99
420.1	4
420.461	4.06
420.822	4.05
421.184	4.11
421.545	4.21
421.906	3.93
422.267	4.02
422.629	3.96
422.99	3.97
423.351	3.9
423.712	3.89
424.073	3.95
424.434	4
424.795	4.16
425.155	3.92
425.516	3.95
425.877	3.95
426.238	3.93
426.598	3.95
426.959	4.01
427.32	3.93
427.68	4
428.041	4.08
428.401	4.16
428.761	4.08
429.122	4.04
429.482	4.2
429.842	4.16
430.202	4.05
430.563	4.11
430.923	4.1
431.283	4.05
431.643	4.3
432.003	3.91
432.363	4.12
432.722	4.1
433.082	4.13
433.442	3.99
433.802	4.28
434.161	4.28
434.521	4.21
434.881	4.13
435.24	4.11
435.6	4.06
435.959	4.24
436.319	4.05
436.678	4.32
437.037	4.28
437.396	3.99
437.756	4.1
438.115	4.2
438.474	4.15
438.833	4.22
439.192	4.27
439.551	4.18
439.91	4.21
440.269	4.15
440.628	3.98
440.987	4.02
441.345	4.21
441.704	4
442.063	4.06
442.421	4.21
442.78	4.1
443.138	4.1
443.497	4.12
443.855	4.04
444.214	4.16
444.572	4.13
444.93	4.24
445.288	4.01
445.647	4.15
446.005	4.15
446.363	4.09
446.721	4.18
447.079	4.2
447.437	3.97
447.795	4.12
448.153	4.02
448.51	4.09
448.868	4.04
449.226	4.2
449.584	4.09
449.941	4.08
450.299	4.22
450.656	4.06
451.014	4.19
451.371	4.17
451.729	4.3
452.086	4.06
452.443	4.24
452.801	4.32
453.158	4.21
453.515	4.18
453.872	4.17
454.229	4.22
454.586	3.94
454.943	4.13
455.3	4.29
455.657	4.27
456.014	4.24
456.371	4.25
456.727	4.26
457.084	4.25
457.441	4.19
457.797	4.24
458.154	4.17
458.51	4.17
458.867	4.23
459.223	4.28
459.58	4.13
459.936	4.06
460.292	4.13
460.648	4.16
461.005	4.14
461.361	4.1
461.717	4.13
462.073	4.11
462.429	4.17
462.785	4.17
463.141	4.09
463.496	4.11
463.852	4.33
464.208	4.35
464.564	4.25
464.919	4.34
465.275	4.29
465.631	4.31
465.986	4.24
466.342	4.1
466.697	4.18
467.052	4.48
467.408	4.3
467.763	4.24
468.118	4.3
468.473	4.24
468.829	4.43
469.184	4.21
469.539	4.3
469.894	4.28
470.249	4.38
470.603	4.34
470.958	4.37
471.313	4.51
471.668	4.32
472.023	4.15
472.377	4.3
472.732	4.24
473.086	4.41
473.441	4.43
473.795	4.24
474.15	4.4
474.504	4.22
474.859	4.41
475.213	4.11
475.567	4.32
475.921	4.36
476.275	4.08
476.63	4.21
476.984	4.39
477.338	4.28
477.692	4.33
478.045	4.35
478.399	4.34
478.753	4.31
479.107	4.38
479.461	4.24
479.814	4.32
480.168	3.98
480.521	4.26
480.875	4.3
481.228	4.37
481.582	4.16
481.935	4.25
482.289	4.4
482.642	4.37
482.995	4.23
483.348	4.24
483.701	4.4
484.055	4.22
484.408	4.21
484.761	4.13
485.114	4.11
485.466	4.02
485.819	3.99
486.172	3.98
486.525	4.02
486.878	4.1
487.23	4.06
487.583	4.11
487.936	4.18
488.288	4.13
488.641	4.19
488.993	4.07
489.345	4.12
489.698	4.08
490.05	4.13
490.402	4.12
490.754	4.11
491.107	4.18
491.459	4.19
491.811	4.3
492.163	4.18
492.515	4.28
492.866	4.22
493.218	4.1
493.57	4.12
493.922	4.04
494.274	4.15
494.625	4.3
494.977	4.29
495.328	4.35
495.68	4.27
496.031	4.34
496.383	4.32
496.734	4.37
497.086	4.27
497.437	4.32
497.788	4.31
498.139	4.33
498.49	4.32
498.842	4.21
499.193	4.37
499.544	4.34
499.894	4.32
500.245	4.38
500.596	4.42
500.947	4.21
501.298	4.47
501.648	4.45
501.999	4.25
502.35	4.26
502.7	4.32
503.051	4.36
503.401	4.54
503.752	4.53
504.102	4.25
504.452	4.39
504.803	4.35
505.153	4.4
505.503	4.5
505.853	4.42
506.203	4.38
506.553	4.49
506.903	4.39
507.253	4.45
507.603	4.41
507.953	4.45
508.303	4.45
508.652	4.41
509.002	4.4
509.352	4.37
509.701	4.52
510.051	4.41
510.4	4.39
510.75	4.28
511.099	4.42
511.449	4.43
511.798	4.3
512.147	4.46
512.496	4.47
512.846	4.47
513.195	4.37
513.544	4.44
513.893	4.41
514.242	4.42
514.591	4.42
514.939	4.49
515.288	4.39
515.637	4.34
515.986	4.34
516.334	4.59
516.683	4.47
517.032	4.5
517.38	4.49
517.729	4.49
518.077	4.39
518.426	4.48
518.774	4.54
519.122	4.44
519.47	4.41
519.819	4.37
520.167	4.35
520.515	4.41
520.863	4.43
521.211	4.43
521.559	4.45
521.907	4.45
522.255	4.49
522.602	4.52
522.95	4.43
523.298	4.48
523.645	4.63
523.993	4.52
524.341	4.45
524.688	4.37
525.036	4.58
525.383	4.55
525.73	4.47
526.078	4.56
526.425	4.54
526.772	4.44
527.119	4.42
527.466	4.45
527.814	4.38
528.161	4.47
528.508	4.5
528.854	4.4
529.201	4.46
529.548	4.51
529.895	4.36
530.242	4.29
530.588	4.29
530.935	4.38
531.282	4.39
531.628	4.4
531.975	4.38
532.321	4.43
532.667	4.39
533.014	4.47
533.36	4.57
533.706	4.55
534.052	4.44
534.399	4.56
534.745	4.58
535.091	4.38
535.437	4.48
535.783	4.42
536.129	4.5
536.474	4.45
536.82	4.59
537.166	4.63
537.512	4.56
537.857	4.53
538.203	4.64
538.549	4.61
538.894	4.63
539.239	4.69
539.585	4.54
539.93	4.67
540.276	4.62
540.621	4.65
540.966	4.65
541.311	4.68
541.656	4.68
542.001	4.71
542.346	4.65
542.691	4.52
543.036	4.56
543.381	4.45
543.726	4.58
544.071	4.52
544.415	4.61
544.76	4.65
545.105	4.68
545.449	4.71
545.794	4.74
546.138	4.63
546.483	4.7
546.827	4.84
547.171	4.75
547.516	4.77
547.86	4.78
548.204	4.8
548.548	4.77
548.892	4.77
549.236	4.81
549.58	4.85
549.924	4.81
550.268	4.92
550.612	4.76
550.956	4.99
551.3	5.12
551.643	5
551.987	4.87
552.33	4.99
552.674	5.01
553.017	5.08
553.361	5.15
553.704	5.07
554.048	5.01
554.391	5.04
554.734	4.98
555.077	5.01
555.42	4.86
555.764	5.01
556.107	4.93
556.45	5.04
556.793	4.9
557.135	4.88
557.478	4.88
557.821	5.23
558.164	5.02
558.507	5.37
558.849	4.99
559.192	5.24
559.534	5.19
559.877	5.1
560.219	5.11
560.562	5.26
560.904	5.19
561.246	5.07
561.589	5.19
561.931	5.27
562.273	5.11
562.615	5.13
562.957	5.12
563.299	5.17
563.641	5.38
563.983	5.18
564.325	5.35
564.667	5.33
565.008	5.03
565.35	5.22
565.692	5.49
566.033	5.38
566.375	5.26
566.716	5.17
567.058	5.42
567.399	5.19
567.741	5.31
568.082	5.34
568.423	5.39
568.764	5.28
569.105	5.19
569.447	5.38
569.788	5.28
570.129	5.43
570.47	5.51
570.811	5.38
571.151	5.39
571.492	5.41
571.833	5.35
572.174	5.33
572.514	5.49
572.855	5.45
573.195	5.39
573.536	5.4
573.876	5.4
574.217	5.45
574.557	5.43
574.898	5.49
575.238	5.71
575.578	5.4
575.918	5.61
576.258	5.63
576.598	5.59
576.938	5.59
577.278	5.66
577.618	5.72
577.958	5.59
578.298	5.7
578.638	5.58
578.977	5.38
579.317	5.7
579.657	5.75
579.996	5.78
580.336	5.64
580.675	5.91
581.014	5.72
581.354	5.7
581.693	5.67
582.032	5.74
582.372	5.85
582.711	5.89
583.05	5.9
583.389	5.7
583.728	6.03
584.067	5.8
584.406	5.97
584.745	6.2
585.083	5.74
585.422	5.94
585.761	6.08
586.1	5.91
586.438	6.31
586.777	5.9
587.115	5.86
587.454	6.02
587.792	5.72
588.13	5.92
588.469	5.99
588.807	5.94
589.145	6.09
589.483	6.2
589.821	6.11
590.159	6.02
590.497	5.93
590.835	6.11
591.173	6.13
591.511	5.95
591.849	6.03
592.187	6.12
592.524	5.87
592.862	6.09
593.2	5.84
593.537	6.06
593.875	6.22
594.212	6.1
594.55	6.22
594.887	6.44
595.224	6.28
595.561	6.43
595.899	6.06
596.236	6.3
596.573	6.35
596.91	6.52
597.247	6.23
597.584	6.58
597.921	6.41
598.258	6.37
598.594	6.39
598.931	6.33
599.268	6.2
599.604	6.42
599.941	6.28
600.277	6.37
600.614	6.58
600.95	6.6
601.287	6.44
601.623	6.73
601.959	6.49
602.296	6.57
602.632	6.24
602.968	6.45
603.304	6.42
603.64	6.74
603.976	6.67
604.312	6.68
604.648	6.77
604.984	6.71
605.319	6.59
605.655	6.57
605.991	6.54
606.326	6.46
606.662	6.59
606.998	6.51
607.333	6.7
607.668	6.72
608.004	6.76
608.339	6.87
608.674	6.88
609.01	6.88
609.345	7.08
609.68	6.92
610.015	6.53
610.35	6.69
610.685	7.14
611.02	6.91
611.355	6.83
611.689	7.07
612.024	7.06
612.359	7.04
612.694	6.74
613.028	7.06
613.363	7.14
613.697	6.89
614.032	7.26
614.366	7.25
614.7	6.96
615.035	7.33
615.369	7.07
615.703	7.02
616.037	6.95
616.371	6.87
616.705	7.37
617.039	7.22
617.373	7.24
617.707	6.76
618.041	7.21
618.375	7.27
618.709	7.57
619.042	7.21
619.376	7.29
619.71	7.16
620.043	7.6
620.377	7.04
620.71	7.07
621.043	7.25
621.377	7.2
621.71	7.46
622.043	7.45
622.376	7.89
622.709	7.87
623.043	7.42
623.376	7.78
623.709	7.64
624.041	7.67
624.374	7.45
624.707	7.78
625.04	7.65
625.373	7.57
625.705	7.86
626.038	7.81
626.37	7.74
626.703	8
627.035	7.69
627.368	7.73
627.7	7.82
628.032	7.72
628.365	7.63
628.697	7.92
629.029	7.81
629.361	7.7
629.693	7.94
630.025	7.65
630.357	7.87
630.689	7.84
631.021	8.35
631.353	8.08
631.684	7.98
632.016	7.95
632.348	7.93
632.679	7.65
633.011	8.17
633.342	8.17
633.674	8.25
634.005	8.07
634.336	8.39
634.668	8.13
634.999	8.01
635.33	8.29
635.661	7.9
635.992	7.98
636.323	8.3
636.654	8.47
636.985	8.5
637.316	8.38
637.647	8.32
637.977	8.4
638.308	8.85
638.639	8.18
638.969	8.16
639.3	8.62
639.63	8.53
639.961	8.2
640.291	7.71
640.622	8.6
640.952	8.61
641.282	8.93
641.612	8.44
641.943	8.36
642.273	8.34
642.603	8.62
642.933	8.71
643.263	8.5
643.592	8.57
643.922	9.27
644.252	8.69
644.582	8.22
644.911	8.68
645.241	8.56
645.571	8.79
645.9	8.74
646.23	8.38
646.559	9.09
646.888	8.79
647.218	8.62
647.547	8.71
647.876	8.86
648.205	9.25
648.534	9.26
648.863	8.6
649.192	9.15
649.521	9.35
649.85	9.08
650.179	9.38
650.508	9.52
650.837	8.87
651.165	8.97
651.494	8.89
651.822	8.96
652.151	9.36
652.479	9.56
652.808	9.02
653.136	8.94
653.465	9.52
653.793	9.36
654.121	9.17
654.449	9.32
654.777	9.87
655.105	9.62
655.433	9.37
655.761	9.21
656.089	9.3
656.417	9.67
656.745	9.14
657.073	9.77
657.4	9.63
657.728	9
658.056	9.35
658.383	8.94
658.711	9.47
659.038	9.2
659.365	9.65
659.693	9.15
660.02	8.65
660.347	10.14
660.674	9.88
661.001	9.75
661.329	9.33
661.656	9.61
661.982	9.3
662.309	10.04
662.636	9.99
662.963	9.64
663.29	10.37
663.616	9.65
663.943	10.05
664.27	10.42
664.596	10.13
664.923	10.19
665.249	9.44
665.576	9.46
665.902	10.09
666.228	9.88
666.554	9.89
666.881	9.6
667.207	10.1
667.533	10.58
667.859	9.66
668.185	10.1
668.511	10.25
668.837	9.74
669.162	10.87
669.488	9.8
669.814	10.27
670.139	9.9
670.465	9.72
670.791	9.99
671.116	10.25
671.442	10.31
671.767	10.24
672.092	10.6
672.418	10.35
672.743	10.39
673.068	9.79
673.393	10.79
673.718	10.33
674.043	10.55
674.368	9.65
674.693	10.51
675.018	9.89
675.343	10.62
675.667	10.98
675.992	10.13
676.317	9.81
676.641	10.36
676.966	10.96
677.29	10.04
677.615	10.67
677.939	10.41
678.264	11.51
678.588	10.69
678.912	10.82
679.236	10.26
679.56	11.1
679.885	10.95
680.209	10.65
680.532	10.91
680.856	10.35
681.18	11.1
681.504	10.41
681.828	11.08
682.152	10.4
682.475	10.97
682.799	10.99
683.122	10.79
683.446	11.13
683.769	11.69
684.093	10.09
684.416	10.49
684.739	11.1
685.062	11.29
685.386	11.16
685.709	11.17
686.032	11.18
686.355	11.12
686.678	11.65
687.001	11.41
687.324	11.03
687.646	11.2
687.969	10.33
688.292	11.28
688.614	11.96
688.937	10.94
689.26	11.97
689.582	10.75
689.904	11.21
690.227	10.86
690.549	11.18
690.871	11.62
691.194	10.82
691.516	11.97
