Data from 446_forehead_Reflection__2__27.txt Node

Date: Tue Dec 12 18:24:38 CST 2023
User: ToomeyLab
Spectrometer: FLMS14357
Trigger mode: 0
Integration Time (sec): 1.000000E-2
Scans to average: 100
Electric dark correction enabled: true
Nonlinearity correction enabled: false
Boxcar width: 0
XAxis mode: Wavelengths
Number of Pixels in Spectrum: 2048
>>>>>Begin Spectral Data<<<<<
189.047	26.18
189.435	26.18
189.823	26.18
190.211	19.26
190.599	-94.89
190.987	72.69
191.375	-24.06
191.763	-1350.88
192.151	-332.87
192.538	29.23
192.926	57.83
193.314	52.07
193.702	491.04
194.089	-95.18
194.477	-75.07
194.864	7.37
195.252	44.4
195.639	-187.77
196.027	3.39
196.414	575.06
196.801	67.09
197.189	197.2
197.576	-195.32
197.963	70.75
198.351	9.23
198.738	46.37
199.125	18.54
199.512	8.2
199.899	35.38
200.286	25
200.673	16.53
201.06	40.1
201.447	-39.6
201.833	-13.87
202.22	10.28
202.607	-21.38
202.994	17.57
203.38	26.98
203.767	-34.14
204.154	2.28
204.54	18.82
204.927	3.31
205.313	21.23
205.699	-28.05
206.086	0.95
206.472	33.62
206.858	39.07
207.245	9.17
207.631	4.65
208.017	24.17
208.403	7.74
208.789	32.93
209.175	-5.43
209.561	16.42
209.947	-33.16
210.333	29.81
210.719	21.2
211.105	-18.7
211.491	27.97
211.876	2.36
212.262	23.39
212.648	-23.53
213.034	-15.07
213.419	17.05
213.805	15.03
214.19	41.31
214.576	29.82
214.961	33.9
215.346	16.99
215.732	22.02
216.117	19.01
216.502	3.74
216.888	43.85
217.273	-5.22
217.658	9.46
218.043	9.63
218.428	13.32
218.813	25.21
219.198	-3.91
219.583	29.13
219.968	12.16
220.353	7.33
220.738	4.23
221.122	11.46
221.507	-3.13
221.892	-7.52
222.276	9.66
222.661	15.35
223.046	1.42
223.43	18.23
223.815	-1.32
224.199	13.55
224.583	-0.89
224.968	2.24
225.352	-9.96
225.736	6.47
226.121	-0.7
226.505	7.03
226.889	-1.97
227.273	2.36
227.657	5.96
228.041	4.91
228.425	-0.4
228.809	-1.57
229.193	1.31
229.577	3.5
229.961	1.26
230.344	3.01
230.728	2.66
231.112	3.01
231.495	2.27
231.879	3.19
232.263	2.89
232.646	2.46
233.03	2.43
233.413	1.57
233.797	3.45
234.18	0.77
234.563	-0.24
234.946	1.76
235.33	3.62
235.713	1.87
236.096	2.24
236.479	2.18
236.862	4.06
237.245	1.37
237.628	2.93
238.011	2.69
238.394	1.63
238.777	3.57
239.16	1.99
239.543	3.4
239.925	3.63
240.308	2.32
240.691	2.97
241.073	3.64
241.456	2.81
241.838	2.92
242.221	3.76
242.603	3.57
242.986	2.27
243.368	2.57
243.75	2.34
244.133	2.4
244.515	2.86
244.897	2.95
245.279	3.2
245.661	1.41
246.043	2.63
246.425	3.1
246.807	2.49
247.189	3.31
247.571	2.94
247.953	2.83
248.335	2.43
248.717	2.48
249.098	2.4
249.48	2.36
249.862	2.46
250.243	2.5
250.625	2.99
251.006	2.52
251.388	3.17
251.769	2.14
252.151	2.46
252.532	3.18
252.913	2.99
253.295	3.09
253.676	2.54
254.057	2.41
254.438	2.72
254.819	2.5
255.2	2.17
255.581	3.06
255.962	1.77
256.343	3.37
256.724	3.84
257.105	2.7
257.486	2.83
257.867	2.33
258.247	2.15
258.628	2.84
259.009	2.65
259.389	2.65
259.77	2.8
260.15	2.4
260.531	2.89
260.911	2.82
261.292	2.58
261.672	2.33
262.052	2.46
262.432	2.71
262.813	2.76
263.193	2.67
263.573	3.17
263.953	3.5
264.333	3.51
264.713	2.73
265.093	2.73
265.473	3.01
265.853	1.82
266.233	2.21
266.612	2.8
266.992	2.49
267.372	2.57
267.752	3.03
268.131	2.45
268.511	2.41
268.89	2.05
269.27	2.17
269.649	2.75
270.029	2.72
270.408	3.28
270.787	2.93
271.167	2.85
271.546	2.43
271.925	3.11
272.304	3.29
272.683	1.62
273.062	2.49
273.441	2.71
273.82	2.49
274.199	2.3
274.578	2.78
274.957	2.86
275.336	2.46
275.715	3.09
276.093	2.09
276.472	3.12
276.851	2.91
277.229	2.83
277.608	2.47
277.986	2.17
278.365	2.81
278.743	2.49
279.122	3.09
279.5	2.34
279.878	2.13
280.257	2.44
280.635	2.48
281.013	2.44
281.391	3.1
281.769	2.43
282.147	2.79
282.525	2.62
282.903	2.56
283.281	2.41
283.659	2.36
284.037	2.84
284.415	2.49
284.792	3.22
285.17	2.82
285.548	2.78
285.925	2.42
286.303	3.03
286.68	2.75
287.058	2.61
287.435	2.63
287.813	2.29
288.19	3.11
288.567	2.78
288.945	2.71
289.322	2.3
289.699	2.93
290.076	3.39
290.453	2.83
290.83	2.8
291.207	3.22
291.584	2.87
291.961	2.87
292.338	2.71
292.715	2.8
293.092	2.88
293.469	2.74
293.845	3.01
294.222	2.73
294.599	3.22
294.975	3.06
295.352	2.69
295.728	3.22
296.105	3.32
296.481	3.44
296.858	3.44
297.234	3.67
297.61	3.06
297.986	3.43
298.363	3.47
298.739	3.18
299.115	3
299.491	3.35
299.867	3.24
300.243	3.21
300.619	3.54
300.995	3.87
301.371	3.74
301.746	3.32
302.122	3.63
302.498	3.99
302.874	3.5
303.249	4.13
303.625	3.53
304	3.56
304.376	3.81
304.751	3.76
305.127	3.42
305.502	3.98
305.878	3.43
306.253	3.73
306.628	4.05
307.003	3.78
307.378	3.85
307.754	3.93
308.129	4.23
308.504	4.32
308.879	3.59
309.254	4.21
309.629	3.9
310.003	4.33
310.378	4.57
310.753	4.59
311.128	4.55
311.502	3.97
311.877	3.42
312.252	3.79
312.626	4.44
313.001	4.19
313.375	4.21
313.75	4.26
314.124	4.38
314.498	4.46
314.873	4.07
315.247	4.36
315.621	4.2
315.995	4.66
316.369	4.83
316.743	4.82
317.117	4.23
317.491	4.47
317.865	4.75
318.239	4.49
318.613	4.54
318.987	5.43
319.361	4.39
319.734	4.93
320.108	5.26
320.482	4.59
320.855	4.32
321.229	4.46
321.602	4.78
321.976	5.5
322.349	4.98
322.723	5.29
323.096	4.92
323.469	4.93
323.843	5.96
324.216	5.83
324.589	5.32
324.962	5.31
325.335	5.84
325.708	5.29
326.081	5.18
326.454	5.19
326.827	5.21
327.2	5.48
327.573	5.17
327.945	5.54
328.318	5.72
328.691	4.7
329.063	5.67
329.436	5.64
329.809	5.29
330.181	5.19
330.553	6.04
330.926	6.16
331.298	5.75
331.671	5.83
332.043	5.53
332.415	5.84
332.787	6.11
333.159	5.51
333.532	5.7
333.904	6.08
334.276	6.32
334.648	5.2
335.02	5.26
335.391	5.88
335.763	5.87
336.135	5.88
336.507	6.44
336.879	5.95
337.25	6.37
337.622	6.13
337.993	5.8
338.365	6.07
338.736	5.98
339.108	5.52
339.479	6.34
339.851	5.97
340.222	5.61
340.593	6.26
340.964	6.39
341.336	6.56
341.707	6.09
342.078	5.77
342.449	6.31
342.82	6.7
343.191	6.66
343.562	6.39
343.933	7.12
344.303	6.53
344.674	6.71
345.045	6.56
345.416	6.77
345.786	6.36
346.157	6.73
346.527	7.11
346.898	6.2
347.268	6.47
347.639	6.64
348.009	6.48
348.38	6.79
348.75	7.23
349.12	6.28
349.49	6.59
349.861	7.09
350.231	6.9
350.601	7.04
350.971	7.32
351.341	7.13
351.711	7.56
352.081	7.38
352.45	6.91
352.82	7.27
353.19	6.97
353.56	6.95
353.929	7
354.299	6.48
354.669	7.24
355.038	6.79
355.408	7.06
355.777	7.41
356.147	7.1
356.516	7.45
356.885	7.55
357.254	7.31
357.624	6.85
357.993	7.53
358.362	7.48
358.731	7.52
359.1	7.33
359.469	7.41
359.838	7.34
360.207	7.46
360.576	7.71
360.945	7.38
361.314	7.52
361.682	7.6
362.051	7.79
362.42	7.91
362.788	8.04
363.157	8.14
363.525	7.95
363.894	7.84
364.262	7.62
364.631	7.69
364.999	7.89
365.367	8.15
365.735	7.8
366.104	8.14
366.472	8.25
366.84	8.11
367.208	8.14
367.576	8.03
367.944	8.31
368.312	8.27
368.68	8.32
369.048	8.43
369.416	8.17
369.783	8.44
370.151	8.26
370.519	8.39
370.886	8.64
371.254	8.73
371.621	8.55
371.989	8.64
372.356	8.32
372.724	8.56
373.091	8.55
373.458	8.58
373.826	8.61
374.193	8.87
374.56	8.88
374.927	8.76
375.294	8.81
375.661	9.22
376.028	9.21
376.395	9.08
376.762	9.6
377.129	9.05
377.496	8.94
377.863	8.96
378.229	9.38
378.596	9.09
378.963	9.16
379.329	9.06
379.696	9.27
380.062	9.55
380.429	9.38
380.795	9.61
381.161	9.29
381.528	9.55
381.894	9.66
382.26	8.99
382.626	9.44
382.993	9.74
383.359	9.45
383.725	9.73
384.091	9.69
384.457	9.56
384.823	9.87
385.188	9.8
385.554	9.63
385.92	9.66
386.286	9.91
386.651	9.9
387.017	10.07
387.383	10.04
387.748	10.08
388.114	10.35
388.479	10.11
388.845	10.05
389.21	10.32
389.575	9.91
389.94	10.27
390.306	10.22
390.671	10.46
391.036	10.34
391.401	10.07
391.766	10.08
392.131	10.43
392.496	10.27
392.861	10.36
393.226	10.36
393.591	10.32
393.956	10.39
394.32	10.53
394.685	10.68
395.05	10.44
395.414	10.56
395.779	10.59
396.143	10.89
396.508	10.64
396.872	10.55
397.236	10.78
397.601	10.86
397.965	10.82
398.329	11.13
398.694	10.78
399.058	10.94
399.422	10.84
399.786	10.83
400.15	11.1
400.514	11.16
400.878	10.97
401.242	10.91
401.605	11.27
401.969	11.17
402.333	11.24
402.697	11.22
403.06	11.13
403.424	11.44
403.787	11.26
404.151	11.41
404.514	11.07
404.878	11.42
405.241	11.57
405.604	11.09
405.968	11.37
406.331	11.47
406.694	11.7
407.057	11.33
407.42	11.57
407.783	11.27
408.146	11.59
408.509	11.63
408.872	11.66
409.235	11.57
409.598	11.66
409.961	11.91
410.323	12.19
410.686	11.94
411.049	12.29
411.411	11.98
411.774	11.97
412.136	11.86
412.499	11.98
412.861	11.84
413.223	12.29
413.586	12.01
413.948	12
414.31	12.21
414.672	12.19
415.035	12.24
415.397	12.23
415.759	12.26
416.121	12.36
416.483	12.33
416.845	12.28
417.206	12.55
417.568	12.54
417.93	12.19
418.292	12.37
418.653	12.37
419.015	12.31
419.377	12.51
419.738	12.38
420.1	12.24
420.461	12.46
420.822	12.51
421.184	12.39
421.545	12.54
421.906	12.51
422.267	12.49
422.629	12.35
422.99	12.41
423.351	12.42
423.712	12.56
424.073	12.65
424.434	12.65
424.795	12.87
425.155	12.69
425.516	12.66
425.877	12.68
426.238	12.71
426.598	12.77
426.959	12.82
427.32	12.9
427.68	12.9
428.041	13.18
428.401	13.08
428.761	13.14
429.122	13.32
429.482	13.37
429.842	13.41
430.202	13.52
430.563	13.6
430.923	13.42
431.283	13.13
431.643	13.5
432.003	13.35
432.363	13.75
432.722	13.5
433.082	13.71
433.442	13.78
433.802	13.69
434.161	13.56
434.521	13.63
434.881	13.56
435.24	13.55
435.6	13.77
435.959	13.67
436.319	13.81
436.678	13.81
437.037	13.88
437.396	13.64
437.756	13.75
438.115	14.2
438.474	14.02
438.833	14.08
439.192	14.23
439.551	14.14
439.91	13.9
440.269	14.1
440.628	14.07
440.987	14.07
441.345	14.23
441.704	14.07
442.063	14.02
442.421	14.11
442.78	14.11
443.138	14.16
443.497	14.28
443.855	14.31
444.214	14.27
444.572	14.51
444.93	14.46
445.288	14.42
445.647	14.49
446.005	14.32
446.363	14.36
446.721	14.46
447.079	14.56
447.437	14.3
447.795	14.35
448.153	14.38
448.51	14.39
448.868	14.45
449.226	14.64
449.584	14.68
449.941	14.64
450.299	14.84
450.656	14.77
451.014	14.92
451.371	15.01
451.729	15.09
452.086	15.12
452.443	15.27
452.801	15.07
453.158	15.1
453.515	15.31
453.872	15.23
454.229	15.29
454.586	15.04
454.943	15.3
455.3	15.26
455.657	15.37
456.014	15.48
456.371	15.52
456.727	15.53
457.084	15.56
457.441	15.5
457.797	15.63
458.154	15.63
458.51	15.69
458.867	15.7
459.223	15.62
459.58	15.49
459.936	15.63
460.292	15.69
460.648	15.56
461.005	15.62
461.361	15.42
461.717	15.5
462.073	15.48
462.429	15.68
462.785	15.76
463.141	15.81
463.496	15.92
463.852	16.13
464.208	16.2
464.564	16.27
464.919	16.36
465.275	16.18
465.631	16.3
465.986	16.21
466.342	16.13
466.697	16.33
467.052	16.44
467.408	16.37
467.763	16.47
468.118	16.61
468.473	16.39
468.829	16.58
469.184	16.37
469.539	16.52
469.894	16.68
470.249	16.71
470.603	16.58
470.958	16.8
471.313	17.04
471.668	16.84
472.023	16.73
472.377	16.76
472.732	16.83
473.086	16.87
473.441	16.96
473.795	16.97
474.15	16.92
474.504	16.85
474.859	17.01
475.213	17.01
475.567	17.14
475.921	17.13
476.275	17.27
476.63	17.26
476.984	17.49
477.338	17.23
477.692	17.27
478.045	17.31
478.399	17.23
478.753	17.18
479.107	17.27
479.461	17.4
479.814	17.41
480.168	17.23
480.521	17.4
480.875	17.45
481.228	17.49
481.582	17.41
481.935	17.58
482.289	17.69
482.642	17.62
482.995	17.49
483.348	17.48
483.701	17.61
484.055	17.38
484.408	17.24
484.761	17.14
485.114	16.8
485.466	16.52
485.819	16.53
486.172	16.67
486.525	16.98
486.878	17.11
487.23	17.23
487.583	17.3
487.936	17.45
488.288	17.41
488.641	17.24
488.993	17.14
489.345	17.09
489.698	17.16
490.05	17.26
490.402	17.41
490.754	17.59
491.107	17.76
491.459	17.89
491.811	18.05
492.163	17.86
492.515	18.05
492.866	17.67
493.218	17.5
493.57	17.47
493.922	17.68
494.274	17.81
494.625	18.16
494.977	18.29
495.328	18.31
495.68	18.59
496.031	18.69
496.383	18.71
496.734	18.88
497.086	18.8
497.437	18.84
497.788	18.92
498.139	18.72
498.49	18.79
498.842	18.67
499.193	18.7
499.544	18.71
499.894	18.95
500.245	18.99
500.596	19.07
500.947	19.03
501.298	19.07
501.648	19.18
501.999	19.3
502.35	19.38
502.7	19.46
503.051	19.26
503.401	19.34
503.752	19.67
504.102	19.41
504.452	19.71
504.803	19.56
505.153	19.56
505.503	19.75
505.853	19.74
506.203	19.65
506.553	19.65
506.903	19.87
507.253	19.8
507.603	19.79
507.953	19.89
508.303	19.92
508.652	19.73
509.002	19.96
509.352	19.79
509.701	19.87
510.051	19.9
510.4	19.89
510.75	19.75
511.099	19.82
511.449	19.88
511.798	19.8
512.147	19.97
512.496	20.02
512.846	20.15
513.195	20.13
513.544	20.07
513.893	20.15
514.242	20.16
514.591	20.11
514.939	20.32
515.288	20.27
515.637	20.31
515.986	20.47
516.334	20.76
516.683	20.5
517.032	20.79
517.38	20.67
517.729	20.68
518.077	20.58
518.426	20.69
518.774	20.71
519.122	20.58
519.47	20.44
519.819	20.34
520.167	20.25
520.515	20.16
520.863	20.35
521.211	20.42
521.559	20.56
521.907	20.65
522.255	20.79
522.602	20.74
522.95	20.92
523.298	21.03
523.645	21.21
523.993	21.17
524.341	21.2
524.688	21.13
525.036	21.21
525.383	21.26
525.73	21.07
526.078	21.21
526.425	21.23
526.772	21.13
527.119	20.91
527.466	20.8
527.814	20.74
528.161	20.95
528.508	21.07
528.854	20.96
529.201	21.06
529.548	20.84
529.895	20.47
530.242	20.24
530.588	20.33
530.935	20.52
531.282	20.72
531.628	20.84
531.975	20.97
532.321	21.05
532.667	21.05
533.014	21.32
533.36	21.37
533.706	21.4
534.052	21.44
534.399	21.4
534.745	21.16
535.091	20.9
535.437	21.09
535.783	21.21
536.129	21.49
536.474	21.7
536.82	21.74
537.166	21.89
537.512	21.98
537.857	21.9
538.203	21.81
538.549	21.66
538.894	21.88
539.239	21.97
539.585	22.1
539.93	22.29
540.276	22.2
540.621	22.35
540.966	22.45
541.311	22.52
541.656	22.51
542.001	22.42
542.346	22.08
542.691	21.77
543.036	21.38
543.381	21.54
543.726	21.75
544.071	21.95
544.415	22.07
544.76	22.27
545.105	22.25
545.449	22.28
545.794	22.57
546.138	22.42
546.483	22.83
546.827	22.73
547.171	22.79
547.516	22.86
547.86	22.96
548.204	22.89
548.548	22.86
548.892	22.81
549.236	22.91
549.58	23.11
549.924	23.13
550.268	23.35
550.612	23.37
550.956	23.51
551.3	23.72
551.643	23.71
551.987	23.74
552.33	23.67
552.674	23.95
553.017	23.77
553.361	23.88
553.704	23.77
554.048	23.76
554.391	23.69
554.734	23.63
555.077	23.82
555.42	23.62
555.764	23.87
556.107	24
556.45	23.92
556.793	24.07
557.135	24.04
557.478	24.16
557.821	24.12
558.164	24.26
558.507	24.43
558.849	24.54
559.192	24.5
559.534	24.34
559.877	24.37
560.219	24.52
560.562	24.6
560.904	24.53
561.246	24.61
561.589	24.98
561.931	24.55
562.273	24.56
562.615	24.62
562.957	24.73
563.299	24.51
563.641	24.95
563.983	24.71
564.325	24.8
564.667	24.7
565.008	24.8
565.35	24.71
565.692	24.9
566.033	24.9
566.375	24.93
566.716	24.9
567.058	25.25
567.399	24.94
567.741	24.68
568.082	24.79
568.423	24.71
568.764	24.92
569.105	24.82
569.447	25.07
569.788	25.32
570.129	25.3
570.47	25.11
570.811	25.39
571.151	25.31
571.492	25.17
571.833	25.48
572.174	25.14
572.514	25.51
572.855	25.34
573.195	25.29
573.536	24.87
573.876	25.23
574.217	25.37
574.557	25.18
574.898	25.36
575.238	25.67
575.578	25.55
575.918	25.46
576.258	25.59
576.598	25.7
576.938	25.38
577.278	25.78
577.618	25.76
577.958	25.59
578.298	25.77
578.638	25.74
578.977	25.85
579.317	25.94
579.657	26.13
579.996	26.15
580.336	26.01
580.675	26.18
581.014	26.56
581.354	26.36
581.693	26.3
582.032	26.54
582.372	26.66
582.711	26.31
583.05	26.41
583.389	26.51
583.728	26.34
584.067	26.64
584.406	26.66
584.745	26.35
585.083	26.7
585.422	26.85
585.761	26.81
586.1	26.39
586.438	26.89
586.777	27.03
587.115	26.62
587.454	27.03
587.792	26.85
588.13	27
588.469	26.89
588.807	26.76
589.145	27.27
589.483	26.82
589.821	27.15
590.159	27.09
590.497	27.21
590.835	26.96
591.173	26.84
591.511	27.27
591.849	26.78
592.187	26.94
592.524	26.88
592.862	27.36
593.2	27.08
593.537	27.14
593.875	27.36
594.212	27.41
594.55	27.55
594.887	27.63
595.224	27.18
595.561	27.61
595.899	27.46
596.236	27.93
596.573	27.69
596.91	27.7
597.247	27.36
597.584	27.66
597.921	27.64
598.258	27.61
598.594	27.82
598.931	27.35
599.268	27.26
599.604	27.37
599.941	27.6
600.277	27.76
600.614	27.98
600.95	27.84
601.287	27.87
601.623	27.88
601.959	27.94
602.296	27.89
602.632	28.19
602.968	27.9
603.304	27.97
603.64	28.19
603.976	27.75
604.312	28
604.648	27.83
604.984	27.92
605.319	27.88
605.655	28.02
605.991	28
606.326	27.6
606.662	27.92
606.998	27.84
607.333	27.97
607.668	28.04
608.004	28.23
608.339	28.34
608.674	28.36
609.01	28.51
609.345	28.71
609.68	28.54
610.015	28.11
610.35	28.11
610.685	28.34
611.02	28.48
611.355	28.3
611.689	28.11
612.024	28.35
612.359	28.53
612.694	28.48
613.028	28.56
613.363	28.9
613.697	28.79
614.032	28.88
614.366	29.05
614.7	29.15
615.035	29.07
615.369	29.23
615.703	28.88
616.037	29.03
616.371	28.56
616.705	29.25
617.039	29.06
617.373	29.15
617.707	29.07
618.041	29.26
618.375	29.05
618.709	29.47
619.042	29.45
619.376	29.3
619.71	28.94
620.043	29.37
620.377	29.61
620.71	29.17
621.043	29.37
621.377	29.28
621.71	29.44
622.043	29.59
622.376	29.61
622.709	29.88
623.043	29.55
623.376	29.59
623.709	29.88
624.041	29.67
624.374	29.71
624.707	29.67
625.04	29.48
625.373	30.14
625.705	30.11
626.038	30.13
626.37	29.75
626.703	29.99
627.035	29.6
627.368	29.86
627.7	29.85
628.032	29.87
628.365	29.98
628.697	29.79
629.029	29.55
629.361	29.41
629.693	29.87
630.025	29.65
630.357	30.25
630.689	29.97
631.021	30.01
631.353	30.38
631.684	30.12
632.016	30.2
632.348	30.45
632.679	30.28
633.011	30.59
633.342	30.5
633.674	30.44
634.005	30.02
634.336	30.45
634.668	30.35
634.999	30.55
635.33	30.78
635.661	30.45
635.992	29.76
636.323	30.41
636.654	30.6
636.985	30.84
637.316	30.5
637.647	30.38
637.977	30.45
638.308	30.84
638.639	30.42
638.969	30.59
639.3	30.6
639.63	30.94
639.961	30.69
640.291	30.38
640.622	31.19
640.952	31.12
641.282	31.07
641.612	30.97
641.943	31.18
642.273	31.33
642.603	31.3
642.933	31.2
643.263	31.22
643.592	31.17
643.922	31.53
644.252	31.7
644.582	30.62
644.911	31.67
645.241	30.99
645.571	31.22
645.9	31.39
646.23	31.29
646.559	31.52
646.888	31.05
647.218	31.36
647.547	31.53
647.876	30.9
648.205	31.81
648.534	31.34
648.863	31.54
649.192	31.82
649.521	31.91
649.85	31.72
650.179	31.61
650.508	31.48
650.837	31.58
651.165	31.36
651.494	31.68
651.822	31.99
652.151	31.78
652.479	31.81
652.808	31.89
653.136	32.18
653.465	32.46
653.793	31.91
654.121	31.87
654.449	31.18
654.777	31.84
655.105	32.35
655.433	32.26
655.761	32
656.089	31.75
656.417	32.26
656.745	32.2
657.073	31.8
657.4	32.29
657.728	31.83
658.056	32.53
658.383	31.6
658.711	32.28
659.038	32.43
659.365	32.46
659.693	32.18
660.02	32.02
660.347	32.74
660.674	32.18
661.001	32.19
661.329	31.87
661.656	32.39
661.982	32.05
662.309	32.69
662.636	32.23
662.963	32.54
663.29	32.58
663.616	32.44
663.943	32.82
664.27	32.67
664.596	32.77
664.923	33.31
665.249	32.79
665.576	32.48
665.902	32.58
666.228	32.2
666.554	32.46
666.881	32.24
667.207	32.3
667.533	32.59
667.859	33.28
668.185	32.87
668.511	33.16
668.837	32.46
669.162	32.78
669.488	32.84
669.814	32.99
670.139	32.84
670.465	32.32
670.791	33.22
671.116	32.46
671.442	32.65
671.767	32.94
672.092	33.41
672.418	32.99
672.743	33.4
673.068	32.48
673.393	33.21
