Data from 446_crown_Reflection__3__23.txt Node

Date: Tue Dec 12 18:22:49 CST 2023
User: ToomeyLab
Spectrometer: FLMS14357
Trigger mode: 0
Integration Time (sec): 1.000000E-2
Scans to average: 100
Electric dark correction enabled: true
Nonlinearity correction enabled: false
Boxcar width: 0
XAxis mode: Wavelengths
Number of Pixels in Spectrum: 2048
>>>>>Begin Spectral Data<<<<<
189.047	-60.01
189.435	-60.01
189.823	-60.01
190.211	71.85
190.599	1500
190.987	65.72
191.375	22.48
191.763	-984.21
192.151	-88.93
192.538	-57.21
192.926	347.39
193.314	-9.05
193.702	510.75
194.089	42.69
194.477	-16.95
194.864	2.61
195.252	24.68
195.639	313.46
196.027	110.04
196.414	60.36
196.801	30.61
197.189	-866.43
197.576	-92.98
197.963	135.35
198.351	28.22
198.738	33.23
199.125	31.65
199.512	36.57
199.899	-12.5
200.286	-8.36
200.673	-0.98
201.06	-43.51
201.447	-56.24
201.833	-9.2
202.22	-20.66
202.607	-61.58
202.994	14.98
203.38	39.42
203.767	1.98
204.154	11.1
204.54	44.93
204.927	7.37
205.313	28.44
205.699	14.86
206.086	3.69
206.472	25.18
206.858	7.6
207.245	22.45
207.631	8.94
208.017	38.63
208.403	-23.9
208.789	14.7
209.175	-8.33
209.561	14.74
209.947	5.49
210.333	3.43
210.719	-7.33
211.105	47.66
211.491	9.75
211.876	4.48
212.262	13.17
212.648	-26.89
213.034	13.12
213.419	6.76
213.805	-0.84
214.19	34.26
214.576	22.48
214.961	24.52
215.346	24.2
215.732	26.07
216.117	8.17
216.502	-17.73
216.888	0.41
217.273	5.99
217.658	-4.34
218.043	13.47
218.428	-5.68
218.813	33.54
219.198	-16.98
219.583	14.09
219.968	25.28
220.353	20.9
220.738	21.9
221.122	20.85
221.507	1.55
221.892	3.24
222.276	15.86
222.661	4.47
223.046	3.89
223.43	7.87
223.815	-6.9
224.199	15.25
224.583	5.52
224.968	2.83
225.352	6.2
225.736	15.87
226.121	7.15
226.505	6.8
226.889	3.71
227.273	6.27
227.657	9.95
228.041	7.09
228.425	6.72
228.809	2.57
229.193	4.83
229.577	5.63
229.961	4.37
230.344	5.83
230.728	5.34
231.112	5.32
231.495	5.29
231.879	5.77
232.263	4.64
232.646	5.24
233.03	4.77
233.413	5.05
233.797	4.52
234.18	3.56
234.563	2.08
234.946	5.62
235.33	6.65
235.713	5.17
236.096	5.05
236.479	4.91
236.862	5.01
237.245	4.87
237.628	4.6
238.011	6.53
238.394	4.34
238.777	5.55
239.16	6.01
239.543	5.29
239.925	6.88
240.308	4.41
240.691	4.97
241.073	4.67
241.456	4.47
241.838	4.71
242.221	5.37
242.603	5.55
242.986	4.75
243.368	5.16
243.75	4.55
244.133	5.08
244.515	5.07
244.897	4.99
245.279	5.26
245.661	4.56
246.043	5.41
246.425	6.15
246.807	4.56
247.189	5.75
247.571	4.91
247.953	4.53
248.335	4.65
248.717	4.71
249.098	4.66
249.48	4.55
249.862	4.58
250.243	4.5
250.625	5.28
251.006	4.74
251.388	4.57
251.769	4.75
252.151	3.96
252.532	5.29
252.913	6
253.295	4.83
253.676	4.44
254.057	4.17
254.438	5.04
254.819	4.53
255.2	4.4
255.581	4.45
255.962	4.72
256.343	4.75
256.724	4.7
257.105	4.59
257.486	4.98
257.867	4.31
258.247	5.32
258.628	4.49
259.009	4.68
259.389	4.97
259.77	4.5
260.15	4.55
260.531	4.24
260.911	4.47
261.292	4.16
261.672	4.29
262.052	4.36
262.432	4.68
262.813	4.54
263.193	4.23
263.573	4.62
263.953	5.07
264.333	5.35
264.713	4.81
265.093	5.31
265.473	5.08
265.853	4.35
266.233	3.56
266.612	3
266.992	3.94
267.372	4.41
267.752	4.97
268.131	3.8
268.511	3.91
268.89	4.06
269.27	4.23
269.649	4.49
270.029	4.52
270.408	4.27
270.787	4.21
271.167	4.31
271.546	4.63
271.925	4.84
272.304	4.39
272.683	3.68
273.062	3.99
273.441	4.43
273.82	3.68
274.199	4.08
274.578	4.06
274.957	3.81
275.336	4.19
275.715	4.07
276.093	3.6
276.472	4.92
276.851	4.65
277.229	3.54
277.608	4.29
277.986	3.87
278.365	3.7
278.743	3.91
279.122	4.06
279.5	4.1
279.878	3.73
280.257	3.92
280.635	4.02
281.013	3.76
281.391	4.26
281.769	4.18
282.147	3.78
282.525	3.34
282.903	3.59
283.281	4.29
283.659	4.33
284.037	4.11
284.415	3.87
284.792	4.29
285.17	4.47
285.548	4.08
285.925	3.7
286.303	3.74
286.68	3.8
287.058	3.91
287.435	3.85
287.813	3.8
288.19	4.08
288.567	3.8
288.945	4.26
289.322	3.35
289.699	3.76
290.076	4.37
290.453	4.25
290.83	3.45
291.207	3.99
291.584	3.96
291.961	4.01
292.338	4.08
292.715	3.69
293.092	3.87
293.469	3.65
293.845	4.01
294.222	3.6
294.599	4.52
294.975	3.66
295.352	3.29
295.728	3.57
296.105	3.56
296.481	4.14
296.858	3.56
297.234	4.29
297.61	3.89
297.986	3.5
298.363	3.71
298.739	3.71
299.115	3.29
299.491	3.66
299.867	3.85
300.243	3.66
300.619	3.47
300.995	3.88
301.371	3.72
301.746	3.81
302.122	4.36
302.498	3.35
302.874	3.78
303.249	4.29
303.625	3.44
304	3.64
304.376	4.33
304.751	4.03
305.127	3.59
305.502	3.29
305.878	3.54
306.253	3.36
306.628	3.78
307.003	3.54
307.378	3.55
307.754	3.82
308.129	3.58
308.504	4.11
308.879	3.72
309.254	4.16
309.629	3.36
310.003	3.67
310.378	3.7
310.753	3.74
311.128	3.79
311.502	3.44
311.877	3.02
312.252	3.24
312.626	3.55
313.001	3.54
313.375	3.35
313.75	3.51
314.124	3.56
314.498	3.58
314.873	3.45
315.247	3.64
315.621	3.15
315.995	3.93
316.369	3.38
316.743	2.82
317.117	3.13
317.491	3.83
317.865	2.9
318.239	3.43
318.613	3.91
318.987	3.7
319.361	3.71
319.734	3.08
320.108	3.33
320.482	3.4
320.855	3.08
321.229	3.56
321.602	3.37
321.976	3.53
322.349	3.79
322.723	3.81
323.096	3.47
323.469	3.29
323.843	4.1
324.216	3.71
324.589	3.85
324.962	3.27
325.335	4.18
325.708	3.31
326.081	3.89
326.454	3.35
326.827	4.23
327.2	3.15
327.573	3.19
327.945	3.61
328.318	3.5
328.691	2.89
329.063	3.62
329.436	3.79
329.809	3.21
330.181	3.25
330.553	3.48
330.926	3.75
331.298	3.4
331.671	3.31
332.043	3.45
332.415	3.42
332.787	3.5
333.159	3.83
333.532	3.7
333.904	3.66
334.276	4.29
334.648	3.35
335.02	3.45
335.391	2.66
335.763	2.93
336.135	3.59
336.507	3.95
336.879	3.5
337.25	3.45
337.622	2.95
337.993	3.14
338.365	3.08
338.736	3.55
339.108	3.19
339.479	3.53
339.851	3.16
340.222	3.21
340.593	3.4
340.964	3.48
341.336	3.53
341.707	3.15
342.078	3
342.449	2.92
342.82	3.43
343.191	3.46
343.562	3.42
343.933	3.4
344.303	3.7
344.674	3.57
345.045	3.13
345.416	3.66
345.786	3.23
346.157	3.47
346.527	3.73
346.898	3.55
347.268	3.5
347.639	3.39
348.009	3.61
348.38	3.45
348.75	3.59
349.12	3.67
349.49	3.44
349.861	4.07
350.231	3.81
350.601	3.88
350.971	3.34
351.341	3.72
351.711	3.89
352.081	3.6
352.45	3.5
352.82	3.89
353.19	3.07
353.56	3.2
353.929	3
354.299	3.2
354.669	3.84
355.038	3.16
355.408	3.25
355.777	4.17
356.147	3.47
356.516	3.92
356.885	3.39
357.254	3.77
357.624	3.31
357.993	3.67
358.362	3.76
358.731	3.55
359.1	3.43
359.469	3.38
359.838	3.47
360.207	3.26
360.576	3.49
360.945	3.12
361.314	3.84
361.682	3.69
362.051	3.58
362.42	3.72
362.788	3.36
363.157	3.88
363.525	3.28
363.894	3.19
364.262	3.53
364.631	3.49
364.999	3.54
365.367	3.71
365.735	3.65
366.104	3.69
366.472	3.46
366.84	3.67
367.208	3.73
367.576	3.54
367.944	3.8
368.312	3.57
368.68	3.69
369.048	3.61
369.416	3.36
369.783	3.42
370.151	3.25
370.519	3.39
370.886	3.62
371.254	3.4
371.621	3.97
371.989	3.41
372.356	3.62
372.724	3.7
373.091	3.61
373.458	3.72
373.826	3.6
374.193	3.38
374.56	3.86
374.927	3.67
375.294	3.59
375.661	3.73
376.028	3.88
376.395	3.97
376.762	4.21
377.129	3.76
377.496	3.7
377.863	3.51
378.229	4.01
378.596	3.41
378.963	3.85
379.329	3.56
379.696	3.72
380.062	3.85
380.429	3.83
380.795	3.56
381.161	3.76
381.528	3.52
381.894	3.74
382.26	3.67
382.626	3.66
382.993	3.93
383.359	3.63
383.725	3.94
384.091	3.73
384.457	3.9
384.823	3.66
385.188	3.62
385.554	4.03
385.92	3.78
386.286	4.12
386.651	3.8
387.017	3.99
387.383	3.81
387.748	3.87
388.114	3.97
388.479	3.94
388.845	4.04
389.21	3.81
389.575	3.43
389.94	3.83
390.306	3.92
390.671	3.72
391.036	3.91
391.401	3.89
391.766	3.84
392.131	3.78
392.496	3.87
392.861	3.6
393.226	3.91
393.591	3.81
393.956	3.64
394.32	3.96
394.685	3.83
395.05	3.72
395.414	3.89
395.779	3.86
396.143	3.84
396.508	4.01
396.872	3.75
397.236	3.74
397.601	3.91
397.965	4.02
398.329	4.03
398.694	3.69
399.058	3.97
399.422	3.74
399.786	3.76
400.15	3.73
400.514	4.12
400.878	3.89
401.242	3.88
401.605	3.87
401.969	3.93
402.333	3.86
402.697	3.79
403.06	3.9
403.424	3.98
403.787	3.73
404.151	3.96
404.514	3.65
404.878	3.93
405.241	3.96
405.604	3.83
405.968	3.79
406.331	4.03
406.694	3.97
407.057	3.9
407.42	4.03
407.783	3.82
408.146	4.07
408.509	3.87
408.872	3.87
409.235	3.93
409.598	3.92
409.961	4.13
410.323	4.08
410.686	4.02
411.049	3.89
411.411	4.08
411.774	4.12
412.136	4.1
412.499	4.04
412.861	4.06
413.223	4.19
413.586	4.08
413.948	4.01
414.31	4.11
414.672	4.26
415.035	4
415.397	4.11
415.759	3.96
416.121	4.08
416.483	3.96
416.845	3.97
417.206	3.89
417.568	4.11
417.93	4.13
418.292	3.89
418.653	4.05
419.015	3.95
419.377	3.91
419.738	4.02
420.1	3.88
420.461	3.99
420.822	4.05
421.184	3.95
421.545	4.13
421.906	4.11
422.267	3.97
422.629	4.03
422.99	3.97
423.351	3.91
423.712	4.03
424.073	3.96
424.434	4.02
424.795	4.19
425.155	3.93
425.516	3.89
425.877	3.9
426.238	3.97
426.598	4
426.959	4.03
427.32	4.01
427.68	3.95
428.041	4.09
428.401	3.98
428.761	4.11
429.122	4.16
429.482	4.29
429.842	4.25
430.202	4.11
430.563	4.21
430.923	4.2
431.283	4.17
431.643	4.11
432.003	3.94
432.363	4.23
432.722	4.11
433.082	4.12
433.442	4.1
433.802	4.18
434.161	4.16
434.521	4.18
434.881	4.13
435.24	4.15
435.6	4.01
435.959	4.24
436.319	4.18
436.678	4.29
437.037	4.13
437.396	4.16
437.756	4.21
438.115	4.14
438.474	4.18
438.833	4.32
439.192	4.09
439.551	3.97
439.91	4
440.269	4.07
440.628	4.11
440.987	3.93
441.345	4.21
441.704	4.11
442.063	4.07
442.421	4.06
442.78	4.11
443.138	4.08
443.497	4.27
443.855	4.17
444.214	4.22
444.572	4.19
444.93	4.24
445.288	4.07
445.647	4.31
446.005	4.22
446.363	4.02
446.721	4.04
447.079	4.14
447.437	3.96
447.795	4.01
448.153	4.02
448.51	4.07
448.868	4.03
449.226	4.25
449.584	4.27
449.941	4.06
450.299	4.2
450.656	4.13
451.014	4.19
451.371	4.34
451.729	4.24
452.086	4.23
452.443	4.32
452.801	4.3
453.158	4.16
453.515	4.34
453.872	4.31
454.229	4.25
454.586	4.09
454.943	4.22
455.3	4.19
455.657	4.31
456.014	4.35
456.371	4.32
456.727	4.38
457.084	4.23
457.441	4.23
457.797	4.29
458.154	4.31
458.51	4.24
458.867	4.32
459.223	4.41
459.58	4.22
459.936	4.06
460.292	4.14
460.648	4.22
461.005	4.21
461.361	4.13
461.717	4.22
462.073	4.15
462.429	4.18
462.785	4.19
463.141	4.15
463.496	4.18
463.852	4.26
464.208	4.27
464.564	4.37
464.919	4.43
465.275	4.27
465.631	4.4
465.986	4.4
466.342	4.16
466.697	4.37
467.052	4.33
467.408	4.33
467.763	4.41
468.118	4.29
468.473	4.48
468.829	4.33
469.184	4.14
469.539	4.4
469.894	4.37
470.249	4.34
470.603	4.25
470.958	4.3
471.313	4.3
471.668	4.36
472.023	4.4
472.377	4.26
472.732	4.35
473.086	4.39
473.441	4.39
473.795	4.34
474.15	4.47
474.504	4.25
474.859	4.4
475.213	4.25
475.567	4.36
475.921	4.3
476.275	4.17
476.63	4.14
476.984	4.25
477.338	4.24
477.692	4.39
478.045	4.32
478.399	4.32
478.753	4.28
479.107	4.43
479.461	4.29
479.814	4.32
480.168	4.25
480.521	4.2
480.875	4.34
481.228	4.5
481.582	4.31
481.935	4.35
482.289	4.45
482.642	4.56
482.995	4.33
483.348	4.29
483.701	4.4
484.055	4.28
484.408	4.19
484.761	4.15
485.114	4.14
485.466	4
485.819	3.98
486.172	4.05
486.525	4.12
486.878	4.13
487.23	4.14
487.583	4.18
487.936	4.2
488.288	4.15
488.641	4.18
488.993	4.12
489.345	4.12
489.698	4.12
490.05	4.14
490.402	4.2
490.754	4.15
491.107	4.18
491.459	4.29
491.811	4.33
492.163	4.24
492.515	4.22
492.866	4.21
493.218	4.15
493.57	4.08
493.922	4.11
494.274	4.21
494.625	4.35
494.977	4.37
495.328	4.4
495.68	4.35
496.031	4.42
496.383	4.4
496.734	4.34
497.086	4.42
497.437	4.46
497.788	4.31
498.139	4.2
498.49	4.38
498.842	4.3
499.193	4.27
499.544	4.36
499.894	4.28
500.245	4.46
500.596	4.39
500.947	4.34
501.298	4.42
501.648	4.46
501.999	4.32
502.35	4.41
502.7	4.5
503.051	4.27
503.401	4.34
503.752	4.39
504.102	4.39
504.452	4.39
504.803	4.36
505.153	4.4
505.503	4.59
505.853	4.49
506.203	4.38
506.553	4.31
506.903	4.44
507.253	4.45
507.603	4.53
507.953	4.38
508.303	4.45
508.652	4.53
509.002	4.46
509.352	4.44
509.701	4.4
510.051	4.41
510.4	4.3
510.75	4.31
511.099	4.33
511.449	4.32
511.798	4.19
512.147	4.29
512.496	4.46
512.846	4.44
513.195	4.39
513.544	4.46
513.893	4.34
514.242	4.35
514.591	4.36
514.939	4.31
515.288	4.47
515.637	4.27
515.986	4.44
516.334	4.44
516.683	4.38
517.032	4.5
517.38	4.45
517.729	4.45
518.077	4.36
518.426	4.54
518.774	4.41
519.122	4.32
519.47	4.25
519.819	4.26
520.167	4.27
520.515	4.18
520.863	4.26
521.211	4.35
521.559	4.29
521.907	4.27
522.255	4.37
522.602	4.37
522.95	4.37
523.298	4.39
523.645	4.4
523.993	4.47
524.341	4.44
524.688	4.48
525.036	4.38
525.383	4.32
525.73	4.29
526.078	4.34
526.425	4.26
526.772	4.31
527.119	4.23
527.466	4.31
527.814	4.23
528.161	4.32
528.508	4.38
528.854	4.28
529.201	4.31
529.548	4.21
529.895	4.15
530.242	4.07
530.588	4.06
530.935	4.17
531.282	4.21
531.628	4.24
531.975	4.21
532.321	4.2
532.667	4.21
533.014	4.24
533.36	4.29
533.706	4.23
534.052	4.23
534.399	4.27
534.745	4.22
535.091	4.14
535.437	4.19
535.783	4.18
536.129	4.26
536.474	4.21
536.82	4.2
537.166	4.35
537.512	4.4
537.857	4.38
538.203	4.22
538.549	4.2
538.894	4.25
539.239	4.38
539.585	4.33
539.93	4.41
540.276	4.27
540.621	4.37
540.966	4.17
541.311	4.3
541.656	4.32
542.001	4.32
542.346	4.29
542.691	4.23
543.036	4.11
543.381	4.08
543.726	4.13
544.071	4.17
544.415	4.22
544.76	4.24
545.105	4.25
545.449	4.26
545.794	4.38
546.138	4.25
546.483	4.29
546.827	4.33
547.171	4.29
547.516	4.25
547.86	4.24
548.204	4.3
548.548	4.23
548.892	4.3
549.236	4.24
549.58	4.37
549.924	4.25
550.268	4.45
550.612	4.31
550.956	4.28
551.3	4.44
551.643	4.47
551.987	4.63
552.33	4.55
552.674	4.35
553.017	4.63
553.361	4.44
553.704	4.38
554.048	4.25
554.391	4.36
554.734	4.26
555.077	4.42
555.42	4.24
555.764	4.38
556.107	4.32
556.45	4.21
556.793	4.19
557.135	4.29
557.478	4.49
557.821	4.39
558.164	4.48
558.507	4.43
558.849	4.33
559.192	4.48
559.534	4.28
559.877	4.3
560.219	4.42
560.562	4.35
560.904	4.19
561.246	4.35
561.589	4.35
561.931	4.29
562.273	4.32
562.615	4.14
562.957	4.39
563.299	4.4
563.641	4.44
563.983	4.29
564.325	4.24
564.667	4.32
565.008	4.19
565.35	4.31
565.692	4.4
566.033	4.44
566.375	4.21
566.716	4.16
567.058	4.31
567.399	4.32
567.741	4.29
568.082	4.38
568.423	4.31
568.764	4.37
569.105	4.29
569.447	4.32
569.788	4.38
570.129	4.12
570.47	4.31
570.811	4.33
571.151	4.36
571.492	4.38
571.833	4.22
572.174	4.25
572.514	4.39
572.855	4.29
573.195	4.18
573.536	4
573.876	4.28
574.217	4.25
574.557	4.24
574.898	4.26
575.238	4.44
575.578	4.18
575.918	4.38
576.258	4.3
576.598	4.19
576.938	4.19
577.278	4.25
577.618	4.27
577.958	4.17
578.298	4.33
578.638	4.35
578.977	4.2
579.317	4.19
579.657	4.26
579.996	4.25
580.336	4.21
580.675	4.32
581.014	4.37
581.354	4.36
581.693	4.31
582.032	4.17
582.372	4.48
582.711	4.31
583.05	4.46
583.389	4.38
583.728	4.19
584.067	4.54
584.406	4.54
584.745	4.56
585.083	4.18
585.422	4.14
585.761	4.59
586.1	4.33
586.438	4.47
586.777	4.15
587.115	4.33
587.454	4.41
587.792	3.88
588.13	4.46
588.469	4.42
588.807	4.33
589.145	4.51
589.483	4.38
589.821	4.14
590.159	4.32
590.497	4.06
590.835	4.42
591.173	4.15
591.511	4.15
591.849	4.22
592.187	4.13
592.524	4.18
592.862	4.18
593.2	4.09
593.537	4.21
593.875	4.42
594.212	4.23
594.55	4.34
594.887	4.2
595.224	4.06
595.561	4.41
595.899	4.25
596.236	4.38
596.573	4.16
596.91	4.42
597.247	4.09
597.584	4.3
597.921	4.49
598.258	4.26
598.594	4.37
598.931	4.15
599.268	4.13
599.604	4.17
599.941	4.23
600.277	4.24
600.614	4.32
600.95	4.16
601.287	4.03
601.623	4.21
601.959	4.2
602.296	4.58
602.632	4.2
602.968	4.25
603.304	4.18
603.64	4.35
603.976	4.01
604.312	4.36
604.648	4.09
604.984	4.09
605.319	4.36
605.655	4.23
605.991	4.14
606.326	4.15
606.662	4.19
606.998	4.16
607.333	4.25
607.668	4.09
608.004	4.27
608.339	4.3
608.674	4.27
609.01	4.02
609.345	4.35
609.68	4.09
610.015	3.87
610.35	4.24
610.685	4.29
611.02	4.19
611.355	3.87
611.689	4.16
612.024	4.05
612.359	4.29
612.694	4.08
613.028	4.19
613.363	4.01
613.697	4.19
614.032	4.42
614.366	4.33
614.7	4.17
615.035	4.41
615.369	4.23
615.703	4.29
616.037	4.08
616.371	4.02
616.705	4.23
617.039	4.35
617.373	4.42
617.707	4.03
618.041	3.92
618.375	4.2
618.709	4.09
619.042	4.09
619.376	4.18
619.71	4.03
620.043	4.03
620.377	4.14
620.71	4.01
621.043	4.09
621.377	4.06
621.71	4.51
622.043	4.21
622.376	4.36
622.709	4.16
623.043	4.51
623.376	4.29
623.709	4.13
624.041	4.21
624.374	3.98
624.707	4.02
625.04	3.83
625.373	4.62
625.705	4.62
626.038	4.35
626.37	4.04
626.703	4.29
627.035	4.24
627.368	4.26
627.7	4.07
628.032	3.73
628.365	4.32
628.697	4.17
629.029	3.94
629.361	3.89
629.693	4.12
630.025	4.17
630.357	4.17
630.689	3.9
631.021	4.21
631.353	4.36
631.684	3.95
632.016	4.22
632.348	4.44
632.679	3.97
633.011	4.41
633.342	4.1
633.674	4.08
634.005	3.89
634.336	4.26
634.668	3.98
634.999	4.28
635.33	4.22
635.661	4.54
635.992	3.92
636.323	3.63
636.654	4.32
636.985	4.18
637.316	4.05
637.647	3.88
637.977	4.32
638.308	4.26
638.639	4.11
638.969	4.08
639.3	4.22
639.63	4.4
639.961	4.12
640.291	3.92
640.622	3.99
640.952	4.64
641.282	4.17
641.612	4.46
641.943	4.32
642.273	4.39
642.603	4.58
642.933	4.26
643.263	3.84
643.592	4.36
643.922	4.63
644.252	4.41
644.582	3.7
644.911	4.05
645.241	3.97
645.571	4.62
645.9	4.23
646.23	3.72
646.559	4.33
646.888	3.99
647.218	4.16
647.547	4.41
647.876	4.48
648.205	4.31
648.534	4.41
648.863	3.95
649.192	4.31
649.521	4.87
649.85	4.1
650.179	4.47
650.508	4.24
650.837	4.53
651.165	4.22
651.494	4.02
651.822	4.22
652.151	4.08
652.479	4.19
652.808	4.31
653.136	4.51
653.465	4.2
653.793	4.27
654.121	4.3
654.449	4.54
654.777	4.49
655.105	4.42
655.433	4.49
655.761	4.25
656.089	4.44
656.417	4.43
656.745	4.3
657.073	3.83
657.4	4.22
657.728	3.65
658.056	4.11
658.383	3.36
658.711	4.43
659.038	3.89
659.365	4.32
659.693	3.97
660.02	3.9
660.347	4.17
660.674	4.56
661.001	3.95
661.329	4.23
661.656	4.16
661.982	4.04
662.309	4.49
662.636	4.67
662.963	4.36
663.29	4.67
663.616	4.41
663.943	4.3
664.27	4.76
664.596	3.97
664.923	4.73
665.249	3.86
665.576	4.22
665.902	4.07
666.228	4.61
666.554	4.06
666.881	3.42
667.207	3.98
667.533	4.8
667.859	4.44
668.185	4.38
668.511	3.98
668.837	4.42
669.162	5.33
669.488	4.36
669.814	3.69
670.139	3.9
670.465	3.43
670.791	4.56
671.116	3.86
671.442	4.22
671.767	4.28
672.092	4.67
672.418	3.78
672.743	4.8
673.068	3.42
673.393	4.48
673.718	4.81
674.043	4.61
674.368	3.99
674.693	4.03
675.018	3.71
675.343	4.2
675.667	4.62
675.992	4.12
676.317	3.9
676.641	3.88
676.966	4.29
677.29	3.15
677.615	4.41
677.939	4.37
678.264	4.59
678.588	4.05
678.912	4.29
679.236	4.48
679.56	4.66
679.885	4.49
680.209	4.6
680.532	4.79
680.856	4.23
681.18	4.1
681.504	4.14
681.828	4.22
682.152	3.93
682.475	4.49
682.799	4.07
683.122	4.34
683.446	4.29
683.769	5.44
684.093	3.97
684.416	4.67
684.739	4.17
685.062	4.7
685.386	5.04
685.709	4.42
686.032	4.16
686.355	4.39
686.678	4.95
687.001	4.34
687.324	4.2
687.646	4.28
687.969	3.91
688.292	4.28
688.614	4.13
688.937	4.81
689.26	4.41
689.582	4.18
689.904	3.7
690.227	4.03
690.549	4.37
690.871	4.83
691.194	4.29
691.516	4.87
691.838	4.01
692.16	5.21
692.482	4.64
692.804	4.41
