Data from 446_crown_Reflection__2__22.txt Node

Date: Tue Dec 12 18:22:41 CST 2023
User: ToomeyLab
Spectrometer: FLMS14357
Trigger mode: 0
Integration Time (sec): 1.000000E-2
Scans to average: 100
Electric dark correction enabled: true
Nonlinearity correction enabled: false
Boxcar width: 0
XAxis mode: Wavelengths
Number of Pixels in Spectrum: 2048
>>>>>Begin Spectral Data<<<<<
189.047	-39.13
189.435	-39.13
189.823	-39.13
190.211	-980.37
190.599	1222.99
190.987	30.08
191.375	90.95
191.763	2139.47
192.151	-854.15
192.538	-69.1
192.926	406.05
193.314	-70.49
193.702	437.46
194.089	113.31
194.477	-114.6
194.864	32.23
195.252	-43.82
195.639	28.29
196.027	-1.32
196.414	360.69
196.801	14.89
197.189	-142.31
197.576	-6.68
197.963	34.35
198.351	17.64
198.738	42.39
199.125	6.91
199.512	-18.42
199.899	2.86
200.286	-23.5
200.673	-10.27
201.06	20.06
201.447	-58.73
201.833	11.18
202.22	16.71
202.607	-49.67
202.994	23.5
203.38	1.55
203.767	20.37
204.154	13.91
204.54	12.54
204.927	6.51
205.313	20.3
205.699	8.7
206.086	3.96
206.472	37.47
206.858	0.97
207.245	12.44
207.631	19.15
208.017	24.89
208.403	9.5
208.789	2.24
209.175	11.72
209.561	26.7
209.947	12.52
210.333	34.51
210.719	14.68
211.105	7.55
211.491	22.35
211.876	7.17
212.262	21.17
212.648	-2.82
213.034	18.12
213.419	-9.31
213.805	15.92
214.19	30.12
214.576	26.93
214.961	28.04
215.346	35.13
215.732	10.24
216.117	4.18
216.502	16.55
216.888	15.23
217.273	3.2
217.658	-0.05
218.043	21.01
218.428	18.28
218.813	11.86
219.198	-2.39
219.583	20.18
219.968	13.5
220.353	-0.77
220.738	9.37
221.122	2.48
221.507	11.38
221.892	-0.92
222.276	7.81
222.661	14.44
223.046	2.13
223.43	15.49
223.815	17.77
224.199	13.85
224.583	5.44
224.968	15.82
225.352	0.51
225.736	11.71
226.121	6.93
226.505	9.01
226.889	4.05
227.273	6.12
227.657	15.11
228.041	11.36
228.425	10.03
228.809	10.61
229.193	6.06
229.577	9.74
229.961	8.14
230.344	8.08
230.728	9.22
231.112	8.65
231.495	7.95
231.879	9.25
232.263	7.97
232.646	6.26
233.03	9.16
233.413	7.7
233.797	9.73
234.18	3.12
234.563	7.58
234.946	7.39
235.33	8.8
235.713	9.5
236.096	7.57
236.479	7.59
236.862	8.46
237.245	10.76
237.628	8
238.011	9.49
238.394	6.09
238.777	10.25
239.16	8.62
239.543	7.75
239.925	8.54
240.308	9.06
240.691	8.04
241.073	7.98
241.456	9.24
241.838	6.54
242.221	8.58
242.603	8.71
242.986	8.03
243.368	8.41
243.75	7.84
244.133	7.69
244.515	8.09
244.897	8.08
245.279	8.6
245.661	7.32
246.043	7.41
246.425	8.24
246.807	6.94
247.189	7.94
247.571	7.62
247.953	7.36
248.335	7.59
248.717	7.36
249.098	7.53
249.48	7.22
249.862	7.17
250.243	7.08
250.625	7.75
251.006	7.84
251.388	7.97
251.769	6.91
252.151	7.45
252.532	8.09
252.913	8.14
253.295	8.13
253.676	6.92
254.057	6.98
254.438	7.68
254.819	7.05
255.2	6.77
255.581	7.77
255.962	6.65
256.343	7.25
256.724	7.09
257.105	7.93
257.486	5.94
257.867	6.68
258.247	6.13
258.628	7.03
259.009	6.26
259.389	6.51
259.77	6.09
260.15	7.17
260.531	7.6
260.911	7.22
261.292	6.55
261.672	6.57
262.052	6.53
262.432	6.81
262.813	6.95
263.193	6.91
263.573	7.3
263.953	7.35
264.333	7.79
264.713	7.2
265.093	6.67
265.473	8.03
265.853	5.87
266.233	6.06
266.612	6.28
266.992	6.76
267.372	6.97
267.752	7.33
268.131	6.18
268.511	6.36
268.89	6.43
269.27	5.98
269.649	6.46
270.029	6.85
270.408	7.06
270.787	6.61
271.167	6.55
271.546	6.6
271.925	6.69
272.304	6.83
272.683	5.96
273.062	6.18
273.441	6.61
273.82	5.79
274.199	6.64
274.578	6.29
274.957	6.31
275.336	6.34
275.715	6.45
276.093	5.88
276.472	6.79
276.851	6.63
277.229	6.13
277.608	6.1
277.986	5.64
278.365	6.02
278.743	6.55
279.122	6.63
279.5	5.57
279.878	5.44
280.257	6.62
280.635	6.24
281.013	6.22
281.391	6.52
281.769	6.29
282.147	6.35
282.525	5.58
282.903	5.97
283.281	5.6
283.659	6.04
284.037	5.94
284.415	6.14
284.792	6.15
285.17	5.81
285.548	6.18
285.925	5.84
286.303	5.51
286.68	6.04
287.058	6.27
287.435	6.06
287.813	5.57
288.19	5.78
288.567	5.74
288.945	6.14
289.322	5.45
289.699	5.86
290.076	5.8
290.453	5.51
290.83	5.68
291.207	6.24
291.584	5.81
291.961	5.62
292.338	5.5
292.715	5.55
293.092	5.98
293.469	5.77
293.845	5.79
294.222	5.2
294.599	6.09
294.975	5.61
295.352	5.24
295.728	5.79
296.105	5.92
296.481	6.07
296.858	5.61
297.234	6.01
297.61	5.56
297.986	5.41
298.363	5.62
298.739	5.68
299.115	5.18
299.491	5.35
299.867	5.52
300.243	5.04
300.619	5.47
300.995	5.59
301.371	5.38
301.746	5.77
302.122	5.77
302.498	5.33
302.874	5.58
303.249	5.8
303.625	4.97
304	5.11
304.376	5.76
304.751	5.94
305.127	5.49
305.502	5.44
305.878	5.67
306.253	4.93
306.628	5.63
307.003	5.33
307.378	5.26
307.754	4.92
308.129	4.98
308.504	5.72
308.879	5.49
309.254	5.42
309.629	4.9
310.003	5.54
310.378	5.23
310.753	5.17
311.128	5.55
311.502	5.09
311.877	5.22
312.252	5
312.626	5.11
313.001	4.77
313.375	4.94
313.75	5.21
314.124	5.74
314.498	5.28
314.873	5.24
315.247	5.65
315.621	5.17
315.995	5.49
316.369	5.73
316.743	4.98
317.117	4.67
317.491	5.23
317.865	5.22
318.239	4.85
318.613	5.29
318.987	5.5
319.361	4.85
319.734	4.87
320.108	4.88
320.482	4.95
320.855	4.72
321.229	5.37
321.602	4.78
321.976	5.54
322.349	5.75
322.723	5.44
323.096	5.17
323.469	5.12
323.843	5.12
324.216	5.27
324.589	5.72
324.962	5.27
325.335	5.06
325.708	4.96
326.081	4.95
326.454	5.13
326.827	5.72
327.2	5.42
327.573	4.91
327.945	5.05
328.318	5.48
328.691	4.48
329.063	5.17
329.436	4.76
329.809	5.17
330.181	4.57
330.553	5.04
330.926	5.13
331.298	4.64
331.671	4.67
332.043	5.12
332.415	5.05
332.787	5.2
333.159	5.3
333.532	5.47
333.904	5.12
334.276	5.31
334.648	4.96
335.02	4.96
335.391	4.64
335.763	5.04
336.135	4.98
336.507	6.12
336.879	4.34
337.25	5.31
337.622	5.48
337.993	4.57
338.365	4.51
338.736	5.14
339.108	4.64
339.479	5.04
339.851	4.48
340.222	4.81
340.593	4.78
340.964	4.94
341.336	5.09
341.707	4.84
342.078	4.76
342.449	5.2
342.82	5.28
343.191	5.32
343.562	5.04
343.933	5.34
344.303	5.25
344.674	5.36
345.045	5.53
345.416	5.1
345.786	4.81
346.157	4.92
346.527	5.44
346.898	4.91
347.268	4.95
347.639	5.05
348.009	5.03
348.38	4.7
348.75	5.36
349.12	4.97
349.49	4.97
349.861	5.35
350.231	4.83
350.601	5.42
350.971	5.41
351.341	5.2
351.711	5.36
352.081	4.86
352.45	4.81
352.82	5.07
353.19	5.01
353.56	5.21
353.929	4.97
354.299	5.31
354.669	5.3
355.038	4.95
355.408	5
355.777	5.39
356.147	5.12
356.516	5.22
356.885	5.5
357.254	5.24
357.624	5.16
357.993	5.18
358.362	5.44
358.731	5.45
359.1	5.05
359.469	5.18
359.838	5.43
360.207	5.14
360.576	5.49
360.945	5.07
361.314	5.53
361.682	5.26
362.051	5.47
362.42	5.47
362.788	5.25
363.157	5.43
363.525	5.37
363.894	5.4
364.262	5.28
364.631	5.2
364.999	5.47
365.367	5.24
365.735	5.27
366.104	5.27
366.472	5.12
366.84	5.36
367.208	5.27
367.576	5.36
367.944	5.39
368.312	5.44
368.68	5.33
369.048	5.48
369.416	5.43
369.783	5.46
370.151	5.57
370.519	5.05
370.886	5.38
371.254	5.44
371.621	5.97
371.989	5.35
372.356	5.6
372.724	5.53
373.091	5.66
373.458	5.63
373.826	5.27
374.193	4.93
374.56	5.59
374.927	5.75
375.294	5.5
375.661	5.79
376.028	5.76
376.395	5.82
376.762	6.19
377.129	5.68
377.496	5.41
377.863	5.5
378.229	5.54
378.596	5.17
378.963	5.65
379.329	5.39
379.696	5.57
380.062	6.12
380.429	5.58
380.795	5.79
381.161	5.92
381.528	6.07
381.894	5.83
382.26	5.76
382.626	5.47
382.993	5.7
383.359	5.21
383.725	5.67
384.091	5.61
384.457	5.54
384.823	5.84
385.188	5.96
385.554	5.92
385.92	5.69
386.286	5.91
386.651	5.63
387.017	5.78
387.383	5.81
387.748	5.9
388.114	6.08
388.479	6.07
388.845	5.57
389.21	5.81
389.575	5.76
389.94	5.82
390.306	5.79
390.671	5.65
391.036	5.93
391.401	5.84
391.766	6.01
392.131	6.03
392.496	5.62
392.861	5.69
393.226	5.92
393.591	5.88
393.956	5.88
394.32	5.96
394.685	5.85
395.05	5.97
395.414	5.82
395.779	6.04
396.143	6.23
396.508	5.71
396.872	6.08
397.236	5.84
397.601	5.78
397.965	5.97
398.329	6.25
398.694	6.01
399.058	6.01
399.422	5.92
399.786	5.94
400.15	5.87
400.514	6.13
400.878	6.06
401.242	6.04
401.605	6.07
401.969	5.86
402.333	6.25
402.697	5.9
403.06	5.86
403.424	6.16
403.787	5.69
404.151	6.45
404.514	5.91
404.878	5.95
405.241	6.1
405.604	5.8
405.968	5.97
406.331	6.02
406.694	6.28
407.057	6.05
407.42	5.95
407.783	6.05
408.146	6.02
408.509	6.04
408.872	6.21
409.235	6.17
409.598	6.07
409.961	6.13
410.323	5.96
410.686	6.2
411.049	6.35
411.411	6.41
411.774	6.18
412.136	6.19
412.499	6.15
412.861	6.26
413.223	6.45
413.586	6.13
413.948	6.24
414.31	6.31
414.672	6.44
415.035	6.07
415.397	5.98
415.759	6.21
416.121	6.12
416.483	6.32
416.845	6.11
417.206	6.36
417.568	6.24
417.93	6.38
418.292	6.17
418.653	6.27
419.015	6.05
419.377	6.15
419.738	6.2
420.1	6.21
420.461	6.25
420.822	6.23
421.184	6.17
421.545	6.36
421.906	6.15
422.267	6.13
422.629	6.15
422.99	6.15
423.351	6.05
423.712	6.15
424.073	6.11
424.434	6.13
424.795	6.22
425.155	6.04
425.516	6.01
425.877	6.15
426.238	6.18
426.598	6.17
426.959	6.13
427.32	6.16
427.68	6.17
428.041	6.23
428.401	6.25
428.761	6.22
429.122	6.38
429.482	6.55
429.842	6.49
430.202	6.27
430.563	6.35
430.923	6.53
431.283	6.27
431.643	6.55
432.003	6.27
432.363	6.46
432.722	6.4
433.082	6.4
433.442	6.3
433.802	6.6
434.161	6.27
434.521	6.25
434.881	6.22
435.24	6.4
435.6	6.27
435.959	6.4
436.319	6.39
436.678	6.5
437.037	6.5
437.396	6.34
437.756	6.49
438.115	6.42
438.474	6.29
438.833	6.63
439.192	6.5
439.551	6.52
439.91	6.22
440.269	6.29
440.628	6.3
440.987	6.27
441.345	6.36
441.704	6.36
442.063	6.42
442.421	6.33
442.78	6.37
443.138	6.32
443.497	6.34
443.855	6.46
444.214	6.4
444.572	6.53
444.93	6.53
445.288	6.33
445.647	6.42
446.005	6.35
446.363	6.21
446.721	6.29
447.079	6.36
447.437	6.2
447.795	6.3
448.153	6.2
448.51	6.36
448.868	6.36
449.226	6.39
449.584	6.42
449.941	6.41
450.299	6.33
450.656	6.35
451.014	6.49
451.371	6.49
451.729	6.58
452.086	6.39
452.443	6.55
452.801	6.44
453.158	6.57
453.515	6.53
453.872	6.46
454.229	6.43
454.586	6.4
454.943	6.4
455.3	6.45
455.657	6.48
456.014	6.79
456.371	6.55
456.727	6.74
457.084	6.54
457.441	6.63
457.797	6.55
458.154	6.57
458.51	6.44
458.867	6.54
459.223	6.66
459.58	6.49
459.936	6.58
460.292	6.61
460.648	6.57
461.005	6.45
461.361	6.4
461.717	6.44
462.073	6.41
462.429	6.44
462.785	6.51
463.141	6.55
463.496	6.5
463.852	6.73
464.208	6.57
464.564	6.67
464.919	6.71
465.275	6.61
465.631	6.67
465.986	6.62
466.342	6.61
466.697	6.61
467.052	6.83
467.408	6.64
467.763	6.79
468.118	6.57
468.473	6.8
468.829	6.67
469.184	6.58
469.539	6.73
469.894	6.77
470.249	6.62
470.603	6.71
470.958	6.72
471.313	6.81
471.668	6.71
472.023	6.61
472.377	6.65
472.732	6.63
473.086	6.69
473.441	6.8
473.795	6.78
474.15	6.69
474.504	6.71
474.859	6.55
475.213	6.57
475.567	6.63
475.921	6.67
476.275	6.61
476.63	6.71
476.984	6.75
477.338	6.52
477.692	6.6
478.045	6.7
478.399	6.62
478.753	6.65
479.107	6.6
479.461	6.65
479.814	6.62
480.168	6.49
480.521	6.54
480.875	6.5
481.228	6.69
481.582	6.53
481.935	6.65
482.289	6.63
482.642	6.68
482.995	6.72
483.348	6.57
483.701	6.63
484.055	6.57
484.408	6.48
484.761	6.46
485.114	6.38
485.466	6.24
485.819	6.22
486.172	6.2
486.525	6.3
486.878	6.33
487.23	6.4
487.583	6.45
487.936	6.55
488.288	6.37
488.641	6.33
488.993	6.41
489.345	6.39
489.698	6.3
490.05	6.35
490.402	6.41
490.754	6.39
491.107	6.41
491.459	6.47
491.811	6.49
492.163	6.52
492.515	6.53
492.866	6.46
493.218	6.35
493.57	6.36
493.922	6.29
494.274	6.43
494.625	6.58
494.977	6.63
495.328	6.75
495.68	6.54
496.031	6.71
496.383	6.67
496.734	6.67
497.086	6.66
497.437	6.63
497.788	6.62
498.139	6.61
498.49	6.69
498.842	6.53
499.193	6.57
499.544	6.58
499.894	6.69
500.245	6.83
500.596	6.61
500.947	6.66
501.298	6.61
501.648	6.73
501.999	6.64
502.35	6.63
502.7	6.73
503.051	6.66
503.401	6.6
503.752	6.75
504.102	6.88
504.452	6.8
504.803	6.74
505.153	6.7
505.503	6.75
505.853	6.77
506.203	6.68
506.553	6.51
506.903	6.65
507.253	6.75
507.603	6.84
507.953	6.7
508.303	6.72
508.652	6.54
509.002	6.7
509.352	6.64
509.701	6.71
510.051	6.64
510.4	6.59
510.75	6.52
511.099	6.61
511.449	6.72
511.798	6.65
512.147	6.66
512.496	6.79
512.846	6.73
513.195	6.54
513.544	6.68
513.893	6.66
514.242	6.59
514.591	6.62
514.939	6.66
515.288	6.54
515.637	6.46
515.986	6.59
516.334	6.68
516.683	6.64
517.032	6.72
517.38	6.68
517.729	6.67
518.077	6.65
518.426	6.67
518.774	6.64
519.122	6.62
519.47	6.5
519.819	6.46
520.167	6.46
520.515	6.5
520.863	6.55
521.211	6.49
521.559	6.52
521.907	6.52
522.255	6.61
522.602	6.57
522.95	6.45
523.298	6.49
523.645	6.68
523.993	6.66
524.341	6.7
524.688	6.49
525.036	6.71
525.383	6.6
525.73	6.39
526.078	6.6
526.425	6.54
526.772	6.46
527.119	6.5
527.466	6.43
527.814	6.39
528.161	6.51
528.508	6.5
528.854	6.38
529.201	6.35
529.548	6.35
529.895	6.27
530.242	6.19
530.588	6.21
530.935	6.24
531.282	6.27
531.628	6.34
531.975	6.33
532.321	6.36
532.667	6.4
533.014	6.42
533.36	6.38
533.706	6.38
534.052	6.4
534.399	6.44
534.745	6.35
535.091	6.3
535.437	6.34
535.783	6.3
536.129	6.4
536.474	6.48
536.82	6.38
537.166	6.55
537.512	6.51
537.857	6.43
538.203	6.44
538.549	6.39
538.894	6.42
539.239	6.34
539.585	6.45
539.93	6.49
540.276	6.45
540.621	6.38
540.966	6.48
541.311	6.43
541.656	6.47
542.001	6.45
542.346	6.37
542.691	6.28
543.036	6.16
543.381	6.17
543.726	6.2
544.071	6.22
544.415	6.26
544.76	6.4
545.105	6.38
545.449	6.34
545.794	6.43
546.138	6.28
546.483	6.36
546.827	6.29
547.171	6.46
547.516	6.35
547.86	6.42
548.204	6.43
548.548	6.36
548.892	6.41
549.236	6.41
549.58	6.48
549.924	6.41
550.268	6.41
550.612	6.33
550.956	6.4
551.3	6.49
551.643	6.37
551.987	6.73
552.33	6.43
552.674	6.6
553.017	6.47
553.361	6.46
553.704	6.55
554.048	6.45
554.391	6.45
554.734	6.39
555.077	6.44
555.42	6.33
555.764	6.56
556.107	6.62
556.45	6.32
556.793	6.31
557.135	6.39
557.478	6.29
557.821	6.29
558.164	6.38
558.507	6.43
558.849	6.39
559.192	6.45
559.534	6.42
559.877	6.46
560.219	6.45
560.562	6.6
560.904	6.35
561.246	6.33
561.589	6.38
561.931	6.45
562.273	6.4
562.615	6.3
562.957	6.47
563.299	6.46
563.641	6.36
563.983	6.42
564.325	6.48
564.667	6.33
565.008	6.24
565.35	6.07
565.692	6.26
566.033	6.52
566.375	6.32
566.716	6.17
567.058	6.44
567.399	6.36
567.741	6.28
568.082	6.1
568.423	6.25
568.764	6.35
569.105	6.24
569.447	6.49
569.788	6.34
570.129	6.09
570.47	6.29
570.811	6.28
571.151	6.33
571.492	6.24
571.833	6.29
572.174	6.29
572.514	6.36
572.855	6.38
573.195	6.06
573.536	6.19
573.876	6.15
574.217	6.29
574.557	6.19
574.898	6.16
575.238	6.38
575.578	6.22
575.918	6.15
576.258	6.41
576.598	6.26
576.938	6.26
577.278	6.16
577.618	6.1
577.958	6.12
578.298	6.2
578.638	6.04
578.977	6.24
579.317	6.19
579.657	6.35
579.996	6.44
580.336	6.3
580.675	6.13
581.014	6.18
581.354	6.16
581.693	5.99
582.032	6.04
582.372	6.34
582.711	6.19
583.05	6.41
583.389	6.18
583.728	6.07
584.067	6.2
584.406	6.69
584.745	6.22
585.083	5.95
585.422	6.25
585.761	6.54
586.1	6.17
586.438	6.38
586.777	6.12
587.115	6.01
587.454	6.11
587.792	5.87
588.13	6.32
588.469	6.14
588.807	5.81
589.145	6.22
589.483	6.2
589.821	6.52
590.159	6.14
590.497	6.04
590.835	6.09
591.173	6.03
591.511	6.04
591.849	6.05
592.187	6.06
592.524	5.93
592.862	6.09
593.2	6.1
593.537	5.98
593.875	6.3
594.212	6.14
594.55	6.16
594.887	6.42
595.224	6.02
595.561	6.23
595.899	5.88
596.236	6.07
596.573	6.02
596.91	6.24
597.247	5.87
597.584	5.96
597.921	5.89
598.258	6.12
598.594	6.13
598.931	5.99
599.268	5.99
599.604	5.73
599.941	5.92
600.277	5.91
600.614	6.1
600.95	6.05
601.287	6.02
601.623	6.12
601.959	6.06
602.296	6.19
602.632	5.55
602.968	5.99
603.304	5.78
603.64	6.14
603.976	5.69
604.312	5.91
604.648	5.89
604.984	5.94
605.319	5.9
605.655	6.04
605.991	5.97
606.326	5.79
606.662	5.9
606.998	5.7
607.333	6.06
607.668	5.82
608.004	5.83
608.339	6.17
608.674	6.09
609.01	5.92
609.345	6.05
609.68	5.87
610.015	5.87
610.35	5.78
610.685	5.9
611.02	5.8
611.355	5.85
611.689	5.73
612.024	5.68
612.359	5.91
612.694	5.9
613.028	5.93
613.363	5.92
613.697	5.9
614.032	6.01
614.366	6.11
614.7	5.96
615.035	5.63
615.369	5.69
615.703	5.56
616.037	5.61
616.371	5.74
616.705	5.76
617.039	6.02
617.373	5.75
617.707	5.53
618.041	5.76
618.375	5.66
618.709	5.85
619.042	5.76
619.376	5.64
619.71	5.65
620.043	5.85
620.377	5.94
620.71	5.66
621.043	5.57
621.377	5.51
621.71	5.99
622.043	6.02
622.376	6.3
622.709	5.89
623.043	5.94
623.376	6.05
623.709	6.13
624.041	6.24
624.374	5.68
624.707	5.88
625.04	5.72
625.373	5.91
625.705	6.07
626.038	6.08
626.37	6.03
626.703	6.1
627.035	5.6
627.368	6.2
627.7	5.61
628.032	5.71
628.365	5.6
628.697	5.92
629.029	5.53
629.361	5.47
629.693	5.67
630.025	5.47
630.357	5.7
630.689	5.09
631.021	5.98
631.353	6.01
631.684	5.68
632.016	5.57
632.348	5.91
632.679	5.39
633.011	5.93
633.342	5.84
633.674	6.18
634.005	5.66
634.336	6.14
634.668	5.74
634.999	5.91
635.33	5.76
635.661	5.8
635.992	5.98
636.323	5.47
636.654	6.05
636.985	5.68
637.316	5.82
637.647	5.77
637.977	5.79
638.308	5.96
638.639	5.86
638.969	5.79
639.3	5.62
639.63	6.19
639.961	5.71
640.291	5.5
640.622	5.24
640.952	6.11
641.282	5.75
641.612	5.89
641.943	5.85
642.273	5.99
642.603	6.08
642.933	5.56
643.263	5.37
643.592	5.91
643.922	6.05
644.252	5.68
644.582	5.12
644.911	6.15
645.241	5.19
645.571	6.04
645.9	5.5
646.23	5.63
646.559	6.34
646.888	6.15
647.218	6.16
647.547	5.59
647.876	5.28
648.205	5.06
648.534	5.93
648.863	5.63
649.192	6.19
649.521	5.88
649.85	4.85
650.179	5.98
650.508	5.79
650.837	6.13
651.165	5.54
651.494	5.31
651.822	6
652.151	6.01
652.479	6.18
652.808	5.65
653.136	5.97
653.465	5.81
653.793	5.43
654.121	5.61
654.449	5.4
654.777	5.89
655.105	5.91
655.433	5.64
655.761	5.95
656.089	5.61
656.417	5.78
656.745	5.81
657.073	5.53
657.4	5.68
657.728	5.11
658.056	5.64
658.383	5.62
658.711	5.51
659.038	5.72
659.365	6.03
659.693	6.01
660.02	5.62
660.347	5.49
660.674	5.71
661.001	5.59
661.329	5.55
661.656	5.57
661.982	5.57
662.309	5.82
662.636	5.68
662.963	5.85
663.29	6.09
663.616	5.79
663.943	5.85
664.27	5.74
664.596	6.28
664.923	6.4
665.249	5.88
665.576	6.06
665.902	5.74
666.228	5.46
666.554	5.77
666.881	5.43
667.207	6.24
667.533	6.25
667.859	5.91
668.185	5.69
668.511	6.2
668.837	5.58
669.162	6.24
669.488	5.51
669.814	5.57
670.139	5.57
670.465	5.27
670.791	5.61
671.116	5.71
671.442	4.88
671.767	5.87
672.092	6.09
672.418	5.38
672.743	5.83
673.068	4.39
673.393	5.48
673.718	5.26
674.043	6.3
674.368	5.1
674.693	5.71
675.018	5.32
675.343	5.58
675.667	5.7
675.992	5.41
676.317	5.28
676.641	5.52
676.966	5.95
677.29	5.53
677.615	5.64
677.939	6.02
678.264	5.89
678.588	5.72
678.912	6
679.236	5.33
679.56	5.76
679.885	5.55
680.209	5.89
680.532	6.01
680.856	5.3
681.18	5.64
681.504	5.9
681.828	5.59
682.152	4.98
682.475	5.81
682.799	5.61
683.122	5.97
683.446	5.42
683.769	6.43
684.093	5.03
684.416	5.64
684.739	5.95
685.062	5.76
685.386	5.84
685.709	6.1
686.032	6.04
686.355	5.67
686.678	6.42
687.001	5.86
687.324	5.79
687.646	5.78
687.969	5.51
688.292	5.84
688.614	5.72
688.937	5.66
689.26	5.33
689.582	5.49
689.904	5.99
690.227	5.94
690.549	6.27
690.871	6
691.194	6.26
691.516	6.44
691.838	6.2
692.16	6.6
692.482	5.37
692.804	5.45
