Data from 446_forehead_Reflection__4__29.txt Node

Date: Tue Dec 12 18:25:10 CST 2023
User: ToomeyLab
Spectrometer: FLMS14357
Trigger mode: 0
Integration Time (sec): 1.000000E-2
Scans to average: 100
Electric dark correction enabled: true
Nonlinearity correction enabled: false
Boxcar width: 0
XAxis mode: Wavelengths
Number of Pixels in Spectrum: 2048
>>>>>Begin Spectral Data<<<<<
189.047	5.9
189.435	5.9
189.823	5.9
190.211	1673.33
190.599	-1281.02
190.987	57.63
191.375	-148.36
191.763	-243.86
192.151	-1609.34
192.538	16.33
192.926	251.34
193.314	-176.49
193.702	1096.42
194.089	142.94
194.477	-199.91
194.864	94.85
195.252	133.89
195.639	184.4
196.027	98.12
196.414	521.38
196.801	35.74
197.189	-272.03
197.576	-65.07
197.963	48.28
198.351	37.1
198.738	43.43
199.125	25.64
199.512	36.51
199.899	50.26
200.286	19.58
200.673	13.52
201.06	41.06
201.447	-49.46
201.833	40.95
202.22	20.74
202.607	-38.81
202.994	7.41
203.38	30.18
203.767	49.18
204.154	20.53
204.54	36.54
204.927	23.21
205.313	35.53
205.699	21.52
206.086	-2.43
206.472	43.22
206.858	96.14
207.245	31.45
207.631	35.88
208.017	20.86
208.403	23.14
208.789	47.64
209.175	-10.99
209.561	53.38
209.947	36.87
210.333	57.06
210.719	20.37
211.105	32.64
211.491	44.07
211.876	37.58
212.262	35.25
212.648	51.57
213.034	4
213.419	19.1
213.805	21.51
214.19	32.26
214.576	23.27
214.961	7.75
215.346	23.8
215.732	26.12
216.117	33.28
216.502	9.37
216.888	6.29
217.273	-35.15
217.658	7.98
218.043	-4.02
218.428	24.27
218.813	20.72
219.198	8.35
219.583	21.87
219.968	30.27
220.353	17.18
220.738	25.22
221.122	20.18
221.507	12.36
221.892	20.18
222.276	9.65
222.661	17.53
223.046	23.65
223.43	26.63
223.815	13.32
224.199	14.82
224.583	16.31
224.968	11.71
225.352	3.7
225.736	18.93
226.121	12.46
226.505	16.58
226.889	10
227.273	14.56
227.657	12.96
228.041	8.81
228.425	7.48
228.809	7.74
229.193	6.06
229.577	6.99
229.961	6.21
230.344	6.64
230.728	6.67
231.112	6.91
231.495	6.18
231.879	7.72
232.263	5.92
232.646	6.25
233.03	6.81
233.413	7.4
233.797	6.53
234.18	5.84
234.563	5.45
234.946	10.78
235.33	8.41
235.713	7.69
236.096	7.12
236.479	7.47
236.862	8.17
237.245	8.15
237.628	7.54
238.011	7.35
238.394	6.8
238.777	6.73
239.16	7.53
239.543	8.11
239.925	8.19
240.308	7.48
240.691	7.99
241.073	8.1
241.456	7.37
241.838	7.43
242.221	6.93
242.603	7.38
242.986	6.66
243.368	6.99
243.75	6.61
244.133	6.44
244.515	6.56
244.897	6.68
245.279	7.02
245.661	6.07
246.043	6.65
246.425	7.65
246.807	7.41
247.189	6.62
247.571	7.13
247.953	6.23
248.335	6.6
248.717	6.47
249.098	6.48
249.48	6.09
249.862	6.24
250.243	6.55
250.625	7.19
251.006	6.86
251.388	6.67
251.769	6.06
252.151	6.54
252.532	7.04
252.913	7.68
253.295	7.75
253.676	6.23
254.057	6.65
254.438	7.45
254.819	6.66
255.2	7.28
255.581	6.75
255.962	6.12
256.343	7.18
256.724	7.17
257.105	7.52
257.486	6.77
257.867	6.54
258.247	6.31
258.628	7.33
259.009	6.79
259.389	6.56
259.77	7.07
260.15	6.66
260.531	6.86
260.911	6.66
261.292	6.24
261.672	6.02
262.052	6.16
262.432	6.29
262.813	6.79
263.193	6.62
263.573	7.38
263.953	7.45
264.333	7.05
264.713	6.24
265.093	6.7
265.473	7.52
265.853	6.18
266.233	6.25
266.612	6.1
266.992	6.38
267.372	6.96
267.752	7.18
268.131	6.04
268.511	6.05
268.89	6.31
269.27	5.92
269.649	6.24
270.029	7.21
270.408	6.76
270.787	6.17
271.167	6.08
271.546	6.74
271.925	7.19
272.304	6.66
272.683	5.66
273.062	6.38
273.441	6.31
273.82	6.03
274.199	6.21
274.578	6.29
274.957	6.11
275.336	6.18
275.715	6.35
276.093	6.2
276.472	6.51
276.851	6.55
277.229	6.07
277.608	6.31
277.986	6.13
278.365	6.48
278.743	6.5
279.122	6.81
279.5	5.8
279.878	5.87
280.257	5.71
280.635	6.43
281.013	6.28
281.391	6.79
281.769	6.49
282.147	6.57
282.525	6.09
282.903	6.38
283.281	6.12
283.659	6.08
284.037	6.47
284.415	6.33
284.792	6.45
285.17	6.02
285.548	6.39
285.925	6.21
286.303	6.17
286.68	6.27
287.058	5.97
287.435	6.12
287.813	6.12
288.19	6.21
288.567	6.01
288.945	6.22
289.322	5.99
289.699	6.67
290.076	6.42
290.453	6.77
290.83	6.16
291.207	6.61
291.584	6.68
291.961	6.64
292.338	6.18
292.715	6.78
293.092	6.48
293.469	6.37
293.845	6.92
294.222	7.04
294.599	6.81
294.975	6.44
295.352	7.04
295.728	7.09
296.105	6.94
296.481	7.09
296.858	6.94
297.234	7.44
297.61	7.18
297.986	6.95
298.363	7.32
298.739	7.25
299.115	6.63
299.491	7
299.867	6.96
300.243	6.71
300.619	7.08
300.995	7.7
301.371	7.19
301.746	7.07
302.122	8.04
302.498	7.68
302.874	7.31
303.249	7.91
303.625	7.32
304	7.93
304.376	8
304.751	7.95
305.127	7.92
305.502	7.86
305.878	7.61
306.253	8.01
306.628	7.98
307.003	8.05
307.378	8.1
307.754	7.64
308.129	8.17
308.504	9.19
308.879	8.3
309.254	8.3
309.629	8.25
310.003	8.47
310.378	8.42
310.753	8.31
311.128	8.93
311.502	8.28
311.877	8.53
312.252	8.53
312.626	8.92
313.001	8.89
313.375	8.75
313.75	9.1
314.124	9.16
314.498	8.75
314.873	9.01
315.247	9.28
315.621	8.72
315.995	9.58
316.369	8.99
316.743	8.87
317.117	8.88
317.491	9.19
317.865	9.21
318.239	9.57
318.613	10.04
318.987	9.86
319.361	9.94
319.734	9.91
320.108	10.24
320.482	9.75
320.855	9.83
321.229	10.77
321.602	10.43
321.976	10.16
322.349	10.92
322.723	10.88
323.096	10.97
323.469	10.25
323.843	10.51
324.216	10.53
324.589	10.87
324.962	10.98
325.335	11.3
325.708	10.82
326.081	11.15
326.454	10.64
326.827	11.11
327.2	10.99
327.573	11.04
327.945	10.98
328.318	10.94
328.691	10.49
329.063	11.38
329.436	11.55
329.809	11.52
330.181	10.87
330.553	11.51
330.926	12.07
331.298	11.08
331.671	11.5
332.043	12.19
332.415	11.41
332.787	11.28
333.159	11.28
333.532	11.64
333.904	11.95
334.276	12.35
334.648	11.3
335.02	11.53
335.391	11.78
335.763	12.28
336.135	12.36
336.507	12.19
336.879	11.57
337.25	12.3
337.622	11.94
337.993	12.17
338.365	12.14
338.736	12.16
339.108	12.32
339.479	12.76
339.851	12.06
340.222	11.7
340.593	12.87
340.964	12.59
341.336	12.64
341.707	12.25
342.078	12.07
342.449	12.43
342.82	12.84
343.191	12.76
343.562	12.94
343.933	12.81
344.303	13.55
344.674	13.2
345.045	12.79
345.416	13.24
345.786	12.71
346.157	13.48
346.527	13.93
346.898	13.27
347.268	13.43
347.639	13.31
348.009	12.91
348.38	13.57
348.75	13.75
349.12	13.67
349.49	13.56
349.861	14.37
350.231	13.63
350.601	13.94
350.971	13.87
351.341	13.76
351.711	13.94
352.081	14.03
352.45	14.16
352.82	14.3
353.19	13.77
353.56	14.36
353.929	13.88
354.299	13.95
354.669	14.6
355.038	14.35
355.408	14.17
355.777	14.59
356.147	14.33
356.516	14.58
356.885	14.25
357.254	15
357.624	14.48
357.993	14.57
358.362	14.71
358.731	14.57
359.1	14.49
359.469	14.92
359.838	14.56
360.207	14.53
360.576	15.15
360.945	15.11
361.314	15.32
361.682	15.13
362.051	15.28
362.42	15.27
362.788	15.03
363.157	15.58
363.525	15.66
363.894	15.22
364.262	15.34
364.631	15.41
364.999	15.67
365.367	15.74
365.735	15.66
366.104	15.89
366.472	15.37
366.84	16.16
367.208	16.06
367.576	15.74
367.944	16.07
368.312	16.43
368.68	15.92
369.048	16.12
369.416	16.39
369.783	16.32
370.151	16.11
370.519	16.5
370.886	16.38
371.254	16.23
371.621	17.05
371.989	16.43
372.356	16.71
372.724	16.48
373.091	17.05
373.458	16.68
373.826	17.18
374.193	16.67
374.56	17.38
374.927	17.31
375.294	17.04
375.661	17.23
376.028	17.13
376.395	17.43
376.762	17.74
377.129	17.4
377.496	17.5
377.863	17.46
378.229	17.16
378.596	17.36
378.963	17.78
379.329	17.46
379.696	17.4
380.062	17.67
380.429	17.66
380.795	17.74
381.161	18.03
381.528	17.97
381.894	17.81
382.26	18.03
382.626	17.85
382.993	18.05
383.359	17.97
383.725	18.04
384.091	17.92
384.457	18.19
384.823	18.54
385.188	18.33
385.554	18.31
385.92	18.33
386.286	18.83
386.651	18.53
387.017	18.99
387.383	18.7
387.748	18.91
388.114	18.92
388.479	19.09
388.845	18.88
389.21	18.91
389.575	18.97
389.94	18.95
390.306	19.23
390.671	19.22
391.036	19.17
391.401	18.95
391.766	19.25
392.131	19.37
392.496	19.36
392.861	19
393.226	19.81
393.591	19.34
393.956	19.52
394.32	19.54
394.685	19.49
395.05	19.49
395.414	19.41
395.779	19.62
396.143	19.73
396.508	19.82
396.872	19.86
397.236	19.71
397.601	19.98
397.965	20.06
398.329	20.16
398.694	20.1
399.058	20.3
399.422	20.13
399.786	20.23
400.15	20.22
400.514	20.41
400.878	20.55
401.242	20.34
401.605	20.42
401.969	20.5
402.333	20.88
402.697	20.54
403.06	20.61
403.424	20.75
403.787	20.61
404.151	20.98
404.514	20.65
404.878	20.83
405.241	21.12
405.604	20.87
405.968	21.03
406.331	21.1
406.694	21.12
407.057	21.18
407.42	21.23
407.783	21.12
408.146	21.5
408.509	21.06
408.872	21.36
409.235	21.33
409.598	21.61
409.961	21.64
410.323	21.84
410.686	21.55
411.049	21.61
411.411	21.76
411.774	21.7
412.136	21.91
412.499	21.96
412.861	21.69
413.223	22.16
413.586	21.92
413.948	22.05
414.31	22.14
414.672	22.29
415.035	22.21
415.397	22.2
415.759	22.35
416.121	22.05
416.483	22.46
416.845	22.22
417.206	22.38
417.568	22.26
417.93	22.35
418.292	22.34
418.653	22.47
419.015	22.28
419.377	22.46
419.738	22.6
420.1	22.35
420.461	22.28
420.822	22.57
421.184	22.46
421.545	22.7
421.906	22.59
422.267	22.43
422.629	22.44
422.99	22.61
423.351	22.57
423.712	22.57
424.073	22.62
424.434	22.81
424.795	22.97
425.155	22.67
425.516	22.68
425.877	22.7
426.238	22.82
426.598	22.92
426.959	23.06
427.32	23.31
427.68	23.44
428.041	23.39
428.401	23.39
428.761	23.65
429.122	23.82
429.482	23.9
429.842	24.01
430.202	24.11
430.563	24.08
430.923	23.86
431.283	23.92
431.643	24.34
432.003	24.19
432.363	24.21
432.722	24.08
433.082	24.27
433.442	24.03
433.802	24.44
434.161	24.17
434.521	24.17
434.881	24.18
435.24	24.27
435.6	24.3
435.959	24.47
436.319	24.41
436.678	24.59
437.037	24.46
437.396	24.5
437.756	24.8
438.115	24.81
438.474	24.74
438.833	25.01
439.192	24.93
439.551	24.92
439.91	24.73
440.269	24.89
440.628	24.96
440.987	24.81
441.345	24.87
441.704	25.11
442.063	24.88
442.421	25.08
442.78	25
443.138	25.1
443.497	25.12
443.855	25.28
444.214	25.33
444.572	25.48
444.93	25.44
445.288	25.53
445.647	25.51
446.005	25.51
446.363	25.47
446.721	25.68
447.079	25.65
447.437	25.34
447.795	25.31
448.153	25.32
448.51	25.53
448.868	25.6
449.226	25.61
449.584	25.73
449.941	25.91
450.299	26.05
450.656	25.95
451.014	26.15
451.371	26.32
451.729	26.38
452.086	26.38
452.443	26.4
452.801	26.63
453.158	26.4
453.515	26.61
453.872	26.54
454.229	26.57
454.586	26.38
454.943	26.45
455.3	26.62
455.657	26.93
456.014	26.87
456.371	27.02
456.727	26.93
457.084	26.84
457.441	27.05
457.797	26.96
458.154	27.1
458.51	27
458.867	27.45
459.223	27.47
459.58	27.29
459.936	27.23
460.292	27.19
460.648	27.05
461.005	26.97
461.361	26.95
461.717	26.88
462.073	27.09
462.429	27.28
462.785	27.44
463.141	27.6
463.496	27.42
463.852	27.75
464.208	27.88
464.564	27.91
464.919	28.02
465.275	27.98
465.631	27.96
465.986	28.13
466.342	27.91
466.697	28.06
467.052	28.18
467.408	28.3
467.763	28.37
468.118	28.29
468.473	28.4
468.829	28.25
469.184	28.15
469.539	28.3
469.894	28.58
470.249	28.4
470.603	28.54
470.958	28.54
471.313	28.9
471.668	28.85
472.023	28.67
472.377	28.7
472.732	28.94
473.086	28.86
473.441	28.91
473.795	29.13
474.15	29.09
474.504	28.93
474.859	29.08
475.213	28.91
475.567	29.02
475.921	29.21
476.275	29.26
476.63	29.16
476.984	29.49
477.338	29.2
477.692	29.18
478.045	29.24
478.399	29.22
478.753	29.34
479.107	29.6
479.461	29.31
479.814	29.61
480.168	29.56
480.521	29.53
480.875	29.54
481.228	29.74
481.582	29.47
481.935	29.56
482.289	29.7
482.642	29.69
482.995	29.78
483.348	29.59
483.701	29.42
484.055	29.44
484.408	29.38
484.761	29.13
485.114	28.78
485.466	28.54
485.819	28.76
486.172	28.74
486.525	29.11
486.878	29.21
487.23	29.39
487.583	29.53
487.936	29.62
488.288	29.5
488.641	29.28
488.993	29.32
489.345	29.3
489.698	29.35
490.05	29.44
490.402	29.62
490.754	29.9
491.107	30.05
491.459	30.28
491.811	30.2
492.163	30.32
492.515	30.23
492.866	29.98
493.218	29.76
493.57	29.81
493.922	29.86
494.274	30.08
494.625	30.55
494.977	30.74
495.328	30.86
495.68	31.06
496.031	31.35
496.383	31.22
496.734	31.26
497.086	31.18
497.437	31.3
497.788	31.34
498.139	31.25
498.49	31.38
498.842	31.3
499.193	31.23
499.544	31.49
499.894	31.43
500.245	31.54
500.596	31.84
500.947	31.7
501.298	31.77
501.648	31.85
501.999	31.89
502.35	31.92
502.7	31.85
503.051	31.98
503.401	32.11
503.752	32.08
504.102	32.08
504.452	32.29
504.803	32.22
505.153	32.24
505.503	32.4
505.853	32.43
506.203	32.59
506.553	32.38
506.903	32.39
507.253	32.64
507.603	32.6
507.953	32.54
508.303	32.63
508.652	32.44
509.002	32.53
509.352	32.55
509.701	32.65
510.051	32.4
510.4	32.7
510.75	32.62
511.099	32.62
511.449	32.62
511.798	32.56
512.147	32.95
512.496	32.96
512.846	32.92
513.195	33.16
513.544	32.92
513.893	33.03
514.242	33.03
514.591	33.04
514.939	33.18
515.288	33.14
515.637	33.14
515.986	33.23
516.334	33.47
516.683	33.33
517.032	33.36
517.38	33.56
517.729	33.64
518.077	33.46
518.426	33.63
518.774	33.51
519.122	33.51
519.47	33.42
519.819	33.28
520.167	33.32
520.515	33.01
520.863	33.24
521.211	33.39
521.559	33.44
521.907	33.51
522.255	33.59
522.602	33.86
522.95	33.93
523.298	34.05
523.645	34.07
523.993	34.08
524.341	34.29
524.688	34.24
525.036	34.26
525.383	34.2
525.73	34.13
526.078	34.27
526.425	34.14
526.772	34.04
527.119	33.89
527.466	33.78
527.814	33.75
528.161	34.16
528.508	34.13
528.854	33.96
529.201	33.98
529.548	33.82
529.895	33.46
530.242	33.2
530.588	33.58
530.935	33.73
531.282	33.74
531.628	33.84
531.975	34.02
532.321	34.16
532.667	34.26
533.014	34.55
533.36	34.59
533.706	34.51
534.052	34.47
534.399	34.35
534.745	34.3
535.091	34.11
535.437	34.27
535.783	34.26
536.129	34.64
536.474	34.79
536.82	34.85
537.166	35.03
537.512	35.13
537.857	35.12
538.203	34.89
538.549	34.91
538.894	35.12
539.239	35.1
539.585	35.28
539.93	35.41
540.276	35.46
540.621	35.73
540.966	35.6
541.311	35.82
541.656	35.75
542.001	35.76
542.346	35.32
542.691	34.94
543.036	34.73
543.381	34.94
543.726	35.02
544.071	35.17
544.415	35.3
544.76	35.51
545.105	35.6
545.449	35.63
545.794	35.72
546.138	35.8
546.483	36
546.827	36.05
547.171	35.98
547.516	35.99
547.86	36.19
548.204	36.25
548.548	36.17
548.892	36.16
549.236	36.21
549.58	36.31
549.924	36.25
550.268	36.57
550.612	36.88
550.956	36.93
551.3	36.95
551.643	37.2
551.987	37.1
552.33	37.07
552.674	37.05
553.017	37.06
553.361	37.34
553.704	37.18
554.048	37.09
554.391	37.09
554.734	36.95
555.077	37.12
555.42	37.1
555.764	37.32
556.107	37.42
556.45	37.33
556.793	37.42
557.135	37.48
557.478	37.63
557.821	37.48
558.164	37.79
558.507	37.6
558.849	37.73
559.192	37.82
559.534	37.89
559.877	37.83
560.219	37.87
560.562	38.05
560.904	38.18
561.246	38.25
561.589	38.08
561.931	37.96
562.273	37.98
562.615	38.07
562.957	38.08
563.299	38.17
563.641	38.33
563.983	37.88
564.325	38.07
564.667	38.29
565.008	37.94
565.35	38.41
565.692	38.27
566.033	38.35
566.375	38.58
566.716	38.14
567.058	38.58
567.399	38.49
567.741	38.26
568.082	38.18
568.423	38.27
568.764	38.44
569.105	38.56
569.447	38.58
569.788	38.81
570.129	38.57
570.47	38.69
570.811	38.65
571.151	38.81
571.492	38.68
571.833	38.9
572.174	38.8
572.514	38.82
572.855	38.8
573.195	38.57
573.536	38.35
573.876	38.7
574.217	38.96
574.557	38.9
574.898	39.06
575.238	39.09
575.578	39.18
575.918	39.09
576.258	39.29
576.598	39.27
576.938	39.05
577.278	39.02
577.618	39.16
577.958	39.33
578.298	39.46
578.638	39.37
578.977	39.6
579.317	39.64
579.657	39.83
579.996	39.58
580.336	39.45
580.675	39.82
581.014	39.88
581.354	39.89
581.693	39.65
582.032	39.73
582.372	39.99
582.711	39.81
583.05	40.05
583.389	40.13
583.728	39.84
584.067	40.17
584.406	40.11
584.745	39.82
585.083	40.06
585.422	40.54
585.761	40.58
586.1	40.16
586.438	40.5
586.777	40.18
587.115	40.2
587.454	40.4
587.792	40.26
588.13	40.56
588.469	40.32
588.807	40.56
589.145	40.48
589.483	40.65
589.821	40.48
590.159	40.52
590.497	40.86
590.835	40.58
591.173	40.22
591.511	40.69
591.849	40.38
592.187	40.45
592.524	40.41
592.862	40.55
593.2	40.93
593.537	40.71
593.875	41.05
594.212	40.8
594.55	41.21
594.887	40.92
595.224	40.7
595.561	41.4
595.899	41.06
596.236	41.07
596.573	41.14
596.91	41.02
597.247	41.24
597.584	41.32
597.921	41.06
598.258	40.85
598.594	41.06
598.931	40.88
599.268	40.85
599.604	40.91
599.941	41.27
600.277	41.36
600.614	41.47
600.95	41.62
601.287	41.43
601.623	41.71
601.959	41.35
602.296	41.57
602.632	41.31
602.968	41.76
603.304	41.77
603.64	41.85
603.976	41.33
604.312	41.6
604.648	41.56
604.984	41.47
605.319	41.55
605.655	41.56
605.991	41.14
606.326	41.22
606.662	41.18
606.998	41.58
607.333	41.32
607.668	41.55
608.004	41.7
608.339	41.84
608.674	42.2
609.01	42.27
609.345	41.95
609.68	42.21
610.015	42.09
610.35	42.22
610.685	42.02
611.02	42.21
611.355	41.95
611.689	41.8
612.024	41.89
612.359	42.18
612.694	42.16
613.028	42.39
613.363	42.38
613.697	42.52
614.032	42.86
614.366	42.65
614.7	42.86
615.035	42.62
615.369	42.38
615.703	42.83
616.037	42.14
616.371	42.55
616.705	42.54
617.039	42.67
617.373	43.02
617.707	42.89
618.041	42.67
618.375	43.15
618.709	42.68
619.042	42.77
619.376	43.13
619.71	42.95
620.043	43.08
620.377	42.98
620.71	42.75
621.043	43.44
621.377	42.66
621.71	43.26
622.043	43.31
622.376	43.34
622.709	43.45
623.043	43.02
623.376	43.21
623.709	42.92
624.041	43.15
624.374	42.99
624.707	43.27
625.04	42.74
625.373	43.83
625.705	43.77
626.038	43.44
626.37	43.21
626.703	43.44
627.035	43.59
627.368	43.4
627.7	43.7
628.032	43.29
628.365	43.47
628.697	43.53
629.029	43.35
629.361	43.57
629.693	43.42
630.025	43.33
630.357	43.76
630.689	43.54
631.021	44.02
631.353	43.87
631.684	43.84
632.016	43.87
632.348	43.47
632.679	43.49
633.011	44.08
633.342	43.77
633.674	44.02
634.005	44.07
634.336	43.61
634.668	44.25
634.999	43.95
635.33	44.05
635.661	44.21
635.992	43.39
636.323	44.36
636.654	44.07
636.985	44
637.316	44.36
637.647	44.21
637.977	44.84
638.308	44.55
638.639	43.91
638.969	44.66
639.3	44.63
639.63	44.74
639.961	44.7
640.291	43.94
640.622	44.42
640.952	44.44
641.282	45.35
641.612	44.94
641.943	44.45
642.273	44.77
642.603	44.66
642.933	44.69
643.263	44.55
643.592	44.68
643.922	45.11
644.252	45.36
644.582	44.27
644.911	44.37
645.241	44.62
645.571	45.29
645.9	44.88
646.23	44.7
646.559	45.36
646.888	44.54
647.218	44.61
647.547	45.14
647.876	44.93
648.205	44.98
648.534	44.98
648.863	44.82
649.192	44.91
649.521	45.37
649.85	44.82
650.179	45.42
650.508	45.7
650.837	45.26
651.165	45.11
651.494	44.61
651.822	45.67
652.151	45.07
652.479	45.63
652.808	45.47
653.136	45.38
653.465	45.79
653.793	45.7
654.121	45.45
654.449	45.16
654.777	46.08
655.105	45.38
655.433	45.54
655.761	45.15
656.089	45.66
656.417	45.91
656.745	46.14
657.073	45.66
657.4	45.77
657.728	45.24
658.056	46.22
658.383	45.21
658.711	46.19
659.038	45.64
659.365	45.34
659.693	45.43
660.02	46.07
660.347	45.95
660.674	45.99
661.001	45.61
661.329	45.9
661.656	46.2
661.982	46.13
662.309	46.3
662.636	46.16
662.963	46.61
663.29	46.22
663.616	45.69
663.943	46.14
664.27	46.4
664.596	46.5
664.923	46.51
665.249	46.04
665.576	46.18
665.902	46.28
666.228	46.12
666.554	45.68
666.881	45.83
667.207	47.12
667.533	46.23
667.859	47.01
668.185	46.63
668.511	46.72
668.837	46.58
669.162	46.76
