Data from 446_forehead_Reflection__3__28.txt Node

Date: Tue Dec 12 18:24:59 CST 2023
User: ToomeyLab
Spectrometer: FLMS14357
Trigger mode: 0
Integration Time (sec): 1.000000E-2
Scans to average: 100
Electric dark correction enabled: true
Nonlinearity correction enabled: false
Boxcar width: 0
XAxis mode: Wavelengths
Number of Pixels in Spectrum: 2048
>>>>>Begin Spectral Data<<<<<
189.047	10.62
189.435	10.62
189.823	10.62
190.211	-631.11
190.599	1334.31
190.987	39.39
191.375	43.26
191.763	-1424.56
192.151	-867.82
192.538	24.83
192.926	530.45
193.314	-10.95
193.702	655.2
194.089	233.64
194.477	-17.39
194.864	42.31
195.252	125.91
195.639	-307.03
196.027	22.68
196.414	428.51
196.801	57.14
197.189	-109.09
197.576	16
197.963	70.93
198.351	59.66
198.738	15.93
199.125	31.35
199.512	-39.61
199.899	29.87
200.286	18.59
200.673	-2.34
201.06	-3.71
201.447	-56.71
201.833	-9.12
202.22	-6.86
202.607	-54.91
202.994	24.16
203.38	29.42
203.767	1.58
204.154	27.77
204.54	19.07
204.927	17.74
205.313	25.1
205.699	39.04
206.086	8.21
206.472	25.77
206.858	37.08
207.245	6.11
207.631	14.38
208.017	17.8
208.403	16.18
208.789	47.86
209.175	-24.56
209.561	44.66
209.947	30.74
210.333	24.63
210.719	23.19
211.105	28.81
211.491	40.5
211.876	36.34
212.262	24.26
212.648	26.31
213.034	-11.67
213.419	38.37
213.805	22.33
214.19	38.03
214.576	18.79
214.961	35.91
215.346	20.57
215.732	36.46
216.117	12.69
216.502	-15.67
216.888	37.71
217.273	-36.81
217.658	6.41
218.043	17.5
218.428	14.8
218.813	22.79
219.198	17.52
219.583	19.17
219.968	11.21
220.353	2.28
220.738	16.47
221.122	21.31
221.507	5.8
221.892	30.92
222.276	12.46
222.661	-0.02
223.046	2.76
223.43	13.36
223.815	12.06
224.199	16.99
224.583	-0.55
224.968	6.66
225.352	-1.17
225.736	13.45
226.121	11.36
226.505	6.79
226.889	7.65
227.273	3.98
227.657	8.56
228.041	10.82
228.425	7.89
228.809	6.51
229.193	4.31
229.577	7.1
229.961	4.92
230.344	5.48
230.728	6.03
231.112	5.46
231.495	5.35
231.879	6.64
232.263	5.79
232.646	6.33
233.03	5.89
233.413	4.41
233.797	6.32
234.18	5.01
234.563	4.23
234.946	7.62
235.33	7.26
235.713	7.54
236.096	4.34
236.479	5.81
236.862	4.93
237.245	4.76
237.628	4.7
238.011	6.15
238.394	5.88
238.777	6.45
239.16	5.96
239.543	5.13
239.925	7.72
240.308	6.35
240.691	4.73
241.073	6.48
241.456	5.66
241.838	5.7
242.221	6.59
242.603	5.7
242.986	5.22
243.368	5.86
243.75	4.7
244.133	5.77
244.515	5.51
244.897	5.26
245.279	6.36
245.661	5.03
246.043	5.58
246.425	6.84
246.807	5.08
247.189	6.25
247.571	5.66
247.953	5.75
248.335	5.36
248.717	5.47
249.098	5.48
249.48	5.06
249.862	5.07
250.243	5.46
250.625	6.14
251.006	5.65
251.388	6.6
251.769	6.01
252.151	5.14
252.532	5.55
252.913	6.05
253.295	6.32
253.676	5.22
254.057	5.6
254.438	5.6
254.819	5.2
255.2	4.65
255.581	5.96
255.962	5.08
256.343	6.04
256.724	5.88
257.105	6.27
257.486	5.56
257.867	5.73
258.247	4.98
258.628	5.99
259.009	4.79
259.389	5.68
259.77	5.43
260.15	5.33
260.531	5.9
260.911	5.79
261.292	5.01
261.672	5.02
262.052	5.17
262.432	5.28
262.813	5.59
263.193	5.26
263.573	5.46
263.953	6.43
264.333	6.24
264.713	5.35
265.093	5.42
265.473	5.58
265.853	5.23
266.233	4.48
266.612	4.44
266.992	5.26
267.372	5.65
267.752	6.04
268.131	4.91
268.511	5.09
268.89	4.34
269.27	5.14
269.649	5.36
270.029	5.18
270.408	5.47
270.787	4.87
271.167	4.84
271.546	5.37
271.925	6.11
272.304	5.79
272.683	4.69
273.062	5.37
273.441	5.27
273.82	4.63
274.199	4.95
274.578	5.37
274.957	4.69
275.336	5.16
275.715	5.56
276.093	4.95
276.472	5.3
276.851	5.32
277.229	4.39
277.608	5.26
277.986	4.82
278.365	5.49
278.743	5.16
279.122	5.48
279.5	5.1
279.878	4.3
280.257	4.71
280.635	4.61
281.013	5.1
281.391	5.28
281.769	4.97
282.147	5.24
282.525	4.81
282.903	4.98
283.281	5.52
283.659	4.97
284.037	5.6
284.415	4.83
284.792	5.53
285.17	5.26
285.548	5.15
285.925	5.17
286.303	5.08
286.68	5.39
287.058	5.31
287.435	4.9
287.813	4.8
288.19	5.18
288.567	5.47
288.945	5.23
289.322	4.81
289.699	5.5
290.076	5.19
290.453	5.4
290.83	5.32
291.207	5.86
291.584	5.54
291.961	5.61
292.338	5.48
292.715	5.41
293.092	5.37
293.469	5.64
293.845	5.53
294.222	5.56
294.599	5.31
294.975	5.97
295.352	5.77
295.728	5.69
296.105	5.77
296.481	6.49
296.858	5.98
297.234	6.15
297.61	5.86
297.986	6.05
298.363	5.84
298.739	5.89
299.115	5.65
299.491	5.62
299.867	5.72
300.243	5.67
300.619	5.92
300.995	6.29
301.371	6.66
301.746	6.33
302.122	6.76
302.498	6.37
302.874	5.89
303.249	6.65
303.625	5.52
304	6.39
304.376	6.28
304.751	6.56
305.127	6.13
305.502	6.24
305.878	6.18
306.253	6.53
306.628	6.45
307.003	6.14
307.378	6.66
307.754	6.52
308.129	6.41
308.504	7.21
308.879	6.14
309.254	6.73
309.629	6.62
310.003	6.95
310.378	6.9
310.753	7.03
311.128	6.87
311.502	6.29
311.877	6.45
312.252	6.72
312.626	6.48
313.001	6.28
313.375	7.02
313.75	7.18
314.124	7.06
314.498	7.17
314.873	7.24
315.247	7.6
315.621	7.02
315.995	7.37
316.369	7.17
316.743	7.13
317.117	7.08
317.491	7.2
317.865	7.71
318.239	7.37
318.613	7.37
318.987	7.6
319.361	7.08
319.734	7.37
320.108	7.64
320.482	7.33
320.855	7.15
321.229	7.36
321.602	8.06
321.976	7.57
322.349	7.43
322.723	8.28
323.096	8.1
323.469	7.85
323.843	8.81
324.216	8.79
324.589	8.48
324.962	7.98
325.335	8.2
325.708	8.31
326.081	7.96
326.454	7.63
326.827	8.32
327.2	7.85
327.573	8.13
327.945	8.31
328.318	8.37
328.691	7.63
329.063	8.2
329.436	8.33
329.809	8.45
330.181	7.74
330.553	7.89
330.926	8.87
331.298	7.44
331.671	8.73
332.043	7.63
332.415	8.66
332.787	9.1
333.159	7.9
333.532	8.62
333.904	9.03
334.276	9.34
334.648	8.01
335.02	7.93
335.391	8.34
335.763	8.46
336.135	8.99
336.507	9.57
336.879	8.55
337.25	8.84
337.622	9
337.993	8.42
338.365	8.75
338.736	9.32
339.108	8.99
339.479	9.1
339.851	8.79
340.222	8.73
340.593	9.02
340.964	9.5
341.336	8.93
341.707	8.86
342.078	8.68
342.449	9.33
342.82	9.24
343.191	9.35
343.562	9.28
343.933	9.42
344.303	9.46
344.674	9.63
345.045	9.2
345.416	9.68
345.786	9.08
346.157	9.75
346.527	9.69
346.898	9.71
347.268	9.7
347.639	9.54
348.009	9.44
348.38	9.73
348.75	10.19
349.12	9.93
349.49	9.57
349.861	9.88
350.231	10.26
350.601	10.05
350.971	10.04
351.341	9.8
351.711	10.13
352.081	10.05
352.45	10.06
352.82	10.07
353.19	10.21
353.56	9.95
353.929	9.98
354.299	9.77
354.669	10.05
355.038	9.9
355.408	10.09
355.777	10.38
356.147	10.13
356.516	10.42
356.885	10.49
357.254	10.42
357.624	10.26
357.993	10.45
358.362	10.23
358.731	10.27
359.1	10.31
359.469	10.27
359.838	10.66
360.207	10.5
360.576	10.88
360.945	10.89
361.314	10.63
361.682	10.72
362.051	10.99
362.42	11.01
362.788	10.46
363.157	10.93
363.525	10.74
363.894	10.72
364.262	10.86
364.631	10.73
364.999	11.03
365.367	11.41
365.735	11.06
366.104	11.23
366.472	11.19
366.84	11.22
367.208	11.28
367.576	11.02
367.944	11.39
368.312	11.29
368.68	11.18
369.048	11.45
369.416	11.42
369.783	11.55
370.151	11.49
370.519	11.47
370.886	11.7
371.254	11.38
371.621	11.93
371.989	11.55
372.356	11.72
372.724	11.82
373.091	11.58
373.458	11.56
373.826	11.79
374.193	11.54
374.56	11.65
374.927	11.92
375.294	12
375.661	12.32
376.028	12.17
376.395	12.1
376.762	12.58
377.129	12.07
377.496	12.15
377.863	12.26
378.229	12.12
378.596	11.54
378.963	12.49
379.329	12.11
379.696	12.37
380.062	12.51
380.429	12.35
380.795	12.57
381.161	12.61
381.528	12.39
381.894	12.34
382.26	12.45
382.626	12.39
382.993	12.68
383.359	12.41
383.725	12.62
384.091	12.58
384.457	12.64
384.823	13.18
385.188	12.46
385.554	12.84
385.92	12.69
386.286	12.87
386.651	13.09
387.017	13.18
387.383	13.02
387.748	13.09
388.114	13.26
388.479	13.36
388.845	13.21
389.21	13.12
389.575	12.77
389.94	13.4
390.306	13.39
390.671	13.3
391.036	13.55
391.401	13.41
391.766	13.18
392.131	13.42
392.496	13.15
392.861	13.34
393.226	13.88
393.591	13.39
393.956	13.63
394.32	13.57
394.685	13.59
395.05	13.56
395.414	13.6
395.779	13.45
396.143	13.65
396.508	13.65
396.872	13.63
397.236	13.88
397.601	13.84
397.965	14.03
398.329	14.11
398.694	14.14
399.058	14.06
399.422	13.98
399.786	14.11
400.15	13.96
400.514	14.07
400.878	14.03
401.242	14.02
401.605	14.26
401.969	13.94
402.333	14.15
402.697	14.25
403.06	14.39
403.424	14.29
403.787	14.04
404.151	14.63
404.514	14.32
404.878	14.06
405.241	14.53
405.604	14.41
405.968	14.4
406.331	14.63
406.694	14.79
407.057	14.45
407.42	14.62
407.783	14.6
408.146	14.95
408.509	14.72
408.872	14.81
409.235	14.83
409.598	14.77
409.961	14.88
410.323	15.18
410.686	15.04
411.049	15.03
411.411	15.19
411.774	15.25
412.136	15.26
412.499	15.11
412.861	15.37
413.223	15.2
413.586	15.11
413.948	15.3
414.31	15.12
414.672	15.57
415.035	15.28
415.397	15.17
415.759	15.45
416.121	15.3
416.483	15.37
416.845	15.45
417.206	15.53
417.568	15.72
417.93	15.52
418.292	15.31
418.653	15.61
419.015	15.33
419.377	15.56
419.738	15.46
420.1	15.52
420.461	15.56
420.822	15.54
421.184	15.68
421.545	15.8
421.906	15.62
422.267	15.55
422.629	15.45
422.99	15.66
423.351	15.55
423.712	15.76
424.073	15.7
424.434	15.83
424.795	15.97
425.155	15.74
425.516	15.71
425.877	15.69
426.238	15.86
426.598	15.82
426.959	15.92
427.32	16.07
427.68	16.19
428.041	16.29
428.401	16.21
428.761	16.44
429.122	16.6
429.482	16.62
429.842	16.48
430.202	16.45
430.563	16.58
430.923	16.56
431.283	16.48
431.643	16.77
432.003	16.59
432.363	16.61
432.722	16.67
433.082	16.73
433.442	16.64
433.802	16.93
434.161	16.88
434.521	16.83
434.881	16.67
435.24	16.76
435.6	16.79
435.959	16.84
436.319	16.98
436.678	17.06
437.037	17.08
437.396	17.02
437.756	17.12
438.115	17.13
438.474	17.29
438.833	17.27
439.192	17.44
439.551	17.11
439.91	17.07
440.269	17.17
440.628	17.07
440.987	17.21
441.345	17.4
441.704	17.17
442.063	17.27
442.421	17.26
442.78	17.3
443.138	17.29
443.497	17.42
443.855	17.5
444.214	17.64
444.572	17.56
444.93	17.64
445.288	17.6
445.647	17.63
446.005	17.51
446.363	17.58
446.721	17.52
447.079	17.77
447.437	17.6
447.795	17.62
448.153	17.63
448.51	17.67
448.868	17.63
449.226	17.79
449.584	17.76
449.941	17.84
450.299	18.07
450.656	18.06
451.014	18.11
451.371	18.25
451.729	18.4
452.086	18.39
452.443	18.36
452.801	18.43
453.158	18.39
453.515	18.35
453.872	18.47
454.229	18.49
454.586	18.25
454.943	18.39
455.3	18.61
455.657	18.69
456.014	18.52
456.371	18.66
456.727	18.51
457.084	18.7
457.441	18.46
457.797	18.87
458.154	18.79
458.51	18.76
458.867	18.93
459.223	18.93
459.58	18.95
459.936	18.66
460.292	18.87
460.648	18.84
461.005	18.51
461.361	18.64
461.717	18.71
462.073	18.8
462.429	18.76
462.785	18.92
463.141	19.02
463.496	19.03
463.852	19.37
464.208	19.33
464.564	19.56
464.919	19.36
465.275	19.46
465.631	19.56
465.986	19.59
466.342	19.53
466.697	19.43
467.052	19.72
467.408	19.5
467.763	19.92
468.118	19.72
468.473	19.7
468.829	19.6
469.184	19.63
469.539	19.84
469.894	20.05
470.249	19.9
470.603	19.95
470.958	20.05
471.313	20.19
471.668	20.01
472.023	19.93
472.377	19.92
472.732	19.96
473.086	20.11
473.441	20.28
473.795	20.2
474.15	20.19
474.504	20.04
474.859	20.28
475.213	20.4
475.567	20.35
475.921	20.1
476.275	20.35
476.63	20.45
476.984	20.56
477.338	20.34
477.692	20.68
478.045	20.45
478.399	20.59
478.753	20.67
479.107	20.57
479.461	20.53
479.814	20.44
480.168	20.48
480.521	20.54
480.875	20.6
481.228	20.79
481.582	20.71
481.935	20.92
482.289	20.89
482.642	20.79
482.995	20.82
483.348	20.6
483.701	20.7
484.055	20.57
484.408	20.54
484.761	20.33
485.114	19.99
485.466	19.69
485.819	19.89
486.172	19.94
486.525	20.3
486.878	20.45
487.23	20.57
487.583	20.63
487.936	20.69
488.288	20.49
488.641	20.56
488.993	20.43
489.345	20.41
489.698	20.35
490.05	20.48
490.402	20.72
490.754	20.83
491.107	21
491.459	21.28
491.811	21.15
492.163	21.3
492.515	21.2
492.866	20.92
493.218	20.77
493.57	20.75
493.922	20.93
494.274	21.15
494.625	21.48
494.977	21.71
495.328	21.65
495.68	21.76
496.031	22.01
496.383	21.99
496.734	21.95
497.086	22.09
497.437	22.01
497.788	22
498.139	21.98
498.49	21.84
498.842	21.86
499.193	22.03
499.544	22.07
499.894	22.17
500.245	22.18
500.596	22.17
500.947	22.25
501.298	22.29
501.648	22.59
501.999	22.57
502.35	22.52
502.7	22.69
503.051	22.5
503.401	22.69
503.752	22.64
504.102	22.66
504.452	22.76
504.803	22.89
505.153	22.8
505.503	22.88
505.853	22.87
506.203	22.86
506.553	22.95
506.903	22.98
507.253	23.06
507.603	23.07
507.953	23.09
508.303	23.14
508.652	23.03
509.002	23.17
509.352	23.11
509.701	23.18
510.051	23.14
510.4	23.06
510.75	23
511.099	23.24
511.449	23.15
511.798	23.14
512.147	23.29
512.496	23.36
512.846	23.28
513.195	23.3
513.544	23.36
513.893	23.33
514.242	23.42
514.591	23.56
514.939	23.36
515.288	23.41
515.637	23.47
515.986	23.67
516.334	23.86
516.683	23.88
517.032	23.82
517.38	23.96
517.729	23.95
518.077	23.85
518.426	24.05
518.774	23.94
519.122	23.93
519.47	23.82
519.819	23.69
520.167	23.58
520.515	23.49
520.863	23.64
521.211	23.81
521.559	23.83
521.907	23.9
522.255	24.04
522.602	24.22
522.95	24.16
523.298	24.13
523.645	24.49
523.993	24.34
524.341	24.45
524.688	24.44
525.036	24.53
525.383	24.4
525.73	24.38
526.078	24.42
526.425	24.5
526.772	24.34
527.119	24.22
527.466	24.17
527.814	24.16
528.161	24.27
528.508	24.48
528.854	24.38
529.201	24.31
529.548	24.22
529.895	23.81
530.242	23.64
530.588	23.71
530.935	24.01
531.282	24.09
531.628	24.31
531.975	24.37
532.321	24.36
532.667	24.57
533.014	24.76
533.36	24.8
533.706	24.83
534.052	24.74
534.399	24.68
534.745	24.46
535.091	24.4
535.437	24.43
535.783	24.62
536.129	24.99
536.474	25.07
536.82	25.16
537.166	25.29
537.512	25.26
537.857	25.26
538.203	25.13
538.549	25.15
538.894	25.27
539.239	25.34
539.585	25.38
539.93	25.7
540.276	25.72
540.621	25.68
540.966	25.86
541.311	25.88
541.656	25.92
542.001	25.72
542.346	25.5
542.691	25.18
543.036	24.86
543.381	24.99
543.726	25.18
544.071	25.36
544.415	25.48
544.76	25.6
545.105	25.87
545.449	25.8
545.794	25.94
546.138	25.95
546.483	26.09
546.827	26.18
547.171	26.19
547.516	26.21
547.86	26.26
548.204	26.33
548.548	26.25
548.892	26.26
549.236	26.36
549.58	26.47
549.924	26.57
550.268	26.85
550.612	26.69
550.956	26.94
551.3	27
551.643	26.95
551.987	27.13
552.33	27
552.674	27.2
553.017	27.28
553.361	27.35
553.704	27.18
554.048	27.2
554.391	26.99
554.734	27.06
555.077	27.17
555.42	26.98
555.764	27.56
556.107	27.32
556.45	27.08
556.793	27.4
557.135	27.36
557.478	27.48
557.821	27.63
558.164	27.7
558.507	27.63
558.849	27.58
559.192	27.38
559.534	28.01
559.877	27.84
560.219	27.74
560.562	27.85
560.904	28
561.246	27.97
561.589	28.16
561.931	28.05
562.273	28
562.615	27.82
562.957	27.94
563.299	27.97
563.641	28.07
563.983	27.78
564.325	28.16
564.667	28.18
565.008	28.14
565.35	28.07
565.692	28.22
566.033	28.42
566.375	28.44
566.716	28.17
567.058	28.24
567.399	28.44
567.741	28.25
568.082	28.11
568.423	28.42
568.764	28.36
569.105	28.3
569.447	28.64
569.788	28.58
570.129	28.49
570.47	28.51
570.811	28.69
571.151	28.75
571.492	28.61
571.833	28.77
572.174	28.69
572.514	28.9
572.855	28.6
573.195	28.59
573.536	28.35
573.876	28.78
574.217	28.78
574.557	28.68
574.898	28.97
575.238	29.14
575.578	29.11
575.918	28.87
576.258	29.09
576.598	28.89
576.938	29.12
577.278	28.97
577.618	29.21
577.958	29.23
578.298	29.33
578.638	29.37
578.977	29.42
579.317	29.43
579.657	29.48
579.996	29.51
580.336	29.45
580.675	29.44
581.014	29.75
581.354	29.74
581.693	29.77
582.032	29.73
582.372	29.95
582.711	29.62
583.05	29.76
583.389	29.9
583.728	29.9
584.067	30.07
584.406	29.99
584.745	29.98
585.083	30.05
585.422	30.3
585.761	30.24
586.1	30.16
586.438	30.52
586.777	30.13
587.115	30.12
587.454	30.39
587.792	30.09
588.13	30.49
588.469	30.24
588.807	30.28
589.145	30.33
589.483	30.36
589.821	30.42
590.159	30.62
590.497	30.58
590.835	30.56
591.173	30.37
591.511	30.59
591.849	30.33
592.187	30.47
592.524	30.54
592.862	30.68
593.2	30.72
593.537	30.33
593.875	30.97
594.212	30.62
594.55	30.87
594.887	31.1
595.224	30.66
595.561	31.23
595.899	30.78
596.236	31.03
596.573	31.09
596.91	31.13
597.247	30.98
597.584	30.92
597.921	31.16
598.258	31.13
598.594	31.12
598.931	30.95
599.268	30.79
599.604	30.97
599.941	30.91
600.277	31.47
600.614	31.32
600.95	31.67
601.287	31.11
601.623	31.75
601.959	31.56
602.296	31.41
602.632	31.46
602.968	31.33
603.304	31.66
603.64	31.69
603.976	31.48
604.312	31.72
604.648	31.22
604.984	31.36
605.319	31.6
605.655	31.59
605.991	31.23
606.326	31.56
606.662	31.47
606.998	31.41
607.333	31.46
607.668	31.62
608.004	31.86
608.339	32.04
608.674	31.85
609.01	32.12
609.345	32.02
609.68	32.2
610.015	31.9
610.35	32.02
610.685	31.73
611.02	32.07
611.355	31.84
611.689	31.71
612.024	32.1
612.359	32.29
612.694	32.03
613.028	31.95
613.363	32.33
613.697	32.74
614.032	32.6
614.366	32.56
614.7	32.48
615.035	32.64
615.369	32.66
615.703	32.62
616.037	32.34
616.371	32.31
616.705	32.53
617.039	32.92
617.373	32.87
617.707	32.63
618.041	32.62
618.375	32.66
618.709	32.75
619.042	33
619.376	32.49
619.71	33.14
620.043	32.97
620.377	32.62
620.71	32.8
621.043	33.07
621.377	32.96
621.71	32.93
622.043	33.34
622.376	33.16
622.709	32.94
623.043	33.31
623.376	33.59
623.709	33.4
624.041	33.27
624.374	33.01
624.707	33.05
625.04	33.37
625.373	33.63
625.705	33.71
626.038	33.17
626.37	33.35
626.703	33.5
627.035	33.29
627.368	33.25
627.7	33.15
628.032	33.3
628.365	33.42
628.697	33.54
629.029	33.58
629.361	33.39
629.693	33.71
630.025	32.98
630.357	33.81
630.689	33.42
631.021	33.96
631.353	33.99
631.684	33.93
632.016	33.78
632.348	33.67
632.679	33.68
633.011	34.04
633.342	33.91
633.674	34.33
634.005	33.9
634.336	34.01
634.668	33.85
634.999	34.27
635.33	33.98
635.661	34.04
635.992	33.66
636.323	34.15
636.654	34.14
636.985	34.12
637.316	34.08
637.647	34.37
637.977	34.43
638.308	34.31
638.639	33.92
638.969	34.54
639.3	34.51
639.63	34.72
639.961	34.59
640.291	34.3
640.622	34.97
640.952	34.68
641.282	35.15
641.612	34.52
641.943	34.56
642.273	34.54
642.603	34.96
642.933	34.89
643.263	34.8
643.592	34.47
643.922	34.61
644.252	35.56
644.582	34.84
644.911	34.69
645.241	35.21
645.571	35.16
645.9	34.43
646.23	34.52
646.559	35.29
646.888	34.93
647.218	34.89
647.547	35.51
647.876	34.87
648.205	35.16
648.534	35.34
648.863	35.15
649.192	35.11
649.521	35.76
649.85	35.19
650.179	35.41
650.508	35.64
650.837	35.22
651.165	35.28
651.494	35.2
651.822	35.47
652.151	35.46
652.479	35.47
652.808	36.03
653.136	35.43
653.465	35.99
653.793	35.55
654.121	35.59
654.449	35.25
654.777	35.8
655.105	35.38
655.433	35.97
655.761	35.74
656.089	35.42
656.417	35.67
656.745	36.02
657.073	35.41
657.4	36.1
657.728	35.65
658.056	35.61
658.383	35.93
658.711	35.98
659.038	35.63
659.365	35.85
659.693	35.85
660.02	36.3
660.347	36.23
660.674	36.01
661.001	35.79
661.329	35.92
661.656	35.99
661.982	35.94
662.309	36.46
662.636	36.37
662.963	36.22
663.29	36.38
663.616	36.3
663.943	37.06
664.27	36.8
664.596	36.35
664.923	36.79
665.249	36.5
665.576	36.44
665.902	36.28
666.228	35.95
666.554	36.45
666.881	35.96
667.207	36.32
667.533	36.3
667.859	36.37
668.185	36.73
668.511	36.66
668.837	36.78
669.162	36.97
669.488	36.54
669.814	36.93
670.139	36.89
670.465	36.01
670.791	36.34
671.116	36.24
