Data from 446_crown_Reflection__1__21.txt Node

Date: Tue Dec 12 18:22:31 CST 2023
User: ToomeyLab
Spectrometer: FLMS14357
Trigger mode: 0
Integration Time (sec): 1.000000E-2
Scans to average: 100
Electric dark correction enabled: true
Nonlinearity correction enabled: false
Boxcar width: 0
XAxis mode: Wavelengths
Number of Pixels in Spectrum: 2048
>>>>>Begin Spectral Data<<<<<
189.047	28.43
189.435	28.43
189.823	28.43
190.211	262.22
190.599	-328.47
190.987	60.38
191.375	165.49
191.763	-1322.81
192.151	-105.88
192.538	62.85
192.926	-183.69
193.314	-16.42
193.702	972.76
194.089	42.1
194.477	197.52
194.864	83.37
195.252	114.66
195.639	-701.53
196.027	55.98
196.414	733.63
196.801	-44.69
197.189	-793.01
197.576	-11.12
197.963	72.61
198.351	40.71
198.738	39.92
199.125	51.71
199.512	-56.74
199.899	14.87
200.286	54.81
200.673	1.29
201.06	-14.44
201.447	-74.93
201.833	7.21
202.22	33.55
202.607	4.39
202.994	-3.56
203.38	6.62
203.767	65.34
204.154	18.23
204.54	46.02
204.927	8.57
205.313	6.02
205.699	8.39
206.086	12.92
206.472	23.85
206.858	15.31
207.245	23.22
207.631	43.35
208.017	31.52
208.403	12.88
208.789	25.63
209.175	-44.34
209.561	25.49
209.947	15.98
210.333	24.91
210.719	-11.73
211.105	-5.35
211.491	27.89
211.876	31.78
212.262	33.95
212.648	22.59
213.034	3.41
213.419	23.16
213.805	15.31
214.19	33.49
214.576	16.34
214.961	24.17
215.346	2.97
215.732	18.27
216.117	2.65
216.502	11.38
216.888	-0.87
217.273	-22.98
217.658	-12.76
218.043	8.35
218.428	2.79
218.813	12.27
219.198	16
219.583	-0.76
219.968	23.51
220.353	-3.59
220.738	9.63
221.122	6.5
221.507	6.21
221.892	3.47
222.276	22.8
222.661	3.77
223.046	-4.09
223.43	3.88
223.815	3.9
224.199	12.62
224.583	4.41
224.968	-1.77
225.352	5.41
225.736	4.87
226.121	1.43
226.505	5.23
226.889	2.26
227.273	8.26
227.657	6.8
228.041	10.64
228.425	5.28
228.809	3.64
229.193	4.78
229.577	3.57
229.961	2.8
230.344	3.14
230.728	3.34
231.112	3.2
231.495	3.28
231.879	3.8
232.263	3.44
232.646	1.56
233.03	3.65
233.413	3.09
233.797	2.79
234.18	0.61
234.563	1.71
234.946	3.6
235.33	5.01
235.713	3.16
236.096	2.15
236.479	3.87
236.862	3.72
237.245	4.14
237.628	3.7
238.011	5.98
238.394	1.25
238.777	3.34
239.16	3.36
239.543	4.52
239.925	4.9
240.308	1.53
240.691	2.89
241.073	4.5
241.456	2.83
241.838	3.56
242.221	3.56
242.603	2.78
242.986	1.94
243.368	3.11
243.75	2.63
244.133	2.8
244.515	2.99
244.897	3.26
245.279	3.84
245.661	2.26
246.043	1.92
246.425	3.14
246.807	3.34
247.189	3.66
247.571	3.07
247.953	2.44
248.335	2.56
248.717	2.72
249.098	2.7
249.48	2.56
249.862	2.55
250.243	2.46
250.625	3.19
251.006	2.77
251.388	3.19
251.769	3.22
252.151	2.24
252.532	3.04
252.913	3.45
253.295	3.49
253.676	2.61
254.057	2.39
254.438	3.08
254.819	2.32
255.2	3.24
255.581	3.41
255.962	2.71
256.343	2.8
256.724	1.47
257.105	3.27
257.486	2.74
257.867	2
258.247	1.92
258.628	2.76
259.009	2.22
259.389	2.45
259.77	3.06
260.15	2.68
260.531	3.41
260.911	2.98
261.292	2.52
261.672	2.25
262.052	2.59
262.432	2.66
262.813	2.64
263.193	2.95
263.573	2.75
263.953	3.49
264.333	3.76
264.713	2.91
265.093	3.36
265.473	3.58
265.853	2.33
266.233	2.96
266.612	2.64
266.992	2.28
267.372	3.21
267.752	3.83
268.131	1.95
268.511	2.69
268.89	2.2
269.27	2.17
269.649	2.86
270.029	2
270.408	2.86
270.787	2.37
271.167	2.68
271.546	2.89
271.925	3.19
272.304	2.9
272.683	2.29
273.062	2.56
273.441	2.65
273.82	2.14
274.199	2.69
274.578	2.6
274.957	2.23
275.336	2.33
275.715	3.07
276.093	2.29
276.472	2.79
276.851	2.68
277.229	2.11
277.608	2.27
277.986	2.15
278.365	2.25
278.743	2.98
279.122	3.02
279.5	2.22
279.878	2.31
280.257	1.81
280.635	2.17
281.013	2.44
281.391	2.23
281.769	2.41
282.147	2.4
282.525	2.11
282.903	2.29
283.281	2.29
283.659	2.48
284.037	2.51
284.415	2.38
284.792	2.61
285.17	2.28
285.548	2.35
285.925	2.4
286.303	2.07
286.68	2.42
287.058	2.93
287.435	2.44
287.813	1.92
288.19	2.33
288.567	2.47
288.945	2.46
289.322	1.97
289.699	2.31
290.076	2.53
290.453	2.82
290.83	2.38
291.207	2.28
291.584	2.57
291.961	2.16
292.338	2.26
292.715	2.26
293.092	2.18
293.469	2.26
293.845	2.61
294.222	2.53
294.599	2.41
294.975	1.89
295.352	2.47
295.728	2.56
296.105	2.2
296.481	2.83
296.858	2.32
297.234	2.88
297.61	2.39
297.986	2.34
298.363	2.7
298.739	2.37
299.115	1.85
299.491	2.07
299.867	2.19
300.243	2.01
300.619	2.47
300.995	2.68
301.371	2.57
301.746	1.86
302.122	2.81
302.498	2.47
302.874	2.4
303.249	2.88
303.625	2.15
304	2.79
304.376	2.6
304.751	2.3
305.127	2.53
305.502	2.42
305.878	2.08
306.253	2.36
306.628	2.92
307.003	2.03
307.378	2.61
307.754	2.34
308.129	2.84
308.504	3.34
308.879	2.08
309.254	2.72
309.629	2.38
310.003	3.09
310.378	2.63
310.753	2.34
311.128	2.35
311.502	2.15
311.877	1.77
312.252	2.03
312.626	2.15
313.001	2.03
313.375	2
313.75	2.47
314.124	2.81
314.498	2.52
314.873	2.07
315.247	2.54
315.621	2.12
315.995	2.2
316.369	2.73
316.743	1.89
317.117	1.87
317.491	2.11
317.865	2.36
318.239	2.03
318.613	3.03
318.987	2.63
319.361	2.31
319.734	1.89
320.108	2.06
320.482	2
320.855	2.05
321.229	2.19
321.602	2.69
321.976	2.57
322.349	3
322.723	2.86
323.096	2.21
323.469	2.99
323.843	2.76
324.216	2.26
324.589	2.99
324.962	2.94
325.335	3.07
325.708	2.58
326.081	2.82
326.454	2.34
326.827	3.02
327.2	2.55
327.573	2.16
327.945	2.39
328.318	2.53
328.691	1.99
329.063	2.56
329.436	2.57
329.809	2.13
330.181	1.84
330.553	2.16
330.926	3.07
331.298	2.35
331.671	2.44
332.043	2.35
332.415	2.58
332.787	2.55
333.159	2.53
333.532	2.61
333.904	2.47
334.276	3.02
334.648	2.11
335.02	2.15
335.391	2.2
335.763	2.49
336.135	2.89
336.507	2.77
336.879	2.43
337.25	2.2
337.622	2.28
337.993	2.12
338.365	2.04
338.736	2.6
339.108	2.35
339.479	2.42
339.851	1.52
340.222	2.12
340.593	2.08
340.964	2.24
341.336	2.9
341.707	2.16
342.078	1.56
342.449	2.16
342.82	2.83
343.191	2.22
343.562	2.47
343.933	2.74
344.303	2.51
344.674	2.28
345.045	2.68
345.416	2.58
345.786	2.11
346.157	2.09
346.527	2.67
346.898	2.23
347.268	2.54
347.639	2.51
348.009	2.27
348.38	2.43
348.75	2.58
349.12	2.85
349.49	2.09
349.861	2.52
350.231	2.81
350.601	2.85
350.971	2.6
351.341	2.3
351.711	2.64
352.081	2.55
352.45	2.42
352.82	2.43
353.19	2.64
353.56	2.26
353.929	1.99
354.299	1.96
354.669	2.36
355.038	1.76
355.408	2.18
355.777	2.81
356.147	2.3
356.516	2.15
356.885	2.37
357.254	2.3
357.624	2.14
357.993	2.15
358.362	2.65
358.731	2.68
359.1	2.11
359.469	2.36
359.838	2.25
360.207	2.29
360.576	2.48
360.945	2.25
361.314	2.69
361.682	2.48
362.051	2.66
362.42	2.47
362.788	2.36
363.157	2.75
363.525	2.37
363.894	2.27
364.262	2.31
364.631	2.14
364.999	2.4
365.367	2.78
365.735	2.29
366.104	2.36
366.472	2.46
366.84	2.35
367.208	2.61
367.576	2.51
367.944	2.52
368.312	2.61
368.68	2.58
369.048	2.25
369.416	2.53
369.783	2.36
370.151	2.37
370.519	2.3
370.886	2.55
371.254	2.34
371.621	2.61
371.989	2.39
372.356	2.51
372.724	2.45
373.091	2.42
373.458	2.31
373.826	2.43
374.193	2.2
374.56	2.6
374.927	2.64
375.294	2.66
375.661	2.52
376.028	2.65
376.395	2.58
376.762	3.07
377.129	2.5
377.496	2.81
377.863	2.66
378.229	2.44
378.596	2.11
378.963	2.94
379.329	2.47
379.696	2.26
380.062	2.5
380.429	2.61
380.795	2.76
381.161	2.65
381.528	2.43
381.894	2.83
382.26	2.38
382.626	2.48
382.993	2.76
383.359	2.34
383.725	2.57
384.091	2.48
384.457	2.45
384.823	2.76
385.188	2.68
385.554	2.65
385.92	2.37
386.286	2.85
386.651	2.61
387.017	2.86
387.383	2.63
387.748	2.71
388.114	2.66
388.479	2.86
388.845	2.57
389.21	2.63
389.575	2.52
389.94	2.54
390.306	2.89
390.671	2.48
391.036	2.55
391.401	2.63
391.766	2.78
392.131	2.8
392.496	2.63
392.861	2.58
393.226	2.63
393.591	2.46
393.956	2.59
394.32	2.54
394.685	2.61
395.05	2.54
395.414	2.44
395.779	2.26
396.143	2.72
396.508	2.42
396.872	2.61
397.236	2.59
397.601	2.78
397.965	2.69
398.329	2.74
398.694	2.56
399.058	2.66
399.422	2.6
399.786	2.62
400.15	2.48
400.514	2.88
400.878	2.75
401.242	2.62
401.605	2.66
401.969	2.6
402.333	2.85
402.697	2.63
403.06	2.57
403.424	2.88
403.787	2.37
404.151	2.68
404.514	2.37
404.878	2.58
405.241	2.67
405.604	2.47
405.968	2.61
406.331	2.75
406.694	2.89
407.057	2.52
407.42	2.48
407.783	2.67
408.146	2.69
408.509	2.64
408.872	2.67
409.235	2.49
409.598	2.77
409.961	2.78
410.323	2.88
410.686	2.7
411.049	2.73
411.411	2.63
411.774	2.58
412.136	2.62
412.499	2.61
412.861	2.6
413.223	2.94
413.586	2.63
413.948	2.53
414.31	2.68
414.672	2.8
415.035	2.66
415.397	2.77
415.759	2.84
416.121	2.63
416.483	2.78
416.845	2.61
417.206	2.71
417.568	2.88
417.93	2.85
418.292	2.65
418.653	2.74
419.015	2.63
419.377	2.67
419.738	2.56
420.1	2.56
420.461	2.52
420.822	2.64
421.184	2.58
421.545	2.81
421.906	2.65
422.267	2.55
422.629	2.57
422.99	2.56
423.351	2.57
423.712	2.55
424.073	2.59
424.434	2.51
424.795	2.72
425.155	2.5
425.516	2.55
425.877	2.58
426.238	2.57
426.598	2.56
426.959	2.6
427.32	2.65
427.68	2.61
428.041	2.71
428.401	2.66
428.761	2.71
429.122	2.75
429.482	2.9
429.842	2.8
430.202	2.59
430.563	2.83
430.923	2.92
431.283	2.71
431.643	2.78
432.003	2.77
432.363	2.78
432.722	2.58
433.082	2.62
433.442	2.63
433.802	2.87
434.161	2.63
434.521	2.68
434.881	2.58
435.24	2.68
435.6	2.68
435.959	2.77
436.319	2.8
436.678	2.88
437.037	2.69
437.396	2.56
437.756	2.63
438.115	2.79
438.474	2.71
438.833	2.84
439.192	2.89
439.551	2.66
439.91	2.71
440.269	2.66
440.628	2.62
440.987	2.68
441.345	2.64
441.704	2.66
442.063	2.81
442.421	2.78
442.78	2.8
443.138	2.68
443.497	2.77
443.855	2.67
444.214	2.91
444.572	2.76
444.93	2.76
445.288	2.56
445.647	2.73
446.005	2.69
446.363	2.48
446.721	2.65
447.079	2.69
447.437	2.57
447.795	2.62
448.153	2.6
448.51	2.73
448.868	2.7
449.226	2.73
449.584	2.76
449.941	2.76
450.299	2.76
450.656	2.63
451.014	2.79
451.371	2.82
451.729	2.77
452.086	2.69
452.443	2.99
452.801	2.8
453.158	2.86
453.515	2.96
453.872	2.68
454.229	2.97
454.586	2.67
454.943	2.78
455.3	2.8
455.657	2.91
456.014	2.84
456.371	2.91
456.727	2.91
457.084	2.77
457.441	2.89
457.797	2.83
458.154	2.81
458.51	2.71
458.867	2.94
459.223	2.89
459.58	2.86
459.936	2.74
460.292	2.88
460.648	2.79
461.005	2.74
461.361	2.67
461.717	2.78
462.073	2.66
462.429	2.8
462.785	2.75
463.141	2.84
463.496	2.82
463.852	3.1
464.208	2.85
464.564	2.9
464.919	3.01
465.275	2.96
465.631	2.96
465.986	2.78
466.342	2.81
466.697	2.77
467.052	2.98
467.408	2.75
467.763	2.83
468.118	2.88
468.473	2.96
468.829	2.88
469.184	2.7
469.539	3.07
469.894	2.98
470.249	2.87
470.603	2.84
470.958	2.94
471.313	2.96
471.668	3.14
472.023	2.87
472.377	2.88
472.732	2.99
473.086	2.88
473.441	3.13
473.795	2.79
474.15	2.94
474.504	2.81
474.859	2.82
475.213	2.74
475.567	3
475.921	2.82
476.275	2.72
476.63	2.85
476.984	3.11
477.338	2.9
477.692	2.98
478.045	2.94
478.399	2.84
478.753	2.99
479.107	2.85
479.461	2.95
479.814	2.9
480.168	2.78
480.521	2.9
480.875	2.95
481.228	2.95
481.582	2.83
481.935	2.86
482.289	2.97
482.642	2.95
482.995	2.85
483.348	2.87
483.701	3.02
484.055	2.84
484.408	2.81
484.761	2.76
485.114	2.68
485.466	2.61
485.819	2.6
486.172	2.63
486.525	2.76
486.878	2.79
487.23	2.67
487.583	2.69
487.936	2.78
488.288	2.75
488.641	2.77
488.993	2.71
489.345	2.74
489.698	2.73
490.05	2.7
490.402	2.76
490.754	2.78
491.107	2.81
491.459	2.83
491.811	2.88
492.163	2.79
492.515	2.88
492.866	2.77
493.218	2.7
493.57	2.71
493.922	2.69
494.274	2.79
494.625	2.9
494.977	2.99
495.328	2.99
495.68	2.89
496.031	3
496.383	2.87
496.734	2.8
497.086	2.92
497.437	2.9
497.788	2.92
498.139	2.86
498.49	2.95
498.842	2.81
499.193	2.89
499.544	2.93
499.894	2.94
500.245	2.92
500.596	3
500.947	2.81
501.298	2.97
501.648	3.04
501.999	2.81
502.35	2.96
502.7	2.96
503.051	2.84
503.401	2.87
503.752	3.04
504.102	3.05
504.452	2.9
504.803	3.08
505.153	2.99
505.503	3.05
505.853	3.01
506.203	2.99
506.553	3.02
506.903	3.11
507.253	2.98
507.603	3.02
507.953	3.09
508.303	3.01
508.652	2.99
509.002	3.08
509.352	3
509.701	3.05
510.051	2.98
510.4	2.93
510.75	2.93
511.099	2.91
511.449	3.01
511.798	2.93
512.147	3.04
512.496	3.02
512.846	3.08
513.195	2.99
513.544	3.08
513.893	3.06
514.242	2.96
514.591	2.94
514.939	3
515.288	2.98
515.637	2.83
515.986	2.99
516.334	3.16
516.683	3.04
517.032	3.01
517.38	2.99
517.729	2.97
518.077	3
518.426	3.1
518.774	3.11
519.122	2.96
519.47	2.96
519.819	2.85
520.167	2.9
520.515	2.9
520.863	2.93
521.211	2.93
521.559	2.94
521.907	3.01
522.255	3.01
522.602	3.07
522.95	3.02
523.298	2.98
523.645	3.08
523.993	3.1
524.341	3
524.688	2.94
525.036	3.05
525.383	3
525.73	2.94
526.078	3
526.425	2.89
526.772	2.96
527.119	2.99
527.466	2.92
527.814	2.85
528.161	3
528.508	3
528.854	2.92
529.201	2.95
529.548	2.92
529.895	2.85
530.242	2.72
530.588	2.79
530.935	2.83
531.282	2.89
531.628	2.96
531.975	2.87
532.321	2.93
532.667	2.94
533.014	2.95
533.36	2.97
533.706	2.99
534.052	2.91
534.399	2.89
534.745	2.87
535.091	2.8
535.437	2.93
535.783	2.94
536.129	2.99
536.474	2.94
536.82	2.93
537.166	2.94
537.512	2.98
537.857	3.05
538.203	2.96
538.549	2.94
538.894	3.02
539.239	3.04
539.585	3.04
539.93	3.06
540.276	3.05
540.621	3.03
540.966	3.01
541.311	3.08
541.656	3.02
542.001	3.06
542.346	2.99
542.691	2.86
543.036	2.86
543.381	2.81
543.726	2.92
544.071	2.93
544.415	2.9
544.76	3.01
545.105	2.94
545.449	2.97
545.794	3.13
546.138	2.88
546.483	3.05
546.827	3.07
547.171	3.19
547.516	2.95
547.86	3.12
548.204	3.11
548.548	3
548.892	2.97
549.236	2.98
549.58	3.13
549.924	3.06
550.268	3.03
550.612	3.03
550.956	3.12
551.3	3.05
551.643	3.2
551.987	3.32
552.33	3.14
552.674	3.15
553.017	3.18
553.361	3.22
553.704	3.21
554.048	3.14
554.391	3.14
554.734	3.06
555.077	3.11
555.42	2.99
555.764	3.17
556.107	3.21
556.45	3.13
556.793	3.07
557.135	3.05
557.478	3.13
557.821	3.09
558.164	3.33
558.507	3.26
558.849	3.12
559.192	3.17
559.534	3.28
559.877	3.05
560.219	3.16
560.562	3.19
560.904	3.12
561.246	3.08
561.589	3.15
561.931	3.11
562.273	3.16
562.615	3.15
562.957	3.07
563.299	3.19
563.641	3.15
563.983	3.18
564.325	3.17
564.667	3.28
565.008	2.91
565.35	3.27
565.692	3.12
566.033	3.22
566.375	3.22
566.716	3.04
567.058	3.13
567.399	3.22
567.741	3.2
568.082	3.06
568.423	3.07
568.764	3.22
569.105	3.13
569.447	3.28
569.788	3.14
570.129	3.2
570.47	3.26
570.811	3.27
571.151	3.21
571.492	3.2
571.833	3.09
572.174	3.15
572.514	3.23
572.855	3.17
573.195	3.11
573.536	3.1
573.876	3.16
574.217	3.12
574.557	3.06
574.898	3.35
575.238	3.26
575.578	3.11
575.918	3.19
576.258	3.11
576.598	3.07
576.938	3.09
577.278	3.18
577.618	3.16
577.958	3.09
578.298	3.14
578.638	3.17
578.977	3.26
579.317	3.09
579.657	3.27
579.996	3.27
580.336	3.23
580.675	3.25
581.014	3.02
581.354	3.14
581.693	3.21
582.032	3.03
582.372	3.32
582.711	3.21
583.05	3.57
583.389	3.29
583.728	3.34
584.067	3.3
584.406	3.28
584.745	3.23
585.083	3.02
585.422	3.44
585.761	3.38
586.1	3.25
586.438	3.26
586.777	3.2
587.115	3.19
587.454	3.5
587.792	3.19
588.13	3.76
588.469	3.29
588.807	3.16
589.145	3.33
589.483	3.24
589.821	3.48
590.159	3.12
590.497	3.1
590.835	3.13
591.173	3.05
591.511	3.29
591.849	2.96
592.187	3.29
592.524	3.1
592.862	3.17
593.2	3.19
593.537	2.92
593.875	3.45
594.212	3.12
594.55	3.21
594.887	3.44
595.224	3.29
595.561	3.4
595.899	3.02
596.236	3.3
596.573	3.08
596.91	3.27
597.247	3.27
597.584	3.24
597.921	3.31
598.258	3.18
598.594	3.36
598.931	3.29
599.268	3.02
599.604	3.05
599.941	3.11
600.277	3.21
600.614	3.33
600.95	3.39
601.287	3.3
601.623	3.19
601.959	3.34
602.296	3.47
602.632	3.29
602.968	3.33
603.304	3.18
603.64	3.43
603.976	2.87
604.312	3.19
604.648	3.25
604.984	3.09
605.319	3.36
605.655	3.34
605.991	3.14
606.326	3.12
606.662	3.32
606.998	3.06
607.333	3.13
607.668	3.25
608.004	3.1
608.339	3.37
608.674	3.25
609.01	3.21
609.345	3.17
609.68	3.55
610.015	2.98
610.35	3.05
610.685	3.43
611.02	3.3
611.355	3.25
611.689	3.26
612.024	3.07
612.359	3.32
612.694	3.33
613.028	3.27
613.363	3.36
613.697	3.21
614.032	3.49
614.366	3.74
614.7	3.09
615.035	3.46
615.369	3.33
615.703	3.33
616.037	3.27
616.371	3.26
616.705	3.25
617.039	3.43
617.373	3.31
617.707	3.1
618.041	3.68
618.375	3.1
618.709	3.34
619.042	3.42
619.376	3.44
619.71	3.32
620.043	3.66
620.377	3.2
620.71	2.85
621.043	3.25
621.377	3.15
621.71	3.12
622.043	3.67
622.376	3.39
622.709	3.52
623.043	3.67
623.376	3.46
623.709	3.55
624.041	3.49
624.374	3.23
624.707	3.44
625.04	3.42
625.373	3.63
625.705	3.34
626.038	3.5
626.37	3.5
626.703	3.52
627.035	3.48
627.368	3.45
627.7	3.29
628.032	3.06
628.365	3.35
628.697	3.17
629.029	3.29
629.361	3.29
629.693	3.53
630.025	2.97
630.357	3.33
630.689	3.34
631.021	3.56
631.353	3.47
631.684	3.44
632.016	3.44
632.348	3.35
632.679	3.12
633.011	3.8
633.342	3.48
633.674	3.83
634.005	3.37
634.336	3.46
634.668	3.49
634.999	3.28
635.33	3.36
635.661	3.39
635.992	3.39
636.323	3.16
636.654	3.6
636.985	3.22
637.316	3.52
637.647	3.21
637.977	3.43
638.308	3.59
638.639	3.41
638.969	3.45
639.3	3.46
639.63	3.99
639.961	3.19
640.291	3.2
640.622	3.51
640.952	3.85
641.282	3.34
641.612	3.6
641.943	3.48
642.273	3.51
642.603	3.72
642.933	3.66
643.263	3.05
643.592	3.87
643.922	3.71
644.252	3.83
644.582	2.92
644.911	3.2
645.241	3.28
645.571	4.1
645.9	3.5
646.23	3.55
646.559	3.58
646.888	3.04
647.218	3.19
647.547	3.46
647.876	3.62
648.205	3.67
648.534	3.96
648.863	3.44
649.192	3.81
649.521	4.05
649.85	3.32
650.179	3.77
650.508	3.87
650.837	3.56
651.165	3.17
651.494	3.41
651.822	3.25
652.151	3.6
652.479	3.66
652.808	3.46
653.136	3.62
653.465	3.81
653.793	3.37
654.121	3.58
654.449	3.6
654.777	3.9
655.105	3.44
655.433	3.95
655.761	3.6
656.089	3.68
656.417	3.94
656.745	3.85
657.073	2.91
657.4	3.39
657.728	3.57
658.056	3.62
658.383	3.27
658.711	3.63
659.038	3.44
659.365	3.71
659.693	3.29
660.02	3.15
660.347	4.18
660.674	3.79
661.001	3.42
661.329	3.41
661.656	3.67
661.982	3.22
662.309	3.79
662.636	3.86
662.963	3.79
663.29	3.89
663.616	3.51
663.943	3.47
664.27	3.78
664.596	3.23
664.923	4.37
665.249	3.6
665.576	3.47
665.902	3.53
666.228	3.8
666.554	3.28
666.881	3.47
667.207	4.13
667.533	3.55
667.859	3.64
668.185	3.42
668.511	3.66
668.837	3.66
669.162	4.41
669.488	3.35
669.814	3.79
670.139	3.21
670.465	2.61
670.791	3.46
671.116	3.72
671.442	3.73
671.767	3.85
672.092	4.1
672.418	3.57
672.743	4.25
673.068	3
673.393	3.55
673.718	4.01
674.043	3.84
674.368	3.1
674.693	3.97
675.018	3.25
675.343	3.27
675.667	4.19
675.992	3.82
676.317	3.84
676.641	3.48
676.966	3.72
677.29	3.35
677.615	3.93
677.939	4.26
678.264	3.74
678.588	4.01
678.912	4.34
679.236	3.8
679.56	3.84
679.885	4.14
680.209	3.93
680.532	4.07
680.856	3.54
681.18	4.09
681.504	3.42
681.828	3.77
682.152	3.55
682.475	3.74
682.799	3.76
683.122	3.58
683.446	3.9
683.769	4.58
684.093	3.32
684.416	3.33
684.739	4.26
685.062	3.96
685.386	3.75
685.709	4.43
686.032	3.55
686.355	3.91
686.678	4.13
687.001	3.8
687.324	3.79
687.646	3.85
687.969	3.61
688.292	4.03
688.614	4.2
688.937	3.76
689.26	4.18
689.582	3.21
689.904	3.53
690.227	3.82
690.549	3.9
690.871	3.98
691.194	4.28
691.516	4.76
691.838	3.73
692.16	4.4
692.482	3.41
692.804	3.62
693.126	3.74
693.448	3.98
