Data from 446_crown_Reflection__4__24.txt Node

Date: Tue Dec 12 18:22:58 CST 2023
User: ToomeyLab
Spectrometer: FLMS14357
Trigger mode: 0
Integration Time (sec): 1.000000E-2
Scans to average: 100
Electric dark correction enabled: true
Nonlinearity correction enabled: false
Boxcar width: 0
XAxis mode: Wavelengths
Number of Pixels in Spectrum: 2048
>>>>>Begin Spectral Data<<<<<
189.047	26.82
189.435	26.82
189.823	26.82
190.211	-736.67
190.599	474.82
190.987	64.44
191.375	-48.91
191.763	369.3
192.151	236.16
192.538	129.66
192.926	22.74
193.314	95.05
193.702	503.76
194.089	247.97
194.477	21.78
194.864	82.3
195.252	-48.33
195.639	-93.73
196.027	30.72
196.414	850.45
196.801	64.34
197.189	-130.42
197.576	-67.66
197.963	10.95
198.351	9.87
198.738	25.71
199.125	6.52
199.512	38.9
199.899	18.38
200.286	12.18
200.673	-31.17
201.06	23.54
201.447	-107.54
201.833	14.79
202.22	16.07
202.607	-1.75
202.994	2.64
203.38	-7.15
203.767	-18.41
204.154	37.98
204.54	42.95
204.927	32.48
205.313	8.63
205.699	2.23
206.086	-0.62
206.472	39.17
206.858	0.96
207.245	8.01
207.631	32.76
208.017	23.48
208.403	-8.98
208.789	20.35
209.175	8.79
209.561	34.87
209.947	4.07
210.333	30.98
210.719	11.37
211.105	-36.05
211.491	17.42
211.876	-6.93
212.262	16.9
212.648	-11.83
213.034	-1.79
213.419	-6.45
213.805	11.38
214.19	20.99
214.576	25.09
214.961	-0.4
215.346	11.9
215.732	13.2
216.117	7.68
216.502	-29.09
216.888	-2.18
217.273	-47.49
217.658	-16.72
218.043	-3.88
218.428	21.45
218.813	22.26
219.198	-11.73
219.583	18.82
219.968	5.19
220.353	12.53
220.738	16.46
221.122	10.36
221.507	-7.83
221.892	-3.29
222.276	12.97
222.661	7.18
223.046	-4.42
223.43	9.25
223.815	3.98
224.199	9.95
224.583	10.21
224.968	13.13
225.352	-2.26
225.736	7.25
226.121	8.6
226.505	4.09
226.889	2.89
227.273	2.23
227.657	7.57
228.041	8.96
228.425	4.17
228.809	1.75
229.193	-1.12
229.577	5.13
229.961	1.59
230.344	3.87
230.728	2.17
231.112	2.36
231.495	3.29
231.879	3.27
232.263	2.39
232.646	1.77
233.03	1.34
233.413	1.55
233.797	5.54
234.18	0.3
234.563	2.57
234.946	2.52
235.33	2.68
235.713	3.32
236.096	2.27
236.479	3.14
236.862	2.86
237.245	3.34
237.628	3.68
238.011	1.15
238.394	2.45
238.777	4.2
239.16	2.79
239.543	2.4
239.925	3.79
240.308	3.06
240.691	3.71
241.073	2.98
241.456	1.47
241.838	2.31
242.221	3.55
242.603	2.57
242.986	2.27
243.368	2.51
243.75	2.12
244.133	2.65
244.515	2.92
244.897	2.97
245.279	3.03
245.661	2.51
246.043	2.58
246.425	3.67
246.807	2.48
247.189	2.41
247.571	2.59
247.953	1.99
248.335	2.72
248.717	2.21
249.098	2.27
249.48	2.36
249.862	1.92
250.243	2.18
250.625	2.93
251.006	2.83
251.388	2.35
251.769	2.37
252.151	1.71
252.532	2.58
252.913	2.69
253.295	2.9
253.676	2.17
254.057	1.87
254.438	2.63
254.819	2.16
255.2	1.58
255.581	2.55
255.962	1.89
256.343	1.77
256.724	1.33
257.105	2.51
257.486	2.34
257.867	1.31
258.247	2.95
258.628	2.43
259.009	1.78
259.389	1.87
259.77	1.81
260.15	2.14
260.531	2.02
260.911	2.6
261.292	1.9
261.672	2.04
262.052	1.97
262.432	2.17
262.813	2.16
263.193	2.37
263.573	2.23
263.953	2.41
264.333	3.06
264.713	2.31
265.093	2.28
265.473	2.85
265.853	1.94
266.233	2.06
266.612	1.59
266.992	2.84
267.372	2.58
267.752	2.7
268.131	1.46
268.511	1.83
268.89	1.42
269.27	2.14
269.649	1.85
270.029	2.2
270.408	2.17
270.787	2.14
271.167	2.34
271.546	1.72
271.925	2.87
272.304	2.37
272.683	1.97
273.062	2.22
273.441	2.42
273.82	1.63
274.199	1.96
274.578	1.85
274.957	1.98
275.336	2.36
275.715	1.9
276.093	2.12
276.472	2.47
276.851	2.39
277.229	1.96
277.608	1.8
277.986	1.69
278.365	2.24
278.743	2.4
279.122	2.21
279.5	1.89
279.878	2
280.257	1.86
280.635	1.58
281.013	2.19
281.391	2.16
281.769	1.37
282.147	2.38
282.525	1.5
282.903	1.95
283.281	2.16
283.659	2.18
284.037	2.11
284.415	2.09
284.792	2.46
285.17	1.92
285.548	1.95
285.925	1.79
286.303	1.78
286.68	2.22
287.058	2.08
287.435	2.21
287.813	1.9
288.19	1.92
288.567	1.89
288.945	1.92
289.322	1.76
289.699	2.43
290.076	1.88
290.453	2.15
290.83	1.96
291.207	2.73
291.584	2.17
291.961	2.09
292.338	2.1
292.715	2.09
293.092	1.79
293.469	1.98
293.845	2.23
294.222	2.09
294.599	1.88
294.975	2.52
295.352	2.27
295.728	2.04
296.105	2.55
296.481	2.06
296.858	2.14
297.234	2.35
297.61	1.93
297.986	2.11
298.363	1.92
298.739	2.19
299.115	1.82
299.491	1.9
299.867	1.75
300.243	1.85
300.619	2.32
300.995	2.26
301.371	1.91
301.746	2.11
302.122	2.41
302.498	1.85
302.874	2.14
303.249	2.3
303.625	1.8
304	2.53
304.376	2.09
304.751	2.36
305.127	2.22
305.502	2.53
305.878	2
306.253	2
306.628	2.03
307.003	1.84
307.378	1.74
307.754	1.67
308.129	1.43
308.504	3.4
308.879	1.66
309.254	2.57
309.629	2.17
310.003	1.97
310.378	1.87
310.753	2.41
311.128	1.79
311.502	1.77
311.877	1.69
312.252	1.75
312.626	1.99
313.001	1.86
313.375	1.83
313.75	2.29
314.124	2.1
314.498	2.05
314.873	2.03
315.247	2.17
315.621	2.14
315.995	2.4
316.369	2.29
316.743	1.6
317.117	1.32
317.491	1.81
317.865	2.12
318.239	2.12
318.613	2.06
318.987	2.57
319.361	1.94
319.734	2.11
320.108	2
320.482	1.43
320.855	1.81
321.229	2.29
321.602	2.1
321.976	2.39
322.349	2.24
322.723	2.2
323.096	1.74
323.469	1.97
323.843	2.8
324.216	2.14
324.589	1.88
324.962	2.12
325.335	2.48
325.708	1.91
326.081	2.44
326.454	1.57
326.827	2.71
327.2	2.1
327.573	2.12
327.945	2.25
328.318	2.22
328.691	1.01
329.063	2.5
329.436	1.89
329.809	2.15
330.181	2.25
330.553	1.73
330.926	2.2
331.298	1.91
331.671	2.23
332.043	2.13
332.415	2.45
332.787	2.22
333.159	2.43
333.532	1.86
333.904	1.4
334.276	2.81
334.648	2.06
335.02	1.71
335.391	2
335.763	2.25
336.135	2.15
336.507	2.41
336.879	2.18
337.25	2.15
337.622	2.18
337.993	2.19
338.365	1.35
338.736	2.01
339.108	2.3
339.479	2.3
339.851	1.56
340.222	1.68
340.593	1.87
340.964	2.07
341.336	2.48
341.707	1.32
342.078	1.74
342.449	1.68
342.82	2.11
343.191	2.39
343.562	1.98
343.933	2.27
344.303	1.99
344.674	1.84
345.045	1.98
345.416	2.24
345.786	1.99
346.157	2
346.527	2.49
346.898	1.76
347.268	1.82
347.639	2.01
348.009	1.83
348.38	1.91
348.75	2.23
349.12	2.26
349.49	1.72
349.861	2.18
350.231	2
350.601	2.53
350.971	1.68
351.341	1.78
351.711	2.17
352.081	1.78
352.45	2
352.82	2.33
353.19	1.95
353.56	2.1
353.929	1.69
354.299	1.72
354.669	2.1
355.038	1.62
355.408	1.84
355.777	2.11
356.147	2.02
356.516	1.94
356.885	1.91
357.254	2.04
357.624	2.12
357.993	1.7
358.362	2.21
358.731	2.33
359.1	1.62
359.469	2.03
359.838	1.82
360.207	2.07
360.576	2.31
360.945	1.99
361.314	2.14
361.682	1.99
362.051	2.02
362.42	2.13
362.788	1.87
363.157	2.19
363.525	2.06
363.894	1.72
364.262	2.08
364.631	1.66
364.999	2.04
365.367	2.26
365.735	1.92
366.104	2.37
366.472	1.92
366.84	1.81
367.208	2.18
367.576	2.06
367.944	2.33
368.312	2.04
368.68	1.96
369.048	2.28
369.416	1.76
369.783	1.9
370.151	2.1
370.519	1.86
370.886	2.18
371.254	1.79
371.621	1.83
371.989	1.7
372.356	2.43
372.724	2.08
373.091	2.01
373.458	2.04
373.826	2.22
374.193	1.6
374.56	2.33
374.927	2.33
375.294	2.24
375.661	2.16
376.028	2.15
376.395	2.16
376.762	2.86
377.129	2.23
377.496	1.97
377.863	2.36
378.229	1.89
378.596	1.8
378.963	2.54
379.329	1.78
379.696	1.79
380.062	2.37
380.429	2.15
380.795	2.3
381.161	2.48
381.528	2.01
381.894	2.51
382.26	2.13
382.626	2.14
382.993	2.36
383.359	1.85
383.725	1.96
384.091	2.2
384.457	2.1
384.823	2.33
385.188	2.27
385.554	2.04
385.92	1.82
386.286	1.89
386.651	2.25
387.017	2.47
387.383	2.52
387.748	1.99
388.114	2.33
388.479	2.31
388.845	2.43
389.21	2.36
389.575	1.99
389.94	2.13
390.306	2.29
390.671	2.25
391.036	2.08
391.401	2.18
391.766	2.02
392.131	2.44
392.496	1.99
392.861	2.12
393.226	2.37
393.591	2.15
393.956	2.03
394.32	2.37
394.685	2.35
395.05	1.97
395.414	2.36
395.779	1.9
396.143	2.25
396.508	2.03
396.872	2.12
397.236	2.26
397.601	2.12
397.965	2.22
398.329	2.37
398.694	2.15
399.058	2.34
399.422	2.17
399.786	2.23
400.15	2.12
400.514	2.28
400.878	2.18
401.242	2.22
401.605	2.42
401.969	2.16
402.333	2.19
402.697	2.18
403.06	2.06
403.424	2.14
403.787	2.2
404.151	2.2
404.514	2.08
404.878	2.16
405.241	2.39
405.604	1.72
405.968	2.1
406.331	2.25
406.694	2.44
407.057	2.02
407.42	2.24
407.783	2.21
408.146	2.15
408.509	2.21
408.872	2.29
409.235	2.12
409.598	2.31
409.961	2.26
410.323	2.31
410.686	2.13
411.049	2.33
411.411	2.42
411.774	2.08
412.136	2.16
412.499	2.27
412.861	2.17
413.223	2.42
413.586	2.34
413.948	2.28
414.31	2.26
414.672	2.25
415.035	2.15
415.397	2.24
415.759	2.21
416.121	2.18
416.483	2.34
416.845	2.21
417.206	2.4
417.568	2.26
417.93	2.39
418.292	2.22
418.653	2.34
419.015	2.25
419.377	2.29
419.738	2.18
420.1	2.18
420.461	2.16
420.822	2.16
421.184	2.28
421.545	2.39
421.906	2.19
422.267	2.18
422.629	2.19
422.99	2.16
423.351	2.16
423.712	2.1
424.073	2.18
424.434	2.21
424.795	2.38
425.155	2.13
425.516	2.08
425.877	2.18
426.238	2.17
426.598	2.13
426.959	2.23
427.32	2.18
427.68	2.18
428.041	2.15
428.401	2.22
428.761	2.2
429.122	2.3
429.482	2.41
429.842	2.48
430.202	2.24
430.563	2.09
430.923	2.23
431.283	2.25
431.643	2.27
432.003	2.29
432.363	2.24
432.722	2.3
433.082	2.23
433.442	2.18
433.802	2.34
434.161	2.17
434.521	2.33
434.881	2.23
435.24	2.23
435.6	2.29
435.959	2.2
436.319	2.3
436.678	2.39
437.037	2.3
437.396	2.09
437.756	2.29
438.115	2.33
438.474	2.23
438.833	2.44
439.192	2.41
439.551	2.24
439.91	2.13
440.269	2.22
440.628	2.2
440.987	2.07
441.345	2.35
441.704	2.18
442.063	2.25
442.421	2.3
442.78	2.2
443.138	2.12
443.497	2.22
443.855	2.26
444.214	2.24
444.572	2.29
444.93	2.32
445.288	2.16
445.647	2.46
446.005	2.29
446.363	2.08
446.721	2.11
447.079	2.24
447.437	2.16
447.795	2.24
448.153	2.19
448.51	2.24
448.868	2.24
449.226	2.4
449.584	2.24
449.941	2.16
450.299	2.25
450.656	2.23
451.014	2.37
451.371	2.25
451.729	2.4
452.086	2.19
452.443	2.42
452.801	2.36
453.158	2.32
453.515	2.34
453.872	2.32
454.229	2.36
454.586	2.13
454.943	2.29
455.3	2.21
455.657	2.15
456.014	2.5
456.371	2.39
456.727	2.28
457.084	2.34
457.441	2.4
457.797	2.28
458.154	2.34
458.51	2.35
458.867	2.39
459.223	2.47
459.58	2.23
459.936	2.19
460.292	2.34
460.648	2.38
461.005	2.34
461.361	2.25
461.717	2.32
462.073	2.22
462.429	2.24
462.785	2.28
463.141	2.27
463.496	2.23
463.852	2.49
464.208	2.44
464.564	2.29
464.919	2.55
465.275	2.35
465.631	2.56
465.986	2.23
466.342	2.15
466.697	2.33
467.052	2.41
467.408	2.49
467.763	2.4
468.118	2.27
468.473	2.46
468.829	2.35
469.184	2.24
469.539	2.49
469.894	2.37
470.249	2.49
470.603	2.3
470.958	2.45
471.313	2.51
471.668	2.5
472.023	2.32
472.377	2.22
472.732	2.43
473.086	2.45
473.441	2.46
473.795	2.38
474.15	2.42
474.504	2.17
474.859	2.36
475.213	2.18
475.567	2.22
475.921	2.36
476.275	2.22
476.63	2.16
476.984	2.47
477.338	2.38
477.692	2.39
478.045	2.33
478.399	2.36
478.753	2.35
479.107	2.14
479.461	2.47
479.814	2.3
480.168	2.13
480.521	2.29
480.875	2.37
481.228	2.44
481.582	2.29
481.935	2.54
482.289	2.4
482.642	2.37
482.995	2.39
483.348	2.32
483.701	2.46
484.055	2.26
484.408	2.26
484.761	2.25
485.114	2.16
485.466	2.16
485.819	2.16
486.172	2.14
486.525	2.21
486.878	2.27
487.23	2.22
487.583	2.23
487.936	2.26
488.288	2.23
488.641	2.25
488.993	2.18
489.345	2.24
489.698	2.2
490.05	2.21
490.402	2.27
490.754	2.27
491.107	2.31
491.459	2.33
491.811	2.31
492.163	2.28
492.515	2.38
492.866	2.28
493.218	2.14
493.57	2.2
493.922	2.21
494.274	2.29
494.625	2.41
494.977	2.48
495.328	2.5
495.68	2.3
496.031	2.39
496.383	2.32
496.734	2.33
497.086	2.25
497.437	2.31
497.788	2.38
498.139	2.41
498.49	2.46
498.842	2.3
499.193	2.35
499.544	2.41
499.894	2.38
500.245	2.44
500.596	2.35
500.947	2.33
501.298	2.49
501.648	2.48
501.999	2.49
502.35	2.39
502.7	2.45
503.051	2.29
503.401	2.36
503.752	2.48
504.102	2.35
504.452	2.34
504.803	2.53
505.153	2.39
505.503	2.55
505.853	2.48
506.203	2.37
506.553	2.35
506.903	2.48
507.253	2.47
507.603	2.36
507.953	2.41
508.303	2.47
508.652	2.52
509.002	2.51
509.352	2.39
509.701	2.46
510.051	2.38
510.4	2.35
510.75	2.33
511.099	2.31
511.449	2.45
511.798	2.4
512.147	2.49
512.496	2.49
512.846	2.43
513.195	2.29
513.544	2.46
513.893	2.42
514.242	2.36
514.591	2.3
514.939	2.31
515.288	2.4
515.637	2.33
515.986	2.43
516.334	2.41
516.683	2.35
517.032	2.44
517.38	2.28
517.729	2.41
518.077	2.35
518.426	2.49
518.774	2.42
519.122	2.38
519.47	2.33
519.819	2.27
520.167	2.31
520.515	2.3
520.863	2.46
521.211	2.32
521.559	2.49
521.907	2.38
522.255	2.4
522.602	2.44
522.95	2.41
523.298	2.44
523.645	2.52
523.993	2.46
524.341	2.48
524.688	2.44
525.036	2.5
525.383	2.51
525.73	2.34
526.078	2.42
526.425	2.27
526.772	2.32
527.119	2.35
527.466	2.36
527.814	2.25
528.161	2.37
528.508	2.38
528.854	2.35
529.201	2.35
529.548	2.38
529.895	2.27
530.242	2.2
530.588	2.21
530.935	2.26
531.282	2.32
531.628	2.3
531.975	2.31
532.321	2.29
532.667	2.3
533.014	2.4
533.36	2.41
533.706	2.35
534.052	2.34
534.399	2.36
534.745	2.38
535.091	2.29
535.437	2.37
535.783	2.28
536.129	2.43
536.474	2.4
536.82	2.39
537.166	2.49
537.512	2.36
537.857	2.38
538.203	2.35
538.549	2.32
538.894	2.37
539.239	2.44
539.585	2.4
539.93	2.48
540.276	2.43
540.621	2.4
540.966	2.31
541.311	2.38
541.656	2.48
542.001	2.31
542.346	2.35
542.691	2.35
543.036	2.21
543.381	2.2
543.726	2.29
544.071	2.32
544.415	2.31
544.76	2.43
545.105	2.35
545.449	2.35
545.794	2.25
546.138	2.28
546.483	2.39
546.827	2.39
547.171	2.5
547.516	2.43
547.86	2.39
548.204	2.4
548.548	2.39
548.892	2.42
549.236	2.45
549.58	2.48
549.924	2.32
550.268	2.49
550.612	2.25
550.956	2.54
551.3	2.54
551.643	2.52
551.987	2.57
552.33	2.53
552.674	2.46
553.017	2.67
553.361	2.7
553.704	2.39
554.048	2.67
554.391	2.6
554.734	2.41
555.077	2.53
555.42	2.44
555.764	2.61
556.107	2.43
556.45	2.43
556.793	2.38
557.135	2.47
557.478	2.35
557.821	2.46
558.164	2.51
558.507	2.57
558.849	2.45
559.192	2.54
559.534	2.51
559.877	2.35
560.219	2.56
560.562	2.55
560.904	2.63
561.246	2.5
561.589	2.48
561.931	2.53
562.273	2.35
562.615	2.36
562.957	2.45
563.299	2.52
563.641	2.47
563.983	2.41
564.325	2.37
564.667	2.51
565.008	2.28
565.35	2.4
565.692	2.51
566.033	2.62
566.375	2.4
566.716	2.3
567.058	2.69
567.399	2.52
567.741	2.56
568.082	2.44
568.423	2.45
568.764	2.53
569.105	2.39
569.447	2.61
569.788	2.61
570.129	2.47
570.47	2.56
570.811	2.54
571.151	2.57
571.492	2.58
571.833	2.48
572.174	2.48
572.514	2.42
572.855	2.26
573.195	2.49
573.536	2.34
573.876	2.49
574.217	2.46
574.557	2.48
574.898	2.52
575.238	2.54
575.578	2.46
575.918	2.58
576.258	2.49
576.598	2.52
576.938	2.36
577.278	2.57
577.618	2.56
577.958	2.42
578.298	2.55
578.638	2.39
578.977	2.45
579.317	2.32
579.657	2.52
579.996	2.61
580.336	2.4
580.675	2.45
581.014	2.51
581.354	2.47
581.693	2.28
582.032	2.38
582.372	2.55
582.711	2.48
583.05	2.62
583.389	2.47
583.728	2.58
584.067	2.72
584.406	2.61
584.745	2.68
585.083	2.6
585.422	2.65
585.761	2.69
586.1	2.4
586.438	2.61
586.777	2.52
587.115	2.44
587.454	2.53
587.792	2.34
588.13	2.45
588.469	2.53
588.807	2.66
589.145	2.56
589.483	2.4
589.821	2.58
590.159	2.6
590.497	2.65
590.835	2.6
591.173	2.55
591.511	2.43
591.849	2.39
592.187	2.59
592.524	2.28
592.862	2.42
593.2	2.23
593.537	2.43
593.875	2.63
594.212	2.39
594.55	2.61
594.887	2.56
595.224	2.56
595.561	2.77
595.899	2.41
596.236	2.61
596.573	2.36
596.91	2.75
597.247	2.36
597.584	2.6
597.921	2.49
598.258	2.64
598.594	2.6
598.931	2.56
599.268	2.47
599.604	2.47
599.941	2.58
600.277	2.46
600.614	2.75
600.95	2.74
601.287	2.58
601.623	2.63
601.959	2.59
602.296	2.62
602.632	2.4
602.968	2.61
603.304	2.44
603.64	2.7
603.976	2.41
604.312	2.48
604.648	2.67
604.984	2.57
605.319	2.64
605.655	2.39
605.991	2.56
606.326	2.39
606.662	2.63
606.998	2.4
607.333	2.5
607.668	2.55
608.004	2.49
608.339	2.74
608.674	2.42
609.01	2.57
609.345	2.95
609.68	2.75
610.015	2.36
610.35	2.72
610.685	2.64
611.02	2.67
611.355	2.38
611.689	2.41
612.024	2.45
612.359	2.41
612.694	2.37
613.028	2.74
613.363	2.43
613.697	2.66
614.032	2.64
614.366	2.67
614.7	2.57
615.035	2.7
615.369	2.34
615.703	2.95
616.037	2.58
616.371	2.53
616.705	2.43
617.039	2.88
617.373	2.65
617.707	2.59
618.041	2.7
618.375	2.49
618.709	2.55
619.042	2.5
619.376	2.35
619.71	2.57
620.043	2.54
620.377	2.51
620.71	2.31
621.043	2.34
621.377	2.21
621.71	2.87
622.043	2.57
622.376	2.87
622.709	2.8
623.043	2.67
623.376	3.06
623.709	2.62
624.041	2.78
624.374	2.42
624.707	2.54
625.04	2.78
625.373	3.18
625.705	2.5
626.038	2.63
626.37	2.56
626.703	2.79
627.035	2.42
627.368	2.46
627.7	2.4
628.032	2.62
628.365	2.56
628.697	2.88
629.029	2.52
629.361	2.3
629.693	2.56
630.025	2.4
630.357	2.89
630.689	2.62
631.021	2.51
631.353	2.89
631.684	2.45
632.016	2.56
632.348	2.43
632.679	2.39
633.011	3.11
633.342	2.57
633.674	2.94
634.005	2.59
634.336	2.73
634.668	2.34
634.999	2.8
635.33	2.75
635.661	2.7
635.992	2.58
636.323	2.36
636.654	2.76
636.985	2.85
637.316	2.35
637.647	2.43
637.977	2.79
638.308	2.71
638.639	2.8
638.969	2.47
639.3	2.6
639.63	2.88
639.961	2.73
640.291	2.23
640.622	2.49
640.952	3.03
641.282	2.58
641.612	2.86
641.943	2.79
642.273	2.62
642.603	3.25
642.933	2.79
643.263	2.24
643.592	2.82
643.922	2.99
644.252	2.88
644.582	2.2
644.911	2.87
645.241	2.46
645.571	3.2
645.9	2.49
646.23	2.44
646.559	3.12
646.888	2.32
647.218	2.68
647.547	2.46
647.876	2.57
648.205	2.81
648.534	3.12
648.863	2.74
649.192	3.13
649.521	2.94
649.85	2.16
650.179	2.92
650.508	2.88
650.837	3.11
651.165	2.3
651.494	2.56
651.822	2.8
652.151	2.83
652.479	3.02
652.808	2.15
653.136	2.67
653.465	3.02
653.793	2.79
654.121	2.87
654.449	2.49
654.777	2.9
655.105	2.81
655.433	3.13
655.761	2.84
656.089	2.53
656.417	2.74
656.745	2.67
657.073	2.33
657.4	3.05
657.728	2.26
658.056	3.08
658.383	2.67
658.711	2.58
659.038	2.99
659.365	2.83
659.693	2.71
660.02	2.68
660.347	2.92
660.674	2.7
661.001	2.75
661.329	3.1
661.656	2.78
661.982	2.49
662.309	2.88
662.636	2.7
662.963	3.14
663.29	3
663.616	3.01
663.943	3.19
664.27	3.4
664.596	2.82
664.923	3.45
665.249	2.44
665.576	2.66
665.902	3.01
666.228	3.4
666.554	2.44
666.881	2.08
667.207	3.09
667.533	3.25
667.859	2.94
668.185	2.4
668.511	3.13
668.837	2.31
669.162	3.62
669.488	2.4
669.814	2.68
670.139	3.03
670.465	2.66
670.791	2.72
671.116	2.82
671.442	2.32
671.767	3.06
672.092	3.55
672.418	2.67
672.743	2.74
673.068	2.35
673.393	2.97
673.718	3.18
674.043	2.94
674.368	1.84
674.693	3.12
675.018	2.48
675.343	2.77
675.667	3.52
675.992	2.53
676.317	2.05
676.641	2.52
676.966	3.22
677.29	2.81
677.615	2.67
677.939	3.14
678.264	3.37
678.588	3.12
678.912	3.32
679.236	2.44
679.56	2.85
679.885	2.94
680.209	2.94
680.532	3.31
680.856	2.63
681.18	2.59
681.504	2.88
681.828	2.78
682.152	2.89
682.475	2.93
682.799	2.71
683.122	3.02
683.446	2.87
683.769	3.76
684.093	2.9
684.416	2.46
684.739	2.89
685.062	3.06
685.386	2.73
685.709	3.42
686.032	3.42
686.355	2.55
686.678	3.22
687.001	3.22
687.324	2.93
687.646	3.72
687.969	2.27
688.292	2.85
688.614	2.96
688.937	3.08
689.26	3.1
689.582	2.4
689.904	2.94
690.227	2.36
690.549	2.74
690.871	3.48
691.194	3.23
691.516	2.65
691.838	2.78
692.16	3.68
692.482	2.76
692.804	2.53
693.126	2.95
