Data from 446_chest_Reflection__2__17.txt Node

Date: Tue Dec 12 18:19:59 CST 2023
User: ToomeyLab
Spectrometer: FLMS14357
Trigger mode: 0
Integration Time (sec): 1.000000E-2
Scans to average: 100
Electric dark correction enabled: true
Nonlinearity correction enabled: false
Boxcar width: 0
XAxis mode: Wavelengths
Number of Pixels in Spectrum: 2048
>>>>>Begin Spectral Data<<<<<
189.047	44.08
189.435	44.08
189.823	44.08
190.211	-1039.26
190.599	-774.45
190.987	47.16
191.375	-228.8
191.763	342.11
192.151	-762.98
192.538	131.9
192.926	22.8
193.314	-79.51
193.702	282.8
194.089	28.15
194.477	-137.98
194.864	51.63
195.252	4.64
195.639	-463.3
196.027	10.22
196.414	269.71
196.801	45.89
197.189	-2430.07
197.576	45.56
197.963	32.72
198.351	13.93
198.738	25.03
199.125	23.48
199.512	27.75
199.899	17.12
200.286	27.65
200.673	22.85
201.06	28.3
201.447	-28.03
201.833	14.02
202.22	46.27
202.607	-62.32
202.994	23.87
203.38	17.83
203.767	-7.09
204.154	-3.15
204.54	34.22
204.927	11.16
205.313	30.22
205.699	-9.07
206.086	2.98
206.472	43.51
206.858	10.19
207.245	34.63
207.631	43.51
208.017	12.97
208.403	-8.42
208.789	33.98
209.175	-15.1
209.561	43.58
209.947	20.21
210.333	41.82
210.719	5.16
211.105	0.05
211.491	28.47
211.876	28.58
212.262	8.6
212.648	-11.33
213.034	5.69
213.419	16.14
213.805	32.92
214.19	20.01
214.576	7.31
214.961	26.42
215.346	14.05
215.732	35.6
216.117	13.92
216.502	-3.94
216.888	-9.45
217.273	14.8
217.658	-12.55
218.043	7.45
218.428	7.13
218.813	14.98
219.198	-11.58
219.583	30.18
219.968	6.61
220.353	9.95
220.738	19.26
221.122	8.09
221.507	-2.57
221.892	9.71
222.276	8.98
222.661	2.95
223.046	-1.78
223.43	15.21
223.815	5.2
224.199	9.89
224.583	-0.24
224.968	6.82
225.352	1.13
225.736	9.25
226.121	6.9
226.505	4.9
226.889	-0.43
227.273	-1.61
227.657	9.29
228.041	7.47
228.425	0.03
228.809	0.1
229.193	1.46
229.577	3.8
229.961	2.52
230.344	1.74
230.728	2.6
231.112	2.06
231.495	1.9
231.879	3.37
232.263	0.89
232.646	1.31
233.03	2.39
233.413	1.17
233.797	1.33
234.18	-1.09
234.563	2.68
234.946	4.12
235.33	3.76
235.713	2.68
236.096	1.82
236.479	2.25
236.862	2.05
237.245	2.16
237.628	1.72
238.011	2.55
238.394	1.37
238.777	3.79
239.16	2.3
239.543	2.64
239.925	3.28
240.308	3.86
240.691	3.04
241.073	4.31
241.456	2.18
241.838	2.06
242.221	2.16
242.603	2.45
242.986	1.83
243.368	2.62
243.75	1.99
244.133	2.39
244.515	2.42
244.897	2.5
245.279	2.94
245.661	2.11
246.043	1.33
246.425	3.23
246.807	2.01
247.189	2.97
247.571	1.76
247.953	2.58
248.335	2.52
248.717	2.52
249.098	2.28
249.48	2.22
249.862	2.43
250.243	2.48
250.625	2.84
251.006	2.87
251.388	3.03
251.769	2.88
252.151	2.51
252.532	2.9
252.913	2.48
253.295	3.01
253.676	2.03
254.057	2.31
254.438	2.59
254.819	2.5
255.2	2.65
255.581	2.81
255.962	1.2
256.343	2.93
256.724	3.27
257.105	3.82
257.486	1.87
257.867	2.28
258.247	2.61
258.628	3.16
259.009	2.27
259.389	1.99
259.77	2.4
260.15	2.57
260.531	2.69
260.911	2.82
261.292	1.98
261.672	2.23
262.052	2.14
262.432	2.16
262.813	2.27
263.193	2.4
263.573	2.02
263.953	3.45
264.333	3.49
264.713	2.37
265.093	2.64
265.473	3.21
265.853	2.27
266.233	2.31
266.612	1.72
266.992	2.61
267.372	2.39
267.752	3.32
268.131	2.06
268.511	2.16
268.89	1.66
269.27	2.24
269.649	2.38
270.029	1.63
270.408	2.65
270.787	2
271.167	2.53
271.546	2.27
271.925	2.72
272.304	2.93
272.683	1.8
273.062	2.03
273.441	2.46
273.82	1.79
274.199	2.42
274.578	2.28
274.957	2.23
275.336	1.99
275.715	2.43
276.093	1.83
276.472	2.62
276.851	2.04
277.229	2.3
277.608	2.38
277.986	1.91
278.365	2.04
278.743	2.2
279.122	2.81
279.5	1.79
279.878	1.81
280.257	2.09
280.635	2.22
281.013	2.07
281.391	2.26
281.769	2.09
282.147	2.26
282.525	2.22
282.903	2.11
283.281	2.31
283.659	2.16
284.037	2.7
284.415	2.57
284.792	2.63
285.17	2.18
285.548	2.4
285.925	1.96
286.303	1.95
286.68	2.17
287.058	2.44
287.435	2.15
287.813	1.74
288.19	2.22
288.567	1.98
288.945	2.14
289.322	2
289.699	2.37
290.076	2.48
290.453	2.7
290.83	1.73
291.207	2.59
291.584	2.35
291.961	2.65
292.338	2.29
292.715	2.25
293.092	2.02
293.469	2.26
293.845	2.54
294.222	2.38
294.599	3.19
294.975	2.39
295.352	2.93
295.728	2.5
296.105	2.43
296.481	3.07
296.858	2.89
297.234	2.93
297.61	2.49
297.986	2.56
298.363	2.78
298.739	2.9
299.115	2.43
299.491	2.42
299.867	2.53
300.243	2.24
300.619	2.8
300.995	2.81
301.371	3.08
301.746	2.68
302.122	3.09
302.498	2.61
302.874	2.91
303.249	3.47
303.625	2.58
304	2.83
304.376	2.68
304.751	2.71
305.127	2.75
305.502	3.09
305.878	2.82
306.253	2.73
306.628	2.96
307.003	2.39
307.378	2.71
307.754	2.74
308.129	2.87
308.504	3.95
308.879	2.05
309.254	2.91
309.629	2.45
310.003	2.79
310.378	2.97
310.753	3.04
311.128	3.21
311.502	2.42
311.877	2.81
312.252	2.51
312.626	2.78
313.001	2.56
313.375	2.58
313.75	3.22
314.124	3.07
314.498	3
314.873	3.12
315.247	3.6
315.621	2.99
315.995	3.55
316.369	3.25
316.743	3.07
317.117	2.5
317.491	2.69
317.865	2.67
318.239	3.05
318.613	3.46
318.987	3.42
319.361	2.68
319.734	3.31
320.108	3.88
320.482	2.98
320.855	2.6
321.229	3.18
321.602	3.33
321.976	3.46
322.349	3.17
322.723	2.75
323.096	3
323.469	3.55
323.843	3.4
324.216	2.95
324.589	3.35
324.962	3.37
325.335	3.65
325.708	3.16
326.081	3.48
326.454	3
326.827	3.68
327.2	3.42
327.573	3.73
327.945	3.16
328.318	3.85
328.691	3.06
329.063	3.1
329.436	3.51
329.809	3.4
330.181	2.94
330.553	3.49
330.926	3.24
331.298	2.7
331.671	3.06
332.043	2.95
332.415	3.63
332.787	2.89
333.159	3.58
333.532	3.35
333.904	3.5
334.276	3.67
334.648	3.15
335.02	2.82
335.391	3.49
335.763	2.93
336.135	2.87
336.507	3.34
336.879	3.45
337.25	3.36
337.622	3.03
337.993	3.33
338.365	2.47
338.736	3.52
339.108	3.07
339.479	3.4
339.851	2.59
340.222	2.99
340.593	3.04
340.964	3.3
341.336	3.76
341.707	2.8
342.078	3.02
342.449	3.33
342.82	3.45
343.191	3.25
343.562	3.51
343.933	3.89
344.303	3.59
344.674	3.39
345.045	3.61
345.416	3.97
345.786	3.19
346.157	3.35
346.527	3.55
346.898	2.81
347.268	3.01
347.639	3.15
348.009	3.01
348.38	3.26
348.75	3.62
349.12	3.45
349.49	3.16
349.861	3.53
350.231	3.11
350.601	3.57
350.971	3.21
351.341	3.08
351.711	3.3
352.081	3.63
352.45	3.3
352.82	3.26
353.19	3.15
353.56	3.39
353.929	3.01
354.299	3.06
354.669	3.41
355.038	2.94
355.408	3.33
355.777	3.37
356.147	3.19
356.516	3.44
356.885	3.19
357.254	3.14
357.624	2.91
357.993	3.29
358.362	3.44
358.731	3.83
359.1	3.18
359.469	3.34
359.838	3.21
360.207	2.98
360.576	3.24
360.945	3.15
361.314	3.25
361.682	3.39
362.051	3.59
362.42	3.5
362.788	3.46
363.157	3.48
363.525	3.63
363.894	3.17
364.262	3.39
364.631	3.02
364.999	3.66
365.367	3.52
365.735	3.13
366.104	3.26
366.472	3.26
366.84	3.34
367.208	3.33
367.576	3.27
367.944	3.57
368.312	3.32
368.68	3.41
369.048	3.56
369.416	3.21
369.783	3.3
370.151	3.27
370.519	3.36
370.886	3.61
371.254	3.34
371.621	3.43
371.989	3.41
372.356	3.37
372.724	3.27
373.091	3.19
373.458	3.47
373.826	3.19
374.193	3.37
374.56	3.61
374.927	3.64
375.294	3.49
375.661	3.64
376.028	3.65
376.395	3.47
376.762	3.85
377.129	3.48
377.496	3.47
377.863	3.41
378.229	3.49
378.596	3.39
378.963	3.49
379.329	3.42
379.696	3.31
380.062	3.9
380.429	3.23
380.795	3.64
381.161	3.49
381.528	3.54
381.894	3.67
382.26	3.36
382.626	3.55
382.993	3.48
383.359	3.42
383.725	3.54
384.091	3.52
384.457	3.48
384.823	3.39
385.188	3.49
385.554	3.67
385.92	3.6
386.286	3.86
386.651	3.56
387.017	3.68
387.383	3.37
387.748	3.48
388.114	3.53
388.479	3.9
388.845	3.54
389.21	3.66
389.575	3.37
389.94	3.55
390.306	3.62
390.671	3.63
391.036	3.58
391.401	3.49
391.766	3.77
392.131	3.7
392.496	3.46
392.861	3.38
393.226	3.58
393.591	3.42
393.956	3.46
394.32	3.58
394.685	3.61
395.05	3.17
395.414	3.49
395.779	3.57
396.143	3.83
396.508	3.39
396.872	3.62
397.236	3.57
397.601	3.47
397.965	3.43
398.329	3.7
398.694	3.55
399.058	3.83
399.422	3.48
399.786	3.61
400.15	3.69
400.514	3.82
400.878	3.69
401.242	3.48
401.605	3.81
401.969	3.56
402.333	3.73
402.697	3.63
403.06	3.6
403.424	3.95
403.787	3.25
404.151	3.84
404.514	3.49
404.878	3.28
405.241	3.68
405.604	3.49
405.968	3.39
406.331	3.68
406.694	3.92
407.057	3.42
407.42	3.68
407.783	3.58
408.146	3.64
408.509	3.47
408.872	3.62
409.235	3.7
409.598	3.41
409.961	3.71
410.323	3.8
410.686	3.76
411.049	3.89
411.411	3.81
411.774	3.85
412.136	3.72
412.499	3.65
412.861	3.6
413.223	3.9
413.586	3.5
413.948	3.63
414.31	3.72
414.672	3.85
415.035	3.84
415.397	3.77
415.759	3.77
416.121	3.69
416.483	3.84
416.845	3.64
417.206	3.99
417.568	3.7
417.93	3.59
418.292	3.69
418.653	3.8
419.015	3.71
419.377	3.62
419.738	3.76
420.1	3.65
420.461	3.68
420.822	3.67
421.184	3.66
421.545	3.82
421.906	3.64
422.267	3.67
422.629	3.63
422.99	3.73
423.351	3.64
423.712	3.7
424.073	3.7
424.434	3.66
424.795	3.81
425.155	3.6
425.516	3.56
425.877	3.64
426.238	3.69
426.598	3.68
426.959	3.7
427.32	3.71
427.68	3.68
428.041	3.8
428.401	3.72
428.761	3.74
429.122	3.78
429.482	3.96
429.842	3.81
430.202	3.68
430.563	3.78
430.923	4.02
431.283	3.78
431.643	3.89
432.003	3.7
432.363	3.99
432.722	3.86
433.082	3.94
433.442	3.9
433.802	3.95
434.161	3.7
434.521	3.78
434.881	3.84
435.24	3.87
435.6	3.82
435.959	3.76
436.319	3.83
436.678	3.91
437.037	3.81
437.396	3.72
437.756	3.93
438.115	4.09
438.474	3.8
438.833	3.96
439.192	4.06
439.551	3.83
439.91	3.74
440.269	3.79
440.628	3.69
440.987	3.71
441.345	3.97
441.704	3.85
442.063	3.97
442.421	3.77
442.78	3.9
443.138	3.84
443.497	3.87
443.855	3.88
444.214	3.95
444.572	3.89
444.93	4.01
445.288	3.76
445.647	3.93
446.005	3.78
446.363	3.88
446.721	3.73
447.079	3.87
447.437	3.71
447.795	3.83
448.153	3.8
448.51	3.89
448.868	3.8
449.226	3.9
449.584	3.92
449.941	3.86
450.299	3.91
450.656	3.86
451.014	3.91
451.371	4.13
451.729	4.14
452.086	4.05
452.443	4.28
452.801	3.9
453.158	3.9
453.515	4.12
453.872	3.93
454.229	3.96
454.586	3.83
454.943	4
455.3	4.01
455.657	4.05
456.014	4.18
456.371	4.2
456.727	4.18
457.084	4.18
457.441	4.09
457.797	4.13
458.154	4.07
458.51	3.91
458.867	4.19
459.223	4.28
459.58	4.16
459.936	4.01
460.292	4.03
460.648	4.12
461.005	4.04
461.361	3.92
461.717	4.05
462.073	4
462.429	3.97
462.785	4.02
463.141	4
463.496	4.03
463.852	4.26
464.208	4.29
464.564	4.31
464.919	4.38
465.275	4.29
465.631	4.19
465.986	4.2
466.342	4.09
466.697	4.06
467.052	4.32
467.408	4.22
467.763	4.2
468.118	4.21
468.473	4.24
468.829	4.36
469.184	4
469.539	4.31
469.894	4.33
470.249	4.29
470.603	4.23
470.958	4.3
471.313	4.45
471.668	4.37
472.023	4.22
472.377	4.08
472.732	4.29
473.086	4.19
473.441	4.38
473.795	4.27
474.15	4.34
474.504	4.15
474.859	4.24
475.213	4.15
475.567	4.29
475.921	4.29
476.275	4.19
476.63	4.23
476.984	4.35
477.338	4.22
477.692	4.22
478.045	4.24
478.399	4.27
478.753	4.18
479.107	4.26
479.461	4.29
479.814	4.29
480.168	4.23
480.521	4.12
480.875	4.2
481.228	4.41
481.582	4.28
481.935	4.36
482.289	4.43
482.642	4.36
482.995	4.33
483.348	4.24
483.701	4.45
484.055	4.21
484.408	4.28
484.761	4.17
485.114	4.09
485.466	4.01
485.819	4
486.172	4.01
486.525	4.06
486.878	4.11
487.23	4.14
487.583	4.14
487.936	4.27
488.288	4.07
488.641	4.17
488.993	4.12
489.345	4.1
489.698	4.06
490.05	4.13
490.402	4.19
490.754	4.2
491.107	4.17
491.459	4.28
491.811	4.32
492.163	4.31
492.515	4.31
492.866	4.21
493.218	4.14
493.57	4.18
493.922	4.14
494.274	4.2
494.625	4.36
494.977	4.44
495.328	4.44
495.68	4.34
496.031	4.52
496.383	4.42
496.734	4.39
497.086	4.47
497.437	4.44
497.788	4.41
498.139	4.42
498.49	4.55
498.842	4.42
499.193	4.45
499.544	4.47
499.894	4.41
500.245	4.52
500.596	4.53
500.947	4.4
501.298	4.52
501.648	4.58
501.999	4.52
502.35	4.69
502.7	4.59
503.051	4.55
503.401	4.59
503.752	4.69
504.102	4.68
504.452	4.64
504.803	4.74
505.153	4.69
505.503	4.74
505.853	4.68
506.203	4.71
506.553	4.55
506.903	4.71
507.253	4.65
507.603	4.61
507.953	4.61
508.303	4.69
508.652	4.67
509.002	4.72
509.352	4.67
509.701	4.66
510.051	4.64
510.4	4.61
510.75	4.59
511.099	4.62
511.449	4.7
511.798	4.68
512.147	4.67
512.496	4.81
512.846	4.77
513.195	4.66
513.544	4.71
513.893	4.68
514.242	4.76
514.591	4.66
514.939	4.75
515.288	4.7
515.637	4.63
515.986	4.8
516.334	4.95
516.683	4.82
517.032	4.68
517.38	4.72
517.729	4.86
518.077	4.73
518.426	4.85
518.774	4.82
519.122	4.75
519.47	4.81
519.819	4.62
520.167	4.68
520.515	4.64
520.863	4.72
521.211	4.71
521.559	4.8
521.907	4.76
522.255	4.8
522.602	4.81
522.95	4.9
523.298	4.83
523.645	4.95
523.993	4.91
524.341	4.93
524.688	4.88
525.036	4.92
525.383	4.88
525.73	4.81
526.078	4.8
526.425	4.83
526.772	4.82
527.119	4.86
527.466	4.78
527.814	4.78
528.161	4.91
528.508	4.93
528.854	4.8
529.201	4.86
529.548	4.82
529.895	4.74
530.242	4.63
530.588	4.7
530.935	4.74
531.282	4.7
531.628	4.82
531.975	4.83
532.321	4.88
532.667	4.76
533.014	4.84
533.36	5.01
533.706	4.92
534.052	4.9
534.399	4.93
534.745	4.91
535.091	4.86
535.437	4.85
535.783	4.83
536.129	5.04
536.474	4.98
536.82	4.99
537.166	5.12
537.512	5.1
537.857	5.05
538.203	5.05
538.549	5.09
538.894	5.05
539.239	5.03
539.585	5.14
539.93	5.09
540.276	5.08
540.621	5.23
540.966	5.16
541.311	5.16
541.656	5.24
542.001	5.23
542.346	5.1
542.691	5
543.036	5.02
543.381	4.94
543.726	5.01
544.071	5.08
544.415	5.05
544.76	5.11
545.105	5.13
545.449	5.24
545.794	5.3
546.138	5.21
546.483	5.27
546.827	5.32
547.171	5.32
547.516	5.34
547.86	5.38
548.204	5.37
548.548	5.42
548.892	5.39
549.236	5.43
549.58	5.47
549.924	5.41
550.268	5.41
550.612	5.41
550.956	5.44
551.3	5.74
551.643	5.6
551.987	5.69
552.33	5.49
552.674	5.55
553.017	5.79
553.361	5.71
553.704	5.65
554.048	5.55
554.391	5.53
554.734	5.62
555.077	5.74
555.42	5.48
555.764	5.69
556.107	5.58
556.45	5.44
556.793	5.5
557.135	5.61
557.478	5.73
557.821	5.8
558.164	5.79
558.507	5.77
558.849	5.79
559.192	5.78
559.534	5.77
559.877	5.79
560.219	5.62
560.562	5.75
560.904	5.84
561.246	5.8
561.589	5.8
561.931	5.75
562.273	5.66
562.615	5.84
562.957	5.8
563.299	6.08
563.641	5.96
563.983	5.93
564.325	6.01
564.667	6.03
565.008	5.64
565.35	5.88
565.692	6.01
566.033	6.09
566.375	5.91
566.716	6.08
567.058	6.15
567.399	6.07
567.741	5.88
568.082	5.82
568.423	5.92
568.764	6.04
569.105	5.97
569.447	6.16
569.788	6.27
570.129	6.05
570.47	6.18
570.811	6.09
571.151	6.24
571.492	6.21
571.833	6.05
572.174	6.26
572.514	6.19
572.855	6.04
573.195	5.95
573.536	6
573.876	6.1
574.217	6.24
574.557	6.12
574.898	6.24
575.238	6.32
575.578	6.19
575.918	6.2
576.258	6.39
576.598	6.17
576.938	6.25
577.278	6.27
577.618	6.15
577.958	6.39
578.298	6.45
578.638	6.3
578.977	6.46
579.317	6.46
579.657	6.55
579.996	6.54
580.336	6.29
580.675	6.47
581.014	6.47
581.354	6.5
581.693	6.38
582.032	6.13
582.372	6.68
582.711	6.38
583.05	6.61
583.389	6.53
583.728	6.6
584.067	6.8
584.406	6.81
584.745	6.76
585.083	6.45
585.422	6.81
585.761	6.89
586.1	7.02
586.438	6.91
586.777	6.93
587.115	6.58
587.454	7.01
587.792	6.53
588.13	6.76
588.469	6.62
588.807	6.73
589.145	6.81
589.483	7.02
589.821	6.97
590.159	7
590.497	6.82
590.835	6.8
591.173	6.85
591.511	7.12
591.849	6.95
592.187	6.88
592.524	6.6
592.862	6.66
593.2	6.86
593.537	6.65
593.875	7.02
594.212	7.14
594.55	7.1
594.887	7.2
595.224	7.06
595.561	7.25
595.899	7.18
596.236	7.29
596.573	6.9
596.91	7.19
597.247	7.09
597.584	7.31
597.921	7.07
598.258	7.14
598.594	7.02
598.931	6.98
599.268	7
599.604	7.23
599.941	6.93
600.277	7.25
600.614	7.47
600.95	7.45
601.287	7.4
601.623	7.65
601.959	7.36
602.296	7.43
602.632	7.12
602.968	7.24
603.304	7.36
603.64	7.45
603.976	7.11
604.312	7.35
604.648	7.38
604.984	7.66
605.319	7.19
605.655	7.24
605.991	7.49
606.326	7.17
606.662	7.41
606.998	7.36
607.333	7.38
607.668	7.43
608.004	7.49
608.339	7.62
608.674	7.52
609.01	7.48
609.345	7.64
609.68	7.68
610.015	7.54
610.35	7.67
610.685	7.97
611.02	7.83
611.355	7.69
611.689	7.47
612.024	7.47
612.359	7.85
612.694	7.83
613.028	7.94
613.363	7.67
613.697	7.8
614.032	7.83
614.366	8.08
614.7	7.8
615.035	7.74
615.369	8
615.703	8.14
616.037	7.9
616.371	7.56
616.705	7.77
617.039	8
617.373	7.84
617.707	7.94
618.041	7.94
618.375	7.92
618.709	8.21
619.042	8.1
619.376	7.94
619.71	8
620.043	7.89
620.377	8.21
620.71	8.13
621.043	7.9
621.377	7.78
621.71	8.08
622.043	8.16
622.376	8.36
622.709	8.03
623.043	8.17
623.376	8.46
623.709	8.25
624.041	8.36
624.374	8.29
624.707	8.28
625.04	8.49
625.373	8.3
625.705	8.65
626.038	8.33
626.37	8.78
626.703	8.88
627.035	8.23
627.368	8.6
627.7	8.37
628.032	8.08
628.365	8.58
628.697	8.52
629.029	8.18
629.361	8.28
629.693	8.22
630.025	8.14
630.357	8.67
630.689	8.39
631.021	8.6
631.353	8.89
631.684	8.85
632.016	8.72
632.348	8.61
632.679	8.39
633.011	8.86
633.342	8.87
633.674	8.83
634.005	8.71
634.336	8.81
634.668	8.57
634.999	9.03
635.33	8.9
635.661	8.78
635.992	8.37
636.323	8.48
636.654	8.85
636.985	8.98
637.316	8.64
637.647	8.71
637.977	8.91
638.308	8.77
638.639	8.99
638.969	9.09
639.3	8.84
639.63	9.3
639.961	9.17
640.291	8.48
640.622	8.99
640.952	9.3
641.282	8.93
641.612	9.14
641.943	9.05
642.273	9.01
642.603	9.74
642.933	8.74
643.263	9.04
643.592	9.66
643.922	9.46
644.252	9.44
644.582	8.72
644.911	9.16
645.241	8.93
645.571	9.32
645.9	8.77
646.23	9.55
646.559	9.53
646.888	9.01
647.218	9.33
647.547	8.94
647.876	9.21
648.205	9.41
648.534	9.49
648.863	9.53
649.192	9.38
649.521	10.1
649.85	9.11
650.179	9.69
650.508	9.71
650.837	9.47
651.165	9.11
651.494	9.26
651.822	9.5
652.151	9.71
652.479	9.51
652.808	9.79
653.136	9.96
653.465	9.9
653.793	10.16
654.121	9.78
654.449	9.66
654.777	9.78
655.105	9.65
655.433	9.81
655.761	9.87
656.089	9.59
656.417	9.78
656.745	9.74
657.073	9.72
657.4	10.1
657.728	9.19
658.056	9.58
658.383	9.13
658.711	9.75
659.038	9.73
659.365	9.85
659.693	9.88
660.02	9.74
660.347	10.49
660.674	9.82
661.001	9.95
661.329	9.74
661.656	10.34
661.982	9.71
662.309	10.22
662.636	9.87
662.963	10.19
663.29	10.16
663.616	9.9
663.943	10.33
664.27	10.46
664.596	10.22
664.923	10.99
665.249	10.04
665.576	10.2
665.902	9.94
666.228	10.32
666.554	10.14
666.881	9.65
667.207	10.5
667.533	10.43
667.859	10.24
668.185	10.63
668.511	10.44
668.837	10.08
669.162	10.76
669.488	10.48
669.814	10.73
670.139	9.84
670.465	10.19
670.791	10.54
671.116	10.15
671.442	10.16
671.767	10.73
672.092	11.2
672.418	10.32
672.743	10.48
673.068	9.62
673.393	10.45
673.718	10.8
674.043	11.59
674.368	9.92
674.693	10.32
675.018	10.18
675.343	10.74
675.667	10.52
675.992	10.85
676.317	10.36
676.641	10.5
676.966	11.26
677.29	10.71
677.615	10.54
677.939	10.59
678.264	11.14
678.588	11.22
678.912	10.91
679.236	10.64
679.56	10.79
679.885	10.69
680.209	11.11
680.532	10.47
680.856	10.42
681.18	10.73
681.504	10.83
681.828	11.06
682.152	10.43
682.475	10.89
682.799	11.05
683.122	10.9
683.446	10.62
683.769	12.04
684.093	10.6
684.416	11.05
684.739	11.01
685.062	10.79
685.386	10.86
685.709	11.32
686.032	11.51
686.355	10.58
686.678	11.5
687.001	11.72
687.324	11.39
687.646	11.55
687.969	10.79
688.292	11.09
688.614	11.96
688.937	11.64
689.26	10.98
689.582	10.61
689.904	10.74
690.227	11.52
690.549	11.46
690.871	11.46
691.194	11.46
691.516	11.8
