Data from 446_forehead_Reflection__1__26.txt Node

Date: Tue Dec 12 18:24:24 CST 2023
User: ToomeyLab
Spectrometer: FLMS14357
Trigger mode: 0
Integration Time (sec): 1.000000E-2
Scans to average: 100
Electric dark correction enabled: true
Nonlinearity correction enabled: false
Boxcar width: 0
XAxis mode: Wavelengths
Number of Pixels in Spectrum: 2048
>>>>>Begin Spectral Data<<<<<
189.047	50.34
189.435	50.34
189.823	50.34
190.211	2071.48
190.599	1561.68
190.987	59.65
191.375	-130.68
191.763	-2211.4
192.151	-1106.06
192.538	96.7
192.926	372.42
193.314	-77.23
193.702	385.84
194.089	163.36
194.477	-62.07
194.864	45.65
195.252	24.95
195.639	-89.14
196.027	176.65
196.414	358.91
196.801	75.17
197.189	-444.41
197.576	193.12
197.963	139.88
198.351	12.9
198.738	34.74
199.125	49.42
199.512	34.91
199.899	34.06
200.286	11.83
200.673	-4.03
201.06	0.9
201.447	4.5
201.833	-12.49
202.22	43.36
202.607	-4.52
202.994	33.18
203.38	46.77
203.767	40.16
204.154	-2.37
204.54	31.65
204.927	-5.01
205.313	29.73
205.699	2.7
206.086	14.08
206.472	38.09
206.858	0.4
207.245	24.49
207.631	42.13
208.017	37.82
208.403	12
208.789	-8.83
209.175	58.8
209.561	18.35
209.947	-11.8
210.333	48.87
210.719	9.74
211.105	37.25
211.491	29.53
211.876	22.94
212.262	21.72
212.648	53.17
213.034	30.65
213.419	11.95
213.805	27.9
214.19	46.99
214.576	23.09
214.961	35.99
215.346	19.73
215.732	42.83
216.117	23.99
216.502	2.04
216.888	2.26
217.273	-13.74
217.658	-5.85
218.043	7.13
218.428	12.67
218.813	30.72
219.198	-4.6
219.583	26.82
219.968	22.44
220.353	10.68
220.738	9.13
221.122	0.74
221.507	-0.49
221.892	15.44
222.276	18.24
222.661	14.64
223.046	3.02
223.43	20.04
223.815	6.65
224.199	12.24
224.583	0.11
224.968	10.05
225.352	5.99
225.736	14
226.121	3.3
226.505	7.05
226.889	7.75
227.273	1.23
227.657	12.08
228.041	8.22
228.425	6.4
228.809	8.53
229.193	4.92
229.577	5.89
229.961	5.39
230.344	7.07
230.728	6.61
231.112	6.97
231.495	7.03
231.879	7.68
232.263	7.79
232.646	5.49
233.03	6.55
233.413	4.7
233.797	7.1
234.18	5.33
234.563	5.43
234.946	10.49
235.33	8.41
235.713	7.21
236.096	6.01
236.479	6.84
236.862	5.91
237.245	6.91
237.628	5.58
238.011	6.78
238.394	4.11
238.777	8.16
239.16	7.21
239.543	6.06
239.925	7.27
240.308	5.29
240.691	6.66
241.073	8.18
241.456	7.07
241.838	5.89
242.221	6.8
242.603	6.85
242.986	5.95
243.368	6.33
243.75	5.91
244.133	6.37
244.515	6.4
244.897	6.33
245.279	6.84
245.661	6.67
246.043	6.73
246.425	6.98
246.807	5.85
247.189	6.11
247.571	6.67
247.953	6.47
248.335	6.19
248.717	5.89
249.098	6.12
249.48	5.99
249.862	5.66
250.243	5.73
250.625	6.56
251.006	6.68
251.388	6.42
251.769	6.89
252.151	7.32
252.532	6.79
252.913	7.52
253.295	7.7
253.676	6.28
254.057	6.29
254.438	6.82
254.819	5.78
255.2	5.63
255.581	6.22
255.962	5.79
256.343	6.22
256.724	6.02
257.105	7.88
257.486	5.7
257.867	5.29
258.247	6.04
258.628	6.2
259.009	6.24
259.389	6.42
259.77	6.43
260.15	6.23
260.531	6.11
260.911	6.1
261.292	5.69
261.672	5.7
262.052	5.79
262.432	5.91
262.813	6.18
263.193	6.67
263.573	6.01
263.953	6.62
264.333	6.89
264.713	6.25
265.093	6.38
265.473	7.13
265.853	5.57
266.233	7.05
266.612	5.07
266.992	6.43
267.372	6.34
267.752	6.59
268.131	5.24
268.511	5.91
268.89	5.45
269.27	5.5
269.649	5.74
270.029	6.05
270.408	6.55
270.787	6.59
271.167	6.18
271.546	6.07
271.925	5.88
272.304	5.98
272.683	5.22
273.062	6.2
273.441	5.95
273.82	5.14
274.199	6.14
274.578	5.41
274.957	5.45
275.336	6.14
275.715	5.83
276.093	5.75
276.472	6.08
276.851	5.99
277.229	5.9
277.608	5.76
277.986	5.37
278.365	5.71
278.743	6
279.122	6.52
279.5	5.37
279.878	5.39
280.257	5.54
280.635	5.38
281.013	5.59
281.391	5.78
281.769	5.5
282.147	5.66
282.525	5.38
282.903	5.53
283.281	5.71
283.659	5.67
284.037	5.82
284.415	5.25
284.792	5.48
285.17	5.64
285.548	5.74
285.925	5.77
286.303	5.84
286.68	5.76
287.058	5.73
287.435	5.65
287.813	5.57
288.19	5.48
288.567	5.75
288.945	5.7
289.322	5.71
289.699	6.18
290.076	6.13
290.453	5.99
290.83	5.7
291.207	6.07
291.584	6.19
291.961	5.83
292.338	5.84
292.715	6.17
293.092	6.19
293.469	5.9
293.845	6.18
294.222	6.24
294.599	6.11
294.975	5.98
295.352	6.61
295.728	6.42
296.105	6.54
296.481	6.27
296.858	6.47
297.234	6.57
297.61	6.36
297.986	6.68
298.363	6.51
298.739	6.46
299.115	6.1
299.491	6.19
299.867	6.42
300.243	6.58
300.619	6.52
300.995	6.68
301.371	6.88
301.746	6.86
302.122	7.12
302.498	6.79
302.874	7.08
303.249	7.16
303.625	6.41
304	6.95
304.376	6.92
304.751	7.16
305.127	7.06
305.502	7.52
305.878	6.57
306.253	6.97
306.628	7.07
307.003	6.82
307.378	6.8
307.754	7.68
308.129	6.93
308.504	8
308.879	7.18
309.254	7.51
309.629	7.04
310.003	8.32
310.378	7.5
310.753	7.98
311.128	7.83
311.502	7.1
311.877	7.07
312.252	7.41
312.626	7.61
313.001	7.64
313.375	7.39
313.75	7.82
314.124	7.78
314.498	7.94
314.873	7.6
315.247	8.14
315.621	7.82
315.995	7.99
316.369	8.23
316.743	7.38
317.117	7.81
317.491	7.6
317.865	8.21
318.239	8.17
318.613	8.61
318.987	8.6
319.361	8.12
319.734	8.48
320.108	8.46
320.482	8.17
320.855	8.19
321.229	8.3
321.602	9.04
321.976	8.39
322.349	9.04
322.723	8.77
323.096	8.6
323.469	8.53
323.843	9.14
324.216	9.18
324.589	8.77
324.962	9.55
325.335	9.27
325.708	9.05
326.081	9.13
326.454	8.56
326.827	9.71
327.2	8.82
327.573	8.82
327.945	9.38
328.318	9.43
328.691	8.75
329.063	9.42
329.436	9.39
329.809	9.44
330.181	9.17
330.553	9.33
330.926	9.57
331.298	9.25
331.671	9.98
332.043	9.57
332.415	9.6
332.787	9.57
333.159	9.64
333.532	9.98
333.904	9.79
334.276	10.11
334.648	9.43
335.02	9.24
335.391	9.99
335.763	9.91
336.135	9.96
336.507	10.23
336.879	9.9
337.25	9.78
337.622	9.95
337.993	10.21
338.365	10.03
338.736	10.03
339.108	10.06
339.479	10.56
339.851	10.04
340.222	10.11
340.593	10.28
340.964	9.96
341.336	10.72
341.707	10.13
342.078	10.14
342.449	10
342.82	10.6
343.191	10.84
343.562	10.37
343.933	10.72
344.303	10.68
344.674	10.99
345.045	10.85
345.416	10.91
345.786	10.87
346.157	10.7
346.527	11.1
346.898	10.72
347.268	11.14
347.639	10.96
348.009	11.13
348.38	11.15
348.75	11.31
349.12	11.47
349.49	10.99
349.861	11.69
350.231	11.42
350.601	11.6
350.971	11.44
351.341	11.41
351.711	11.67
352.081	11.91
352.45	11.49
352.82	11.62
353.19	11.84
353.56	11.94
353.929	11.61
354.299	11.71
354.669	11.9
355.038	11.48
355.408	11.49
355.777	12.17
356.147	11.83
356.516	12.17
356.885	11.62
357.254	11.67
357.624	11.9
357.993	11.98
358.362	12.1
358.731	12.12
359.1	11.99
359.469	12.09
359.838	12.31
360.207	12.25
360.576	12.75
360.945	12.23
361.314	12.6
361.682	12.6
362.051	12.85
362.42	12.84
362.788	12.52
363.157	13
363.525	12.88
363.894	12.38
364.262	12.61
364.631	12.71
364.999	12.93
365.367	12.95
365.735	12.92
366.104	13.03
366.472	12.74
366.84	12.99
367.208	13.3
367.576	13.23
367.944	13.19
368.312	13.27
368.68	13.27
369.048	13.33
369.416	13.29
369.783	13.39
370.151	13.5
370.519	13.31
370.886	13.59
371.254	13.64
371.621	13.64
371.989	13.83
372.356	13.86
372.724	13.52
373.091	13.89
373.458	13.86
373.826	13.92
374.193	13.56
374.56	14.3
374.927	14.13
375.294	14.26
375.661	14.39
376.028	14.31
376.395	14.43
376.762	14.8
377.129	14.29
377.496	14.38
377.863	14.48
378.229	14.58
378.596	14.17
378.963	14.72
379.329	14.55
379.696	14.45
380.062	14.5
380.429	14.73
380.795	14.7
381.161	14.87
381.528	14.8
381.894	14.89
382.26	14.67
382.626	14.88
382.993	15.01
383.359	14.87
383.725	14.91
384.091	15.12
384.457	15.09
384.823	15.6
385.188	15.52
385.554	15.33
385.92	15.55
386.286	15.52
386.651	15.54
387.017	15.8
387.383	15.49
387.748	15.59
388.114	15.72
388.479	15.9
388.845	15.88
389.21	15.77
389.575	15.87
389.94	15.92
390.306	16.03
390.671	15.93
391.036	16.23
391.401	16.15
391.766	16.14
392.131	16.3
392.496	16.25
392.861	15.89
393.226	16.33
393.591	16.38
393.956	16.38
394.32	16.43
394.685	16.51
395.05	16.49
395.414	16.46
395.779	16.51
396.143	16.83
396.508	16.65
396.872	16.68
397.236	16.73
397.601	16.73
397.965	17.05
398.329	16.91
398.694	16.95
399.058	17.29
399.422	17.16
399.786	16.88
400.15	17.23
400.514	17.3
400.878	17.2
401.242	17.26
401.605	17.48
401.969	17.42
402.333	17.63
402.697	17.43
403.06	17.63
403.424	17.36
403.787	17.34
404.151	17.72
404.514	17.35
404.878	17.77
405.241	17.7
405.604	17.52
405.968	17.45
406.331	17.82
406.694	18.27
407.057	17.99
407.42	17.83
407.783	18.01
408.146	18.05
408.509	18.13
408.872	18.01
409.235	18.03
409.598	18.38
409.961	17.95
410.323	18.6
410.686	18.23
411.049	18.5
411.411	18.8
411.774	18.76
412.136	18.71
412.499	18.76
412.861	18.57
413.223	18.94
413.586	18.75
413.948	18.85
414.31	18.67
414.672	18.89
415.035	18.66
415.397	18.8
415.759	19.08
416.121	19.02
416.483	19.18
416.845	18.83
417.206	19.32
417.568	19.27
417.93	19.27
418.292	18.99
418.653	19.32
419.015	19.02
419.377	19.18
419.738	19.22
420.1	19.16
420.461	19.15
420.822	19.4
421.184	19.38
421.545	19.55
421.906	19.39
422.267	19.3
422.629	19.32
422.99	19.29
423.351	19.3
423.712	19.42
424.073	19.57
424.434	19.64
424.795	19.75
425.155	19.58
425.516	19.55
425.877	19.57
426.238	19.56
426.598	19.48
426.959	19.88
427.32	20.08
427.68	20.07
428.041	20.13
428.401	20.24
428.761	20.37
429.122	20.56
429.482	20.68
429.842	20.59
430.202	20.64
430.563	20.7
430.923	20.88
431.283	20.54
431.643	20.76
432.003	20.84
432.363	20.83
432.722	20.82
433.082	20.95
433.442	20.97
433.802	21.17
434.161	21.04
434.521	20.9
434.881	20.98
435.24	20.94
435.6	21
435.959	21.04
436.319	21.07
436.678	21.33
437.037	21.4
437.396	21.36
437.756	21.46
438.115	21.4
438.474	21.78
438.833	21.86
439.192	21.71
439.551	21.62
439.91	21.5
440.269	21.56
440.628	21.78
440.987	21.46
441.345	21.7
441.704	21.69
442.063	21.69
442.421	21.59
442.78	21.58
443.138	21.89
443.497	21.94
443.855	21.94
444.214	21.93
444.572	22.13
444.93	22.28
445.288	22.24
445.647	22.32
446.005	22.21
446.363	22.01
446.721	22.3
447.079	22.28
447.437	22.07
447.795	22.09
448.153	22.11
448.51	22.21
448.868	22.24
449.226	22.33
449.584	22.45
449.941	22.56
450.299	22.72
450.656	22.57
451.014	22.88
451.371	22.76
451.729	23.13
452.086	23.05
452.443	23.29
452.801	23.22
453.158	23.18
453.515	23.22
453.872	23.35
454.229	23.21
454.586	23.22
454.943	23.15
455.3	23.32
455.657	23.52
456.014	23.53
456.371	23.58
456.727	23.58
457.084	23.68
457.441	23.5
457.797	23.75
458.154	23.79
458.51	23.74
458.867	23.96
459.223	23.81
459.58	23.82
459.936	23.81
460.292	23.8
460.648	23.9
461.005	23.65
461.361	23.71
461.717	23.75
462.073	23.76
462.429	23.79
462.785	23.92
463.141	24.05
463.496	24.26
463.852	24.52
464.208	24.69
464.564	24.57
464.919	24.53
465.275	24.62
465.631	24.75
465.986	24.8
466.342	24.61
466.697	24.95
467.052	25.03
467.408	24.98
467.763	24.89
468.118	24.96
468.473	24.96
468.829	25.07
469.184	24.86
469.539	25.29
469.894	25.32
470.249	25.23
470.603	25.1
470.958	25.29
471.313	25.53
471.668	25.36
472.023	25.26
472.377	25.25
472.732	25.42
473.086	25.5
473.441	25.56
473.795	25.69
474.15	25.65
474.504	25.61
474.859	25.86
475.213	25.83
475.567	25.77
475.921	25.97
476.275	25.79
476.63	25.66
476.984	26.1
477.338	26.17
477.692	26.03
478.045	26.02
478.399	26
478.753	26.03
479.107	26.14
479.461	26.04
479.814	26.1
480.168	26.19
480.521	26.12
480.875	26.27
481.228	26.3
481.582	26.39
481.935	26.39
482.289	26.46
482.642	26.38
482.995	26.52
483.348	26.3
483.701	26.39
484.055	26.28
484.408	26.23
484.761	26.13
485.114	25.64
485.466	25.52
485.819	25.53
486.172	25.5
486.525	25.73
486.878	25.87
487.23	26.04
487.583	26.27
487.936	26.34
488.288	26.3
488.641	26.13
488.993	26.19
489.345	26.15
489.698	26.14
490.05	26.18
490.402	26.34
490.754	26.46
491.107	26.71
491.459	26.76
491.811	27.03
492.163	27.04
492.515	27.12
492.866	26.87
493.218	26.67
493.57	26.68
493.922	26.69
494.274	26.76
494.625	27.09
494.977	27.28
495.328	27.5
495.68	27.73
496.031	28.03
496.383	28.02
496.734	28.06
497.086	28.01
497.437	28.12
497.788	28.08
498.139	28.14
498.49	28.15
498.842	27.86
499.193	28.13
499.544	28.05
499.894	28.26
500.245	28.23
500.596	28.35
500.947	28.33
501.298	28.45
501.648	28.53
501.999	28.47
502.35	28.32
502.7	28.76
503.051	28.74
503.401	28.82
503.752	29
504.102	28.79
504.452	29.01
504.803	29.02
505.153	28.97
505.503	29.18
505.853	29.12
506.203	29.23
506.553	28.94
506.903	29.03
507.253	29.19
507.603	29.18
507.953	29.36
508.303	29.27
508.652	29.3
509.002	29.36
509.352	29.25
509.701	29.4
510.051	29.26
510.4	29.43
510.75	29.31
511.099	29.39
511.449	29.34
511.798	29.37
512.147	29.61
512.496	29.79
512.846	29.75
513.195	29.69
513.544	29.74
513.893	29.67
514.242	29.79
514.591	29.75
514.939	29.97
515.288	30.05
515.637	29.96
515.986	30.1
516.334	30.26
516.683	30.24
517.032	30.23
517.38	30.38
517.729	30.4
518.077	30.22
518.426	30.48
518.774	30.59
519.122	30.3
519.47	30.19
519.819	30.15
520.167	30.05
520.515	30.01
520.863	30.14
521.211	30.2
521.559	30.17
521.907	30.4
522.255	30.3
522.602	30.75
522.95	30.69
523.298	30.8
523.645	30.93
523.993	30.88
524.341	30.99
524.688	31
525.036	30.92
525.383	31.01
525.73	31.05
526.078	30.9
526.425	30.88
526.772	31.04
527.119	30.77
527.466	30.66
527.814	30.45
528.161	30.8
528.508	30.85
528.854	30.84
529.201	30.83
529.548	30.72
529.895	30.43
530.242	30.23
530.588	30.4
530.935	30.39
531.282	30.48
531.628	30.59
531.975	30.72
532.321	31
532.667	31.08
533.014	31.2
533.36	31.37
533.706	31.46
534.052	31.37
534.399	31.18
534.745	31.14
535.091	31.07
535.437	31.21
535.783	31.21
536.129	31.38
536.474	31.54
536.82	31.64
537.166	31.9
537.512	32
537.857	31.98
538.203	31.68
538.549	31.8
538.894	31.83
539.239	31.95
539.585	31.84
539.93	32.21
540.276	32.21
540.621	32.41
540.966	32.49
541.311	32.66
541.656	32.6
542.001	32.6
542.346	32.34
542.691	31.96
543.036	31.67
543.381	31.8
543.726	31.85
544.071	31.91
544.415	31.98
544.76	32.24
545.105	32.39
545.449	32.56
545.794	32.67
546.138	32.6
546.483	32.78
546.827	32.89
547.171	33.1
547.516	33.05
547.86	33.01
548.204	32.96
548.548	32.9
548.892	33.08
549.236	33.14
549.58	33.4
549.924	33.36
550.268	33.52
550.612	33.63
550.956	33.62
551.3	33.75
551.643	34.02
551.987	33.99
552.33	33.9
552.674	33.8
553.017	33.81
553.361	34.05
553.704	34.1
554.048	33.95
554.391	33.69
554.734	33.86
555.077	34.09
555.42	34.08
555.764	34.19
556.107	34.24
556.45	34.27
556.793	34.12
557.135	34.28
557.478	34.29
557.821	34.6
558.164	34.39
558.507	34.5
558.849	34.47
559.192	34.74
559.534	34.74
559.877	34.69
560.219	34.71
560.562	34.85
560.904	34.9
561.246	34.93
561.589	34.94
561.931	35.05
562.273	34.73
562.615	34.91
562.957	35.01
563.299	34.97
563.641	35.07
563.983	34.86
564.325	34.99
564.667	35.15
565.008	34.98
565.35	35.04
565.692	35.33
566.033	35.27
566.375	35.47
566.716	35.27
567.058	35.47
567.399	35.41
567.741	35.27
568.082	35.18
568.423	35.22
568.764	35.27
569.105	35.22
569.447	35.37
569.788	35.49
570.129	35.47
570.47	35.45
570.811	35.69
571.151	35.91
571.492	35.77
571.833	35.68
572.174	35.71
572.514	35.69
572.855	35.61
573.195	35.78
573.536	35.48
573.876	35.5
574.217	36.04
574.557	35.66
574.898	35.81
575.238	35.95
575.578	35.89
575.918	35.95
576.258	35.99
576.598	36.14
576.938	36.12
577.278	35.97
577.618	36.04
577.958	36.21
578.298	36.1
578.638	36.2
578.977	36.26
579.317	36.39
579.657	36.54
579.996	36.63
580.336	36.53
580.675	36.59
581.014	36.78
581.354	36.79
581.693	36.66
582.032	36.69
582.372	37.35
582.711	36.99
583.05	36.94
583.389	36.91
583.728	36.74
584.067	37.21
584.406	37.04
584.745	37.28
585.083	37.1
585.422	37.31
585.761	37.45
586.1	37.2
586.438	37.52
586.777	37.25
587.115	37.28
587.454	37.62
587.792	37.18
588.13	37.29
588.469	37.4
588.807	37.39
589.145	37.5
589.483	37.95
589.821	37.58
590.159	37.39
590.497	37.27
590.835	37.51
591.173	37.41
591.511	37.96
591.849	37.46
592.187	37.8
592.524	37.57
592.862	37.83
593.2	37.81
593.537	37.53
593.875	38.36
594.212	37.72
594.55	38.04
594.887	38.01
595.224	38.11
595.561	38.11
595.899	37.73
596.236	37.98
596.573	38.14
596.91	37.96
597.247	37.99
597.584	38.18
597.921	38.32
598.258	38.16
598.594	37.95
598.931	37.96
599.268	37.93
599.604	37.77
599.941	37.92
600.277	38.23
600.614	38.08
600.95	38.5
601.287	38.51
601.623	38.56
601.959	38.9
602.296	38.84
602.632	38.59
602.968	38.86
603.304	38.43
603.64	38.6
603.976	38.57
604.312	38.51
604.648	38.34
604.984	38.67
605.319	38.51
605.655	38.45
605.991	38.38
606.326	38.51
606.662	38.47
606.998	38.39
607.333	38.54
607.668	38.5
608.004	38.76
608.339	39.32
608.674	38.85
609.01	39.28
609.345	39.17
609.68	39.19
610.015	38.9
610.35	39.05
610.685	39.49
611.02	39.04
611.355	39.15
611.689	38.68
612.024	38.87
612.359	38.94
612.694	39.01
613.028	39.24
613.363	39.53
613.697	39.52
614.032	39.54
614.366	39.5
614.7	39.53
615.035	39.83
615.369	39.79
615.703	39.47
616.037	39.31
616.371	39.59
616.705	39.92
617.039	39.82
617.373	40.08
617.707	39.73
618.041	39.83
618.375	39.23
618.709	40.01
619.042	39.86
619.376	39.99
619.71	39.9
620.043	39.84
620.377	40.18
620.71	39.97
621.043	40.15
621.377	40.11
621.71	40.02
622.043	40.37
622.376	40.43
622.709	40.14
623.043	40.41
623.376	40.03
623.709	40.04
624.041	40.31
624.374	39.88
624.707	40.49
625.04	40.13
625.373	40.64
625.705	40.54
626.038	40.64
626.37	40.84
626.703	40.39
627.035	40.38
627.368	40.42
627.7	40.4
628.032	40.35
628.365	40.14
628.697	40.59
629.029	40.63
629.361	40.59
629.693	40.65
630.025	40.3
630.357	41.19
630.689	40.52
631.021	40.79
631.353	40.8
631.684	41.18
632.016	40.98
632.348	40.89
632.679	40.92
633.011	41.81
633.342	40.98
633.674	41.19
634.005	40.57
634.336	41.23
634.668	40.75
634.999	41.17
635.33	41.33
635.661	41.39
635.992	41.1
636.323	41.29
636.654	41.06
636.985	41.05
637.316	41.69
637.647	41.35
637.977	41.4
638.308	41.29
638.639	41.33
638.969	41.76
639.3	41.49
639.63	41.74
639.961	41.37
640.291	41.2
640.622	41.31
640.952	42.13
641.282	41.61
641.612	41.51
641.943	41.47
642.273	41.19
642.603	42.06
642.933	42.19
643.263	41.76
643.592	41.67
643.922	41.77
644.252	41.97
644.582	41.71
644.911	42.02
645.241	41.92
645.571	42.23
645.9	41.44
646.23	41.79
646.559	42.49
646.888	41.78
647.218	41.73
647.547	42.1
647.876	41.83
648.205	42.3
648.534	41.89
648.863	42.2
649.192	42.05
649.521	42.16
649.85	42.37
650.179	42.36
650.508	42.4
650.837	42.64
651.165	41.81
651.494	42.27
651.822	42.95
652.151	41.86
652.479	42.67
652.808	42.18
653.136	42.86
653.465	42.81
653.793	42.4
654.121	42.55
654.449	42.03
654.777	43.2
655.105	42.9
655.433	42.8
655.761	42.18
656.089	42.53
656.417	42.7
656.745	43.04
657.073	42.51
657.4	43.33
657.728	42.36
658.056	43.3
658.383	42.52
658.711	42.87
659.038	42.45
659.365	42.69
659.693	42.56
660.02	43.23
660.347	43.26
660.674	42.97
661.001	43.11
661.329	42.75
661.656	43.59
661.982	42.71
662.309	43.45
662.636	43.38
662.963	43.24
663.29	43.04
663.616	43.13
663.943	43.28
664.27	43.71
664.596	43.01
664.923	43.65
665.249	43.03
665.576	43.33
665.902	43.25
666.228	43.38
666.554	43.33
666.881	43.1
667.207	43.3
667.533	44.15
667.859	43
668.185	44.02
668.511	44.15
668.837	43.51
669.162	44.1
669.488	43.22
669.814	43.14
670.139	43.35
670.465	43.1
670.791	43.16
671.116	44.1
