Data from 446_chest_Reflection__1__16.txt Node

Date: Tue Dec 12 18:19:46 CST 2023
User: ToomeyLab
Spectrometer: FLMS14357
Trigger mode: 0
Integration Time (sec): 1.000000E-2
Scans to average: 100
Electric dark correction enabled: true
Nonlinearity correction enabled: false
Boxcar width: 0
XAxis mode: Wavelengths
Number of Pixels in Spectrum: 2048
>>>>>Begin Spectral Data<<<<<
189.047	-0.06
189.435	-0.06
189.823	-0.06
190.211	-1734.81
190.599	1084.67
190.987	54.03
191.375	-11.42
191.763	642.11
192.151	-631.83
192.538	-33.43
192.926	209.68
193.314	-225.82
193.702	1325.45
194.089	-24.85
194.477	-170.19
194.864	16
195.252	92.39
195.639	-70.34
196.027	54.53
196.414	398.66
196.801	-36.32
197.189	-1565.03
197.576	181.66
197.963	178.83
198.351	58.76
198.738	18.28
199.125	31.14
199.512	0.17
199.899	18.69
200.286	30.64
200.673	16.77
201.06	18.7
201.447	-68.31
201.833	38.25
202.22	38.47
202.607	-23.52
202.994	31.07
203.38	32.66
203.767	12.6
204.154	25.6
204.54	69.27
204.927	25.96
205.313	17.18
205.699	27.99
206.086	3.35
206.472	47.88
206.858	-4.64
207.245	31.02
207.631	5.25
208.017	-18.91
208.403	-3.65
208.789	75.38
209.175	41.21
209.561	43.26
209.947	-4.68
210.333	48.47
210.719	25.77
211.105	30.34
211.491	33.56
211.876	29.49
212.262	45.76
212.648	-1.16
213.034	-14.87
213.419	-0.24
213.805	12.46
214.19	26.95
214.576	25.57
214.961	21.97
215.346	19.67
215.732	41.44
216.117	-3.2
216.502	23.78
216.888	-13.95
217.273	23.6
217.658	8.8
218.043	27.33
218.428	8.46
218.813	12.14
219.198	3.14
219.583	17.78
219.968	22.69
220.353	29.43
220.738	11.03
221.122	25.15
221.507	-3.26
221.892	14.99
222.276	9
222.661	18.58
223.046	8.19
223.43	13.89
223.815	3.08
224.199	16.03
224.583	9.62
224.968	11.09
225.352	7.19
225.736	13.74
226.121	3.49
226.505	4.1
226.889	9.09
227.273	7.91
227.657	13.47
228.041	7.74
228.425	5.16
228.809	3.22
229.193	4.37
229.577	4.7
229.961	3.89
230.344	5.59
230.728	4.53
231.112	4.96
231.495	4.86
231.879	4.83
232.263	5.31
232.646	3.69
233.03	4.51
233.413	3.85
233.797	5.16
234.18	4.73
234.563	3.11
234.946	5.57
235.33	5.8
235.713	6.34
236.096	4.2
236.479	5.15
236.862	5.97
237.245	6.18
237.628	3.33
238.011	6.33
238.394	5.43
238.777	7.87
239.16	5.4
239.543	6.6
239.925	5.65
240.308	3.89
240.691	3.34
241.073	3.47
241.456	5.04
241.838	4.86
242.221	4.74
242.603	4.75
242.986	3.78
243.368	5.42
243.75	4.26
244.133	4.47
244.515	4.66
244.897	4.7
245.279	5.62
245.661	4.12
246.043	3.76
246.425	5.69
246.807	4.79
247.189	4.75
247.571	5.11
247.953	3.89
248.335	4.07
248.717	4.42
249.098	4.04
249.48	4.27
249.862	4.25
250.243	4.37
250.625	4.38
251.006	4.39
251.388	4.33
251.769	4.36
252.151	3.9
252.532	4.13
252.913	5.07
253.295	6.04
253.676	3.59
254.057	3.74
254.438	4.13
254.819	4.44
255.2	4.25
255.581	3.77
255.962	3.12
256.343	4.7
256.724	4.49
257.105	4.55
257.486	4.44
257.867	3.73
258.247	3.91
258.628	4.27
259.009	4.47
259.389	3.89
259.77	3.61
260.15	3.98
260.531	4.31
260.911	4.57
261.292	3.68
261.672	3.82
262.052	3.71
262.432	3.85
262.813	3.93
263.193	4.28
263.573	3.96
263.953	5.36
264.333	5.07
264.713	3.9
265.093	3.8
265.473	4.93
265.853	3.5
266.233	4.34
266.612	4.18
266.992	4
267.372	4.14
267.752	4.82
268.131	3.31
268.511	3.53
268.89	3.32
269.27	3.25
269.649	3.88
270.029	4.23
270.408	4.55
270.787	3.96
271.167	3.64
271.546	3.66
271.925	4.63
272.304	4.88
272.683	3.65
273.062	3.58
273.441	3.93
273.82	3.39
274.199	3.67
274.578	3.55
274.957	3.54
275.336	4.09
275.715	4
276.093	3.3
276.472	3.65
276.851	4.27
277.229	3.65
277.608	3.81
277.986	3.58
278.365	3.83
278.743	3.63
279.122	4.16
279.5	3.35
279.878	3.54
280.257	3.5
280.635	4.4
281.013	3.98
281.391	3.89
281.769	3.65
282.147	3.81
282.525	3.43
282.903	3.61
283.281	3.94
283.659	4.03
284.037	3.7
284.415	3.7
284.792	3.78
285.17	3.45
285.548	4.03
285.925	3.22
286.303	3.46
286.68	3.99
287.058	3.54
287.435	3.63
287.813	3.36
288.19	3.55
288.567	3.64
288.945	3.72
289.322	3.57
289.699	3.7
290.076	3.36
290.453	4.02
290.83	3.6
291.207	3.67
291.584	3.71
291.961	3.63
292.338	3.36
292.715	3.72
293.092	3.38
293.469	3.96
293.845	3.4
294.222	3.84
294.599	3.76
294.975	3.45
295.352	4.04
295.728	3.97
296.105	4.02
296.481	3.89
296.858	3.59
297.234	3.87
297.61	3.65
297.986	3.54
298.363	3.82
298.739	3.42
299.115	3.38
299.491	3.67
299.867	3.41
300.243	3.2
300.619	4.16
300.995	3.37
301.371	3.78
301.746	3.56
302.122	3.99
302.498	3.49
302.874	3.26
303.249	4.2
303.625	3.24
304	3.52
304.376	3.44
304.751	3.75
305.127	3.35
305.502	3.52
305.878	3.47
306.253	3.15
306.628	3.68
307.003	3.83
307.378	3.98
307.754	3.67
308.129	3.68
308.504	4.45
308.879	3.26
309.254	3.61
309.629	3.82
310.003	3.54
310.378	3.74
310.753	3.93
311.128	3.95
311.502	3.19
311.877	3.26
312.252	3.15
312.626	3.27
313.001	3.36
313.375	3.46
313.75	3.67
314.124	3.83
314.498	3.53
314.873	3.21
315.247	4.44
315.621	3.36
315.995	3.93
316.369	3.68
316.743	3.34
317.117	3.41
317.491	3.41
317.865	3.63
318.239	3.68
318.613	3.93
318.987	3.46
319.361	3.07
319.734	3.58
320.108	3.88
320.482	3.65
320.855	3.75
321.229	3.71
321.602	3.16
321.976	3.92
322.349	3.93
322.723	3.6
323.096	3.67
323.469	3.45
323.843	4.27
324.216	3.56
324.589	3.82
324.962	4.12
325.335	4.22
325.708	4.12
326.081	4.08
326.454	3.77
326.827	3.75
327.2	3.74
327.573	3.13
327.945	3.62
328.318	3.97
328.691	3.51
329.063	3.78
329.436	3.64
329.809	3.36
330.181	3.42
330.553	3.71
330.926	4.22
331.298	4
331.671	3.62
332.043	3.41
332.415	3.69
332.787	4.01
333.159	4.16
333.532	3.56
333.904	3.59
334.276	3.89
334.648	3.37
335.02	3.04
335.391	4.04
335.763	3.84
336.135	3.85
336.507	3.63
336.879	3.78
337.25	3.61
337.622	3.49
337.993	3.84
338.365	2.96
338.736	4
339.108	3.53
339.479	3.98
339.851	3.55
340.222	3.28
340.593	3.43
340.964	3.48
341.336	3.84
341.707	3.55
342.078	3.15
342.449	3.49
342.82	3.77
343.191	3.63
343.562	3.67
343.933	4.07
344.303	3.83
344.674	3.77
345.045	3.55
345.416	3.63
345.786	3.58
346.157	3.12
346.527	4
346.898	3.64
347.268	3.57
347.639	3.84
348.009	3.18
348.38	3.04
348.75	3.96
349.12	4.07
349.49	3.37
349.861	3.86
350.231	3.58
350.601	3.86
350.971	3.46
351.341	3.93
351.711	3.9
352.081	3.89
352.45	3.82
352.82	3.64
353.19	3.73
353.56	3.58
353.929	3.33
354.299	3.49
354.669	3.4
355.038	3.41
355.408	3.52
355.777	4.03
356.147	3.24
356.516	3.73
356.885	3.73
357.254	3.54
357.624	3.16
357.993	3.27
358.362	3.52
358.731	3.61
359.1	3.11
359.469	3.69
359.838	3.66
360.207	3.42
360.576	3.83
360.945	3.2
361.314	3.9
361.682	3.59
362.051	3.79
362.42	3.87
362.788	3.65
363.157	4.07
363.525	3.8
363.894	3.42
364.262	3.54
364.631	3.41
364.999	3.52
365.367	3.49
365.735	3.59
366.104	3.61
366.472	3.32
366.84	3.74
367.208	3.69
367.576	3.76
367.944	3.76
368.312	3.69
368.68	3.49
369.048	3.62
369.416	3.91
369.783	3.76
370.151	3.64
370.519	3.37
370.886	3.94
371.254	3.4
371.621	4.04
371.989	3.62
372.356	3.95
372.724	3.85
373.091	3.51
373.458	3.55
373.826	3.73
374.193	3.61
374.56	3.91
374.927	3.78
375.294	3.72
375.661	4.02
376.028	3.95
376.395	4.19
376.762	3.92
377.129	3.75
377.496	3.7
377.863	3.65
378.229	3.61
378.596	3.23
378.963	4.02
379.329	3.68
379.696	3.58
380.062	3.93
380.429	4.16
380.795	3.82
381.161	3.7
381.528	3.83
381.894	3.86
382.26	3.47
382.626	3.68
382.993	3.9
383.359	3.6
383.725	3.6
384.091	3.7
384.457	3.73
384.823	3.63
385.188	3.54
385.554	3.76
385.92	3.81
386.286	3.89
386.651	3.93
387.017	4.17
387.383	3.78
387.748	3.92
388.114	3.84
388.479	3.98
388.845	3.63
389.21	3.73
389.575	3.84
389.94	4.11
390.306	3.94
390.671	3.83
391.036	3.99
391.401	3.62
391.766	3.95
392.131	3.66
392.496	3.56
392.861	3.69
393.226	3.84
393.591	3.66
393.956	3.61
394.32	3.78
394.685	3.96
395.05	3.62
395.414	3.65
395.779	3.56
396.143	3.83
396.508	3.63
396.872	3.77
397.236	3.74
397.601	3.67
397.965	3.7
398.329	3.95
398.694	3.63
399.058	4.14
399.422	3.79
399.786	3.72
400.15	3.78
400.514	3.99
400.878	3.96
401.242	3.89
401.605	4.07
401.969	3.78
402.333	3.95
402.697	3.86
403.06	3.66
403.424	4.01
403.787	3.84
404.151	3.93
404.514	3.72
404.878	3.81
405.241	3.75
405.604	3.69
405.968	3.93
406.331	4.1
406.694	4.01
407.057	3.75
407.42	3.81
407.783	3.67
408.146	3.8
408.509	3.67
408.872	3.88
409.235	3.78
409.598	3.71
409.961	4.02
410.323	3.85
410.686	3.84
411.049	4.01
411.411	3.79
411.774	3.95
412.136	3.9
412.499	3.91
412.861	3.81
413.223	4.17
413.586	3.5
413.948	3.84
414.31	3.9
414.672	4
415.035	3.92
415.397	3.88
415.759	4.01
416.121	3.94
416.483	3.88
416.845	3.71
417.206	4.04
417.568	3.84
417.93	3.66
418.292	3.88
418.653	3.98
419.015	3.97
419.377	3.76
419.738	3.72
420.1	3.77
420.461	3.74
420.822	3.78
421.184	3.68
421.545	4
421.906	3.76
422.267	3.75
422.629	3.78
422.99	3.75
423.351	3.72
423.712	3.78
424.073	3.76
424.434	3.83
424.795	3.87
425.155	3.71
425.516	3.65
425.877	3.82
426.238	3.75
426.598	3.73
426.959	3.72
427.32	3.85
427.68	3.74
428.041	3.86
428.401	3.89
428.761	3.79
429.122	3.76
429.482	4.18
429.842	3.91
430.202	3.87
430.563	4.03
430.923	3.8
431.283	3.85
431.643	3.89
432.003	3.89
432.363	3.97
432.722	3.91
433.082	3.94
433.442	4.04
433.802	3.94
434.161	3.88
434.521	4.02
434.881	3.83
435.24	3.98
435.6	3.99
435.959	3.99
436.319	4.02
436.678	4.09
437.037	3.98
437.396	3.73
437.756	3.94
438.115	3.97
438.474	3.84
438.833	3.99
439.192	4.11
439.551	3.81
439.91	3.87
440.269	3.84
440.628	3.95
440.987	3.75
441.345	3.9
441.704	3.86
442.063	3.93
442.421	3.86
442.78	3.88
443.138	3.89
443.497	3.95
443.855	3.85
444.214	3.98
444.572	4.04
444.93	3.92
445.288	3.87
445.647	4.06
446.005	3.81
446.363	3.71
446.721	3.74
447.079	3.88
447.437	3.72
447.795	3.85
448.153	3.84
448.51	3.87
448.868	3.82
449.226	3.91
449.584	3.88
449.941	3.81
450.299	3.94
450.656	3.82
451.014	3.89
451.371	3.91
451.729	4.1
452.086	3.96
452.443	4.01
452.801	4.03
453.158	3.92
453.515	3.99
453.872	4.02
454.229	4.1
454.586	3.72
454.943	3.92
455.3	3.94
455.657	3.98
456.014	4
456.371	4.02
456.727	3.95
457.084	4
457.441	4
457.797	4.12
458.154	3.88
458.51	3.93
458.867	4.04
459.223	4.14
459.58	3.92
459.936	3.83
460.292	3.91
460.648	3.99
461.005	4.02
461.361	3.9
461.717	4.04
462.073	3.87
462.429	3.86
462.785	3.9
463.141	3.97
463.496	3.94
463.852	4.18
464.208	4.07
464.564	4.09
464.919	4.06
465.275	3.93
465.631	4.12
465.986	4.11
466.342	3.82
466.697	4.12
467.052	4.3
467.408	4.16
467.763	4.14
468.118	4.13
468.473	4.22
468.829	4.24
469.184	3.83
469.539	4.01
469.894	4.13
470.249	4.17
470.603	4.01
470.958	4.11
471.313	4.28
471.668	4.17
472.023	3.94
472.377	3.9
472.732	4.08
473.086	4.17
473.441	4.12
473.795	4.01
474.15	4.16
474.504	3.99
474.859	4.17
475.213	4.08
475.567	4.06
475.921	3.94
476.275	3.99
476.63	3.99
476.984	4.21
477.338	3.97
477.692	4.02
478.045	4.22
478.399	3.89
478.753	4.05
479.107	4
479.461	3.98
479.814	4.09
480.168	3.98
480.521	3.98
480.875	4.12
481.228	4.09
481.582	4.02
481.935	4.12
482.289	4.2
482.642	4.25
482.995	4.02
483.348	4.01
483.701	4.16
484.055	4.08
484.408	3.97
484.761	3.89
485.114	3.93
485.466	3.78
485.819	3.79
486.172	3.76
486.525	3.86
486.878	3.82
487.23	3.87
487.583	3.88
487.936	3.98
488.288	3.87
488.641	3.89
488.993	3.89
489.345	3.89
489.698	3.87
490.05	3.87
490.402	3.91
490.754	3.95
491.107	3.93
491.459	4.01
491.811	4.04
492.163	3.99
492.515	4.16
492.866	4.01
493.218	3.88
493.57	3.92
493.922	3.91
494.274	3.96
494.625	4.06
494.977	4.07
495.328	4.11
495.68	4.01
496.031	4.22
496.383	4.13
496.734	4.2
497.086	4.14
497.437	4.15
497.788	4.15
498.139	3.95
498.49	4.17
498.842	4.09
499.193	4.08
499.544	4.13
499.894	4.07
500.245	4.18
500.596	4.2
500.947	4.15
501.298	4.14
501.648	4.33
501.999	4.2
502.35	4.13
502.7	4.21
503.051	4.15
503.401	4.14
503.752	4.35
504.102	4.22
504.452	4.24
504.803	4.15
505.153	4.34
505.503	4.31
505.853	4.24
506.203	4.26
506.553	4.15
506.903	4.37
507.253	4.21
507.603	4.17
507.953	4.25
508.303	4.35
508.652	4.2
509.002	4.38
509.352	4.18
509.701	4.29
510.051	4.34
510.4	4.25
510.75	4.21
511.099	4.25
511.449	4.23
511.798	4.19
512.147	4.22
512.496	4.26
512.846	4.21
513.195	4.17
513.544	4.28
513.893	4.26
514.242	4.2
514.591	4.24
514.939	4.23
515.288	4.23
515.637	4.22
515.986	4.3
516.334	4.39
516.683	4.17
517.032	4.29
517.38	4.37
517.729	4.4
518.077	4.32
518.426	4.46
518.774	4.33
519.122	4.36
519.47	4.37
519.819	4.25
520.167	4.26
520.515	4.22
520.863	4.24
521.211	4.27
521.559	4.33
521.907	4.3
522.255	4.29
522.602	4.35
522.95	4.35
523.298	4.38
523.645	4.44
523.993	4.42
524.341	4.51
524.688	4.28
525.036	4.49
525.383	4.33
525.73	4.28
526.078	4.4
526.425	4.35
526.772	4.43
527.119	4.41
527.466	4.35
527.814	4.2
528.161	4.42
528.508	4.38
528.854	4.3
529.201	4.39
529.548	4.35
529.895	4.26
530.242	4.16
530.588	4.21
530.935	4.21
531.282	4.24
531.628	4.29
531.975	4.31
532.321	4.33
532.667	4.28
533.014	4.3
533.36	4.37
533.706	4.4
534.052	4.3
534.399	4.43
534.745	4.42
535.091	4.34
535.437	4.36
535.783	4.39
536.129	4.43
536.474	4.43
536.82	4.43
537.166	4.55
537.512	4.54
537.857	4.47
538.203	4.51
538.549	4.52
538.894	4.58
539.239	4.46
539.585	4.5
539.93	4.66
540.276	4.61
540.621	4.54
540.966	4.67
541.311	4.75
541.656	4.67
542.001	4.58
542.346	4.71
542.691	4.61
543.036	4.48
543.381	4.41
543.726	4.53
544.071	4.51
544.415	4.53
544.76	4.6
545.105	4.58
545.449	4.75
545.794	4.82
546.138	4.63
546.483	4.65
546.827	4.72
547.171	4.73
547.516	4.76
547.86	4.8
548.204	4.74
548.548	4.77
548.892	4.67
549.236	4.87
549.58	4.93
549.924	4.85
550.268	4.98
550.612	4.91
550.956	4.94
551.3	5.05
551.643	4.92
551.987	5.07
552.33	4.93
552.674	5.09
553.017	5.04
553.361	5.17
553.704	5.03
554.048	5.11
554.391	4.9
554.734	5.06
555.077	5.09
555.42	4.9
555.764	5.06
556.107	5.05
556.45	4.78
556.793	4.92
557.135	5.06
557.478	5.13
557.821	5.03
558.164	5.26
558.507	5
558.849	5.27
559.192	5.12
559.534	5.09
559.877	5.18
560.219	5.23
560.562	5.18
560.904	5.39
561.246	5.21
561.589	5.18
561.931	5.3
562.273	5.22
562.615	5.18
562.957	5.36
563.299	5.27
563.641	5.23
563.983	5.2
564.325	5.26
564.667	5.31
565.008	5.24
565.35	5.23
565.692	5.42
566.033	5.45
566.375	5.28
566.716	5.3
567.058	5.65
567.399	5.48
567.741	5.36
568.082	5.38
568.423	5.38
568.764	5.49
569.105	5.5
569.447	5.52
569.788	5.59
570.129	5.4
570.47	5.56
570.811	5.53
571.151	5.58
571.492	5.8
571.833	5.66
572.174	5.51
572.514	5.68
572.855	5.58
573.195	5.68
573.536	5.49
573.876	5.6
574.217	5.64
574.557	5.59
574.898	5.74
575.238	5.83
575.578	5.65
575.918	5.73
576.258	5.87
576.598	5.67
576.938	5.71
577.278	5.78
577.618	5.88
577.958	5.68
578.298	5.87
578.638	5.9
578.977	5.82
579.317	5.89
579.657	6.02
579.996	5.86
580.336	5.91
580.675	5.96
581.014	6.02
581.354	5.96
581.693	6.05
582.032	5.91
582.372	6.02
582.711	6.1
583.05	6.26
583.389	6.17
583.728	5.85
584.067	6.24
584.406	6.33
584.745	6.3
585.083	6.05
585.422	6.52
585.761	6.58
586.1	6.31
586.438	6.51
586.777	6.51
587.115	6.25
587.454	6.4
587.792	6.15
588.13	6.63
588.469	6.57
588.807	6.19
589.145	6.29
589.483	6.5
589.821	6.46
590.159	6.31
590.497	6.33
590.835	6.55
591.173	6.22
591.511	6.63
591.849	6.37
592.187	6.49
592.524	6.42
592.862	6.42
593.2	6.3
593.537	6.47
593.875	6.83
594.212	6.53
594.55	6.83
594.887	6.71
595.224	6.86
595.561	6.93
595.899	6.53
596.236	6.75
596.573	6.7
596.91	6.98
597.247	6.65
597.584	6.84
597.921	6.83
598.258	6.83
598.594	6.97
598.931	6.72
599.268	6.76
599.604	6.72
599.941	6.7
600.277	6.8
600.614	6.89
600.95	7.13
601.287	7.14
601.623	6.89
601.959	6.86
602.296	7.24
602.632	7.23
602.968	7.34
603.304	7.13
603.64	7.23
603.976	7.03
604.312	7.22
604.648	7.36
604.984	7.02
605.319	7.31
605.655	7.01
605.991	7.05
606.326	6.95
606.662	7.08
606.998	7.25
607.333	7.12
607.668	7.12
608.004	7.22
608.339	7.61
608.674	7.44
609.01	7.49
609.345	7.51
609.68	7.47
610.015	7.35
610.35	7.57
610.685	7.71
611.02	7.52
611.355	7.56
611.689	7.52
612.024	7.43
612.359	7.58
612.694	7.57
613.028	7.67
613.363	7.69
613.697	7.77
614.032	7.72
614.366	7.85
614.7	7.88
615.035	7.89
615.369	7.86
615.703	7.98
616.037	7.65
616.371	7.89
616.705	8.05
617.039	8.04
617.373	7.81
617.707	7.88
618.041	8.11
618.375	7.88
618.709	7.94
619.042	7.96
619.376	7.92
619.71	8.03
620.043	8.22
620.377	8.22
620.71	8.05
621.043	8.17
621.377	7.97
621.71	8.07
622.043	8.54
622.376	8.31
622.709	8.22
623.043	8.23
623.376	8.78
623.709	8.46
624.041	8.52
624.374	8.43
624.707	8.79
625.04	8.25
625.373	8.63
625.705	8.58
626.038	8.45
626.37	8.44
626.703	8.51
627.035	8.41
627.368	8.72
627.7	8.63
628.032	8.28
628.365	8.57
628.697	8.56
629.029	8.67
629.361	8.44
629.693	8.73
630.025	8.24
630.357	8.81
630.689	8.39
631.021	8.91
631.353	8.9
631.684	8.52
632.016	8.7
632.348	8.85
632.679	8.49
633.011	9.3
633.342	9.1
633.674	9.15
634.005	9.11
634.336	9.17
634.668	9.11
634.999	9.25
635.33	8.94
635.661	9.24
635.992	9.02
636.323	8.95
636.654	9.16
636.985	9.55
637.316	9.31
637.647	9.51
637.977	9.4
638.308	9.3
638.639	9.23
638.969	9.32
639.3	9.59
639.63	9.77
639.961	9.52
640.291	9.2
640.622	9.34
640.952	9.54
641.282	9.4
641.612	9.31
641.943	9.76
642.273	9.84
642.603	10.02
642.933	9.59
643.263	9.81
643.592	9.38
643.922	10.02
644.252	10.54
644.582	9.55
644.911	9.29
645.241	10.01
645.571	10.42
645.9	9.79
646.23	10.19
646.559	10.27
646.888	9.52
647.218	9.83
647.547	10
647.876	9.99
648.205	9.91
648.534	9.96
648.863	9.85
649.192	10.69
649.521	10.25
649.85	9.78
650.179	10.16
650.508	10.37
650.837	10.15
651.165	10.3
651.494	9.9
651.822	10.34
652.151	10.8
652.479	10.13
652.808	10.57
653.136	10.13
653.465	10.45
653.793	10.47
654.121	10.43
654.449	10.5
654.777	10.37
655.105	10.98
655.433	10.58
655.761	10.33
656.089	10.45
656.417	10.89
656.745	11
657.073	10.25
657.4	10.93
657.728	10.55
658.056	10.54
658.383	10.47
658.711	10.66
659.038	10.54
659.365	11.15
659.693	10.71
660.02	11.05
660.347	11.08
660.674	10.83
661.001	10.9
661.329	11.26
661.656	10.68
661.982	10.78
662.309	11.38
662.636	11.05
662.963	10.93
663.29	11.29
663.616	10.89
663.943	11.18
664.27	11.57
664.596	11.33
664.923	12.16
665.249	10.55
665.576	11.47
665.902	11.29
666.228	11.46
666.554	11.18
666.881	10.22
667.207	11.8
667.533	11.33
667.859	11.47
668.185	11.6
668.511	11.32
668.837	11.39
669.162	11.91
669.488	11.04
669.814	11.51
670.139	11.45
670.465	11.23
670.791	11.85
671.116	11.35
671.442	11.78
671.767	11.9
672.092	12.29
672.418	11.44
672.743	12.52
673.068	10.93
673.393	11.69
673.718	11.84
674.043	12.42
674.368	11.49
674.693	12.18
675.018	11.87
675.343	11.36
675.667	12.24
675.992	11.6
676.317	11.35
676.641	11.88
676.966	12.53
677.29	12.33
677.615	11.95
677.939	11.98
678.264	12.19
678.588	12.11
678.912	12.77
679.236	12.64
679.56	12.6
679.885	12.1
680.209	12.21
680.532	12.02
680.856	12.37
681.18	12.52
681.504	12.78
681.828	13.07
682.152	12.07
682.475	12.33
682.799	13.06
683.122	12.46
683.446	12.66
683.769	13.27
684.093	12.36
684.416	12.56
684.739	13.38
685.062	12.74
685.386	12.71
685.709	13.04
686.032	12.9
686.355	12.59
686.678	13.13
687.001	13.55
687.324	12.74
687.646	13.64
687.969	11.83
688.292	13.33
688.614	13.39
688.937	12.47
689.26	12.73
689.582	12.17
