Data from 0043_chest_Reflection__3__138.txt Node

Date: Fri Nov 04 15:58:44 CDT 2022
User: ToomeyLab
Spectrometer: FLMS14357
Trigger mode: 0
Integration Time (sec): 1.000000E-2
Scans to average: 100
Electric dark correction enabled: true
Nonlinearity correction enabled: false
Boxcar width: 0
XAxis mode: Wavelengths
Number of Pixels in Spectrum: 2048
>>>>>Begin Spectral Data<<<<<
189.047	219.47
189.435	219.47
189.823	219.47
190.211	74.88
190.599	336.26
190.987	136.9
191.375	22.52
191.763	-178.16
192.151	68.1
192.538	113.76
192.926	58.92
193.314	164.56
193.702	237.18
194.089	142.18
194.477	-55.49
194.864	-42.1
195.252	155.19
195.639	-90.29
196.027	85.17
196.414	3.33
196.801	27.07
197.189	109.01
197.576	-352.54
197.963	26.07
198.351	-11.32
198.738	37.25
199.125	45.25
199.512	-0.82
199.899	-10.9
200.286	-42.15
200.673	13.13
201.06	30.58
201.447	38.66
201.833	33.18
202.22	18.1
202.607	14.43
202.994	45.24
203.38	1.72
203.767	22.3
204.154	42.07
204.54	-58.37
204.927	3.82
205.313	40.84
205.699	25.39
206.086	63.68
206.472	13.16
206.858	5.84
207.245	10.39
207.631	24.95
208.017	14.92
208.403	11.66
208.789	21.6
209.175	70.03
209.561	-22.04
209.947	-46.65
210.333	27.87
210.719	-8.63
211.105	-57.37
211.491	4.88
211.876	-13.73
212.262	-25.63
212.648	27.8
213.034	40.91
213.419	-10.03
213.805	-20.07
214.19	-13.84
214.576	-4.62
214.961	9.43
215.346	23.13
215.732	7.49
216.117	-20.09
216.502	13.53
216.888	-13.97
217.273	7.1
217.658	19.7
218.043	-0.05
218.428	31.27
218.813	0.22
219.198	13.04
219.583	-3.97
219.968	15.77
220.353	-6.17
220.738	-2.02
221.122	-3.83
221.507	28.9
221.892	-8.19
222.276	-9.22
222.661	15.54
223.046	8.8
223.43	4.36
223.815	4.21
224.199	10.89
224.583	2.42
224.968	-2.67
225.352	4.93
225.736	-3.3
226.121	-4.26
226.505	6.78
226.889	4.29
227.273	6.59
227.657	0.18
228.041	5.65
228.425	6.96
228.809	6.21
229.193	5.14
229.577	1.97
229.961	5.78
230.344	5.46
230.728	5.12
231.112	4.22
231.495	4.9
231.879	5.55
232.263	4.21
232.646	3.69
233.03	4.24
233.413	3.37
233.797	4.73
234.18	2.08
234.563	5.73
234.946	4.31
235.33	6.54
235.713	4.4
236.096	6.07
236.479	3.96
236.862	4.6
237.245	4.66
237.628	4.95
238.011	3.18
238.394	7.25
238.777	4.95
239.16	5.02
239.543	4.13
239.925	5.58
240.308	6.38
240.691	6.18
241.073	5.34
241.456	5.23
241.838	3.55
242.221	5.03
242.603	4.47
242.986	5.09
243.368	5.31
243.75	5.03
244.133	5.54
244.515	5.11
244.897	5.18
245.279	5.09
245.661	5.53
246.043	6.03
246.425	4.56
246.807	5.8
247.189	4.92
247.571	5.67
247.953	4.85
248.335	5.01
248.717	5.26
249.098	4.86
249.48	5.3
249.862	5.64
250.243	5.35
250.625	4.86
251.006	5.33
251.388	5.44
251.769	5.65
252.151	5.12
252.532	4.61
252.913	4.85
253.295	5.81
253.676	5.04
254.057	5.02
254.438	5.34
254.819	5.39
255.2	5.16
255.581	5.69
255.962	5.56
256.343	4.53
256.724	5.51
257.105	5.61
257.486	5.68
257.867	7.2
258.247	5.25
258.628	4.94
259.009	4.49
259.389	5.16
259.77	5.7
260.15	4.94
260.531	5
260.911	5.01
261.292	4.96
261.672	4.89
262.052	5.06
262.432	5.03
262.813	5.02
263.193	4.78
263.573	5.14
263.953	4.82
264.333	5.05
264.713	5.23
265.093	5.34
265.473	4.68
265.853	4.49
266.233	4.61
266.612	5.26
266.992	5.54
267.372	4.24
267.752	5.51
268.131	4.56
268.511	5.09
268.89	5.19
269.27	4.44
269.649	4.93
270.029	4.88
270.408	4.83
270.787	5.42
271.167	4.76
271.546	5.69
271.925	5.07
272.304	4.82
272.683	4.49
273.062	5.07
273.441	4.56
273.82	4.94
274.199	4.56
274.578	4.36
274.957	4.86
275.336	4.79
275.715	4.41
276.093	4.67
276.472	4.79
276.851	4.29
277.229	4.99
277.608	4.77
277.986	5.06
278.365	5.23
278.743	5.06
279.122	4.65
279.5	4.98
279.878	4.8
280.257	4.65
280.635	4.6
281.013	4.5
281.391	5.27
281.769	4.74
282.147	4.61
282.525	5.4
282.903	5.33
283.281	5.21
283.659	4.99
284.037	4.82
284.415	4.81
284.792	4.63
285.17	4.5
285.548	5.14
285.925	4.51
286.303	5.03
286.68	5.07
287.058	4.9
287.435	4.73
287.813	4.7
288.19	4.68
288.567	4.74
288.945	4.7
289.322	4.84
289.699	4.79
290.076	5.05
290.453	4.56
290.83	4.63
291.207	4.73
291.584	4.69
291.961	4.91
292.338	5.08
292.715	5.04
293.092	5.25
293.469	5.18
293.845	4.5
294.222	5.03
294.599	4.91
294.975	5.03
295.352	5.24
295.728	5.32
296.105	4.86
296.481	5.13
296.858	5.35
297.234	5.72
297.61	5.01
297.986	5.27
298.363	4.93
298.739	5.16
299.115	5.23
299.491	5.03
299.867	5.03
300.243	5.21
300.619	5.44
300.995	5.37
301.371	5.53
301.746	5.46
302.122	5.28
302.498	5.18
302.874	5.41
303.249	5.3
303.625	5.07
304	5.42
304.376	5.27
304.751	5.44
305.127	4.95
305.502	5.66
305.878	5.4
306.253	5.77
306.628	5.37
307.003	5.35
307.378	5.56
307.754	5.54
308.129	5.17
308.504	5.46
308.879	5.43
309.254	5.54
309.629	5.69
310.003	5.66
310.378	5.46
310.753	6.11
311.128	5.3
311.502	5.08
311.877	5.8
312.252	5.37
312.626	5.84
313.001	5.75
313.375	5.63
313.75	5.35
314.124	5.69
314.498	5.67
314.873	5.67
315.247	5.86
315.621	5.77
315.995	5.87
316.369	5.31
316.743	6.02
317.117	6.35
317.491	6.16
317.865	5.64
318.239	5.24
318.613	6.26
318.987	5.88
319.361	5.83
319.734	6.25
320.108	6.11
320.482	5.45
320.855	6.18
321.229	5.98
321.602	6.05
321.976	5.57
322.349	6.07
322.723	6.46
323.096	5.65
323.469	5.63
323.843	6.17
324.216	6.02
324.589	6.05
324.962	6.58
325.335	5.79
325.708	5.57
326.081	6.39
326.454	5.68
326.827	5.98
327.2	5.74
327.573	6.02
327.945	6.37
328.318	6.13
328.691	5.93
329.063	5.94
329.436	6.42
329.809	5.96
330.181	6.05
330.553	5.85
330.926	6.04
331.298	6.58
331.671	6.31
332.043	6.14
332.415	6.17
332.787	5.86
333.159	6.41
333.532	5.73
333.904	6.41
334.276	6.09
334.648	6.61
335.02	5.46
335.391	6.02
335.763	6.45
336.135	6.39
336.507	6.39
336.879	6.22
337.25	6.3
337.622	6.17
337.993	6.4
338.365	6.22
338.736	6.42
339.108	6.46
339.479	6.49
339.851	5.59
340.222	5.93
340.593	6.6
340.964	6.36
341.336	6.23
341.707	5.96
342.078	6.42
342.449	6.19
342.82	6.1
343.191	6.23
343.562	6.34
343.933	6.53
344.303	6.91
344.674	6.26
345.045	6.13
345.416	5.67
345.786	6.72
346.157	6.22
346.527	6.21
346.898	6.56
347.268	6.38
347.639	6.26
348.009	7.07
348.38	6.23
348.75	6.34
349.12	6.23
349.49	6.59
349.861	5.96
350.231	6.4
350.601	6.53
350.971	6.05
351.341	6.62
351.711	6.17
352.081	6.68
352.45	6.55
352.82	6.51
353.19	6.47
353.56	6.58
353.929	6.72
354.299	6.52
354.669	6.76
355.038	6.57
355.408	6.1
355.777	6.55
356.147	6.35
356.516	6.41
356.885	6.63
357.254	6.52
357.624	6.69
357.993	6.42
358.362	6.33
358.731	6.51
359.1	6.64
359.469	6.53
359.838	6.67
360.207	6.3
360.576	6.86
360.945	6.52
361.314	6.73
361.682	6.09
362.051	6.38
362.42	6.58
362.788	6.88
363.157	6.48
363.525	6.63
363.894	6.61
364.262	6.74
364.631	6.71
364.999	6.55
365.367	6.74
365.735	6.72
366.104	6.82
366.472	6.66
366.84	6.23
367.208	6.99
367.576	6.35
367.944	6.74
368.312	6.59
368.68	6.58
369.048	6.58
369.416	6.91
369.783	6.42
370.151	6.73
370.519	7.17
370.886	6.63
371.254	6.7
371.621	6.6
371.989	6.73
372.356	6.81
372.724	6.81
373.091	6.73
373.458	6.66
373.826	7
374.193	6.52
374.56	6.49
374.927	6.98
375.294	6.85
375.661	6.94
376.028	6.55
376.395	7.13
376.762	6.81
377.129	6.98
377.496	7.06
377.863	6.6
378.229	6.69
378.596	6.9
378.963	6.93
379.329	6.61
379.696	6.79
380.062	7.06
380.429	6.84
380.795	7.04
381.161	6.96
381.528	7.08
381.894	6.71
382.26	7
382.626	6.84
382.993	7.25
383.359	6.8
383.725	6.87
384.091	6.74
384.457	6.87
384.823	7.02
385.188	6.96
385.554	6.97
385.92	6.7
386.286	7.05
386.651	6.84
387.017	6.97
387.383	7.17
387.748	6.75
388.114	6.97
388.479	7.39
388.845	7.12
389.21	7.14
389.575	7.34
389.94	7.1
390.306	7.06
390.671	7.14
391.036	6.79
391.401	7.08
391.766	6.89
392.131	6.93
392.496	7.08
392.861	7.17
393.226	7.02
393.591	7.1
393.956	7.36
394.32	6.99
394.685	7.09
395.05	7.23
395.414	7.05
395.779	7.11
396.143	7.21
396.508	7.13
396.872	7.15
397.236	7.21
397.601	7.09
397.965	7.11
398.329	7.19
398.694	7.31
399.058	7.24
399.422	7.14
399.786	7.01
400.15	7.3
400.514	7.19
400.878	7.21
401.242	7.39
401.605	6.99
401.969	7.37
402.333	7.26
402.697	7.28
403.06	7.56
403.424	6.98
403.787	7.12
404.151	7.26
404.514	7.48
404.878	7.3
405.241	7.16
405.604	7.33
405.968	7.33
406.331	7.22
406.694	7.11
407.057	7.22
407.42	7.32
407.783	7.17
408.146	7.38
408.509	7.28
408.872	7.19
409.235	7.16
409.598	7.45
409.961	7.53
410.323	7.25
410.686	7.16
411.049	7.4
411.411	7.07
411.774	7.46
412.136	7.55
412.499	7.42
412.861	7.43
413.223	7.41
413.586	7.35
413.948	7.45
414.31	7.24
414.672	7.48
415.035	7.54
415.397	7.34
415.759	7.36
416.121	7.21
416.483	7.44
416.845	7.35
417.206	7.37
417.568	7.45
417.93	7.43
418.292	7.33
418.653	7.65
419.015	7.54
419.377	7.32
419.738	7.42
420.1	7.45
420.461	7.44
420.822	7.32
421.184	7.34
421.545	7.35
421.906	7.46
422.267	7.22
422.629	7.45
422.99	7.27
423.351	7.25
423.712	7.31
424.073	7.5
424.434	7.36
424.795	7.5
425.155	7.38
425.516	7.34
425.877	7.29
426.238	7.26
426.598	7.42
426.959	7.32
427.32	7.45
427.68	7.35
428.041	7.42
428.401	7.52
428.761	7.55
429.122	7.49
429.482	7.57
429.842	7.31
430.202	7.63
430.563	7.55
430.923	7.53
431.283	7.39
431.643	7.68
432.003	7.85
432.363	7.6
432.722	7.61
433.082	7.69
433.442	7.67
433.802	7.71
434.161	7.71
434.521	7.58
434.881	7.51
435.24	7.66
435.6	7.74
435.959	7.58
436.319	7.75
436.678	7.65
437.037	7.6
437.396	7.74
437.756	7.8
438.115	7.39
438.474	7.84
438.833	7.76
439.192	7.77
439.551	7.7
439.91	7.66
440.269	7.66
440.628	7.73
440.987	7.63
441.345	7.7
441.704	7.71
442.063	7.68
442.421	7.69
442.78	7.72
443.138	7.76
443.497	7.65
443.855	7.63
444.214	7.85
444.572	7.79
444.93	7.72
445.288	7.78
445.647	7.75
446.005	7.8
446.363	7.72
446.721	7.77
447.079	7.72
447.437	7.81
447.795	7.76
448.153	7.71
448.51	7.84
448.868	7.6
449.226	7.66
449.584	7.82
449.941	7.78
450.299	7.74
450.656	7.79
451.014	7.87
451.371	8
451.729	7.95
452.086	7.91
452.443	7.98
452.801	8.02
453.158	8.06
453.515	7.84
453.872	7.93
454.229	7.99
454.586	7.84
454.943	7.95
455.3	8.07
455.657	8.02
456.014	8.01
456.371	7.88
456.727	8.18
457.084	8
457.441	7.99
457.797	8.13
458.154	8
458.51	8.12
458.867	7.9
459.223	8.09
459.58	8.31
459.936	8.03
460.292	7.91
460.648	8.12
461.005	8.04
461.361	8.02
461.717	7.92
462.073	8.03
462.429	8.04
462.785	7.94
463.141	8.25
463.496	7.95
463.852	8.33
464.208	8.24
464.564	8.27
464.919	8.15
465.275	8.32
465.631	8.4
465.986	8.2
466.342	8.26
466.697	8.36
467.052	8.29
467.408	8.31
467.763	8.1
468.118	8.3
468.473	8.26
468.829	8.14
469.184	8.23
469.539	8.07
469.894	8.21
470.249	8.26
470.603	8.42
470.958	8.24
471.313	8.21
471.668	8.19
472.023	8.22
472.377	8.25
472.732	8.49
473.086	8.39
473.441	8.33
473.795	8.21
474.15	8.54
474.504	8.32
474.859	8.28
475.213	8.38
475.567	8.29
475.921	8.34
476.275	8.41
476.63	8.29
476.984	8.33
477.338	8.49
477.692	8.47
478.045	8.49
478.399	8.39
478.753	8.47
479.107	8.46
479.461	8.57
479.814	8.54
480.168	8.64
480.521	8.43
480.875	8.53
481.228	8.56
481.582	8.57
481.935	8.39
482.289	8.46
482.642	8.69
482.995	8.44
483.348	8.39
483.701	8.43
484.055	8.38
484.408	8.42
484.761	8.35
485.114	8.23
485.466	8.14
485.819	8.1
486.172	8.17
486.525	8.12
486.878	8.19
487.23	8.23
487.583	8.26
487.936	8.24
488.288	8.32
488.641	8.32
488.993	8.32
489.345	8.29
489.698	8.28
490.05	8.34
490.402	8.24
490.754	8.42
491.107	8.39
491.459	8.47
491.811	8.45
492.163	8.57
492.515	8.65
492.866	8.6
493.218	8.52
493.57	8.42
493.922	8.53
494.274	8.41
494.625	8.47
494.977	8.58
495.328	8.58
495.68	8.67
496.031	8.79
496.383	8.85
496.734	8.83
497.086	9
497.437	8.98
497.788	8.89
498.139	8.78
498.49	8.83
498.842	8.93
499.193	8.84
499.544	8.89
499.894	8.86
500.245	8.91
500.596	8.9
500.947	8.9
501.298	8.84
501.648	9.02
501.999	9.06
502.35	9.09
502.7	8.97
503.051	9.07
503.401	9.05
503.752	9.1
504.102	9.02
504.452	9.11
504.803	9.08
505.153	9.05
505.503	9.04
505.853	9.09
506.203	9.18
506.553	9.21
506.903	9.2
507.253	9.12
507.603	9.07
507.953	8.97
508.303	9.28
508.652	9.16
509.002	9.28
509.352	9.34
509.701	9.14
510.051	9.09
510.4	9.36
510.75	9.27
511.099	9.31
511.449	9.26
511.798	9.28
512.147	9.27
512.496	9.2
512.846	9.21
513.195	9.3
513.544	9.31
513.893	9.36
514.242	9.28
514.591	9.27
514.939	9.33
515.288	9.33
515.637	9.33
515.986	9.45
516.334	9.42
516.683	9.58
517.032	9.47
517.38	9.57
517.729	9.59
518.077	9.6
518.426	9.63
518.774	9.44
519.122	9.48
519.47	9.47
519.819	9.52
520.167	9.53
520.515	9.44
520.863	9.45
521.211	9.51
521.559	9.51
521.907	9.47
522.255	9.62
522.602	9.65
522.95	9.67
523.298	9.71
523.645	9.67
523.993	9.74
524.341	9.71
524.688	9.84
525.036	9.77
525.383	9.89
525.73	9.72
526.078	9.85
526.425	9.98
526.772	9.74
527.119	9.75
527.466	9.71
527.814	9.79
528.161	9.77
528.508	9.71
528.854	9.76
529.201	9.76
529.548	9.7
529.895	9.63
530.242	9.66
530.588	9.58
530.935	9.63
531.282	9.64
531.628	9.63
531.975	9.68
532.321	9.83
532.667	9.8
533.014	9.85
533.36	10.04
533.706	10.02
534.052	10.05
534.399	10.05
534.745	9.97
535.091	9.93
535.437	9.95
535.783	9.98
536.129	10.07
536.474	10.02
536.82	10.04
537.166	10.08
537.512	10.21
537.857	10.27
538.203	10.13
538.549	10.24
538.894	10.23
539.239	10.34
539.585	10.35
539.93	10.4
540.276	10.36
540.621	10.4
540.966	10.54
541.311	10.29
541.656	10.53
542.001	10.57
542.346	10.5
542.691	10.41
543.036	10.32
543.381	10.36
543.726	10.33
544.071	10.38
544.415	10.36
544.76	10.4
545.105	10.47
545.449	10.51
545.794	10.54
546.138	10.61
546.483	10.74
546.827	10.66
547.171	10.87
547.516	10.77
547.86	10.69
548.204	10.88
548.548	10.8
548.892	10.73
549.236	10.87
549.58	10.85
549.924	11.06
550.268	11.14
550.612	10.98
550.956	11.1
551.3	11.07
551.643	11.16
551.987	11.06
552.33	11.09
552.674	11.24
553.017	11.22
553.361	11.38
553.704	11.45
554.048	11.34
554.391	11.23
554.734	11.38
555.077	11.3
555.42	11.37
555.764	11.53
556.107	11.35
556.45	11.46
556.793	11.6
557.135	11.46
557.478	11.42
557.821	11.53
558.164	11.62
558.507	11.51
558.849	11.65
559.192	11.76
559.534	11.5
559.877	11.67
560.219	11.8
560.562	11.81
560.904	11.88
561.246	11.74
561.589	11.91
561.931	11.69
562.273	11.95
562.615	11.82
562.957	11.88
563.299	11.87
563.641	11.98
563.983	12.01
564.325	11.97
564.667	11.97
565.008	12.15
565.35	12.02
565.692	12.18
566.033	12.04
566.375	12.14
566.716	12.2
567.058	12.34
567.399	12.12
567.741	12.24
568.082	12.43
568.423	12.2
568.764	12.26
569.105	12.21
569.447	12.22
569.788	12.36
570.129	12.4
570.47	12.48
570.811	12.52
571.151	12.48
571.492	12.61
571.833	12.6
572.174	12.56
572.514	12.62
572.855	12.52
573.195	12.46
573.536	12.75
573.876	12.77
574.217	12.54
574.557	12.57
574.898	12.76
575.238	12.63
575.578	12.94
575.918	12.84
576.258	12.89
576.598	12.87
576.938	12.99
577.278	12.75
577.618	12.8
577.958	12.85
578.298	13.13
578.638	12.9
578.977	13.06
579.317	12.95
579.657	13.31
579.996	13.09
580.336	13.08
580.675	12.85
581.014	13.44
581.354	13.37
581.693	13.38
582.032	13.38
582.372	13.35
582.711	13.43
583.05	13.41
583.389	13.26
583.728	13.47
584.067	13.35
584.406	13.38
584.745	13.62
585.083	13.44
585.422	13.46
585.761	13.62
586.1	13.79
586.438	13.5
586.777	13.83
587.115	13.78
587.454	13.85
587.792	13.96
588.13	13.88
588.469	14.03
588.807	14.18
589.145	13.86
589.483	13.66
589.821	14.11
590.159	14.03
590.497	14.44
590.835	14.09
591.173	14.11
591.511	14
591.849	14.38
592.187	14.22
592.524	14.16
592.862	14.16
593.2	14.24
593.537	14.23
593.875	14.25
594.212	14.37
594.55	14.24
594.887	14.68
595.224	14.68
595.561	14.18
595.899	14.4
596.236	14.72
596.573	14.63
596.91	14.5
597.247	14.62
597.584	14.55
597.921	14.66
598.258	14.66
598.594	14.3
598.931	14.66
599.268	14.77
599.604	14.82
599.941	14.83
600.277	14.65
600.614	14.84
600.95	15.01
601.287	14.81
601.623	14.96
601.959	15.06
602.296	15.07
602.632	15.35
602.968	15.21
603.304	15.02
603.64	15.22
603.976	15.04
604.312	15.39
604.648	15.47
604.984	15.18
605.319	15.26
605.655	15.17
605.991	15.39
606.326	15.3
606.662	15.24
606.998	15.29
607.333	15.27
607.668	15.58
608.004	15.51
608.339	15.35
608.674	15.67
609.01	15.7
609.345	15.74
609.68	15.62
610.015	15.71
610.35	15.87
610.685	15.9
611.02	15.77
611.355	15.85
611.689	15.8
612.024	15.86
612.359	15.52
612.694	15.83
613.028	16.02
613.363	16.1
613.697	15.74
614.032	16.07
614.366	15.74
614.7	16.09
615.035	16.21
615.369	16.12
615.703	16.81
616.037	16.01
616.371	16.09
616.705	16.32
617.039	16.58
617.373	16.65
617.707	16.85
618.041	16.94
618.375	16.79
618.709	16.38
619.042	16.51
619.376	16.57
619.71	16.61
620.043	16.82
620.377	16.83
620.71	17.16
621.043	16.39
621.377	16.8
621.71	16.83
622.043	17.09
622.376	17.05
622.709	17.27
623.043	16.89
623.376	17.38
623.709	16.8
624.041	16.97
624.374	16.91
624.707	17.03
625.04	17.12
625.373	17.43
625.705	16.84
626.038	17.34
626.37	17.24
626.703	17.23
627.035	17.26
627.368	17.15
627.7	17.07
628.032	17.18
628.365	17.58
628.697	17.57
629.029	17.4
629.361	17.3
629.693	17.42
630.025	17.51
630.357	17.39
630.689	17.38
631.021	17.1
631.353	17.57
631.684	17.67
632.016	17.46
632.348	17.66
632.679	17.68
633.011	17.72
633.342	18.03
633.674	18.05
634.005	18.16
634.336	17.93
634.668	18.18
634.999	18.24
635.33	17.72
635.661	18.48
635.992	17.82
636.323	17.9
636.654	17.87
636.985	18.35
637.316	18.1
637.647	18.09
637.977	18.21
638.308	18.39
638.639	18.23
638.969	17.92
639.3	18.8
639.63	17.85
639.961	18.45
640.291	18.52
640.622	18.62
640.952	18.52
641.282	18.66
641.612	18.71
641.943	18.19
642.273	18.36
642.603	18.8
642.933	18.7
643.263	18.42
643.592	18.71
643.922	18.81
644.252	19.04
644.582	18.74
644.911	19.1
645.241	18.28
645.571	18.85
645.9	18.96
646.23	18.76
646.559	19.83
646.888	19.06
647.218	19.18
647.547	19.33
647.876	19.02
648.205	18.72
648.534	19.04
648.863	19.47
649.192	19.26
649.521	19.52
649.85	19.35
650.179	19.66
650.508	19.33
650.837	19.5
651.165	19.91
651.494	19.58
651.822	19.63
652.151	19.47
652.479	19.15
652.808	19.33
653.136	19.71
653.465	19.55
653.793	19.94
654.121	19.51
654.449	19.53
654.777	20.24
655.105	19.74
655.433	20.05
655.761	20.14
656.089	19.69
656.417	19.41
656.745	19.95
657.073	20.3
657.4	20.09
657.728	20.06
658.056	19.65
658.383	20.54
658.711	19.84
659.038	19.66
659.365	20.45
659.693	20.16
660.02	20.75
660.347	20.26
660.674	20.18
661.001	20.56
661.329	20.41
661.656	20.21
661.982	19.75
662.309	20.33
662.636	19.94
662.963	20.22
663.29	20.27
663.616	20.75
663.943	20.87
664.27	20.8
664.596	20.79
664.923	20.58
665.249	20.76
665.576	21.27
665.902	20.54
666.228	20.33
666.554	21.85
666.881	20.67
667.207	21.01
667.533	20.76
667.859	20.69
668.185	20.57
668.511	20.9
668.837	20.73
669.162	21.36
669.488	21.56
669.814	21.45
670.139	21.31
670.465	21.1
670.791	21.19
671.116	20.67
671.442	21.1
671.767	21.36
672.092	21.28
672.418	21.33
672.743	22.14
673.068	21.29
673.393	21.41
673.718	21.45
674.043	21.66
674.368	21.04
674.693	21.46
675.018	21.43
675.343	21.51
675.667	21.65
675.992	21.1
676.317	21.84
676.641	21.78
676.966	21.73
677.29	22.05
677.615	22.04
677.939	21.66
678.264	21.92
678.588	21.55
678.912	21.84
679.236	21.85
679.56	22.11
679.885	21.79
680.209	22.54
680.532	22.45
680.856	21.56
681.18	22.1
681.504	21.87
681.828	21.97
682.152	23.03
