Data from 0043_chest_Reflection__4__139.txt Node

Date: Fri Nov 04 15:58:59 CDT 2022
User: ToomeyLab
Spectrometer: FLMS14357
Trigger mode: 0
Integration Time (sec): 1.000000E-2
Scans to average: 100
Electric dark correction enabled: true
Nonlinearity correction enabled: false
Boxcar width: 0
XAxis mode: Wavelengths
Number of Pixels in Spectrum: 2048
>>>>>Begin Spectral Data<<<<<
189.047	197
189.435	197
189.823	197
190.211	64.36
190.599	132.38
190.987	44.34
191.375	21.45
191.763	-216.1
192.151	11.46
192.538	29.84
192.926	-8.03
193.314	570.21
193.702	332.1
194.089	79.94
194.477	26.16
194.864	126.48
195.252	71.26
195.639	-100.49
196.027	128.03
196.414	-1083.89
196.801	9.55
197.189	49.44
197.576	-263.83
197.963	91.16
198.351	-28.12
198.738	38.4
199.125	6.91
199.512	-94.29
199.899	24.36
200.286	3.46
200.673	15.77
201.06	1.7
201.447	-37.19
201.833	34.43
202.22	-0.67
202.607	34.93
202.994	44.33
203.38	46.04
203.767	-15.67
204.154	52.68
204.54	-34.21
204.927	34.35
205.313	14.39
205.699	27.16
206.086	-9.81
206.472	-2.78
206.858	38.89
207.245	12.31
207.631	15.81
208.017	-0.45
208.403	2.91
208.789	35.29
209.175	-9.21
209.561	-25.92
209.947	-60.27
210.333	19.3
210.719	-18.19
211.105	-32.75
211.491	36.01
211.876	16.11
212.262	-11.05
212.648	-4.45
213.034	11.85
213.419	2.93
213.805	-10.88
214.19	-40.01
214.576	3.35
214.961	31.2
215.346	5.15
215.732	15.72
216.117	0.74
216.502	18.95
216.888	-7.61
217.273	10.34
217.658	-8.75
218.043	0.84
218.428	29.29
218.813	16.38
219.198	-5.28
219.583	13.74
219.968	24.66
220.353	-32.47
220.738	-40.77
221.122	0.48
221.507	5.42
221.892	-19.23
222.276	0.95
222.661	15.37
223.046	-0.18
223.43	-7.54
223.815	-14.8
224.199	9.21
224.583	-3.69
224.968	6.5
225.352	8.57
225.736	-4.73
226.121	-3.05
226.505	1.33
226.889	0.35
227.273	2.34
227.657	0
228.041	4.35
228.425	4.44
228.809	5.2
229.193	5.56
229.577	1.09
229.961	4.57
230.344	3.05
230.728	3.72
231.112	2.58
231.495	3.38
231.879	3.59
232.263	2.23
232.646	3.56
233.03	1.55
233.413	2.98
233.797	1.59
234.18	2.86
234.563	1.02
234.946	4.05
235.33	4.91
235.713	4.3
236.096	3.92
236.479	3.46
236.862	1.74
237.245	1.78
237.628	2.9
238.011	1.09
238.394	3.62
238.777	4.09
239.16	3.36
239.543	3.12
239.925	4.64
240.308	4.32
240.691	3.23
241.073	4.27
241.456	4.24
241.838	1.97
242.221	2.86
242.603	2.56
242.986	3.6
243.368	3.63
243.75	3.22
244.133	3.81
244.515	3.66
244.897	3.28
245.279	2.84
245.661	3.81
246.043	4.04
246.425	3.08
246.807	4.31
247.189	3.23
247.571	4.01
247.953	2.84
248.335	3.24
248.717	3.42
249.098	3.24
249.48	3.36
249.862	3.48
250.243	3.37
250.625	3.05
251.006	3.42
251.388	3.57
251.769	3.42
252.151	3.3
252.532	3.4
252.913	3.47
253.295	3.43
253.676	2.97
254.057	3.13
254.438	3.51
254.819	3.39
255.2	2.48
255.581	3.72
255.962	3.92
256.343	2.71
256.724	3.23
257.105	2.98
257.486	3.63
257.867	4.24
258.247	3.9
258.628	2.61
259.009	2.88
259.389	3.72
259.77	3.59
260.15	3.32
260.531	2.72
260.911	2.67
261.292	2.95
261.672	3.12
262.052	3.06
262.432	3.3
262.813	2.84
263.193	2.9
263.573	2.92
263.953	2.93
264.333	3.03
264.713	3.45
265.093	2.52
265.473	4.35
265.853	2.16
266.233	3.28
266.612	3.36
266.992	3.8
267.372	2.77
267.752	3.18
268.131	3
268.511	3.18
268.89	3.06
269.27	3.02
269.649	2.96
270.029	3.29
270.408	3.01
270.787	2.98
271.167	3.36
271.546	3.55
271.925	2.9
272.304	2.45
272.683	3.16
273.062	2.49
273.441	3.12
273.82	2.87
274.199	3.02
274.578	2.65
274.957	2.89
275.336	2.71
275.715	2.41
276.093	2.89
276.472	3.18
276.851	2.72
277.229	2.64
277.608	3.21
277.986	3.71
278.365	2.97
278.743	2.73
279.122	2.24
279.5	3.1
279.878	2.84
280.257	3.04
280.635	2.27
281.013	2.85
281.391	3.15
281.769	2.58
282.147	2.81
282.525	2.83
282.903	3.1
283.281	3.23
283.659	2.84
284.037	2.7
284.415	2.77
284.792	3.37
285.17	2.47
285.548	3.43
285.925	3.18
286.303	3.19
286.68	2.98
287.058	3.07
287.435	2.78
287.813	2.73
288.19	2.82
288.567	2.86
288.945	3.11
289.322	3.26
289.699	2.95
290.076	2.68
290.453	2.87
290.83	2.79
291.207	3.01
291.584	2.87
291.961	3.27
292.338	3.2
292.715	3.09
293.092	3.27
293.469	2.69
293.845	3.01
294.222	3.04
294.599	2.68
294.975	3.12
295.352	2.7
295.728	3.28
296.105	2.73
296.481	2.99
296.858	3.05
297.234	3.29
297.61	3.25
297.986	2.89
298.363	2.9
298.739	2.47
299.115	3.08
299.491	3.09
299.867	2.88
300.243	2.73
300.619	2.89
300.995	3.16
301.371	3.56
301.746	3.16
302.122	2.96
302.498	2.48
302.874	3.13
303.249	2.44
303.625	2.46
304	2.94
304.376	3.13
304.751	2.99
305.127	2.63
305.502	2.89
305.878	3.15
306.253	3.16
306.628	2.91
307.003	3.2
307.378	2.94
307.754	2.9
308.129	2.58
308.504	3.22
308.879	3.34
309.254	3.47
309.629	2.51
310.003	3.04
310.378	2.91
310.753	3.57
311.128	2.87
311.502	2.48
311.877	2.97
312.252	2.64
312.626	3.14
313.001	3
313.375	3.01
313.75	2.99
314.124	2.66
314.498	3.19
314.873	3.54
315.247	3.42
315.621	3.04
315.995	2.99
316.369	2.98
316.743	4
317.117	2.85
317.491	3.58
317.865	3.16
318.239	3.13
318.613	3.18
318.987	3.03
319.361	2.77
319.734	3.27
320.108	2.86
320.482	2.59
320.855	2.96
321.229	3.16
321.602	2.57
321.976	2.98
322.349	3.47
322.723	2.93
323.096	2.9
323.469	3.29
323.843	3.22
324.216	2.95
324.589	3.06
324.962	3.43
325.335	2.64
325.708	2.49
326.081	3.33
326.454	2.76
326.827	3.06
327.2	3.04
327.573	2.5
327.945	3.12
328.318	2.63
328.691	2.71
329.063	3.05
329.436	3.4
329.809	3.43
330.181	3.05
330.553	2.94
330.926	3.26
331.298	3.06
331.671	2.84
332.043	3.13
332.415	3.01
332.787	2.86
333.159	2.99
333.532	2.71
333.904	3.06
334.276	2.94
334.648	3.3
335.02	2.94
335.391	3.39
335.763	2.97
336.135	3.23
336.507	3.23
336.879	2.85
337.25	3.12
337.622	3.02
337.993	2.77
338.365	3.09
338.736	3.65
339.108	3.49
339.479	3.39
339.851	3
340.222	2.67
340.593	2.87
340.964	3.41
341.336	2.79
341.707	2.43
342.078	3
342.449	3.4
342.82	2.75
343.191	2.86
343.562	2.95
343.933	3.05
344.303	3.03
344.674	2.93
345.045	2.84
345.416	2.68
345.786	3.28
346.157	2.94
346.527	3.23
346.898	3.06
347.268	2.75
347.639	2.8
348.009	3.44
348.38	3.02
348.75	2.77
349.12	2.73
349.49	3.38
349.861	2.8
350.231	3.41
350.601	3.17
350.971	2.8
351.341	3
351.711	2.59
352.081	3.31
352.45	3.36
352.82	3.12
353.19	3.11
353.56	3.54
353.929	3.02
354.299	3.33
354.669	3.52
355.038	3.44
355.408	2.97
355.777	3.3
356.147	2.97
356.516	2.93
356.885	2.71
357.254	3.25
357.624	2.81
357.993	3.05
358.362	3.09
358.731	3.27
359.1	2.92
359.469	3.16
359.838	3.09
360.207	2.88
360.576	3.5
360.945	3.44
361.314	3.29
361.682	2.87
362.051	3.16
362.42	3.16
362.788	2.98
363.157	2.92
363.525	2.97
363.894	3.1
364.262	3.36
364.631	3.32
364.999	3.14
365.367	3.05
365.735	3.42
366.104	2.85
366.472	3.2
366.84	2.72
367.208	3.3
367.576	3.08
367.944	3.18
368.312	3.13
368.68	2.98
369.048	3.13
369.416	3.21
369.783	2.91
370.151	2.87
370.519	3.39
370.886	3.09
371.254	3.05
371.621	3.32
371.989	3.06
372.356	3.24
372.724	3
373.091	3.15
373.458	3.2
373.826	3.13
374.193	3.05
374.56	2.95
374.927	3.46
375.294	2.89
375.661	3.35
376.028	3.07
376.395	3.45
376.762	3.27
377.129	3.07
377.496	3.27
377.863	3.05
378.229	3.18
378.596	3.02
378.963	3.13
379.329	3.23
379.696	3.13
380.062	3.3
380.429	3.31
380.795	3.22
381.161	3.16
381.528	3.1
381.894	2.97
382.26	2.83
382.626	3.05
382.993	3.16
383.359	3.22
383.725	3.15
384.091	3.36
384.457	3.16
384.823	3.16
385.188	3.25
385.554	2.99
385.92	3.18
386.286	3.1
386.651	3.1
387.017	3.21
387.383	3.24
387.748	3.15
388.114	2.9
388.479	3.67
388.845	3.27
389.21	3.7
389.575	3.55
389.94	3.39
390.306	3.43
390.671	3.37
391.036	3.08
391.401	3.78
391.766	3.11
392.131	3.1
392.496	3.24
392.861	3.34
393.226	3.16
393.591	3.27
393.956	3.54
394.32	3.32
394.685	3.25
395.05	3.4
395.414	3.31
395.779	3.26
396.143	3.15
396.508	3.2
396.872	3.16
397.236	3.23
397.601	3.1
397.965	3.14
398.329	3.31
398.694	3.3
399.058	3.39
399.422	3.2
399.786	3.26
400.15	3.16
400.514	3.1
400.878	3.35
401.242	3.54
401.605	3.25
401.969	3.43
402.333	3.44
402.697	3.26
403.06	3.52
403.424	3.17
403.787	3.44
404.151	3.23
404.514	3.37
404.878	3.47
405.241	3.35
405.604	3.35
405.968	3.39
406.331	3.31
406.694	3.12
407.057	3.37
407.42	3.33
407.783	3.11
408.146	3.26
408.509	3.29
408.872	3.42
409.235	3.32
409.598	3.38
409.961	3.53
410.323	3.43
410.686	3.34
411.049	3.24
411.411	3.23
411.774	3.42
412.136	3.54
412.499	3.44
412.861	3.3
413.223	3.23
413.586	3.17
413.948	3.5
414.31	3.35
414.672	3.47
415.035	3.38
415.397	3.39
415.759	3.58
416.121	3.31
416.483	3.36
416.845	3.3
417.206	3.19
417.568	3.23
417.93	3.32
418.292	3.25
418.653	3.48
419.015	3.28
419.377	3.33
419.738	3.38
420.1	3.45
420.461	3.28
420.822	3.2
421.184	3.34
421.545	3.22
421.906	3.29
422.267	3.25
422.629	3.34
422.99	3.25
423.351	3.28
423.712	3.37
424.073	3.32
424.434	3.35
424.795	3.37
425.155	3.48
425.516	3.37
425.877	3.28
426.238	3.3
426.598	3.32
426.959	3.19
427.32	3.34
427.68	3.33
428.041	3.27
428.401	3.3
428.761	3.39
429.122	3.22
429.482	3.33
429.842	3.13
430.202	3.43
430.563	3.37
430.923	3.7
431.283	3.52
431.643	3.45
432.003	3.52
432.363	3.51
432.722	3.47
433.082	3.62
433.442	3.43
433.802	3.36
434.161	3.39
434.521	3.37
434.881	3.31
435.24	3.26
435.6	3.49
435.959	3.44
436.319	3.5
436.678	3.52
437.037	3.54
437.396	3.59
437.756	3.43
438.115	3.32
438.474	3.53
438.833	3.53
439.192	3.42
439.551	3.49
439.91	3.51
440.269	3.49
440.628	3.58
440.987	3.46
441.345	3.39
441.704	3.45
442.063	3.33
442.421	3.5
442.78	3.37
443.138	3.5
443.497	3.36
443.855	3.48
444.214	3.64
444.572	3.49
444.93	3.43
445.288	3.44
445.647	3.45
446.005	3.55
446.363	3.51
446.721	3.34
447.079	3.44
447.437	3.47
447.795	3.52
448.153	3.34
448.51	3.43
448.868	3.41
449.226	3.38
449.584	3.36
449.941	3.39
450.299	3.54
450.656	3.57
451.014	3.66
451.371	3.58
451.729	3.55
452.086	3.53
452.443	3.49
452.801	3.52
453.158	3.5
453.515	3.58
453.872	3.4
454.229	3.65
454.586	3.45
454.943	3.48
455.3	3.47
455.657	3.38
456.014	3.5
456.371	3.57
456.727	3.62
457.084	3.77
457.441	3.53
457.797	3.57
458.154	3.66
458.51	3.66
458.867	3.59
459.223	3.72
459.58	3.82
459.936	3.52
460.292	3.49
460.648	3.58
461.005	3.44
461.361	3.52
461.717	3.53
462.073	3.57
462.429	3.47
462.785	3.46
463.141	3.57
463.496	3.46
463.852	3.69
464.208	3.64
464.564	3.65
464.919	3.72
465.275	3.67
465.631	3.78
465.986	3.75
466.342	3.59
466.697	3.61
467.052	3.63
467.408	3.59
467.763	3.72
468.118	3.85
468.473	3.75
468.829	3.6
469.184	3.52
469.539	3.51
469.894	3.77
470.249	3.51
470.603	3.65
470.958	3.64
471.313	3.5
471.668	3.49
472.023	3.5
472.377	3.75
472.732	3.75
473.086	3.56
473.441	3.58
473.795	3.54
474.15	3.68
474.504	3.59
474.859	3.66
475.213	3.66
475.567	3.65
475.921	3.59
476.275	3.75
476.63	3.7
476.984	3.59
477.338	3.73
477.692	3.83
478.045	3.71
478.399	3.7
478.753	3.6
479.107	3.68
479.461	3.81
479.814	3.73
480.168	3.76
480.521	3.61
480.875	3.66
481.228	3.83
481.582	3.71
481.935	3.56
482.289	3.61
482.642	3.86
482.995	3.66
483.348	3.74
483.701	3.72
484.055	3.55
484.408	3.6
484.761	3.56
485.114	3.5
485.466	3.45
485.819	3.43
486.172	3.42
486.525	3.46
486.878	3.53
487.23	3.58
487.583	3.57
487.936	3.63
488.288	3.63
488.641	3.57
488.993	3.55
489.345	3.54
489.698	3.52
490.05	3.54
490.402	3.53
490.754	3.63
491.107	3.67
491.459	3.68
491.811	3.58
492.163	3.71
492.515	3.74
492.866	3.66
493.218	3.64
493.57	3.62
493.922	3.65
494.274	3.65
494.625	3.65
494.977	3.67
495.328	3.73
495.68	3.62
496.031	3.8
496.383	3.85
496.734	3.69
497.086	4.02
497.437	3.86
497.788	3.79
498.139	3.74
498.49	3.61
498.842	3.74
499.193	3.88
499.544	3.85
499.894	3.84
500.245	3.81
500.596	3.82
500.947	3.81
501.298	3.76
501.648	3.87
501.999	4
502.35	3.85
502.7	3.78
503.051	3.89
503.401	3.83
503.752	3.92
504.102	3.89
504.452	3.84
504.803	4.01
505.153	3.77
505.503	3.76
505.853	4.03
506.203	3.92
506.553	4.03
506.903	4
507.253	3.94
507.603	3.83
507.953	3.89
508.303	4
508.652	3.73
509.002	4.03
509.352	4
509.701	3.94
510.051	3.97
510.4	3.94
510.75	3.89
511.099	3.94
511.449	3.86
511.798	3.87
512.147	3.92
512.496	3.97
512.846	3.86
513.195	4.04
513.544	3.91
513.893	3.9
514.242	3.96
514.591	3.83
514.939	3.97
515.288	3.93
515.637	3.94
515.986	3.98
516.334	4.08
516.683	4.04
517.032	4.13
517.38	4.05
517.729	4.01
518.077	3.96
518.426	4.09
518.774	4.13
519.122	3.98
519.47	3.96
519.819	3.91
520.167	3.98
520.515	3.98
520.863	3.91
521.211	3.97
521.559	3.96
521.907	3.94
522.255	4.08
522.602	4.19
522.95	4.02
523.298	4.19
523.645	3.99
523.993	4.1
524.341	4.25
524.688	4.19
525.036	4.1
525.383	4.21
525.73	4.1
526.078	4.22
526.425	4.08
526.772	4.1
527.119	4.04
527.466	4.05
527.814	4.1
528.161	4.03
528.508	4.07
528.854	4.07
529.201	4.06
529.548	4.08
529.895	4.02
530.242	4
530.588	3.97
530.935	3.96
531.282	4.03
531.628	3.96
531.975	4.13
532.321	4.16
532.667	4.22
533.014	4.12
533.36	4.23
533.706	4.31
534.052	4.17
534.399	4.25
534.745	4.12
535.091	4.16
535.437	4.13
535.783	4.17
536.129	4.25
536.474	4.27
536.82	4.19
537.166	4.24
537.512	4.3
537.857	4.26
538.203	4.15
538.549	4.21
538.894	4.3
539.239	4.41
539.585	4.35
539.93	4.3
540.276	4.39
540.621	4.37
540.966	4.56
541.311	4.42
541.656	4.41
542.001	4.34
542.346	4.42
542.691	4.34
543.036	4.26
543.381	4.27
543.726	4.35
544.071	4.37
544.415	4.37
544.76	4.37
545.105	4.41
545.449	4.48
545.794	4.42
546.138	4.44
546.483	4.48
546.827	4.46
547.171	4.55
547.516	4.56
547.86	4.52
548.204	4.62
548.548	4.54
548.892	4.5
549.236	4.58
549.58	4.6
549.924	4.79
550.268	4.64
550.612	4.56
550.956	4.57
551.3	4.7
551.643	4.58
551.987	4.46
552.33	4.77
552.674	4.71
553.017	4.89
553.361	4.82
553.704	4.79
554.048	4.72
554.391	4.63
554.734	4.81
555.077	4.87
555.42	4.76
555.764	5.11
556.107	4.86
556.45	4.71
556.793	4.83
557.135	4.94
557.478	4.94
557.821	5.01
558.164	4.98
558.507	4.98
558.849	5.04
559.192	5.13
559.534	4.86
559.877	5.02
560.219	5.04
560.562	5.13
560.904	5.06
561.246	5.1
561.589	5.17
561.931	4.99
562.273	5.22
562.615	4.95
562.957	5.21
563.299	5.15
563.641	5.11
563.983	5.16
564.325	5.13
564.667	5.18
565.008	5.23
565.35	5.3
565.692	5.43
566.033	5.33
566.375	5.28
566.716	5.31
567.058	5.3
567.399	5.26
567.741	5.35
568.082	5.23
568.423	5.33
568.764	5.26
569.105	5.39
569.447	5.36
569.788	5.15
570.129	5.42
570.47	5.46
570.811	5.48
571.151	5.45
571.492	5.57
571.833	5.47
572.174	5.53
572.514	5.35
572.855	5.43
573.195	5.55
573.536	5.51
573.876	5.42
574.217	5.43
574.557	5.38
574.898	5.6
575.238	5.46
575.578	5.69
575.918	5.72
576.258	5.71
576.598	5.7
576.938	5.73
577.278	5.46
577.618	5.58
577.958	5.75
578.298	5.6
578.638	5.72
578.977	5.86
579.317	5.88
579.657	5.75
579.996	5.85
580.336	5.93
580.675	5.75
581.014	6.13
581.354	5.78
581.693	6.07
582.032	6.02
582.372	5.98
582.711	5.91
583.05	5.99
583.389	5.85
583.728	5.89
584.067	6.11
584.406	5.85
584.745	6.21
585.083	5.94
585.422	6.36
585.761	6.11
586.1	5.95
586.438	5.97
586.777	6.17
587.115	6.32
587.454	6.41
587.792	6.35
588.13	6.22
588.469	6.22
588.807	6.26
589.145	6.17
589.483	6.02
589.821	6.32
590.159	6.02
590.497	6.48
590.835	6.31
591.173	6.01
591.511	6.5
591.849	6.63
592.187	6.42
592.524	6.59
592.862	6.43
593.2	6.43
593.537	6.6
593.875	6.6
594.212	6.44
594.55	6.37
594.887	6.82
595.224	6.7
595.561	6.45
595.899	6.59
596.236	6.61
596.573	6.69
596.91	6.71
597.247	6.79
597.584	6.74
597.921	6.85
598.258	6.69
598.594	6.53
598.931	6.77
599.268	6.87
599.604	6.8
599.941	6.87
600.277	6.89
600.614	6.98
600.95	6.95
601.287	6.86
601.623	6.98
601.959	7.12
602.296	6.74
602.632	7.09
602.968	7.04
603.304	6.93
603.64	7.05
603.976	6.88
604.312	7
604.648	6.88
604.984	7.01
605.319	7.05
605.655	7.14
605.991	7.29
606.326	7
606.662	7.19
606.998	7.21
607.333	7.02
607.668	7.14
608.004	7.13
608.339	7.27
608.674	7.49
609.01	7.3
609.345	7.36
609.68	7.22
610.015	7.43
610.35	7.49
610.685	7.63
611.02	7.32
611.355	7.46
611.689	7.5
612.024	7.5
612.359	7.39
612.694	7.32
613.028	7.59
613.363	7.83
613.697	7.55
614.032	7.63
614.366	7.74
614.7	7.51
615.035	7.71
615.369	7.75
615.703	7.97
616.037	7.67
616.371	7.85
616.705	7.8
617.039	8.2
617.373	8.01
617.707	8.22
618.041	8
618.375	8.2
618.709	8.19
619.042	8.03
619.376	8.33
619.71	8
620.043	8.19
620.377	8.2
620.71	8.23
621.043	7.97
621.377	8.07
621.71	8.37
622.043	8.58
622.376	8.59
622.709	8.42
623.043	8.37
623.376	8.57
623.709	8.04
624.041	8.41
624.374	8.32
624.707	7.82
625.04	8.64
625.373	8.73
625.705	8.17
626.038	8.18
626.37	8.69
626.703	8.61
627.035	8.24
627.368	8.63
627.7	8.42
628.032	8.15
628.365	8.86
628.697	8.55
629.029	8.44
629.361	8.75
629.693	8.76
630.025	8.79
630.357	8.64
630.689	8.67
631.021	8.46
631.353	8.56
631.684	8.5
632.016	8.83
632.348	8.78
632.679	9.03
633.011	8.92
633.342	9.16
633.674	8.61
634.005	8.89
634.336	9.01
634.668	9.43
634.999	9.19
635.33	8.66
635.661	9.1
635.992	9.34
636.323	9.16
636.654	9.2
636.985	8.86
637.316	9.01
637.647	9
637.977	9.41
638.308	9.4
638.639	9.29
638.969	8.91
639.3	9.46
639.63	9.38
639.961	9.52
640.291	9.47
640.622	9.6
640.952	9.68
641.282	9.41
641.612	9.97
641.943	9.51
642.273	9.3
642.603	9.83
642.933	9.5
643.263	9.49
643.592	9.71
643.922	10.18
644.252	9.63
644.582	10.13
644.911	9.39
645.241	9.33
645.571	9.53
645.9	9.67
646.23	9.35
646.559	10.31
646.888	9.87
647.218	10.21
647.547	9.66
647.876	9.7
648.205	9.38
648.534	10.15
648.863	10.69
649.192	10.46
649.521	10.11
649.85	10.11
650.179	9.88
650.508	10.14
650.837	10.57
651.165	10.42
651.494	9.97
651.822	10.22
652.151	10.05
652.479	10.37
652.808	10.04
653.136	10.28
653.465	10.51
653.793	10.55
654.121	10.1
654.449	9.82
654.777	10.42
655.105	10.57
655.433	10.5
655.761	10.28
656.089	9.94
656.417	10.14
656.745	10.32
657.073	10.28
657.4	10.47
657.728	11.05
658.056	10.24
658.383	10.79
658.711	10.48
659.038	10.98
659.365	10.96
659.693	11.22
660.02	10.81
660.347	10.87
660.674	10.68
661.001	11.04
661.329	10.52
661.656	10.79
661.982	10.55
662.309	10.74
662.636	10.98
662.963	10.41
663.29	10.49
663.616	10.95
663.943	11.25
664.27	11.03
664.596	10.77
664.923	10.56
665.249	11.27
665.576	11.22
665.902	10.7
666.228	10.86
666.554	11.92
666.881	11.42
667.207	11.26
667.533	11.29
667.859	11.45
668.185	11.47
668.511	11.19
668.837	11.22
669.162	11.56
669.488	11.17
669.814	11.07
670.139	10.8
670.465	11.6
670.791	11.65
671.116	11.26
671.442	11.34
671.767	11.36
672.092	11.31
672.418	11.81
672.743	11.94
673.068	11.23
673.393	11.91
673.718	12.39
674.043	11.66
674.368	11.32
674.693	11.93
675.018	12.19
675.343	11.79
675.667	12.06
675.992	11.79
676.317	12.01
676.641	11.68
676.966	12.05
677.29	11.98
677.615	11.86
677.939	12.25
678.264	12.63
678.588	11.64
678.912	13.01
679.236	12.91
679.56	12.1
679.885	12.14
680.209	11.96
680.532	12.75
680.856	11.42
681.18	12.4
681.504	12.35
681.828	12.24
682.152	12.84
682.475	12.28
682.799	12.35
683.122	12.22
683.446	12.39
683.769	12.4
684.093	12.85
684.416	12.06
684.739	12.49
685.062	13.32
685.386	12.38
685.709	12.5
686.032	12.27
686.355	13.77
686.678	12.61
687.001	12.16
687.324	13.24
687.646	13.58
687.969	13.31
688.292	13.47
688.614	13.88
688.937	12.93
689.26	12.8
689.582	12.89
689.904	13.12
690.227	12.74
