Data from 0043_forehead_Reflection__2__148.txt Node

Date: Fri Nov 04 16:02:21 CDT 2022
User: ToomeyLab
Spectrometer: FLMS14357
Trigger mode: 0
Integration Time (sec): 1.000000E-2
Scans to average: 100
Electric dark correction enabled: true
Nonlinearity correction enabled: false
Boxcar width: 0
XAxis mode: Wavelengths
Number of Pixels in Spectrum: 2048
>>>>>Begin Spectral Data<<<<<
189.047	221.37
189.435	221.37
189.823	221.37
190.211	-55.49
190.599	-116.92
190.987	46.26
191.375	6.64
191.763	-131.88
192.151	-189.59
192.538	-41.01
192.926	62.01
193.314	109
193.702	255.52
194.089	103.79
194.477	160.03
194.864	143.33
195.252	113.82
195.639	-214.53
196.027	22.14
196.414	587.78
196.801	71.04
197.189	-36.42
197.576	-225.13
197.963	1.19
198.351	-26.02
198.738	40.89
199.125	5.08
199.512	87.83
199.899	24.7
200.286	12.57
200.673	9.07
201.06	54.31
201.447	-21.01
201.833	23.83
202.22	23.37
202.607	31.23
202.994	47.39
203.38	41.11
203.767	31.61
204.154	49.95
204.54	-0.47
204.927	26.1
205.313	30.9
205.699	34.75
206.086	57.4
206.472	0.01
206.858	5.13
207.245	17.49
207.631	30.19
208.017	19.21
208.403	17.86
208.789	23.56
209.175	-16.54
209.561	-15.59
209.947	-21.96
210.333	29.1
210.719	2.82
211.105	-20.6
211.491	89
211.876	15.79
212.262	-42.49
212.648	-4.03
213.034	10.75
213.419	-8.2
213.805	-0.22
214.19	-52.68
214.576	7.91
214.961	29.32
215.346	15.44
215.732	17.41
216.117	27.06
216.502	23.9
216.888	-7.16
217.273	31.01
217.658	9.1
218.043	10.2
218.428	29.07
218.813	27.76
219.198	16.55
219.583	-0.38
219.968	7.85
220.353	13.08
220.738	0.15
221.122	-14.74
221.507	12.81
221.892	-0.43
222.276	0.9
222.661	5.98
223.046	2
223.43	-0.78
223.815	-7.03
224.199	15.97
224.583	4.41
224.968	7.83
225.352	8.91
225.736	-12.93
226.121	2.25
226.505	11.71
226.889	7.33
227.273	4.5
227.657	2.52
228.041	8.76
228.425	5.05
228.809	3.97
229.193	5.24
229.577	2.04
229.961	3.9
230.344	2.75
230.728	2.93
231.112	2.14
231.495	3.02
231.879	3.52
232.263	3.12
232.646	3.02
233.03	1.79
233.413	0.49
233.797	2.51
234.18	2.05
234.563	4.99
234.946	3.88
235.33	4.33
235.713	1.36
236.096	3.73
236.479	1.87
236.862	2.84
237.245	2.25
237.628	2.97
238.011	1.65
238.394	4.41
238.777	3.24
239.16	4.21
239.543	2.13
239.925	2.1
240.308	5.38
240.691	3.12
241.073	3.45
241.456	3.35
241.838	2.84
242.221	3.63
242.603	3.07
242.986	2.62
243.368	3.4
243.75	3.03
244.133	2.7
244.515	2.86
244.897	2.81
245.279	2.8
245.661	3.36
246.043	3.66
246.425	3.29
246.807	4.39
247.189	2.99
247.571	2.95
247.953	2.75
248.335	2.81
248.717	2.86
249.098	2.79
249.48	2.84
249.862	3.32
250.243	2.7
250.625	2.6
251.006	3.12
251.388	2.83
251.769	3.78
252.151	3.29
252.532	3.35
252.913	2.52
253.295	3.85
253.676	2.43
254.057	2.36
254.438	2.84
254.819	2.4
255.2	2.34
255.581	3.56
255.962	4.1
256.343	2.9
256.724	3.25
257.105	1.94
257.486	4.19
257.867	5.07
258.247	3.01
258.628	2.91
259.009	2.75
259.389	2.7
259.77	3.24
260.15	2.91
260.531	3.26
260.911	2.85
261.292	2.99
261.672	2.88
262.052	2.97
262.432	3.31
262.813	2.61
263.193	2.78
263.573	2.84
263.953	3.11
264.333	2.54
264.713	3.11
265.093	2.4
265.473	3.25
265.853	2.75
266.233	2.8
266.612	3.04
266.992	3.39
267.372	2.37
267.752	3.38
268.131	3.28
268.511	3.32
268.89	3.35
269.27	3.17
269.649	2.92
270.029	2.88
270.408	2.86
270.787	3.43
271.167	2.98
271.546	3.07
271.925	2.75
272.304	2.92
272.683	3.32
273.062	3.19
273.441	3.06
273.82	3.19
274.199	2.45
274.578	2.58
274.957	2.4
275.336	2.39
275.715	2.97
276.093	2.88
276.472	2.93
276.851	2.58
277.229	2.93
277.608	2.83
277.986	3.54
278.365	3.56
278.743	3.61
279.122	3.08
279.5	3.44
279.878	3.15
280.257	2.94
280.635	2.8
281.013	3.15
281.391	3.82
281.769	3
282.147	2.35
282.525	3.24
282.903	2.72
283.281	3.24
283.659	3.12
284.037	3.25
284.415	2.91
284.792	3.14
285.17	2.88
285.548	3.26
285.925	3.31
286.303	3.49
286.68	3.37
287.058	2.95
287.435	2.98
287.813	3.02
288.19	3.1
288.567	3.22
288.945	3.1
289.322	3.07
289.699	3.57
290.076	3.38
290.453	3.15
290.83	3.1
291.207	3.11
291.584	3.77
291.961	3.67
292.338	3.5
292.715	3.81
293.092	3.68
293.469	3.49
293.845	3.33
294.222	3.8
294.599	3.02
294.975	3.73
295.352	3.86
295.728	3.62
296.105	3.37
296.481	3.68
296.858	3.39
297.234	3.84
297.61	3.76
297.986	3.62
298.363	3.6
298.739	3.84
299.115	4.3
299.491	3.67
299.867	3.82
300.243	3.54
300.619	4.14
300.995	4.18
301.371	4.14
301.746	3.77
302.122	3.77
302.498	4.15
302.874	4.38
303.249	3.75
303.625	3.94
304	4.16
304.376	3.92
304.751	4.51
305.127	4.01
305.502	4.3
305.878	4.49
306.253	4.62
306.628	4.13
307.003	4.49
307.378	4.23
307.754	4.54
308.129	4.64
308.504	4.54
308.879	4.74
309.254	5.12
309.629	4.56
310.003	5.12
310.378	5.06
310.753	5.14
311.128	5.09
311.502	4.95
311.877	4.93
312.252	4.85
312.626	5.08
313.001	4.98
313.375	5.03
313.75	5.25
314.124	5.1
314.498	5.31
314.873	5.23
315.247	5.93
315.621	5.23
315.995	5.32
316.369	5.56
316.743	6.01
317.117	5.84
317.491	5.66
317.865	6.14
318.239	6.1
318.613	6.33
318.987	5.93
319.361	6.3
319.734	6.35
320.108	6.11
320.482	5.31
320.855	6.38
321.229	6.3
321.602	6.44
321.976	6.42
322.349	6.95
322.723	6.1
323.096	6.43
323.469	6.1
323.843	6.44
324.216	6.77
324.589	6.44
324.962	7.06
325.335	7.14
325.708	6.36
326.081	7.24
326.454	6.76
326.827	7.27
327.2	7.19
327.573	6.81
327.945	7.04
328.318	6.57
328.691	7.05
329.063	6.75
329.436	7.17
329.809	7.01
330.181	7.33
330.553	7.35
330.926	7.32
331.298	7.44
331.671	7.25
332.043	7.15
332.415	7.19
332.787	7.1
333.159	7.08
333.532	7.02
333.904	7.88
334.276	7.53
334.648	7.67
335.02	7.12
335.391	7.71
335.763	7.56
336.135	7.78
336.507	8.29
336.879	8.09
337.25	8.38
337.622	7.74
337.993	8.3
338.365	7.88
338.736	8.06
339.108	8.55
339.479	8.6
339.851	8.28
340.222	8.1
340.593	8.62
340.964	8.23
341.336	8.32
341.707	8.15
342.078	8.15
342.449	8.54
342.82	8.53
343.191	8.04
343.562	8.37
343.933	8.93
344.303	8.57
344.674	8.81
345.045	8.45
345.416	8.59
345.786	9.07
346.157	9.11
346.527	8.72
346.898	8.91
347.268	9.12
347.639	8.57
348.009	9.23
348.38	9.14
348.75	8.83
349.12	8.96
349.49	9.46
349.861	8.89
350.231	9.56
350.601	8.98
350.971	9.28
351.341	9.47
351.711	9.38
352.081	9.36
352.45	9.52
352.82	9.93
353.19	9.28
353.56	9.61
353.929	9.66
354.299	10.14
354.669	9.86
355.038	9.77
355.408	9.64
355.777	9.93
356.147	9.82
356.516	9.72
356.885	9.83
357.254	9.89
357.624	10.33
357.993	9.74
358.362	9.99
358.731	9.8
359.1	10.09
359.469	10.36
359.838	10.41
360.207	10.13
360.576	10.34
360.945	10.3
361.314	10.45
361.682	10.34
362.051	10.38
362.42	10.42
362.788	10.43
363.157	10.48
363.525	10.62
363.894	10.57
364.262	10.92
364.631	10.86
364.999	10.77
365.367	10.66
365.735	10.84
366.104	10.85
366.472	10.63
366.84	10.67
367.208	11.01
367.576	10.64
367.944	11.01
368.312	10.98
368.68	11.14
369.048	11.37
369.416	11.17
369.783	10.8
370.151	10.92
370.519	11.41
370.886	11.52
371.254	11.88
371.621	11.79
371.989	11.57
372.356	11.62
372.724	11.83
373.091	11.63
373.458	11.67
373.826	11.92
374.193	11.89
374.56	11.81
374.927	11.97
375.294	11.61
375.661	12.18
376.028	11.79
376.395	12
376.762	12.22
377.129	12.02
377.496	12.4
377.863	12.2
378.229	11.89
378.596	12.09
378.963	12.13
379.329	12.19
379.696	12.12
380.062	12.67
380.429	12.63
380.795	12.53
381.161	12.47
381.528	12.71
381.894	12.4
382.26	12.81
382.626	12.48
382.993	12.97
383.359	12.78
383.725	12.7
384.091	12.61
384.457	12.8
384.823	12.87
385.188	12.92
385.554	13.14
385.92	12.89
386.286	12.95
386.651	13.18
387.017	12.99
387.383	13.26
387.748	13.01
388.114	13.06
388.479	13.91
388.845	13.61
389.21	13.79
389.575	13.65
389.94	13.49
390.306	13.38
390.671	13.57
391.036	13.62
391.401	13.92
391.766	13.63
392.131	13.44
392.496	13.76
392.861	13.83
393.226	13.84
393.591	13.72
393.956	14.21
394.32	13.82
394.685	14.06
395.05	14.31
395.414	14.07
395.779	14.18
396.143	14.2
396.508	14.37
396.872	14.25
397.236	14.35
397.601	14.04
397.965	14.64
398.329	14.18
398.694	14.56
399.058	14.52
399.422	14.38
399.786	14.5
400.15	14.53
400.514	14.48
400.878	14.81
401.242	14.61
401.605	14.7
401.969	14.86
402.333	14.67
402.697	14.78
403.06	14.88
403.424	14.97
403.787	14.82
404.151	15.08
404.514	15.12
404.878	15.07
405.241	15.07
405.604	15.18
405.968	15.17
406.331	15.2
406.694	14.91
407.057	15.09
407.42	15.11
407.783	15.25
408.146	15.36
408.509	15.28
408.872	15.65
409.235	15.49
409.598	15.59
409.961	15.78
410.323	15.57
410.686	15.83
411.049	15.86
411.411	15.73
411.774	15.88
412.136	15.84
412.499	15.88
412.861	15.79
413.223	15.85
413.586	15.9
413.948	16.29
414.31	16.04
414.672	16.15
415.035	16.44
415.397	16.09
415.759	16.22
416.121	16.22
416.483	16.33
416.845	16.33
417.206	16.12
417.568	16.29
417.93	16.41
418.292	16.3
418.653	16.34
419.015	16.32
419.377	16.39
419.738	16.48
420.1	16.55
420.461	16.44
420.822	16.33
421.184	16.52
421.545	16.47
421.906	16.58
422.267	16.34
422.629	16.56
422.99	16.52
423.351	16.51
423.712	16.39
424.073	16.66
424.434	16.62
424.795	16.76
425.155	16.73
425.516	16.76
425.877	16.81
426.238	16.82
426.598	16.84
426.959	16.87
427.32	16.89
427.68	17.12
428.041	16.95
428.401	17.29
428.761	17.31
429.122	17.48
429.482	17.36
429.842	17.19
430.202	17.56
430.563	17.67
430.923	17.81
431.283	17.55
431.643	17.72
432.003	17.95
432.363	17.86
432.722	17.65
433.082	17.89
433.442	17.77
433.802	17.67
434.161	17.93
434.521	17.7
434.881	17.97
435.24	17.72
435.6	18.25
435.959	18
436.319	18
436.678	18.05
437.037	18.13
437.396	18.25
437.756	18.35
438.115	18.15
438.474	18.32
438.833	18.6
439.192	18.42
439.551	18.37
439.91	18.34
440.269	18.56
440.628	18.57
440.987	18.46
441.345	18.49
441.704	18.56
442.063	18.57
442.421	18.52
442.78	18.55
443.138	18.67
443.497	18.53
443.855	18.56
444.214	18.68
444.572	18.63
444.93	18.72
445.288	18.93
445.647	19
446.005	19.17
446.363	19.01
446.721	18.93
447.079	19.06
447.437	18.91
447.795	18.99
448.153	18.92
448.51	18.98
448.868	18.98
449.226	18.96
449.584	19.08
449.941	18.96
450.299	19.12
450.656	19.26
451.014	19.24
451.371	19.57
451.729	19.53
452.086	19.52
452.443	19.73
452.801	19.72
453.158	19.87
453.515	19.9
453.872	19.65
454.229	19.98
454.586	19.74
454.943	19.96
455.3	20.1
455.657	19.82
456.014	20.09
456.371	20.19
456.727	20.18
457.084	20.28
457.441	20.29
457.797	20.35
458.154	20.24
458.51	20.39
458.867	20.51
459.223	20.46
459.58	20.65
459.936	20.27
460.292	20.44
460.648	20.39
461.005	20.36
461.361	20.34
461.717	20.46
462.073	20.44
462.429	20.45
462.785	20.24
463.141	20.51
463.496	20.48
463.852	20.78
464.208	20.65
464.564	20.71
464.919	21.05
465.275	20.99
465.631	21.18
465.986	21.19
466.342	21.21
466.697	20.97
467.052	21.1
467.408	21.23
467.763	21.39
468.118	21.26
468.473	21.38
468.829	21.28
469.184	21.35
469.539	21.43
469.894	21.54
470.249	21.49
470.603	21.57
470.958	21.63
471.313	21.64
471.668	21.62
472.023	21.46
472.377	21.69
472.732	22
473.086	22.01
473.441	21.88
473.795	21.99
474.15	21.93
474.504	21.89
474.859	21.96
475.213	22.02
475.567	22.08
475.921	21.99
476.275	22.1
476.63	21.98
476.984	22.21
477.338	22.22
477.692	22.39
478.045	22.38
478.399	22.25
478.753	22.52
479.107	22.32
479.461	22.43
479.814	22.37
480.168	22.51
480.521	22.3
480.875	22.55
481.228	22.5
481.582	22.58
481.935	22.62
482.289	22.77
482.642	22.62
482.995	22.56
483.348	22.61
483.701	22.67
484.055	22.42
484.408	22.43
484.761	22.28
485.114	21.92
485.466	21.98
485.819	22.1
486.172	22.18
486.525	22
486.878	21.98
487.23	21.93
487.583	22.09
487.936	22.33
488.288	22.4
488.641	22.46
488.993	22.48
489.345	22.48
489.698	22.39
490.05	22.53
490.402	22.48
490.754	22.47
491.107	22.6
491.459	22.63
491.811	22.77
492.163	23.02
492.515	23.2
492.866	23.03
493.218	22.95
493.57	23.08
493.922	23.11
494.274	22.91
494.625	22.99
494.977	23.09
495.328	23.31
495.68	23.43
496.031	23.73
496.383	23.8
496.734	23.99
497.086	24.08
497.437	24.19
497.788	24.01
498.139	24.02
498.49	23.97
498.842	24.1
499.193	24.14
499.544	24.2
499.894	24.02
500.245	24.24
500.596	24.39
500.947	24.22
501.298	24.32
501.648	24.48
501.999	24.53
502.35	24.51
502.7	24.65
503.051	24.73
503.401	24.66
503.752	24.69
504.102	24.96
504.452	24.82
504.803	24.88
505.153	24.94
505.503	25
505.853	25.03
506.203	25.12
506.553	25.05
506.903	24.97
507.253	24.97
507.603	25.08
507.953	24.92
508.303	25.23
508.652	25.07
509.002	25.34
509.352	25.55
509.701	25.29
510.051	25.28
510.4	25.28
510.75	25.25
511.099	25.28
511.449	25.29
511.798	25.32
512.147	25.41
512.496	25.33
512.846	25.51
513.195	25.59
513.544	25.42
513.893	25.48
514.242	25.59
514.591	25.7
514.939	25.84
515.288	25.71
515.637	25.73
515.986	25.76
516.334	26.08
516.683	26.09
517.032	25.88
517.38	26.16
517.729	26.22
518.077	26.1
518.426	26.13
518.774	26.1
519.122	26
519.47	26.1
519.819	25.95
520.167	25.91
520.515	25.85
520.863	25.91
521.211	25.97
521.559	25.88
521.907	25.97
522.255	26.2
522.602	26.24
522.95	26.31
523.298	26.55
523.645	26.41
523.993	26.54
524.341	26.44
524.688	26.65
525.036	26.75
525.383	26.68
525.73	26.75
526.078	26.74
526.425	26.84
526.772	26.81
527.119	26.66
527.466	26.56
527.814	26.66
528.161	26.63
528.508	26.41
528.854	26.49
529.201	26.53
529.548	26.54
529.895	26.27
530.242	26.27
530.588	26.43
530.935	26.56
531.282	26.41
531.628	26.21
531.975	26.23
532.321	26.45
532.667	26.49
533.014	26.83
533.36	26.91
533.706	27.01
534.052	27.2
534.399	27.1
534.745	26.98
535.091	26.93
535.437	27.09
535.783	27.05
536.129	27.03
536.474	26.99
536.82	27.01
537.166	27.29
537.512	27.53
537.857	27.49
538.203	27.45
538.549	27.58
538.894	27.72
539.239	27.71
539.585	27.58
539.93	27.76
540.276	27.88
540.621	28.12
540.966	28.09
541.311	28.08
541.656	28.12
542.001	27.97
542.346	28
542.691	27.91
543.036	27.75
543.381	27.83
543.726	27.81
544.071	27.76
544.415	27.63
544.76	27.63
545.105	27.81
545.449	27.93
545.794	28.27
546.138	28.17
546.483	28.33
546.827	28.37
547.171	28.63
547.516	28.67
547.86	28.67
548.204	28.63
548.548	28.52
548.892	28.5
549.236	28.74
549.58	28.78
549.924	28.84
550.268	29.07
550.612	29.06
550.956	28.89
551.3	29.1
551.643	29.56
551.987	29.3
552.33	29.59
552.674	29.66
553.017	29.55
553.361	29.77
553.704	29.39
554.048	29.81
554.391	29.76
554.734	29.73
555.077	29.73
555.42	29.71
555.764	29.84
556.107	29.63
556.45	29.72
556.793	30.02
557.135	29.88
557.478	30
557.821	30.19
558.164	30.08
558.507	30.19
558.849	30.31
559.192	30.34
559.534	30.17
559.877	30.44
560.219	30.35
560.562	30.35
560.904	30.31
561.246	30.31
561.589	30.48
561.931	30.53
562.273	30.61
562.615	30.39
562.957	30.61
563.299	30.83
563.641	30.71
563.983	30.39
564.325	30.54
564.667	30.87
565.008	30.66
565.35	30.83
565.692	30.9
566.033	31.11
566.375	30.96
566.716	30.96
567.058	30.91
567.399	30.9
567.741	31.06
568.082	30.87
568.423	30.95
568.764	30.95
569.105	30.95
569.447	30.97
569.788	30.98
570.129	31.03
570.47	31.17
570.811	31.33
571.151	31.11
571.492	31.38
571.833	31.34
572.174	31.37
572.514	31.25
572.855	31.13
573.195	31.35
573.536	31.51
573.876	31.34
574.217	31.4
574.557	31.41
574.898	31.36
575.238	31.33
575.578	31.41
575.918	31.6
576.258	31.64
576.598	31.6
576.938	31.94
577.278	31.81
577.618	31.66
577.958	31.65
578.298	31.78
578.638	31.79
578.977	31.98
579.317	31.78
579.657	32.09
579.996	32.15
580.336	32.13
580.675	31.93
581.014	32.23
581.354	32.46
581.693	32.46
582.032	32.59
582.372	32.58
582.711	32.62
583.05	32.67
583.389	32.19
583.728	32.48
584.067	32.62
584.406	32.64
584.745	32.79
585.083	32.61
585.422	32.66
585.761	33.01
586.1	33.07
586.438	32.92
586.777	32.86
587.115	32.78
587.454	33.2
587.792	33.2
588.13	32.98
588.469	33.09
588.807	33.18
589.145	33.02
589.483	33.19
589.821	33.47
590.159	33.07
590.497	33.32
590.835	33.33
591.173	33.22
591.511	33.5
591.849	33.49
592.187	33.35
592.524	33.71
592.862	33.19
593.2	33.4
593.537	33.47
593.875	33.28
594.212	33.59
594.55	33.55
594.887	33.6
595.224	33.55
595.561	33.31
595.899	33.25
596.236	33.82
596.573	33.37
596.91	33.58
597.247	33.59
597.584	33.59
597.921	33.94
598.258	33.79
598.594	33.49
598.931	33.77
599.268	33.79
599.604	33.69
599.941	33.78
600.277	33.71
600.614	33.63
600.95	33.96
601.287	33.71
601.623	34.14
601.959	34.36
602.296	34.22
602.632	34.47
602.968	34.31
603.304	34.36
603.64	34.1
603.976	34.2
604.312	34.68
604.648	34.46
604.984	34.47
605.319	34.47
605.655	34.41
605.991	34.46
606.326	34.35
606.662	34.28
606.998	34.53
607.333	34.27
607.668	34.71
608.004	34.35
608.339	34.47
608.674	34.63
609.01	34.53
609.345	34.82
609.68	34.91
610.015	35.12
610.35	35.19
610.685	35.09
611.02	35.03
611.355	35.15
611.689	34.85
612.024	35.17
612.359	34.71
612.694	35.06
613.028	34.84
613.363	35.08
613.697	34.94
614.032	35.21
614.366	35.52
614.7	35
615.035	35.36
615.369	35.61
615.703	35.95
616.037	35.27
616.371	35.76
616.705	35.47
617.039	35.82
617.373	35.83
617.707	36.06
618.041	35.89
618.375	35.59
618.709	35.8
619.042	36.06
619.376	36.27
619.71	35.77
620.043	35.85
620.377	36.04
620.71	36.31
621.043	35.72
621.377	36
621.71	36.23
622.043	36.03
622.376	36.37
622.709	36
623.043	36
623.376	36.65
623.709	36.27
624.041	36.23
624.374	36.23
624.707	36.29
625.04	36.36
625.373	36.67
625.705	36.4
626.038	36.39
626.37	36.81
626.703	36.74
627.035	36.18
627.368	36.44
627.7	36.68
628.032	36.51
628.365	36.89
628.697	36.84
629.029	36.46
629.361	36.46
629.693	37.05
630.025	36.98
630.357	36.53
630.689	36.56
631.021	36.65
631.353	36.75
631.684	36.67
632.016	36.67
632.348	36.88
632.679	37.17
633.011	37.03
633.342	37.07
633.674	36.91
634.005	36.83
634.336	37.27
634.668	37.16
634.999	37.06
635.33	37.06
635.661	36.94
635.992	37.6
636.323	36.61
636.654	37.41
636.985	37.57
637.316	37.44
637.647	37.32
637.977	37.45
638.308	37.64
638.639	37.73
638.969	37.36
639.3	37.79
639.63	37.56
639.961	37.59
640.291	37.77
640.622	38.46
640.952	38.14
641.282	37.55
641.612	37.97
641.943	37.99
642.273	37.79
642.603	37.86
642.933	37.91
643.263	37.26
643.592	37.99
643.922	38.82
644.252	37.97
644.582	37.91
644.911	37.89
645.241	37.87
645.571	37.69
645.9	37.98
646.23	38.35
646.559	38.71
646.888	38.11
647.218	38.36
647.547	38.51
647.876	38.13
648.205	38.3
648.534	38.53
648.863	38.61
649.192	38.41
649.521	38.18
649.85	38.47
650.179	38.52
650.508	38.78
650.837	39.03
651.165	38.49
651.494	38.71
651.822	39.01
652.151	38.66
652.479	38.73
652.808	38.08
653.136	38.59
653.465	38.76
653.793	38.8
654.121	38.74
654.449	38.66
654.777	38.78
655.105	39.21
655.433	39.25
655.761	38.64
656.089	39.09
656.417	38.89
656.745	38.87
657.073	38.87
657.4	39.25
657.728	38.82
658.056	39.01
658.383	39.54
658.711	38.69
659.038	38.86
659.365	39.4
659.693	39.72
660.02	39.22
660.347	38.92
660.674	39.28
661.001	39.24
661.329	39.61
661.656	39.28
661.982	39.03
662.309	39.36
662.636	39.29
662.963	39.02
663.29	39.03
663.616	39.38
663.943	39.85
664.27	38.85
664.596	40.39
664.923	39.87
665.249	39.85
665.576	40.05
665.902	38.92
666.228	39.49
666.554	40.21
666.881	39.44
667.207	39.91
667.533	40.04
667.859	40.34
668.185	40.12
668.511	39.96
668.837	39.68
669.162	40.48
669.488	40
669.814	39.93
670.139	40.59
670.465	40.43
670.791	40.54
671.116	39.97
671.442	40.4
671.767	40.41
