Data from 0043_chest_Reflection__1__136.txt Node

Date: Fri Nov 04 15:58:08 CDT 2022
User: ToomeyLab
Spectrometer: FLMS14357
Trigger mode: 0
Integration Time (sec): 1.000000E-2
Scans to average: 100
Electric dark correction enabled: true
Nonlinearity correction enabled: false
Boxcar width: 0
XAxis mode: Wavelengths
Number of Pixels in Spectrum: 2048
>>>>>Begin Spectral Data<<<<<
189.047	-105.42
189.435	-105.42
189.823	-105.42
190.211	21.25
190.599	170.17
190.987	-41.07
191.375	84.06
191.763	-533.09
192.151	-35.32
192.538	18.71
192.926	111.36
193.314	283.81
193.702	167.11
194.089	203.97
194.477	-26.27
194.864	215.49
195.252	126.45
195.639	119.92
196.027	98.31
196.414	-1118.33
196.801	104.91
197.189	169.07
197.576	-119.42
197.963	-72
198.351	-44.27
198.738	29.89
199.125	23.03
199.512	-86.16
199.899	4.04
200.286	-17.86
200.673	-9.04
201.06	0.6
201.447	-4.66
201.833	8.06
202.22	3.97
202.607	25.52
202.994	-5.21
203.38	61.17
203.767	2.1
204.154	35.17
204.54	0.3
204.927	-1.39
205.313	9.93
205.699	38.67
206.086	21.96
206.472	-8.97
206.858	-2.4
207.245	-11.37
207.631	29.95
208.017	20.24
208.403	9.65
208.789	36.02
209.175	2.06
209.561	-48.6
209.947	-46.68
210.333	31.34
210.719	50.57
211.105	-17.85
211.491	19.79
211.876	10.13
212.262	11.86
212.648	-31.2
213.034	41.71
213.419	-26.62
213.805	22.03
214.19	-33.19
214.576	-14.87
214.961	7.71
215.346	11.96
215.732	-4.78
216.117	3.53
216.502	29.57
216.888	-17.41
217.273	15.97
217.658	9.27
218.043	19.14
218.428	23.41
218.813	13.66
219.198	17.81
219.583	-18.35
219.968	9.3
220.353	-33.34
220.738	-21.16
221.122	8.13
221.507	13.86
221.892	6.33
222.276	-3.94
222.661	10.08
223.046	4.42
223.43	-6.26
223.815	-5.04
224.199	10.32
224.583	3.85
224.968	-5.58
225.352	2.12
225.736	2.08
226.121	-9.73
226.505	4.56
226.889	1.63
227.273	10.44
227.657	2.17
228.041	7.05
228.425	3.52
228.809	4.27
229.193	4.84
229.577	1.95
229.961	5.19
230.344	4.47
230.728	4.41
231.112	3.72
231.495	3.56
231.879	4.38
232.263	3.01
232.646	3.41
233.03	3
233.413	2.64
233.797	3
234.18	3.49
234.563	4.7
234.946	3.42
235.33	5.28
235.713	4.32
236.096	3.84
236.479	2.3
236.862	2.9
237.245	3.65
237.628	4.19
238.011	3.45
238.394	4.47
238.777	4.31
239.16	3.89
239.543	3.72
239.925	3.59
240.308	4.53
240.691	2.99
241.073	2.17
241.456	3.93
241.838	4.4
242.221	3.78
242.603	2.82
242.986	3.64
243.368	4.2
243.75	4.22
244.133	3.81
244.515	4.19
244.897	3.63
245.279	4.02
245.661	4.32
246.043	4.85
246.425	4.14
246.807	3.87
247.189	3.44
247.571	4.35
247.953	4.18
248.335	3.64
248.717	3.9
249.098	3.79
249.48	3.87
249.862	4.05
250.243	3.8
250.625	3.46
251.006	3.71
251.388	4.08
251.769	4.5
252.151	4.31
252.532	3.92
252.913	3.4
253.295	3.58
253.676	3.74
254.057	3.3
254.438	3.77
254.819	4
255.2	3.25
255.581	4.67
255.962	3.72
256.343	2.13
256.724	3.45
257.105	3.4
257.486	3.6
257.867	5.6
258.247	4.29
258.628	3.03
259.009	3.9
259.389	3.66
259.77	3.74
260.15	3.95
260.531	3.67
260.911	3.49
261.292	3.48
261.672	3.54
262.052	3.4
262.432	3.58
262.813	3.33
263.193	3.04
263.573	3.47
263.953	3.8
264.333	3.33
264.713	4.19
265.093	3.4
265.473	3.75
265.853	2.47
266.233	3.66
266.612	3.91
266.992	4.35
267.372	2.87
267.752	3.77
268.131	3.48
268.511	3.3
268.89	4.06
269.27	3.36
269.649	3.76
270.029	2.82
270.408	3.57
270.787	3.22
271.167	3.05
271.546	3.88
271.925	3.51
272.304	2.87
272.683	3.34
273.062	3.37
273.441	3.51
273.82	3.31
274.199	3.51
274.578	3.32
274.957	3.38
275.336	3.37
275.715	3.29
276.093	3.2
276.472	3.07
276.851	2.89
277.229	3.7
277.608	3.08
277.986	3.48
278.365	3.51
278.743	3.45
279.122	3.63
279.5	3.4
279.878	3.65
280.257	3.15
280.635	3.02
281.013	3.4
281.391	3.53
281.769	3.32
282.147	3.05
282.525	3.44
282.903	3.27
283.281	4.03
283.659	3.59
284.037	3.22
284.415	2.96
284.792	3.34
285.17	3.23
285.548	3.76
285.925	3.28
286.303	3.75
286.68	3.66
287.058	3.17
287.435	3.37
287.813	3.43
288.19	3.44
288.567	3.4
288.945	3.33
289.322	3.51
289.699	3.21
290.076	3.44
290.453	3.2
290.83	2.95
291.207	3.35
291.584	3.3
291.961	3.62
292.338	3.38
292.715	3.35
293.092	3.75
293.469	3.16
293.845	3.2
294.222	3.2
294.599	2.9
294.975	2.98
295.352	3.04
295.728	3.35
296.105	3.31
296.481	3.43
296.858	3.46
297.234	3.49
297.61	3.39
297.986	3.06
298.363	3.16
298.739	3.23
299.115	3.56
299.491	3.24
299.867	3.42
300.243	3.42
300.619	3.69
300.995	3.71
301.371	3.82
301.746	3.18
302.122	3.42
302.498	3.15
302.874	3.35
303.249	2.58
303.625	3.26
304	3.5
304.376	3.36
304.751	3.41
305.127	2.92
305.502	3.26
305.878	3.42
306.253	3.66
306.628	2.74
307.003	3.63
307.378	3.16
307.754	3.52
308.129	2.86
308.504	3.38
308.879	3.72
309.254	3.83
309.629	3.64
310.003	3.46
310.378	3.57
310.753	3.36
311.128	3.1
311.502	2.87
311.877	3.5
312.252	2.78
312.626	3.06
313.001	3.33
313.375	3.43
313.75	3.21
314.124	3.21
314.498	3.42
314.873	3.59
315.247	3.32
315.621	3.43
315.995	3.71
316.369	3.74
316.743	3.49
317.117	3.37
317.491	3.52
317.865	3.14
318.239	3.19
318.613	3.7
318.987	3.5
319.361	3.38
319.734	3.22
320.108	3.53
320.482	2.85
320.855	3.62
321.229	2.75
321.602	3.7
321.976	3.24
322.349	3.64
322.723	2.75
323.096	3.46
323.469	3.54
323.843	2.87
324.216	3.24
324.589	2.88
324.962	3.48
325.335	3.67
325.708	3.26
326.081	3.03
326.454	3.51
326.827	3.24
327.2	3.22
327.573	3.17
327.945	3.17
328.318	3.24
328.691	3.43
329.063	2.8
329.436	3.36
329.809	3.48
330.181	3.61
330.553	3.23
330.926	3.42
331.298	3.5
331.671	3.45
332.043	3.53
332.415	3.05
332.787	2.99
333.159	2.95
333.532	3.37
333.904	3.19
334.276	3.59
334.648	3.61
335.02	2.91
335.391	3.38
335.763	3.81
336.135	3.37
336.507	3.77
336.879	3.68
337.25	3.16
337.622	3.51
337.993	3.7
338.365	3.38
338.736	3.68
339.108	3.59
339.479	3.46
339.851	2.87
340.222	2.94
340.593	3.34
340.964	3.36
341.336	3.2
341.707	2.74
342.078	3.47
342.449	3.67
342.82	3.28
343.191	3.05
343.562	3.07
343.933	3.35
344.303	3.36
344.674	3.45
345.045	2.97
345.416	3.2
345.786	3.51
346.157	3.29
346.527	3.76
346.898	3.63
347.268	3.22
347.639	2.81
348.009	3.62
348.38	3.55
348.75	3.12
349.12	3.33
349.49	3.67
349.861	3.17
350.231	3.71
350.601	3.08
350.971	3.37
351.341	3.43
351.711	3.47
352.081	3.24
352.45	3.45
352.82	3.53
353.19	3.35
353.56	3.54
353.929	3.37
354.299	3.62
354.669	3.43
355.038	3.61
355.408	3
355.777	3.07
356.147	3.18
356.516	3.16
356.885	3.46
357.254	3.39
357.624	3.37
357.993	3.02
358.362	3.03
358.731	3.33
359.1	3.62
359.469	3.53
359.838	3.49
360.207	3.32
360.576	3.62
360.945	3.65
361.314	3.91
361.682	3.42
362.051	3.63
362.42	3.35
362.788	3.44
363.157	3.31
363.525	3.59
363.894	3.52
364.262	3.34
364.631	3.75
364.999	3.45
365.367	3.22
365.735	3.8
366.104	3.33
366.472	3.53
366.84	3.01
367.208	3.8
367.576	3.45
367.944	3.8
368.312	3.68
368.68	3.56
369.048	3.16
369.416	3.42
369.783	3.24
370.151	3.19
370.519	3.77
370.886	3.45
371.254	3.53
371.621	3.59
371.989	3.29
372.356	3.3
372.724	3.53
373.091	3.23
373.458	3.6
373.826	3.4
374.193	3.25
374.56	3.11
374.927	3.88
375.294	3.33
375.661	3.58
376.028	3.44
376.395	3.6
376.762	3.82
377.129	3.7
377.496	3.68
377.863	3.72
378.229	3.12
378.596	3.24
378.963	3.36
379.329	3.37
379.696	3.44
380.062	3.81
380.429	3.75
380.795	3.4
381.161	3.44
381.528	3.81
381.894	3.38
382.26	3.62
382.626	3.23
382.993	3.43
383.359	3.3
383.725	3.42
384.091	3.51
384.457	3.72
384.823	3.52
385.188	3.48
385.554	3.35
385.92	3.33
386.286	3.5
386.651	3.37
387.017	3.61
387.383	3.38
387.748	3.35
388.114	3.15
388.479	4.07
388.845	3.72
389.21	3.84
389.575	3.75
389.94	3.45
390.306	3.43
390.671	3.68
391.036	3.51
391.401	3.78
391.766	3.4
392.131	3.66
392.496	3.64
392.861	3.73
393.226	3.64
393.591	3.58
393.956	3.64
394.32	3.36
394.685	3.81
395.05	3.78
395.414	3.51
395.779	3.66
396.143	3.46
396.508	3.62
396.872	3.68
397.236	3.72
397.601	3.46
397.965	3.85
398.329	3.74
398.694	3.68
399.058	3.64
399.422	3.66
399.786	3.73
400.15	3.72
400.514	3.59
400.878	3.67
401.242	3.54
401.605	3.38
401.969	3.77
402.333	3.77
402.697	3.49
403.06	3.79
403.424	3.7
403.787	3.53
404.151	3.71
404.514	3.94
404.878	3.69
405.241	3.77
405.604	3.82
405.968	3.68
406.331	3.66
406.694	3.64
407.057	3.84
407.42	3.63
407.783	3.46
408.146	3.67
408.509	3.66
408.872	3.71
409.235	3.61
409.598	3.78
409.961	3.94
410.323	3.63
410.686	3.69
411.049	3.58
411.411	3.6
411.774	3.85
412.136	3.78
412.499	3.87
412.861	3.73
413.223	3.45
413.586	3.62
413.948	3.91
414.31	3.59
414.672	3.75
415.035	3.99
415.397	3.77
415.759	3.82
416.121	3.47
416.483	3.74
416.845	3.82
417.206	3.6
417.568	3.9
417.93	3.65
418.292	3.7
418.653	3.88
419.015	3.51
419.377	3.78
419.738	3.7
420.1	3.81
420.461	3.77
420.822	3.63
421.184	3.68
421.545	3.6
421.906	3.59
422.267	3.61
422.629	3.72
422.99	3.61
423.351	3.52
423.712	3.71
424.073	3.64
424.434	3.54
424.795	3.58
425.155	3.72
425.516	3.75
425.877	3.58
426.238	3.63
426.598	3.65
426.959	3.65
427.32	3.61
427.68	3.69
428.041	3.66
428.401	3.75
428.761	3.78
429.122	3.7
429.482	3.96
429.842	3.61
430.202	3.82
430.563	3.76
430.923	3.8
431.283	3.77
431.643	3.92
432.003	3.96
432.363	3.79
432.722	3.71
433.082	3.85
433.442	3.82
433.802	3.66
434.161	3.88
434.521	3.69
434.881	3.93
435.24	3.56
435.6	3.85
435.959	3.76
436.319	3.76
436.678	3.72
437.037	3.94
437.396	3.95
437.756	3.9
438.115	3.81
438.474	3.78
438.833	3.92
439.192	3.85
439.551	3.75
439.91	3.89
440.269	3.8
440.628	3.91
440.987	3.88
441.345	3.85
441.704	3.81
442.063	3.71
442.421	3.77
442.78	3.83
443.138	3.84
443.497	3.85
443.855	3.8
444.214	3.87
444.572	3.8
444.93	3.71
445.288	3.88
445.647	3.76
446.005	3.81
446.363	3.84
446.721	3.72
447.079	3.78
447.437	3.89
447.795	3.83
448.153	3.77
448.51	3.89
448.868	3.76
449.226	3.68
449.584	3.74
449.941	3.62
450.299	3.81
450.656	3.78
451.014	3.97
451.371	3.94
451.729	3.94
452.086	3.87
452.443	3.83
452.801	3.92
453.158	3.86
453.515	3.97
453.872	3.82
454.229	3.95
454.586	3.76
454.943	4
455.3	3.87
455.657	3.83
456.014	3.82
456.371	3.79
456.727	3.87
457.084	4.05
457.441	3.96
457.797	3.93
458.154	4.04
458.51	4.04
458.867	3.89
459.223	3.94
459.58	4.21
459.936	3.89
460.292	3.85
460.648	3.91
461.005	3.85
461.361	3.87
461.717	3.89
462.073	3.89
462.429	3.96
462.785	3.91
463.141	3.9
463.496	3.8
463.852	3.92
464.208	3.94
464.564	3.9
464.919	4.02
465.275	4.11
465.631	4.05
465.986	4.09
466.342	3.93
466.697	3.96
467.052	3.94
467.408	3.96
467.763	3.97
468.118	4.15
468.473	4.18
468.829	4.05
469.184	4.1
469.539	4.01
469.894	4.13
470.249	3.85
470.603	4.06
470.958	3.94
471.313	3.86
471.668	3.78
472.023	3.92
472.377	4.07
472.732	3.96
473.086	4.03
473.441	4.06
473.795	3.98
474.15	4.17
474.504	3.95
474.859	3.96
475.213	3.97
475.567	4.02
475.921	3.97
476.275	4.09
476.63	4.15
476.984	4.05
477.338	4.14
477.692	4.18
478.045	3.99
478.399	4.02
478.753	4.22
479.107	3.99
479.461	4.21
479.814	4.19
480.168	3.97
480.521	3.95
480.875	4.02
481.228	4.14
481.582	3.97
481.935	4.07
482.289	4.06
482.642	4.03
482.995	4.05
483.348	3.97
483.701	4.03
484.055	3.88
484.408	4.02
484.761	4
485.114	3.84
485.466	3.84
485.819	3.82
486.172	3.83
486.525	3.81
486.878	3.93
487.23	3.91
487.583	3.93
487.936	3.91
488.288	3.95
488.641	3.98
488.993	3.9
489.345	3.87
489.698	3.88
490.05	3.95
490.402	3.91
490.754	3.93
491.107	3.96
491.459	4.02
491.811	3.95
492.163	4.09
492.515	4.17
492.866	4.01
493.218	4.03
493.57	3.96
493.922	4.03
494.274	3.96
494.625	4.02
494.977	4
495.328	4.08
495.68	4.05
496.031	4.02
496.383	4.29
496.734	4.14
497.086	4.24
497.437	4.24
497.788	4.29
498.139	4.15
498.49	4.12
498.842	4.22
499.193	4.14
499.544	4.16
499.894	4.1
500.245	4.18
500.596	4.13
500.947	4.23
501.298	4.12
501.648	4.19
501.999	4.38
502.35	4.23
502.7	4.22
503.051	4.22
503.401	4.19
503.752	4.21
504.102	4.35
504.452	4.28
504.803	4.25
505.153	4.11
505.503	4.21
505.853	4.33
506.203	4.28
506.553	4.37
506.903	4.24
507.253	4.15
507.603	4.24
507.953	4.33
508.303	4.28
508.652	4.27
509.002	4.42
509.352	4.37
509.701	4.42
510.051	4.36
510.4	4.28
510.75	4.38
511.099	4.28
511.449	4.18
511.798	4.22
512.147	4.36
512.496	4.31
512.846	4.26
513.195	4.36
513.544	4.31
513.893	4.37
514.242	4.26
514.591	4.33
514.939	4.36
515.288	4.39
515.637	4.31
515.986	4.21
516.334	4.41
516.683	4.51
517.032	4.35
517.38	4.47
517.729	4.34
518.077	4.48
518.426	4.42
518.774	4.42
519.122	4.35
519.47	4.34
519.819	4.4
520.167	4.5
520.515	4.35
520.863	4.32
521.211	4.37
521.559	4.43
521.907	4.38
522.255	4.47
522.602	4.47
522.95	4.46
523.298	4.46
523.645	4.57
523.993	4.47
524.341	4.51
524.688	4.67
525.036	4.56
525.383	4.63
525.73	4.58
526.078	4.54
526.425	4.63
526.772	4.49
527.119	4.56
527.466	4.53
527.814	4.51
528.161	4.43
528.508	4.51
528.854	4.5
529.201	4.48
529.548	4.52
529.895	4.43
530.242	4.37
530.588	4.41
530.935	4.42
531.282	4.45
531.628	4.42
531.975	4.47
532.321	4.53
532.667	4.5
533.014	4.62
533.36	4.69
533.706	4.64
534.052	4.6
534.399	4.7
534.745	4.63
535.091	4.56
535.437	4.57
535.783	4.57
536.129	4.67
536.474	4.63
536.82	4.64
537.166	4.73
537.512	4.73
537.857	4.71
538.203	4.63
538.549	4.73
538.894	4.82
539.239	4.81
539.585	4.73
539.93	4.83
540.276	4.8
540.621	4.77
540.966	4.81
541.311	4.77
541.656	4.85
542.001	5.02
542.346	4.82
542.691	4.76
543.036	4.78
543.381	4.75
543.726	4.78
544.071	4.8
544.415	4.81
544.76	4.85
545.105	4.83
545.449	4.88
545.794	4.96
546.138	4.92
546.483	4.97
546.827	4.96
547.171	5
547.516	5.1
547.86	5.04
548.204	5
548.548	5.06
548.892	5.08
549.236	5
549.58	5.08
549.924	5.16
550.268	5.29
550.612	5.01
550.956	5.2
551.3	5.2
551.643	5.19
551.987	5.25
552.33	5.28
552.674	5.12
553.017	5.36
553.361	5.35
553.704	5.19
554.048	5.41
554.391	5.27
554.734	5.36
555.077	5.4
555.42	5.5
555.764	5.49
556.107	5.45
556.45	5.49
556.793	5.43
557.135	5.45
557.478	5.3
557.821	5.58
558.164	5.49
558.507	5.52
558.849	5.78
559.192	5.52
559.534	5.46
559.877	5.72
560.219	5.42
560.562	5.55
560.904	5.86
561.246	5.61
561.589	5.69
561.931	5.54
562.273	5.85
562.615	5.48
562.957	5.63
563.299	5.63
563.641	5.68
563.983	5.6
564.325	5.75
564.667	5.76
565.008	5.7
565.35	5.9
565.692	6.11
566.033	5.9
566.375	5.63
566.716	5.77
567.058	5.98
567.399	5.96
567.741	6.04
568.082	6.02
568.423	6.01
568.764	5.98
569.105	5.93
569.447	5.87
569.788	6.02
570.129	6.04
570.47	6.03
570.811	6.06
571.151	6.01
571.492	6.14
571.833	6.11
572.174	6.17
572.514	6.19
572.855	6.09
573.195	6.22
573.536	6.24
573.876	6.16
574.217	6.1
574.557	6.15
574.898	6.32
575.238	6.24
575.578	6.54
575.918	6.24
576.258	6.4
576.598	6.56
576.938	6.4
577.278	6.18
577.618	6.24
577.958	6.49
578.298	6.48
578.638	6.46
578.977	6.64
579.317	6.46
579.657	6.54
579.996	6.5
580.336	6.57
580.675	6.43
581.014	6.84
581.354	6.75
581.693	6.84
582.032	6.51
582.372	6.88
582.711	6.81
583.05	6.79
583.389	6.62
583.728	6.86
584.067	6.95
584.406	6.84
584.745	7.16
585.083	6.92
585.422	7.18
585.761	7.03
586.1	6.94
586.438	6.61
586.777	7.1
587.115	6.82
587.454	7.25
587.792	7.18
588.13	7.11
588.469	7.23
588.807	7.31
589.145	7.06
589.483	7.21
589.821	7.33
590.159	7.19
590.497	7.53
590.835	7.15
591.173	7.23
591.511	7.4
591.849	7.47
592.187	7.43
592.524	7.42
592.862	7.32
593.2	7.52
593.537	7.39
593.875	7.44
594.212	7.64
594.55	7.6
594.887	7.58
595.224	7.51
595.561	7.36
595.899	7.47
596.236	7.98
596.573	7.7
596.91	7.69
597.247	7.63
597.584	7.71
597.921	7.8
598.258	7.91
598.594	7.46
598.931	7.74
599.268	7.8
599.604	7.83
599.941	8.03
600.277	7.93
600.614	7.79
600.95	8.06
601.287	7.94
601.623	7.9
601.959	8.26
602.296	8.19
602.632	8.2
602.968	8.18
603.304	8.22
603.64	8.19
603.976	7.79
604.312	8.18
604.648	8.39
604.984	8.19
605.319	8.2
605.655	8.33
605.991	8.38
606.326	8.25
606.662	8.28
606.998	8.33
607.333	8.27
607.668	8.55
608.004	8.44
608.339	8.45
608.674	8.73
609.01	8.5
609.345	8.54
609.68	8.54
610.015	8.76
610.35	8.77
610.685	8.89
611.02	8.75
611.355	8.67
611.689	8.73
612.024	8.67
612.359	8.71
612.694	8.71
613.028	8.98
613.363	9.03
613.697	8.85
614.032	8.86
614.366	8.86
614.7	9.26
615.035	9.3
615.369	8.9
615.703	9.22
616.037	9.12
616.371	9.24
616.705	9.13
617.039	9.6
617.373	9.51
617.707	9.52
618.041	9.29
618.375	9.39
618.709	9.49
619.042	9.37
619.376	9.35
619.71	9.62
620.043	9.87
620.377	9.84
620.71	9.57
621.043	9.24
621.377	9.42
621.71	9.82
622.043	9.78
622.376	9.82
622.709	9.83
623.043	9.93
623.376	10.38
623.709	9.76
624.041	9.9
624.374	10.07
624.707	9.77
625.04	10.19
625.373	10.31
625.705	9.68
626.038	9.76
626.37	10.19
626.703	10.4
627.035	9.91
627.368	10.03
627.7	9.79
628.032	9.85
628.365	10.31
628.697	10.29
629.029	10.12
629.361	10.12
629.693	10.29
630.025	10.19
630.357	10.23
630.689	10.26
631.021	10.24
631.353	10.54
631.684	10.45
632.016	10.4
632.348	10.54
632.679	10.67
633.011	10.59
633.342	10.53
633.674	10.83
634.005	11.27
634.336	11.12
634.668	10.69
634.999	11
635.33	10.67
635.661	11.03
635.992	10.96
636.323	11.04
636.654	10.92
636.985	11.12
637.316	10.95
637.647	10.82
637.977	11.12
638.308	11.48
638.639	11.19
638.969	11.04
639.3	11.63
639.63	10.88
639.961	11.11
640.291	11.51
640.622	11.57
640.952	11.71
641.282	11.63
641.612	11.42
641.943	11.45
642.273	11.05
642.603	11.41
642.933	11.13
643.263	11.31
643.592	11.04
643.922	12.06
644.252	11.68
644.582	11.32
644.911	11.92
645.241	11.44
645.571	11.61
645.9	11.61
646.23	11.48
646.559	12.09
646.888	11.75
647.218	12.17
647.547	11.37
647.876	12.1
648.205	11.24
648.534	12.49
648.863	12.04
649.192	11.97
649.521	11.93
649.85	12.47
650.179	12
650.508	11.85
650.837	12.46
651.165	12.32
651.494	12.66
651.822	12.5
652.151	12.41
652.479	12.75
652.808	11.92
653.136	12.54
653.465	12.79
653.793	12.81
654.121	12.46
654.449	11.99
654.777	12.52
655.105	12.51
655.433	12.7
655.761	12.44
656.089	12.48
656.417	12.7
656.745	12.26
657.073	12.65
657.4	12.77
657.728	13.13
658.056	12.35
658.383	13.31
658.711	12.6
659.038	13.39
659.365	13.42
659.693	13.22
660.02	13.41
660.347	12.84
660.674	13.43
661.001	13.35
661.329	13.28
661.656	13.82
661.982	13.15
662.309	13.26
662.636	13.28
662.963	13.12
663.29	12.84
663.616	13.67
663.943	13.3
664.27	13.76
664.596	13.58
664.923	13.47
665.249	13.99
665.576	13.77
665.902	12.66
666.228	13.19
666.554	14.66
666.881	13.87
667.207	14.02
667.533	14.38
667.859	13.59
668.185	13.15
668.511	13.8
668.837	13.66
669.162	14.28
669.488	13.51
669.814	13.55
670.139	14.5
670.465	14.06
670.791	14.48
671.116	13.84
671.442	14.45
671.767	14.11
672.092	13.79
672.418	14.25
672.743	14.86
673.068	14.56
673.393	14.53
673.718	14.82
674.043	14.48
674.368	13.82
674.693	15.04
675.018	14.62
675.343	14.3
675.667	14.48
675.992	14.56
676.317	14.3
676.641	14.71
676.966	14.4
677.29	14.77
677.615	14.94
677.939	14.61
678.264	15.15
678.588	15.13
678.912	15.45
679.236	14.72
679.56	15.08
679.885	15.14
680.209	15.07
680.532	15.1
680.856	14.93
681.18	15.13
681.504	15.15
681.828	15.19
682.152	15.41
682.475	15.78
682.799	15.53
683.122	15.44
683.446	15.02
683.769	15.34
684.093	15.17
684.416	15.25
684.739	15.71
685.062	15.99
685.386	15.16
685.709	15.57
686.032	16.45
686.355	16.47
686.678	16.07
687.001	15.66
687.324	16.28
687.646	16.61
687.969	16.14
688.292	16.36
