Data from 0043_crown_Reflection__2__142.txt Node

Date: Fri Nov 04 16:00:23 CDT 2022
User: ToomeyLab
Spectrometer: FLMS14357
Trigger mode: 0
Integration Time (sec): 1.000000E-2
Scans to average: 100
Electric dark correction enabled: true
Nonlinearity correction enabled: false
Boxcar width: 0
XAxis mode: Wavelengths
Number of Pixels in Spectrum: 2048
>>>>>Begin Spectral Data<<<<<
189.047	-83.74
189.435	-83.74
189.823	-83.74
190.211	54.52
190.599	-0.57
190.987	70.79
191.375	86.89
191.763	-376.13
192.151	-38.87
192.538	-107.02
192.926	13.2
193.314	187.64
193.702	59.62
194.089	118.22
194.477	71.2
194.864	-189.2
195.252	118.35
195.639	-83.82
196.027	126.59
196.414	110.56
196.801	34.33
197.189	177.22
197.576	256.73
197.963	37.15
198.351	-2.78
198.738	34.45
199.125	24.44
199.512	-22.48
199.899	17.47
200.286	12.62
200.673	-13.82
201.06	-14.33
201.447	-11.57
201.833	0.21
202.22	-5.25
202.607	32.36
202.994	65.28
203.38	-3.71
203.767	-6.98
204.154	31.95
204.54	-39.62
204.927	10.91
205.313	29.62
205.699	0.52
206.086	-10.4
206.472	-14.1
206.858	-7.21
207.245	13.89
207.631	13.34
208.017	-2
208.403	13.9
208.789	43.17
209.175	2.1
209.561	-45.23
209.947	-41.32
210.333	33.2
210.719	-5.54
211.105	0.58
211.491	41.92
211.876	47.92
212.262	-53.18
212.648	-18.34
213.034	15.51
213.419	8.68
213.805	-5.75
214.19	-25.45
214.576	-20.21
214.961	27.81
215.346	10.85
215.732	1.37
216.117	-3.47
216.502	43.08
216.888	-9.88
217.273	16.63
217.658	-5.67
218.043	-19.17
218.428	25.54
218.813	-13.24
219.198	2.3
219.583	-11.82
219.968	6.61
220.353	-34.58
220.738	-29.06
221.122	4.49
221.507	18.5
221.892	-9.73
222.276	11.88
222.661	9.06
223.046	7.78
223.43	-11.55
223.815	-9.43
224.199	10.43
224.583	2.05
224.968	-3.58
225.352	0.72
225.736	-2.93
226.121	-1.61
226.505	8.29
226.889	3.71
227.273	0.37
227.657	-5.67
228.041	0.66
228.425	-2.55
228.809	0.46
229.193	4.08
229.577	2.89
229.961	3.28
230.344	1.92
230.728	1.3
231.112	0.77
231.495	1.39
231.879	2.51
232.263	1.59
232.646	1.25
233.03	0.82
233.413	-0.45
233.797	0.72
234.18	1.5
234.563	3.29
234.946	-0.15
235.33	2.96
235.713	0.32
236.096	4.17
236.479	1.27
236.862	1.28
237.245	0.78
237.628	1.37
238.011	-0.08
238.394	2.53
238.777	1.99
239.16	2.61
239.543	-0.12
239.925	2.71
240.308	2.05
240.691	1.89
241.073	1.37
241.456	0.77
241.838	0.67
242.221	1.04
242.603	0.64
242.986	1.29
243.368	1.79
243.75	1.86
244.133	1.63
244.515	1.01
244.897	1.41
245.279	1.28
245.661	1.72
246.043	2.26
246.425	1.34
246.807	2.32
247.189	1.34
247.571	2.29
247.953	1.42
248.335	1.13
248.717	1.49
249.098	1.33
249.48	1.37
249.862	1.62
250.243	1.4
250.625	1.02
251.006	0.7
251.388	1.21
251.769	2.21
252.151	1.57
252.532	2.14
252.913	1.35
253.295	1.22
253.676	1.25
254.057	1.13
254.438	1.33
254.819	1.34
255.2	1.54
255.581	2.16
255.962	1.52
256.343	1.33
256.724	0.91
257.105	1.32
257.486	1.7
257.867	3.32
258.247	0.94
258.628	0.58
259.009	0.29
259.389	0.96
259.77	1.47
260.15	1.19
260.531	1.4
260.911	1.31
261.292	1.17
261.672	1.36
262.052	1.23
262.432	1.39
262.813	1.02
263.193	0.98
263.573	1.61
263.953	1.1
264.333	1.46
264.713	1.52
265.093	1.07
265.473	1.86
265.853	0.66
266.233	1.48
266.612	1.1
266.992	1.83
267.372	0.65
267.752	1.16
268.131	1.44
268.511	1.64
268.89	1.78
269.27	1.48
269.649	1.33
270.029	1.18
270.408	1.21
270.787	1.52
271.167	1.49
271.546	1.7
271.925	1.23
272.304	0.94
272.683	1.06
273.062	1.26
273.441	1.66
273.82	1.08
274.199	0.97
274.578	1.11
274.957	1.02
275.336	0.87
275.715	1.2
276.093	1.93
276.472	1.12
276.851	0.75
277.229	1.06
277.608	1.61
277.986	1.29
278.365	1.34
278.743	1.3
279.122	1
279.5	1.41
279.878	1.69
280.257	1.48
280.635	0.61
281.013	1.24
281.391	1.64
281.769	1.48
282.147	0.64
282.525	0.91
282.903	1.6
283.281	1.6
283.659	1.25
284.037	1.2
284.415	0.85
284.792	1.61
285.17	0.95
285.548	1.3
285.925	1.21
286.303	1.31
286.68	1.36
287.058	1.23
287.435	1.31
287.813	0.9
288.19	1.39
288.567	1.1
288.945	1.39
289.322	1.58
289.699	1.54
290.076	1.18
290.453	0.83
290.83	0.99
291.207	1.16
291.584	1.1
291.961	1.61
292.338	1.44
292.715	1.75
293.092	1.38
293.469	1.63
293.845	1.23
294.222	1.24
294.599	0.95
294.975	1.01
295.352	1.14
295.728	1.29
296.105	1.31
296.481	1.49
296.858	1.27
297.234	1.45
297.61	1.6
297.986	1.09
298.363	0.85
298.739	1.31
299.115	1.65
299.491	1.2
299.867	1.27
300.243	1.31
300.619	1.7
300.995	1.49
301.371	1.6
301.746	1.45
302.122	1.32
302.498	1.19
302.874	1.59
303.249	0.97
303.625	1.25
304	1.51
304.376	0.91
304.751	1.74
305.127	0.98
305.502	1.31
305.878	1.46
306.253	1.29
306.628	1.33
307.003	1.42
307.378	0.94
307.754	1.69
308.129	0.88
308.504	1.63
308.879	2.04
309.254	1.65
309.629	1.36
310.003	1.48
310.378	1.45
310.753	1.37
311.128	1.35
311.502	1.14
311.877	1.27
312.252	0.78
312.626	1.61
313.001	1.13
313.375	1.32
313.75	1.05
314.124	1.08
314.498	1.03
314.873	1.59
315.247	1.77
315.621	1.17
315.995	1.62
316.369	1.21
316.743	1.7
317.117	1.63
317.491	1.59
317.865	0.74
318.239	1.66
318.613	1.81
318.987	1.46
319.361	1.09
319.734	2.09
320.108	1.67
320.482	0.52
320.855	1.49
321.229	2.01
321.602	1.32
321.976	1.22
322.349	1.97
322.723	1.17
323.096	1.25
323.469	1.06
323.843	1.34
324.216	1.91
324.589	1.23
324.962	2.03
325.335	1.54
325.708	0.65
326.081	1.6
326.454	1.08
326.827	1.23
327.2	0.97
327.573	1.38
327.945	1.03
328.318	0.97
328.691	1.19
329.063	1.88
329.436	1.24
329.809	1.11
330.181	0.88
330.553	1.09
330.926	1.32
331.298	1.7
331.671	0.87
332.043	1.31
332.415	1.48
332.787	0.71
333.159	0.89
333.532	0.81
333.904	1.69
334.276	1.63
334.648	1.45
335.02	0.51
335.391	1.43
335.763	1.17
336.135	1.15
336.507	1.38
336.879	1.61
337.25	1.4
337.622	1.37
337.993	1.36
338.365	1.18
338.736	1.18
339.108	1.78
339.479	1.69
339.851	0.79
340.222	1.07
340.593	1.65
340.964	1.44
341.336	0.71
341.707	0.69
342.078	1.46
342.449	1.25
342.82	1.36
343.191	1.15
343.562	1.49
343.933	1.23
344.303	2.04
344.674	1.42
345.045	1
345.416	0.92
345.786	1.42
346.157	1.41
346.527	1.06
346.898	1.26
347.268	1.1
347.639	1.44
348.009	1.55
348.38	0.96
348.75	1.03
349.12	1
349.49	1.23
349.861	1.09
350.231	1.9
350.601	1.03
350.971	1.18
351.341	1.4
351.711	1.2
352.081	1
352.45	1.16
352.82	1.16
353.19	1.03
353.56	1.41
353.929	1.18
354.299	2.03
354.669	1.52
355.038	1.8
355.408	1.02
355.777	1.6
356.147	1.12
356.516	1.5
356.885	1.33
357.254	1.37
357.624	1.34
357.993	1.45
358.362	1.39
358.731	1.52
359.1	1.55
359.469	1.11
359.838	1.23
360.207	1.12
360.576	1.47
360.945	1.5
361.314	1.59
361.682	1.34
362.051	1.41
362.42	1.34
362.788	1.08
363.157	1.28
363.525	1.3
363.894	1.29
364.262	1.48
364.631	1.66
364.999	1.47
365.367	1.01
365.735	1.48
366.104	1.04
366.472	1.43
366.84	1.02
367.208	1.63
367.576	1.39
367.944	1.45
368.312	1.3
368.68	1.31
369.048	1.14
369.416	1.27
369.783	1.24
370.151	1.19
370.519	1.7
370.886	1.16
371.254	1.46
371.621	1.36
371.989	1.16
372.356	1.15
372.724	1.38
373.091	1.23
373.458	1.29
373.826	1.46
374.193	1.02
374.56	1.26
374.927	1.49
375.294	1.41
375.661	1.57
376.028	1.23
376.395	1.74
376.762	1.29
377.129	1.33
377.496	1.47
377.863	1.56
378.229	1.25
378.596	1.39
378.963	1.46
379.329	1.36
379.696	1.46
380.062	1.52
380.429	1.32
380.795	1.36
381.161	1.49
381.528	1.61
381.894	1
382.26	1.62
382.626	1.18
382.993	1.66
383.359	1.35
383.725	1.38
384.091	1.43
384.457	1.43
384.823	1.26
385.188	1.4
385.554	1.36
385.92	1.08
386.286	1.46
386.651	1.28
387.017	1.4
387.383	1.38
387.748	1.11
388.114	1.23
388.479	1.96
388.845	1.68
389.21	1.47
389.575	1.67
389.94	1.54
390.306	1.42
390.671	1.63
391.036	1.37
391.401	1.43
391.766	1.35
392.131	1.19
392.496	1.52
392.861	1.63
393.226	1.32
393.591	1.42
393.956	1.63
394.32	1.49
394.685	1.5
395.05	1.58
395.414	1.49
395.779	1.55
396.143	1.4
396.508	1.47
396.872	1.63
397.236	1.51
397.601	1.28
397.965	1.44
398.329	1.51
398.694	1.71
399.058	1.69
399.422	1.42
399.786	1.15
400.15	1.44
400.514	1.33
400.878	1.5
401.242	1.65
401.605	1.41
401.969	1.66
402.333	1.58
402.697	1.51
403.06	1.65
403.424	1.51
403.787	1.57
404.151	1.48
404.514	1.62
404.878	1.49
405.241	1.65
405.604	1.55
405.968	1.48
406.331	1.29
406.694	1.31
407.057	1.48
407.42	1.48
407.783	1.37
408.146	1.59
408.509	1.59
408.872	1.54
409.235	1.56
409.598	1.54
409.961	1.82
410.323	1.47
410.686	1.36
411.049	1.51
411.411	1.32
411.774	1.61
412.136	1.72
412.499	1.7
412.861	1.62
413.223	1.45
413.586	1.5
413.948	1.72
414.31	1.63
414.672	1.61
415.035	1.59
415.397	1.57
415.759	1.83
416.121	1.23
416.483	1.57
416.845	1.38
417.206	1.45
417.568	1.57
417.93	1.47
418.292	1.53
418.653	1.61
419.015	1.5
419.377	1.51
419.738	1.51
420.1	1.66
420.461	1.57
420.822	1.42
421.184	1.52
421.545	1.44
421.906	1.6
422.267	1.38
422.629	1.61
422.99	1.41
423.351	1.37
423.712	1.48
424.073	1.64
424.434	1.52
424.795	1.61
425.155	1.6
425.516	1.55
425.877	1.46
426.238	1.47
426.598	1.47
426.959	1.43
427.32	1.52
427.68	1.56
428.041	1.42
428.401	1.63
428.761	1.66
429.122	1.57
429.482	1.63
429.842	1.29
430.202	1.65
430.563	1.63
430.923	1.53
431.283	1.34
431.643	1.65
432.003	1.76
432.363	1.62
432.722	1.41
433.082	1.57
433.442	1.47
433.802	1.67
434.161	1.63
434.521	1.64
434.881	1.49
435.24	1.45
435.6	1.6
435.959	1.56
436.319	1.57
436.678	1.67
437.037	1.67
437.396	1.71
437.756	1.62
438.115	1.49
438.474	1.64
438.833	1.82
439.192	1.61
439.551	1.59
439.91	1.55
440.269	1.73
440.628	1.76
440.987	1.62
441.345	1.64
441.704	1.64
442.063	1.52
442.421	1.59
442.78	1.67
443.138	1.68
443.497	1.55
443.855	1.6
444.214	1.78
444.572	1.52
444.93	1.43
445.288	1.59
445.647	1.57
446.005	1.67
446.363	1.64
446.721	1.5
447.079	1.59
447.437	1.5
447.795	1.58
448.153	1.46
448.51	1.64
448.868	1.56
449.226	1.56
449.584	1.6
449.941	1.61
450.299	1.65
450.656	1.6
451.014	1.74
451.371	1.72
451.729	1.68
452.086	1.67
452.443	1.64
452.801	1.7
453.158	1.59
453.515	1.72
453.872	1.72
454.229	1.81
454.586	1.63
454.943	1.77
455.3	1.68
455.657	1.56
456.014	1.65
456.371	1.71
456.727	1.67
457.084	1.74
457.441	1.64
457.797	1.66
458.154	1.61
458.51	1.77
458.867	1.55
459.223	1.75
459.58	1.89
459.936	1.69
460.292	1.67
460.648	1.7
461.005	1.55
461.361	1.69
461.717	1.65
462.073	1.69
462.429	1.72
462.785	1.61
463.141	1.66
463.496	1.61
463.852	1.75
464.208	1.69
464.564	1.61
464.919	1.88
465.275	1.81
465.631	1.83
465.986	1.77
466.342	1.7
466.697	1.77
467.052	1.84
467.408	1.67
467.763	1.79
468.118	1.88
468.473	1.85
468.829	1.6
469.184	1.62
469.539	1.72
469.894	1.77
470.249	1.8
470.603	1.75
470.958	1.67
471.313	1.64
471.668	1.64
472.023	1.59
472.377	1.81
472.732	1.73
473.086	1.62
473.441	1.68
473.795	1.83
474.15	1.74
474.504	1.76
474.859	1.79
475.213	1.71
475.567	1.61
475.921	1.8
476.275	1.85
476.63	1.79
476.984	1.76
477.338	1.74
477.692	1.92
478.045	1.75
478.399	1.65
478.753	1.84
479.107	1.83
479.461	1.92
479.814	1.94
480.168	1.87
480.521	1.66
480.875	1.85
481.228	1.85
481.582	1.68
481.935	1.81
482.289	1.79
482.642	1.81
482.995	1.86
483.348	1.83
483.701	1.71
484.055	1.74
484.408	1.78
484.761	1.8
485.114	1.69
485.466	1.66
485.819	1.62
486.172	1.63
486.525	1.67
486.878	1.73
487.23	1.77
487.583	1.74
487.936	1.77
488.288	1.78
488.641	1.7
488.993	1.73
489.345	1.73
489.698	1.71
490.05	1.7
490.402	1.67
490.754	1.76
491.107	1.77
491.459	1.82
491.811	1.73
492.163	1.85
492.515	1.84
492.866	1.75
493.218	1.75
493.57	1.71
493.922	1.75
494.274	1.73
494.625	1.78
494.977	1.83
495.328	1.84
495.68	1.82
496.031	1.87
496.383	1.88
496.734	1.73
497.086	1.99
497.437	2
497.788	1.92
498.139	1.92
498.49	1.81
498.842	1.93
499.193	1.88
499.544	1.91
499.894	1.78
500.245	1.79
500.596	1.84
500.947	1.79
501.298	1.81
501.648	1.89
501.999	1.88
502.35	1.79
502.7	1.92
503.051	1.9
503.401	1.85
503.752	1.99
504.102	1.96
504.452	1.9
504.803	1.95
505.153	1.87
505.503	1.87
505.853	2.01
506.203	1.96
506.553	1.86
506.903	1.98
507.253	2.02
507.603	1.95
507.953	1.95
508.303	1.97
508.652	1.89
509.002	2.12
509.352	1.98
509.701	2.01
510.051	1.91
510.4	1.88
510.75	1.91
511.099	1.89
511.449	1.94
511.798	1.84
512.147	1.97
512.496	1.88
512.846	1.84
513.195	1.95
513.544	2.01
513.893	2.12
514.242	1.97
514.591	1.9
514.939	2.04
515.288	2.01
515.637	1.94
515.986	1.87
516.334	2
516.683	1.89
517.032	1.96
517.38	1.94
517.729	1.95
518.077	1.97
518.426	2.05
518.774	1.97
519.122	1.92
519.47	1.94
519.819	1.92
520.167	1.86
520.515	1.92
520.863	1.88
521.211	1.94
521.559	1.94
521.907	1.84
522.255	1.99
522.602	1.96
522.95	2.02
523.298	2.11
523.645	2.03
523.993	1.99
524.341	2.08
524.688	1.99
525.036	2.02
525.383	2.06
525.73	2.01
526.078	2.02
526.425	2.09
526.772	2.02
527.119	1.97
527.466	1.98
527.814	1.94
528.161	1.88
528.508	1.98
528.854	2
529.201	1.91
529.548	1.9
529.895	1.92
530.242	1.86
530.588	1.84
530.935	1.9
531.282	1.9
531.628	1.86
531.975	1.96
532.321	2.03
532.667	2.02
533.014	2.01
533.36	2.02
533.706	2.06
534.052	1.98
534.399	2.04
534.745	2.05
535.091	1.95
535.437	1.97
535.783	1.98
536.129	2.02
536.474	2.09
536.82	2.01
537.166	2.07
537.512	2.05
537.857	2
538.203	1.9
538.549	1.94
538.894	2.04
539.239	2.06
539.585	2.02
539.93	2.01
540.276	2.02
540.621	2.08
540.966	2.08
541.311	2
541.656	2.13
542.001	2.1
542.346	2.09
542.691	1.97
543.036	2.01
543.381	1.98
543.726	2.02
544.071	2.06
544.415	2.07
544.76	2.09
545.105	2.09
545.449	2.13
545.794	2.07
546.138	1.94
546.483	2.13
546.827	2.08
547.171	2.16
547.516	2.1
547.86	2.08
548.204	2.16
548.548	2.1
548.892	2.06
549.236	2.14
549.58	2.08
549.924	2.22
550.268	2.28
550.612	2.11
550.956	2.05
551.3	2.1
551.643	2.15
551.987	2.01
552.33	2.21
552.674	2.03
553.017	2.24
553.361	2.32
553.704	2.21
554.048	2.08
554.391	2.01
554.734	2.25
555.077	2.25
555.42	2.34
555.764	2.4
556.107	2.36
556.45	2.2
556.793	2.35
557.135	2.31
557.478	1.88
557.821	2.28
558.164	2.24
558.507	2.29
558.849	2.32
559.192	2.29
559.534	2.18
559.877	2.18
560.219	2.33
560.562	2.28
560.904	2.31
561.246	2.26
561.589	2.41
561.931	1.95
562.273	2.26
562.615	2.15
562.957	2.3
563.299	2.14
563.641	2.27
563.983	2.3
564.325	2.19
564.667	2.28
565.008	2.09
565.35	2.31
565.692	2.42
566.033	2.29
566.375	2.4
566.716	2.36
567.058	2.25
567.399	2.19
567.741	2.45
568.082	2.25
568.423	2.19
568.764	2.16
569.105	2.23
569.447	2.34
569.788	2.35
570.129	2.28
570.47	2.58
570.811	2.32
571.151	2.34
571.492	2.51
571.833	2.33
572.174	2.34
572.514	2.18
572.855	2.09
573.195	2.42
573.536	2.19
573.876	2.3
574.217	2.2
574.557	2.28
574.898	2.35
575.238	2.2
575.578	2.38
575.918	2.33
576.258	2.33
576.598	2.52
576.938	2.47
577.278	2.21
577.618	2.29
577.958	2.45
578.298	2.41
578.638	2.39
578.977	2.54
579.317	2.51
579.657	2.32
579.996	2.4
580.336	2.23
580.675	2.16
581.014	2.44
581.354	2.43
581.693	2.59
582.032	2.32
582.372	2.53
582.711	2.51
583.05	2.47
583.389	2.18
583.728	2.54
584.067	2.45
584.406	2.23
584.745	2.61
585.083	2.42
585.422	2.73
585.761	2.36
586.1	2.29
586.438	2.17
586.777	2.59
587.115	2.3
587.454	2.55
587.792	2.77
588.13	2.57
588.469	2.47
588.807	2.53
589.145	2.5
589.483	2.13
589.821	2.39
590.159	2.53
590.497	2.55
590.835	2.36
591.173	2.19
591.511	2.56
591.849	2.53
592.187	2.46
592.524	2.6
592.862	2.63
593.2	2.48
593.537	2.54
593.875	2.47
594.212	2.38
594.55	2.5
594.887	2.55
595.224	2.59
595.561	2.07
595.899	2.44
596.236	2.64
596.573	2.64
596.91	2.6
597.247	2.45
597.584	2.27
597.921	2.54
598.258	2.41
598.594	2.23
598.931	2.51
599.268	2.57
599.604	2.47
599.941	2.51
600.277	2.35
600.614	2.59
600.95	2.55
601.287	2.59
601.623	2.56
601.959	2.62
602.296	2.61
602.632	2.63
602.968	2.47
603.304	2.32
603.64	2.3
603.976	2.26
604.312	2.52
604.648	2.57
604.984	2.5
605.319	2.55
605.655	2.56
605.991	2.77
606.326	2.49
606.662	2.47
606.998	2.52
607.333	2.44
607.668	2.62
608.004	2.5
608.339	2.58
608.674	2.67
609.01	2.66
609.345	2.75
609.68	2.67
610.015	2.68
610.35	2.68
610.685	2.47
611.02	2.72
611.355	2.65
611.689	2.68
612.024	2.59
612.359	2.52
612.694	2.68
613.028	2.8
613.363	2.8
613.697	2.54
614.032	2.65
614.366	2.63
614.7	2.45
615.035	2.72
615.369	2.87
615.703	2.95
616.037	2.56
616.371	2.68
616.705	2.63
617.039	2.92
617.373	2.84
617.707	2.81
618.041	2.44
618.375	2.73
618.709	2.71
619.042	2.96
619.376	2.28
619.71	2.83
620.043	2.89
620.377	2.96
620.71	2.9
621.043	2.29
621.377	2.51
621.71	2.86
622.043	2.96
622.376	2.82
622.709	2.61
623.043	2.81
623.376	3.12
623.709	2.34
624.041	2.93
624.374	2.81
624.707	2.22
625.04	3
625.373	3.1
625.705	2.52
626.038	2.58
626.37	2.87
626.703	2.89
627.035	2.87
627.368	2.88
627.7	2.7
628.032	2.66
628.365	3.18
628.697	2.8
629.029	2.47
629.361	2.59
629.693	2.75
630.025	2.55
630.357	2.76
630.689	2.8
631.021	2.45
631.353	2.8
631.684	2.57
632.016	2.87
632.348	2.76
632.679	2.73
633.011	2.79
633.342	2.42
633.674	2.76
634.005	3.16
634.336	2.97
634.668	3.13
634.999	3.1
635.33	2.5
635.661	2.93
635.992	2.73
636.323	2.66
636.654	2.51
636.985	2.89
637.316	2.85
637.647	2.49
637.977	3.36
638.308	3.11
638.639	3.25
638.969	2.87
639.3	3.08
639.63	2.81
639.961	2.89
640.291	3.11
640.622	3
640.952	2.6
641.282	2.97
641.612	2.89
641.943	2.97
642.273	2.69
642.603	3.09
642.933	2.76
643.263	2.57
643.592	3.17
643.922	3.21
644.252	3.2
644.582	3.07
644.911	3.35
645.241	3.1
645.571	2.62
645.9	2.9
646.23	2.71
646.559	3.25
646.888	2.78
647.218	3.08
647.547	3.11
647.876	3.03
648.205	2.66
648.534	3.27
648.863	3.23
649.192	3.19
649.521	3.21
649.85	3.41
650.179	3.08
650.508	3.09
650.837	3.21
651.165	3.23
651.494	3.14
651.822	2.85
652.151	3.1
652.479	2.91
652.808	2.35
653.136	3.07
653.465	3.14
653.793	3.31
654.121	2.92
654.449	2.76
654.777	2.91
655.105	3.16
655.433	2.89
655.761	2.88
656.089	2.83
656.417	2.71
656.745	2.88
657.073	2.83
657.4	3.14
657.728	3.3
658.056	2.79
658.383	3.11
658.711	2.99
659.038	3.56
659.365	3.71
659.693	3.61
660.02	3.59
660.347	2.88
660.674	2.89
661.001	2.92
661.329	2.95
661.656	3.21
661.982	2.99
662.309	3.28
662.636	3.31
662.963	2.38
663.29	2.78
663.616	3.2
663.943	3.02
664.27	3.52
664.596	2.8
664.923	3.14
665.249	2.93
665.576	3.25
665.902	2.73
666.228	2.9
666.554	3.68
666.881	2.81
667.207	3.18
667.533	2.79
667.859	3.34
668.185	2.9
668.511	3.3
668.837	2.89
669.162	3.19
669.488	2.71
669.814	3.27
670.139	3.51
670.465	3.1
670.791	3.21
671.116	3.04
671.442	3.06
671.767	3
672.092	3.16
672.418	3.09
672.743	3.65
673.068	3.23
673.393	3.7
673.718	3.51
674.043	3.34
674.368	2.67
674.693	3.17
675.018	2.98
675.343	3.01
675.667	3.54
675.992	3.36
676.317	3.29
676.641	3.13
676.966	2.85
677.29	3.07
677.615	3.61
677.939	3.06
678.264	3.41
678.588	3.45
678.912	3.76
679.236	3.34
679.56	3.31
679.885	3.03
680.209	3.2
680.532	3.33
680.856	3.09
681.18	3.1
681.504	3.6
681.828	3.01
682.152	3.59
682.475	3.57
682.799	3.47
683.122	3.86
683.446	3.05
683.769	3.21
684.093	3.25
684.416	2.69
684.739	3.34
685.062	3.66
685.386	3.16
685.709	3.33
686.032	3.92
686.355	4.73
686.678	3.8
687.001	3.76
687.324	4.23
687.646	4.17
687.969	3.15
688.292	3.33
688.614	3.94
688.937	4.24
689.26	3.39
689.582	4.05
689.904	3.38
690.227	2.96
690.549	3.57
690.871	3.22
691.194	4.16
691.516	3.59
691.838	3.17
692.16	3.78
692.482	2.88
