Data from 0043_crown_Reflection__0__140.txt Node

Date: Fri Nov 04 16:00:01 CDT 2022
User: ToomeyLab
Spectrometer: FLMS14357
Trigger mode: 0
Integration Time (sec): 1.000000E-2
Scans to average: 100
Electric dark correction enabled: true
Nonlinearity correction enabled: false
Boxcar width: 0
XAxis mode: Wavelengths
Number of Pixels in Spectrum: 2048
>>>>>Begin Spectral Data<<<<<
189.047	165.68
189.435	165.68
189.823	165.68
190.211	71.63
190.599	52.16
190.987	46.96
191.375	54.17
191.763	-507.12
192.151	-79.36
192.538	-114.11
192.926	115.68
193.314	274.71
193.702	428.99
194.089	23.68
194.477	82.68
194.864	206.67
195.252	74.27
195.639	40.82
196.027	66.34
196.414	-433.33
196.801	155.88
197.189	85.19
197.576	71.57
197.963	66.44
198.351	-14.18
198.738	43.81
199.125	-36.32
199.512	-66.46
199.899	-25.44
200.286	-17.38
200.673	-2.66
201.06	-10.62
201.447	-39.07
201.833	44.21
202.22	28.01
202.607	11.32
202.994	62.65
203.38	8.42
203.767	35.08
204.154	49.96
204.54	-58.65
204.927	25.88
205.313	32.13
205.699	27.26
206.086	-9.66
206.472	-20.63
206.858	-17.86
207.245	8.7
207.631	-36.37
208.017	20.14
208.403	28.59
208.789	10.94
209.175	-18.7
209.561	-33.7
209.947	-18.16
210.333	-32.68
210.719	10.26
211.105	-35.2
211.491	-41.38
211.876	-2.75
212.262	1.44
212.648	-24.22
213.034	24.01
213.419	-32.18
213.805	-49.19
214.19	-52.96
214.576	0.73
214.961	16.68
215.346	5.34
215.732	-7.35
216.117	-6.07
216.502	-21.39
216.888	-12.88
217.273	2.47
217.658	1.59
218.043	-4.57
218.428	-3.11
218.813	10.21
219.198	13.62
219.583	-27.92
219.968	10.74
220.353	-69.24
220.738	-11.66
221.122	-15.2
221.507	18.79
221.892	-1.3
222.276	-18.8
222.661	-0.66
223.046	-6.78
223.43	-5.73
223.815	-2.94
224.199	4.43
224.583	0.16
224.968	-6.97
225.352	0.62
225.736	-14.07
226.121	-6.46
226.505	4.71
226.889	-4.94
227.273	-3.79
227.657	-4.51
228.041	-2.68
228.425	2.26
228.809	3.46
229.193	-0.71
229.577	0.76
229.961	2.86
230.344	2.61
230.728	1.86
231.112	1.52
231.495	2.03
231.879	3.04
232.263	1.73
232.646	1.99
233.03	0.28
233.413	1.27
233.797	0.31
234.18	1.09
234.563	1.37
234.946	1.02
235.33	2.63
235.713	2.72
236.096	1.54
236.479	2.37
236.862	1.18
237.245	2.32
237.628	1.87
238.011	0.07
238.394	3.24
238.777	3.91
239.16	2.47
239.543	1.39
239.925	1.88
240.308	3.02
240.691	2.56
241.073	1.66
241.456	2.27
241.838	1.46
242.221	2.44
242.603	1.68
242.986	1.37
243.368	2.29
243.75	2.19
244.133	2.53
244.515	2.15
244.897	2.06
245.279	1.82
245.661	2.31
246.043	2.79
246.425	1.83
246.807	2.55
247.189	2.28
247.571	2.55
247.953	1.76
248.335	2.21
248.717	2.27
249.098	2.12
249.48	2.01
249.862	2.26
250.243	2.3
250.625	1.86
251.006	1.98
251.388	2.44
251.769	2.8
252.151	2.21
252.532	2.88
252.913	1.34
253.295	2.6
253.676	2.06
254.057	2.04
254.438	2.37
254.819	2.05
255.2	1.78
255.581	2.08
255.962	2.84
256.343	1.56
256.724	2.09
257.105	1.05
257.486	2.95
257.867	3.35
258.247	2.96
258.628	2.15
259.009	0.96
259.389	2.5
259.77	1.8
260.15	2.19
260.531	2.11
260.911	1.69
261.292	1.75
261.672	1.86
262.052	2.01
262.432	1.95
262.813	1.77
263.193	1.17
263.573	2.01
263.953	2.24
264.333	2.03
264.713	2.36
265.093	1.68
265.473	2.3
265.853	1.2
266.233	1.82
266.612	2.57
266.992	2.54
267.372	1.2
267.752	1.54
268.131	2.27
268.511	1.93
268.89	2.34
269.27	2.18
269.649	1.83
270.029	1.86
270.408	1.88
270.787	1.88
271.167	1.93
271.546	2.31
271.925	1.94
272.304	1.46
272.683	1.91
273.062	1.91
273.441	2.09
273.82	1.51
274.199	2.02
274.578	1.77
274.957	1.29
275.336	1.28
275.715	1.85
276.093	2.26
276.472	1.47
276.851	1.51
277.229	2.03
277.608	1.69
277.986	2.09
278.365	2.24
278.743	1.86
279.122	2.15
279.5	1.49
279.878	1.51
280.257	1.19
280.635	1.77
281.013	1.7
281.391	2.41
281.769	1.86
282.147	1.77
282.525	1.82
282.903	1.96
283.281	2
283.659	1.91
284.037	1.36
284.415	1.76
284.792	2.19
285.17	1.44
285.548	2.47
285.925	2.23
286.303	2.16
286.68	2.28
287.058	1.88
287.435	1.76
287.813	1.86
288.19	1.63
288.567	1.74
288.945	1.93
289.322	1.68
289.699	1.95
290.076	2.25
290.453	1.65
290.83	1.39
291.207	1.92
291.584	1.85
291.961	1.83
292.338	2.4
292.715	2.02
293.092	1.94
293.469	1.75
293.845	1.48
294.222	1.84
294.599	1.73
294.975	1.42
295.352	2.12
295.728	1.85
296.105	1.89
296.481	1.86
296.858	1.57
297.234	2.21
297.61	1.89
297.986	1.67
298.363	1.44
298.739	1.96
299.115	1.87
299.491	1.63
299.867	1.65
300.243	1.87
300.619	2.34
300.995	2.15
301.371	2.44
301.746	1.76
302.122	1.62
302.498	1.76
302.874	1.76
303.249	1.82
303.625	1.85
304	1.51
304.376	1.78
304.751	1.77
305.127	1.55
305.502	1.98
305.878	1.88
306.253	1.91
306.628	1.69
307.003	1.56
307.378	1.66
307.754	1.45
308.129	1.24
308.504	1.49
308.879	1.88
309.254	1.82
309.629	1.47
310.003	2.09
310.378	1.66
310.753	1.67
311.128	1.79
311.502	1.56
311.877	1.54
312.252	1.8
312.626	1.85
313.001	1.91
313.375	1.71
313.75	1.85
314.124	1.73
314.498	1.92
314.873	1.93
315.247	2.04
315.621	2.24
315.995	1.97
316.369	1.7
316.743	2.17
317.117	1.79
317.491	1.89
317.865	1.54
318.239	1.76
318.613	2.09
318.987	1.7
319.361	1.5
319.734	1.75
320.108	2.17
320.482	1.16
320.855	2.07
321.229	1.88
321.602	1.71
321.976	1.14
322.349	2.07
322.723	1.83
323.096	1.81
323.469	1.68
323.843	1.75
324.216	1.73
324.589	1.56
324.962	2.03
325.335	1.93
325.708	1.5
326.081	2.05
326.454	1.38
326.827	1.92
327.2	1.94
327.573	1.68
327.945	1.98
328.318	1.38
328.691	1.97
329.063	1.28
329.436	2.09
329.809	1.77
330.181	1.87
330.553	1.88
330.926	1.73
331.298	2.42
331.671	1.42
332.043	2.07
332.415	1.88
332.787	1.15
333.159	1.31
333.532	1.17
333.904	2.53
334.276	1.86
334.648	1.91
335.02	1.66
335.391	2.57
335.763	1.64
336.135	1.81
336.507	2
336.879	1.39
337.25	2.03
337.622	2.35
337.993	1.57
338.365	1.85
338.736	2.31
339.108	2.17
339.479	2.04
339.851	1.72
340.222	1.5
340.593	2.19
340.964	1.95
341.336	2.11
341.707	1.39
342.078	1.82
342.449	1.73
342.82	1.8
343.191	1.63
343.562	1.86
343.933	1.94
344.303	2.23
344.674	2.02
345.045	1.74
345.416	1.64
345.786	1.96
346.157	1.9
346.527	1.73
346.898	1.87
347.268	2.12
347.639	1.68
348.009	1.88
348.38	1.73
348.75	1.82
349.12	1.49
349.49	1.74
349.861	1.58
350.231	1.71
350.601	1.94
350.971	1.6
351.341	1.91
351.711	2
352.081	1.89
352.45	1.77
352.82	1.89
353.19	1.66
353.56	1.83
353.929	1.52
354.299	2.35
354.669	2.22
355.038	2.19
355.408	1.53
355.777	1.96
356.147	1.85
356.516	1.59
356.885	1.8
357.254	1.94
357.624	2.05
357.993	1.8
358.362	1.9
358.731	1.83
359.1	1.96
359.469	1.94
359.838	2.08
360.207	2.07
360.576	1.87
360.945	1.95
361.314	1.92
361.682	2.13
362.051	1.95
362.42	2.04
362.788	2.08
363.157	1.92
363.525	1.83
363.894	2.05
364.262	2.08
364.631	2.11
364.999	2.18
365.367	1.86
365.735	2.15
366.104	1.69
366.472	1.96
366.84	1.65
367.208	1.84
367.576	1.91
367.944	2.11
368.312	1.91
368.68	1.82
369.048	1.87
369.416	1.85
369.783	1.66
370.151	1.72
370.519	2.35
370.886	1.74
371.254	2.18
371.621	2.01
371.989	2.02
372.356	2.14
372.724	2.26
373.091	1.66
373.458	1.79
373.826	2.26
374.193	2.14
374.56	1.71
374.927	2.5
375.294	1.67
375.661	2.37
376.028	1.81
376.395	2.13
376.762	1.86
377.129	1.87
377.496	2.09
377.863	1.71
378.229	2.1
378.596	2.13
378.963	2.04
379.329	1.75
379.696	1.9
380.062	2.05
380.429	2.19
380.795	1.87
381.161	2.22
381.528	2.18
381.894	1.85
382.26	1.87
382.626	2.1
382.993	2.27
383.359	2.12
383.725	1.94
384.091	2.08
384.457	1.83
384.823	1.8
385.188	2.26
385.554	2.13
385.92	1.77
386.286	2.2
386.651	2.05
387.017	2.03
387.383	2.01
387.748	1.91
388.114	1.84
388.479	2.29
388.845	2.11
389.21	2.25
389.575	2.2
389.94	2.08
390.306	2.08
390.671	2.1
391.036	2.02
391.401	2.32
391.766	1.82
392.131	1.99
392.496	2.02
392.861	2.17
393.226	2.04
393.591	2.04
393.956	2.32
394.32	1.95
394.685	2.09
395.05	2.28
395.414	2.17
395.779	1.92
396.143	1.97
396.508	2.32
396.872	2.25
397.236	1.99
397.601	2.05
397.965	2.09
398.329	1.91
398.694	2.27
399.058	2.28
399.422	1.95
399.786	1.91
400.15	1.96
400.514	2.08
400.878	2.29
401.242	2.21
401.605	2.1
401.969	2.31
402.333	2.04
402.697	2.04
403.06	2.09
403.424	2.01
403.787	2.18
404.151	2.14
404.514	1.97
404.878	2.14
405.241	1.98
405.604	2.06
405.968	2.08
406.331	2.08
406.694	2.16
407.057	2.21
407.42	2.14
407.783	2.17
408.146	2.06
408.509	2.22
408.872	2.26
409.235	2.12
409.598	2.24
409.961	2.38
410.323	2.17
410.686	2.14
411.049	2.02
411.411	2.04
411.774	2.05
412.136	2.15
412.499	2.07
412.861	2.24
413.223	2.24
413.586	2.16
413.948	2.22
414.31	2.2
414.672	1.99
415.035	2.35
415.397	2.14
415.759	2.42
416.121	2
416.483	2.16
416.845	2.15
417.206	2.16
417.568	2.27
417.93	2.17
418.292	2.14
418.653	2.28
419.015	2.04
419.377	2.11
419.738	2.15
420.1	2.24
420.461	2.21
420.822	2.1
421.184	2.23
421.545	2.06
421.906	2.19
422.267	2.07
422.629	2.18
422.99	2.08
423.351	1.97
423.712	2.15
424.073	2.15
424.434	2.1
424.795	2.25
425.155	2.26
425.516	2.22
425.877	2.14
426.238	2.15
426.598	2.16
426.959	2
427.32	2.11
427.68	2.16
428.041	2.04
428.401	2.26
428.761	2.21
429.122	2.07
429.482	2.21
429.842	2
430.202	2.32
430.563	2.29
430.923	2.32
431.283	2.16
431.643	2.24
432.003	2.58
432.363	2.29
432.722	2.09
433.082	2.46
433.442	2.12
433.802	2.11
434.161	2.22
434.521	2.29
434.881	2.24
435.24	2.2
435.6	2.24
435.959	2.12
436.319	2.27
436.678	2.15
437.037	2.2
437.396	2.31
437.756	2.23
438.115	2.16
438.474	2.3
438.833	2.31
439.192	2.14
439.551	2.3
439.91	2.31
440.269	2.24
440.628	2.3
440.987	2.29
441.345	2.23
441.704	2.29
442.063	2.14
442.421	2.25
442.78	2.25
443.138	2.27
443.497	2.17
443.855	2.19
444.214	2.3
444.572	2.3
444.93	2.23
445.288	2.2
445.647	2.16
446.005	2.11
446.363	2.28
446.721	2.25
447.079	2.17
447.437	2.11
447.795	2.27
448.153	2.12
448.51	2.21
448.868	2.2
449.226	2.13
449.584	2.23
449.941	2.14
450.299	2.17
450.656	2.22
451.014	2.33
451.371	2.29
451.729	2.31
452.086	2.15
452.443	2.28
452.801	2.39
453.158	2.19
453.515	2.24
453.872	2.27
454.229	2.28
454.586	2.19
454.943	2.37
455.3	2.37
455.657	2.14
456.014	2.3
456.371	2.26
456.727	2.32
457.084	2.52
457.441	2.26
457.797	2.28
458.154	2.28
458.51	2.39
458.867	2.12
459.223	2.26
459.58	2.36
459.936	2.17
460.292	2.19
460.648	2.27
461.005	2.23
461.361	2.27
461.717	2.21
462.073	2.32
462.429	2.37
462.785	2.29
463.141	2.3
463.496	2.2
463.852	2.28
464.208	2.28
464.564	2.27
464.919	2.33
465.275	2.37
465.631	2.4
465.986	2.21
466.342	2.23
466.697	2.28
467.052	2.31
467.408	2.28
467.763	2.34
468.118	2.47
468.473	2.33
468.829	2.34
469.184	2.21
469.539	2.22
469.894	2.34
470.249	2.18
470.603	2.37
470.958	2.31
471.313	2.26
471.668	2.25
472.023	2.23
472.377	2.34
472.732	2.29
473.086	2.27
473.441	2.2
473.795	2.27
474.15	2.35
474.504	2.25
474.859	2.22
475.213	2.35
475.567	2.16
475.921	2.25
476.275	2.4
476.63	2.22
476.984	2.22
477.338	2.25
477.692	2.44
478.045	2.34
478.399	2.14
478.753	2.28
479.107	2.33
479.461	2.41
479.814	2.34
480.168	2.34
480.521	2.18
480.875	2.28
481.228	2.24
481.582	2.36
481.935	2.31
482.289	2.26
482.642	2.31
482.995	2.32
483.348	2.22
483.701	2.31
484.055	2.28
484.408	2.26
484.761	2.27
485.114	2.15
485.466	2.17
485.819	2.12
486.172	2.14
486.525	2.18
486.878	2.24
487.23	2.3
487.583	2.25
487.936	2.33
488.288	2.24
488.641	2.23
488.993	2.17
489.345	2.19
489.698	2.15
490.05	2.22
490.402	2.19
490.754	2.27
491.107	2.27
491.459	2.32
491.811	2.32
492.163	2.35
492.515	2.36
492.866	2.24
493.218	2.19
493.57	2.2
493.922	2.24
494.274	2.24
494.625	2.29
494.977	2.36
495.328	2.33
495.68	2.32
496.031	2.34
496.383	2.3
496.734	2.32
497.086	2.44
497.437	2.47
497.788	2.51
498.139	2.3
498.49	2.29
498.842	2.41
499.193	2.27
499.544	2.39
499.894	2.3
500.245	2.44
500.596	2.28
500.947	2.38
501.298	2.34
501.648	2.38
501.999	2.49
502.35	2.33
502.7	2.42
503.051	2.32
503.401	2.37
503.752	2.36
504.102	2.28
504.452	2.46
504.803	2.36
505.153	2.35
505.503	2.31
505.853	2.44
506.203	2.39
506.553	2.5
506.903	2.37
507.253	2.42
507.603	2.31
507.953	2.29
508.303	2.37
508.652	2.32
509.002	2.46
509.352	2.38
509.701	2.33
510.051	2.31
510.4	2.36
510.75	2.39
511.099	2.35
511.449	2.23
511.798	2.32
512.147	2.41
512.496	2.31
512.846	2.3
513.195	2.38
513.544	2.35
513.893	2.45
514.242	2.27
514.591	2.32
514.939	2.4
515.288	2.41
515.637	2.39
515.986	2.4
516.334	2.47
516.683	2.42
517.032	2.33
517.38	2.49
517.729	2.44
518.077	2.52
518.426	2.42
518.774	2.43
519.122	2.43
519.47	2.4
519.819	2.32
520.167	2.3
520.515	2.29
520.863	2.31
521.211	2.3
521.559	2.38
521.907	2.32
522.255	2.39
522.602	2.41
522.95	2.28
523.298	2.49
523.645	2.38
523.993	2.39
524.341	2.42
524.688	2.45
525.036	2.45
525.383	2.51
525.73	2.36
526.078	2.4
526.425	2.41
526.772	2.33
527.119	2.3
527.466	2.37
527.814	2.28
528.161	2.24
528.508	2.32
528.854	2.34
529.201	2.41
529.548	2.27
529.895	2.23
530.242	2.22
530.588	2.2
530.935	2.2
531.282	2.28
531.628	2.28
531.975	2.37
532.321	2.35
532.667	2.38
533.014	2.38
533.36	2.49
533.706	2.44
534.052	2.37
534.399	2.39
534.745	2.3
535.091	2.24
535.437	2.28
535.783	2.31
536.129	2.36
536.474	2.44
536.82	2.35
537.166	2.36
537.512	2.44
537.857	2.39
538.203	2.3
538.549	2.39
538.894	2.43
539.239	2.39
539.585	2.35
539.93	2.4
540.276	2.38
540.621	2.36
540.966	2.47
541.311	2.33
541.656	2.44
542.001	2.45
542.346	2.36
542.691	2.35
543.036	2.23
543.381	2.26
543.726	2.3
544.071	2.34
544.415	2.34
544.76	2.41
545.105	2.44
545.449	2.4
545.794	2.39
546.138	2.31
546.483	2.48
546.827	2.45
547.171	2.45
547.516	2.46
547.86	2.39
548.204	2.4
548.548	2.31
548.892	2.35
549.236	2.44
549.58	2.37
549.924	2.45
550.268	2.52
550.612	2.37
550.956	2.45
551.3	2.58
551.643	2.33
551.987	2.33
552.33	2.39
552.674	2.43
553.017	2.55
553.361	2.69
553.704	2.39
554.048	2.47
554.391	2.24
554.734	2.58
555.077	2.47
555.42	2.52
555.764	2.73
556.107	2.52
556.45	2.44
556.793	2.58
557.135	2.47
557.478	2.32
557.821	2.58
558.164	2.51
558.507	2.52
558.849	2.59
559.192	2.62
559.534	2.42
559.877	2.41
560.219	2.59
560.562	2.54
560.904	2.45
561.246	2.51
561.589	2.33
561.931	2.32
562.273	2.6
562.615	2.18
562.957	2.58
563.299	2.43
563.641	2.68
563.983	2.47
564.325	2.36
564.667	2.37
565.008	2.36
565.35	2.38
565.692	2.65
566.033	2.57
566.375	2.59
566.716	2.52
567.058	2.62
567.399	2.5
567.741	2.56
568.082	2.5
568.423	2.48
568.764	2.31
569.105	2.39
569.447	2.57
569.788	2.43
570.129	2.6
570.47	2.65
570.811	2.6
571.151	2.51
571.492	2.65
571.833	2.48
572.174	2.66
572.514	2.49
572.855	2.31
573.195	2.52
573.536	2.56
573.876	2.52
574.217	2.42
574.557	2.43
574.898	2.62
575.238	2.43
575.578	2.63
575.918	2.63
576.258	2.41
576.598	2.58
576.938	2.52
577.278	2.44
577.618	2.41
577.958	2.55
578.298	2.62
578.638	2.44
578.977	2.81
579.317	2.62
579.657	2.56
579.996	2.55
580.336	2.65
580.675	2.35
581.014	2.73
581.354	2.45
581.693	2.55
582.032	2.62
582.372	2.87
582.711	2.62
583.05	2.42
583.389	2.33
583.728	2.61
584.067	2.63
584.406	2.31
584.745	2.61
585.083	2.47
585.422	2.68
585.761	2.62
586.1	2.53
586.438	2.26
586.777	2.77
587.115	2.6
587.454	2.78
587.792	2.81
588.13	2.66
588.469	2.7
588.807	2.72
589.145	2.8
589.483	2.41
589.821	2.62
590.159	2.51
590.497	2.77
590.835	2.57
591.173	2.41
591.511	2.58
591.849	2.75
592.187	2.55
592.524	2.45
592.862	2.66
593.2	2.58
593.537	2.55
593.875	2.5
594.212	2.64
594.55	2.37
594.887	2.63
595.224	2.46
595.561	2.02
595.899	2.57
596.236	2.74
596.573	2.74
596.91	2.83
597.247	2.43
597.584	2.28
597.921	2.6
598.258	2.69
598.594	2.22
598.931	2.7
599.268	2.68
599.604	2.63
599.941	2.73
600.277	2.63
600.614	2.51
600.95	2.81
601.287	2.59
601.623	2.41
601.959	2.65
602.296	2.62
602.632	2.6
602.968	2.69
603.304	2.7
603.64	2.52
603.976	2.19
604.312	2.23
604.648	2.35
604.984	2.32
605.319	2.4
605.655	2.56
605.991	2.82
606.326	2.51
606.662	2.47
606.998	2.42
607.333	2.19
607.668	2.58
608.004	2.54
608.339	2.43
608.674	2.62
609.01	2.46
609.345	2.71
609.68	2.63
610.015	2.68
610.35	2.46
610.685	2.83
611.02	2.46
611.355	2.71
611.689	2.62
612.024	2.62
612.359	2.52
612.694	2.65
613.028	2.81
613.363	2.73
613.697	2.67
614.032	2.53
614.366	2.44
614.7	2.4
615.035	2.79
615.369	2.73
615.703	2.78
616.037	2.49
616.371	2.78
616.705	2.42
617.039	2.75
617.373	2.8
617.707	2.81
618.041	2.73
618.375	2.51
618.709	2.7
619.042	2.56
619.376	2.67
619.71	2.51
620.043	2.88
620.377	3.08
620.71	2.91
621.043	2.49
621.377	2.52
621.71	3.08
622.043	2.9
622.376	2.85
622.709	2.61
623.043	2.56
623.376	3.05
623.709	2.35
624.041	2.7
624.374	2.74
624.707	2.32
625.04	2.65
625.373	2.67
625.705	2.55
626.038	2.74
626.37	2.99
626.703	2.82
627.035	2.41
627.368	2.6
627.7	2.47
628.032	2.49
628.365	2.83
628.697	2.81
629.029	2.71
629.361	2.62
629.693	2.75
630.025	2.94
630.357	2.34
630.689	2.56
631.021	2.64
631.353	2.66
631.684	2.53
632.016	2.88
632.348	2.57
632.679	2.62
633.011	2.65
633.342	3.02
633.674	2.52
634.005	2.89
634.336	2.44
634.668	2.68
634.999	3.06
635.33	2.26
635.661	2.86
635.992	2.64
636.323	2.63
636.654	2.32
636.985	2.7
637.316	2.49
637.647	2.52
637.977	2.74
638.308	2.95
638.639	2.84
638.969	2.47
639.3	2.88
639.63	2.64
639.961	2.88
640.291	2.63
640.622	2.85
640.952	2.46
641.282	2.51
641.612	2.78
641.943	2.64
642.273	2.42
642.603	2.72
642.933	2.62
643.263	2.04
643.592	2.44
643.922	3.43
644.252	2.59
644.582	2.85
644.911	2.86
645.241	2.9
645.571	2.63
645.9	2.82
646.23	2.48
646.559	3.27
646.888	2.53
647.218	2.8
647.547	2.52
647.876	3.03
648.205	2.55
648.534	2.93
648.863	2.37
649.192	2.88
649.521	2.45
649.85	2.95
650.179	2.78
650.508	3.02
650.837	3.02
651.165	2.76
651.494	3.13
651.822	2.51
652.151	3.17
652.479	2.67
652.808	2.2
653.136	2.62
653.465	2.85
653.793	3.09
654.121	2.77
654.449	2.53
654.777	2.48
655.105	2.57
655.433	2.73
655.761	2.79
656.089	2.77
656.417	2.69
656.745	2.76
657.073	2.69
657.4	2.57
657.728	2.84
658.056	2.06
658.383	3
658.711	2.6
659.038	2.73
659.365	3.4
659.693	3.46
660.02	3.02
660.347	2.44
660.674	2.72
661.001	2.61
661.329	3.09
661.656	3.18
661.982	2.32
662.309	2.56
662.636	2.96
662.963	2.41
663.29	2.45
663.616	2.88
663.943	2.67
664.27	2.81
664.596	2.97
664.923	2.8
665.249	3.02
665.576	2.11
665.902	2.11
666.228	2.04
666.554	3.12
666.881	2.45
667.207	3.02
667.533	2.86
667.859	2.7
668.185	2.42
668.511	2.74
668.837	2.45
669.162	2.95
669.488	1.74
669.814	2.55
670.139	2.86
670.465	3.02
670.791	2.68
671.116	2.94
671.442	2.77
671.767	2.81
672.092	2.94
672.418	3.13
672.743	2.99
673.068	3.11
673.393	2.93
673.718	3.22
674.043	2.29
674.368	1.89
674.693	3.15
675.018	3.33
675.343	2.68
675.667	3.12
675.992	2.57
676.317	2.83
676.641	2.63
676.966	2.68
677.29	2.66
677.615	3.11
677.939	2.86
678.264	3.34
678.588	2.48
678.912	3.23
679.236	3.26
679.56	3.07
679.885	3.07
680.209	3.15
680.532	2.83
680.856	2.3
681.18	2.31
681.504	3.19
681.828	3.11
682.152	3.33
682.475	2.61
682.799	3.27
683.122	2.74
683.446	3.02
683.769	2.23
684.093	3.27
684.416	2.42
684.739	2.61
685.062	3.66
685.386	2.43
685.709	3.81
686.032	3.26
686.355	4.34
686.678	3.25
687.001	2.98
687.324	2.58
687.646	3.33
687.969	2.84
688.292	2.54
688.614	3.18
688.937	2.88
689.26	2.53
689.582	3.53
689.904	2.87
690.227	2.73
690.549	2.83
690.871	2.47
691.194	2.77
691.516	2.55
