Data from 0043_forehead_Reflection__0__146.txt Node

Date: Fri Nov 04 16:01:54 CDT 2022
User: ToomeyLab
Spectrometer: FLMS14357
Trigger mode: 0
Integration Time (sec): 1.000000E-2
Scans to average: 100
Electric dark correction enabled: true
Nonlinearity correction enabled: false
Boxcar width: 0
XAxis mode: Wavelengths
Number of Pixels in Spectrum: 2048
>>>>>Begin Spectral Data<<<<<
189.047	218.16
189.435	218.16
189.823	218.16
190.211	-77.15
190.599	215.71
190.987	-99.26
191.375	158.68
191.763	-13.03
192.151	-43.95
192.538	-1.63
192.926	68.08
193.314	96.46
193.702	82.89
194.089	24.89
194.477	32.13
194.864	43.4
195.252	63.31
195.639	45.59
196.027	17.62
196.414	2301.67
196.801	112.72
197.189	-57.35
197.576	-459.01
197.963	25.91
198.351	11.36
198.738	48.52
199.125	-6.22
199.512	-160.94
199.899	-22.12
200.286	-9.43
200.673	7.37
201.06	26.19
201.447	-1.75
201.833	12.33
202.22	-11.74
202.607	-9.74
202.994	34.73
203.38	15.9
203.767	6.33
204.154	18.83
204.54	-52.48
204.927	-3.67
205.313	3.49
205.699	26.09
206.086	-26.66
206.472	-13.74
206.858	-25.57
207.245	-12.16
207.631	32.08
208.017	26.01
208.403	-19.77
208.789	15.88
209.175	-9.54
209.561	-18.04
209.947	-23.71
210.333	17.61
210.719	6.71
211.105	-28.59
211.491	-8.35
211.876	8.55
212.262	28.02
212.648	21.32
213.034	19.47
213.419	-6.11
213.805	-26.15
214.19	-43.5
214.576	-0.41
214.961	22.72
215.346	4.7
215.732	-2.23
216.117	-0.84
216.502	39.84
216.888	-33.33
217.273	-9.07
217.658	-9.26
218.043	-5.68
218.428	23.25
218.813	-4.28
219.198	18.97
219.583	-20.64
219.968	14.36
220.353	-8.76
220.738	-26.16
221.122	11.5
221.507	5.17
221.892	-15.42
222.276	-8.24
222.661	-0.78
223.046	-7.63
223.43	3.46
223.815	-9.02
224.199	12.22
224.583	3.53
224.968	-0.6
225.352	4.21
225.736	-4.61
226.121	-14.78
226.505	3.83
226.889	0.3
227.273	1.78
227.657	-3.45
228.041	0.35
228.425	1.89
228.809	6.88
229.193	1.91
229.577	1.15
229.961	2.75
230.344	2.57
230.728	1.77
231.112	1.17
231.495	1.35
231.879	2.3
232.263	1.93
232.646	1.26
233.03	0.34
233.413	-0.44
233.797	0.53
234.18	1.55
234.563	3.05
234.946	-0.54
235.33	3.19
235.713	1.67
236.096	1.63
236.479	0.74
236.862	0.33
237.245	-0.02
237.628	0.63
238.011	-1.13
238.394	2.16
238.777	1.97
239.16	2.3
239.543	2.04
239.925	2.49
240.308	3.47
240.691	0.28
241.073	1.1
241.456	1.34
241.838	1.47
242.221	1.37
242.603	1.55
242.986	1.37
243.368	1.89
243.75	2.09
244.133	1.97
244.515	2.22
244.897	1.72
245.279	1.84
245.661	1.8
246.043	2.41
246.425	1.75
246.807	2.26
247.189	2.08
247.571	2.38
247.953	1.82
248.335	1.74
248.717	1.96
249.098	2.07
249.48	2.11
249.862	2.16
250.243	1.93
250.625	1.69
251.006	1.74
251.388	1.84
251.769	2.91
252.151	2.95
252.532	1.75
252.913	1.84
253.295	2.22
253.676	2.05
254.057	1.42
254.438	2.45
254.819	1.59
255.2	2.04
255.581	3.1
255.962	2.73
256.343	1.65
256.724	2.09
257.105	2.34
257.486	2.61
257.867	3.2
258.247	1.94
258.628	1.35
259.009	1.03
259.389	2.26
259.77	2.15
260.15	2.63
260.531	2.19
260.911	1.9
261.292	1.92
261.672	1.94
262.052	2.15
262.432	2.02
262.813	1.97
263.193	1.45
263.573	2.15
263.953	2.16
264.333	2.61
264.713	2.4
265.093	2.39
265.473	2.13
265.853	1.99
266.233	2.15
266.612	2.32
266.992	2.79
267.372	1.05
267.752	1.79
268.131	1.98
268.511	1.8
268.89	2.51
269.27	1.73
269.649	2.32
270.029	1.77
270.408	2.01
270.787	2.36
271.167	2.16
271.546	2.58
271.925	2.39
272.304	1.77
272.683	1.91
273.062	2.35
273.441	2.34
273.82	1.84
274.199	2.24
274.578	1.87
274.957	1.75
275.336	1.57
275.715	2.08
276.093	2.37
276.472	1.99
276.851	1.68
277.229	2.13
277.608	1.78
277.986	2.25
278.365	1.99
278.743	2.14
279.122	1.59
279.5	1.84
279.878	2.22
280.257	1.46
280.635	1.79
281.013	1.79
281.391	2.03
281.769	2.02
282.147	1.36
282.525	2.11
282.903	2.02
283.281	2.6
283.659	1.9
284.037	1.72
284.415	2.01
284.792	2.33
285.17	1.86
285.548	2.2
285.925	1.93
286.303	2.28
286.68	2.11
287.058	2.12
287.435	1.99
287.813	1.97
288.19	2.41
288.567	2.13
288.945	2.11
289.322	2.4
289.699	2.47
290.076	2.17
290.453	1.62
290.83	1.88
291.207	2.09
291.584	2.69
291.961	2.56
292.338	2.82
292.715	2.66
293.092	2.51
293.469	2.46
293.845	2.11
294.222	2.29
294.599	2.45
294.975	2.5
295.352	2.44
295.728	2.77
296.105	2.53
296.481	2.48
296.858	2.95
297.234	3.31
297.61	2.85
297.986	2.31
298.363	2.53
298.739	2.78
299.115	3.02
299.491	2.93
299.867	2.96
300.243	2.96
300.619	3.4
300.995	3.31
301.371	3.51
301.746	3.08
302.122	3.2
302.498	3.2
302.874	3.35
303.249	2.92
303.625	3.28
304	3.02
304.376	2.85
304.751	2.89
305.127	2.46
305.502	3.44
305.878	3.52
306.253	3.82
306.628	3.34
307.003	3.46
307.378	3.65
307.754	3.45
308.129	3.36
308.504	3.64
308.879	3.87
309.254	3.64
309.629	3.67
310.003	4.05
310.378	3.7
310.753	3.9
311.128	3.4
311.502	3.3
311.877	3.47
312.252	3.54
312.626	3.75
313.001	3.95
313.375	3.71
313.75	3.76
314.124	4.05
314.498	3.88
314.873	3.78
315.247	4.29
315.621	4.05
315.995	4.02
316.369	4.44
316.743	4.68
317.117	4.25
317.491	4.26
317.865	3.33
318.239	4.09
318.613	4.77
318.987	4.03
319.361	4.39
319.734	4.3
320.108	4.24
320.482	3.79
320.855	4.81
321.229	4.16
321.602	4.26
321.976	4.23
322.349	4.56
322.723	4.74
323.096	4.75
323.469	4.55
323.843	4.34
324.216	4.93
324.589	4.93
324.962	5.02
325.335	4.54
325.708	4.36
326.081	4.48
326.454	4.39
326.827	5.09
327.2	5.03
327.573	4.34
327.945	4.75
328.318	4.57
328.691	4.72
329.063	5.16
329.436	5.15
329.809	5.01
330.181	4.89
330.553	4.94
330.926	5.02
331.298	5.07
331.671	4.85
332.043	5.27
332.415	5.32
332.787	4.51
333.159	4.91
333.532	4.88
333.904	4.98
334.276	4.84
334.648	5.32
335.02	4.53
335.391	5.63
335.763	5.28
336.135	5.57
336.507	4.99
336.879	4.89
337.25	5.59
337.622	4.89
337.993	5.7
338.365	5.38
338.736	5.84
339.108	5.76
339.479	5.07
339.851	5.29
340.222	5.46
340.593	5.31
340.964	5.77
341.336	5.09
341.707	5.09
342.078	5.22
342.449	5.72
342.82	5.63
343.191	5.05
343.562	5.74
343.933	5.84
344.303	5.8
344.674	6
345.045	5.55
345.416	5.07
345.786	5.63
346.157	5.95
346.527	6.09
346.898	5.77
347.268	5.75
347.639	5.66
348.009	5.92
348.38	5.44
348.75	5.36
349.12	5.46
349.49	5.91
349.861	5.6
350.231	5.95
350.601	5.83
350.971	5.44
351.341	5.75
351.711	5.89
352.081	6.07
352.45	5.96
352.82	5.81
353.19	5.82
353.56	6.05
353.929	5.95
354.299	6.74
354.669	6.56
355.038	6.11
355.408	5.71
355.777	6.23
356.147	5.87
356.516	6.05
356.885	6.04
357.254	6.35
357.624	6.46
357.993	6.1
358.362	6.05
358.731	6.16
359.1	6.31
359.469	6.19
359.838	6.28
360.207	6.31
360.576	6.26
360.945	6.51
361.314	6.63
361.682	6.26
362.051	6.43
362.42	6.55
362.788	6.28
363.157	6.46
363.525	6.4
363.894	6.36
364.262	6.57
364.631	6.57
364.999	6.45
365.367	6.32
365.735	6.81
366.104	6.6
366.472	6.49
366.84	6.19
367.208	6.83
367.576	6.39
367.944	6.5
368.312	6.53
368.68	6.47
369.048	6.73
369.416	6.34
369.783	6.57
370.151	6.53
370.519	7.14
370.886	6.82
371.254	6.93
371.621	6.75
371.989	6.84
372.356	7.11
372.724	6.77
373.091	6.94
373.458	6.82
373.826	7.09
374.193	6.61
374.56	6.94
374.927	7.04
375.294	6.77
375.661	7.09
376.028	7.05
376.395	7.21
376.762	6.9
377.129	7.01
377.496	7.67
377.863	7.3
378.229	7.02
378.596	6.81
378.963	7.33
379.329	6.7
379.696	7
380.062	7.21
380.429	7.04
380.795	7.41
381.161	7.45
381.528	7.65
381.894	6.85
382.26	7.11
382.626	7.2
382.993	7.4
383.359	7.19
383.725	7.27
384.091	7.22
384.457	7.33
384.823	7.27
385.188	7.37
385.554	7.26
385.92	7.27
386.286	7.43
386.651	7.51
387.017	7.36
387.383	7.16
387.748	7.4
388.114	7.32
388.479	8.29
388.845	7.79
389.21	7.79
389.575	7.89
389.94	7.74
390.306	7.54
390.671	7.72
391.036	7.49
391.401	7.87
391.766	7.57
392.131	7.4
392.496	7.64
392.861	7.86
393.226	7.6
393.591	7.66
393.956	7.99
394.32	7.81
394.685	7.7
395.05	7.98
395.414	7.7
395.779	7.86
396.143	7.92
396.508	7.91
396.872	7.91
397.236	8.16
397.601	7.59
397.965	7.74
398.329	7.89
398.694	8.14
399.058	8.05
399.422	7.97
399.786	7.98
400.15	8.05
400.514	7.76
400.878	8.15
401.242	8.18
401.605	7.95
401.969	8.09
402.333	8.08
402.697	8.07
403.06	8.25
403.424	8.38
403.787	8.04
404.151	8.31
404.514	8.3
404.878	8.33
405.241	8.42
405.604	8.25
405.968	7.93
406.331	8.05
406.694	8.04
407.057	8.1
407.42	8.18
407.783	8.27
408.146	8.31
408.509	8.43
408.872	8.5
409.235	8.59
409.598	8.48
409.961	8.48
410.323	8.3
410.686	8.53
411.049	8.49
411.411	8.46
411.774	8.56
412.136	8.54
412.499	8.67
412.861	8.39
413.223	8.56
413.586	8.46
413.948	8.6
414.31	8.4
414.672	8.56
415.035	8.57
415.397	8.7
415.759	8.59
416.121	8.61
416.483	8.68
416.845	8.61
417.206	8.55
417.568	8.79
417.93	8.72
418.292	8.53
418.653	8.64
419.015	8.62
419.377	8.68
419.738	8.55
420.1	8.66
420.461	8.62
420.822	8.47
421.184	8.74
421.545	8.51
421.906	8.67
422.267	8.55
422.629	8.67
422.99	8.41
423.351	8.42
423.712	8.61
424.073	8.7
424.434	8.61
424.795	8.81
425.155	8.86
425.516	8.8
425.877	8.62
426.238	8.68
426.598	8.67
426.959	8.64
427.32	8.72
427.68	8.79
428.041	8.78
428.401	9.04
428.761	9.08
429.122	8.89
429.482	9.11
429.842	8.94
430.202	9.23
430.563	9.13
430.923	9.17
431.283	9.11
431.643	9.24
432.003	9.15
432.363	9.15
432.722	9.08
433.082	9.18
433.442	9.07
433.802	9.06
434.161	9.1
434.521	9.05
434.881	9.34
435.24	8.89
435.6	9.16
435.959	9.12
436.319	9.13
436.678	9.33
437.037	9.21
437.396	9.38
437.756	9.26
438.115	9.18
438.474	9.44
438.833	9.4
439.192	9.36
439.551	9.41
439.91	9.37
440.269	9.33
440.628	9.46
440.987	9.32
441.345	9.34
441.704	9.42
442.063	9.27
442.421	9.33
442.78	9.42
443.138	9.33
443.497	9.35
443.855	9.4
444.214	9.52
444.572	9.45
444.93	9.54
445.288	9.52
445.647	9.59
446.005	9.61
446.363	9.55
446.721	9.35
447.079	9.46
447.437	9.5
447.795	9.55
448.153	9.45
448.51	9.5
448.868	9.51
449.226	9.5
449.584	9.67
449.941	9.62
450.299	9.66
450.656	9.6
451.014	9.77
451.371	9.79
451.729	9.87
452.086	9.7
452.443	9.84
452.801	9.97
453.158	9.98
453.515	10.09
453.872	9.8
454.229	9.83
454.586	9.99
454.943	9.96
455.3	9.98
455.657	9.89
456.014	9.96
456.371	9.93
456.727	10.22
457.084	10.21
457.441	10.17
457.797	10.06
458.154	10.05
458.51	10.05
458.867	10.28
459.223	10.2
459.58	10.17
459.936	10.04
460.292	10.04
460.648	10.09
461.005	9.99
461.361	10.08
461.717	9.94
462.073	9.89
462.429	9.94
462.785	10.06
463.141	10.1
463.496	10.1
463.852	10.32
464.208	10.26
464.564	10.05
464.919	10.45
465.275	10.26
465.631	10.44
465.986	10.52
466.342	10.27
466.697	10.24
467.052	10.32
467.408	10.53
467.763	10.48
468.118	10.51
468.473	10.5
468.829	10.37
469.184	10.31
469.539	10.51
469.894	10.55
470.249	10.54
470.603	10.54
470.958	10.52
471.313	10.43
471.668	10.44
472.023	10.52
472.377	10.62
472.732	10.73
473.086	10.7
473.441	10.76
473.795	10.68
474.15	10.72
474.504	10.59
474.859	10.57
475.213	10.67
475.567	10.63
475.921	10.66
476.275	10.78
476.63	10.68
476.984	10.66
477.338	10.63
477.692	10.75
478.045	10.68
478.399	10.81
478.753	10.84
479.107	10.81
479.461	10.91
479.814	10.88
480.168	10.95
480.521	10.78
480.875	10.87
481.228	10.98
481.582	10.89
481.935	10.91
482.289	10.83
482.642	10.97
482.995	10.89
483.348	10.81
483.701	10.72
484.055	10.78
484.408	10.7
484.761	10.64
485.114	10.5
485.466	10.3
485.819	10.25
486.172	10.26
486.525	10.43
486.878	10.56
487.23	10.63
487.583	10.74
487.936	10.96
488.288	10.79
488.641	10.71
488.993	10.66
489.345	10.61
489.698	10.59
490.05	10.64
490.402	10.62
490.754	10.77
491.107	10.83
491.459	10.92
491.811	11.01
492.163	11.23
492.515	11.22
492.866	10.88
493.218	10.85
493.57	10.79
493.922	10.86
494.274	10.84
494.625	11.04
494.977	11.17
495.328	11.31
495.68	11.15
496.031	11.43
496.383	11.35
496.734	11.39
497.086	11.49
497.437	11.47
497.788	11.56
498.139	11.39
498.49	11.38
498.842	11.42
499.193	11.38
499.544	11.56
499.894	11.43
500.245	11.47
500.596	11.47
500.947	11.55
501.298	11.5
501.648	11.6
501.999	11.68
502.35	11.67
502.7	11.65
503.051	11.66
503.401	11.61
503.752	11.7
504.102	11.73
504.452	11.74
504.803	11.84
505.153	11.64
505.503	11.85
505.853	11.87
506.203	11.68
506.553	11.91
506.903	11.87
507.253	11.82
507.603	11.8
507.953	11.79
508.303	11.94
508.652	11.68
509.002	11.94
509.352	11.93
509.701	11.83
510.051	11.85
510.4	11.87
510.75	11.81
511.099	12.01
511.449	11.77
511.798	11.97
512.147	11.99
512.496	11.87
512.846	11.79
513.195	12.01
513.544	11.86
513.893	12.04
514.242	11.84
514.591	11.99
514.939	12.16
515.288	12.06
515.637	12.16
515.986	12.13
516.334	12.17
516.683	12.16
517.032	12.18
517.38	12.23
517.729	12.25
518.077	12.32
518.426	12.32
518.774	12.34
519.122	12.35
519.47	12.16
519.819	12.03
520.167	12.03
520.515	11.91
520.863	12
521.211	12.01
521.559	12.2
521.907	12.14
522.255	12.23
522.602	12.29
522.95	12.36
523.298	12.44
523.645	12.41
523.993	12.4
524.341	12.4
524.688	12.47
525.036	12.47
525.383	12.61
525.73	12.46
526.078	12.42
526.425	12.46
526.772	12.47
527.119	12.37
527.466	12.22
527.814	12.33
528.161	12.25
528.508	12.34
528.854	12.36
529.201	12.29
529.548	12.25
529.895	12.05
530.242	11.94
530.588	11.84
530.935	11.95
531.282	12.06
531.628	12.12
531.975	12.29
532.321	12.41
532.667	12.41
533.014	12.53
533.36	12.57
533.706	12.59
534.052	12.63
534.399	12.59
534.745	12.47
535.091	12.28
535.437	12.26
535.783	12.36
536.129	12.55
536.474	12.57
536.82	12.63
537.166	12.79
537.512	12.74
537.857	12.82
538.203	12.69
538.549	12.61
538.894	12.82
539.239	12.74
539.585	12.74
539.93	12.92
540.276	13.06
540.621	12.95
540.966	12.97
541.311	13.04
541.656	13.07
542.001	12.9
542.346	12.82
542.691	12.72
543.036	12.53
543.381	12.47
543.726	12.54
544.071	12.57
544.415	12.71
544.76	12.86
545.105	12.8
545.449	12.96
545.794	12.96
546.138	13.01
546.483	13.11
546.827	13.26
547.171	13.18
547.516	13.22
547.86	13.19
548.204	13.32
548.548	13.09
548.892	13.17
549.236	13.13
549.58	13.27
549.924	13.42
550.268	13.48
550.612	13.29
550.956	13.43
551.3	13.34
551.643	13.69
551.987	13.46
552.33	13.53
552.674	13.6
553.017	13.71
553.361	13.79
553.704	13.73
554.048	13.76
554.391	13.45
554.734	13.63
555.077	13.53
555.42	13.7
555.764	13.79
556.107	13.79
556.45	13.81
556.793	13.67
557.135	13.85
557.478	13.73
557.821	13.92
558.164	13.93
558.507	13.84
558.849	13.79
559.192	13.91
559.534	13.87
559.877	13.85
560.219	14.05
560.562	14.01
560.904	13.87
561.246	13.84
561.589	13.8
561.931	13.88
562.273	14.05
562.615	13.98
562.957	13.8
563.299	14.13
563.641	13.98
563.983	14.01
564.325	14.01
564.667	14
565.008	14.04
565.35	14.36
565.692	14.03
566.033	14.02
566.375	14.05
566.716	14.1
567.058	14.05
567.399	14.09
567.741	14.24
568.082	13.98
568.423	14.13
568.764	14.09
569.105	14
569.447	14.21
569.788	14.07
570.129	14.27
570.47	14.24
570.811	14.31
571.151	14.18
571.492	14.36
571.833	14.27
572.174	14.24
572.514	14.25
572.855	14.09
573.195	14.25
573.536	14.33
573.876	14.04
574.217	14.18
574.557	14.22
574.898	14.41
575.238	14.35
575.578	14.38
575.918	14.35
576.258	14.24
576.598	14.14
576.938	14.55
577.278	14.24
577.618	14.38
577.958	14.47
578.298	14.48
578.638	14.5
578.977	14.75
579.317	14.6
579.657	14.64
579.996	14.8
580.336	14.69
580.675	14.7
581.014	14.81
581.354	14.84
581.693	14.87
582.032	14.94
582.372	15.07
582.711	14.77
583.05	14.77
583.389	14.66
583.728	14.91
584.067	14.86
584.406	14.8
584.745	15.27
585.083	15.1
585.422	15.17
585.761	14.88
586.1	15.25
586.438	15.08
586.777	14.82
587.115	14.96
587.454	15.22
587.792	15.42
588.13	15.11
588.469	15.04
588.807	15.36
589.145	14.91
589.483	14.75
589.821	15.12
590.159	14.96
590.497	15.56
590.835	15.16
591.173	14.9
591.511	15.38
591.849	15.29
592.187	15.19
592.524	15.36
592.862	15.21
593.2	15.17
593.537	15.13
593.875	15.18
594.212	15.23
594.55	15.27
594.887	15.51
595.224	15.44
595.561	15.05
595.899	15.24
596.236	15.39
596.573	15.4
596.91	15.15
597.247	15.22
597.584	15.2
597.921	15.64
598.258	15.26
598.594	15.1
598.931	15.24
599.268	15.32
599.604	15.33
599.941	15.36
600.277	15.22
600.614	15.43
600.95	15.7
601.287	15.41
601.623	15.53
601.959	15.71
602.296	15.47
602.632	15.73
602.968	15.76
603.304	15.56
603.64	15.72
603.976	15.39
604.312	15.49
604.648	15.4
604.984	15.79
605.319	15.49
605.655	15.38
605.991	15.61
606.326	15.49
606.662	15.31
606.998	15.58
607.333	15.43
607.668	15.62
608.004	15.71
608.339	15.53
608.674	15.99
609.01	15.93
609.345	16.1
609.68	15.7
610.015	16.1
610.35	15.84
610.685	15.87
611.02	15.74
611.355	15.76
611.689	15.63
612.024	15.67
612.359	15.69
612.694	15.75
613.028	16.05
613.363	16.35
613.697	16.02
614.032	16.02
614.366	16.05
614.7	15.99
615.035	16.14
615.369	16.02
615.703	16.17
616.037	16.13
616.371	16
616.705	16.21
617.039	16.09
617.373	16.29
617.707	16.44
618.041	16.45
618.375	16.36
618.709	16.26
619.042	16.24
619.376	16.21
619.71	16.16
620.043	16.52
620.377	16.29
620.71	16.79
621.043	15.84
621.377	16.4
621.71	16.44
622.043	16.48
622.376	16.66
622.709	16.32
623.043	16.36
623.376	16.52
623.709	16.37
624.041	16.54
624.374	16.44
624.707	16.03
625.04	16.43
625.373	16.64
625.705	16.62
626.038	16.78
626.37	16.52
626.703	16.7
627.035	16.69
627.368	16.57
627.7	16.56
628.032	16.33
628.365	16.84
628.697	16.41
629.029	16.43
629.361	16.47
629.693	16.76
630.025	16.79
630.357	16.46
630.689	16.95
631.021	16.38
631.353	16.67
631.684	16.81
632.016	16.96
632.348	16.8
632.679	16.86
633.011	16.66
633.342	17
633.674	16.81
634.005	17.09
634.336	17.06
634.668	16.94
634.999	16.99
635.33	16.62
635.661	17.21
635.992	17.1
636.323	16.86
636.654	16.76
636.985	17.17
637.316	16.96
637.647	16.47
637.977	17.14
638.308	17.28
638.639	17.46
638.969	16.92
639.3	17.33
639.63	16.91
639.961	17.07
640.291	17.23
640.622	17.64
640.952	17.45
641.282	16.91
641.612	17.57
641.943	17.05
642.273	17.02
642.603	17.15
642.933	17.24
643.263	16.92
643.592	16.96
643.922	18.05
644.252	17.39
644.582	17.47
644.911	17.56
645.241	16.9
645.571	17.39
645.9	17.4
646.23	17.26
646.559	18
646.888	17.28
647.218	17.92
647.547	17.49
647.876	17.8
648.205	16.89
648.534	17.24
648.863	17.4
649.192	17.43
649.521	17.18
649.85	17.95
650.179	17.6
650.508	17.26
650.837	17.66
651.165	17.56
651.494	16.93
651.822	17.11
652.151	18.02
652.479	17.31
652.808	17.54
653.136	17.74
653.465	17.76
653.793	17.76
654.121	17.25
654.449	17.48
654.777	17.83
655.105	17.88
655.433	17.75
655.761	17.41
656.089	17.39
656.417	17.6
656.745	17.31
657.073	17.66
657.4	17.79
657.728	18.03
658.056	17.45
658.383	17.58
658.711	17.53
659.038	17.96
659.365	18.28
659.693	18.25
660.02	18.17
660.347	17.56
660.674	17.78
661.001	17.59
661.329	17.83
661.656	18.04
661.982	17.6
662.309	17.84
662.636	18.07
662.963	17.55
663.29	17.58
663.616	18.35
663.943	18.07
664.27	18.27
664.596	18.1
664.923	17.62
665.249	18.32
665.576	18.37
665.902	17.52
666.228	18.02
666.554	19.27
666.881	17.9
667.207	18.33
667.533	18.66
667.859	18.4
668.185	18.61
668.511	17.85
668.837	18.26
669.162	18.74
669.488	17.9
669.814	18.54
670.139	18.01
670.465	18.2
670.791	18.44
671.116	18.45
671.442	18.61
671.767	18.25
672.092	18.11
672.418	18.13
672.743	18.88
673.068	18.98
673.393	18.85
673.718	18.57
674.043	18.66
674.368	18.24
674.693	18.47
675.018	18.73
675.343	18.65
675.667	18.32
675.992	19.11
676.317	19.12
676.641	18.22
676.966	18.29
