Data from 0043_crown_Reflection__1__141.txt Node

Date: Fri Nov 04 16:00:13 CDT 2022
User: ToomeyLab
Spectrometer: FLMS14357
Trigger mode: 0
Integration Time (sec): 1.000000E-2
Scans to average: 100
Electric dark correction enabled: true
Nonlinearity correction enabled: false
Boxcar width: 0
XAxis mode: Wavelengths
Number of Pixels in Spectrum: 2048
>>>>>Begin Spectral Data<<<<<
189.047	326.21
189.435	326.21
189.823	326.21
190.211	19.43
190.599	83.08
190.987	123.32
191.375	35.21
191.763	-161
192.151	-141.2
192.538	-0.35
192.926	48.17
193.314	74.52
193.702	-23.37
194.089	162.18
194.477	-29.41
194.864	-77.41
195.252	73.87
195.639	-106.51
196.027	30.69
196.414	-1114.44
196.801	3.49
197.189	-51.73
197.576	-352.03
197.963	38.37
198.351	-5.89
198.738	7.83
199.125	-0.5
199.512	-96.03
199.899	22.41
200.286	-18.73
200.673	5.1
201.06	24.08
201.447	-19.71
201.833	4.39
202.22	1.09
202.607	26.05
202.994	20
203.38	42.74
203.767	3.42
204.154	63.98
204.54	-53.81
204.927	-11.02
205.313	16.15
205.699	28.1
206.086	-1.2
206.472	1.72
206.858	21.48
207.245	35.64
207.631	-7.71
208.017	14.73
208.403	10.18
208.789	22.34
209.175	-6.46
209.561	-7.43
209.947	-18.78
210.333	21.2
210.719	27.95
211.105	-41.42
211.491	8.14
211.876	16.84
212.262	3.68
212.648	-22.5
213.034	23.75
213.419	-19.14
213.805	-8.8
214.19	-22.56
214.576	-28.91
214.961	34.92
215.346	-0.21
215.732	24.92
216.117	-17.02
216.502	16.33
216.888	-21.78
217.273	-7.92
217.658	4.76
218.043	-1.95
218.428	11.74
218.813	3.24
219.198	13.4
219.583	-22.55
219.968	-6.48
220.353	-45.85
220.738	-34.04
221.122	-8.14
221.507	16.23
221.892	1.07
222.276	0.98
222.661	3.46
223.046	-2.53
223.43	3.05
223.815	-4.83
224.199	8.93
224.583	-5.58
224.968	-2.35
225.352	-2.31
225.736	-3.54
226.121	-13.11
226.505	8.4
226.889	-1.46
227.273	1.73
227.657	-3.46
228.041	5.72
228.425	1.43
228.809	1.38
229.193	3.28
229.577	-0.94
229.961	2.11
230.344	2.94
230.728	2.17
231.112	2.25
231.495	2.2
231.879	2.99
232.263	1.3
232.646	1.17
233.03	0.4
233.413	1.12
233.797	0.37
234.18	1.26
234.563	2.5
234.946	-0.65
235.33	1.19
235.713	1.48
236.096	2.7
236.479	1.77
236.862	0.28
237.245	0.7
237.628	1.1
238.011	-0.98
238.394	3.83
238.777	2.97
239.16	2.37
239.543	1.34
239.925	2.93
240.308	2.71
240.691	0.22
241.073	1.75
241.456	1.48
241.838	1.22
242.221	1.81
242.603	1.37
242.986	1.83
243.368	2.07
243.75	2.11
244.133	2.45
244.515	1.77
244.897	1.78
245.279	1.59
245.661	2.9
246.043	2.47
246.425	1.59
246.807	2.69
247.189	2.19
247.571	1.9
247.953	2.07
248.335	1.67
248.717	1.71
249.098	1.72
249.48	1.83
249.862	2.04
250.243	1.94
250.625	1.53
251.006	1.96
251.388	1.49
251.769	2.67
252.151	2.49
252.532	1.82
252.913	1.49
253.295	2.03
253.676	1.99
254.057	1.4
254.438	1.37
254.819	1.65
255.2	1.29
255.581	2.3
255.962	1.66
256.343	1.71
256.724	1.4
257.105	1.01
257.486	2.43
257.867	4.11
258.247	1.96
258.628	2.11
259.009	1.02
259.389	1.8
259.77	1.98
260.15	2.04
260.531	1.6
260.911	1.43
261.292	1.52
261.672	1.8
262.052	1.89
262.432	1.7
262.813	1.53
263.193	1.23
263.573	1.76
263.953	1.29
264.333	1.82
264.713	1.99
265.093	1.74
265.473	1.41
265.853	0.62
266.233	1.62
266.612	1.94
266.992	2.91
267.372	0.68
267.752	1.69
268.131	1.78
268.511	1.46
268.89	2.13
269.27	1.42
269.649	1.62
270.029	1.47
270.408	1.77
270.787	2.03
271.167	1.3
271.546	2.49
271.925	1.86
272.304	1.83
272.683	1.55
273.062	1.54
273.441	1.65
273.82	1.34
274.199	2.11
274.578	1.6
274.957	1.53
275.336	1.36
275.715	1.65
276.093	1.5
276.472	1.41
276.851	1.28
277.229	1.61
277.608	1.55
277.986	2.07
278.365	1.84
278.743	2.36
279.122	1.14
279.5	1.77
279.878	1.93
280.257	1.76
280.635	1.01
281.013	1.65
281.391	1.72
281.769	1.2
282.147	1.26
282.525	1.77
282.903	1.79
283.281	2.08
283.659	1.94
284.037	1.69
284.415	1.85
284.792	1.78
285.17	1.34
285.548	2.16
285.925	1.71
286.303	1.67
286.68	1.84
287.058	1.63
287.435	1.67
287.813	1.41
288.19	1.61
288.567	1.52
288.945	1.52
289.322	1.77
289.699	1.89
290.076	1.63
290.453	1.2
290.83	1.31
291.207	1.52
291.584	1.98
291.961	1.96
292.338	1.69
292.715	1.61
293.092	1.41
293.469	1.72
293.845	1.28
294.222	1.62
294.599	1.14
294.975	1.29
295.352	1.89
295.728	1.99
296.105	1.65
296.481	1.85
296.858	1.82
297.234	1.76
297.61	1.75
297.986	1.5
298.363	1.66
298.739	1.97
299.115	2.05
299.491	1.53
299.867	1.5
300.243	1.58
300.619	2.17
300.995	2.3
301.371	2.21
301.746	1.65
302.122	1.35
302.498	1.68
302.874	1.98
303.249	1.32
303.625	1.64
304	1.58
304.376	1.73
304.751	1.63
305.127	1
305.502	1.73
305.878	1.72
306.253	1.9
306.628	1.41
307.003	1.63
307.378	1.94
307.754	1.96
308.129	1.22
308.504	2.04
308.879	1.41
309.254	2.17
309.629	1.44
310.003	1.69
310.378	1.47
310.753	1.81
311.128	1.08
311.502	1.47
311.877	1.98
312.252	1.43
312.626	1.87
313.001	1.45
313.375	1.6
313.75	1.77
314.124	1.69
314.498	1.57
314.873	2.02
315.247	1.72
315.621	1.74
315.995	1.42
316.369	1.44
316.743	2.6
317.117	1.95
317.491	1.95
317.865	1.12
318.239	1.57
318.613	2.03
318.987	1.84
319.361	2.03
319.734	2.24
320.108	1.47
320.482	0.61
320.855	2.01
321.229	1.9
321.602	1.48
321.976	1.29
322.349	1.89
322.723	1.54
323.096	1.54
323.469	1.76
323.843	1.4
324.216	1.38
324.589	1.35
324.962	2.31
325.335	1.73
325.708	1.17
326.081	1.88
326.454	1.35
326.827	2.1
327.2	1.29
327.573	1.34
327.945	1.8
328.318	0.99
328.691	1.47
329.063	1.6
329.436	2.08
329.809	1.59
330.181	1.74
330.553	1.35
330.926	1.87
331.298	1.98
331.671	1.66
332.043	2.05
332.415	1.97
332.787	1.14
333.159	1.82
333.532	1.15
333.904	1.73
334.276	1.39
334.648	1.81
335.02	1.16
335.391	1.79
335.763	1.55
336.135	1.71
336.507	1.65
336.879	1.1
337.25	1.71
337.622	1.81
337.993	1.72
338.365	1.23
338.736	2.09
339.108	1.86
339.479	1.58
339.851	1.65
340.222	1.75
340.593	1.66
340.964	1.55
341.336	1.8
341.707	0.94
342.078	1.68
342.449	1.7
342.82	1.66
343.191	1.07
343.562	1.73
343.933	1.28
344.303	1.57
344.674	2.11
345.045	1.34
345.416	0.81
345.786	1.76
346.157	1.74
346.527	1.84
346.898	1.51
347.268	1.31
347.639	1.48
348.009	1.48
348.38	1.8
348.75	1.16
349.12	1.23
349.49	1.44
349.861	1.16
350.231	1.9
350.601	1.74
350.971	1.42
351.341	1.42
351.711	1.52
352.081	1.61
352.45	1.51
352.82	1.36
353.19	1.29
353.56	1.49
353.929	1.67
354.299	2.25
354.669	1.8
355.038	1.84
355.408	1.38
355.777	1.76
356.147	1.55
356.516	1.08
356.885	1.62
357.254	1.83
357.624	1.75
357.993	1.47
358.362	1.33
358.731	1.84
359.1	1.76
359.469	1.55
359.838	1.97
360.207	1.56
360.576	1.86
360.945	1.68
361.314	1.99
361.682	1.91
362.051	1.86
362.42	1.86
362.788	1.72
363.157	1.35
363.525	1.64
363.894	1.54
364.262	1.8
364.631	1.91
364.999	1.79
365.367	1.56
365.735	1.66
366.104	1.59
366.472	1.91
366.84	1.32
367.208	1.68
367.576	1.72
367.944	1.98
368.312	1.69
368.68	1.4
369.048	1.51
369.416	1.67
369.783	1.6
370.151	1.54
370.519	1.96
370.886	1.86
371.254	1.74
371.621	1.46
371.989	1.81
372.356	1.71
372.724	1.61
373.091	1.9
373.458	1.91
373.826	1.87
374.193	1.54
374.56	1.57
374.927	2.14
375.294	1.46
375.661	2
376.028	1.63
376.395	2.13
376.762	1.97
377.129	1.72
377.496	1.73
377.863	1.96
378.229	1.64
378.596	1.53
378.963	1.82
379.329	1.51
379.696	1.77
380.062	2.05
380.429	1.77
380.795	1.59
381.161	2.01
381.528	1.79
381.894	1.71
382.26	2.03
382.626	1.39
382.993	1.82
383.359	1.76
383.725	1.58
384.091	1.8
384.457	1.7
384.823	1.74
385.188	1.77
385.554	1.63
385.92	1.47
386.286	1.74
386.651	1.97
387.017	1.61
387.383	1.59
387.748	1.51
388.114	1.67
388.479	2.35
388.845	1.74
389.21	2.13
389.575	2.08
389.94	1.77
390.306	1.97
390.671	1.95
391.036	1.89
391.401	1.98
391.766	1.58
392.131	1.61
392.496	1.91
392.861	1.88
393.226	1.81
393.591	1.78
393.956	1.95
394.32	1.69
394.685	1.87
395.05	2.02
395.414	1.81
395.779	1.95
396.143	1.82
396.508	1.84
396.872	1.85
397.236	1.75
397.601	1.98
397.965	1.99
398.329	1.86
398.694	1.83
399.058	1.97
399.422	1.68
399.786	1.82
400.15	1.8
400.514	1.74
400.878	1.8
401.242	1.8
401.605	1.68
401.969	2.06
402.333	1.65
402.697	1.94
403.06	1.96
403.424	1.92
403.787	1.97
404.151	2.03
404.514	2.15
404.878	1.96
405.241	1.91
405.604	1.92
405.968	1.79
406.331	1.81
406.694	1.69
407.057	1.76
407.42	1.74
407.783	1.66
408.146	1.99
408.509	1.92
408.872	1.88
409.235	1.99
409.598	2.01
409.961	1.93
410.323	1.91
410.686	1.82
411.049	1.85
411.411	1.95
411.774	2.07
412.136	2.12
412.499	2.05
412.861	1.92
413.223	1.96
413.586	2.03
413.948	2.04
414.31	1.95
414.672	1.99
415.035	1.98
415.397	1.94
415.759	2.19
416.121	1.87
416.483	2.07
416.845	1.94
417.206	1.69
417.568	2.1
417.93	1.92
418.292	2.03
418.653	1.99
419.015	1.91
419.377	1.71
419.738	1.89
420.1	1.92
420.461	1.95
420.822	1.83
421.184	1.95
421.545	1.82
421.906	1.96
422.267	1.86
422.629	1.93
422.99	1.86
423.351	1.76
423.712	1.9
424.073	1.97
424.434	1.91
424.795	1.92
425.155	2.08
425.516	1.94
425.877	1.98
426.238	1.91
426.598	1.9
426.959	1.84
427.32	1.92
427.68	1.92
428.041	1.93
428.401	2.1
428.761	1.95
429.122	1.94
429.482	2
429.842	1.8
430.202	2.16
430.563	2.02
430.923	2.12
431.283	2.02
431.643	2.18
432.003	2.2
432.363	2.01
432.722	1.94
433.082	2.32
433.442	1.96
433.802	1.94
434.161	2.04
434.521	1.99
434.881	2.05
435.24	1.81
435.6	2.08
435.959	2.07
436.319	2.01
436.678	1.98
437.037	2.07
437.396	2.13
437.756	2.05
438.115	2.13
438.474	2.08
438.833	2.17
439.192	1.92
439.551	2.01
439.91	2.19
440.269	2.09
440.628	2.05
440.987	1.9
441.345	2.02
441.704	1.98
442.063	1.97
442.421	2.07
442.78	2.02
443.138	2.03
443.497	2.03
443.855	2.02
444.214	2.22
444.572	2.08
444.93	2.1
445.288	2.15
445.647	2.02
446.005	2.02
446.363	2.04
446.721	2.06
447.079	2
447.437	1.98
447.795	2.04
448.153	2.01
448.51	2.09
448.868	2.01
449.226	2.01
449.584	2.09
449.941	1.98
450.299	2.07
450.656	2.09
451.014	2.12
451.371	2.16
451.729	2.19
452.086	2.01
452.443	2.08
452.801	2.1
453.158	2.16
453.515	2.08
453.872	2.07
454.229	2.15
454.586	2.01
454.943	2.1
455.3	2.16
455.657	2.01
456.014	2.18
456.371	2.15
456.727	2.2
457.084	2.25
457.441	2.27
457.797	1.99
458.154	2.13
458.51	2.2
458.867	2.07
459.223	2.12
459.58	2.41
459.936	2.22
460.292	2.18
460.648	2.1
461.005	2.09
461.361	2.16
461.717	2.06
462.073	2.2
462.429	2.23
462.785	2.05
463.141	2.24
463.496	2.14
463.852	2.23
464.208	2.21
464.564	2.12
464.919	2.4
465.275	2.3
465.631	2.24
465.986	2.2
466.342	2.01
466.697	2.22
467.052	2.21
467.408	2.25
467.763	2.27
468.118	2.41
468.473	2.27
468.829	2.27
469.184	2.16
469.539	2.23
469.894	2.28
470.249	2.17
470.603	2.15
470.958	2.11
471.313	2.16
471.668	2.17
472.023	2.05
472.377	2.21
472.732	2.29
473.086	2.2
473.441	2.18
473.795	2.32
474.15	2.34
474.504	2.26
474.859	2.12
475.213	2.2
475.567	2.13
475.921	2.21
476.275	2.36
476.63	2.21
476.984	2.23
477.338	2.24
477.692	2.28
478.045	2.31
478.399	2.08
478.753	2.27
479.107	2.28
479.461	2.49
479.814	2.26
480.168	2.3
480.521	2.13
480.875	2.11
481.228	2.27
481.582	2.29
481.935	2.25
482.289	2.32
482.642	2.24
482.995	2.23
483.348	2.27
483.701	2.31
484.055	2.14
484.408	2.18
484.761	2.19
485.114	2.14
485.466	2.09
485.819	2.04
486.172	2.06
486.525	2.1
486.878	2.17
487.23	2.18
487.583	2.24
487.936	2.33
488.288	2.24
488.641	2.19
488.993	2.17
489.345	2.15
489.698	2.12
490.05	2.13
490.402	2.14
490.754	2.17
491.107	2.31
491.459	2.25
491.811	2.22
492.163	2.33
492.515	2.32
492.866	2.24
493.218	2.14
493.57	2.07
493.922	2.23
494.274	2.14
494.625	2.24
494.977	2.32
495.328	2.39
495.68	2.19
496.031	2.28
496.383	2.42
496.734	2.33
497.086	2.41
497.437	2.41
497.788	2.32
498.139	2.17
498.49	2.21
498.842	2.36
499.193	2.4
499.544	2.43
499.894	2.33
500.245	2.42
500.596	2.34
500.947	2.22
501.298	2.31
501.648	2.33
501.999	2.41
502.35	2.32
502.7	2.36
503.051	2.4
503.401	2.35
503.752	2.49
504.102	2.47
504.452	2.51
504.803	2.4
505.153	2.36
505.503	2.42
505.853	2.45
506.203	2.41
506.553	2.34
506.903	2.47
507.253	2.38
507.603	2.29
507.953	2.48
508.303	2.5
508.652	2.28
509.002	2.52
509.352	2.38
509.701	2.42
510.051	2.37
510.4	2.43
510.75	2.37
511.099	2.41
511.449	2.37
511.798	2.35
512.147	2.41
512.496	2.36
512.846	2.36
513.195	2.43
513.544	2.36
513.893	2.3
514.242	2.33
514.591	2.32
514.939	2.39
515.288	2.41
515.637	2.31
515.986	2.3
516.334	2.52
516.683	2.45
517.032	2.49
517.38	2.51
517.729	2.46
518.077	2.41
518.426	2.35
518.774	2.47
519.122	2.39
519.47	2.42
519.819	2.41
520.167	2.42
520.515	2.32
520.863	2.27
521.211	2.33
521.559	2.42
521.907	2.37
522.255	2.53
522.602	2.44
522.95	2.41
523.298	2.59
523.645	2.47
523.993	2.42
524.341	2.51
524.688	2.54
525.036	2.5
525.383	2.48
525.73	2.49
526.078	2.58
526.425	2.56
526.772	2.41
527.119	2.46
527.466	2.42
527.814	2.42
528.161	2.36
528.508	2.41
528.854	2.45
529.201	2.41
529.548	2.32
529.895	2.35
530.242	2.3
530.588	2.26
530.935	2.3
531.282	2.39
531.628	2.31
531.975	2.43
532.321	2.5
532.667	2.47
533.014	2.5
533.36	2.43
533.706	2.46
534.052	2.49
534.399	2.39
534.745	2.39
535.091	2.34
535.437	2.3
535.783	2.4
536.129	2.54
536.474	2.52
536.82	2.53
537.166	2.49
537.512	2.58
537.857	2.48
538.203	2.46
538.549	2.38
538.894	2.48
539.239	2.56
539.585	2.48
539.93	2.5
540.276	2.52
540.621	2.6
540.966	2.63
541.311	2.45
541.656	2.52
542.001	2.46
542.346	2.47
542.691	2.46
543.036	2.36
543.381	2.41
543.726	2.39
544.071	2.44
544.415	2.48
544.76	2.48
545.105	2.46
545.449	2.55
545.794	2.53
546.138	2.48
546.483	2.56
546.827	2.52
547.171	2.58
547.516	2.56
547.86	2.57
548.204	2.65
548.548	2.53
548.892	2.46
549.236	2.51
549.58	2.5
549.924	2.61
550.268	2.75
550.612	2.45
550.956	2.64
551.3	2.67
551.643	2.67
551.987	2.48
552.33	2.63
552.674	2.53
553.017	2.71
553.361	2.66
553.704	2.59
554.048	2.49
554.391	2.5
554.734	2.72
555.077	2.57
555.42	2.75
555.764	2.83
556.107	2.6
556.45	2.65
556.793	2.78
557.135	2.65
557.478	2.55
557.821	2.76
558.164	2.79
558.507	2.62
558.849	2.7
559.192	2.74
559.534	2.54
559.877	2.63
560.219	2.64
560.562	2.72
560.904	2.79
561.246	2.64
561.589	2.67
561.931	2.71
562.273	2.9
562.615	2.54
562.957	2.72
563.299	2.65
563.641	2.66
563.983	2.66
564.325	2.65
564.667	2.77
565.008	2.48
565.35	2.56
565.692	2.9
566.033	2.89
566.375	2.67
566.716	2.8
567.058	2.67
567.399	2.71
567.741	2.67
568.082	2.72
568.423	2.64
568.764	2.68
569.105	2.6
569.447	2.74
569.788	2.65
570.129	2.78
570.47	2.75
570.811	2.8
571.151	2.71
571.492	2.73
571.833	2.63
572.174	2.86
572.514	2.61
572.855	2.6
573.195	2.67
573.536	2.63
573.876	2.65
574.217	2.56
574.557	2.58
574.898	2.69
575.238	2.68
575.578	2.84
575.918	2.8
576.258	2.86
576.598	2.84
576.938	2.8
577.278	2.76
577.618	2.63
577.958	2.66
578.298	2.72
578.638	2.65
578.977	2.93
579.317	2.83
579.657	2.41
579.996	2.68
580.336	2.67
580.675	2.52
581.014	2.78
581.354	2.76
581.693	2.96
582.032	2.87
582.372	2.98
582.711	2.79
583.05	3
583.389	2.97
583.728	2.64
584.067	2.78
584.406	2.52
584.745	2.71
585.083	2.72
585.422	2.94
585.761	2.78
586.1	2.9
586.438	2.68
586.777	2.69
587.115	2.79
587.454	2.88
587.792	3.22
588.13	2.8
588.469	2.87
588.807	3.17
589.145	2.91
589.483	2.5
589.821	3
590.159	2.67
590.497	2.93
590.835	2.79
591.173	2.63
591.511	2.79
591.849	2.85
592.187	2.75
592.524	2.82
592.862	2.88
593.2	2.95
593.537	2.91
593.875	2.96
594.212	2.66
594.55	2.87
594.887	2.9
595.224	2.95
595.561	2.59
595.899	2.86
596.236	3.09
596.573	2.79
596.91	2.88
597.247	2.71
597.584	2.55
597.921	3
598.258	2.8
598.594	2.5
598.931	2.86
599.268	2.81
599.604	2.79
599.941	3.01
600.277	2.71
600.614	2.94
600.95	3.03
601.287	2.71
601.623	2.9
601.959	2.91
602.296	2.7
602.632	3.05
602.968	3.02
603.304	2.75
603.64	2.84
603.976	2.44
604.312	2.92
604.648	2.75
604.984	2.89
605.319	2.89
605.655	2.68
605.991	2.95
606.326	2.77
606.662	2.84
606.998	2.77
607.333	2.83
607.668	2.98
608.004	2.91
608.339	2.7
608.674	3.04
609.01	2.69
609.345	3.15
609.68	2.85
610.015	2.84
610.35	2.74
610.685	3.14
611.02	2.67
611.355	2.91
611.689	2.69
612.024	3.05
612.359	2.71
612.694	2.79
613.028	2.89
613.363	3.18
613.697	2.93
614.032	2.92
614.366	2.67
614.7	2.87
615.035	3.19
615.369	2.9
615.703	3.16
616.037	2.82
616.371	3.16
616.705	2.58
617.039	3.24
617.373	3.18
617.707	3.16
618.041	3.11
618.375	3.25
618.709	3.03
619.042	2.91
619.376	3.04
619.71	2.88
620.043	3.28
620.377	3.28
620.71	3.12
621.043	3.01
621.377	3.23
621.71	3.32
622.043	3.12
622.376	2.98
622.709	3.13
623.043	3.1
623.376	3.57
623.709	2.92
624.041	2.86
624.374	2.86
624.707	2.66
625.04	3.22
625.373	3.08
625.705	2.85
626.038	2.9
626.37	3.1
626.703	3.19
627.035	2.76
627.368	3.14
627.7	2.92
628.032	2.97
628.365	3.31
628.697	2.8
629.029	2.9
629.361	2.96
629.693	3.15
630.025	2.92
630.357	2.97
630.689	3.05
631.021	2.84
631.353	2.99
631.684	3.14
632.016	2.9
632.348	3.06
632.679	3.08
633.011	2.88
633.342	2.86
633.674	2.75
634.005	3.03
634.336	3.2
634.668	2.93
634.999	3.28
635.33	2.88
635.661	3.08
635.992	3.02
636.323	3.08
636.654	2.75
636.985	3.15
637.316	3.1
637.647	2.75
637.977	3.34
638.308	3.01
638.639	3.36
638.969	2.93
639.3	2.96
639.63	2.87
639.961	3.44
640.291	2.82
640.622	3.66
640.952	2.97
641.282	3.11
641.612	3.44
641.943	2.96
642.273	3.1
642.603	3.01
642.933	3.16
643.263	2.97
643.592	3.05
643.922	3.62
644.252	3.28
644.582	3.22
644.911	2.92
645.241	2.9
645.571	3.02
645.9	3.22
646.23	3.34
646.559	3.36
646.888	3.15
647.218	3.35
647.547	3.02
647.876	2.91
648.205	2.94
648.534	3.24
648.863	3.34
649.192	3.33
649.521	3.36
649.85	3.48
650.179	3.39
650.508	3
650.837	3.24
651.165	3.28
651.494	3
651.822	3.14
652.151	3.47
652.479	2.84
652.808	3.03
653.136	3.2
653.465	3.06
653.793	3.63
654.121	3.24
654.449	2.88
654.777	2.89
655.105	3.17
655.433	3.17
655.761	3.12
656.089	3.09
656.417	3.26
656.745	2.77
657.073	2.75
657.4	2.75
657.728	3.27
658.056	2.86
658.383	3.37
658.711	3.26
659.038	3.22
659.365	3.68
659.693	3.9
660.02	3.59
660.347	3.31
660.674	2.57
661.001	3.06
661.329	3.01
661.656	3.19
661.982	2.9
662.309	3.47
662.636	3.34
662.963	2.86
663.29	3.12
663.616	3.81
663.943	3.63
664.27	3.53
664.596	3.59
664.923	3.2
665.249	3.43
665.576	3.3
665.902	2.25
666.228	2.98
666.554	3.86
666.881	3.71
667.207	2.88
667.533	2.87
667.859	3.39
668.185	3.3
668.511	3.6
668.837	3.28
669.162	3.52
669.488	2.81
669.814	2.97
670.139	2.85
670.465	3.67
670.791	3.34
671.116	3.07
671.442	3.23
671.767	3.13
672.092	3.39
672.418	2.98
672.743	3.91
673.068	3.81
673.393	3.27
673.718	3.85
674.043	3.12
674.368	3.19
674.693	2.92
675.018	2.99
675.343	3.65
675.667	3.38
675.992	3.57
676.317	3.64
676.641	3.39
676.966	3.02
677.29	3.18
677.615	2.96
677.939	3.54
678.264	3.53
678.588	3.56
678.912	3.59
679.236	3.56
679.56	3.19
679.885	3.47
680.209	3.36
680.532	3.52
680.856	3.53
681.18	3.54
681.504	3.38
681.828	3.41
682.152	3.55
682.475	3.31
682.799	3.95
683.122	3.51
683.446	3.11
683.769	2.83
684.093	4.02
684.416	3.03
684.739	3.43
685.062	4.43
685.386	3.15
685.709	4.22
686.032	3.68
686.355	4.24
686.678	3.31
687.001	4.17
687.324	3.57
687.646	3.48
687.969	3.01
688.292	3.55
688.614	3.95
688.937	3.68
689.26	3.7
689.582	3.25
689.904	4.36
690.227	3.25
690.549	2.96
690.871	3.49
691.194	3.89
691.516	3.39
691.838	2.93
692.16	4.33
692.482	3.42
