Data from 0043_crown_Reflection__3__143.txt Node

Date: Fri Nov 04 16:00:35 CDT 2022
User: ToomeyLab
Spectrometer: FLMS14357
Trigger mode: 0
Integration Time (sec): 1.000000E-2
Scans to average: 100
Electric dark correction enabled: true
Nonlinearity correction enabled: false
Boxcar width: 0
XAxis mode: Wavelengths
Number of Pixels in Spectrum: 2048
>>>>>Begin Spectral Data<<<<<
189.047	165.68
189.435	165.68
189.823	165.68
190.211	-66.63
190.599	-90.33
190.987	146.8
191.375	61.71
191.763	-144.66
192.151	-68.53
192.538	169.71
192.926	27.61
193.314	-62.45
193.702	359.57
194.089	194.71
194.477	-4.75
194.864	160.25
195.252	125.23
195.639	-193.05
196.027	11.17
196.414	1504.44
196.801	160.15
197.189	43.7
197.576	-632.99
197.963	20.69
198.351	-1.76
198.738	21.6
199.125	4.63
199.512	-92.18
199.899	-5.11
200.286	-24.6
200.673	-50.96
201.06	-3.7
201.447	17.25
201.833	-6.56
202.22	-31.45
202.607	12.24
202.994	19.63
203.38	22.15
203.767	-10.58
204.154	31.43
204.54	-25.92
204.927	-8.59
205.313	37.25
205.699	29.7
206.086	57.54
206.472	-22.39
206.858	-31.72
207.245	-32.17
207.631	5.54
208.017	21.5
208.403	20.95
208.789	19.96
209.175	24.56
209.561	-47.78
209.947	-86.86
210.333	15.97
210.719	11.38
211.105	-57.39
211.491	13.21
211.876	9.91
212.262	-8.52
212.648	10.35
213.034	32.46
213.419	-1.16
213.805	-26.23
214.19	-34.99
214.576	3.67
214.961	8.65
215.346	1.42
215.732	16.63
216.117	14.52
216.502	6.1
216.888	-9.02
217.273	10.27
217.658	-16.01
218.043	-8.67
218.428	4.89
218.813	-10.26
219.198	-14
219.583	-26.98
219.968	3.53
220.353	-8.85
220.738	-14.94
221.122	-12.02
221.507	12.51
221.892	-39.77
222.276	-22.48
222.661	3.02
223.046	0.34
223.43	10.84
223.815	-7.68
224.199	6.8
224.583	1.13
224.968	0.86
225.352	3.29
225.736	-7.23
226.121	-7.31
226.505	-2.65
226.889	2.86
227.273	4.53
227.657	2.27
228.041	5.26
228.425	1.23
228.809	4.71
229.193	4.16
229.577	2.32
229.961	4.83
230.344	4.04
230.728	2.85
231.112	3.18
231.495	3.49
231.879	3.7
232.263	2.68
232.646	2.47
233.03	1.88
233.413	1.49
233.797	1.77
234.18	3.18
234.563	2.45
234.946	2.01
235.33	3.78
235.713	2.76
236.096	3.11
236.479	2.4
236.862	2.35
237.245	2.47
237.628	4.13
238.011	-0
238.394	2.94
238.777	4.11
239.16	2.58
239.543	3.65
239.925	1.97
240.308	4.47
240.691	2.53
241.073	1.86
241.456	3.53
241.838	2.8
242.221	3.19
242.603	2.11
242.986	2.71
243.368	2.64
243.75	2.98
244.133	2.87
244.515	3.15
244.897	3.02
245.279	2.56
245.661	3.48
246.043	3.44
246.425	1.94
246.807	2.86
247.189	2.35
247.571	3.21
247.953	3.09
248.335	2.68
248.717	2.97
249.098	2.83
249.48	2.72
249.862	3.16
250.243	2.79
250.625	2.71
251.006	2.79
251.388	2.95
251.769	2.49
252.151	3.59
252.532	2.58
252.913	2.57
253.295	3.19
253.676	2.33
254.057	2.29
254.438	2.32
254.819	2.76
255.2	2.14
255.581	3.5
255.962	2.79
256.343	1.36
256.724	2.94
257.105	2.11
257.486	2.9
257.867	4.34
258.247	3.88
258.628	2.15
259.009	2.42
259.389	2.59
259.77	2.9
260.15	2.46
260.531	2.82
260.911	2.67
261.292	2.42
261.672	2.69
262.052	2.71
262.432	2.91
262.813	2.5
263.193	1.99
263.573	2.13
263.953	2.84
264.333	2.8
264.713	2.98
265.093	2.28
265.473	2.78
265.853	1.72
266.233	3.06
266.612	2.77
266.992	2.95
267.372	1.77
267.752	2.51
268.131	2.88
268.511	2.83
268.89	2.85
269.27	3.02
269.649	2.66
270.029	2.21
270.408	2.45
270.787	2.55
271.167	2.15
271.546	3.15
271.925	2.39
272.304	2.48
272.683	2.5
273.062	2.91
273.441	2.8
273.82	2.44
274.199	2.74
274.578	2.42
274.957	2.61
275.336	2.01
275.715	2.35
276.093	2.7
276.472	2.45
276.851	2.07
277.229	2.59
277.608	2.5
277.986	2.45
278.365	2.69
278.743	2.28
279.122	2.43
279.5	2.34
279.878	2.52
280.257	2.64
280.635	2.03
281.013	2.51
281.391	2.75
281.769	2.88
282.147	2.21
282.525	2.51
282.903	2.72
283.281	3.02
283.659	2.33
284.037	2.36
284.415	2.37
284.792	2.66
285.17	2.06
285.548	2.69
285.925	2.55
286.303	2.61
286.68	2.81
287.058	2.48
287.435	2.41
287.813	2.5
288.19	2.44
288.567	2.45
288.945	2.44
289.322	2.94
289.699	2.83
290.076	2.13
290.453	2.36
290.83	2.34
291.207	2.33
291.584	2.42
291.961	2.34
292.338	2.58
292.715	2.65
293.092	2.28
293.469	2.33
293.845	2.3
294.222	1.86
294.599	2.29
294.975	2.19
295.352	2.21
295.728	2.47
296.105	2.38
296.481	2.2
296.858	2.11
297.234	2.73
297.61	2.64
297.986	2.2
298.363	2.38
298.739	2.35
299.115	2.26
299.491	2.28
299.867	2.53
300.243	2.58
300.619	2.79
300.995	2.78
301.371	2.88
301.746	2.41
302.122	2.08
302.498	2.15
302.874	2.4
303.249	2.27
303.625	2.39
304	2.49
304.376	1.77
304.751	2.33
305.127	1.88
305.502	2.31
305.878	2.48
306.253	2.59
306.628	1.88
307.003	2.32
307.378	2.65
307.754	1.99
308.129	2.03
308.504	2.4
308.879	2.52
309.254	2.7
309.629	2.65
310.003	2.53
310.378	2.28
310.753	2.75
311.128	2.15
311.502	1.98
311.877	2.26
312.252	2.13
312.626	2.42
313.001	2.11
313.375	2.53
313.75	2.09
314.124	2.45
314.498	2.37
314.873	2.13
315.247	2.37
315.621	2.39
315.995	2.45
316.369	2.46
316.743	2.72
317.117	2.54
317.491	2.6
317.865	2.18
318.239	2.19
318.613	2.87
318.987	2.41
319.361	1.74
319.734	2.61
320.108	3.13
320.482	1.42
320.855	2.48
321.229	2.23
321.602	2.18
321.976	1.96
322.349	2.97
322.723	2.24
323.096	2.34
323.469	2.46
323.843	2.37
324.216	2.84
324.589	2.97
324.962	2.74
325.335	2.5
325.708	2.05
326.081	2.36
326.454	1.99
326.827	2.44
327.2	2.06
327.573	2.24
327.945	2.47
328.318	2.05
328.691	2.21
329.063	2.48
329.436	2.49
329.809	1.96
330.181	2.27
330.553	2.32
330.926	2.44
331.298	2.35
331.671	1.96
332.043	2.44
332.415	2.04
332.787	1.94
333.159	1.94
333.532	1.67
333.904	2.36
334.276	2.21
334.648	2.39
335.02	2.12
335.391	2.37
335.763	2.16
336.135	2.48
336.507	2.55
336.879	2.45
337.25	2.99
337.622	2.49
337.993	2.83
338.365	2.46
338.736	2.69
339.108	2.33
339.479	2.52
339.851	1.83
340.222	2.15
340.593	2.47
340.964	2.38
341.336	2.1
341.707	1.8
342.078	2.33
342.449	2.46
342.82	2.29
343.191	2.23
343.562	2.62
343.933	2.74
344.303	2.38
344.674	2.63
345.045	2.28
345.416	1.84
345.786	2.72
346.157	2.28
346.527	2.52
346.898	2.44
347.268	2.26
347.639	2.24
348.009	2.77
348.38	1.92
348.75	1.93
349.12	2.14
349.49	2.4
349.861	2.24
350.231	2.51
350.601	2.49
350.971	1.86
351.341	2
351.711	2.06
352.081	2.31
352.45	2.4
352.82	2.25
353.19	2.57
353.56	2.58
353.929	2.59
354.299	2.78
354.669	2.63
355.038	2.37
355.408	2.15
355.777	2.59
356.147	2.26
356.516	1.95
356.885	2.38
357.254	2.45
357.624	2.48
357.993	2.36
358.362	2.06
358.731	2.13
359.1	2.55
359.469	2.63
359.838	2.49
360.207	2.37
360.576	2.63
360.945	2.42
361.314	2.77
361.682	2.28
362.051	2.21
362.42	2.47
362.788	2.29
363.157	2.5
363.525	2.52
363.894	2.54
364.262	2.56
364.631	2.64
364.999	2.26
365.367	2.34
365.735	2.95
366.104	2.29
366.472	2.51
366.84	2.35
367.208	2.45
367.576	2.41
367.944	2.65
368.312	2.75
368.68	2.39
369.048	2.35
369.416	2.52
369.783	2.2
370.151	2.35
370.519	3.04
370.886	2.29
371.254	2.42
371.621	2.52
371.989	2.46
372.356	2.67
372.724	2.43
373.091	2.84
373.458	2.77
373.826	2.68
374.193	2.35
374.56	2.53
374.927	2.95
375.294	2.27
375.661	2.81
376.028	2.41
376.395	2.59
376.762	2.62
377.129	2.5
377.496	2.73
377.863	2.29
378.229	2.52
378.596	2.32
378.963	2.59
379.329	2.51
379.696	2.5
380.062	3.04
380.429	2.67
380.795	2.5
381.161	2.77
381.528	3.03
381.894	2.31
382.26	2.49
382.626	2.08
382.993	2.47
383.359	2.65
383.725	2.37
384.091	2.51
384.457	2.55
384.823	2.54
385.188	2.44
385.554	2.51
385.92	2.33
386.286	2.71
386.651	2.73
387.017	2.36
387.383	2.62
387.748	2.28
388.114	2.48
388.479	3.14
388.845	2.58
389.21	2.81
389.575	2.7
389.94	2.54
390.306	2.81
390.671	2.67
391.036	2.67
391.401	2.92
391.766	2.47
392.131	2.41
392.496	2.53
392.861	2.72
393.226	2.49
393.591	2.67
393.956	2.75
394.32	2.42
394.685	2.71
395.05	2.83
395.414	2.8
395.779	2.57
396.143	2.6
396.508	2.75
396.872	2.85
397.236	2.67
397.601	2.6
397.965	2.3
398.329	2.62
398.694	2.86
399.058	2.96
399.422	2.61
399.786	2.86
400.15	2.52
400.514	2.55
400.878	2.72
401.242	2.81
401.605	2.58
401.969	2.71
402.333	2.8
402.697	2.72
403.06	2.83
403.424	2.55
403.787	2.61
404.151	2.81
404.514	2.74
404.878	2.65
405.241	2.65
405.604	2.9
405.968	2.64
406.331	2.72
406.694	2.6
407.057	2.54
407.42	2.65
407.783	2.56
408.146	3
408.509	2.69
408.872	2.64
409.235	2.77
409.598	2.84
409.961	2.91
410.323	2.78
410.686	2.65
411.049	2.58
411.411	2.47
411.774	2.82
412.136	2.99
412.499	2.79
412.861	2.79
413.223	2.71
413.586	2.59
413.948	2.63
414.31	2.65
414.672	2.82
415.035	2.76
415.397	2.6
415.759	2.75
416.121	2.76
416.483	2.79
416.845	2.76
417.206	2.72
417.568	2.72
417.93	2.71
418.292	2.61
418.653	2.76
419.015	2.67
419.377	2.84
419.738	2.72
420.1	2.75
420.461	2.77
420.822	2.61
421.184	2.75
421.545	2.62
421.906	2.75
422.267	2.62
422.629	2.74
422.99	2.63
423.351	2.57
423.712	2.72
424.073	2.77
424.434	2.75
424.795	2.75
425.155	2.83
425.516	2.8
425.877	2.61
426.238	2.69
426.598	2.7
426.959	2.64
427.32	2.66
427.68	2.79
428.041	2.73
428.401	2.85
428.761	2.88
429.122	2.72
429.482	2.77
429.842	2.62
430.202	3.01
430.563	2.78
430.923	2.9
431.283	2.67
431.643	2.93
432.003	3.02
432.363	2.75
432.722	2.83
433.082	2.84
433.442	2.85
433.802	2.66
434.161	2.69
434.521	2.75
434.881	2.78
435.24	2.75
435.6	2.8
435.959	2.77
436.319	2.73
436.678	2.85
437.037	2.91
437.396	2.97
437.756	2.93
438.115	2.77
438.474	2.85
438.833	2.84
439.192	2.71
439.551	2.88
439.91	2.92
440.269	2.88
440.628	2.96
440.987	2.88
441.345	2.71
441.704	2.78
442.063	2.73
442.421	2.79
442.78	2.76
443.138	2.8
443.497	2.7
443.855	2.72
444.214	2.85
444.572	2.85
444.93	2.79
445.288	2.82
445.647	2.72
446.005	2.71
446.363	2.79
446.721	2.73
447.079	2.8
447.437	2.66
447.795	2.7
448.153	2.72
448.51	2.74
448.868	2.77
449.226	2.72
449.584	2.78
449.941	2.7
450.299	2.79
450.656	2.7
451.014	2.9
451.371	2.84
451.729	3.01
452.086	2.88
452.443	2.85
452.801	2.76
453.158	2.88
453.515	3.08
453.872	2.75
454.229	3.02
454.586	2.78
454.943	2.78
455.3	2.77
455.657	2.72
456.014	2.67
456.371	2.83
456.727	2.99
457.084	2.95
457.441	2.89
457.797	2.78
458.154	2.94
458.51	2.84
458.867	2.7
459.223	2.83
459.58	3.12
459.936	2.66
460.292	2.77
460.648	2.86
461.005	2.78
461.361	2.8
461.717	2.82
462.073	2.82
462.429	2.89
462.785	2.88
463.141	2.89
463.496	2.81
463.852	2.93
464.208	2.96
464.564	2.78
464.919	2.95
465.275	3.02
465.631	2.9
465.986	3.01
466.342	3.03
466.697	2.92
467.052	2.87
467.408	3.01
467.763	2.87
468.118	3.13
468.473	2.88
468.829	2.87
469.184	2.89
469.539	2.82
469.894	2.98
470.249	2.87
470.603	2.89
470.958	2.7
471.313	2.8
471.668	2.83
472.023	2.73
472.377	3.01
472.732	2.87
473.086	2.9
473.441	2.87
473.795	2.83
474.15	2.92
474.504	2.87
474.859	2.88
475.213	2.85
475.567	2.78
475.921	2.87
476.275	2.97
476.63	2.9
476.984	2.88
477.338	2.84
477.692	2.97
478.045	2.82
478.399	2.89
478.753	2.95
479.107	2.88
479.461	3.05
479.814	3.03
480.168	2.94
480.521	2.79
480.875	2.95
481.228	2.94
481.582	2.96
481.935	2.9
482.289	2.89
482.642	2.95
482.995	3
483.348	2.9
483.701	2.88
484.055	2.87
484.408	2.89
484.761	2.78
485.114	2.71
485.466	2.67
485.819	2.67
486.172	2.66
486.525	2.72
486.878	2.83
487.23	2.84
487.583	2.84
487.936	2.92
488.288	2.82
488.641	2.84
488.993	2.75
489.345	2.73
489.698	2.74
490.05	2.79
490.402	2.75
490.754	2.78
491.107	2.81
491.459	2.82
491.811	2.84
492.163	2.97
492.515	2.97
492.866	2.85
493.218	2.81
493.57	2.71
493.922	2.8
494.274	2.76
494.625	2.87
494.977	2.94
495.328	2.94
495.68	2.86
496.031	2.92
496.383	2.97
496.734	2.89
497.086	3.11
497.437	3.09
497.788	3.01
498.139	2.89
498.49	2.86
498.842	2.92
499.193	2.96
499.544	2.9
499.894	2.92
500.245	2.93
500.596	2.96
500.947	2.91
501.298	3
501.648	2.93
501.999	3.03
502.35	3
502.7	2.91
503.051	3.02
503.401	3
503.752	3.09
504.102	2.94
504.452	3.08
504.803	2.9
505.153	2.95
505.503	3
505.853	2.97
506.203	2.86
506.553	3.08
506.903	2.92
507.253	2.99
507.603	2.88
507.953	2.87
508.303	2.89
508.652	2.9
509.002	3.03
509.352	3.02
509.701	3
510.051	2.98
510.4	2.88
510.75	2.9
511.099	2.94
511.449	2.94
511.798	2.82
512.147	2.91
512.496	2.89
512.846	2.89
513.195	2.93
513.544	2.91
513.893	2.99
514.242	2.99
514.591	2.92
514.939	3.1
515.288	2.99
515.637	2.98
515.986	3.02
516.334	3.03
516.683	2.96
517.032	3.02
517.38	3.03
517.729	2.96
518.077	2.94
518.426	3.01
518.774	2.89
519.122	2.98
519.47	2.95
519.819	2.84
520.167	2.97
520.515	2.9
520.863	2.87
521.211	2.89
521.559	2.93
521.907	2.89
522.255	2.98
522.602	2.92
522.95	3.01
523.298	3.05
523.645	2.91
523.993	2.91
524.341	3.05
524.688	3.09
525.036	3.03
525.383	3.13
525.73	3.01
526.078	3.03
526.425	3.02
526.772	2.89
527.119	2.93
527.466	3.05
527.814	2.95
528.161	2.89
528.508	2.86
528.854	2.93
529.201	2.89
529.548	2.92
529.895	2.8
530.242	2.78
530.588	2.77
530.935	2.82
531.282	2.86
531.628	2.81
531.975	2.92
532.321	2.99
532.667	2.98
533.014	2.98
533.36	3.04
533.706	3.04
534.052	2.92
534.399	2.89
534.745	2.89
535.091	2.87
535.437	2.82
535.783	2.83
536.129	2.97
536.474	2.96
536.82	2.94
537.166	3.04
537.512	2.97
537.857	2.98
538.203	2.91
538.549	2.87
538.894	2.97
539.239	3.04
539.585	2.98
539.93	2.97
540.276	3.03
540.621	3.07
540.966	3.07
541.311	2.9
541.656	3.09
542.001	3
542.346	2.95
542.691	2.94
543.036	2.78
543.381	2.88
543.726	2.9
544.071	2.93
544.415	2.99
544.76	2.96
545.105	2.96
545.449	2.97
545.794	2.96
546.138	2.98
546.483	3.08
546.827	3.04
547.171	3.04
547.516	3.03
547.86	2.94
548.204	3.1
548.548	3.02
548.892	2.96
549.236	3.08
549.58	3.06
549.924	3.08
550.268	3.1
550.612	2.87
550.956	2.99
551.3	3.14
551.643	2.95
551.987	3.06
552.33	2.99
552.674	2.88
553.017	3.24
553.361	3.17
553.704	3.01
554.048	3
554.391	3.01
554.734	3.08
555.077	3.08
555.42	3.08
555.764	3.23
556.107	3.13
556.45	3.24
556.793	3.18
557.135	3.1
557.478	2.96
557.821	3.15
558.164	3.04
558.507	2.94
558.849	3.07
559.192	3.14
559.534	2.86
559.877	2.95
560.219	2.93
560.562	3.17
560.904	3.12
561.246	3
561.589	3.08
561.931	2.95
562.273	3.16
562.615	2.91
562.957	3.13
563.299	3
563.641	3.03
563.983	3.14
564.325	2.97
564.667	3.11
565.008	2.89
565.35	3.22
565.692	3.36
566.033	3.07
566.375	3.1
566.716	2.96
567.058	3.11
567.399	3.14
567.741	3.2
568.082	3.22
568.423	2.97
568.764	3
569.105	3.06
569.447	3.17
569.788	3.14
570.129	3.15
570.47	3.23
570.811	3.19
571.151	3.15
571.492	3.13
571.833	3.09
572.174	3.27
572.514	2.96
572.855	2.95
573.195	3.13
573.536	2.92
573.876	2.99
574.217	2.89
574.557	2.99
574.898	3.11
575.238	3.07
575.578	3.24
575.918	3.03
576.258	3.07
576.598	3.18
576.938	3.18
577.278	3.12
577.618	2.92
577.958	2.95
578.298	3.02
578.638	3.15
578.977	3.16
579.317	3.24
579.657	3.02
579.996	3.16
580.336	3.2
580.675	2.98
581.014	3.27
581.354	3.26
581.693	3.44
582.032	3.02
582.372	3.07
582.711	2.96
583.05	3.08
583.389	3.17
583.728	3.18
584.067	3.1
584.406	3.03
584.745	3.32
585.083	3.2
585.422	3.19
585.761	2.94
586.1	3.03
586.438	3.03
586.777	3.11
587.115	3
587.454	3.46
587.792	3.35
588.13	3.14
588.469	3.3
588.807	3.07
589.145	3.18
589.483	2.73
589.821	3.23
590.159	3.07
590.497	3.23
590.835	3
591.173	2.85
591.511	3.33
591.849	3.26
592.187	3.13
592.524	3.11
592.862	3.03
593.2	3.18
593.537	3.32
593.875	3.26
594.212	3.22
594.55	3.03
594.887	3.35
595.224	3.25
595.561	2.9
595.899	3.27
596.236	3.27
596.573	3.01
596.91	3.1
597.247	3.06
597.584	3.07
597.921	3.33
598.258	3.26
598.594	2.82
598.931	3.22
599.268	3.07
599.604	3.13
599.941	3.21
600.277	3.11
600.614	3.29
600.95	3.27
601.287	3.02
601.623	3.05
601.959	3.26
602.296	3.03
602.632	3.32
602.968	3.24
603.304	3.16
603.64	3.04
603.976	2.79
604.312	3.08
604.648	3.23
604.984	2.95
605.319	3.14
605.655	3.03
605.991	3.4
606.326	3.08
606.662	3.04
606.998	3.05
607.333	3.05
607.668	3.21
608.004	3.18
608.339	3.12
608.674	3.27
609.01	3.08
609.345	3.26
609.68	3.14
610.015	3.01
610.35	3.22
610.685	3.21
611.02	3.19
611.355	3.2
611.689	3.15
612.024	3.21
612.359	3.01
612.694	3.16
613.028	3.53
613.363	3.61
613.697	3.25
614.032	3.17
614.366	3.2
614.7	3.17
615.035	3.16
615.369	3.06
615.703	3.46
616.037	3.26
616.371	3.38
616.705	3.41
617.039	3.26
617.373	3.43
617.707	3.25
618.041	3.13
618.375	3.17
618.709	3.24
619.042	3.24
619.376	3.53
619.71	3.32
620.043	3.28
620.377	3.67
620.71	3.6
621.043	3.28
621.377	3.42
621.71	3.2
622.043	3.49
622.376	3.35
622.709	3.07
623.043	3.22
623.376	3.77
623.709	3.03
624.041	3.3
624.374	3.13
624.707	2.71
625.04	3.5
625.373	3.59
625.705	3.08
626.038	3.46
626.37	3.46
626.703	3.23
627.035	3.14
627.368	3.21
627.7	2.98
628.032	3.23
628.365	3.46
628.697	3.2
629.029	2.98
629.361	3.22
629.693	3.37
630.025	3.31
630.357	3.05
630.689	2.97
631.021	3.27
631.353	3.23
631.684	3.18
632.016	3.38
632.348	3.21
632.679	3.18
633.011	3.29
633.342	3.2
633.674	3.31
634.005	3.26
634.336	3.6
634.668	3.49
634.999	3.09
635.33	2.74
635.661	3.1
635.992	3.32
636.323	3.36
636.654	2.98
636.985	3.33
637.316	2.99
637.647	3.15
637.977	3.47
638.308	3.27
638.639	3.31
638.969	2.79
639.3	3.46
639.63	3.01
639.961	3.19
640.291	3.51
640.622	3.38
640.952	3.15
641.282	3.4
641.612	3.51
641.943	2.96
642.273	3
642.603	3.81
642.933	3.37
643.263	3.25
643.592	3.44
643.922	3.6
644.252	3.71
644.582	3.76
644.911	3.33
645.241	3.02
645.571	3.05
645.9	3.08
646.23	3.18
646.559	3.46
646.888	3.37
647.218	3.4
647.547	3.51
647.876	3.38
648.205	3.42
648.534	3.75
648.863	3.38
649.192	3.47
649.521	3.28
649.85	3.86
650.179	3.57
650.508	3.11
650.837	3.41
651.165	3.33
651.494	3.5
651.822	3.19
652.151	3.55
652.479	2.87
652.808	2.95
653.136	3.26
653.465	3.42
653.793	3.59
654.121	3.13
654.449	2.91
654.777	3.07
655.105	3.42
655.433	3.44
655.761	3.1
656.089	3.39
656.417	2.88
656.745	3.29
657.073	3.14
657.4	3.37
657.728	2.88
658.056	2.85
658.383	3.45
658.711	3.3
659.038	3.21
659.365	3.84
659.693	3.5
660.02	3.85
660.347	3.31
660.674	3.29
661.001	3.19
661.329	3.42
661.656	3.47
661.982	2.85
662.309	3.27
662.636	3.38
662.963	2.75
663.29	3.29
663.616	3.83
663.943	3.18
664.27	3.44
664.596	3.19
664.923	3.23
665.249	3.73
665.576	3.36
665.902	2.35
666.228	2.73
666.554	3.58
666.881	3.16
667.207	3.89
667.533	3.43
667.859	3.27
668.185	3.47
668.511	3.76
668.837	2.91
669.162	3.95
669.488	2.85
669.814	3.54
670.139	3.65
670.465	3.16
670.791	3.53
671.116	3.13
671.442	3.15
671.767	3.3
672.092	3.07
672.418	3.52
672.743	4.12
673.068	3.41
673.393	3.43
673.718	3.74
674.043	3.46
674.368	2.28
674.693	3.2
675.018	3.39
675.343	3.34
675.667	3.8
675.992	3.58
676.317	3.12
676.641	3.7
676.966	3.62
677.29	3.51
677.615	3.86
677.939	3.25
678.264	3.76
678.588	3.24
678.912	3.93
679.236	3.68
679.56	3.55
679.885	3.79
680.209	3.19
680.532	3.3
680.856	3.12
681.18	3.69
681.504	3.46
681.828	3.16
682.152	3.54
682.475	3.69
682.799	3.89
683.122	3.59
683.446	3.34
683.769	3.56
684.093	3.29
684.416	2.9
684.739	2.92
685.062	4.1
685.386	3.63
685.709	3.17
686.032	3.66
686.355	4.17
686.678	3.43
687.001	3.33
687.324	3.49
687.646	4.28
687.969	3.15
688.292	3.39
688.614	3.95
688.937	3.5
689.26	3.5
689.582	4.39
689.904	3.99
690.227	3.22
690.549	3.56
690.871	4.13
691.194	3.38
691.516	3.67
691.838	2.96
692.16	3.78
692.482	2.98
