Data from 0043_forehead_Reflection__3__149.txt Node

Date: Fri Nov 04 16:02:34 CDT 2022
User: ToomeyLab
Spectrometer: FLMS14357
Trigger mode: 0
Integration Time (sec): 1.000000E-2
Scans to average: 100
Electric dark correction enabled: true
Nonlinearity correction enabled: false
Boxcar width: 0
XAxis mode: Wavelengths
Number of Pixels in Spectrum: 2048
>>>>>Begin Spectral Data<<<<<
189.047	258.84
189.435	258.84
189.823	258.84
190.211	6.24
190.599	-63.49
190.987	150.16
191.375	31.44
191.763	-124.76
192.151	-105.33
192.538	-28.56
192.926	79.19
193.314	158.81
193.702	293
194.089	84.02
194.477	49.16
194.864	-26.05
195.252	81.05
195.639	-38.06
196.027	85.86
196.414	-1256.67
196.801	68.24
197.189	75.68
197.576	-490.1
197.963	107.39
198.351	21.94
198.738	21.74
199.125	2.03
199.512	-37.01
199.899	27.1
200.286	27.09
200.673	-6.53
201.06	-23.47
201.447	13.49
201.833	12.14
202.22	19.37
202.607	20.18
202.994	60.4
203.38	47.58
203.767	24.63
204.154	20.42
204.54	6.15
204.927	12.47
205.313	38.5
205.699	5.51
206.086	36.8
206.472	28.78
206.858	38.03
207.245	48.56
207.631	34.79
208.017	28.24
208.403	20.23
208.789	53.74
209.175	38.68
209.561	-23.23
209.947	-54.34
210.333	62.86
210.719	25.15
211.105	-21.97
211.491	23.8
211.876	12.29
212.262	19.25
212.648	-4.51
213.034	25
213.419	-4.42
213.805	-16.73
214.19	-16.67
214.576	27.51
214.961	33.29
215.346	5.2
215.732	46.32
216.117	-10.84
216.502	13.45
216.888	11.1
217.273	7.76
217.658	20.63
218.043	17.01
218.428	19.37
218.813	-1.03
219.198	31.2
219.583	-8.11
219.968	19.92
220.353	6.55
220.738	-0.91
221.122	7.42
221.507	16.11
221.892	-19.99
222.276	7.66
222.661	-1.21
223.046	2.59
223.43	1.47
223.815	6.01
224.199	11.6
224.583	4.43
224.968	9.27
225.352	11.84
225.736	-2.36
226.121	-1.95
226.505	14.56
226.889	6.79
227.273	8.78
227.657	7.07
228.041	7.84
228.425	9.3
228.809	7.87
229.193	2.97
229.577	3.58
229.961	4.94
230.344	3.88
230.728	3.59
231.112	2.72
231.495	2.75
231.879	3.87
232.263	3.82
232.646	3.8
233.03	2.41
233.413	2.12
233.797	2.24
234.18	4.82
234.563	3.38
234.946	4.55
235.33	4.82
235.713	3.34
236.096	3.39
236.479	3.36
236.862	2.54
237.245	1.99
237.628	3.26
238.011	2.43
238.394	2.95
238.777	3.38
239.16	4.91
239.543	1.4
239.925	4.09
240.308	4.06
240.691	3.68
241.073	2.77
241.456	2.97
241.838	3.7
242.221	3.09
242.603	3.11
242.986	3.46
243.368	3.57
243.75	3.61
244.133	3.55
244.515	3.32
244.897	3.47
245.279	3.32
245.661	3.59
246.043	4.28
246.425	3.67
246.807	4
247.189	3.89
247.571	3.63
247.953	3.6
248.335	3.59
248.717	3.64
249.098	3.43
249.48	3.38
249.862	3.6
250.243	3.53
250.625	3.86
251.006	3.96
251.388	4.08
251.769	4.32
252.151	4.47
252.532	3.79
252.913	3.13
253.295	4.46
253.676	3.34
254.057	3.35
254.438	3.29
254.819	3.78
255.2	4.09
255.581	4.36
255.962	5.13
256.343	3.5
256.724	4.34
257.105	3.5
257.486	4.42
257.867	5.62
258.247	3.32
258.628	2.76
259.009	3.36
259.389	4.33
259.77	3.98
260.15	4.12
260.531	3.49
260.911	3.5
261.292	3.56
261.672	3.53
262.052	3.71
262.432	3.86
262.813	3.55
263.193	2.84
263.573	3.52
263.953	3.2
264.333	4.03
264.713	4.14
265.093	3.37
265.473	4.26
265.853	3.32
266.233	3.84
266.612	4.36
266.992	4.64
267.372	3.43
267.752	3.9
268.131	4.23
268.511	3.74
268.89	3.94
269.27	3.84
269.649	3.77
270.029	3.44
270.408	3.75
270.787	4.3
271.167	4.11
271.546	4.83
271.925	3.78
272.304	3.83
272.683	3.97
273.062	3.7
273.441	3.98
273.82	3.42
274.199	3.55
274.578	3.29
274.957	3.61
275.336	3.03
275.715	3.38
276.093	4
276.472	3.5
276.851	3.75
277.229	3.37
277.608	3.48
277.986	4.08
278.365	3.5
278.743	4.08
279.122	4.03
279.5	3.85
279.878	3.91
280.257	4
280.635	3.88
281.013	3.65
281.391	4.29
281.769	3.85
282.147	3.24
282.525	3.77
282.903	3.69
283.281	4.11
283.659	3.97
284.037	3.54
284.415	3.75
284.792	4.08
285.17	3.85
285.548	4.16
285.925	4.08
286.303	3.98
286.68	4.14
287.058	3.76
287.435	3.61
287.813	3.68
288.19	3.99
288.567	3.95
288.945	3.92
289.322	4.09
289.699	4.24
290.076	4.2
290.453	3.8
290.83	4.05
291.207	3.98
291.584	4.06
291.961	4.55
292.338	4.31
292.715	4.35
293.092	4.33
293.469	4.35
293.845	4.49
294.222	4.24
294.599	4.2
294.975	4.71
295.352	4.66
295.728	4.92
296.105	5
296.481	4.88
296.858	4.72
297.234	5.16
297.61	4.96
297.986	4.56
298.363	4.71
298.739	4.89
299.115	4.94
299.491	4.8
299.867	4.75
300.243	5.13
300.619	5.19
300.995	5.54
301.371	5.87
301.746	5.13
302.122	5.5
302.498	5.77
302.874	5.67
303.249	5.07
303.625	4.92
304	5.38
304.376	5.49
304.751	5.85
305.127	5.24
305.502	5.82
305.878	5.82
306.253	5.69
306.628	5.47
307.003	5.67
307.378	6.45
307.754	6.25
308.129	5.53
308.504	6.02
308.879	6.31
309.254	6.19
309.629	6.17
310.003	6.35
310.378	6.41
310.753	6.57
311.128	6.24
311.502	6.25
311.877	6.58
312.252	6.35
312.626	6.52
313.001	6.63
313.375	6.63
313.75	6.86
314.124	6.73
314.498	6.58
314.873	7.29
315.247	7.47
315.621	7.11
315.995	7.56
316.369	7.22
316.743	7.87
317.117	7.7
317.491	8.09
317.865	7.73
318.239	7.92
318.613	8.23
318.987	8.04
319.361	7.96
319.734	8.28
320.108	7.77
320.482	7.75
320.855	7.83
321.229	7.66
321.602	8.16
321.976	8.23
322.349	8.82
322.723	8.77
323.096	8.85
323.469	8.32
323.843	8.16
324.216	8.69
324.589	8.82
324.962	8.93
325.335	8.95
325.708	8.5
326.081	8.76
326.454	8.71
326.827	9.71
327.2	8.77
327.573	9.17
327.945	9.31
328.318	9.06
328.691	9.26
329.063	9.35
329.436	9.78
329.809	9.16
330.181	9.27
330.553	9.49
330.926	9.26
331.298	9.7
331.671	10.13
332.043	10.18
332.415	9.63
332.787	9.56
333.159	9.57
333.532	9.68
333.904	10.84
334.276	10.49
334.648	10.13
335.02	10.11
335.391	10.49
335.763	10.08
336.135	10.4
336.507	10.63
336.879	10.81
337.25	10.93
337.622	10.6
337.993	11.15
338.365	10.64
338.736	11.18
339.108	11.47
339.479	11.16
339.851	11.06
340.222	10.8
340.593	11.25
340.964	11.42
341.336	11.08
341.707	11.2
342.078	11.26
342.449	11.47
342.82	11.38
343.191	11
343.562	11.56
343.933	11.57
344.303	11.89
344.674	11.87
345.045	11.91
345.416	11.62
345.786	12.16
346.157	12.17
346.527	11.56
346.898	12.35
347.268	12.06
347.639	12.36
348.009	12.46
348.38	12.04
348.75	12.08
349.12	12.12
349.49	12.53
349.861	12.05
350.231	12.79
350.601	12.56
350.971	12.47
351.341	12.78
351.711	12.5
352.081	12.84
352.45	12.99
352.82	13.03
353.19	13.11
353.56	13.2
353.929	13.07
354.299	13.44
354.669	13.51
355.038	13.42
355.408	12.85
355.777	13.36
356.147	13.34
356.516	13.3
356.885	13.65
357.254	14.08
357.624	13.78
357.993	13.42
358.362	13.47
358.731	13.7
359.1	13.93
359.469	13.89
359.838	13.53
360.207	13.69
360.576	14.06
360.945	14.21
361.314	14.13
361.682	13.92
362.051	14.06
362.42	14.09
362.788	14.13
363.157	14.37
363.525	14.29
363.894	14.07
364.262	14.34
364.631	14.46
364.999	14.47
365.367	14.71
365.735	15.1
366.104	14.52
366.472	14.83
366.84	14.66
367.208	14.83
367.576	14.76
367.944	15.08
368.312	15.14
368.68	14.89
369.048	15.05
369.416	14.8
369.783	15.09
370.151	15.45
370.519	15.9
370.886	15.56
371.254	15.68
371.621	15.5
371.989	15.56
372.356	15.65
372.724	15.65
373.091	15.68
373.458	15.64
373.826	16.07
374.193	15.91
374.56	15.99
374.927	16.45
375.294	16.25
375.661	16.57
376.028	16.31
376.395	16.83
376.762	16.82
377.129	16.53
377.496	16.8
377.863	16.69
378.229	16.81
378.596	16.4
378.963	16.71
379.329	16.38
379.696	16.58
380.062	16.92
380.429	17
380.795	16.99
381.161	16.96
381.528	17.2
381.894	16.99
382.26	17.26
382.626	17.1
382.993	17.56
383.359	17.37
383.725	17.24
384.091	17.52
384.457	17.75
384.823	17.53
385.188	17.75
385.554	17.44
385.92	17.35
386.286	17.29
386.651	17.82
387.017	17.81
387.383	17.94
387.748	17.73
388.114	17.73
388.479	18.41
388.845	17.79
389.21	18.34
389.575	18.2
389.94	18.26
390.306	18.43
390.671	18.43
391.036	18.24
391.401	18.57
391.766	18.38
392.131	18.46
392.496	18.63
392.861	18.72
393.226	18.72
393.591	18.65
393.956	18.97
394.32	18.79
394.685	19.09
395.05	19.07
395.414	19.07
395.779	19.03
396.143	18.93
396.508	19.17
396.872	19.36
397.236	19.24
397.601	19.07
397.965	19.38
398.329	19.57
398.694	19.63
399.058	19.57
399.422	19.31
399.786	19.47
400.15	19.56
400.514	19.72
400.878	19.66
401.242	19.86
401.605	19.89
401.969	20.12
402.333	19.92
402.697	20.17
403.06	20.31
403.424	20.18
403.787	20
404.151	20.25
404.514	20.39
404.878	20.41
405.241	20.28
405.604	20.39
405.968	20.34
406.331	20.46
406.694	20.11
407.057	20.52
407.42	20.5
407.783	20.26
408.146	20.65
408.509	20.77
408.872	20.83
409.235	20.87
409.598	20.75
409.961	20.96
410.323	21.05
410.686	20.93
411.049	21.1
411.411	21.12
411.774	21.01
412.136	21.2
412.499	21.42
412.861	21.41
413.223	21.31
413.586	21.58
413.948	21.5
414.31	21.32
414.672	21.81
415.035	21.59
415.397	21.59
415.759	22.04
416.121	21.59
416.483	21.76
416.845	21.53
417.206	21.78
417.568	21.93
417.93	21.73
418.292	21.96
418.653	21.95
419.015	21.89
419.377	21.67
419.738	21.87
420.1	21.89
420.461	21.79
420.822	21.73
421.184	21.9
421.545	21.84
421.906	21.89
422.267	21.85
422.629	21.93
422.99	21.78
423.351	21.74
423.712	21.97
424.073	22.19
424.434	22.23
424.795	22.19
425.155	22.38
425.516	22.21
425.877	22.11
426.238	22.1
426.598	22.28
426.959	22.48
427.32	22.47
427.68	22.65
428.041	22.6
428.401	22.85
428.761	23.14
429.122	22.91
429.482	23.06
429.842	23.02
430.202	23.34
430.563	23.4
430.923	23.44
431.283	23.36
431.643	23.42
432.003	23.71
432.363	23.57
432.722	23.59
433.082	23.84
433.442	23.74
433.802	23.68
434.161	23.74
434.521	23.56
434.881	23.75
435.24	23.72
435.6	23.89
435.959	23.79
436.319	23.83
436.678	23.86
437.037	24.01
437.396	24.17
437.756	24.18
438.115	24.24
438.474	24.28
438.833	24.39
439.192	24.19
439.551	24.56
439.91	24.3
440.269	24.23
440.628	24.45
440.987	24.26
441.345	24.31
441.704	24.47
442.063	24.51
442.421	24.48
442.78	24.45
443.138	24.39
443.497	24.44
443.855	24.66
444.214	24.85
444.572	24.88
444.93	24.96
445.288	24.95
445.647	24.99
446.005	24.83
446.363	25.02
446.721	24.89
447.079	24.93
447.437	24.82
447.795	24.78
448.153	24.94
448.51	24.88
448.868	24.96
449.226	25
449.584	25.09
449.941	25.22
450.299	25.15
450.656	25.45
451.014	25.61
451.371	25.78
451.729	25.66
452.086	25.69
452.443	25.84
452.801	26.03
453.158	25.89
453.515	25.88
453.872	25.74
454.229	26.05
454.586	26.02
454.943	26.11
455.3	26.05
455.657	26.27
456.014	26.36
456.371	26.3
456.727	26.28
457.084	26.49
457.441	26.48
457.797	26.71
458.154	26.79
458.51	26.72
458.867	26.53
459.223	26.88
459.58	26.85
459.936	26.56
460.292	26.63
460.648	26.65
461.005	26.56
461.361	26.57
461.717	26.27
462.073	26.36
462.429	26.65
462.785	26.86
463.141	27.03
463.496	27.02
463.852	27.21
464.208	27.38
464.564	27.48
464.919	27.61
465.275	27.63
465.631	27.6
465.986	27.64
466.342	27.84
466.697	27.66
467.052	27.63
467.408	27.57
467.763	27.76
468.118	27.88
468.473	27.77
468.829	27.93
469.184	27.8
469.539	27.91
469.894	28.12
470.249	28.03
470.603	28.36
470.958	28.16
471.313	28.16
471.668	28.36
472.023	28.13
472.377	28.5
472.732	28.74
473.086	28.44
473.441	28.62
473.795	28.51
474.15	28.56
474.504	28.96
474.859	28.66
475.213	28.67
475.567	28.68
475.921	28.75
476.275	29.08
476.63	28.98
476.984	28.8
477.338	28.95
477.692	29.01
478.045	29.16
478.399	28.73
478.753	29.03
479.107	29.01
479.461	29.08
479.814	29.1
480.168	29.05
480.521	29.14
480.875	29.17
481.228	29.32
481.582	29.38
481.935	29.23
482.289	29.38
482.642	29.59
482.995	29.28
483.348	29.44
483.701	29.22
484.055	29.02
484.408	28.93
484.761	28.74
485.114	28.48
485.466	28.28
485.819	28.14
486.172	28.28
486.525	28.53
486.878	28.85
487.23	29.11
487.583	29.35
487.936	29.43
488.288	29.36
488.641	29.13
488.993	28.89
489.345	28.84
489.698	28.88
490.05	28.96
490.402	29.12
490.754	29.42
491.107	29.56
491.459	29.79
491.811	30.02
492.163	30.07
492.515	30.03
492.866	29.78
493.218	29.55
493.57	29.31
493.922	29.54
494.274	29.7
494.625	30
494.977	30.42
495.328	30.62
495.68	30.75
496.031	30.77
496.383	31.09
496.734	31.12
497.086	31.06
497.437	31.27
497.788	31.07
498.139	30.95
498.49	30.77
498.842	30.82
499.193	30.91
499.544	31.13
499.894	31.22
500.245	31.37
500.596	31.32
500.947	31.53
501.298	31.51
501.648	31.53
501.999	31.84
502.35	31.95
502.7	31.64
503.051	31.82
503.401	31.94
503.752	31.98
504.102	31.81
504.452	32.07
504.803	32.11
505.153	32.04
505.503	32.12
505.853	32.23
506.203	32.04
506.553	32.2
506.903	32.29
507.253	32.2
507.603	32.2
507.953	32.3
508.303	32.55
508.652	32.51
509.002	32.65
509.352	32.43
509.701	32.6
510.051	32.46
510.4	32.57
510.75	32.43
511.099	32.52
511.449	32.48
511.798	32.45
512.147	32.56
512.496	32.67
512.846	32.63
513.195	32.75
513.544	32.61
513.893	32.71
514.242	32.83
514.591	32.8
514.939	32.97
515.288	33.05
515.637	33.08
515.986	33.29
516.334	33.04
516.683	33.36
517.032	33.36
517.38	33.36
517.729	33.49
518.077	33.54
518.426	33.53
518.774	33.49
519.122	33.25
519.47	33.22
519.819	32.92
520.167	32.99
520.515	32.87
520.863	32.98
521.211	33.12
521.559	33.29
521.907	33.45
522.255	33.67
522.602	33.82
522.95	33.75
523.298	33.99
523.645	33.81
523.993	34.01
524.341	34.04
524.688	34.16
525.036	34.19
525.383	34.24
525.73	34.29
526.078	34.1
526.425	34.24
526.772	34.02
527.119	33.81
527.466	33.68
527.814	33.44
528.161	33.73
528.508	33.82
528.854	33.95
529.201	34.08
529.548	33.86
529.895	33.46
530.242	33.22
530.588	33.12
530.935	33.3
531.282	33.55
531.628	33.86
531.975	34.07
532.321	34.25
532.667	34.45
533.014	34.56
533.36	34.66
533.706	34.48
534.052	34.71
534.399	34.49
534.745	34.28
535.091	34.07
535.437	33.98
535.783	34.09
536.129	34.61
536.474	34.84
536.82	34.95
537.166	35.18
537.512	35.09
537.857	35.13
538.203	34.77
538.549	34.7
538.894	34.79
539.239	35
539.585	35.23
539.93	35.32
540.276	35.68
540.621	35.69
540.966	35.91
541.311	35.73
541.656	35.78
542.001	35.75
542.346	35.25
542.691	35.1
543.036	34.8
543.381	34.6
543.726	34.84
544.071	35.08
544.415	35.49
544.76	35.61
545.105	35.75
545.449	35.71
545.794	35.82
546.138	35.91
546.483	36.13
546.827	36.24
547.171	36.19
547.516	36.21
547.86	36.27
548.204	36.33
548.548	36.03
548.892	36.1
549.236	36.28
549.58	36.43
549.924	36.78
550.268	37.01
550.612	36.81
550.956	37.01
551.3	37.1
551.643	37.36
551.987	37.3
552.33	37.38
552.674	37.3
553.017	37.2
553.361	37.45
553.704	37.56
554.048	37.64
554.391	37.47
554.734	37.28
555.077	37.4
555.42	37.77
555.764	37.91
556.107	37.79
556.45	37.75
556.793	37.89
557.135	37.81
557.478	37.78
557.821	38
558.164	38.15
558.507	38.01
558.849	38.23
559.192	38
559.534	38.26
559.877	38.18
560.219	38.38
560.562	38.25
560.904	38.4
561.246	38.33
561.589	38.49
561.931	38.3
562.273	38.52
562.615	38.35
562.957	38.58
563.299	38.57
563.641	38.58
563.983	38.44
564.325	38.76
564.667	38.8
565.008	38.8
565.35	38.55
565.692	39.09
566.033	38.79
566.375	38.76
566.716	38.81
567.058	38.93
567.399	38.64
567.741	38.72
568.082	38.61
568.423	38.56
568.764	38.81
569.105	38.7
569.447	39.03
569.788	39.1
570.129	39.25
570.47	39.19
570.811	39.16
571.151	39.28
571.492	39.38
571.833	39.36
572.174	39.67
572.514	39.45
572.855	39.17
573.195	39.32
573.536	39.44
573.876	39.33
574.217	39.29
574.557	39.11
574.898	39.57
575.238	39.63
575.578	39.62
575.918	39.64
576.258	39.52
576.598	39.71
576.938	39.74
577.278	39.63
577.618	39.6
577.958	39.89
578.298	39.81
578.638	39.82
578.977	40.04
579.317	40.12
579.657	40.14
579.996	40.56
580.336	40.27
580.675	39.97
581.014	40.49
581.354	40.77
581.693	40.87
582.032	40.6
582.372	40.97
582.711	40.92
583.05	40.4
583.389	40.65
583.728	41.07
584.067	41
584.406	41.07
584.745	41.07
585.083	40.81
585.422	41.03
585.761	41.09
586.1	41.1
586.438	41.15
586.777	41.15
587.115	41.24
587.454	41.52
587.792	41.57
588.13	41.5
588.469	41.18
588.807	41.4
589.145	41.33
589.483	41.22
589.821	41.6
590.159	41.06
590.497	41.65
590.835	41.4
591.173	41.37
591.511	41.65
591.849	41.35
592.187	41.42
592.524	41.64
592.862	41.41
593.2	41.83
593.537	41.61
593.875	41.68
594.212	41.99
594.55	41.81
594.887	41.84
595.224	41.76
595.561	41.72
595.899	41.97
596.236	42.04
596.573	41.63
596.91	41.74
597.247	41.99
597.584	42.09
597.921	42.13
598.258	41.7
598.594	41.39
598.931	41.74
599.268	41.83
599.604	41.88
599.941	41.94
600.277	42.13
600.614	42.23
600.95	42.59
601.287	42.63
601.623	42.56
601.959	42.65
602.296	42.61
602.632	42.68
602.968	42.86
603.304	42.52
603.64	42.68
603.976	42.63
604.312	42.87
604.648	42.39
604.984	42.42
605.319	42.24
605.655	42.48
605.991	42.39
606.326	42.47
606.662	42.37
606.998	42.3
607.333	42.56
607.668	42.74
608.004	42.92
608.339	43.23
608.674	43.4
609.01	43.18
609.345	43.32
609.68	43.23
610.015	43.6
610.35	43.3
610.685	43.11
611.02	43.16
611.355	43.04
611.689	43.09
612.024	42.92
612.359	43.05
612.694	43.23
613.028	43.6
613.363	43.89
613.697	43.63
614.032	43.9
614.366	43.73
614.7	43.7
615.035	43.9
615.369	43.78
615.703	44.14
616.037	43.86
616.371	43.75
616.705	44.16
617.039	44.41
617.373	44.14
617.707	44.09
618.041	44.03
618.375	44.24
618.709	44.23
619.042	44.62
619.376	44.33
619.71	44.51
620.043	44.35
620.377	44.65
620.71	45.01
621.043	44.43
621.377	44.74
621.71	44.46
622.043	44.56
622.376	44.52
622.709	44.78
623.043	44.6
623.376	45.37
623.709	44.83
624.041	44.92
624.374	44.85
624.707	44.08
625.04	45.26
625.373	45.41
625.705	44.81
626.038	45.23
626.37	44.71
626.703	45.51
627.035	44.98
627.368	45.06
627.7	45.19
628.032	44.63
628.365	45
628.697	44.97
629.029	45.19
629.361	44.83
629.693	44.86
630.025	45.23
630.357	45.37
630.689	45.22
631.021	45.06
631.353	45.54
631.684	45.28
632.016	45.27
632.348	45.68
632.679	45.68
633.011	45.74
633.342	45.48
633.674	45.97
634.005	46.14
634.336	45.97
634.668	45.94
634.999	45.86
635.33	45.39
635.661	46.2
635.992	45.89
636.323	45.8
636.654	45.75
636.985	45.77
637.316	46.02
637.647	46.25
637.977	45.9
638.308	46.65
638.639	46.53
638.969	46.14
639.3	46.45
639.63	46.4
639.961	46.67
640.291	46.31
640.622	46.58
640.952	46.2
641.282	46.49
641.612	46.77
641.943	46.54
642.273	46.6
642.603	46.52
642.933	46.52
643.263	46.5
643.592	46.52
643.922	47.37
644.252	46.54
644.582	46.55
644.911	46.82
645.241	46.8
645.571	46.55
645.9	46.99
646.23	47.12
646.559	47.64
646.888	46.82
647.218	47.61
647.547	47.39
647.876	46.75
648.205	46.94
648.534	47.69
648.863	47.59
649.192	47.51
649.521	47.21
649.85	47.06
650.179	47.4
650.508	47.06
650.837	47.58
651.165	47.33
651.494	47.62
651.822	47.58
652.151	47.51
652.479	47.71
652.808	47.26
653.136	47.11
653.465	47.4
653.793	47.06
654.121	47.46
654.449	47.88
654.777	48.42
655.105	47.38
655.433	47.59
655.761	47.54
656.089	47.71
656.417	47.52
656.745	47.71
657.073	47.86
657.4	47.59
657.728	47.74
658.056	47.92
658.383	48.36
658.711	47.5
659.038	48.11
659.365	47.56
659.693	48.51
660.02	48.12
660.347	47.29
660.674	47.38
661.001	47.53
661.329	47.69
661.656	47.99
661.982	47.74
662.309	47.81
662.636	48.57
662.963	48.49
663.29	47.71
663.616	48.51
663.943	48.75
664.27	48.16
664.596	48.71
664.923	48.63
665.249	48.06
665.576	48.7
665.902	48.7
666.228	48.6
666.554	49.1
666.881	48.77
667.207	48.92
667.533	48.86
667.859	47.78
668.185	49.07
668.511	48.99
668.837	47.96
669.162	49.48
669.488	48.23
669.814	48.93
670.139	48.71
670.465	48.42
