Data from 0043_chest_Reflection__0__135.txt Node

Date: Fri Nov 04 15:57:47 CDT 2022
User: ToomeyLab
Spectrometer: FLMS14357
Trigger mode: 0
Integration Time (sec): 1.000000E-2
Scans to average: 100
Electric dark correction enabled: true
Nonlinearity correction enabled: false
Boxcar width: 0
XAxis mode: Wavelengths
Number of Pixels in Spectrum: 2048
>>>>>Begin Spectral Data<<<<<
189.047	273.84
189.435	273.84
189.823	273.84
190.211	95.03
190.599	27.29
190.987	-36.31
191.375	13.4
191.763	-252.67
192.151	-49.96
192.538	95.82
192.926	38.76
193.314	-171.93
193.702	351.23
194.089	51.67
194.477	-40.05
194.864	62.04
195.252	88.27
195.639	-40.78
196.027	143.34
196.414	2602.78
196.801	39.05
197.189	-8.09
197.576	-404.44
197.963	9.08
198.351	-44.77
198.738	36.97
199.125	8.72
199.512	-159.49
199.899	41.98
200.286	-40.83
200.673	-43.63
201.06	-30.55
201.447	-57.57
201.833	9.15
202.22	-33.87
202.607	2.44
202.994	10.98
203.38	36.14
203.767	-17.66
204.154	58.32
204.54	-11.79
204.927	16.03
205.313	29.73
205.699	22.17
206.086	0.74
206.472	-3.43
206.858	24.33
207.245	-10.36
207.631	20.57
208.017	28.72
208.403	5.71
208.789	24.53
209.175	15.28
209.561	-30.71
209.947	-27.68
210.333	14.51
210.719	-8.01
211.105	-31.74
211.491	-11.3
211.876	21.31
212.262	-7.04
212.648	-11.88
213.034	7.61
213.419	-10.76
213.805	4
214.19	-64.2
214.576	-15.82
214.961	15.96
215.346	-29.39
215.732	26.09
216.117	-26.14
216.502	30.66
216.888	-21.32
217.273	-6.72
217.658	0.4
218.043	-5.03
218.428	7.47
218.813	-8.02
219.198	0.66
219.583	-14.61
219.968	7.45
220.353	-9.79
220.738	-12.58
221.122	-5.02
221.507	13.72
221.892	-33.63
222.276	-7.19
222.661	17.02
223.046	0.6
223.43	5.21
223.815	-7.78
224.199	7.02
224.583	6.25
224.968	-5.91
225.352	5.18
225.736	-5.23
226.121	-2.94
226.505	2.94
226.889	2.42
227.273	3.4
227.657	-0.66
228.041	2.28
228.425	4.14
228.809	3.23
229.193	2.53
229.577	0.97
229.961	1.97
230.344	3.94
230.728	2.85
231.112	2.07
231.495	1.91
231.879	2.93
232.263	1.49
232.646	2.32
233.03	2.17
233.413	1.67
233.797	0.97
234.18	2.41
234.563	2.4
234.946	1.57
235.33	3.29
235.713	1.73
236.096	2.96
236.479	2.39
236.862	1.21
237.245	-0.42
237.628	3.43
238.011	0.74
238.394	3.44
238.777	3.41
239.16	1.07
239.543	1.43
239.925	2.74
240.308	4.31
240.691	2.07
241.073	1.95
241.456	1.96
241.838	2.47
242.221	1.8
242.603	2.93
242.986	2.24
243.368	2.4
243.75	3.16
244.133	3.02
244.515	2.91
244.897	2.76
245.279	2.69
245.661	2.91
246.043	3.02
246.425	1.79
246.807	3.53
247.189	2.06
247.571	3.21
247.953	2.58
248.335	2.25
248.717	2.73
249.098	2.89
249.48	2.92
249.862	3.13
250.243	2.65
250.625	2.36
251.006	2.58
251.388	3.17
251.769	4.01
252.151	3.78
252.532	3.15
252.913	2.8
253.295	3.2
253.676	2.85
254.057	2.51
254.438	2.81
254.819	3.24
255.2	2.14
255.581	3.95
255.962	2.91
256.343	2.55
256.724	2.78
257.105	2.33
257.486	3.03
257.867	4.66
258.247	3.72
258.628	3.02
259.009	2.1
259.389	2.97
259.77	2.42
260.15	2.8
260.531	2.53
260.911	2.4
261.292	2.68
261.672	2.67
262.052	2.72
262.432	2.82
262.813	2.34
263.193	2.22
263.573	2.62
263.953	2.5
264.333	2.97
264.713	3.06
265.093	2.58
265.473	3.09
265.853	1.88
266.233	2.63
266.612	2.86
266.992	2.67
267.372	2.08
267.752	2.57
268.131	2.68
268.511	3.02
268.89	3.6
269.27	2.7
269.649	2.31
270.029	2.14
270.408	2.74
270.787	2.72
271.167	2.45
271.546	3.53
271.925	3.05
272.304	2.7
272.683	2.56
273.062	2.41
273.441	2.73
273.82	2.56
274.199	3.04
274.578	2.2
274.957	2.63
275.336	2.37
275.715	2.27
276.093	2.46
276.472	2.54
276.851	2.25
277.229	2.79
277.608	2.12
277.986	2.86
278.365	2.95
278.743	2.84
279.122	2.51
279.5	2.51
279.878	2.51
280.257	2.95
280.635	2.22
281.013	2.72
281.391	2.55
281.769	2.88
282.147	2.33
282.525	3
282.903	2.78
283.281	3.06
283.659	2.86
284.037	2.37
284.415	2.46
284.792	2.58
285.17	2.69
285.548	2.89
285.925	2.4
286.303	2.94
286.68	3.3
287.058	3.12
287.435	2.73
287.813	2.75
288.19	2.78
288.567	2.66
288.945	3.06
289.322	2.51
289.699	3.2
290.076	3.01
290.453	2.62
290.83	2.66
291.207	2.85
291.584	2.65
291.961	3.15
292.338	3.17
292.715	2.74
293.092	3.02
293.469	2.67
293.845	2.96
294.222	2.74
294.599	3.1
294.975	2.72
295.352	2.76
295.728	3.26
296.105	3.37
296.481	2.68
296.858	2.89
297.234	3.61
297.61	3.36
297.986	2.7
298.363	2.85
298.739	3.16
299.115	3.25
299.491	3.18
299.867	3.17
300.243	3.14
300.619	3.51
300.995	3.45
301.371	3.5
301.746	3.02
302.122	2.93
302.498	2.66
302.874	3.15
303.249	3.13
303.625	3.19
304	3.18
304.376	3.07
304.751	3.13
305.127	2.47
305.502	3.39
305.878	3.47
306.253	3.21
306.628	3.05
307.003	3.32
307.378	3.38
307.754	3.4
308.129	2.84
308.504	3.5
308.879	3.24
309.254	3.92
309.629	3.62
310.003	3.49
310.378	3.44
310.753	3.76
311.128	3.23
311.502	3.04
311.877	3.22
312.252	3.12
312.626	3.46
313.001	3.54
313.375	3.62
313.75	3.21
314.124	3.25
314.498	3.31
314.873	3.21
315.247	3.61
315.621	3.45
315.995	3.53
316.369	3.38
316.743	3.56
317.117	3.8
317.491	3.81
317.865	3.62
318.239	3.39
318.613	4.03
318.987	3.33
319.361	3.23
319.734	3.64
320.108	3.48
320.482	2.52
320.855	3.95
321.229	3.28
321.602	3.26
321.976	3.41
322.349	4.09
322.723	4.04
323.096	3.64
323.469	3.41
323.843	3.58
324.216	3.71
324.589	3.79
324.962	3.89
325.335	4.14
325.708	3.21
326.081	3.41
326.454	3.66
326.827	4.02
327.2	3.59
327.573	3.61
327.945	3.76
328.318	3.35
328.691	3.51
329.063	3.7
329.436	3.84
329.809	3.94
330.181	3.67
330.553	3.42
330.926	3.88
331.298	4.34
331.671	3.85
332.043	4.14
332.415	4.15
332.787	3.45
333.159	3.29
333.532	3.42
333.904	3.9
334.276	3.86
334.648	3.51
335.02	3.14
335.391	4.01
335.763	3.6
336.135	3.92
336.507	3.71
336.879	3.44
337.25	4.16
337.622	3.91
337.993	3.8
338.365	3.53
338.736	3.93
339.108	3.82
339.479	3.53
339.851	3.66
340.222	3.59
340.593	3.66
340.964	3.71
341.336	3.43
341.707	3.62
342.078	4.12
342.449	3.9
342.82	3.5
343.191	3.26
343.562	4.01
343.933	3.99
344.303	3.84
344.674	4.11
345.045	3.48
345.416	3.33
345.786	4.06
346.157	3.65
346.527	3.81
346.898	3.94
347.268	3.79
347.639	3.65
348.009	3.85
348.38	3.83
348.75	3.78
349.12	4.19
349.49	3.87
349.861	3.69
350.231	3.96
350.601	3.82
350.971	3.79
351.341	3.89
351.711	3.84
352.081	3.9
352.45	3.66
352.82	4.06
353.19	3.52
353.56	3.86
353.929	4.06
354.299	4.28
354.669	4.17
355.038	4.09
355.408	3.82
355.777	3.9
356.147	3.84
356.516	3.52
356.885	3.71
357.254	4.14
357.624	3.81
357.993	3.86
358.362	3.79
358.731	4.02
359.1	3.76
359.469	3.8
359.838	3.94
360.207	3.85
360.576	3.9
360.945	4.07
361.314	4.02
361.682	3.9
362.051	4.06
362.42	3.95
362.788	3.95
363.157	3.96
363.525	3.96
363.894	3.72
364.262	4.12
364.631	4.06
364.999	3.8
365.367	3.67
365.735	4.13
366.104	3.99
366.472	4.05
366.84	3.59
367.208	3.97
367.576	3.77
367.944	4.12
368.312	4.14
368.68	3.79
369.048	3.88
369.416	3.81
369.783	3.61
370.151	3.59
370.519	4.35
370.886	4
371.254	4.07
371.621	4.19
371.989	4.04
372.356	4.09
372.724	4.25
373.091	4.12
373.458	4.08
373.826	4.15
374.193	4.16
374.56	3.8
374.927	4.22
375.294	3.76
375.661	4.78
376.028	4
376.395	4.01
376.762	4.39
377.129	4.17
377.496	4.23
377.863	4.27
378.229	3.87
378.596	3.82
378.963	4.02
379.329	3.94
379.696	3.89
380.062	4.45
380.429	4.16
380.795	3.98
381.161	4.29
381.528	4.05
381.894	3.73
382.26	4.36
382.626	3.8
382.993	3.95
383.359	4.13
383.725	4.11
384.091	4.27
384.457	4.25
384.823	3.94
385.188	4
385.554	4.31
385.92	3.96
386.286	4.05
386.651	3.95
387.017	3.95
387.383	4.12
387.748	3.89
388.114	3.82
388.479	4.41
388.845	4.39
389.21	4.47
389.575	4.18
389.94	4.19
390.306	4.4
390.671	4.37
391.036	3.82
391.401	4.59
391.766	4.19
392.131	4.17
392.496	4.07
392.861	4.42
393.226	4.16
393.591	4.18
393.956	4.42
394.32	4.13
394.685	4.24
395.05	4.32
395.414	4.17
395.779	4.26
396.143	4.2
396.508	4.34
396.872	4.24
397.236	4.25
397.601	4.26
397.965	4.33
398.329	4.09
398.694	4.6
399.058	4
399.422	4.13
399.786	4.16
400.15	4.24
400.514	4.27
400.878	4.22
401.242	4.25
401.605	3.99
401.969	4.38
402.333	4.22
402.697	4.13
403.06	4.54
403.424	4.3
403.787	4.23
404.151	4.43
404.514	4.42
404.878	4.33
405.241	4.34
405.604	4.46
405.968	4.43
406.331	4.36
406.694	4.24
407.057	4.41
407.42	4.41
407.783	4.29
408.146	4.38
408.509	4.34
408.872	4.62
409.235	4.32
409.598	4.36
409.961	4.6
410.323	4.33
410.686	4.27
411.049	4.43
411.411	4.39
411.774	4.67
412.136	4.49
412.499	4.66
412.861	4.6
413.223	4.42
413.586	4.34
413.948	4.61
414.31	4.51
414.672	4.56
415.035	4.63
415.397	4.54
415.759	4.55
416.121	4.56
416.483	4.51
416.845	4.46
417.206	4.42
417.568	4.54
417.93	4.44
418.292	4.63
418.653	4.67
419.015	4.35
419.377	4.24
419.738	4.54
420.1	4.54
420.461	4.36
420.822	4.34
421.184	4.46
421.545	4.38
421.906	4.31
422.267	4.35
422.629	4.49
422.99	4.23
423.351	4.22
423.712	4.4
424.073	4.44
424.434	4.45
424.795	4.54
425.155	4.47
425.516	4.52
425.877	4.42
426.238	4.4
426.598	4.37
426.959	4.45
427.32	4.38
427.68	4.43
428.041	4.44
428.401	4.72
428.761	4.61
429.122	4.4
429.482	4.61
429.842	4.32
430.202	4.57
430.563	4.65
430.923	4.67
431.283	4.36
431.643	4.72
432.003	4.81
432.363	4.56
432.722	4.6
433.082	4.7
433.442	4.53
433.802	4.52
434.161	4.66
434.521	4.55
434.881	4.6
435.24	4.48
435.6	4.69
435.959	4.53
436.319	4.68
436.678	4.75
437.037	4.72
437.396	4.82
437.756	4.74
438.115	4.51
438.474	4.68
438.833	4.77
439.192	4.71
439.551	4.69
439.91	4.87
440.269	4.61
440.628	4.78
440.987	4.62
441.345	4.7
441.704	4.61
442.063	4.61
442.421	4.65
442.78	4.64
443.138	4.64
443.497	4.67
443.855	4.68
444.214	4.8
444.572	4.64
444.93	4.74
445.288	4.76
445.647	4.67
446.005	4.64
446.363	4.76
446.721	4.59
447.079	4.64
447.437	4.59
447.795	4.68
448.153	4.59
448.51	4.66
448.868	4.67
449.226	4.69
449.584	4.67
449.941	4.69
450.299	4.69
450.656	4.7
451.014	4.87
451.371	4.79
451.729	4.75
452.086	4.66
452.443	4.69
452.801	4.79
453.158	4.88
453.515	4.86
453.872	4.63
454.229	4.89
454.586	4.75
454.943	4.85
455.3	4.89
455.657	4.75
456.014	4.87
456.371	5
456.727	4.85
457.084	4.95
457.441	5.01
457.797	4.89
458.154	4.84
458.51	4.98
458.867	4.66
459.223	5.04
459.58	5.22
459.936	4.79
460.292	4.91
460.648	4.8
461.005	4.77
461.361	4.77
461.717	4.85
462.073	4.88
462.429	4.87
462.785	4.87
463.141	4.93
463.496	4.82
463.852	4.94
464.208	4.95
464.564	4.82
464.919	5.15
465.275	5.03
465.631	5.03
465.986	5.05
466.342	5.07
466.697	4.94
467.052	5.03
467.408	5
467.763	4.97
468.118	5.03
468.473	5.19
468.829	4.93
469.184	5.04
469.539	5.06
469.894	5.09
470.249	4.99
470.603	5.05
470.958	4.91
471.313	5.15
471.668	4.97
472.023	5
472.377	5.22
472.732	5.22
473.086	5.07
473.441	5.35
473.795	5.17
474.15	5.1
474.504	5.05
474.859	5.01
475.213	5.01
475.567	4.97
475.921	5.03
476.275	5.23
476.63	5.11
476.984	5.12
477.338	5.21
477.692	5.23
478.045	5.21
478.399	5.14
478.753	5.2
479.107	5.23
479.461	5.2
479.814	5.23
480.168	5.28
480.521	5.01
480.875	5.18
481.228	5.14
481.582	5.18
481.935	5.08
482.289	5.25
482.642	5.25
482.995	5.3
483.348	5.21
483.701	5.25
484.055	5.17
484.408	5.12
484.761	5.08
485.114	5
485.466	4.9
485.819	4.88
486.172	4.91
486.525	4.95
486.878	5.07
487.23	5.14
487.583	5.1
487.936	5.16
488.288	5.12
488.641	5.08
488.993	5.07
489.345	5.02
489.698	5.01
490.05	5.05
490.402	5.06
490.754	5.12
491.107	5.18
491.459	5.3
491.811	5.2
492.163	5.31
492.515	5.35
492.866	5.22
493.218	5.14
493.57	5.12
493.922	5.13
494.274	5.18
494.625	5.25
494.977	5.35
495.328	5.45
495.68	5.35
496.031	5.35
496.383	5.45
496.734	5.42
497.086	5.57
497.437	5.64
497.788	5.54
498.139	5.43
498.49	5.41
498.842	5.48
499.193	5.42
499.544	5.51
499.894	5.42
500.245	5.54
500.596	5.43
500.947	5.42
501.298	5.56
501.648	5.57
501.999	5.62
502.35	5.66
502.7	5.56
503.051	5.6
503.401	5.71
503.752	5.68
504.102	5.65
504.452	5.72
504.803	5.62
505.153	5.61
505.503	5.61
505.853	5.76
506.203	5.65
506.553	5.73
506.903	5.69
507.253	5.69
507.603	5.69
507.953	5.69
508.303	5.84
508.652	5.65
509.002	5.89
509.352	5.87
509.701	5.69
510.051	5.73
510.4	5.7
510.75	5.73
511.099	5.82
511.449	5.78
511.798	5.73
512.147	5.83
512.496	5.76
512.846	5.8
513.195	5.84
513.544	5.8
513.893	5.76
514.242	5.8
514.591	5.79
514.939	5.91
515.288	5.94
515.637	5.9
515.986	5.79
516.334	5.92
516.683	5.96
517.032	6.01
517.38	6.17
517.729	6.09
518.077	6.11
518.426	5.95
518.774	6.12
519.122	5.94
519.47	5.98
519.819	5.93
520.167	5.97
520.515	5.92
520.863	5.92
521.211	5.91
521.559	6.04
521.907	5.98
522.255	6.12
522.602	6.09
522.95	6.03
523.298	6.16
523.645	6.18
523.993	6.15
524.341	6.2
524.688	6.35
525.036	6.18
525.383	6.23
525.73	6.28
526.078	6.28
526.425	6.29
526.772	6.22
527.119	6.13
527.466	6.17
527.814	6.12
528.161	6.13
528.508	6.2
528.854	6.26
529.201	6.17
529.548	6.14
529.895	6.11
530.242	6.07
530.588	5.98
530.935	6.09
531.282	6.17
531.628	6.1
531.975	6.29
532.321	6.42
532.667	6.4
533.014	6.41
533.36	6.49
533.706	6.56
534.052	6.5
534.399	6.46
534.745	6.26
535.091	6.37
535.437	6.29
535.783	6.32
536.129	6.54
536.474	6.5
536.82	6.48
537.166	6.63
537.512	6.66
537.857	6.59
538.203	6.51
538.549	6.59
538.894	6.6
539.239	6.73
539.585	6.68
539.93	6.68
540.276	6.82
540.621	6.8
540.966	6.99
541.311	6.73
541.656	6.83
542.001	6.83
542.346	6.7
542.691	6.66
543.036	6.63
543.381	6.62
543.726	6.69
544.071	6.74
544.415	6.76
544.76	6.92
545.105	6.9
545.449	6.95
545.794	6.91
546.138	6.94
546.483	7.08
546.827	7.09
547.171	7.04
547.516	7.23
547.86	7.07
548.204	7.14
548.548	7.07
548.892	7.05
549.236	7.18
549.58	7.26
549.924	7.32
550.268	7.35
550.612	7.15
550.956	7.3
551.3	7.38
551.643	7.39
551.987	7.41
552.33	7.39
552.674	7.42
553.017	7.49
553.361	7.61
553.704	7.6
554.048	7.5
554.391	7.34
554.734	7.44
555.077	7.64
555.42	7.58
555.764	7.72
556.107	7.63
556.45	7.69
556.793	7.87
557.135	7.61
557.478	7.69
557.821	7.74
558.164	7.74
558.507	7.81
558.849	7.8
559.192	8.04
559.534	7.91
559.877	8.08
560.219	7.86
560.562	8.19
560.904	8.12
561.246	7.89
561.589	7.99
561.931	7.94
562.273	8.18
562.615	7.94
562.957	8.07
563.299	8.01
563.641	8.03
563.983	8.16
564.325	8.04
564.667	8.14
565.008	8.16
565.35	8.13
565.692	8.36
566.033	8.51
566.375	8.24
566.716	8.28
567.058	8.42
567.399	8.43
567.741	8.38
568.082	8.42
568.423	8.37
568.764	8.48
569.105	8.49
569.447	8.68
569.788	8.68
570.129	8.58
570.47	8.65
570.811	8.71
571.151	8.57
571.492	8.83
571.833	8.69
572.174	8.77
572.514	8.78
572.855	8.56
573.195	8.87
573.536	8.79
573.876	8.74
574.217	8.69
574.557	8.73
574.898	9.02
575.238	8.87
575.578	9.13
575.918	9.04
576.258	9.08
576.598	9.13
576.938	9.18
577.278	8.82
577.618	8.97
577.958	9.12
578.298	9.17
578.638	9.13
578.977	9.3
579.317	9.4
579.657	9.26
579.996	9.43
580.336	9.18
580.675	9.25
581.014	9.57
581.354	9.43
581.693	9.76
582.032	9.4
582.372	9.58
582.711	9.69
583.05	9.6
583.389	9.52
583.728	9.75
584.067	9.75
584.406	9.76
584.745	9.87
585.083	9.55
585.422	10.03
585.761	9.84
586.1	9.68
586.438	9.89
586.777	9.87
587.115	9.89
587.454	10.19
587.792	10.17
588.13	10.12
588.469	10.04
588.807	10.21
589.145	9.93
589.483	10.09
589.821	10.39
590.159	9.97
590.497	10.37
590.835	10.42
591.173	10.19
591.511	10.32
591.849	10.39
592.187	10.44
592.524	10.08
592.862	10.2
593.2	10.46
593.537	10.61
593.875	10.5
594.212	10.55
594.55	10.36
594.887	10.48
595.224	10.67
595.561	10.22
595.899	10.59
596.236	10.81
596.573	10.74
596.91	10.66
597.247	10.54
597.584	10.7
597.921	10.95
598.258	10.77
598.594	10.52
598.931	10.76
599.268	10.99
599.604	10.93
599.941	11.02
600.277	11.07
600.614	11.1
600.95	11.27
601.287	10.88
601.623	11.38
601.959	11.2
602.296	11.18
602.632	11.25
602.968	11.43
603.304	11.37
603.64	11.27
603.976	10.94
604.312	11.33
604.648	11.38
604.984	11.26
605.319	11.34
605.655	11.16
605.991	11.52
606.326	11.55
606.662	11.34
606.998	11.36
607.333	11.49
607.668	11.66
608.004	11.64
608.339	11.62
608.674	11.77
609.01	12.02
609.345	11.82
609.68	11.82
610.015	11.91
610.35	11.97
610.685	12
611.02	11.84
611.355	11.73
611.689	11.94
612.024	11.91
612.359	11.87
612.694	12.09
613.028	12.16
613.363	12.33
613.697	11.86
614.032	12.13
614.366	12.36
614.7	12.44
615.035	12.28
615.369	12.06
615.703	12.62
616.037	12.46
616.371	12.85
616.705	12.28
617.039	12.11
617.373	12.8
617.707	13.16
618.041	12.7
618.375	12.67
618.709	12.73
619.042	12.96
619.376	12.84
619.71	13.05
620.043	12.89
620.377	12.91
620.71	13.01
621.043	12.71
621.377	13.03
621.71	13.17
622.043	13.31
622.376	13.15
622.709	13.23
623.043	13.03
623.376	13.53
623.709	12.91
624.041	13.13
624.374	13.25
624.707	13.04
625.04	13.59
625.373	13.48
625.705	13.35
626.038	13.1
626.37	13.27
626.703	13.31
627.035	13.25
627.368	13.4
627.7	13.08
628.032	13.34
628.365	13.88
628.697	13.58
629.029	13.48
629.361	13.62
629.693	13.88
630.025	13.92
630.357	13.57
630.689	14
631.021	13.7
631.353	13.92
631.684	13.62
632.016	13.77
632.348	14.01
632.679	13.73
633.011	14.04
633.342	14.15
633.674	13.5
634.005	14.33
634.336	14.1
634.668	14.19
634.999	14.07
635.33	13.74
635.661	14.43
635.992	14.34
636.323	14.21
636.654	14.3
636.985	14.51
637.316	14.35
637.647	14.47
637.977	14.58
638.308	14.76
638.639	14.55
638.969	14.36
639.3	14.59
639.63	14.4
639.961	14.86
640.291	14.82
640.622	14.84
640.952	14.82
641.282	14.69
641.612	14.99
641.943	14.93
642.273	14.71
642.603	15.09
642.933	14.94
643.263	14.63
643.592	14.64
643.922	15.27
644.252	15.3
644.582	15.24
644.911	15.11
645.241	15.17
645.571	15.01
645.9	15.36
646.23	15.2
646.559	15.67
646.888	15.31
647.218	15.82
647.547	15.2
647.876	15.89
648.205	14.77
648.534	15.66
648.863	15.57
649.192	15.59
649.521	15.62
649.85	15.9
650.179	15.53
650.508	15.59
650.837	15.92
651.165	15.68
651.494	15.79
651.822	15.97
652.151	15.96
652.479	15.59
652.808	15.51
653.136	16.06
653.465	16.25
653.793	15.92
654.121	16.21
654.449	15.32
654.777	15.91
655.105	15.8
655.433	16.08
655.761	15.7
656.089	15.96
656.417	16.09
656.745	15.82
657.073	16.29
657.4	16.19
657.728	16.22
658.056	15.9
658.383	16.79
658.711	16.03
659.038	16.17
659.365	17.44
659.693	16.95
660.02	16.58
660.347	16.26
660.674	16.49
661.001	16.17
661.329	16.61
661.656	16.41
661.982	16.32
662.309	16.74
662.636	16.83
662.963	16.34
663.29	16.45
663.616	16.87
663.943	16.82
664.27	17.19
664.596	16.47
664.923	17.11
665.249	16.98
665.576	17.4
665.902	16.53
666.228	16.34
666.554	17.66
666.881	16.95
667.207	17.16
667.533	17.1
667.859	17.19
668.185	17.36
668.511	16.93
668.837	17.23
669.162	17.53
669.488	17.07
669.814	17.57
670.139	17.23
670.465	17.37
670.791	17.59
671.116	17.34
671.442	17.28
671.767	17.54
672.092	17.69
672.418	17.55
672.743	17.83
673.068	17.59
673.393	17.82
673.718	17.97
674.043	17.68
674.368	16.7
674.693	17.97
675.018	17.79
675.343	18.23
675.667	18.5
675.992	17.87
676.317	18.09
676.641	18.45
676.966	17.74
677.29	18.6
677.615	17.68
677.939	18.38
678.264	18.06
678.588	18.2
678.912	18.56
679.236	18.37
679.56	17.81
679.885	18.36
680.209	18.67
680.532	18.35
680.856	18.37
681.18	18.22
681.504	18.48
681.828	18.74
682.152	18.78
682.475	18.29
682.799	18.46
683.122	18.59
683.446	18.03
683.769	17.85
684.093	18.56
684.416	18.48
684.739	18.55
685.062	19.11
685.386	18.55
