Data from 0043_chest_Reflection__2__137.txt Node

Date: Fri Nov 04 15:58:19 CDT 2022
User: ToomeyLab
Spectrometer: FLMS14357
Trigger mode: 0
Integration Time (sec): 1.000000E-2
Scans to average: 100
Electric dark correction enabled: true
Nonlinearity correction enabled: false
Boxcar width: 0
XAxis mode: Wavelengths
Number of Pixels in Spectrum: 2048
>>>>>Begin Spectral Data<<<<<
189.047	-158.89
189.435	-158.89
189.823	-158.89
190.211	1.07
190.599	140.14
190.987	80.3
191.375	29.97
191.763	-101.38
192.151	-149.37
192.538	41.67
192.926	-4.23
193.314	477.68
193.702	333.19
194.089	287.18
194.477	-22.25
194.864	31.3
195.252	88.23
195.639	-275.45
196.027	50.59
196.414	192.78
196.801	49.2
197.189	52.04
197.576	-942.77
197.963	84.91
198.351	-1.99
198.738	28.44
199.125	21.36
199.512	-18.32
199.899	-14.33
200.286	-12.92
200.673	-19.49
201.06	14.92
201.447	11.94
201.833	24.19
202.22	-8.95
202.607	18.65
202.994	44.29
203.38	28.03
203.767	-0.15
204.154	40.38
204.54	-11.07
204.927	16.84
205.313	12
205.699	34.63
206.086	7.61
206.472	9.37
206.858	-28.57
207.245	-1.87
207.631	-9.97
208.017	-2.65
208.403	-16.97
208.789	38.77
209.175	-14.11
209.561	-40.95
209.947	-24.96
210.333	38.96
210.719	-1.58
211.105	-38.41
211.491	12.54
211.876	-11.48
212.262	-13.75
212.648	-6.18
213.034	19.08
213.419	1.02
213.805	-18.37
214.19	-16.81
214.576	-14.11
214.961	32.87
215.346	-11.27
215.732	-2.34
216.117	-5.94
216.502	-5.69
216.888	-0.03
217.273	0.24
217.658	-23.41
218.043	-23.75
218.428	6.88
218.813	-10.67
219.198	7.61
219.583	-24.43
219.968	17.23
220.353	-47.49
220.738	-19.96
221.122	-10.84
221.507	-12.27
221.892	-11.18
222.276	-9.09
222.661	-5.99
223.046	-18.56
223.43	-7.03
223.815	-7.08
224.199	3.57
224.583	5.15
224.968	-5.69
225.352	-5.72
225.736	-0.6
226.121	-3.54
226.505	1.78
226.889	-2.66
227.273	-2.36
227.657	-2.55
228.041	4.02
228.425	4.58
228.809	5.7
229.193	4.86
229.577	0.86
229.961	4.79
230.344	4.29
230.728	4.17
231.112	3.11
231.495	3.7
231.879	4.21
232.263	3.15
232.646	2.68
233.03	2.4
233.413	3.38
233.797	2.69
234.18	1.99
234.563	5.03
234.946	3.57
235.33	4.42
235.713	2.61
236.096	4.19
236.479	2.66
236.862	3.43
237.245	2.61
237.628	3.63
238.011	0.44
238.394	5.53
238.777	3.12
239.16	2.94
239.543	2.24
239.925	4.16
240.308	3.82
240.691	3.11
241.073	2.61
241.456	2.98
241.838	2.7
242.221	4.33
242.603	2.99
242.986	2.68
243.368	3.75
243.75	3.44
244.133	3.85
244.515	3.53
244.897	3.95
245.279	3.58
245.661	3.91
246.043	3.86
246.425	4.02
246.807	5.07
247.189	3.16
247.571	3.89
247.953	3.64
248.335	3.4
248.717	3.68
249.098	3.69
249.48	3.63
249.862	3.87
250.243	3.37
250.625	3.15
251.006	3.06
251.388	3.7
251.769	3.94
252.151	3.57
252.532	3.49
252.913	3.09
253.295	3.79
253.676	3.32
254.057	3.09
254.438	3.57
254.819	3.84
255.2	2.83
255.581	4.42
255.962	3.57
256.343	2.52
256.724	3.56
257.105	2.53
257.486	3.67
257.867	5.57
258.247	4.36
258.628	3.16
259.009	3.25
259.389	3.65
259.77	3.84
260.15	3.63
260.531	4
260.911	2.97
261.292	3.33
261.672	3.55
262.052	3.37
262.432	3.48
262.813	3
263.193	2.45
263.573	3.2
263.953	3.22
264.333	3.93
264.713	3.41
265.093	2.97
265.473	4.06
265.853	3.1
266.233	3.57
266.612	3.45
266.992	4.01
267.372	2.73
267.752	3.35
268.131	3.61
268.511	3.28
268.89	3.69
269.27	2.85
269.649	3.37
270.029	3.26
270.408	3.53
270.787	3.31
271.167	3.52
271.546	3.62
271.925	2.88
272.304	2.95
272.683	3.23
273.062	3.68
273.441	3.26
273.82	3.1
274.199	3.33
274.578	3.18
274.957	2.99
275.336	2.61
275.715	2.76
276.093	2.72
276.472	2.68
276.851	2.92
277.229	2.86
277.608	3.28
277.986	3.36
278.365	3.33
278.743	2.76
279.122	2.9
279.5	3.37
279.878	2.98
280.257	3.15
280.635	2.75
281.013	2.9
281.391	2.93
281.769	3.05
282.147	2.71
282.525	3.21
282.903	3.13
283.281	3.61
283.659	2.95
284.037	2.97
284.415	2.91
284.792	3.19
285.17	2.83
285.548	3.16
285.925	3.35
286.303	3.06
286.68	3.73
287.058	3.14
287.435	3.23
287.813	2.98
288.19	3.18
288.567	2.77
288.945	3.03
289.322	3.24
289.699	3.25
290.076	3.31
290.453	2.9
290.83	3.09
291.207	3.24
291.584	2.75
291.961	3.13
292.338	3.3
292.715	2.91
293.092	3.38
293.469	3.08
293.845	2.91
294.222	2.89
294.599	2.83
294.975	3.17
295.352	2.74
295.728	3.02
296.105	3.39
296.481	2.81
296.858	3.13
297.234	3.62
297.61	3.06
297.986	2.89
298.363	2.83
298.739	3.1
299.115	3.2
299.491	3.01
299.867	3.2
300.243	2.97
300.619	3.38
300.995	3.46
301.371	3.58
301.746	3.47
302.122	3.03
302.498	3
302.874	3.41
303.249	2.54
303.625	2.58
304	3.33
304.376	2.98
304.751	3.13
305.127	2.82
305.502	3.2
305.878	3.04
306.253	3.15
306.628	3.07
307.003	3.14
307.378	3.06
307.754	2.79
308.129	2.28
308.504	3.21
308.879	2.92
309.254	2.62
309.629	2.54
310.003	3.29
310.378	3.34
310.753	3.14
311.128	3.13
311.502	2.85
311.877	3.16
312.252	2.58
312.626	2.99
313.001	2.94
313.375	2.89
313.75	3.15
314.124	2.67
314.498	2.93
314.873	3.47
315.247	3.19
315.621	3.15
315.995	3.12
316.369	2.7
316.743	3.54
317.117	3.43
317.491	3.39
317.865	2.6
318.239	3.12
318.613	3.41
318.987	2.8
319.361	2.98
319.734	3.69
320.108	2.78
320.482	2.52
320.855	2.74
321.229	3.05
321.602	2.92
321.976	2.88
322.349	4.29
322.723	2.8
323.096	2.98
323.469	2.76
323.843	2.5
324.216	3.36
324.589	3.07
324.962	3.52
325.335	2.59
325.708	2.59
326.081	3.09
326.454	2.78
326.827	2.93
327.2	2.61
327.573	3.02
327.945	3.07
328.318	2.64
328.691	2.89
329.063	2.96
329.436	2.93
329.809	2.95
330.181	3.14
330.553	2.67
330.926	3.02
331.298	3.18
331.671	2.8
332.043	2.97
332.415	3.45
332.787	2.35
333.159	3.33
333.532	2.14
333.904	3.07
334.276	2.8
334.648	3.04
335.02	2.43
335.391	3.08
335.763	2.8
336.135	2.85
336.507	2.9
336.879	2.92
337.25	3.58
337.622	3.11
337.993	3.12
338.365	2.78
338.736	3.28
339.108	3.3
339.479	3.12
339.851	2.76
340.222	2.79
340.593	3.29
340.964	2.93
341.336	3.09
341.707	2.89
342.078	2.81
342.449	3.3
342.82	2.86
343.191	2.86
343.562	3.16
343.933	3.18
344.303	3.22
344.674	3.16
345.045	2.59
345.416	2.73
345.786	3.39
346.157	3.01
346.527	3.13
346.898	3.45
347.268	2.79
347.639	2.82
348.009	3.25
348.38	2.78
348.75	3.03
349.12	2.6
349.49	3.24
349.861	2.89
350.231	3.24
350.601	3.15
350.971	2.78
351.341	3.07
351.711	2.89
352.081	2.96
352.45	3.05
352.82	2.91
353.19	2.55
353.56	3
353.929	2.95
354.299	3.17
354.669	3.45
355.038	3.44
355.408	2.81
355.777	3.12
356.147	2.84
356.516	2.88
356.885	2.87
357.254	3.33
357.624	3.21
357.993	2.88
358.362	2.94
358.731	2.99
359.1	3.07
359.469	3.24
359.838	3.06
360.207	2.87
360.576	3.25
360.945	3.28
361.314	3.22
361.682	3.17
362.051	3.09
362.42	3
362.788	3.03
363.157	3.27
363.525	3.02
363.894	3.07
364.262	3.35
364.631	3.47
364.999	3.13
365.367	2.86
365.735	3.36
366.104	3.07
366.472	3.04
366.84	2.82
367.208	3.48
367.576	2.91
367.944	3.3
368.312	2.97
368.68	3.33
369.048	2.97
369.416	3.09
369.783	2.97
370.151	2.73
370.519	3.39
370.886	2.91
371.254	3.33
371.621	3.09
371.989	3.05
372.356	3.1
372.724	3.22
373.091	3.01
373.458	3
373.826	3.27
374.193	3.16
374.56	3.13
374.927	3.35
375.294	2.94
375.661	3.09
376.028	2.91
376.395	3.08
376.762	3.05
377.129	3.2
377.496	2.98
377.863	2.95
378.229	2.93
378.596	2.69
378.963	3.03
379.329	3.05
379.696	3.01
380.062	3.26
380.429	3.06
380.795	3.11
381.161	3.28
381.528	3.25
381.894	2.74
382.26	3.28
382.626	3
382.993	3.16
383.359	3.1
383.725	3.38
384.091	3.23
384.457	3.21
384.823	3.12
385.188	3.09
385.554	3.16
385.92	2.86
386.286	3.11
386.651	3.23
387.017	2.93
387.383	3.18
387.748	2.9
388.114	3.14
388.479	3.76
388.845	3.32
389.21	3.38
389.575	3.68
389.94	3.09
390.306	3.4
390.671	3.29
391.036	3.05
391.401	3.31
391.766	3.06
392.131	3.18
392.496	3.27
392.861	3.23
393.226	3.06
393.591	3.25
393.956	3.41
394.32	3.23
394.685	3.12
395.05	3.38
395.414	2.93
395.779	3.18
396.143	3.14
396.508	3.45
396.872	3.29
397.236	3.2
397.601	3.22
397.965	3.23
398.329	3.16
398.694	3.4
399.058	3.38
399.422	3.37
399.786	3.24
400.15	3.3
400.514	3.2
400.878	3.42
401.242	3.36
401.605	3.32
401.969	3.33
402.333	3.34
402.697	3.39
403.06	3.56
403.424	3.16
403.787	3.3
404.151	3.27
404.514	3.27
404.878	3.12
405.241	3.31
405.604	3.32
405.968	3.17
406.331	3.24
406.694	3.2
407.057	3.32
407.42	3.34
407.783	3.13
408.146	3.25
408.509	3.33
408.872	3.33
409.235	3.31
409.598	3.27
409.961	3.28
410.323	3.29
410.686	3.39
411.049	3.47
411.411	3.03
411.774	3.33
412.136	3.48
412.499	3.27
412.861	3.45
413.223	3.47
413.586	3.16
413.948	3.41
414.31	3.22
414.672	3.66
415.035	3.46
415.397	3.3
415.759	3.49
416.121	3.3
416.483	3.46
416.845	3.53
417.206	3.31
417.568	3.47
417.93	3.39
418.292	3.29
418.653	3.39
419.015	3.17
419.377	3.23
419.738	3.27
420.1	3.38
420.461	3.3
420.822	3.16
421.184	3.37
421.545	3.21
421.906	3.35
422.267	3.19
422.629	3.38
422.99	3.3
423.351	3.16
423.712	3.38
424.073	3.29
424.434	3.32
424.795	3.37
425.155	3.4
425.516	3.29
425.877	3.29
426.238	3.35
426.598	3.32
426.959	3.26
427.32	3.27
427.68	3.37
428.041	3.33
428.401	3.37
428.761	3.43
429.122	3.31
429.482	3.44
429.842	3.22
430.202	3.48
430.563	3.45
430.923	3.45
431.283	3.32
431.643	3.64
432.003	3.56
432.363	3.41
432.722	3.39
433.082	3.56
433.442	3.34
433.802	3.3
434.161	3.32
434.521	3.28
434.881	3.55
435.24	3.25
435.6	3.48
435.959	3.41
436.319	3.45
436.678	3.41
437.037	3.44
437.396	3.5
437.756	3.44
438.115	3.26
438.474	3.51
438.833	3.61
439.192	3.52
439.551	3.42
439.91	3.43
440.269	3.51
440.628	3.54
440.987	3.51
441.345	3.48
441.704	3.55
442.063	3.39
442.421	3.37
442.78	3.48
443.138	3.46
443.497	3.43
443.855	3.44
444.214	3.56
444.572	3.54
444.93	3.47
445.288	3.6
445.647	3.35
446.005	3.44
446.363	3.58
446.721	3.44
447.079	3.46
447.437	3.42
447.795	3.55
448.153	3.33
448.51	3.47
448.868	3.49
449.226	3.41
449.584	3.47
449.941	3.46
450.299	3.43
450.656	3.49
451.014	3.52
451.371	3.62
451.729	3.59
452.086	3.36
452.443	3.44
452.801	3.64
453.158	3.6
453.515	3.57
453.872	3.54
454.229	3.63
454.586	3.52
454.943	3.56
455.3	3.63
455.657	3.45
456.014	3.5
456.371	3.55
456.727	3.69
457.084	3.49
457.441	3.5
457.797	3.5
458.154	3.6
458.51	3.69
458.867	3.57
459.223	3.54
459.58	3.91
459.936	3.38
460.292	3.53
460.648	3.61
461.005	3.45
461.361	3.54
461.717	3.48
462.073	3.56
462.429	3.62
462.785	3.45
463.141	3.55
463.496	3.37
463.852	3.63
464.208	3.54
464.564	3.48
464.919	3.84
465.275	3.62
465.631	3.78
465.986	3.68
466.342	3.51
466.697	3.64
467.052	3.5
467.408	3.47
467.763	3.71
468.118	3.69
468.473	3.77
468.829	3.66
469.184	3.64
469.539	3.46
469.894	3.71
470.249	3.66
470.603	3.51
470.958	3.48
471.313	3.38
471.668	3.52
472.023	3.47
472.377	3.59
472.732	3.43
473.086	3.71
473.441	3.71
473.795	3.61
474.15	3.69
474.504	3.57
474.859	3.51
475.213	3.62
475.567	3.52
475.921	3.49
476.275	3.7
476.63	3.56
476.984	3.53
477.338	3.59
477.692	3.68
478.045	3.69
478.399	3.53
478.753	3.61
479.107	3.6
479.461	3.69
479.814	3.75
480.168	3.69
480.521	3.6
480.875	3.69
481.228	3.68
481.582	3.69
481.935	3.69
482.289	3.55
482.642	3.6
482.995	3.68
483.348	3.59
483.701	3.76
484.055	3.56
484.408	3.62
484.761	3.6
485.114	3.49
485.466	3.43
485.819	3.41
486.172	3.45
486.525	3.47
486.878	3.49
487.23	3.52
487.583	3.52
487.936	3.55
488.288	3.54
488.641	3.6
488.993	3.53
489.345	3.5
489.698	3.48
490.05	3.49
490.402	3.47
490.754	3.58
491.107	3.58
491.459	3.6
491.811	3.55
492.163	3.64
492.515	3.69
492.866	3.64
493.218	3.6
493.57	3.52
493.922	3.64
494.274	3.54
494.625	3.65
494.977	3.67
495.328	3.66
495.68	3.46
496.031	3.59
496.383	3.8
496.734	3.7
497.086	3.84
497.437	3.85
497.788	3.93
498.139	3.66
498.49	3.66
498.842	3.7
499.193	3.69
499.544	3.77
499.894	3.69
500.245	3.74
500.596	3.82
500.947	3.73
501.298	3.75
501.648	3.78
501.999	3.76
502.35	3.81
502.7	3.75
503.051	3.75
503.401	3.77
503.752	3.87
504.102	3.76
504.452	3.88
504.803	3.79
505.153	3.71
505.503	3.82
505.853	3.88
506.203	3.78
506.553	3.88
506.903	3.77
507.253	3.91
507.603	3.72
507.953	3.76
508.303	3.84
508.652	3.92
509.002	3.87
509.352	3.9
509.701	3.9
510.051	3.85
510.4	3.73
510.75	3.85
511.099	3.9
511.449	3.82
511.798	3.86
512.147	3.95
512.496	3.76
512.846	3.66
513.195	3.82
513.544	3.81
513.893	3.72
514.242	3.82
514.591	3.85
514.939	3.9
515.288	3.87
515.637	3.83
515.986	3.81
516.334	3.94
516.683	4.02
517.032	3.85
517.38	3.94
517.729	3.86
518.077	3.83
518.426	3.87
518.774	3.99
519.122	3.92
519.47	3.85
519.819	3.79
520.167	4.01
520.515	3.8
520.863	3.77
521.211	3.88
521.559	3.94
521.907	3.89
522.255	3.98
522.602	3.92
522.95	3.92
523.298	4.05
523.645	3.83
523.993	3.89
524.341	3.92
524.688	4.16
525.036	3.98
525.383	4.12
525.73	4.08
526.078	4.03
526.425	4.09
526.772	3.93
527.119	3.96
527.466	4.05
527.814	3.94
528.161	3.99
528.508	3.93
528.854	3.97
529.201	3.95
529.548	3.94
529.895	3.89
530.242	3.86
530.588	3.88
530.935	3.87
531.282	3.91
531.628	3.85
531.975	3.93
532.321	3.95
532.667	3.97
533.014	4.01
533.36	4.04
533.706	4.13
534.052	4.09
534.399	4.12
534.745	4.11
535.091	3.96
535.437	4.01
535.783	4.01
536.129	4.11
536.474	4.09
536.82	4.08
537.166	4.13
537.512	4.21
537.857	4.04
538.203	4.09
538.549	4.09
538.894	4.3
539.239	4.26
539.585	4.16
539.93	4.08
540.276	4.27
540.621	4.23
540.966	4.35
541.311	4.17
541.656	4.19
542.001	4.32
542.346	4.22
542.691	4.16
543.036	4.1
543.381	4.11
543.726	4.18
544.071	4.17
544.415	4.19
544.76	4.21
545.105	4.21
545.449	4.28
545.794	4.28
546.138	4.29
546.483	4.34
546.827	4.32
547.171	4.33
547.516	4.41
547.86	4.39
548.204	4.43
548.548	4.32
548.892	4.3
549.236	4.37
549.58	4.34
549.924	4.46
550.268	4.5
550.612	4.46
550.956	4.49
551.3	4.46
551.643	4.49
551.987	4.46
552.33	4.57
552.674	4.53
553.017	4.64
553.361	4.74
553.704	4.59
554.048	4.68
554.391	4.56
554.734	4.61
555.077	4.49
555.42	4.64
555.764	4.79
556.107	4.83
556.45	4.64
556.793	4.75
557.135	4.65
557.478	4.61
557.821	4.71
558.164	4.77
558.507	4.54
558.849	4.78
559.192	4.81
559.534	4.76
559.877	4.8
560.219	4.75
560.562	4.93
560.904	4.76
561.246	4.66
561.589	4.83
561.931	4.78
562.273	5.09
562.615	4.64
562.957	5.03
563.299	4.95
563.641	4.86
563.983	4.87
564.325	4.8
564.667	4.94
565.008	4.85
565.35	4.98
565.692	5.03
566.033	5.04
566.375	4.98
566.716	5.12
567.058	5.12
567.399	5.01
567.741	5.08
568.082	5.06
568.423	5.1
568.764	5.13
569.105	5.08
569.447	5.15
569.788	5.1
570.129	5.23
570.47	5.25
570.811	5.19
571.151	5.22
571.492	5.22
571.833	5.19
572.174	5.41
572.514	5.28
572.855	5.11
573.195	5.11
573.536	5.22
573.876	5.27
574.217	5.22
574.557	5.23
574.898	5.31
575.238	5.33
575.578	5.54
575.918	5.35
576.258	5.37
576.598	5.52
576.938	5.54
577.278	5.44
577.618	5.38
577.958	5.41
578.298	5.53
578.638	5.37
578.977	5.53
579.317	5.45
579.657	5.73
579.996	5.74
580.336	5.58
580.675	5.52
581.014	5.7
581.354	5.59
581.693	5.77
582.032	5.68
582.372	5.77
582.711	5.68
583.05	5.64
583.389	5.54
583.728	5.71
584.067	5.76
584.406	5.67
584.745	5.79
585.083	5.88
585.422	6.03
585.761	5.85
586.1	5.68
586.438	5.64
586.777	5.9
587.115	5.99
587.454	6.16
587.792	6.15
588.13	6.02
588.469	6.01
588.807	6.1
589.145	5.96
589.483	5.94
589.821	6.09
590.159	6.09
590.497	5.94
590.835	6.02
591.173	5.93
591.511	6.14
591.849	6.22
592.187	6.14
592.524	6.15
592.862	6.14
593.2	6.12
593.537	6.3
593.875	6.38
594.212	6.26
594.55	6.29
594.887	6.53
595.224	6.75
595.561	6.14
595.899	6.55
596.236	6.55
596.573	6.5
596.91	6.29
597.247	6.4
597.584	6.3
597.921	6.41
598.258	6.5
598.594	6.22
598.931	6.45
599.268	6.78
599.604	6.47
599.941	6.64
600.277	6.57
600.614	6.72
600.95	6.7
601.287	6.48
601.623	6.77
601.959	6.64
602.296	6.54
602.632	6.91
602.968	6.67
603.304	6.81
603.64	6.86
603.976	6.77
604.312	6.64
604.648	6.58
604.984	6.76
605.319	6.89
605.655	6.7
605.991	6.89
606.326	6.81
606.662	6.77
606.998	6.89
607.333	6.91
607.668	7.04
608.004	6.84
608.339	6.91
608.674	7.19
609.01	7.19
609.345	7.09
609.68	7.13
610.015	7.18
610.35	7.31
610.685	7.32
611.02	7.41
611.355	7.26
611.689	7.47
612.024	7.56
612.359	7.23
612.694	7.11
613.028	7.4
613.363	7.65
613.697	7.27
614.032	7.02
614.366	7.3
614.7	7.27
615.035	7.7
615.369	7.43
615.703	7.86
616.037	7.59
616.371	7.73
616.705	7.68
617.039	7.62
617.373	8.04
617.707	7.86
618.041	7.59
618.375	7.73
618.709	7.64
619.042	7.72
619.376	7.74
619.71	7.62
620.043	7.81
620.377	7.94
620.71	8.04
621.043	7.63
621.377	8.11
621.71	8.27
622.043	8
622.376	7.79
622.709	7.97
623.043	8.05
623.376	8.39
623.709	7.71
624.041	8.2
624.374	7.96
624.707	7.75
625.04	8.22
625.373	8.03
625.705	8.01
626.038	8.14
626.37	8.37
626.703	8.55
627.035	8.52
627.368	8.36
627.7	8.21
628.032	8.19
628.365	8.57
628.697	8.31
629.029	8.33
629.361	8.37
629.693	8.43
630.025	8.49
630.357	8.44
630.689	8.55
631.021	8.32
631.353	8.36
631.684	8.77
632.016	8.96
632.348	8.39
632.679	8.38
633.011	8.64
633.342	8.67
633.674	8.33
634.005	8.75
634.336	8.69
634.668	8.52
634.999	8.78
635.33	8.78
635.661	8.9
635.992	8.94
636.323	8.49
636.654	8.84
636.985	8.96
637.316	8.99
637.647	8.72
637.977	8.99
638.308	9.31
638.639	9.07
638.969	8.64
639.3	9.12
639.63	8.93
639.961	9.31
640.291	9.67
640.622	9.43
640.952	9.22
641.282	9.49
641.612	9.3
641.943	9.32
642.273	8.96
642.603	9.55
642.933	8.82
643.263	9.33
643.592	9.26
643.922	10
644.252	9.71
644.582	9.37
644.911	9.58
645.241	9.35
645.571	9.05
645.9	9.69
646.23	9.51
646.559	9.53
646.888	9.66
647.218	9.77
647.547	9.49
647.876	9.36
648.205	9.28
648.534	10.03
648.863	9.59
649.192	9.88
649.521	9.77
649.85	9.76
650.179	9.74
650.508	9.87
650.837	9.99
651.165	10.12
651.494	9.59
651.822	9.78
652.151	9.95
652.479	9.74
652.808	9.67
653.136	9.67
653.465	10
653.793	10.4
654.121	10.03
654.449	9.41
654.777	10.18
655.105	10.1
655.433	9.76
655.761	10.21
656.089	10.2
656.417	10.05
656.745	10.05
657.073	10.07
657.4	10.22
657.728	10.09
658.056	9.69
658.383	10.28
658.711	10.26
659.038	10.28
659.365	10.73
659.693	10.86
660.02	10.82
660.347	10.3
660.674	10.45
661.001	10.52
661.329	10.87
661.656	10.82
661.982	10.15
662.309	10.15
662.636	10.92
662.963	10.41
663.29	10.24
663.616	10.9
663.943	10.5
664.27	10.34
664.596	10.67
664.923	11.44
665.249	11.17
665.576	10.79
665.902	10.29
666.228	9.9
666.554	11.06
666.881	10.54
667.207	11.3
667.533	10.66
667.859	11.06
668.185	11.08
668.511	10.73
668.837	10.4
669.162	11.49
669.488	10.9
669.814	11.47
670.139	11.07
670.465	10.86
670.791	10.81
671.116	11.38
671.442	11.57
671.767	11.3
672.092	11.48
672.418	11.06
672.743	11.92
673.068	11.25
673.393	11.65
673.718	11.1
674.043	11.8
674.368	10.88
674.693	11.5
675.018	11.42
675.343	11.31
675.667	11.72
675.992	11.48
676.317	11.46
676.641	11.61
676.966	11.43
677.29	11.83
677.615	11.61
677.939	11.7
678.264	12.02
678.588	11.49
678.912	12.04
679.236	11.81
679.56	11.56
679.885	12.5
680.209	11.39
680.532	11.44
680.856	11.6
681.18	12.03
681.504	12.36
681.828	11.57
682.152	12.25
682.475	11.6
682.799	11.94
683.122	12.31
683.446	12.4
683.769	11.44
684.093	12.23
684.416	11.46
684.739	12.02
685.062	12.44
685.386	12.39
685.709	12.87
686.032	12.61
686.355	13.12
686.678	12.61
687.001	12.44
687.324	12.86
687.646	12.82
687.969	12.22
688.292	12.39
688.614	13.37
688.937	11.87
689.26	11.83
