Data from 0043_forehead_Reflection__4__150.txt Node

Date: Fri Nov 04 16:03:05 CDT 2022
User: ToomeyLab
Spectrometer: FLMS14357
Trigger mode: 0
Integration Time (sec): 1.000000E-2
Scans to average: 100
Electric dark correction enabled: true
Nonlinearity correction enabled: false
Boxcar width: 0
XAxis mode: Wavelengths
Number of Pixels in Spectrum: 2048
>>>>>Begin Spectral Data<<<<<
189.047	274.26
189.435	274.26
189.823	274.26
190.211	16.11
190.599	-91.28
190.987	21.41
191.375	103.75
191.763	-399.6
192.151	-88.87
192.538	7.02
192.926	48.6
193.314	-214.08
193.702	356.36
194.089	15.34
194.477	-13.65
194.864	308.46
195.252	47.08
195.639	-13.32
196.027	205.41
196.414	2162.78
196.801	44.47
197.189	-215
197.576	242.26
197.963	8.51
198.351	-30.63
198.738	48.13
199.125	3.26
199.512	6.72
199.899	21.93
200.286	-21.14
200.673	31.91
201.06	40.68
201.447	-15.07
201.833	57.84
202.22	16.85
202.607	53.04
202.994	36.63
203.38	12.28
203.767	14.22
204.154	55.84
204.54	-52.39
204.927	24.23
205.313	27.34
205.699	33.62
206.086	64.56
206.472	0.76
206.858	14.17
207.245	62.18
207.631	20.15
208.017	22.53
208.403	5.17
208.789	39.46
209.175	-17.13
209.561	-27.62
209.947	-3.38
210.333	36.39
210.719	6.48
211.105	19.36
211.491	46.44
211.876	58.13
212.262	31.5
212.648	-16.55
213.034	19.58
213.419	-5.53
213.805	24.05
214.19	26.32
214.576	19.58
214.961	50.19
215.346	22.6
215.732	20.36
216.117	15.63
216.502	-4.4
216.888	-4.49
217.273	22.42
217.658	-12.7
218.043	18.82
218.428	17.68
218.813	2.21
219.198	23.11
219.583	6.93
219.968	27.43
220.353	-51.59
220.738	12.59
221.122	-0.52
221.507	0.7
221.892	-27.14
222.276	7.03
222.661	0.02
223.046	-4.77
223.43	7.64
223.815	6.74
224.199	13.67
224.583	4.7
224.968	10.74
225.352	2.47
225.736	3.1
226.121	-1.73
226.505	14.79
226.889	6.21
227.273	5.71
227.657	-0.61
228.041	3.65
228.425	4.63
228.809	4.01
229.193	5.84
229.577	2.27
229.961	4.75
230.344	3.18
230.728	3.94
231.112	2.88
231.495	3.05
231.879	4.15
232.263	3.33
232.646	2.82
233.03	2.1
233.413	2.07
233.797	2.86
234.18	3.1
234.563	5.52
234.946	4.04
235.33	5.74
235.713	3.26
236.096	3.64
236.479	2.72
236.862	3.5
237.245	2.8
237.628	3.46
238.011	2.99
238.394	4.37
238.777	3.82
239.16	4.26
239.543	3.99
239.925	4.46
240.308	5.71
240.691	3.01
241.073	4.14
241.456	3.9
241.838	3.1
242.221	2.67
242.603	3.36
242.986	3.37
243.368	3.77
243.75	3.78
244.133	3.88
244.515	3.22
244.897	3.3
245.279	3.26
245.661	3.47
246.043	3.94
246.425	4.14
246.807	4.77
247.189	3.69
247.571	3.97
247.953	3.57
248.335	3.05
248.717	3.43
249.098	3.39
249.48	3.5
249.862	3.67
250.243	3.44
250.625	3.19
251.006	3.59
251.388	4.4
251.769	4.33
252.151	4.19
252.532	3.12
252.913	2.59
253.295	3.66
253.676	3.27
254.057	3.21
254.438	3
254.819	3.8
255.2	2.83
255.581	4.15
255.962	3.14
256.343	3.91
256.724	4.18
257.105	3.75
257.486	3.73
257.867	5.16
258.247	3.74
258.628	2.93
259.009	3.77
259.389	3.52
259.77	4.29
260.15	3.61
260.531	3.65
260.911	3.56
261.292	3.34
261.672	3.56
262.052	3.37
262.432	3.73
262.813	3.7
263.193	3.05
263.573	3.76
263.953	3.56
264.333	3.84
264.713	4.42
265.093	3.54
265.473	3.69
265.853	3.37
266.233	3.73
266.612	3.95
266.992	4.05
267.372	2.98
267.752	4.08
268.131	3.79
268.511	3.58
268.89	4.02
269.27	3.7
269.649	3.29
270.029	3.46
270.408	3.91
270.787	3.48
271.167	3.54
271.546	3.83
271.925	3.9
272.304	3.61
272.683	3.89
273.062	3.68
273.441	3.88
273.82	3.2
274.199	4
274.578	3.39
274.957	3.34
275.336	3.39
275.715	3.29
276.093	3.88
276.472	3.7
276.851	3.29
277.229	3.3
277.608	3.74
277.986	3.72
278.365	3.75
278.743	3.91
279.122	4.07
279.5	3.56
279.878	4.05
280.257	3.65
280.635	3.37
281.013	3.46
281.391	3.84
281.769	3.97
282.147	3.51
282.525	3.51
282.903	3.71
283.281	4.24
283.659	3.22
284.037	3.5
284.415	3.57
284.792	3.75
285.17	3.26
285.548	3.95
285.925	3.57
286.303	3.87
286.68	3.77
287.058	3.5
287.435	3.65
287.813	3.53
288.19	3.6
288.567	3.51
288.945	3.81
289.322	4.18
289.699	4.29
290.076	3.86
290.453	3.67
290.83	3.59
291.207	4.18
291.584	3.94
291.961	4.09
292.338	4.26
292.715	4.25
293.092	3.99
293.469	4.06
293.845	4.17
294.222	4.32
294.599	3.89
294.975	4.31
295.352	4.12
295.728	3.88
296.105	4.72
296.481	4.23
296.858	4.28
297.234	4.77
297.61	4.7
297.986	4.65
298.363	4.2
298.739	4.65
299.115	4.81
299.491	4.33
299.867	4.46
300.243	4.39
300.619	4.82
300.995	5.23
301.371	5.18
301.746	4.73
302.122	4.84
302.498	5.41
302.874	5.03
303.249	4.54
303.625	4.78
304	5.08
304.376	5.1
304.751	5.17
305.127	4.85
305.502	5.45
305.878	5.39
306.253	5.57
306.628	5.46
307.003	5.29
307.378	5.49
307.754	5.79
308.129	5.54
308.504	6.05
308.879	6.2
309.254	5.63
309.629	5.47
310.003	5.88
310.378	6.09
310.753	6.08
311.128	5.71
311.502	5.74
311.877	5.88
312.252	5.85
312.626	6.15
313.001	6.24
313.375	6.2
313.75	6.22
314.124	5.99
314.498	6.34
314.873	6.52
315.247	6.71
315.621	6.71
315.995	6.71
316.369	6.7
316.743	6.97
317.117	7.09
317.491	6.94
317.865	6.66
318.239	7.04
318.613	7.38
318.987	7.09
319.361	6.96
319.734	7.51
320.108	7.33
320.482	6.33
320.855	7.14
321.229	7.9
321.602	7.49
321.976	7.38
322.349	8.07
322.723	7.57
323.096	6.92
323.469	7.94
323.843	7.68
324.216	8.1
324.589	7.96
324.962	8.14
325.335	7.96
325.708	7.88
326.081	7.8
326.454	8.13
326.827	8.03
327.2	8.33
327.573	8.09
327.945	8.53
328.318	8.5
328.691	8.26
329.063	7.86
329.436	8.18
329.809	8.64
330.181	8.63
330.553	8.7
330.926	8.69
331.298	8.69
331.671	8.72
332.043	9.28
332.415	8.22
332.787	8.39
333.159	8.38
333.532	8.44
333.904	9.35
334.276	8.78
334.648	9.22
335.02	9.11
335.391	9.04
335.763	9.37
336.135	9.34
336.507	8.79
336.879	9.34
337.25	9.62
337.622	9.5
337.993	9.66
338.365	9.35
338.736	9.65
339.108	9.73
339.479	9.48
339.851	9.37
340.222	9.08
340.593	9.69
340.964	9.94
341.336	9.83
341.707	9.37
342.078	9.79
342.449	10.14
342.82	10.13
343.191	10.05
343.562	10.24
343.933	10.52
344.303	10.18
344.674	10.8
345.045	10.14
345.416	10.05
345.786	10.44
346.157	10.42
346.527	10.34
346.898	10.79
347.268	10.65
347.639	10.56
348.009	11.07
348.38	10.75
348.75	10.56
349.12	10.76
349.49	10.69
349.861	10.95
350.231	10.96
350.601	10.99
350.971	10.94
351.341	11.07
351.711	10.85
352.081	10.89
352.45	11.23
352.82	11.43
353.19	11.18
353.56	11.29
353.929	11.56
354.299	11.59
354.669	11.63
355.038	11.98
355.408	11.42
355.777	11.29
356.147	11.61
356.516	11.06
356.885	11.69
357.254	11.94
357.624	12.2
357.993	11.75
358.362	11.74
358.731	12.04
359.1	11.92
359.469	12.02
359.838	12.27
360.207	12.08
360.576	12.52
360.945	12.47
361.314	12.46
361.682	12.34
362.051	12.4
362.42	12.31
362.788	12.36
363.157	12.37
363.525	12.59
363.894	12.47
364.262	12.45
364.631	12.78
364.999	12.75
365.367	12.67
365.735	12.63
366.104	12.97
366.472	13.01
366.84	12.81
367.208	12.97
367.576	12.78
367.944	13.22
368.312	13.21
368.68	12.75
369.048	13.26
369.416	13.22
369.783	12.96
370.151	12.8
370.519	13.79
370.886	13.55
371.254	13.77
371.621	13.33
371.989	13.65
372.356	13.63
372.724	13.59
373.091	13.75
373.458	13.5
373.826	14.09
374.193	13.63
374.56	13.71
374.927	14.18
375.294	13.97
375.661	14.52
376.028	14.33
376.395	14.28
376.762	14.51
377.129	14.4
377.496	14.51
377.863	14.21
378.229	14.41
378.596	14.35
378.963	14.1
379.329	14.27
379.696	14.5
380.062	14.92
380.429	14.55
380.795	14.75
381.161	15.01
381.528	15.07
381.894	14.69
382.26	14.99
382.626	14.98
382.993	15.06
383.359	14.93
383.725	15.01
384.091	15.11
384.457	14.98
384.823	15.44
385.188	15.41
385.554	15.22
385.92	15.21
386.286	15.33
386.651	15.32
387.017	15.45
387.383	15.43
387.748	15.38
388.114	15.46
388.479	16.09
388.845	15.74
389.21	16.13
389.575	15.82
389.94	15.97
390.306	16.11
390.671	15.7
391.036	15.86
391.401	16.02
391.766	15.79
392.131	15.94
392.496	16.19
392.861	16.37
393.226	15.98
393.591	16.11
393.956	16.4
394.32	16.2
394.685	16.49
395.05	16.55
395.414	16.51
395.779	16.4
396.143	16.17
396.508	16.67
396.872	16.77
397.236	16.74
397.601	16.57
397.965	16.81
398.329	16.89
398.694	16.9
399.058	16.87
399.422	17.03
399.786	16.84
400.15	17.1
400.514	16.87
400.878	17.01
401.242	17.36
401.605	17.1
401.969	17.06
402.333	17.32
402.697	17.35
403.06	17.55
403.424	17.34
403.787	17.43
404.151	17.6
404.514	17.53
404.878	17.71
405.241	17.45
405.604	17.8
405.968	17.75
406.331	17.58
406.694	17.52
407.057	17.82
407.42	17.76
407.783	17.7
408.146	17.82
408.509	17.93
408.872	18.12
409.235	18.31
409.598	17.99
409.961	18.13
410.323	18.32
410.686	18.28
411.049	18.16
411.411	18.17
411.774	18.4
412.136	18.58
412.499	18.4
412.861	18.56
413.223	18.54
413.586	18.56
413.948	18.63
414.31	18.42
414.672	18.66
415.035	18.83
415.397	18.99
415.759	18.89
416.121	18.89
416.483	19.07
416.845	18.66
417.206	18.9
417.568	19.05
417.93	18.98
418.292	19.1
418.653	18.99
419.015	19.06
419.377	19.05
419.738	19.18
420.1	19.14
420.461	18.91
420.822	19.04
421.184	19.06
421.545	19
421.906	18.99
422.267	19.08
422.629	19.1
422.99	18.9
423.351	19.02
423.712	19.06
424.073	19.1
424.434	19.12
424.795	19.32
425.155	19.34
425.516	19.38
425.877	19.26
426.238	19.36
426.598	19.3
426.959	19.49
427.32	19.5
427.68	19.71
428.041	19.59
428.401	19.8
428.761	19.73
429.122	20
429.482	20.16
429.842	19.92
430.202	20.05
430.563	20.18
430.923	20.09
431.283	20.2
431.643	20.58
432.003	20.72
432.363	20.53
432.722	20.41
433.082	20.48
433.442	20.46
433.802	20.54
434.161	20.67
434.521	20.56
434.881	20.68
435.24	20.65
435.6	20.77
435.959	20.68
436.319	20.73
436.678	20.81
437.037	20.85
437.396	21.13
437.756	21.15
438.115	20.82
438.474	21.04
438.833	21.24
439.192	21.09
439.551	21.21
439.91	21.22
440.269	21.22
440.628	21.12
440.987	21.08
441.345	21.21
441.704	21.2
442.063	21.08
442.421	21.12
442.78	21.29
443.138	21.34
443.497	21.28
443.855	21.42
444.214	21.51
444.572	21.35
444.93	21.52
445.288	21.59
445.647	21.6
446.005	21.78
446.363	21.62
446.721	21.78
447.079	21.55
447.437	21.67
447.795	21.68
448.153	21.7
448.51	21.73
448.868	21.8
449.226	21.66
449.584	21.81
449.941	21.9
450.299	21.91
450.656	22.08
451.014	22.15
451.371	22.3
451.729	22.32
452.086	22.38
452.443	22.45
452.801	22.54
453.158	22.56
453.515	22.49
453.872	22.59
454.229	22.8
454.586	22.53
454.943	22.65
455.3	22.85
455.657	22.81
456.014	22.91
456.371	22.66
456.727	23.12
457.084	23.25
457.441	23.08
457.797	22.99
458.154	23.28
458.51	23.19
458.867	22.95
459.223	23.23
459.58	23.22
459.936	23.25
460.292	23.1
460.648	23.33
461.005	23.15
461.361	23.13
461.717	23.11
462.073	23.06
462.429	23.19
462.785	23.18
463.141	23.34
463.496	23.41
463.852	23.65
464.208	23.74
464.564	23.62
464.919	23.97
465.275	23.88
465.631	23.9
465.986	24.04
466.342	23.96
466.697	24.03
467.052	24.25
467.408	24.07
467.763	23.98
468.118	24.44
468.473	24.07
468.829	24.15
469.184	24.33
469.539	24.19
469.894	24.58
470.249	24.28
470.603	24.6
470.958	24.6
471.313	24.52
471.668	24.56
472.023	24.46
472.377	24.56
472.732	24.76
473.086	24.81
473.441	24.92
473.795	24.63
474.15	24.84
474.504	24.92
474.859	24.72
475.213	25.13
475.567	24.84
475.921	25.07
476.275	25.11
476.63	24.96
476.984	25.09
477.338	25.42
477.692	25.15
478.045	25.25
478.399	25.15
478.753	25.43
479.107	25.29
479.461	25.43
479.814	25.39
480.168	25.59
480.521	25.36
480.875	25.38
481.228	25.54
481.582	25.47
481.935	25.48
482.289	25.63
482.642	25.59
482.995	25.46
483.348	25.36
483.701	25.35
484.055	25.56
484.408	25.37
484.761	25.3
485.114	24.91
485.466	24.81
485.819	24.88
486.172	25.03
486.525	24.99
486.878	24.99
487.23	25.11
487.583	25.16
487.936	25.51
488.288	25.43
488.641	25.36
488.993	25.42
489.345	25.32
489.698	25.29
490.05	25.45
490.402	25.37
490.754	25.58
491.107	25.58
491.459	25.79
491.811	25.87
492.163	26.21
492.515	26.17
492.866	25.94
493.218	25.92
493.57	25.92
493.922	26.13
494.274	25.98
494.625	25.97
494.977	26.19
495.328	26.38
495.68	26.5
496.031	26.83
496.383	26.93
496.734	26.83
497.086	27.22
497.437	27.13
497.788	27.21
498.139	27.08
498.49	27.19
498.842	27.18
499.193	27.17
499.544	27.22
499.894	27.32
500.245	27.34
500.596	27.36
500.947	27.55
501.298	27.65
501.648	27.6
501.999	27.84
502.35	27.89
502.7	27.65
503.051	27.78
503.401	27.89
503.752	27.8
504.102	27.95
504.452	28.01
504.803	27.96
505.153	28.06
505.503	28.05
505.853	28.14
506.203	28.21
506.553	28.34
506.903	28.17
507.253	28.2
507.603	28.28
507.953	28.18
508.303	28.22
508.652	28.23
509.002	28.46
509.352	28.68
509.701	28.47
510.051	28.43
510.4	28.56
510.75	28.41
511.099	28.49
511.449	28.57
511.798	28.48
512.147	28.62
512.496	28.66
512.846	28.76
513.195	28.7
513.544	28.68
513.893	28.78
514.242	28.81
514.591	28.83
514.939	28.91
515.288	28.89
515.637	28.97
515.986	29.13
516.334	29.25
516.683	29.19
517.032	29.24
517.38	29.18
517.729	29.37
518.077	29.21
518.426	29.61
518.774	29.59
519.122	29.52
519.47	29.42
519.819	29.17
520.167	29.23
520.515	29
520.863	29.11
521.211	29.15
521.559	29.27
521.907	29.26
522.255	29.41
522.602	29.66
522.95	29.76
523.298	29.91
523.645	29.81
523.993	29.77
524.341	29.68
524.688	30.12
525.036	30.16
525.383	29.95
525.73	30.04
526.078	30.15
526.425	30.12
526.772	29.84
527.119	29.82
527.466	29.81
527.814	29.85
528.161	29.8
528.508	29.93
528.854	29.83
529.201	29.9
529.548	29.81
529.895	29.59
530.242	29.54
530.588	29.66
530.935	29.79
531.282	29.72
531.628	29.6
531.975	29.74
532.321	29.97
532.667	30.04
533.014	30.22
533.36	30.32
533.706	30.34
534.052	30.5
534.399	30.53
534.745	30.35
535.091	30.44
535.437	30.37
535.783	30.5
536.129	30.54
536.474	30.49
536.82	30.64
537.166	30.74
537.512	30.95
537.857	30.88
538.203	30.88
538.549	30.95
538.894	31.06
539.239	31.13
539.585	30.93
539.93	31.09
540.276	31.2
540.621	31.37
540.966	31.71
541.311	31.63
541.656	31.49
542.001	31.6
542.346	31.57
542.691	31.2
543.036	31.11
543.381	31.25
543.726	31.24
544.071	31.16
544.415	31.18
544.76	31.32
545.105	31.34
545.449	31.4
545.794	31.56
546.138	31.68
546.483	31.87
546.827	31.89
547.171	31.94
547.516	32.02
547.86	32.17
548.204	32.36
548.548	32.17
548.892	32.18
549.236	32.25
549.58	32.15
549.924	32.34
550.268	32.61
550.612	32.43
550.956	32.68
551.3	32.69
551.643	32.88
551.987	32.79
552.33	32.98
552.674	33.04
553.017	33.05
553.361	33.21
553.704	33.24
554.048	33.15
554.391	33.24
554.734	33.2
555.077	33.14
555.42	33.24
555.764	33.27
556.107	33.05
556.45	33.35
556.793	33.44
557.135	33.46
557.478	33.56
557.821	33.56
558.164	33.64
558.507	33.66
558.849	33.61
559.192	33.7
559.534	33.93
559.877	33.9
560.219	34.16
560.562	33.92
560.904	33.97
561.246	33.72
561.589	33.95
561.931	33.66
562.273	34.23
562.615	33.78
562.957	34.13
563.299	34.24
563.641	34.44
563.983	34.16
564.325	34.08
564.667	34.31
565.008	34.37
565.35	34.36
565.692	34.63
566.033	34.4
566.375	34.6
566.716	34.43
567.058	34.56
567.399	34.53
567.741	34.74
568.082	34.51
568.423	34.49
568.764	34.67
569.105	34.5
569.447	34.5
569.788	34.67
570.129	34.69
570.47	34.74
570.811	34.72
571.151	34.91
571.492	34.99
571.833	34.99
572.174	34.96
572.514	34.78
572.855	34.98
573.195	35.11
573.536	35.01
573.876	34.93
574.217	35.01
574.557	35.1
574.898	35.26
575.238	35.1
575.578	35.16
575.918	35.23
576.258	35.23
576.598	35.52
576.938	35.52
577.278	35.34
577.618	35.39
577.958	35.53
578.298	35.51
578.638	35.64
578.977	35.8
579.317	35.87
579.657	35.82
579.996	35.72
580.336	35.88
580.675	35.71
581.014	35.85
581.354	36.18
581.693	36.26
582.032	36.37
582.372	36
582.711	36.04
583.05	36.31
583.389	36.2
583.728	36.27
584.067	36.44
584.406	36.47
584.745	36.68
585.083	36.26
585.422	36.71
585.761	36.66
586.1	36.92
586.438	36.52
586.777	36.86
587.115	36.47
587.454	36.78
587.792	36.98
588.13	37.05
588.469	36.95
588.807	36.98
589.145	36.88
589.483	36.61
589.821	37.13
590.159	36.94
590.497	37.16
590.835	36.92
591.173	36.94
591.511	37.18
591.849	37.06
592.187	37.16
592.524	37.35
592.862	37.21
593.2	37.37
593.537	37.54
593.875	37.33
594.212	36.99
594.55	37.53
594.887	37.6
595.224	37.44
595.561	37.22
595.899	37.56
596.236	37.77
596.573	37.55
596.91	37.79
597.247	37.38
597.584	37.43
597.921	37.79
598.258	37.43
598.594	37.45
598.931	37.79
599.268	37.67
599.604	37.54
599.941	37.65
600.277	37.55
600.614	37.79
600.95	37.6
601.287	37.47
601.623	38.15
601.959	37.95
602.296	37.89
602.632	38.18
602.968	38.28
603.304	38
603.64	37.99
603.976	38.17
604.312	38.04
604.648	37.81
604.984	38.1
605.319	38.2
605.655	38.1
605.991	38.55
606.326	38.18
606.662	38.01
606.998	38.28
607.333	38.03
607.668	38.62
608.004	38.24
608.339	38.33
608.674	38.51
609.01	38.44
609.345	38.79
609.68	38.87
610.015	39.08
610.35	38.88
610.685	38.75
611.02	38.93
611.355	38.74
611.689	38.87
612.024	39.03
612.359	38.91
612.694	38.92
613.028	38.64
613.363	39.21
613.697	39.06
614.032	39.32
614.366	38.98
614.7	39.42
615.035	39.47
615.369	39.64
615.703	39.84
616.037	39.86
616.371	39.36
616.705	39.35
617.039	39.69
617.373	39.59
617.707	39.96
618.041	39.69
618.375	39.7
618.709	39.92
619.042	40.07
619.376	40.08
619.71	40.01
620.043	39.86
620.377	40.08
620.71	40.1
621.043	39.86
621.377	39.91
621.71	40.44
622.043	40.38
622.376	39.76
622.709	40.17
623.043	40.21
623.376	40.15
623.709	40.13
624.041	40.35
624.374	40.2
624.707	40.35
625.04	40.22
625.373	40.61
625.705	40.57
626.038	40.54
626.37	40.31
626.703	40.35
627.035	40.34
627.368	40.6
627.7	40.39
628.032	40.4
628.365	40.71
628.697	40.62
629.029	40.83
629.361	40.6
629.693	40.95
630.025	40.67
630.357	40.6
630.689	40.73
631.021	40.96
631.353	40.66
631.684	40.88
632.016	40.88
632.348	40.83
632.679	40.72
633.011	40.56
633.342	41.19
633.674	40.81
634.005	41.37
634.336	40.93
634.668	41.08
634.999	40.56
635.33	41.05
635.661	41.26
635.992	41.61
636.323	41.01
636.654	41.16
636.985	41.19
637.316	41.6
637.647	40.83
637.977	41.17
638.308	41.93
638.639	41.78
638.969	41.47
639.3	41.55
639.63	41.51
639.961	41.37
640.291	41.58
640.622	41.97
640.952	41.79
641.282	41.49
641.612	41.54
641.943	41.79
642.273	41.65
642.603	41.45
642.933	42.27
643.263	41.66
643.592	42.18
643.922	42.48
644.252	42.27
644.582	41.95
644.911	42.08
645.241	42.58
645.571	41.69
645.9	41.87
646.23	42.08
646.559	42.63
646.888	42.59
647.218	42.72
647.547	42.45
647.876	42.19
648.205	41.91
648.534	42.17
648.863	42.49
649.192	42.49
649.521	41.87
649.85	42.95
650.179	42.77
650.508	42.72
650.837	43.08
651.165	42.07
651.494	42.43
651.822	42.99
652.151	42.63
652.479	42.46
652.808	42.79
653.136	42.88
653.465	42.26
653.793	43.27
654.121	42.82
654.449	42.74
654.777	42.99
655.105	42.59
655.433	42.64
655.761	42.87
656.089	43.06
656.417	42.79
656.745	43.1
657.073	42.74
657.4	43.02
657.728	43.09
658.056	43.44
658.383	43.39
658.711	43.22
659.038	43.19
659.365	43.5
659.693	43.39
660.02	43.21
660.347	43.11
660.674	43.11
661.001	43.52
661.329	43.65
661.656	43.01
661.982	43.33
662.309	43.88
662.636	43.27
662.963	43.21
663.29	43.21
663.616	43.21
663.943	43.5
664.27	43.4
664.596	43.81
664.923	43.35
665.249	43.67
665.576	43.72
665.902	43.44
666.228	43.55
666.554	44.5
666.881	43.85
667.207	44
667.533	43.82
667.859	43.35
668.185	44.16
668.511	43.72
668.837	43.35
669.162	44.38
669.488	44.25
669.814	44.14
670.139	44.29
670.465	43.49
