Data from 23-1_chest_Reflection__4__338.txt Node

Date: Fri Sep 22 23:23:46 CDT 2023
User: ToomeyLab
Spectrometer: FLMS14357
Trigger mode: 0
Integration Time (sec): 1.000000E-2
Scans to average: 100
Electric dark correction enabled: true
Nonlinearity correction enabled: false
Boxcar width: 0
XAxis mode: Wavelengths
Number of Pixels in Spectrum: 2048
>>>>>Begin Spectral Data<<<<<
189.047	-211.9
189.435	-211.9
189.823	-211.9
190.211	14.4
190.599	-13335.48
190.987	51.13
191.375	754.84
191.763	215.14
192.151	26.55
192.538	241.04
192.926	109.78
193.314	84.14
193.702	55.14
194.089	60.37
194.477	26.07
194.864	-31.69
195.252	36.59
195.639	80.65
196.027	-13.15
196.414	83.92
196.801	-802.96
197.189	62.26
197.576	118.13
197.963	30.14
198.351	-2.6
198.738	30.17
199.125	-1.77
199.512	38.58
199.899	72.62
200.286	-32.41
200.673	-3.43
201.06	18.02
201.447	22.91
201.833	6.78
202.22	30.64
202.607	27.47
202.994	59.11
203.38	44.15
203.767	55.42
204.154	6.17
204.54	15.2
204.927	10.76
205.313	36.55
205.699	33.47
206.086	14.77
206.472	68.14
206.858	7.23
207.245	-28.53
207.631	39.98
208.017	14.88
208.403	18.5
208.789	33.27
209.175	32.04
209.561	15.54
209.947	34.73
210.333	28.82
210.719	-38.45
211.105	42.06
211.491	36.93
211.876	19.8
212.262	31.18
212.648	9.25
213.034	40.14
213.419	-5.75
213.805	-5.42
214.19	3.55
214.576	25.57
214.961	-6.16
215.346	-19.14
215.732	31.49
216.117	3.85
216.502	29.36
216.888	12.91
217.273	13.35
217.658	-6.76
218.043	22.64
218.428	7.77
218.813	-5.31
219.198	32.12
219.583	-9.76
219.968	-20.64
220.353	37.84
220.738	9.36
221.122	18.67
221.507	7.79
221.892	-17.93
222.276	-18.36
222.661	-0.46
223.046	28.5
223.43	21.62
223.815	-8.89
224.199	-17.96
224.583	11.06
224.968	9.02
225.352	-9.78
225.736	11.36
226.121	2.94
226.505	6.72
226.889	8.78
227.273	0.21
227.657	-1.75
228.041	11.74
228.425	4.01
228.809	5.79
229.193	-0.08
229.577	4.75
229.961	6.64
230.344	3.53
230.728	1.98
231.112	2.89
231.495	2.24
231.879	3.29
232.263	0.66
232.646	2.81
233.03	1.81
233.413	2.73
233.797	2.57
234.18	0.61
234.563	4.98
234.946	3.78
235.33	-0.78
235.713	-0.17
236.096	4.51
236.479	1.89
236.862	4.48
237.245	2.37
237.628	3.01
238.011	3.74
238.394	1.83
238.777	3.74
239.16	2.84
239.543	4.58
239.925	2.13
240.308	2.77
240.691	3.24
241.073	3.57
241.456	2.98
241.838	2.52
242.221	3.2
242.603	2.66
242.986	3.28
243.368	2.43
243.75	2.73
244.133	3.22
244.515	2.78
244.897	2.35
245.279	2.84
245.661	2.66
246.043	2.72
246.425	2.59
246.807	2.9
247.189	2.2
247.571	4.02
247.953	3.54
248.335	2.84
248.717	3.58
249.098	2.98
249.48	2.79
249.862	2.93
250.243	2.72
250.625	2.9
251.006	2.52
251.388	2.97
251.769	3.08
252.151	1.39
252.532	2.83
252.913	3.6
253.295	4.41
253.676	2.6
254.057	3.23
254.438	3.47
254.819	2.6
255.2	3.5
255.581	2.39
255.962	3.26
256.343	2.28
256.724	1.66
257.105	3.56
257.486	2.93
257.867	3.4
258.247	2.45
258.628	3.27
259.009	2.83
259.389	2.12
259.77	2.75
260.15	3.79
260.531	2.65
260.911	2.72
261.292	2.76
261.672	2.7
262.052	2.97
262.432	2.91
262.813	2.95
263.193	2.78
263.573	4.02
263.953	2.93
264.333	3.3
264.713	2.94
265.093	2.8
265.473	2.84
265.853	2.12
266.233	3.11
266.612	2.98
266.992	3.44
267.372	3.38
267.752	3.04
268.131	2.72
268.511	3.06
268.89	3.19
269.27	2.62
269.649	3.08
270.029	2.96
270.408	3.16
270.787	2.96
271.167	2.87
271.546	2.52
271.925	2.45
272.304	2.45
272.683	3.46
273.062	3.44
273.441	3.21
273.82	3.25
274.199	2.97
274.578	3.17
274.957	2.6
275.336	2.34
275.715	3.03
276.093	2.71
276.472	2.64
276.851	3.16
277.229	1.92
277.608	3.25
277.986	2.91
278.365	3.24
278.743	2.78
279.122	3.05
279.5	3.18
279.878	2.62
280.257	3.71
280.635	2.82
281.013	3.18
281.391	2.82
281.769	3.16
282.147	2.75
282.525	2.59
282.903	2.64
283.281	2.76
283.659	2.78
284.037	2.95
284.415	3.03
284.792	2.8
285.17	3.11
285.548	3.73
285.925	2.97
286.303	3.08
286.68	1.97
287.058	2.77
287.435	2.72
287.813	2.67
288.19	2.28
288.567	2.81
288.945	2.88
289.322	3.03
289.699	2.91
290.076	3.13
290.453	2.53
290.83	2.61
291.207	2.94
291.584	2.06
291.961	2.91
292.338	3.26
292.715	3.2
293.092	2.84
293.469	3.19
293.845	2.94
294.222	3.05
294.599	3.65
294.975	3.28
295.352	2.5
295.728	3.18
296.105	3.81
296.481	2.99
296.858	2.83
297.234	3.34
297.61	3.1
297.986	3.45
298.363	3.14
298.739	3.07
299.115	3.31
299.491	3
299.867	3.55
300.243	3.21
300.619	3.16
300.995	2.89
301.371	3.58
301.746	3.49
302.122	3.2
302.498	3.24
302.874	3.31
303.249	3.44
303.625	3.09
304	3.71
304.376	3.3
304.751	3.57
305.127	3.44
305.502	3.76
305.878	3.19
306.253	3.47
306.628	3.35
307.003	3.65
307.378	3.6
307.754	3.57
308.129	3.68
308.504	3.57
308.879	3.44
309.254	3.12
309.629	3.69
310.003	4.36
310.378	4.39
310.753	3.67
311.128	3.5
311.502	3.52
311.877	3.4
312.252	3.41
312.626	3.74
313.001	3.73
313.375	3.31
313.75	3.87
314.124	4
314.498	3.21
314.873	3.47
315.247	3.81
315.621	3.7
315.995	3.12
316.369	3.74
316.743	3.46
317.117	3.74
317.491	4.25
317.865	3.34
318.239	3.82
318.613	4.16
318.987	3.59
319.361	3.64
319.734	3.78
320.108	3.9
320.482	3.96
320.855	3.39
321.229	4.24
321.602	3.82
321.976	3.68
322.349	3.86
322.723	4.07
323.096	3.63
323.469	4.45
323.843	4.01
324.216	4.21
324.589	4.06
324.962	3.38
325.335	3.91
325.708	3.5
326.081	4.11
326.454	3.21
326.827	4.17
327.2	3.46
327.573	4.07
327.945	3.82
328.318	4.21
328.691	3.77
329.063	3.7
329.436	3.71
329.809	4.42
330.181	4
330.553	3.51
330.926	4.05
331.298	4.18
331.671	3.81
332.043	3.39
332.415	3.97
332.787	4.66
333.159	3.47
333.532	3.48
333.904	3.59
334.276	3.59
334.648	3.56
335.02	3.08
335.391	3.72
335.763	4.5
336.135	4.1
336.507	3.77
336.879	4.01
337.25	4.05
337.622	4.12
337.993	3.71
338.365	4.27
338.736	4.1
339.108	3.9
339.479	4.08
339.851	3.78
340.222	3.61
340.593	3.55
340.964	3.71
341.336	3.72
341.707	3.83
342.078	3.89
342.449	4.13
342.82	3.73
343.191	3.42
343.562	3.7
343.933	3.77
344.303	3.63
344.674	3.83
345.045	3.54
345.416	4.26
345.786	3.9
346.157	3.42
346.527	3.4
346.898	3.44
347.268	4.02
347.639	3.81
348.009	3.57
348.38	4.17
348.75	3.93
349.12	3.63
349.49	3.94
349.861	3.25
350.231	3.77
350.601	3.88
350.971	3.86
351.341	4.23
351.711	3.77
352.081	3.76
352.45	3.84
352.82	3.79
353.19	3.93
353.56	3.61
353.929	3.99
354.299	3.68
354.669	3.68
355.038	3.76
355.408	3.96
355.777	3.79
356.147	4.01
356.516	4.09
356.885	3.73
357.254	4.32
357.624	3.69
357.993	4.09
358.362	4.13
358.731	3.95
359.1	3.65
359.469	4.06
359.838	3.66
360.207	3.69
360.576	4.12
360.945	3.89
361.314	3.89
361.682	4.09
362.051	4.23
362.42	3.75
362.788	3.77
363.157	4.18
363.525	3.79
363.894	3.85
364.262	3.85
364.631	3.85
364.999	3.89
365.367	4.21
365.735	4.02
366.104	3.9
366.472	4.2
366.84	3.73
367.208	4.24
367.576	4.01
367.944	3.94
368.312	3.96
368.68	3.97
369.048	4.03
369.416	4.02
369.783	3.53
370.151	3.84
370.519	3.97
370.886	3.82
371.254	4.42
371.621	3.88
371.989	3.95
372.356	4.05
372.724	4.21
373.091	4.11
373.458	3.77
373.826	4.16
374.193	4.17
374.56	3.84
374.927	3.93
375.294	4.01
375.661	3.83
376.028	4.12
376.395	4.19
376.762	4.06
377.129	4.15
377.496	4.35
377.863	4.11
378.229	4.19
378.596	4.1
378.963	4.51
379.329	4.07
379.696	4.27
380.062	3.79
380.429	3.82
380.795	3.94
381.161	3.86
381.528	3.97
381.894	3.75
382.26	4.14
382.626	3.85
382.993	4.32
383.359	3.7
383.725	4.1
384.091	4.06
384.457	3.89
384.823	3.74
385.188	4.05
385.554	3.99
385.92	4.44
386.286	3.98
386.651	4.16
387.017	4.05
387.383	4.01
387.748	4
388.114	3.81
388.479	3.94
388.845	3.9
389.21	3.78
389.575	4.14
389.94	3.81
390.306	4.1
390.671	4.29
391.036	3.98
391.401	4.02
391.766	4.1
392.131	3.95
392.496	3.9
392.861	3.88
393.226	4.04
393.591	4.06
393.956	4.01
394.32	3.81
394.685	3.89
395.05	4.18
395.414	4.29
395.779	4
396.143	3.89
396.508	3.85
396.872	3.87
397.236	3.79
397.601	3.65
397.965	4.16
398.329	4.04
398.694	3.85
399.058	4.06
399.422	3.83
399.786	4.05
400.15	3.91
400.514	3.81
400.878	3.88
401.242	3.94
401.605	3.75
401.969	3.7
402.333	3.84
402.697	3.81
403.06	3.88
403.424	3.69
403.787	3.97
404.151	3.93
404.514	3.85
404.878	3.88
405.241	3.94
405.604	3.89
405.968	3.83
406.331	3.67
406.694	3.94
407.057	3.6
407.42	3.86
407.783	3.6
408.146	3.73
408.509	3.78
408.872	3.73
409.235	3.8
409.598	3.82
409.961	3.88
410.323	3.88
410.686	3.71
411.049	4.02
411.411	3.86
411.774	3.75
412.136	3.75
412.499	3.66
412.861	3.9
413.223	3.7
413.586	3.74
413.948	3.89
414.31	3.75
414.672	3.64
415.035	3.6
415.397	4.09
415.759	4.09
416.121	3.49
416.483	3.97
416.845	3.68
417.206	3.65
417.568	3.7
417.93	3.91
418.292	3.57
418.653	3.72
419.015	3.79
419.377	3.85
419.738	3.87
420.1	3.7
420.461	3.89
420.822	3.82
421.184	3.71
421.545	3.74
421.906	3.82
422.267	3.77
422.629	3.81
422.99	3.69
423.351	3.66
423.712	3.68
424.073	3.67
424.434	3.85
424.795	3.73
425.155	3.87
425.516	3.79
425.877	3.78
426.238	3.69
426.598	3.85
426.959	3.86
427.32	3.88
427.68	3.79
428.041	3.9
428.401	4
428.761	4.11
429.122	4
429.482	3.93
429.842	3.82
430.202	3.98
430.563	4.02
430.923	4.24
431.283	4.21
431.643	4.24
432.003	4.17
432.363	4.16
432.722	4.07
433.082	4.1
433.442	4.06
433.802	4.19
434.161	4.04
434.521	3.97
434.881	4.21
435.24	3.94
435.6	4.07
435.959	4.11
436.319	4.29
436.678	4.27
437.037	4.18
437.396	4.14
437.756	4.25
438.115	4.29
438.474	4.27
438.833	4.14
439.192	4.14
439.551	4.29
439.91	4.35
440.269	4.42
440.628	4.15
440.987	4.22
441.345	4.2
441.704	4.26
442.063	4.27
442.421	4.12
442.78	4.24
443.138	4.18
443.497	4.2
443.855	4.32
444.214	4.15
444.572	4.42
444.93	4.35
445.288	4.26
445.647	4.32
446.005	4.28
446.363	4.09
446.721	4.32
447.079	4.16
447.437	4.28
447.795	4.41
448.153	4.26
448.51	4.31
448.868	4.18
449.226	4.2
449.584	4.27
449.941	4.24
450.299	4.27
450.656	4.33
451.014	4.54
451.371	4.38
451.729	4.4
452.086	4.44
452.443	4.36
452.801	4.35
453.158	4.27
453.515	4.54
453.872	4.35
454.229	4.47
454.586	4.4
454.943	4.39
455.3	4.36
455.657	4.46
456.014	4.31
456.371	4.49
456.727	4.6
457.084	4.48
457.441	4.39
457.797	4.48
458.154	4.39
458.51	4.45
458.867	4.39
459.223	4.56
459.58	4.58
459.936	4.53
460.292	4.47
460.648	4.6
461.005	4.58
461.361	4.48
461.717	4.21
462.073	4.41
462.429	4.27
462.785	4.46
463.141	4.46
463.496	4.59
463.852	4.48
464.208	4.44
464.564	4.66
464.919	4.51
465.275	4.66
465.631	4.66
465.986	4.58
466.342	4.71
466.697	4.63
467.052	4.47
467.408	4.63
467.763	4.69
468.118	4.63
468.473	4.54
468.829	4.43
469.184	4.66
469.539	4.54
469.894	4.64
470.249	4.67
470.603	4.71
470.958	4.7
471.313	4.76
471.668	4.73
472.023	4.69
472.377	4.46
472.732	4.46
473.086	4.77
473.441	4.58
473.795	4.75
474.15	4.68
474.504	4.6
474.859	4.72
475.213	4.66
475.567	4.64
475.921	4.69
476.275	4.75
476.63	4.59
476.984	4.63
477.338	4.71
477.692	4.77
478.045	4.79
478.399	4.86
478.753	4.7
479.107	4.7
479.461	4.72
479.814	4.78
480.168	4.68
480.521	4.86
480.875	4.92
481.228	4.65
481.582	4.56
481.935	4.75
482.289	4.71
482.642	4.65
482.995	4.66
483.348	4.74
483.701	4.79
484.055	4.56
484.408	4.57
484.761	4.68
485.114	4.55
485.466	4.51
485.819	4.48
486.172	4.42
486.525	4.39
486.878	4.4
487.23	4.44
487.583	4.57
487.936	4.6
488.288	4.64
488.641	4.6
488.993	4.56
489.345	4.56
489.698	4.53
490.05	4.52
490.402	4.55
490.754	4.49
491.107	4.54
491.459	4.55
491.811	4.64
492.163	4.71
492.515	4.69
492.866	4.66
493.218	4.7
493.57	4.67
493.922	4.58
494.274	4.58
494.625	4.63
494.977	4.63
495.328	4.77
495.68	4.82
496.031	4.79
496.383	4.86
496.734	4.78
497.086	4.78
497.437	4.85
497.788	4.9
498.139	4.96
498.49	5
498.842	4.82
499.193	4.79
499.544	4.9
499.894	4.88
500.245	4.8
500.596	4.8
500.947	4.89
501.298	4.95
501.648	4.92
501.999	4.97
502.35	4.99
502.7	5.05
503.051	4.92
503.401	5.05
503.752	5.04
504.102	5.06
504.452	5.07
504.803	4.95
505.153	4.92
505.503	4.94
505.853	5.03
506.203	4.89
506.553	5.16
506.903	4.89
507.253	4.92
507.603	5.04
507.953	5.15
508.303	5.07
508.652	5.06
509.002	5.01
509.352	5.02
509.701	5.08
510.051	5.04
510.4	5.09
510.75	5.07
511.099	4.89
511.449	5.11
511.798	5.08
512.147	5
512.496	5.04
512.846	5.07
513.195	5.1
513.544	5.08
513.893	5.14
514.242	5.03
514.591	4.94
514.939	5.11
515.288	4.91
515.637	5.03
515.986	4.93
516.334	5.09
516.683	5.14
517.032	5.2
517.38	5.09
517.729	5.12
518.077	5.22
518.426	5.16
518.774	5.16
519.122	5.19
519.47	5.16
519.819	5.16
520.167	5.11
520.515	5.09
520.863	5
521.211	5.04
521.559	5.08
521.907	5.08
522.255	5.11
522.602	5.12
522.95	5.21
523.298	5.16
523.645	5.21
523.993	5.19
524.341	5.08
524.688	5.21
525.036	5.15
525.383	5.31
525.73	5.33
526.078	5.18
526.425	5.22
526.772	5.36
527.119	5.23
527.466	5.16
527.814	5.07
528.161	5.13
528.508	5.13
528.854	5.18
529.201	5.28
529.548	5.16
529.895	5.14
530.242	5.09
530.588	5.02
530.935	4.95
531.282	5.02
531.628	5.08
531.975	5.02
532.321	5.07
532.667	5.17
533.014	5.25
533.36	5.34
533.706	5.26
534.052	5.35
534.399	5.34
534.745	5.27
535.091	5.26
535.437	5.2
535.783	5.17
536.129	5.18
536.474	5.23
536.82	5.14
537.166	5.44
537.512	5.39
537.857	5.46
538.203	5.44
538.549	5.34
538.894	5.22
539.239	5.28
539.585	5.35
539.93	5.5
540.276	5.38
540.621	5.39
540.966	5.55
541.311	5.6
541.656	5.53
542.001	5.56
542.346	5.44
542.691	5.53
543.036	5.46
543.381	5.41
543.726	5.32
544.071	5.31
544.415	5.38
544.76	5.37
545.105	5.33
545.449	5.45
545.794	5.51
546.138	5.5
546.483	5.5
546.827	5.49
547.171	5.62
547.516	5.58
547.86	5.67
548.204	5.66
548.548	5.71
548.892	5.68
549.236	5.57
549.58	5.7
549.924	5.73
550.268	5.84
550.612	5.74
550.956	5.83
551.3	5.93
551.643	5.83
551.987	6
552.33	6.03
552.674	5.98
553.017	5.9
553.361	5.94
553.704	5.8
554.048	6.03
554.391	5.94
554.734	5.92
555.077	5.96
555.42	5.86
555.764	5.91
556.107	5.98
556.45	5.93
556.793	5.87
557.135	6
557.478	5.98
557.821	6.1
558.164	6.24
558.507	6.23
558.849	5.98
559.192	6.09
559.534	6.19
559.877	6.15
560.219	6.25
560.562	6.24
560.904	6.37
561.246	6.48
561.589	6.34
561.931	6.11
562.273	6.1
562.615	6.18
562.957	6.26
563.299	6.21
563.641	6.19
563.983	6.37
564.325	6.43
564.667	6.38
565.008	6.31
565.35	6.19
565.692	6.32
566.033	6.27
566.375	6.44
566.716	6.23
567.058	6.48
567.399	6.39
567.741	6.64
568.082	6.41
568.423	6.54
568.764	6.52
569.105	6.32
569.447	6.53
569.788	6.34
570.129	6.62
570.47	6.63
570.811	6.5
571.151	6.61
571.492	6.44
571.833	6.51
572.174	6.7
572.514	6.5
572.855	6.53
573.195	6.61
573.536	6.55
573.876	6.54
574.217	6.63
574.557	6.68
574.898	6.68
575.238	6.47
575.578	6.58
575.918	6.77
576.258	6.49
576.598	6.69
576.938	6.68
577.278	6.77
577.618	6.66
577.958	6.75
578.298	6.93
578.638	6.82
578.977	6.99
579.317	6.94
579.657	6.86
579.996	6.96
580.336	7.24
580.675	7.2
581.014	6.85
581.354	6.96
581.693	7.1
582.032	7.19
582.372	7.14
582.711	7.18
583.05	7.11
583.389	6.92
583.728	7.18
584.067	7.2
584.406	7.3
584.745	7.02
585.083	7.48
585.422	7.15
585.761	7.24
586.1	7.13
586.438	7.19
586.777	7.3
587.115	7.48
587.454	7.2
587.792	7.61
588.13	7.52
588.469	7.25
588.807	7.58
589.145	7.62
589.483	7.56
589.821	7.48
590.159	7.24
590.497	7.58
590.835	7.6
591.173	7.37
591.511	7.59
591.849	7.76
592.187	7.43
592.524	7.65
592.862	7.71
593.2	7.46
593.537	7.38
593.875	7.69
594.212	7.68
594.55	7.94
594.887	7.75
595.224	7.69
595.561	7.91
595.899	7.78
596.236	8.17
596.573	7.84
596.91	7.84
597.247	7.76
597.584	8.03
597.921	8.08
598.258	8.06
598.594	7.79
598.931	7.75
599.268	7.98
599.604	8.08
599.941	8.05
600.277	7.98
600.614	8.08
600.95	8.06
601.287	8.05
601.623	8.04
601.959	8.23
602.296	8.34
602.632	7.94
602.968	8.28
603.304	8.42
603.64	8.44
603.976	8.53
604.312	8.2
604.648	8.32
604.984	8.52
605.319	8.16
605.655	8.26
605.991	8.3
606.326	8.39
606.662	8.38
606.998	8.26
607.333	8.35
607.668	8.18
608.004	8.61
608.339	8.15
608.674	8.4
609.01	8.54
609.345	8.4
609.68	8.56
610.015	8.5
610.35	8.55
610.685	8.98
611.02	8.83
611.355	8.78
611.689	8.83
612.024	8.55
612.359	8.55
612.694	8.66
613.028	8.71
613.363	8.62
613.697	8.62
614.032	8.77
614.366	8.93
614.7	8.89
615.035	8.66
615.369	8.64
615.703	8.77
616.037	9.08
616.371	9.17
616.705	9.26
617.039	9.05
617.373	8.8
617.707	8.82
618.041	9.41
618.375	8.96
618.709	9.07
619.042	9.46
619.376	9.51
619.71	9.24
620.043	9.04
620.377	9.01
620.71	9.25
621.043	9.19
621.377	9.11
621.71	9.56
622.043	9.33
622.376	9.75
622.709	9.15
623.043	9.35
623.376	9.57
623.709	9.48
624.041	9.34
624.374	9.29
624.707	9.48
625.04	9.73
625.373	9.23
625.705	9.37
626.038	9.48
626.37	10.07
626.703	9.54
627.035	9.87
627.368	9.28
627.7	9.94
628.032	10.05
628.365	9.71
628.697	9.68
629.029	9.6
629.361	9.8
629.693	10.15
630.025	9.75
630.357	9.88
630.689	9.69
631.021	9.77
631.353	9.64
631.684	9.85
632.016	9.95
632.348	9.96
632.679	10.16
633.011	9.9
633.342	10.04
633.674	10.19
634.005	9.92
634.336	10.24
634.668	10
634.999	10.51
635.33	10.28
635.661	10.09
635.992	9.99
636.323	10.03
636.654	9.98
636.985	9.83
637.316	10.25
637.647	10.35
637.977	9.77
638.308	10.49
638.639	10.27
638.969	10.44
639.3	10.35
639.63	10.8
639.961	10.18
640.291	10.39
640.622	10.72
640.952	10.53
641.282	10.59
641.612	10.59
641.943	10.71
642.273	10.79
642.603	10.72
642.933	10.77
643.263	9.91
643.592	10.33
643.922	10.8
644.252	10.7
644.582	11.09
644.911	10.71
645.241	11.19
645.571	11
645.9	11.18
646.23	11.15
646.559	11.37
646.888	10.98
647.218	10.66
647.547	10.94
647.876	11.31
648.205	10.69
648.534	11.41
648.863	10.95
649.192	10.92
649.521	11.57
649.85	11.33
650.179	11.13
650.508	10.67
650.837	11.68
651.165	11.39
651.494	11.37
651.822	11.71
652.151	11.28
652.479	11.57
652.808	11.43
653.136	12
653.465	11.08
653.793	11.17
654.121	11.96
654.449	11.01
654.777	11.77
655.105	11.81
655.433	11.87
655.761	12.03
656.089	11.73
656.417	11.72
656.745	11.9
657.073	11.81
657.4	12.1
657.728	11.78
658.056	11.49
658.383	11.88
658.711	11.75
659.038	11.8
659.365	12
659.693	11.87
660.02	12.11
660.347	11.9
660.674	11.34
661.001	11.75
661.329	11.74
661.656	11.99
661.982	11.79
662.309	12.24
662.636	11.81
662.963	12.4
663.29	11.96
663.616	11.85
663.943	12.55
664.27	12.47
664.596	11.89
664.923	11.79
665.249	12.43
665.576	11.58
665.902	12.06
666.228	12.21
666.554	11.75
666.881	12.69
667.207	12.13
667.533	12.28
667.859	12.49
668.185	12.71
668.511	13.02
668.837	12.03
669.162	12.75
669.488	12.56
669.814	12.73
670.139	12.58
670.465	13.11
670.791	12.74
671.116	12.64
671.442	12.84
671.767	12.5
672.092	13.02
672.418	13.07
672.743	13
673.068	12.92
673.393	13.06
673.718	13.02
674.043	13.11
674.368	13.25
674.693	12.49
675.018	12.6
675.343	12.97
675.667	13.06
675.992	12.62
676.317	12.64
676.641	13.7
676.966	13.46
677.29	13.69
677.615	13.38
677.939	13.53
678.264	13.42
678.588	13.45
678.912	14.05
679.236	13.34
679.56	13.42
679.885	12.9
680.209	14.07
680.532	13.35
680.856	12.22
681.18	13.55
681.504	13.72
681.828	13.38
682.152	13.26
682.475	14.19
682.799	13.9
683.122	13.19
683.446	13.49
683.769	13.39
684.093	13.61
684.416	13.53
684.739	14.25
685.062	14.24
685.386	13.87
685.709	13.54
686.032	13.88
686.355	13.75
686.678	14.3
687.001	14.46
687.324	13.86
687.646	13.96
687.969	14.43
688.292	13.53
688.614	14.77
688.937	13.91
