Data from 23-1_forehead_Reflection__2__346.txt Node

Date: Fri Sep 22 23:26:37 CDT 2023
User: ToomeyLab
Spectrometer: FLMS14357
Trigger mode: 0
Integration Time (sec): 1.000000E-2
Scans to average: 100
Electric dark correction enabled: true
Nonlinearity correction enabled: false
Boxcar width: 0
XAxis mode: Wavelengths
Number of Pixels in Spectrum: 2048
>>>>>Begin Spectral Data<<<<<
189.047	91.63
189.435	91.63
189.823	91.63
190.211	-44.75
190.599	-13819.35
190.987	41.32
191.375	707.96
191.763	587.08
192.151	-8.06
192.538	-180.17
192.926	-13.1
193.314	75.58
193.702	95.1
194.089	85.54
194.477	-188.11
194.864	35.62
195.252	30.05
195.639	41.18
196.027	176.38
196.414	65.03
196.801	419.7
197.189	-91.46
197.576	50.86
197.963	181.42
198.351	41.71
198.738	28.64
199.125	13.77
199.512	10.11
199.899	57.57
200.286	8.03
200.673	-9.23
201.06	36.29
201.447	57.51
201.833	-15.9
202.22	18.53
202.607	49.91
202.994	40.89
203.38	33.34
203.767	26.49
204.154	46.67
204.54	26.64
204.927	39.01
205.313	38.4
205.699	61.22
206.086	34.04
206.472	65.07
206.858	28.68
207.245	32.1
207.631	33.5
208.017	19.39
208.403	56.28
208.789	38.8
209.175	37.65
209.561	42.34
209.947	38.62
210.333	15.52
210.719	15.45
211.105	53.14
211.491	35.58
211.876	39.77
212.262	46.74
212.648	56.19
213.034	30.24
213.419	18.31
213.805	24.92
214.19	27.91
214.576	24.4
214.961	26.29
215.346	18.02
215.732	13.89
216.117	34.18
216.502	52.37
216.888	12.6
217.273	18.8
217.658	31.4
218.043	29.85
218.428	52.65
218.813	3.75
219.198	7.99
219.583	-5.62
219.968	-1.18
220.353	37.04
220.738	12.59
221.122	12.52
221.507	31.97
221.892	10.57
222.276	23.3
222.661	-6.28
223.046	27.87
223.43	30.15
223.815	0.9
224.199	0.36
224.583	15.05
224.968	20.9
225.352	-2.48
225.736	13.37
226.121	18.14
226.505	13.8
226.889	17.98
227.273	7.39
227.657	12.9
228.041	9.05
228.425	15.05
228.809	9.11
229.193	6.33
229.577	9.96
229.961	7.99
230.344	7.08
230.728	5.43
231.112	5.89
231.495	6.17
231.879	6.48
232.263	5.5
232.646	6.12
233.03	5.55
233.413	7.34
233.797	7.01
234.18	6.9
234.563	8.06
234.946	10.02
235.33	6.31
235.713	6.09
236.096	7.42
236.479	7.01
236.862	7.13
237.245	7.1
237.628	6.8
238.011	7.88
238.394	7.15
238.777	8.11
239.16	6.71
239.543	7.53
239.925	8.59
240.308	5.76
240.691	6.82
241.073	8.65
241.456	7.26
241.838	5.64
242.221	5.56
242.603	6.39
242.986	6.44
243.368	5.74
243.75	5.98
244.133	6.94
244.515	6.27
244.897	5.59
245.279	5.83
245.661	5.56
246.043	5.91
246.425	6.64
246.807	6.28
247.189	4.63
247.571	6.69
247.953	7.17
248.335	5.9
248.717	6.37
249.098	5.98
249.48	5.6
249.862	5.7
250.243	5.92
250.625	6.4
251.006	5.48
251.388	6
251.769	6.56
252.151	6.21
252.532	6.04
252.913	5.08
253.295	7.65
253.676	6.27
254.057	6.18
254.438	6.05
254.819	5.77
255.2	6.3
255.581	5.58
255.962	6.11
256.343	6.27
256.724	5.67
257.105	6.76
257.486	7.06
257.867	6.91
258.247	6.87
258.628	7.08
259.009	6.02
259.389	5.84
259.77	6.48
260.15	6.97
260.531	6.29
260.911	5.8
261.292	5.7
261.672	5.58
262.052	5.53
262.432	5.78
262.813	5.78
263.193	5.52
263.573	6.15
263.953	5.77
264.333	6.18
264.713	5.94
265.093	6.42
265.473	5.51
265.853	5.06
266.233	5.91
266.612	5.71
266.992	6.51
267.372	5.55
267.752	6.35
268.131	6.15
268.511	4.8
268.89	6.09
269.27	5.64
269.649	5.89
270.029	5.71
270.408	5.33
270.787	6.13
271.167	5.72
271.546	5.61
271.925	5.9
272.304	5.3
272.683	5.41
273.062	5.59
273.441	5.5
273.82	5.93
274.199	5.7
274.578	5.81
274.957	5.38
275.336	5.34
275.715	5.22
276.093	5.21
276.472	5.47
276.851	5.74
277.229	5.12
277.608	5.83
277.986	4.81
278.365	6.01
278.743	5.34
279.122	5.76
279.5	5.87
279.878	4.75
280.257	6.22
280.635	5.8
281.013	5.76
281.391	4.96
281.769	5.63
282.147	5.58
282.525	5.46
282.903	5.97
283.281	5.89
283.659	5.45
284.037	5.19
284.415	5.7
284.792	5.33
285.17	6.06
285.548	5.97
285.925	5.81
286.303	5.99
286.68	4.94
287.058	5.15
287.435	5.31
287.813	5.61
288.19	5.03
288.567	5.32
288.945	5.18
289.322	5.37
289.699	5.72
290.076	5.24
290.453	5.34
290.83	5.41
291.207	5.62
291.584	5.49
291.961	5
292.338	5.64
292.715	5.46
293.092	5.58
293.469	5.72
293.845	5.2
294.222	6.24
294.599	6.15
294.975	6.37
295.352	5.71
295.728	5.92
296.105	6.13
296.481	6.15
296.858	6.04
297.234	5.71
297.61	5.7
297.986	6.03
298.363	5.69
298.739	5.76
299.115	6.05
299.491	6.05
299.867	6.09
300.243	5.8
300.619	6.35
300.995	5.73
301.371	6.5
301.746	6.22
302.122	6.46
302.498	5.88
302.874	6.14
303.249	6.63
303.625	6.34
304	6.64
304.376	6.57
304.751	6.65
305.127	6.38
305.502	6.87
305.878	6.56
306.253	6.59
306.628	6.61
307.003	6.82
307.378	6.72
307.754	6.82
308.129	7.11
308.504	6.99
308.879	7.11
309.254	7.32
309.629	7.24
310.003	7.27
310.378	7.27
310.753	7.13
311.128	7.1
311.502	7.04
311.877	7.01
312.252	7.06
312.626	7.45
313.001	7.39
313.375	7.41
313.75	7.75
314.124	7.63
314.498	7.66
314.873	7.93
315.247	7.68
315.621	7.59
315.995	7.72
316.369	7.76
316.743	8.08
317.117	8.2
317.491	8.08
317.865	7.75
318.239	7.76
318.613	8.07
318.987	7.74
319.361	7.56
319.734	7.68
320.108	8.71
320.482	8.15
320.855	7.73
321.229	8.1
321.602	8.3
321.976	8.28
322.349	7.68
322.723	7.92
323.096	8.34
323.469	7.65
323.843	8.32
324.216	8.68
324.589	8.02
324.962	8.16
325.335	8.2
325.708	8.52
326.081	8.43
326.454	7.56
326.827	8.22
327.2	7.98
327.573	8.72
327.945	8.35
328.318	8.34
328.691	8.62
329.063	7.98
329.436	8.35
329.809	8.34
330.181	8.75
330.553	8.45
330.926	8.36
331.298	8.52
331.671	8.24
332.043	7.74
332.415	8.55
332.787	8.31
333.159	8.05
333.532	8.76
333.904	8.46
334.276	8.38
334.648	8.01
335.02	8.41
335.391	8.46
335.763	8.67
336.135	8.96
336.507	8.74
336.879	8.46
337.25	8.61
337.622	8.69
337.993	8.37
338.365	8.58
338.736	8.76
339.108	8.99
339.479	8.17
339.851	8.15
340.222	8.45
340.593	8.32
340.964	8.14
341.336	8.04
341.707	7.82
342.078	8.58
342.449	8.45
342.82	8.53
343.191	7.86
343.562	8.55
343.933	8.64
344.303	8.33
344.674	8.54
345.045	7.97
345.416	8.75
345.786	8.4
346.157	8.56
346.527	8.31
346.898	8.48
347.268	8.62
347.639	8.56
348.009	8.31
348.38	8.52
348.75	8.74
349.12	8.45
349.49	9.02
349.861	8.65
350.231	8.34
350.601	8.55
350.971	8.7
351.341	8.47
351.711	8.23
352.081	8.79
352.45	8.56
352.82	8.59
353.19	8.97
353.56	8.5
353.929	8.86
354.299	8.66
354.669	8.33
355.038	8.64
355.408	8.56
355.777	8.66
356.147	8.58
356.516	8.62
356.885	8.4
357.254	8.94
357.624	8.3
357.993	8.26
358.362	8.63
358.731	8.71
359.1	8.67
359.469	8.61
359.838	8.32
360.207	8.42
360.576	8.52
360.945	8.6
361.314	8.6
361.682	8.8
362.051	8.65
362.42	8.71
362.788	8.52
363.157	8.67
363.525	8.66
363.894	8.39
364.262	8.51
364.631	8.71
364.999	8.36
365.367	8.78
365.735	8.67
366.104	8.69
366.472	8.92
366.84	8.47
367.208	9.07
367.576	8.68
367.944	8.72
368.312	8.77
368.68	8.54
369.048	8.74
369.416	8.66
369.783	8.86
370.151	8.91
370.519	8.86
370.886	8.78
371.254	8.96
371.621	9.08
371.989	9.08
372.356	8.67
372.724	9.16
373.091	9.01
373.458	8.79
373.826	9.24
374.193	9.22
374.56	9
374.927	8.93
375.294	8.62
375.661	8.71
376.028	8.65
376.395	8.82
376.762	8.56
377.129	9.27
377.496	9.17
377.863	8.83
378.229	8.9
378.596	8.87
378.963	8.92
379.329	8.96
379.696	8.7
380.062	8.51
380.429	8.79
380.795	8.89
381.161	8.5
381.528	8.66
381.894	8.25
382.26	8.6
382.626	8.95
382.993	8.79
383.359	8.44
383.725	8.47
384.091	8.91
384.457	8.5
384.823	8.41
385.188	8.61
385.554	8.74
385.92	8.59
386.286	8.57
386.651	8.23
387.017	8.81
387.383	8.22
387.748	8.19
388.114	8.21
388.479	8.43
388.845	8.08
389.21	8.09
389.575	8.34
389.94	8.17
390.306	8.32
390.671	8.49
391.036	7.94
391.401	8.25
391.766	8.04
392.131	8.05
392.496	8.23
392.861	7.92
393.226	8.24
393.591	7.99
393.956	7.95
394.32	7.86
394.685	7.9
395.05	7.88
395.414	7.65
395.779	8.06
396.143	7.95
396.508	7.45
396.872	7.6
397.236	7.73
397.601	7.71
397.965	7.99
398.329	7.74
398.694	7.56
399.058	7.6
399.422	7.43
399.786	7.61
400.15	7.55
400.514	7.52
400.878	7.51
401.242	7.41
401.605	7.43
401.969	7.27
402.333	7.47
402.697	7.05
403.06	7.36
403.424	7.32
403.787	7.2
404.151	7.18
404.514	7.3
404.878	7.12
405.241	7.13
405.604	7.2
405.968	7.26
406.331	7.07
406.694	7.09
407.057	6.79
407.42	7.05
407.783	7.03
408.146	6.96
408.509	6.71
408.872	6.97
409.235	6.91
409.598	6.9
409.961	7.1
410.323	7.08
410.686	6.88
411.049	7.11
411.411	7.28
411.774	6.9
412.136	6.6
412.499	6.76
412.861	6.91
413.223	6.95
413.586	6.82
413.948	7.02
414.31	6.95
414.672	6.94
415.035	6.89
415.397	7.13
415.759	7.47
416.121	7.16
416.483	6.94
416.845	7.03
417.206	7.06
417.568	7.03
417.93	6.96
418.292	7.19
418.653	7
419.015	7.39
419.377	7.02
419.738	7.32
420.1	7.19
420.461	7.18
420.822	7.12
421.184	7.19
421.545	7.25
421.906	7.21
422.267	7.3
422.629	7.37
422.99	7.33
423.351	7.23
423.712	7.38
424.073	7.35
424.434	7.54
424.795	7.64
425.155	7.76
425.516	7.72
425.877	7.83
426.238	7.78
426.598	7.75
426.959	7.96
427.32	8.16
427.68	8.01
428.041	8.24
428.401	8.23
428.761	8.56
429.122	8.56
429.482	8.54
429.842	8.68
430.202	8.95
430.563	9.03
430.923	9
431.283	9.04
431.643	9.17
432.003	9.2
432.363	9.55
432.722	9.52
433.082	9.53
433.442	9.37
433.802	9.64
434.161	9.66
434.521	9.68
434.881	9.74
435.24	9.89
435.6	9.82
435.959	10.07
436.319	10.14
436.678	10.23
437.037	10.23
437.396	10.15
437.756	10.39
438.115	10.56
438.474	10.56
438.833	10.81
439.192	10.7
439.551	10.73
439.91	10.9
440.269	11.17
440.628	10.75
440.987	11
441.345	11.09
441.704	11.07
442.063	11.26
442.421	11.21
442.78	11.3
443.138	11.25
443.497	11.27
443.855	11.42
444.214	11.47
444.572	11.57
444.93	11.81
445.288	11.73
445.647	11.75
446.005	11.94
446.363	11.88
446.721	12
447.079	11.76
447.437	12.17
447.795	11.98
448.153	12.07
448.51	12.09
448.868	12.11
449.226	12.1
449.584	12.19
449.941	12.3
450.299	12.4
450.656	12.47
451.014	12.64
451.371	12.55
451.729	12.71
452.086	12.83
452.443	12.92
452.801	13.07
453.158	13.01
453.515	13.08
453.872	13.13
454.229	13.27
454.586	13.21
454.943	13.12
455.3	13.21
455.657	13.32
456.014	13.39
456.371	13.5
456.727	13.63
457.084	13.63
457.441	13.55
457.797	13.81
458.154	13.86
458.51	13.92
458.867	13.88
459.223	14.02
459.58	14.14
459.936	14.13
460.292	14.12
460.648	14.18
461.005	14.14
461.361	14.19
461.717	13.95
462.073	14.1
462.429	14.06
462.785	14.22
463.141	14.51
463.496	14.64
463.852	14.78
464.208	14.86
464.564	15.09
464.919	15.02
465.275	15.33
465.631	15.22
465.986	15.39
466.342	15.38
466.697	15.55
467.052	15.22
467.408	15.52
467.763	15.36
468.118	15.77
468.473	15.57
468.829	15.69
469.184	15.66
469.539	15.58
469.894	15.7
470.249	15.96
470.603	15.74
470.958	15.87
471.313	16.13
471.668	15.93
472.023	16.08
472.377	16.04
472.732	16.18
473.086	16.76
473.441	16.12
473.795	16.58
474.15	16.14
474.504	16.38
474.859	16.62
475.213	16.38
475.567	16.46
475.921	16.6
476.275	16.62
476.63	16.81
476.984	16.72
477.338	16.91
477.692	16.83
478.045	17.05
478.399	16.91
478.753	16.74
479.107	16.86
479.461	16.89
479.814	17.09
480.168	17.07
480.521	17
480.875	17.14
481.228	17.03
481.582	16.98
481.935	17.11
482.289	17.17
482.642	17.1
482.995	17.07
483.348	17.15
483.701	17.17
484.055	16.95
484.408	16.99
484.761	16.98
485.114	16.74
485.466	16.7
485.819	16.31
486.172	16.21
486.525	16.4
486.878	16.52
487.23	16.76
487.583	16.86
487.936	16.96
488.288	17.07
488.641	17.11
488.993	16.92
489.345	16.81
489.698	16.8
490.05	16.78
490.402	16.88
490.754	16.97
491.107	17.19
491.459	17.32
491.811	17.36
492.163	17.62
492.515	17.62
492.866	17.63
493.218	17.46
493.57	17.33
493.922	17.14
494.274	17.21
494.625	17.49
494.977	17.55
495.328	17.85
495.68	18.01
496.031	17.99
496.383	18.27
496.734	18.15
497.086	18.2
497.437	18.44
497.788	18.35
498.139	18.36
498.49	18.42
498.842	18.22
499.193	18.15
499.544	18.39
499.894	18.34
500.245	18.44
500.596	18.32
500.947	18.53
501.298	18.6
501.648	18.51
501.999	18.52
502.35	18.7
502.7	18.77
503.051	18.61
503.401	18.86
503.752	18.98
504.102	18.89
504.452	18.74
504.803	18.76
505.153	18.8
505.503	18.9
505.853	18.98
506.203	18.89
506.553	19.07
506.903	18.97
507.253	18.83
507.603	19.02
507.953	19.01
508.303	19.15
508.652	18.96
509.002	19.23
509.352	18.96
509.701	19.16
510.051	19.02
510.4	19.05
510.75	18.95
511.099	18.79
511.449	18.92
511.798	19.09
512.147	18.9
512.496	19.07
512.846	19
513.195	18.98
513.544	19.08
513.893	19.1
514.242	18.95
514.591	19.04
514.939	18.94
515.288	18.89
515.637	19.18
515.986	19.09
516.334	19.13
516.683	19.02
517.032	19.2
517.38	19.13
517.729	19.07
518.077	19.06
518.426	19.17
518.774	19.22
519.122	19.03
519.47	19.01
519.819	18.89
520.167	18.73
520.515	18.68
520.863	18.43
521.211	18.53
521.559	18.56
521.907	18.63
522.255	18.7
522.602	18.72
522.95	18.81
523.298	18.89
523.645	19
523.993	18.93
524.341	18.79
524.688	18.88
525.036	18.84
525.383	18.86
525.73	18.83
526.078	18.92
526.425	18.85
526.772	18.89
527.119	18.64
527.466	18.43
527.814	18.27
528.161	18.17
528.508	18.35
528.854	18.45
529.201	18.54
529.548	18.4
529.895	18.29
530.242	18
530.588	17.78
530.935	17.58
531.282	17.73
531.628	17.98
531.975	18.06
532.321	18.26
532.667	18.4
533.014	18.39
533.36	18.53
533.706	18.61
534.052	18.66
534.399	18.42
534.745	18.42
535.091	18.26
535.437	18.05
535.783	17.99
536.129	18.06
536.474	18.41
536.82	18.46
537.166	18.63
537.512	18.71
537.857	18.81
538.203	18.81
538.549	18.66
538.894	18.46
539.239	18.48
539.585	18.59
539.93	18.98
540.276	18.99
540.621	18.95
540.966	19.05
541.311	19.25
541.656	19.13
542.001	19.11
542.346	19.13
542.691	19.07
543.036	18.88
543.381	18.59
543.726	18.34
544.071	18.54
544.415	18.75
544.76	18.96
545.105	18.97
545.449	18.97
545.794	19.1
546.138	19.17
546.483	19.34
546.827	19.41
547.171	19.64
547.516	19.7
547.86	19.62
548.204	19.68
548.548	19.71
548.892	19.67
549.236	19.52
549.58	19.81
549.924	19.99
550.268	20.16
550.612	20.14
550.956	20.23
551.3	20.3
551.643	20.43
551.987	20.54
552.33	20.55
552.674	20.69
553.017	20.8
553.361	20.69
553.704	20.87
554.048	20.75
554.391	20.8
554.734	20.63
555.077	20.6
555.42	20.54
555.764	20.67
556.107	20.91
556.45	20.78
556.793	20.94
557.135	20.89
557.478	20.86
557.821	21.08
558.164	20.95
558.507	21.23
558.849	21.1
559.192	21.23
559.534	21.27
559.877	21.43
560.219	21.33
560.562	21.5
560.904	21.39
561.246	21.61
561.589	21.48
561.931	21.16
562.273	21.29
562.615	21.4
562.957	21.29
563.299	21.48
563.641	21.43
563.983	21.57
564.325	21.69
564.667	21.53
565.008	21.29
565.35	21.48
565.692	21.62
566.033	21.58
566.375	21.62
566.716	21.5
567.058	21.64
567.399	21.54
567.741	21.75
568.082	21.42
568.423	21.4
568.764	21.75
569.105	21.43
569.447	21.63
569.788	21.6
570.129	21.79
570.47	21.81
570.811	22.09
571.151	22.18
571.492	21.93
571.833	21.82
572.174	22.24
572.514	22.26
572.855	22.14
573.195	22.14
573.536	22.31
573.876	22.14
574.217	22.15
574.557	22.19
574.898	22.43
575.238	22.46
575.578	22.75
575.918	22.76
576.258	22.6
576.598	22.9
576.938	22.98
577.278	22.98
577.618	22.96
577.958	23.03
578.298	23.04
578.638	23.28
578.977	23.43
579.317	23.43
579.657	23.28
579.996	23.44
580.336	23.74
580.675	23.86
581.014	23.88
581.354	24.12
581.693	24.18
582.032	24.07
582.372	24.48
582.711	24.33
583.05	24.21
583.389	24.47
583.728	24.49
584.067	24.66
584.406	24.66
584.745	24.82
585.083	25.05
585.422	25.2
585.761	25.2
586.1	25.12
586.438	25.24
586.777	25.26
587.115	25.25
587.454	25.59
587.792	25.67
588.13	25.49
588.469	25.54
588.807	26.07
589.145	25.94
589.483	25.96
589.821	25.95
590.159	26.02
590.497	26.27
590.835	26.16
591.173	26.33
591.511	26.39
591.849	26.4
592.187	26.47
592.524	26.88
592.862	26.72
593.2	26.69
593.537	27.1
593.875	27.11
594.212	27.27
594.55	27.43
594.887	27.3
595.224	27.32
595.561	27.52
595.899	27.66
596.236	27.56
596.573	28.01
596.91	27.5
597.247	28.01
597.584	28.06
597.921	28
598.258	28.17
598.594	27.8
598.931	27.83
599.268	27.96
599.604	28.05
599.941	27.98
600.277	28.38
600.614	28.29
600.95	28.7
601.287	28.78
601.623	28.78
601.959	28.84
602.296	28.64
602.632	28.81
602.968	28.84
603.304	29.07
603.64	29.08
603.976	29.35
604.312	29.03
604.648	29.18
604.984	29.48
605.319	29.19
605.655	29.17
605.991	29.21
606.326	29.31
606.662	29.28
606.998	29.15
607.333	29.22
607.668	29.37
608.004	29.61
608.339	29.54
608.674	29.78
609.01	30.02
609.345	29.93
609.68	29.78
610.015	29.77
610.35	30.35
610.685	30.16
611.02	30.06
611.355	30.16
611.689	29.85
612.024	29.97
612.359	29.93
612.694	30.11
613.028	30.16
613.363	30.28
613.697	30.37
614.032	30.36
614.366	30.62
614.7	30.4
615.035	30.29
615.369	30.66
615.703	30.67
616.037	30.82
616.371	31.05
616.705	31.07
617.039	30.99
617.373	30.8
617.707	31.32
618.041	31.03
618.375	31.02
618.709	31.01
619.042	31.54
619.376	31.26
619.71	31.1
620.043	31.19
620.377	30.86
620.71	31.03
621.043	31.41
621.377	31.43
621.71	31.59
622.043	31.19
622.376	31.37
622.709	31.89
623.043	31.23
623.376	31.85
623.709	32.08
624.041	31.64
624.374	31.64
624.707	31.87
625.04	31.73
625.373	31.67
625.705	31.96
626.038	31.89
626.37	32.24
626.703	32.09
627.035	32.08
627.368	32.42
627.7	32.3
628.032	32.72
628.365	32.23
628.697	32.45
629.029	32.4
629.361	32.5
629.693	32.72
630.025	32.58
630.357	32.66
630.689	33.23
631.021	33.05
631.353	32.84
631.684	33.15
632.016	33.48
632.348	33.48
632.679	33.46
633.011	33.55
633.342	33.81
633.674	33.8
634.005	33.86
634.336	34.21
634.668	34.37
634.999	34.54
635.33	34.31
635.661	34.54
635.992	34.67
636.323	34.5
636.654	34.73
636.985	34.91
637.316	35.46
637.647	35.45
637.977	35.26
638.308	36.03
638.639	36.11
638.969	36.19
639.3	36.02
639.63	36.45
639.961	36.18
640.291	36.47
640.622	36.7
640.952	36.7
641.282	36.98
641.612	37.34
641.943	37.54
642.273	37.09
642.603	37.43
642.933	37.64
643.263	37.39
643.592	38.02
643.922	38.39
644.252	37.95
644.582	38.79
644.911	38.27
645.241	38.9
645.571	38.36
645.9	39.2
646.23	39.05
646.559	38.96
646.888	39.45
647.218	39.05
647.547	39.38
647.876	39.86
648.205	39.62
648.534	40.35
648.863	40.46
649.192	40.18
649.521	40.67
649.85	40.74
650.179	40.78
650.508	40.9
650.837	41.16
651.165	41.02
651.494	41.25
651.822	41.05
652.151	41.58
652.479	41.26
652.808	41.53
653.136	42.24
653.465	41.9
653.793	41.51
654.121	42.19
654.449	41.54
654.777	42.9
655.105	42.45
655.433	42.62
655.761	42.61
656.089	42.64
656.417	42.82
656.745	43.26
657.073	42.88
657.4	43.58
657.728	43.55
658.056	43.74
658.383	43.61
658.711	44.15
659.038	43.58
659.365	44.14
659.693	44.38
660.02	44.71
660.347	43.92
660.674	44.16
661.001	43.86
661.329	44.22
661.656	44.42
661.982	44.54
662.309	45.03
662.636	44.92
662.963	45.11
663.29	45.28
663.616	45.18
663.943	45.97
664.27	45.49
664.596	45.34
664.923	46.21
665.249	45.9
665.576	45.7
665.902	46.07
666.228	46.17
666.554	45.9
666.881	46.4
667.207	46.18
667.533	45.71
667.859	46.62
668.185	46.66
668.511	46.66
668.837	46.27
669.162	46.81
669.488	46.52
669.814	47.15
670.139	46.93
670.465	47.17
670.791	47.23
671.116	47.23
671.442	47.96
671.767	46.76
672.092	47.66
672.418	48.16
672.743	48.03
673.068	48.03
673.393	48
673.718	48.05
674.043	48.52
674.368	48.41
674.693	48.05
675.018	48.59
675.343	48.76
675.667	49.02
675.992	48.63
676.317	48.27
676.641	48.62
