Data from 23-1_crown_Reflection__4__343.txt Node

Date: Fri Sep 22 23:25:31 CDT 2023
User: ToomeyLab
Spectrometer: FLMS14357
Trigger mode: 0
Integration Time (sec): 1.000000E-2
Scans to average: 100
Electric dark correction enabled: true
Nonlinearity correction enabled: false
Boxcar width: 0
XAxis mode: Wavelengths
Number of Pixels in Spectrum: 2048
>>>>>Begin Spectral Data<<<<<
189.047	-19.72
189.435	-19.72
189.823	-19.72
190.211	195.66
190.599	-154.84
190.987	145.38
191.375	6.88
191.763	545.21
192.151	-31.57
192.538	-397.91
192.926	64.67
193.314	-33.97
193.702	50.26
194.089	35.21
194.477	235.25
194.864	69.54
195.252	14.38
195.639	44.96
196.027	363.44
196.414	-32.43
196.801	-239.08
197.189	-603.86
197.576	112
197.963	104.01
198.351	11.47
198.738	24.88
199.125	7.14
199.512	-17.91
199.899	8.05
200.286	27.92
200.673	9.19
201.06	-20.02
201.447	2
201.833	-61.17
202.22	24.86
202.607	24.97
202.994	30.62
203.38	22.2
203.767	-9.84
204.154	32.95
204.54	10.54
204.927	0.83
205.313	-3.63
205.699	42.62
206.086	9.15
206.472	23.2
206.858	36.31
207.245	-35.87
207.631	25.97
208.017	41.32
208.403	32.85
208.789	5.3
209.175	49.91
209.561	36.34
209.947	26.22
210.333	32.12
210.719	-12.05
211.105	31.7
211.491	11.6
211.876	15.95
212.262	25.49
212.648	9.5
213.034	32.12
213.419	33.61
213.805	-20.1
214.19	0.58
214.576	5.25
214.961	23.9
215.346	0.38
215.732	41
216.117	26.47
216.502	36.83
216.888	-5.24
217.273	40.55
217.658	-17.93
218.043	12.71
218.428	2.8
218.813	-29.7
219.198	25.99
219.583	10.81
219.968	-9.32
220.353	30.56
220.738	-21.79
221.122	11.48
221.507	9.68
221.892	-9.13
222.276	14.48
222.661	-29.69
223.046	9.08
223.43	10.04
223.815	-0.67
224.199	-7.63
224.583	8.08
224.968	-0.15
225.352	8.11
225.736	8.64
226.121	12.58
226.505	12.55
226.889	9.5
227.273	5.05
227.657	2.42
228.041	2.1
228.425	6.01
228.809	1.84
229.193	4.48
229.577	4.99
229.961	7.96
230.344	7.2
230.728	5.79
231.112	6.07
231.495	5.03
231.879	5.7
232.263	5.43
232.646	5.78
233.03	4.93
233.413	7.04
233.797	5.37
234.18	5.55
234.563	5.76
234.946	2.88
235.33	2.75
235.713	3.65
236.096	5.84
236.479	6.07
236.862	8.27
237.245	5.99
237.628	4.66
238.011	5.18
238.394	4.5
238.777	6.12
239.16	6.55
239.543	4.9
239.925	6.24
240.308	5.3
240.691	4.17
241.073	5.68
241.456	6.03
241.838	2.73
242.221	5.55
242.603	5.65
242.986	5.95
243.368	4.73
243.75	6.23
244.133	5.35
244.515	5.02
244.897	5.01
245.279	5.14
245.661	5.4
246.043	5.22
246.425	4.97
246.807	5.54
247.189	3.85
247.571	5.35
247.953	5.81
248.335	4.56
248.717	5.67
249.098	5.19
249.48	5.12
249.862	5.26
250.243	5.22
250.625	5.66
251.006	4.62
251.388	5.27
251.769	5.09
252.151	5.37
252.532	6.44
252.913	4.51
253.295	5.29
253.676	5.05
254.057	5.12
254.438	5.44
254.819	5.04
255.2	5.25
255.581	5.21
255.962	5.39
256.343	4.37
256.724	4.59
257.105	5.97
257.486	5.61
257.867	4.04
258.247	5.67
258.628	6.03
259.009	4.66
259.389	4.07
259.77	5.26
260.15	5.25
260.531	4.35
260.911	4.28
261.292	4.95
261.672	4.5
262.052	4.71
262.432	4.78
262.813	4.98
263.193	4.82
263.573	5.27
263.953	4.62
264.333	5.25
264.713	4.62
265.093	3.97
265.473	4.84
265.853	4.1
266.233	4.58
266.612	4.05
266.992	4.97
267.372	5.26
267.752	4.8
268.131	4.13
268.511	3.89
268.89	4.71
269.27	4.76
269.649	4.39
270.029	4.87
270.408	5.1
270.787	4.62
271.167	4.62
271.546	5.05
271.925	5.38
272.304	4.29
272.683	4.31
273.062	4.7
273.441	4.99
273.82	5.02
274.199	4.95
274.578	5.04
274.957	4.28
275.336	4.45
275.715	4.71
276.093	3.96
276.472	4.52
276.851	4.88
277.229	3.97
277.608	4.62
277.986	4.14
278.365	4.62
278.743	4.33
279.122	5.05
279.5	5.14
279.878	4.18
280.257	5.21
280.635	4.75
281.013	4.49
281.391	3.69
281.769	4.84
282.147	5.3
282.525	4.18
282.903	4.4
283.281	4.47
283.659	4.45
284.037	3.85
284.415	4.6
284.792	4.44
285.17	4.82
285.548	5.01
285.925	4.25
286.303	4.37
286.68	4.23
287.058	4.08
287.435	4.2
287.813	4.11
288.19	4.05
288.567	4.27
288.945	3.88
289.322	4.4
289.699	4.28
290.076	4.46
290.453	4.09
290.83	3.58
291.207	4.35
291.584	4
291.961	3.7
292.338	4.25
292.715	4.38
293.092	4.46
293.469	4.47
293.845	3.93
294.222	3.99
294.599	4.55
294.975	4.84
295.352	4.45
295.728	4.29
296.105	4.42
296.481	4.12
296.858	4.03
297.234	3.72
297.61	4.17
297.986	4.56
298.363	4.04
298.739	4.04
299.115	4.42
299.491	4.39
299.867	4.01
300.243	4.2
300.619	4.18
300.995	4.31
301.371	4.78
301.746	4.14
302.122	4.01
302.498	4.03
302.874	3.68
303.249	3.66
303.625	3.84
304	4.23
304.376	4.63
304.751	4.09
305.127	3.62
305.502	3.83
305.878	3.93
306.253	4.27
306.628	4.09
307.003	4.1
307.378	4.1
307.754	3.99
308.129	4.08
308.504	4.17
308.879	4.29
309.254	3.87
309.629	4
310.003	4.72
310.378	4.53
310.753	4.26
311.128	4.05
311.502	3.98
311.877	3.52
312.252	4.15
312.626	3.94
313.001	4.13
313.375	4.17
313.75	4.21
314.124	4.3
314.498	3.63
314.873	3.73
315.247	4.23
315.621	3.82
315.995	3.69
316.369	4.1
316.743	3.93
317.117	4.43
317.491	4.61
317.865	3.61
318.239	3.97
318.613	4.21
318.987	4.12
319.361	3.68
319.734	3.96
320.108	4.28
320.482	3.93
320.855	4.08
321.229	4.19
321.602	3.84
321.976	3.44
322.349	3.96
322.723	4.35
323.096	3.99
323.469	3.41
323.843	3.79
324.216	4.41
324.589	3.64
324.962	3.78
325.335	3.72
325.708	4.03
326.081	4.22
326.454	3.58
326.827	3.93
327.2	4.03
327.573	4.4
327.945	4.25
328.318	3.9
328.691	4.21
329.063	3.45
329.436	4.04
329.809	3.51
330.181	3.94
330.553	4.17
330.926	4
331.298	3.91
331.671	3.79
332.043	3.51
332.415	4.03
332.787	4.25
333.159	3.83
333.532	3.15
333.904	3.58
334.276	3.53
334.648	4.07
335.02	3.58
335.391	3.78
335.763	4.22
336.135	4.22
336.507	3.78
336.879	3.3
337.25	3.91
337.622	3.94
337.993	3.31
338.365	3.74
338.736	4.21
339.108	3.92
339.479	3.46
339.851	3.29
340.222	3.47
340.593	3.96
340.964	3.47
341.336	3.7
341.707	3.56
342.078	3.68
342.449	3.93
342.82	3.52
343.191	3.42
343.562	3.87
343.933	3.58
344.303	3.39
344.674	3.84
345.045	3.91
345.416	4.1
345.786	3.77
346.157	4.12
346.527	4.07
346.898	3.68
347.268	3.61
347.639	3.76
348.009	3.63
348.38	3.81
348.75	3.94
349.12	3.78
349.49	4.33
349.861	3.8
350.231	3.98
350.601	4.26
350.971	4.17
351.341	3.45
351.711	3.42
352.081	3.66
352.45	4
352.82	3.96
353.19	4.42
353.56	3.67
353.929	3.83
354.299	3.82
354.669	3.51
355.038	3.62
355.408	3.82
355.777	4.2
356.147	3.58
356.516	4.08
356.885	3.77
357.254	4.32
357.624	3.73
357.993	3.99
358.362	3.94
358.731	3.8
359.1	3.74
359.469	3.68
359.838	3.54
360.207	3.67
360.576	3.7
360.945	4.01
361.314	3.83
361.682	3.98
362.051	4.17
362.42	3.8
362.788	3.82
363.157	4.19
363.525	3.98
363.894	3.91
364.262	3.73
364.631	4.11
364.999	3.66
365.367	4.1
365.735	4
366.104	3.88
366.472	4.23
366.84	3.75
367.208	4.01
367.576	4.24
367.944	4.04
368.312	4.06
368.68	3.97
369.048	4.31
369.416	4.04
369.783	4.09
370.151	3.76
370.519	4.03
370.886	3.97
371.254	3.97
371.621	4.05
371.989	3.83
372.356	4.31
372.724	4.28
373.091	4.17
373.458	3.87
373.826	3.96
374.193	4.23
374.56	4.12
374.927	4.19
375.294	4.01
375.661	3.99
376.028	4.21
376.395	4.24
376.762	3.88
377.129	4.14
377.496	4.43
377.863	4.44
378.229	4.3
378.596	4.18
378.963	4.42
379.329	4.21
379.696	4.16
380.062	3.83
380.429	4.17
380.795	4.15
381.161	4.26
381.528	3.68
381.894	3.99
382.26	3.95
382.626	4.11
382.993	4.33
383.359	3.87
383.725	4.06
384.091	4.18
384.457	4.24
384.823	4.16
385.188	4.33
385.554	4.48
385.92	4.71
386.286	4.08
386.651	4.01
387.017	4.36
387.383	4.01
387.748	4.2
388.114	4.11
388.479	4.39
388.845	3.85
389.21	4.11
389.575	4.47
389.94	4.24
390.306	4.42
390.671	4.44
391.036	4.08
391.401	4.21
391.766	4.18
392.131	4.27
392.496	4.45
392.861	4.04
393.226	4.19
393.591	4.55
393.956	4.43
394.32	4.29
394.685	4.14
395.05	4.4
395.414	4.12
395.779	4.34
396.143	4.24
396.508	4.12
396.872	4.17
397.236	4.13
397.601	4.04
397.965	4.36
398.329	4.18
398.694	4.09
399.058	4.41
399.422	4.37
399.786	4.39
400.15	4.58
400.514	4.42
400.878	4.42
401.242	4.49
401.605	4.29
401.969	4.21
402.333	4.28
402.697	4.37
403.06	4.13
403.424	4.5
403.787	4.42
404.151	4.32
404.514	4.53
404.878	4.45
405.241	4.66
405.604	4.6
405.968	4.4
406.331	4.4
406.694	4.37
407.057	4.18
407.42	4.41
407.783	4.51
408.146	4.42
408.509	4.32
408.872	4.37
409.235	4.38
409.598	4.39
409.961	4.66
410.323	4.51
410.686	4.56
411.049	4.78
411.411	4.43
411.774	4.35
412.136	4.37
412.499	4.26
412.861	4.36
413.223	4.68
413.586	4.56
413.948	4.47
414.31	4.29
414.672	4.54
415.035	4.41
415.397	4.56
415.759	4.95
416.121	4.51
416.483	4.45
416.845	4.34
417.206	4.7
417.568	4.4
417.93	4.41
418.292	4.33
418.653	4.31
419.015	4.38
419.377	4.36
419.738	4.6
420.1	4.28
420.461	4.45
420.822	4.34
421.184	4.43
421.545	4.47
421.906	4.32
422.267	4.38
422.629	4.55
422.99	4.3
423.351	4.2
423.712	4.38
424.073	4.38
424.434	4.48
424.795	4.5
425.155	4.54
425.516	4.42
425.877	4.36
426.238	4.31
426.598	4.39
426.959	4.42
427.32	4.53
427.68	4.44
428.041	4.35
428.401	4.4
428.761	4.5
429.122	4.49
429.482	4.61
429.842	4.49
430.202	4.55
430.563	4.56
430.923	4.69
431.283	4.57
431.643	4.53
432.003	4.72
432.363	4.7
432.722	4.73
433.082	4.43
433.442	4.5
433.802	4.52
434.161	4.54
434.521	4.61
434.881	4.66
435.24	4.5
435.6	4.5
435.959	4.48
436.319	4.57
436.678	4.76
437.037	4.65
437.396	4.63
437.756	4.57
438.115	4.71
438.474	4.74
438.833	4.65
439.192	4.51
439.551	4.56
439.91	4.61
440.269	4.75
440.628	4.54
440.987	4.57
441.345	4.66
441.704	4.64
442.063	4.53
442.421	4.59
442.78	4.66
443.138	4.52
443.497	4.61
443.855	4.62
444.214	4.44
444.572	4.79
444.93	4.65
445.288	4.77
445.647	4.58
446.005	4.63
446.363	4.42
446.721	4.58
447.079	4.51
447.437	4.62
447.795	4.71
448.153	4.49
448.51	4.54
448.868	4.54
449.226	4.62
449.584	4.57
449.941	4.55
450.299	4.61
450.656	4.63
451.014	4.72
451.371	4.6
451.729	4.72
452.086	4.63
452.443	4.76
452.801	4.8
453.158	4.71
453.515	4.67
453.872	4.63
454.229	4.75
454.586	4.68
454.943	4.63
455.3	4.57
455.657	4.61
456.014	4.72
456.371	4.64
456.727	4.86
457.084	4.78
457.441	4.51
457.797	4.68
458.154	4.8
458.51	4.54
458.867	4.75
459.223	4.72
459.58	4.78
459.936	4.67
460.292	4.75
460.648	4.78
461.005	4.69
461.361	4.77
461.717	4.47
462.073	4.52
462.429	4.43
462.785	4.62
463.141	4.65
463.496	4.59
463.852	4.79
464.208	4.73
464.564	4.78
464.919	4.82
465.275	4.86
465.631	4.86
465.986	4.71
466.342	4.88
466.697	4.7
467.052	4.76
467.408	4.72
467.763	4.82
468.118	4.8
468.473	4.83
468.829	4.73
469.184	4.78
469.539	4.83
469.894	4.81
470.249	4.82
470.603	4.64
470.958	4.73
471.313	4.87
471.668	4.91
472.023	4.8
472.377	4.87
472.732	4.68
473.086	4.93
473.441	4.65
473.795	4.91
474.15	4.63
474.504	4.81
474.859	4.89
475.213	4.63
475.567	4.74
475.921	4.81
476.275	4.85
476.63	4.74
476.984	4.75
477.338	4.86
477.692	4.71
478.045	4.89
478.399	4.96
478.753	4.9
479.107	4.77
479.461	4.74
479.814	4.86
480.168	4.79
480.521	4.85
480.875	4.83
481.228	4.81
481.582	4.62
481.935	4.75
482.289	4.7
482.642	4.77
482.995	4.67
483.348	4.66
483.701	4.79
484.055	4.63
484.408	4.55
484.761	4.65
485.114	4.57
485.466	4.4
485.819	4.35
486.172	4.33
486.525	4.34
486.878	4.4
487.23	4.53
487.583	4.58
487.936	4.66
488.288	4.59
488.641	4.6
488.993	4.49
489.345	4.48
489.698	4.47
490.05	4.45
490.402	4.5
490.754	4.46
491.107	4.54
491.459	4.64
491.811	4.61
492.163	4.63
492.515	4.62
492.866	4.63
493.218	4.62
493.57	4.55
493.922	4.43
494.274	4.48
494.625	4.53
494.977	4.69
495.328	4.8
495.68	4.75
496.031	4.81
496.383	4.72
496.734	4.7
497.086	4.65
497.437	4.75
497.788	4.65
498.139	4.82
498.49	4.78
498.842	4.64
499.193	4.61
499.544	4.77
499.894	4.86
500.245	4.78
500.596	4.74
500.947	4.81
501.298	4.82
501.648	4.76
501.999	4.85
502.35	4.78
502.7	4.87
503.051	4.75
503.401	4.77
503.752	4.88
504.102	4.77
504.452	4.85
504.803	4.8
505.153	4.86
505.503	4.74
505.853	4.83
506.203	4.74
506.553	4.82
506.903	4.79
507.253	4.82
507.603	4.94
507.953	4.78
508.303	4.86
508.652	4.81
509.002	4.85
509.352	4.67
509.701	4.81
510.051	4.78
510.4	4.75
510.75	4.7
511.099	4.72
511.449	4.83
511.798	4.73
512.147	4.85
512.496	4.7
512.846	4.74
513.195	4.72
513.544	4.79
513.893	4.86
514.242	4.65
514.591	4.73
514.939	4.81
515.288	4.63
515.637	4.8
515.986	4.68
516.334	4.8
516.683	4.75
517.032	4.89
517.38	4.85
517.729	4.81
518.077	4.8
518.426	4.72
518.774	4.87
519.122	4.69
519.47	4.72
519.819	4.79
520.167	4.69
520.515	4.72
520.863	4.62
521.211	4.65
521.559	4.7
521.907	4.73
522.255	4.67
522.602	4.71
522.95	4.67
523.298	4.8
523.645	4.77
523.993	4.76
524.341	4.84
524.688	4.82
525.036	4.75
525.383	4.71
525.73	4.79
526.078	4.67
526.425	4.69
526.772	4.95
527.119	4.64
527.466	4.6
527.814	4.57
528.161	4.56
528.508	4.64
528.854	4.76
529.201	4.69
529.548	4.63
529.895	4.57
530.242	4.52
530.588	4.44
530.935	4.38
531.282	4.44
531.628	4.57
531.975	4.56
532.321	4.57
532.667	4.64
533.014	4.62
533.36	4.79
533.706	4.74
534.052	4.71
534.399	4.69
534.745	4.61
535.091	4.59
535.437	4.59
535.783	4.51
536.129	4.52
536.474	4.62
536.82	4.66
537.166	4.78
537.512	4.68
537.857	4.71
538.203	4.78
538.549	4.56
538.894	4.59
539.239	4.6
539.585	4.6
539.93	4.73
540.276	4.71
540.621	4.79
540.966	4.71
541.311	4.79
541.656	4.67
542.001	4.74
542.346	4.77
542.691	4.78
543.036	4.57
543.381	4.49
543.726	4.52
544.071	4.48
544.415	4.55
544.76	4.54
545.105	4.52
545.449	4.53
545.794	4.68
546.138	4.66
546.483	4.67
546.827	4.64
547.171	4.72
547.516	4.65
547.86	4.8
548.204	4.74
548.548	4.79
548.892	4.65
549.236	4.61
549.58	4.67
549.924	4.74
550.268	4.73
550.612	4.77
550.956	4.82
551.3	4.89
551.643	4.83
551.987	4.92
552.33	5.01
552.674	4.82
553.017	4.67
553.361	4.7
553.704	4.84
554.048	4.83
554.391	4.75
554.734	4.74
555.077	4.72
555.42	4.66
555.764	4.73
556.107	4.78
556.45	4.79
556.793	4.59
557.135	4.89
557.478	4.8
557.821	4.97
558.164	5.03
558.507	4.84
558.849	4.67
559.192	4.83
559.534	4.88
559.877	4.77
560.219	4.72
560.562	4.9
560.904	4.82
561.246	5.17
561.589	4.96
561.931	4.72
562.273	4.78
562.615	4.77
562.957	4.65
563.299	4.81
563.641	4.93
563.983	4.97
564.325	4.91
564.667	4.88
565.008	4.75
565.35	4.91
565.692	4.84
566.033	4.82
566.375	4.82
566.716	4.77
567.058	4.75
567.399	4.78
567.741	4.84
568.082	4.82
568.423	4.8
568.764	4.96
569.105	4.52
569.447	4.84
569.788	4.56
570.129	4.99
570.47	5.01
570.811	4.8
571.151	4.88
571.492	4.86
571.833	4.76
572.174	4.68
572.514	4.76
572.855	4.7
573.195	4.49
573.536	4.67
573.876	4.68
574.217	4.62
574.557	4.74
574.898	4.88
575.238	4.71
575.578	4.86
575.918	4.75
576.258	4.63
576.598	4.78
576.938	4.78
577.278	4.76
577.618	4.7
577.958	4.83
578.298	4.83
578.638	4.8
578.977	4.82
579.317	4.81
579.657	4.73
579.996	4.67
580.336	4.83
580.675	4.78
581.014	4.74
581.354	4.71
581.693	4.73
582.032	4.8
582.372	4.92
582.711	5.03
583.05	4.75
583.389	4.79
583.728	4.86
584.067	4.71
584.406	4.79
584.745	4.51
585.083	5.02
585.422	4.91
585.761	4.66
586.1	4.88
586.438	4.66
586.777	4.79
587.115	4.92
587.454	4.72
587.792	4.88
588.13	5.04
588.469	4.77
588.807	4.97
589.145	4.86
589.483	4.73
589.821	4.73
590.159	4.77
590.497	5.07
590.835	4.9
591.173	4.69
591.511	4.72
591.849	5.04
592.187	4.76
592.524	4.87
592.862	4.8
593.2	4.72
593.537	4.45
593.875	4.75
594.212	4.74
594.55	5.04
594.887	4.76
595.224	4.8
595.561	4.95
595.899	4.91
596.236	5.12
596.573	4.83
596.91	4.82
597.247	4.74
597.584	4.94
597.921	4.96
598.258	4.72
598.594	4.89
598.931	4.65
599.268	4.81
599.604	4.74
599.941	4.74
600.277	4.61
600.614	4.75
600.95	4.76
601.287	4.73
601.623	4.68
601.959	4.98
602.296	4.77
602.632	4.56
602.968	4.77
603.304	4.89
603.64	4.79
603.976	4.67
604.312	4.88
604.648	4.72
604.984	4.8
605.319	4.61
605.655	4.66
605.991	4.67
606.326	4.79
606.662	4.65
606.998	4.68
607.333	4.77
607.668	4.73
608.004	4.77
608.339	4.59
608.674	4.75
609.01	4.72
609.345	4.76
609.68	4.78
610.015	4.66
610.35	4.62
610.685	4.69
611.02	4.8
611.355	4.87
611.689	4.68
612.024	4.64
612.359	4.62
612.694	4.73
613.028	4.63
613.363	4.69
613.697	4.8
614.032	4.68
614.366	4.63
614.7	4.66
615.035	4.83
615.369	4.9
615.703	4.51
616.037	4.92
616.371	4.96
616.705	5.18
617.039	4.9
617.373	4.69
617.707	4.47
618.041	4.89
618.375	4.56
618.709	4.73
619.042	4.92
619.376	5.03
619.71	4.83
620.043	4.37
620.377	4.66
620.71	4.67
621.043	5.02
621.377	4.51
621.71	4.75
622.043	4.74
622.376	4.83
622.709	4.8
623.043	4.97
623.376	5.07
623.709	4.92
624.041	4.82
624.374	4.66
624.707	4.93
625.04	4.98
625.373	4.33
625.705	4.74
626.038	4.65
626.37	5.09
626.703	4.79
627.035	4.51
627.368	4.76
627.7	4.8
628.032	4.97
628.365	4.84
628.697	4.6
629.029	4.75
629.361	4.62
629.693	4.61
630.025	4.85
630.357	4.4
630.689	4.81
631.021	4.68
631.353	4.79
631.684	4.74
632.016	4.91
632.348	4.81
632.679	4.23
633.011	4.52
633.342	4.66
633.674	4.8
634.005	4.63
634.336	4.71
634.668	4.82
634.999	4.78
635.33	4.99
635.661	4.68
635.992	4.53
636.323	4.56
636.654	4.68
636.985	4.49
637.316	4.72
637.647	4.67
637.977	4.54
638.308	4.75
638.639	4.53
638.969	4.52
639.3	4.63
639.63	4.98
639.961	4.48
640.291	4.5
640.622	4.94
640.952	4.8
641.282	5.03
641.612	4.57
641.943	4.84
642.273	4.59
642.603	4.68
642.933	4.4
643.263	4.18
643.592	4.61
643.922	4.93
644.252	4.07
644.582	4.74
644.911	4.78
645.241	4.86
645.571	4.66
645.9	5.09
646.23	5.12
646.559	4.55
646.888	4.8
647.218	4.47
647.547	4.43
647.876	4.85
648.205	4.64
648.534	4.61
648.863	4.17
649.192	4.3
649.521	4.78
649.85	4.69
650.179	4.48
650.508	4.58
650.837	4.84
651.165	4.45
651.494	4.15
651.822	4.35
652.151	4.52
652.479	4.39
652.808	4.52
653.136	5.08
653.465	4.52
653.793	4.48
654.121	4.79
654.449	3.85
654.777	4.21
655.105	4.56
655.433	4.37
655.761	4.8
656.089	4.03
656.417	4.63
656.745	4.86
657.073	4.58
657.4	5.3
657.728	4.82
658.056	5.05
658.383	4.84
658.711	4.76
659.038	4.16
659.365	4.59
659.693	4.11
660.02	5.03
660.347	4.79
660.674	4.24
661.001	4.31
661.329	4.65
661.656	4.68
661.982	4.34
662.309	4.67
662.636	4.57
662.963	4.72
663.29	4.57
663.616	4.57
663.943	4.77
664.27	5.03
664.596	4.39
664.923	4.64
665.249	4.81
665.576	3.91
665.902	4.33
666.228	4.12
666.554	4.78
666.881	5.14
667.207	4.56
667.533	3.92
667.859	4.53
668.185	4.92
668.511	4.99
668.837	4.33
669.162	5.1
669.488	4.29
669.814	4.72
670.139	4.39
670.465	5.06
670.791	4.47
671.116	4.48
671.442	5.29
671.767	4.11
672.092	4.75
672.418	5.13
672.743	4.77
673.068	5.04
673.393	4.01
673.718	4.58
674.043	4.98
674.368	4.28
674.693	4.25
675.018	4.31
675.343	4.76
675.667	4.39
675.992	4.19
676.317	5.02
676.641	3.8
676.966	4.78
677.29	4.61
677.615	4.42
677.939	4.85
678.264	4.83
678.588	4.92
678.912	4.76
679.236	4.23
679.56	4.45
679.885	4.54
680.209	5.18
680.532	4.09
680.856	3.99
681.18	4.43
681.504	4.26
681.828	5.18
682.152	4.35
682.475	4.96
682.799	4.93
683.122	4.23
683.446	4.54
683.769	4.3
684.093	4.51
684.416	4.68
684.739	4.6
685.062	5.63
685.386	4.52
685.709	5.17
686.032	4.82
686.355	4.85
686.678	4.72
687.001	5.12
687.324	4.83
687.646	4.34
687.969	5.05
688.292	4.95
688.614	5.72
688.937	4.12
689.26	4.2
689.582	4.87
689.904	3.91
690.227	4.96
690.549	4.77
690.871	4.53
691.194	5.03
691.516	4.14
691.838	4.71
692.16	4.4
692.482	4.39
