Data from 23-1_crown_Reflection__2__341.txt Node

Date: Fri Sep 22 23:25:11 CDT 2023
User: ToomeyLab
Spectrometer: FLMS14357
Trigger mode: 0
Integration Time (sec): 1.000000E-2
Scans to average: 100
Electric dark correction enabled: true
Nonlinearity correction enabled: false
Boxcar width: 0
XAxis mode: Wavelengths
Number of Pixels in Spectrum: 2048
>>>>>Begin Spectral Data<<<<<
189.047	-38.93
189.435	-38.93
189.823	-38.93
190.211	95.4
190.599	-2412.9
190.987	12.25
191.375	67.96
191.763	480.18
192.151	-240.85
192.538	-861.91
192.926	96.91
193.314	24.63
193.702	-2.92
194.089	62.57
194.477	-66.32
194.864	41.41
195.252	-21.64
195.639	-75.91
196.027	208.87
196.414	-94.35
196.801	-181.94
197.189	-84.11
197.576	105.91
197.963	45.13
198.351	-7.72
198.738	12.64
199.125	14.25
199.512	5.99
199.899	50.4
200.286	9.02
200.673	31.18
201.06	14.09
201.447	66.1
201.833	-5.94
202.22	10.15
202.607	40.53
202.994	20.31
203.38	41.85
203.767	27.02
204.154	41.17
204.54	24.27
204.927	-33.84
205.313	-2.18
205.699	31.97
206.086	30.92
206.472	48.85
206.858	-5.48
207.245	19.08
207.631	33.12
208.017	47.02
208.403	34.85
208.789	24.64
209.175	23.8
209.561	26.14
209.947	21.06
210.333	27.07
210.719	12.9
211.105	36.58
211.491	9.02
211.876	33.66
212.262	21.52
212.648	37.18
213.034	42.96
213.419	23.87
213.805	-8.61
214.19	13.5
214.576	25.28
214.961	21.9
215.346	18.28
215.732	-13.75
216.117	0.74
216.502	27.68
216.888	27.79
217.273	21.71
217.658	14.01
218.043	18.63
218.428	28.78
218.813	-18.36
219.198	0.08
219.583	10.56
219.968	-13.15
220.353	49.87
220.738	-14.16
221.122	10.84
221.507	10.45
221.892	-9.23
222.276	1.86
222.661	-11.35
223.046	13.43
223.43	24.1
223.815	6.6
224.199	14.93
224.583	9.31
224.968	12.5
225.352	-1.2
225.736	9.95
226.121	-3.29
226.505	1.28
226.889	8.28
227.273	1.99
227.657	6.76
228.041	4.07
228.425	6.07
228.809	0.6
229.193	2.4
229.577	7.79
229.961	1.16
230.344	4.05
230.728	0.11
231.112	2.78
231.495	1.79
231.879	2.12
232.263	0.93
232.646	2.14
233.03	1.33
233.413	2.68
233.797	2.82
234.18	2.8
234.563	5.56
234.946	2.64
235.33	-1.01
235.713	1.8
236.096	1.66
236.479	1.66
236.862	3.84
237.245	2.38
237.628	3.26
238.011	3.53
238.394	3.12
238.777	4.08
239.16	1.79
239.543	2.78
239.925	3.56
240.308	4.11
240.691	3.87
241.073	3.11
241.456	2.95
241.838	3.55
242.221	2.6
242.603	3.33
242.986	2.15
243.368	2.45
243.75	3.7
244.133	3.64
244.515	3.3
244.897	2.79
245.279	3.35
245.661	2.62
246.043	3.51
246.425	2.85
246.807	3.73
247.189	3.02
247.571	3.67
247.953	3.96
248.335	3.95
248.717	4.25
249.098	3.78
249.48	3.34
249.862	3.63
250.243	3.89
250.625	4.07
251.006	3.66
251.388	4.18
251.769	4.84
252.151	4.04
252.532	3.73
252.913	5.07
253.295	4.84
253.676	3.96
254.057	4.72
254.438	4.74
254.819	3.93
255.2	4.54
255.581	4.13
255.962	4.77
256.343	4.3
256.724	2.98
257.105	4.22
257.486	4.17
257.867	3.17
258.247	4.12
258.628	3.9
259.009	3.52
259.389	4.61
259.77	4.3
260.15	4.37
260.531	4.08
260.911	4.04
261.292	3.71
261.672	4.04
262.052	3.87
262.432	3.74
262.813	4.18
263.193	3.86
263.573	4.29
263.953	3.51
264.333	3.65
264.713	4.13
265.093	4.05
265.473	4.44
265.853	3.52
266.233	4.22
266.612	3.89
266.992	4.1
267.372	4.02
267.752	4.14
268.131	3.78
268.511	3.02
268.89	4.13
269.27	3.46
269.649	3.91
270.029	3.86
270.408	3.78
270.787	3.14
271.167	3.77
271.546	3.11
271.925	3.4
272.304	3.01
272.683	3.81
273.062	3.96
273.441	3.54
273.82	3.52
274.199	3.92
274.578	3.59
274.957	3.45
275.336	3.58
275.715	3.38
276.093	3.13
276.472	3.53
276.851	3.68
277.229	2.99
277.608	4.36
277.986	3.46
278.365	3.5
278.743	3.63
279.122	3.41
279.5	3.82
279.878	2.97
280.257	3.84
280.635	2.92
281.013	4.36
281.391	3.02
281.769	3.6
282.147	3.53
282.525	3.11
282.903	3.57
283.281	3.49
283.659	3.6
284.037	3.49
284.415	3.55
284.792	3.6
285.17	3.81
285.548	3.97
285.925	3.99
286.303	3.8
286.68	3.3
287.058	3.43
287.435	3.22
287.813	3.46
288.19	3.34
288.567	3.82
288.945	3.59
289.322	3.59
289.699	3.91
290.076	3.86
290.453	4.03
290.83	3.67
291.207	3.71
291.584	3.53
291.961	4.21
292.338	4.5
292.715	4.58
293.092	4.11
293.469	4.22
293.845	4.34
294.222	4.6
294.599	4.99
294.975	4.82
295.352	5.11
295.728	5.2
296.105	5.34
296.481	5.12
296.858	5.59
297.234	5.71
297.61	4.98
297.986	5.45
298.363	4.93
298.739	5.05
299.115	5.27
299.491	5.19
299.867	5.37
300.243	4.88
300.619	5.09
300.995	5.31
301.371	5.86
301.746	5.69
302.122	5.55
302.498	5.62
302.874	5.75
303.249	5.88
303.625	5.74
304	5.51
304.376	6.04
304.751	6.21
305.127	6.25
305.502	6.36
305.878	5.89
306.253	6.08
306.628	5.93
307.003	6.14
307.378	5.77
307.754	6.36
308.129	6.47
308.504	6.03
308.879	6.26
309.254	6.8
309.629	6.14
310.003	6.5
310.378	6.79
310.753	6.29
311.128	6.26
311.502	5.97
311.877	5.55
312.252	6.42
312.626	6.06
313.001	6.4
313.375	6.6
313.75	6.48
314.124	6.33
314.498	6.14
314.873	6.25
315.247	6.17
315.621	6.28
315.995	6.75
316.369	6.59
316.743	6.67
317.117	6.57
317.491	6.9
317.865	6.24
318.239	6.91
318.613	6.43
318.987	6.91
319.361	6.23
319.734	6.41
320.108	6.99
320.482	6.23
320.855	6.8
321.229	7.27
321.602	6.6
321.976	6.46
322.349	6.38
322.723	6.63
323.096	6.8
323.469	6.79
323.843	6.35
324.216	6.92
324.589	6.45
324.962	6.48
325.335	6.92
325.708	6.24
326.081	6.53
326.454	5.89
326.827	6.84
327.2	6.69
327.573	7.16
327.945	6.87
328.318	6.58
328.691	6.74
329.063	6.25
329.436	6.53
329.809	6.97
330.181	6.59
330.553	6.53
330.926	6.97
331.298	6.96
331.671	6.9
332.043	6.2
332.415	6.99
332.787	7.16
333.159	6.57
333.532	6.66
333.904	6.24
334.276	6.3
334.648	6.22
335.02	6.2
335.391	6.58
335.763	6.5
336.135	6.86
336.507	6.73
336.879	6.17
337.25	6.47
337.622	6.49
337.993	6.89
338.365	6.95
338.736	6.39
339.108	6.36
339.479	6.66
339.851	6.44
340.222	6.38
340.593	6.44
340.964	6.48
341.336	6.34
341.707	6.37
342.078	6.67
342.449	6.73
342.82	6.07
343.191	6.24
343.562	6.25
343.933	6.61
344.303	6.41
344.674	6.53
345.045	6.48
345.416	6.85
345.786	6.35
346.157	6.45
346.527	6.51
346.898	6.33
347.268	6.69
347.639	6.53
348.009	6.57
348.38	6.88
348.75	6.81
349.12	6.32
349.49	6.98
349.861	6.63
350.231	6.5
350.601	6.8
350.971	6.79
351.341	6.51
351.711	6.72
352.081	6.44
352.45	6.71
352.82	6.85
353.19	6.61
353.56	6.59
353.929	6.73
354.299	6.17
354.669	6.43
355.038	6.49
355.408	6.15
355.777	6.79
356.147	6.82
356.516	6.85
356.885	6.38
357.254	6.55
357.624	6.32
357.993	6.53
358.362	6.41
358.731	6.55
359.1	6.57
359.469	6.76
359.838	6.39
360.207	6.67
360.576	6.34
360.945	6.32
361.314	6.43
361.682	6.77
362.051	6.6
362.42	6.47
362.788	6.38
363.157	6.5
363.525	6.27
363.894	6.16
364.262	6.24
364.631	6.25
364.999	6.25
365.367	6.54
365.735	6.6
366.104	6.29
366.472	6.87
366.84	6.15
367.208	6.67
367.576	6.5
367.944	6.49
368.312	6.57
368.68	6.42
369.048	6.6
369.416	6.49
369.783	5.98
370.151	6.13
370.519	6.64
370.886	6.2
371.254	6.7
371.621	6.27
371.989	6.44
372.356	6.32
372.724	6.59
373.091	6.73
373.458	6.35
373.826	6.41
374.193	6.81
374.56	6.44
374.927	6.55
375.294	6.56
375.661	6.58
376.028	6.75
376.395	6.72
376.762	6.24
377.129	6.63
377.496	6.96
377.863	6.43
378.229	6.64
378.596	6.48
378.963	6.57
379.329	6.36
379.696	6.72
380.062	6.27
380.429	6.43
380.795	6.56
381.161	6.31
381.528	6.46
381.894	6.58
382.26	6.26
382.626	6.4
382.993	6.79
383.359	6.08
383.725	6.54
384.091	6.42
384.457	6.49
384.823	6.65
385.188	6.7
385.554	6.46
385.92	6.62
386.286	6.59
386.651	6.64
387.017	6.47
387.383	6.29
387.748	6.49
388.114	6.45
388.479	6.69
388.845	6.41
389.21	6.49
389.575	6.64
389.94	6.28
390.306	6.53
390.671	6.92
391.036	6.37
391.401	6.51
391.766	6.44
392.131	6
392.496	6.74
392.861	6.37
393.226	6.58
393.591	6.43
393.956	6.48
394.32	6.38
394.685	6.38
395.05	6.65
395.414	6.55
395.779	6.56
396.143	6.46
396.508	6.26
396.872	6.43
397.236	6.56
397.601	6.39
397.965	6.78
398.329	6.46
398.694	6.53
399.058	6.59
399.422	6.5
399.786	6.62
400.15	6.73
400.514	6.62
400.878	6.43
401.242	6.46
401.605	6.52
401.969	6.21
402.333	6.63
402.697	6.5
403.06	6.42
403.424	6.41
403.787	6.85
404.151	6.61
404.514	6.94
404.878	6.77
405.241	6.83
405.604	6.55
405.968	6.58
406.331	6.48
406.694	6.34
407.057	6.39
407.42	6.56
407.783	6.45
408.146	6.62
408.509	6.45
408.872	6.58
409.235	6.57
409.598	6.56
409.961	6.68
410.323	6.87
410.686	6.52
411.049	6.86
411.411	6.82
411.774	6.6
412.136	6.67
412.499	6.61
412.861	6.52
413.223	6.39
413.586	6.47
413.948	6.45
414.31	6.36
414.672	6.44
415.035	6.55
415.397	6.73
415.759	7
416.121	6.57
416.483	6.49
416.845	6.71
417.206	6.56
417.568	6.48
417.93	6.64
418.292	6.56
418.653	6.35
419.015	6.64
419.377	6.46
419.738	6.57
420.1	6.43
420.461	6.48
420.822	6.46
421.184	6.5
421.545	6.36
421.906	6.4
422.267	6.29
422.629	6.42
422.99	6.41
423.351	6.28
423.712	6.42
424.073	6.33
424.434	6.45
424.795	6.43
425.155	6.52
425.516	6.47
425.877	6.5
426.238	6.48
426.598	6.41
426.959	6.43
427.32	6.51
427.68	6.47
428.041	6.5
428.401	6.57
428.761	6.62
429.122	6.61
429.482	6.52
429.842	6.64
430.202	6.64
430.563	6.7
430.923	6.8
431.283	6.81
431.643	6.69
432.003	6.92
432.363	6.78
432.722	6.83
433.082	6.73
433.442	6.73
433.802	6.78
434.161	6.74
434.521	6.74
434.881	6.94
435.24	6.73
435.6	6.53
435.959	6.65
436.319	6.69
436.678	6.85
437.037	6.83
437.396	6.74
437.756	6.93
438.115	6.6
438.474	6.65
438.833	6.79
439.192	6.92
439.551	6.83
439.91	6.95
440.269	6.92
440.628	6.68
440.987	6.77
441.345	6.91
441.704	6.87
442.063	6.79
442.421	6.83
442.78	6.61
443.138	6.71
443.497	6.76
443.855	6.87
444.214	6.72
444.572	6.93
444.93	6.96
445.288	6.74
445.647	6.92
446.005	6.76
446.363	6.66
446.721	6.98
447.079	6.76
447.437	6.75
447.795	6.87
448.153	6.67
448.51	6.75
448.868	6.7
449.226	6.76
449.584	6.66
449.941	6.72
450.299	6.81
450.656	6.81
451.014	6.91
451.371	6.85
451.729	6.95
452.086	6.85
452.443	6.95
452.801	7.07
453.158	6.99
453.515	7.07
453.872	6.98
454.229	6.93
454.586	6.91
454.943	6.91
455.3	6.84
455.657	6.97
456.014	6.83
456.371	7.12
456.727	7.14
457.084	7.1
457.441	6.88
457.797	7.21
458.154	6.97
458.51	6.98
458.867	7.09
459.223	6.98
459.58	7.09
459.936	7.07
460.292	7.02
460.648	7.17
461.005	6.99
461.361	6.95
461.717	6.78
462.073	6.84
462.429	6.79
462.785	6.87
463.141	7.03
463.496	7.05
463.852	7.06
464.208	6.94
464.564	7.29
464.919	7.13
465.275	7.29
465.631	7.18
465.986	7.31
466.342	7.28
466.697	7.31
467.052	7.2
467.408	7.25
467.763	7.16
468.118	7.16
468.473	7.12
468.829	7.26
469.184	7.06
469.539	7.14
469.894	7.21
470.249	7.34
470.603	7.2
470.958	7.15
471.313	7.26
471.668	7.21
472.023	7.26
472.377	7.16
472.732	7.06
473.086	7.41
473.441	7.08
473.795	7.43
474.15	7.22
474.504	7.21
474.859	7.23
475.213	7.03
475.567	7.24
475.921	7.15
476.275	7.24
476.63	7.16
476.984	7.12
477.338	7.33
477.692	7.45
478.045	7.24
478.399	7.15
478.753	7.21
479.107	7.29
479.461	7.19
479.814	7.31
480.168	7.26
480.521	7.2
480.875	7.34
481.228	7.2
481.582	7.23
481.935	7.25
482.289	7.34
482.642	7.2
482.995	7.22
483.348	7.32
483.701	7.13
484.055	7.23
484.408	7.17
484.761	7.14
485.114	7.04
485.466	7.02
485.819	6.86
486.172	6.74
486.525	6.8
486.878	6.82
487.23	6.87
487.583	6.98
487.936	7.03
488.288	7.03
488.641	7.17
488.993	7.09
489.345	6.97
489.698	6.89
490.05	6.95
490.402	6.96
490.754	6.89
491.107	7.07
491.459	7.15
491.811	7.21
492.163	7.23
492.515	7.23
492.866	7.17
493.218	7.18
493.57	7.13
493.922	6.98
494.274	7.03
494.625	7.07
494.977	7.18
495.328	7.31
495.68	7.36
496.031	7.23
496.383	7.43
496.734	7.45
497.086	7.36
497.437	7.39
497.788	7.36
498.139	7.44
498.49	7.43
498.842	7.29
499.193	7.34
499.544	7.38
499.894	7.41
500.245	7.49
500.596	7.43
500.947	7.43
501.298	7.45
501.648	7.49
501.999	7.55
502.35	7.37
502.7	7.54
503.051	7.58
503.401	7.6
503.752	7.63
504.102	7.54
504.452	7.42
504.803	7.53
505.153	7.46
505.503	7.52
505.853	7.52
506.203	7.52
506.553	7.55
506.903	7.6
507.253	7.49
507.603	7.53
507.953	7.58
508.303	7.69
508.652	7.47
509.002	7.63
509.352	7.47
509.701	7.7
510.051	7.58
510.4	7.65
510.75	7.56
511.099	7.44
511.449	7.51
511.798	7.59
512.147	7.52
512.496	7.5
512.846	7.52
513.195	7.52
513.544	7.6
513.893	7.72
514.242	7.56
514.591	7.61
514.939	7.6
515.288	7.5
515.637	7.58
515.986	7.58
516.334	7.68
516.683	7.58
517.032	7.69
517.38	7.7
517.729	7.54
518.077	7.68
518.426	7.72
518.774	7.74
519.122	7.72
519.47	7.61
519.819	7.76
520.167	7.75
520.515	7.64
520.863	7.48
521.211	7.49
521.559	7.64
521.907	7.54
522.255	7.6
522.602	7.65
522.95	7.64
523.298	7.79
523.645	7.86
523.993	7.62
524.341	7.64
524.688	7.74
525.036	7.69
525.383	7.7
525.73	7.78
526.078	7.71
526.425	7.68
526.772	7.76
527.119	7.71
527.466	7.62
527.814	7.6
528.161	7.54
528.508	7.63
528.854	7.68
529.201	7.64
529.548	7.61
529.895	7.66
530.242	7.5
530.588	7.36
530.935	7.36
531.282	7.37
531.628	7.39
531.975	7.41
532.321	7.49
532.667	7.59
533.014	7.65
533.36	7.7
533.706	7.7
534.052	7.74
534.399	7.78
534.745	7.71
535.091	7.62
535.437	7.54
535.783	7.5
536.129	7.57
536.474	7.64
536.82	7.6
537.166	7.73
537.512	7.81
537.857	7.84
538.203	7.88
538.549	7.71
538.894	7.7
539.239	7.76
539.585	7.68
539.93	7.79
540.276	7.88
540.621	7.87
540.966	7.93
541.311	7.91
541.656	7.89
542.001	7.86
542.346	7.84
542.691	7.87
543.036	7.81
543.381	7.72
543.726	7.63
544.071	7.62
544.415	7.65
544.76	7.72
545.105	7.65
545.449	7.71
545.794	7.82
546.138	7.8
546.483	7.94
546.827	7.84
547.171	7.96
547.516	8.01
547.86	7.97
548.204	7.94
548.548	8.04
548.892	7.99
549.236	7.95
549.58	8
549.924	8.06
550.268	8.1
550.612	8.12
550.956	8.01
551.3	8.32
551.643	8.2
551.987	8.12
552.33	8.41
552.674	8.12
553.017	8.15
553.361	8.24
553.704	8.11
554.048	8.24
554.391	8.18
554.734	8.2
555.077	8.09
555.42	8.15
555.764	8.1
556.107	8.22
556.45	8.27
556.793	8.23
557.135	8.3
557.478	8.09
557.821	8.21
558.164	8.39
558.507	8.28
558.849	8.25
559.192	8.37
559.534	8.36
559.877	8.19
560.219	8.34
560.562	8.53
560.904	8.37
561.246	8.51
561.589	8.6
561.931	8.38
562.273	8.15
562.615	8.52
562.957	8.32
563.299	8.44
563.641	8.31
563.983	8.19
564.325	8.42
564.667	8.36
565.008	8.38
565.35	8.56
565.692	8.33
566.033	8.34
566.375	8.47
566.716	8.57
567.058	8.31
567.399	8.58
567.741	8.65
568.082	8.4
568.423	8.26
568.764	8.46
569.105	8.23
569.447	8.31
569.788	8.36
570.129	8.33
570.47	8.59
570.811	8.6
571.151	8.59
571.492	8.43
571.833	8.31
572.174	8.34
572.514	8.45
572.855	8.53
573.195	8.37
573.536	8.54
573.876	8.3
574.217	8.33
574.557	8.35
574.898	8.54
575.238	8.37
575.578	8.65
575.918	8.61
576.258	8.4
576.598	8.42
576.938	8.48
577.278	8.5
577.618	8.5
577.958	8.54
578.298	8.73
578.638	8.53
578.977	8.58
579.317	8.55
579.657	8.57
579.996	8.9
580.336	8.57
580.675	8.61
581.014	8.82
581.354	8.55
581.693	9
582.032	8.56
582.372	8.74
582.711	8.79
583.05	8.69
583.389	8.7
583.728	8.89
584.067	8.86
584.406	8.83
584.745	8.57
585.083	8.95
585.422	9.06
585.761	8.73
586.1	8.9
586.438	8.66
586.777	8.83
587.115	8.93
587.454	8.66
587.792	9.13
588.13	8.75
588.469	8.93
588.807	8.93
589.145	8.89
589.483	9.1
589.821	9.01
590.159	8.78
590.497	8.97
590.835	9.1
591.173	8.62
591.511	8.91
591.849	8.77
592.187	8.82
592.524	9.01
592.862	8.88
593.2	8.8
593.537	8.9
593.875	9.03
594.212	9.04
594.55	9.26
594.887	8.86
595.224	8.96
595.561	9.06
595.899	9.21
596.236	9.21
596.573	9.13
596.91	9.17
597.247	8.9
597.584	9.32
597.921	9.25
598.258	9.01
598.594	9.01
598.931	8.69
599.268	8.97
599.604	8.95
599.941	8.9
600.277	8.75
600.614	8.95
600.95	8.89
601.287	8.77
601.623	9.05
601.959	9.11
602.296	9.23
602.632	8.97
602.968	9.19
603.304	9.15
603.64	8.95
603.976	9.14
604.312	9.22
604.648	9.21
604.984	9.21
605.319	8.94
605.655	9.1
605.991	9.05
606.326	9.13
606.662	9
606.998	9.02
607.333	9.18
607.668	9.13
608.004	9.26
608.339	9.1
608.674	9.34
609.01	9.23
609.345	9.5
609.68	9.53
610.015	9.21
610.35	9.41
610.685	9.46
611.02	9.23
611.355	9.44
611.689	9.18
612.024	9.13
612.359	9.12
612.694	9.28
613.028	9.36
613.363	9.15
613.697	9.22
614.032	9.28
614.366	9.2
614.7	9.61
615.035	9.4
615.369	9.33
615.703	9.28
616.037	9.21
616.371	9.49
616.705	9.88
617.039	9.54
617.373	9.44
617.707	9.59
618.041	9.48
618.375	9.14
618.709	9.54
619.042	9.61
619.376	9.71
619.71	9.52
620.043	9.14
620.377	9.25
620.71	9.52
621.043	9.53
621.377	9.52
621.71	9.26
622.043	9.37
622.376	9.76
622.709	9.4
623.043	9.63
623.376	9.8
623.709	9.58
624.041	9.36
624.374	9.78
624.707	9.79
625.04	9.74
625.373	9.33
625.705	9.25
626.038	9.48
626.37	10.04
626.703	9.63
627.035	9.61
627.368	9.64
627.7	9.86
628.032	9.87
628.365	9.82
628.697	9.6
629.029	9.58
629.361	9.71
629.693	9.63
630.025	9.61
630.357	9.5
630.689	9.61
631.021	9.61
631.353	9.73
631.684	9.41
632.016	10.07
632.348	10
632.679	9.47
633.011	9.74
633.342	9.87
633.674	10.1
634.005	9.79
634.336	9.8
634.668	9.92
634.999	9.76
635.33	9.87
635.661	9.67
635.992	9.81
636.323	9.65
636.654	9.59
636.985	9.38
637.316	9.79
637.647	9.73
637.977	9.26
638.308	9.97
638.639	9.45
638.969	9.98
639.3	9.69
639.63	10.34
639.961	9.68
640.291	9.69
640.622	9.84
640.952	10.05
641.282	10.27
641.612	9.77
641.943	9.85
642.273	9.91
642.603	9.91
642.933	9.63
643.263	9.71
643.592	9.83
643.922	10.1
644.252	10.29
644.582	10.2
644.911	9.76
645.241	10.23
645.571	9.48
645.9	10.16
646.23	10.64
646.559	10.23
646.888	10.45
647.218	9.86
647.547	9.84
647.876	10.1
648.205	9.82
648.534	10.44
648.863	9.89
649.192	9.59
649.521	10.1
649.85	10.42
650.179	9.78
650.508	10.24
650.837	10.74
651.165	10.11
651.494	10.23
651.822	10.3
652.151	10.25
652.479	10.32
652.808	9.82
653.136	10.98
653.465	10.18
653.793	10.14
654.121	10.74
654.449	9.92
654.777	10.22
655.105	10.53
655.433	10.37
655.761	11.17
656.089	10.14
656.417	9.77
656.745	10.5
657.073	10.22
657.4	11.09
657.728	10.71
658.056	10.75
658.383	10.72
658.711	10.23
659.038	10.26
659.365	9.91
659.693	10.29
660.02	10.41
660.347	10.84
660.674	10.43
661.001	10.24
661.329	10
661.656	10.17
661.982	10.13
662.309	10.41
662.636	10.3
662.963	10.78
663.29	10.54
663.616	10.79
663.943	10.71
664.27	10.78
664.596	10.74
664.923	10.69
665.249	11.15
665.576	10.06
665.902	10.15
666.228	10.79
666.554	10.49
666.881	10.94
667.207	10.77
667.533	10.25
667.859	10.74
668.185	10.44
668.511	10.72
668.837	10.36
669.162	10.2
669.488	10.43
669.814	10.88
670.139	10.75
670.465	10.92
670.791	10.88
671.116	10.41
671.442	11.04
671.767	10.44
672.092	10.92
672.418	11.44
672.743	10.65
673.068	11.1
673.393	10.7
673.718	10.81
674.043	10.88
674.368	10.95
674.693	10.69
675.018	10.62
675.343	11.13
675.667	11.35
675.992	10.63
676.317	11.45
676.641	10.91
676.966	10.92
677.29	10.82
677.615	11.1
677.939	11.05
678.264	11.27
678.588	11.22
678.912	11.45
679.236	11.02
679.56	11.43
679.885	11.31
680.209	11.93
680.532	10.69
680.856	10.66
681.18	11.27
681.504	11.25
681.828	11.19
682.152	11
682.475	11.48
682.799	11.72
683.122	11.08
683.446	10.67
683.769	11.31
684.093	11.29
684.416	11.06
684.739	10.86
685.062	11.87
685.386	10.5
685.709	10.57
686.032	10.74
686.355	11.19
686.678	11.17
687.001	11.28
687.324	11.59
687.646	11.09
687.969	11.93
688.292	10.89
688.614	11.53
688.937	11.28
689.26	10.79
689.582	11.89
