Data from 23-1_chest_Reflection__3__337.txt Node

Date: Fri Sep 22 23:23:36 CDT 2023
User: ToomeyLab
Spectrometer: FLMS14357
Trigger mode: 0
Integration Time (sec): 1.000000E-2
Scans to average: 100
Electric dark correction enabled: true
Nonlinearity correction enabled: false
Boxcar width: 0
XAxis mode: Wavelengths
Number of Pixels in Spectrum: 2048
>>>>>Begin Spectral Data<<<<<
189.047	135.49
189.435	135.49
189.823	135.49
190.211	-188.38
190.599	5870.97
190.987	132.34
191.375	654.62
191.763	1565.26
192.151	-172.13
192.538	625.39
192.926	30.2
193.314	8.86
193.702	31.78
194.089	111.18
194.477	201.46
194.864	144.04
195.252	2.37
195.639	47.72
196.027	253.77
196.414	19.84
196.801	5.91
197.189	-425.71
197.576	-34.09
197.963	164.08
198.351	6.34
198.738	-3.13
199.125	-31.44
199.512	27.42
199.899	41.16
200.286	-3.28
200.673	22.07
201.06	18.52
201.447	41.28
201.833	-31.04
202.22	18.67
202.607	28.63
202.994	42.58
203.38	55.62
203.767	12.52
204.154	45.25
204.54	28.2
204.927	-11.4
205.313	9.89
205.699	42.73
206.086	47.95
206.472	40.13
206.858	19.46
207.245	-18.06
207.631	40.34
208.017	-4.81
208.403	33.36
208.789	19
209.175	34.23
209.561	16.99
209.947	42.86
210.333	18.3
210.719	-0.86
211.105	18.63
211.491	8.38
211.876	39.89
212.262	22.28
212.648	10.47
213.034	25.46
213.419	-5.18
213.805	1.24
214.19	22.89
214.576	18.71
214.961	22.29
215.346	-5.02
215.732	22.39
216.117	17.78
216.502	50.41
216.888	23.54
217.273	24.25
217.658	-5.8
218.043	9.18
218.428	19.28
218.813	-12.76
219.198	0.88
219.583	-10.32
219.968	1.8
220.353	51.18
220.738	17.15
221.122	3.38
221.507	-7.6
221.892	0.86
222.276	7.69
222.661	-39.48
223.046	16.36
223.43	17.04
223.815	6.24
224.199	4.61
224.583	2.78
224.968	21.35
225.352	-3.08
225.736	14.91
226.121	8.74
226.505	8.56
226.889	5.07
227.273	4.92
227.657	5.84
228.041	3.45
228.425	6.64
228.809	7.17
229.193	2.2
229.577	7.6
229.961	6.68
230.344	8.34
230.728	4.68
231.112	5.67
231.495	5.51
231.879	5.64
232.263	4.63
232.646	3.86
233.03	5.08
233.413	6.59
233.797	5.65
234.18	4.92
234.563	7.89
234.946	5.93
235.33	4.63
235.713	4.81
236.096	4.92
236.479	4.98
236.862	8.01
237.245	5.13
237.628	6.66
238.011	6.74
238.394	7.46
238.777	7.03
239.16	5.31
239.543	7.39
239.925	6.52
240.308	5.88
240.691	6.45
241.073	4.91
241.456	6.52
241.838	5.16
242.221	5.14
242.603	6.06
242.986	6.4
243.368	4.76
243.75	5.74
244.133	6.03
244.515	6
244.897	5.4
245.279	5.56
245.661	5.65
246.043	5.58
246.425	4.16
246.807	5.23
247.189	5.14
247.571	4.6
247.953	5.51
248.335	5.78
248.717	5.94
249.098	5.37
249.48	5.48
249.862	5.42
250.243	5.81
250.625	5.85
251.006	5.58
251.388	5.58
251.769	5.6
252.151	4.7
252.532	5.51
252.913	5.64
253.295	6.09
253.676	4.86
254.057	5.85
254.438	5.85
254.819	5.21
255.2	5.54
255.581	5.9
255.962	6.21
256.343	5.86
256.724	5.41
257.105	5.56
257.486	5.4
257.867	4.21
258.247	6.34
258.628	5.49
259.009	6.1
259.389	5.38
259.77	5.42
260.15	5.95
260.531	5.37
260.911	5.43
261.292	5.27
261.672	5.08
262.052	5.14
262.432	5.31
262.813	5.81
263.193	5.26
263.573	5.17
263.953	5.12
264.333	5.92
264.713	5.22
265.093	4.61
265.473	5
265.853	4.88
266.233	5.33
266.612	5.23
266.992	5.8
267.372	5.85
267.752	6.03
268.131	5.27
268.511	4.8
268.89	5.7
269.27	4.88
269.649	5.08
270.029	5.5
270.408	5
270.787	4.73
271.167	4.99
271.546	4.88
271.925	5.27
272.304	4.71
272.683	5.05
273.062	5.64
273.441	5.14
273.82	5.9
274.199	5.48
274.578	5.26
274.957	5.12
275.336	5.1
275.715	5.02
276.093	5.07
276.472	5.25
276.851	5.24
277.229	4.3
277.608	5.59
277.986	4.82
278.365	5.37
278.743	4.8
279.122	5.57
279.5	5.53
279.878	5.13
280.257	5.62
280.635	4.86
281.013	4.61
281.391	4.85
281.769	4.9
282.147	4.98
282.525	4.63
282.903	4.63
283.281	5.01
283.659	5.13
284.037	5.07
284.415	4.81
284.792	5.01
285.17	5.1
285.548	5.31
285.925	5.26
286.303	5.07
286.68	4.44
287.058	5.04
287.435	5.02
287.813	4.84
288.19	4.72
288.567	4.85
288.945	4.74
289.322	5.08
289.699	4.54
290.076	5.21
290.453	5.07
290.83	4.46
291.207	4.53
291.584	4.58
291.961	4.61
292.338	5.19
292.715	4.74
293.092	4.42
293.469	4.55
293.845	4.61
294.222	4.97
294.599	4.99
294.975	5.94
295.352	5.3
295.728	5.22
296.105	5.52
296.481	5.18
296.858	4.69
297.234	4.76
297.61	4.97
297.986	4.8
298.363	5.23
298.739	5.01
299.115	5.07
299.491	5.08
299.867	5.1
300.243	4.66
300.619	5.13
300.995	4.77
301.371	5.32
301.746	5.01
302.122	5.08
302.498	4.57
302.874	5.08
303.249	4.44
303.625	4.7
304	5.56
304.376	5.37
304.751	5.42
305.127	4.86
305.502	5.59
305.878	5
306.253	4.96
306.628	4.57
307.003	5.46
307.378	5.1
307.754	4.72
308.129	5.26
308.504	5.36
308.879	5.16
309.254	5.21
309.629	5.54
310.003	5.47
310.378	5.07
310.753	5.09
311.128	5.43
311.502	5.03
311.877	4.91
312.252	5.06
312.626	5.1
313.001	5.21
313.375	5.31
313.75	5.57
314.124	5.81
314.498	5.05
314.873	5.39
315.247	5.92
315.621	5.19
315.995	5.41
316.369	4.57
316.743	5.14
317.117	5.37
317.491	5.14
317.865	5.44
318.239	5
318.613	5.46
318.987	5.16
319.361	4.99
319.734	5.42
320.108	5.72
320.482	5.77
320.855	5.32
321.229	5.46
321.602	5.51
321.976	5.35
322.349	5.78
322.723	5.29
323.096	5.59
323.469	4.72
323.843	5.42
324.216	5.46
324.589	5.29
324.962	4.64
325.335	5.5
325.708	5.45
326.081	5.23
326.454	4.92
326.827	5.26
327.2	5.08
327.573	5.68
327.945	4.98
328.318	5.09
328.691	5.69
329.063	5.44
329.436	5.46
329.809	5.52
330.181	5.36
330.553	5.62
330.926	5.24
331.298	5.27
331.671	4.96
332.043	4.87
332.415	4.99
332.787	5.35
333.159	5.1
333.532	4.98
333.904	5.01
334.276	4.69
334.648	4.79
335.02	4.96
335.391	5.13
335.763	5.44
336.135	5.39
336.507	5.54
336.879	5.47
337.25	5.13
337.622	5.54
337.993	5.56
338.365	5.74
338.736	5.41
339.108	5.34
339.479	5.03
339.851	4.9
340.222	5.14
340.593	5.12
340.964	5.31
341.336	4.95
341.707	5.38
342.078	5.48
342.449	5.25
342.82	4.81
343.191	4.9
343.562	5.5
343.933	5.52
344.303	5.26
344.674	5.42
345.045	5.54
345.416	5.51
345.786	5.12
346.157	5.01
346.527	4.9
346.898	4.9
347.268	5.19
347.639	5.45
348.009	5.32
348.38	5.45
348.75	5.59
349.12	5.39
349.49	5.98
349.861	5.19
350.231	5.45
350.601	5.38
350.971	5.23
351.341	4.76
351.711	5.16
352.081	5.07
352.45	5.3
352.82	5.42
353.19	5.29
353.56	5.3
353.929	5.51
354.299	5.03
354.669	4.95
355.038	4.95
355.408	5.3
355.777	5.88
356.147	5.62
356.516	5.38
356.885	5.27
357.254	5.29
357.624	4.92
357.993	5.32
358.362	5.47
358.731	4.96
359.1	5.27
359.469	5.31
359.838	5.17
360.207	5.04
360.576	5.24
360.945	5.32
361.314	5.54
361.682	5.68
362.051	5.58
362.42	4.91
362.788	5.1
363.157	5.52
363.525	5.1
363.894	5.23
364.262	5.12
364.631	5.22
364.999	5.22
365.367	5.57
365.735	5.19
366.104	5.2
366.472	5.73
366.84	5.19
367.208	5.18
367.576	5.62
367.944	5.13
368.312	5.37
368.68	5.51
369.048	5.65
369.416	5.24
369.783	4.95
370.151	5.15
370.519	5.09
370.886	5.29
371.254	5.76
371.621	5.25
371.989	5.36
372.356	4.82
372.724	5.51
373.091	5.26
373.458	5.24
373.826	5.31
374.193	5.4
374.56	5.49
374.927	5.67
375.294	5.24
375.661	5.29
376.028	5.38
376.395	5.89
376.762	5.02
377.129	5.38
377.496	5.82
377.863	5.66
378.229	5.25
378.596	5.23
378.963	5.62
379.329	5.17
379.696	5.6
380.062	5.36
380.429	5.33
380.795	5.54
381.161	5.23
381.528	5.37
381.894	4.85
382.26	5.37
382.626	5.33
382.993	5.62
383.359	5.25
383.725	5.33
384.091	5.36
384.457	5.33
384.823	5.4
385.188	5.42
385.554	5.75
385.92	5.43
386.286	5.36
386.651	5.16
387.017	5.11
387.383	5.38
387.748	5.57
388.114	5.33
388.479	5.58
388.845	5.23
389.21	5.29
389.575	5.7
389.94	4.97
390.306	5.54
390.671	5.73
391.036	5.18
391.401	5.28
391.766	5.29
392.131	5.31
392.496	5.41
392.861	5.3
393.226	5.59
393.591	5.4
393.956	5.33
394.32	5.43
394.685	5.28
395.05	5.56
395.414	5.33
395.779	5.48
396.143	5.17
396.508	5.4
396.872	5.23
397.236	5.29
397.601	5.54
397.965	5.76
398.329	5.44
398.694	5.44
399.058	5.36
399.422	5.3
399.786	5.37
400.15	5.41
400.514	5.3
400.878	5.38
401.242	5.6
401.605	5.28
401.969	5.15
402.333	5.26
402.697	5.13
403.06	5.22
403.424	5.29
403.787	5.52
404.151	5.6
404.514	5.69
404.878	5.5
405.241	5.65
405.604	5.58
405.968	5.33
406.331	5.47
406.694	5.42
407.057	5.32
407.42	5.33
407.783	5.47
408.146	5.33
408.509	5.26
408.872	5.24
409.235	5.19
409.598	5.38
409.961	5.54
410.323	5.48
410.686	5.34
411.049	5.43
411.411	5.46
411.774	5.09
412.136	5.32
412.499	5.21
412.861	5.4
413.223	5.52
413.586	5.33
413.948	5.64
414.31	5.25
414.672	5.38
415.035	5.38
415.397	5.45
415.759	5.63
416.121	5.47
416.483	5.1
416.845	5.43
417.206	5.36
417.568	5.2
417.93	5.31
418.292	5.52
418.653	5.31
419.015	5.32
419.377	5.24
419.738	5.52
420.1	5.16
420.461	5.38
420.822	5.33
421.184	5.25
421.545	5.37
421.906	5.26
422.267	5.37
422.629	5.42
422.99	5.19
423.351	5.19
423.712	5.2
424.073	5.33
424.434	5.41
424.795	5.31
425.155	5.36
425.516	5.51
425.877	5.37
426.238	5.25
426.598	5.23
426.959	5.28
427.32	5.45
427.68	5.27
428.041	5.28
428.401	5.49
428.761	5.57
429.122	5.41
429.482	5.4
429.842	5.25
430.202	5.52
430.563	5.62
430.923	5.48
431.283	5.61
431.643	5.52
432.003	5.54
432.363	5.67
432.722	5.57
433.082	5.53
433.442	5.58
433.802	5.61
434.161	5.55
434.521	5.55
434.881	5.55
435.24	5.48
435.6	5.4
435.959	5.38
436.319	5.54
436.678	5.61
437.037	5.56
437.396	5.5
437.756	5.53
438.115	5.45
438.474	5.55
438.833	5.72
439.192	5.51
439.551	5.66
439.91	5.66
440.269	5.65
440.628	5.49
440.987	5.6
441.345	5.63
441.704	5.7
442.063	5.43
442.421	5.55
442.78	5.56
443.138	5.52
443.497	5.58
443.855	5.59
444.214	5.37
444.572	5.66
444.93	5.62
445.288	5.65
445.647	5.75
446.005	5.53
446.363	5.64
446.721	5.67
447.079	5.61
447.437	5.66
447.795	5.66
448.153	5.48
448.51	5.55
448.868	5.5
449.226	5.5
449.584	5.52
449.941	5.41
450.299	5.65
450.656	5.67
451.014	5.76
451.371	5.63
451.729	5.82
452.086	5.57
452.443	5.6
452.801	5.68
453.158	5.61
453.515	5.74
453.872	5.69
454.229	5.76
454.586	5.65
454.943	5.69
455.3	5.57
455.657	5.58
456.014	5.67
456.371	5.73
456.727	5.91
457.084	5.72
457.441	5.78
457.797	5.74
458.154	5.68
458.51	5.68
458.867	5.74
459.223	5.88
459.58	5.78
459.936	5.8
460.292	5.74
460.648	5.75
461.005	5.78
461.361	5.84
461.717	5.55
462.073	5.61
462.429	5.54
462.785	5.6
463.141	5.6
463.496	5.73
463.852	5.72
464.208	5.71
464.564	5.92
464.919	5.7
465.275	5.92
465.631	5.92
465.986	5.89
466.342	5.8
466.697	5.83
467.052	5.75
467.408	5.85
467.763	5.71
468.118	5.85
468.473	5.67
468.829	5.75
469.184	5.84
469.539	5.75
469.894	5.77
470.249	5.88
470.603	5.71
470.958	5.83
471.313	5.85
471.668	5.96
472.023	5.89
472.377	5.98
472.732	5.7
473.086	5.88
473.441	5.65
473.795	6.06
474.15	5.75
474.504	5.77
474.859	6.01
475.213	5.69
475.567	5.68
475.921	5.95
476.275	5.87
476.63	5.92
476.984	5.82
477.338	5.99
477.692	5.83
478.045	6.15
478.399	5.94
478.753	5.82
479.107	5.84
479.461	5.84
479.814	5.87
480.168	5.94
480.521	5.89
480.875	6
481.228	5.97
481.582	5.69
481.935	5.83
482.289	5.8
482.642	5.71
482.995	5.78
483.348	5.91
483.701	5.77
484.055	5.77
484.408	5.81
484.761	5.79
485.114	5.62
485.466	5.63
485.819	5.51
486.172	5.51
486.525	5.48
486.878	5.48
487.23	5.55
487.583	5.61
487.936	5.69
488.288	5.74
488.641	5.67
488.993	5.62
489.345	5.67
489.698	5.59
490.05	5.6
490.402	5.62
490.754	5.6
491.107	5.69
491.459	5.71
491.811	5.73
492.163	5.78
492.515	5.84
492.866	5.79
493.218	5.85
493.57	5.7
493.922	5.64
494.274	5.74
494.625	5.67
494.977	5.79
495.328	5.85
495.68	5.91
496.031	5.8
496.383	5.97
496.734	6
497.086	5.95
497.437	5.87
497.788	5.97
498.139	6.08
498.49	6.18
498.842	5.91
499.193	5.85
499.544	5.96
499.894	5.91
500.245	5.97
500.596	6.02
500.947	6.13
501.298	6.1
501.648	6.08
501.999	6.12
502.35	5.97
502.7	6.08
503.051	6.05
503.401	6.12
503.752	6.13
504.102	6.07
504.452	6
504.803	6.05
505.153	6.08
505.503	6.07
505.853	6.11
506.203	6.06
506.553	6.18
506.903	6.1
507.253	6.1
507.603	6.15
507.953	6.14
508.303	6.22
508.652	6.04
509.002	6.17
509.352	6.07
509.701	6.19
510.051	6.19
510.4	6.14
510.75	6.06
511.099	5.97
511.449	6.13
511.798	6.16
512.147	6.1
512.496	6.09
512.846	6.11
513.195	6.12
513.544	6.18
513.893	6.24
514.242	6.14
514.591	6.18
514.939	6.18
515.288	6.07
515.637	6.26
515.986	6.07
516.334	6.25
516.683	6.27
517.032	6.33
517.38	6.32
517.729	6.26
518.077	6.16
518.426	6.2
518.774	6.25
519.122	6.33
519.47	6.21
519.819	6.21
520.167	6.3
520.515	6.26
520.863	6.13
521.211	6.11
521.559	6.14
521.907	6.22
522.255	6.3
522.602	6.25
522.95	6.22
523.298	6.39
523.645	6.27
523.993	6.37
524.341	6.22
524.688	6.28
525.036	6.3
525.383	6.44
525.73	6.38
526.078	6.48
526.425	6.28
526.772	6.3
527.119	6.32
527.466	6.24
527.814	6.16
528.161	6.17
528.508	6.21
528.854	6.28
529.201	6.27
529.548	6.23
529.895	6.33
530.242	6.16
530.588	6.12
530.935	6.05
531.282	6.07
531.628	6.12
531.975	6.07
532.321	6.1
532.667	6.27
533.014	6.36
533.36	6.4
533.706	6.37
534.052	6.39
534.399	6.44
534.745	6.37
535.091	6.28
535.437	6.19
535.783	6.23
536.129	6.23
536.474	6.37
536.82	6.27
537.166	6.53
537.512	6.43
537.857	6.54
538.203	6.59
538.549	6.47
538.894	6.42
539.239	6.48
539.585	6.42
539.93	6.63
540.276	6.48
540.621	6.53
540.966	6.53
541.311	6.61
541.656	6.56
542.001	6.62
542.346	6.66
542.691	6.58
543.036	6.62
543.381	6.45
543.726	6.4
544.071	6.46
544.415	6.44
544.76	6.55
545.105	6.43
545.449	6.55
545.794	6.63
546.138	6.58
546.483	6.65
546.827	6.63
547.171	6.72
547.516	6.8
547.86	6.79
548.204	6.8
548.548	6.71
548.892	6.85
549.236	6.7
549.58	6.8
549.924	6.9
550.268	6.91
550.612	6.91
550.956	6.85
551.3	6.92
551.643	6.88
551.987	6.93
552.33	7.08
552.674	6.95
553.017	7.1
553.361	6.95
553.704	7.09
554.048	6.96
554.391	7.16
554.734	7.18
555.077	7.08
555.42	6.98
555.764	7.09
556.107	7.12
556.45	7.17
556.793	6.96
557.135	6.94
557.478	6.96
557.821	7.11
558.164	7.15
558.507	7.28
558.849	7.22
559.192	7.28
559.534	7.38
559.877	7.26
560.219	7.3
560.562	7.39
560.904	7.28
561.246	7.54
561.589	7.31
561.931	7.44
562.273	7.2
562.615	7.27
562.957	7.39
563.299	7.49
563.641	7.42
563.983	7.35
564.325	7.3
564.667	7.43
565.008	7.4
565.35	7.58
565.692	7.43
566.033	7.45
566.375	7.43
566.716	7.61
567.058	7.48
567.399	7.5
567.741	7.74
568.082	7.55
568.423	7.64
568.764	7.62
569.105	7.45
569.447	7.63
569.788	7.4
570.129	7.72
570.47	7.73
570.811	7.61
571.151	7.66
571.492	7.77
571.833	7.57
572.174	7.84
572.514	7.64
572.855	7.81
573.195	7.62
573.536	7.81
573.876	7.66
574.217	7.75
574.557	7.71
574.898	7.76
575.238	7.74
575.578	7.91
575.918	7.81
576.258	7.7
576.598	7.86
576.938	7.85
577.278	8.08
577.618	7.83
577.958	8.01
578.298	8.16
578.638	8.02
578.977	8.17
579.317	7.97
579.657	8.09
579.996	7.99
580.336	8.27
580.675	8.17
581.014	8.14
581.354	8.04
581.693	8.27
582.032	8.19
582.372	8.15
582.711	8.42
583.05	8.21
583.389	8.25
583.728	8.22
584.067	8.48
584.406	8.45
584.745	8.11
585.083	8.62
585.422	8.33
585.761	8.31
586.1	8.45
586.438	8.42
586.777	8.34
587.115	8.51
587.454	8.19
587.792	8.85
588.13	8.58
588.469	8.56
588.807	8.57
589.145	8.85
589.483	8.72
589.821	8.48
590.159	8.77
590.497	8.85
590.835	8.88
591.173	8.67
591.511	8.68
591.849	8.84
592.187	8.7
592.524	8.84
592.862	8.86
593.2	8.77
593.537	8.74
593.875	8.83
594.212	8.75
594.55	9
594.887	8.8
595.224	9.12
595.561	9.06
595.899	9.09
596.236	9.21
596.573	9.34
596.91	9.03
597.247	8.97
597.584	9.45
597.921	9.26
598.258	9.08
598.594	9.21
598.931	9.29
599.268	9.21
599.604	9.24
599.941	9.09
600.277	8.99
600.614	9.01
600.95	9.21
601.287	9.08
601.623	9.46
601.959	9.39
602.296	9.21
602.632	9.46
602.968	9.34
603.304	9.69
603.64	9.34
603.976	9.6
604.312	9.47
604.648	9.57
604.984	9.58
605.319	9.53
605.655	9.51
605.991	9.44
606.326	9.59
606.662	9.53
606.998	9.48
607.333	9.71
607.668	9.48
608.004	9.69
608.339	9.47
608.674	9.51
609.01	9.7
609.345	9.85
609.68	9.81
610.015	9.65
610.35	9.83
610.685	10.13
611.02	9.93
611.355	10.09
611.689	10.01
612.024	10.02
612.359	10
612.694	9.85
613.028	9.98
613.363	9.74
613.697	10.08
614.032	10.15
614.366	9.99
614.7	10.06
615.035	9.88
615.369	9.96
615.703	9.98
616.037	10.34
616.371	10.32
616.705	10.53
617.039	10.32
617.373	10.35
617.707	9.96
618.041	10.68
618.375	10.37
618.709	10.4
619.042	10.56
619.376	10.9
619.71	10.66
620.043	10.33
620.377	9.97
620.71	10.66
621.043	10.6
621.377	10.58
621.71	10.56
622.043	10.6
622.376	11.03
622.709	11.26
623.043	10.72
623.376	10.74
623.709	10.99
624.041	10.57
624.374	10.87
624.707	11.07
625.04	10.85
625.373	10.74
625.705	10.91
626.038	11.15
626.37	11.13
626.703	11
627.035	11.25
627.368	10.84
627.7	11.34
628.032	11.28
628.365	11.15
628.697	11.07
629.029	11.22
629.361	11.1
629.693	11.33
630.025	11.3
630.357	11.48
630.689	11.22
631.021	11.17
631.353	11.49
631.684	11.46
632.016	11.73
632.348	11.43
632.679	11.51
633.011	11.25
633.342	11.65
633.674	11.45
634.005	11.38
634.336	11.57
634.668	11.78
634.999	12.01
635.33	11.68
635.661	11.61
635.992	11.79
636.323	11.8
636.654	11.86
636.985	11.59
637.316	12.06
637.647	11.89
637.977	11.52
638.308	12
638.639	11.72
638.969	11.84
639.3	11.83
639.63	12.56
639.961	11.91
640.291	11.56
640.622	12.55
640.952	11.73
641.282	12.28
641.612	11.87
641.943	12.15
642.273	12.13
642.603	12.2
642.933	12.32
643.263	11.58
643.592	12.21
643.922	12.21
644.252	12.27
644.582	12.83
644.911	12.47
645.241	12.59
645.571	12.32
645.9	12.74
646.23	12.64
646.559	12.62
646.888	12.48
647.218	12.19
647.547	12.62
647.876	12.74
648.205	12.43
648.534	12.7
648.863	12.76
649.192	12.62
649.521	12.97
649.85	13.07
650.179	12.75
650.508	12.51
650.837	13.16
651.165	13.07
651.494	12.5
651.822	13.09
652.151	12.9
652.479	12.82
652.808	12.81
653.136	13.22
653.465	13.44
653.793	12.85
654.121	13.23
654.449	13.1
654.777	13.45
655.105	13.21
655.433	13.36
655.761	13.9
656.089	12.98
656.417	13.13
656.745	13.52
657.073	13.1
657.4	14.29
657.728	13.51
658.056	13.16
658.383	13.9
658.711	13.33
659.038	12.88
659.365	13.59
659.693	13.21
660.02	14.14
660.347	13.87
660.674	13.53
661.001	13.77
661.329	13.57
661.656	14.01
661.982	13.74
662.309	14.14
662.636	13.67
662.963	14.08
663.29	14.03
663.616	13.71
663.943	14.07
664.27	13.91
664.596	13.96
664.923	13.76
665.249	14.15
665.576	13.79
665.902	13.77
666.228	13.97
666.554	14.14
666.881	14.45
667.207	14.14
667.533	14.24
667.859	14.24
668.185	14.43
668.511	14.89
668.837	14.07
669.162	14.33
669.488	14.16
669.814	14.39
670.139	14.27
670.465	14.65
670.791	14.31
671.116	14.21
671.442	15.1
671.767	13.94
672.092	14.94
672.418	15.21
672.743	14.7
673.068	14.94
673.393	14.32
673.718	15.24
674.043	14.6
674.368	15.04
674.693	14.78
675.018	15.42
675.343	14.99
675.667	15.62
675.992	15.07
676.317	15.53
676.641	15.54
676.966	15.39
677.29	14.75
677.615	14.93
677.939	16.22
678.264	15.32
678.588	15.54
678.912	15.19
679.236	15.09
679.56	15.03
679.885	15.18
680.209	15.45
680.532	15.54
680.856	15.17
681.18	15.86
681.504	15.28
681.828	15.02
682.152	15.24
682.475	16.53
682.799	15.71
683.122	15.27
683.446	15.79
683.769	16.09
684.093	16.17
684.416	15.7
684.739	15.98
685.062	16.7
685.386	15.69
685.709	15.6
686.032	15.64
686.355	15.91
686.678	15.79
687.001	16.06
687.324	16.14
687.646	16.64
