Data from 23-1_chest_Reflection__2__336.txt Node

Date: Fri Sep 22 23:23:23 CDT 2023
User: ToomeyLab
Spectrometer: FLMS14357
Trigger mode: 0
Integration Time (sec): 1.000000E-2
Scans to average: 100
Electric dark correction enabled: true
Nonlinearity correction enabled: false
Boxcar width: 0
XAxis mode: Wavelengths
Number of Pixels in Spectrum: 2048
>>>>>Begin Spectral Data<<<<<
189.047	13.77
189.435	13.77
189.823	13.77
190.211	-16.31
190.599	-4451.61
190.987	29.97
191.375	-126.45
191.763	813.36
192.151	-202.38
192.538	266.43
192.926	108.99
193.314	101.06
193.702	-26.68
194.089	84.64
194.477	213.14
194.864	79.32
195.252	79.45
195.639	50.74
196.027	164.83
196.414	-94.01
196.801	-30.87
197.189	-411.02
197.576	70.63
197.963	91.56
198.351	26.26
198.738	22.38
199.125	20.13
199.512	-30.69
199.899	47.32
200.286	18.9
200.673	-16.44
201.06	18
201.447	57.56
201.833	-31.45
202.22	31.47
202.607	10.58
202.994	25.02
203.38	3.19
203.767	22.36
204.154	14.88
204.54	9.49
204.927	-9.37
205.313	13.86
205.699	39.34
206.086	34.87
206.472	37.64
206.858	38.65
207.245	-1.82
207.631	34.68
208.017	6.82
208.403	-19.49
208.789	22.37
209.175	14.21
209.561	21.7
209.947	15.27
210.333	19.41
210.719	-7.52
211.105	44.91
211.491	16.39
211.876	18
212.262	29.28
212.648	16.86
213.034	46.49
213.419	2.75
213.805	0.13
214.19	25.8
214.576	12.11
214.961	4.15
215.346	-1.99
215.732	28.02
216.117	14.51
216.502	30.99
216.888	17.19
217.273	39.82
217.658	2.08
218.043	14.71
218.428	18.04
218.813	-30.76
219.198	14.04
219.583	5.54
219.968	-22.69
220.353	30.05
220.738	-1.44
221.122	30.59
221.507	1.28
221.892	9.07
222.276	-7.34
222.661	-33.15
223.046	23.48
223.43	19.73
223.815	1.26
224.199	4.29
224.583	19.95
224.968	2.45
225.352	6.31
225.736	9.4
226.121	9.49
226.505	7.85
226.889	12.2
227.273	-1.68
227.657	5.44
228.041	6.23
228.425	7.94
228.809	1.65
229.193	3.1
229.577	3.56
229.961	5.38
230.344	5.79
230.728	2.14
231.112	3.16
231.495	2.71
231.879	4.27
232.263	2.44
232.646	2.91
233.03	3.67
233.413	4.06
233.797	3.5
234.18	2.88
234.563	5.98
234.946	4.37
235.33	0.55
235.713	2.73
236.096	1.2
236.479	4.59
236.862	4.4
237.245	3.28
237.628	2.22
238.011	4.52
238.394	3.77
238.777	5.32
239.16	5.01
239.543	5.16
239.925	4.17
240.308	3.91
240.691	4
241.073	4.46
241.456	4.48
241.838	3.1
242.221	2.99
242.603	3.53
242.986	3.83
243.368	2.73
243.75	3.87
244.133	4.26
244.515	3.78
244.897	3.22
245.279	3.5
245.661	3.31
246.043	3.32
246.425	2.88
246.807	3.14
247.189	2.69
247.571	3.62
247.953	3.38
248.335	3.24
248.717	3.92
249.098	3.39
249.48	3.47
249.862	3.49
250.243	3.45
250.625	3.42
251.006	3.15
251.388	3.79
251.769	3.92
252.151	2.54
252.532	3.24
252.913	3.9
253.295	4.88
253.676	3.55
254.057	4.16
254.438	4.04
254.819	3.5
255.2	3.35
255.581	3.4
255.962	4.17
256.343	3.72
256.724	3.09
257.105	3.72
257.486	4.5
257.867	4.29
258.247	2.92
258.628	4.96
259.009	3.57
259.389	2.95
259.77	3.65
260.15	3.78
260.531	2.63
260.911	3.29
261.292	3.03
261.672	3.06
262.052	3.27
262.432	3.23
262.813	3.44
263.193	3.23
263.573	3.57
263.953	2.91
264.333	3.74
264.713	3.66
265.093	3.13
265.473	2.9
265.853	2.36
266.233	3.28
266.612	3.2
266.992	4.06
267.372	3.66
267.752	4.25
268.131	3.89
268.511	2.67
268.89	3.64
269.27	2.98
269.649	3.21
270.029	3.72
270.408	3.03
270.787	3.68
271.167	3.46
271.546	3.02
271.925	2.98
272.304	3
272.683	2.63
273.062	3.6
273.441	3.44
273.82	3.54
274.199	3.2
274.578	3.32
274.957	3.11
275.336	3.03
275.715	3.37
276.093	3.37
276.472	3.02
276.851	3.28
277.229	2.86
277.608	3.42
277.986	3.71
278.365	4.03
278.743	3.21
279.122	3.31
279.5	3.41
279.878	2.58
280.257	3.43
280.635	3.52
281.013	3.3
281.391	2.58
281.769	3.05
282.147	2.88
282.525	2.76
282.903	3.34
283.281	3.48
283.659	3.56
284.037	2.75
284.415	3.38
284.792	2.62
285.17	3.11
285.548	3.61
285.925	3.17
286.303	3.36
286.68	2.76
287.058	3.04
287.435	2.91
287.813	2.95
288.19	2.75
288.567	3.28
288.945	2.71
289.322	3.2
289.699	3.13
290.076	3.34
290.453	2.8
290.83	2.97
291.207	3.05
291.584	2.56
291.961	3
292.338	3
292.715	3.56
293.092	2.94
293.469	2.88
293.845	3
294.222	3.32
294.599	3.26
294.975	3.52
295.352	3.17
295.728	3.18
296.105	3.7
296.481	2.89
296.858	3.43
297.234	3.14
297.61	3.39
297.986	3.42
298.363	3.68
298.739	3.22
299.115	3.63
299.491	3.33
299.867	3.15
300.243	3.19
300.619	3.34
300.995	3.39
301.371	3.83
301.746	3.75
302.122	3.28
302.498	2.91
302.874	3.04
303.249	3.79
303.625	3.33
304	3.83
304.376	3.72
304.751	3.34
305.127	3.66
305.502	3.57
305.878	3.67
306.253	3.7
306.628	3.3
307.003	3.68
307.378	3.31
307.754	3.82
308.129	3.09
308.504	3.52
308.879	3.21
309.254	3.24
309.629	3.97
310.003	3.99
310.378	3.93
310.753	3.56
311.128	3.7
311.502	3.59
311.877	2.94
312.252	3.57
312.626	3.49
313.001	3.53
313.375	3.52
313.75	3.66
314.124	3.75
314.498	3.26
314.873	3.54
315.247	4
315.621	3.54
315.995	3.96
316.369	3.34
316.743	3.66
317.117	4.06
317.491	3.94
317.865	3.6
318.239	3.95
318.613	3.99
318.987	3.78
319.361	4.18
319.734	3.95
320.108	4.19
320.482	3.67
320.855	3.72
321.229	3.95
321.602	3.94
321.976	3.37
322.349	3.93
322.723	3.53
323.096	3.67
323.469	3.55
323.843	3.78
324.216	3.95
324.589	3.53
324.962	3
325.335	3.7
325.708	3.51
326.081	3.57
326.454	3.28
326.827	3.68
327.2	3.36
327.573	4.15
327.945	3.64
328.318	4.01
328.691	3.74
329.063	3.37
329.436	4.07
329.809	3.91
330.181	3.95
330.553	3.44
330.926	3.92
331.298	3.32
331.671	3.43
332.043	3.07
332.415	3.47
332.787	3.66
333.159	3.65
333.532	2.97
333.904	3.47
334.276	3.62
334.648	3.36
335.02	3.38
335.391	3.78
335.763	3.68
336.135	3.61
336.507	3.85
336.879	3.34
337.25	3.8
337.622	3.59
337.993	3.98
338.365	3.99
338.736	3.48
339.108	3.57
339.479	3.74
339.851	3.23
340.222	3.44
340.593	3.92
340.964	3.36
341.336	2.98
341.707	3.06
342.078	3.59
342.449	3.61
342.82	3.4
343.191	3.27
343.562	3.65
343.933	3.49
344.303	3.46
344.674	3.61
345.045	3.78
345.416	3.96
345.786	3.5
346.157	3.71
346.527	3.48
346.898	3.35
347.268	3.84
347.639	3.45
348.009	3.52
348.38	3.54
348.75	3.88
349.12	3.46
349.49	3.93
349.861	3.33
350.231	3.67
350.601	4.17
350.971	3.53
351.341	3.04
351.711	3.95
352.081	3.02
352.45	3.69
352.82	3.75
353.19	3.77
353.56	3
353.929	3.94
354.299	3.62
354.669	3.55
355.038	3.57
355.408	3.69
355.777	3.86
356.147	3.52
356.516	3.79
356.885	3.37
357.254	3.72
357.624	3.67
357.993	3.63
358.362	3.64
358.731	3.33
359.1	3.45
359.469	3.71
359.838	3.38
360.207	3.55
360.576	3.62
360.945	3.44
361.314	3.7
361.682	3.75
362.051	3.85
362.42	3.56
362.788	3.53
363.157	3.7
363.525	3.46
363.894	3.58
364.262	3.53
364.631	3.29
364.999	3.23
365.367	3.77
365.735	3.6
366.104	3.74
366.472	3.9
366.84	3.52
367.208	3.93
367.576	3.81
367.944	3.57
368.312	3.9
368.68	3.59
369.048	3.93
369.416	3.75
369.783	3.82
370.151	3.37
370.519	3.7
370.886	3.71
371.254	3.87
371.621	3.55
371.989	3.83
372.356	3.49
372.724	3.86
373.091	3.55
373.458	3.62
373.826	3.9
374.193	3.79
374.56	3.79
374.927	3.61
375.294	3.59
375.661	3.42
376.028	4.16
376.395	3.7
376.762	3.62
377.129	3.66
377.496	3.79
377.863	3.82
378.229	3.5
378.596	3.71
378.963	3.98
379.329	3.75
379.696	3.95
380.062	3.39
380.429	3.73
380.795	3.78
381.161	3.64
381.528	3.71
381.894	3.49
382.26	3.8
382.626	3.6
382.993	3.7
383.359	3.39
383.725	3.4
384.091	3.92
384.457	3.33
384.823	3.53
385.188	3.91
385.554	3.54
385.92	4.06
386.286	3.85
386.651	3.62
387.017	3.76
387.383	3.74
387.748	3.69
388.114	3.58
388.479	3.85
388.845	3.45
389.21	3.38
389.575	4.07
389.94	3.43
390.306	3.88
390.671	4
391.036	3.49
391.401	3.51
391.766	3.67
392.131	3.65
392.496	3.58
392.861	3.54
393.226	3.76
393.591	3.91
393.956	3.52
394.32	3.64
394.685	3.58
395.05	3.91
395.414	3.66
395.779	3.82
396.143	3.63
396.508	3.64
396.872	3.63
397.236	3.62
397.601	3.47
397.965	3.84
398.329	3.83
398.694	3.61
399.058	3.78
399.422	3.49
399.786	3.84
400.15	3.76
400.514	3.72
400.878	3.73
401.242	3.81
401.605	3.53
401.969	3.31
402.333	3.67
402.697	3.39
403.06	3.6
403.424	3.55
403.787	3.65
404.151	3.76
404.514	3.85
404.878	3.76
405.241	3.91
405.604	3.75
405.968	3.9
406.331	3.35
406.694	3.72
407.057	3.49
407.42	3.8
407.783	3.53
408.146	3.65
408.509	3.41
408.872	3.51
409.235	3.74
409.598	3.61
409.961	3.79
410.323	3.63
410.686	3.66
411.049	3.58
411.411	3.79
411.774	3.61
412.136	3.5
412.499	3.63
412.861	3.79
413.223	3.66
413.586	3.47
413.948	3.72
414.31	3.56
414.672	3.57
415.035	3.49
415.397	3.85
415.759	3.69
416.121	3.44
416.483	3.59
416.845	3.55
417.206	3.61
417.568	3.72
417.93	3.48
418.292	3.63
418.653	3.58
419.015	3.52
419.377	3.46
419.738	3.65
420.1	3.46
420.461	3.62
420.822	3.55
421.184	3.7
421.545	3.53
421.906	3.58
422.267	3.47
422.629	3.69
422.99	3.56
423.351	3.44
423.712	3.42
424.073	3.51
424.434	3.59
424.795	3.57
425.155	3.69
425.516	3.66
425.877	3.61
426.238	3.47
426.598	3.54
426.959	3.6
427.32	3.65
427.68	3.59
428.041	3.62
428.401	3.68
428.761	3.69
429.122	3.74
429.482	3.6
429.842	3.68
430.202	3.61
430.563	3.73
430.923	3.7
431.283	3.77
431.643	3.79
432.003	3.86
432.363	3.9
432.722	3.99
433.082	3.66
433.442	3.71
433.802	3.84
434.161	3.78
434.521	3.74
434.881	3.77
435.24	3.69
435.6	3.71
435.959	3.74
436.319	3.78
436.678	3.89
437.037	3.78
437.396	3.74
437.756	3.87
438.115	3.77
438.474	3.92
438.833	3.96
439.192	3.83
439.551	3.81
439.91	3.99
440.269	3.85
440.628	3.66
440.987	4.04
441.345	3.8
441.704	3.81
442.063	3.81
442.421	3.77
442.78	3.85
443.138	3.84
443.497	3.8
443.855	3.86
444.214	3.71
444.572	3.91
444.93	3.92
445.288	3.95
445.647	4.01
446.005	3.78
446.363	3.77
446.721	3.88
447.079	3.8
447.437	3.93
447.795	4.04
448.153	3.77
448.51	3.83
448.868	3.8
449.226	3.79
449.584	3.88
449.941	3.81
450.299	3.89
450.656	3.9
451.014	3.92
451.371	3.87
451.729	3.9
452.086	3.87
452.443	3.93
452.801	3.98
453.158	3.92
453.515	4.09
453.872	3.86
454.229	3.95
454.586	3.9
454.943	3.97
455.3	3.92
455.657	3.88
456.014	3.92
456.371	4.1
456.727	4.11
457.084	4.1
457.441	3.92
457.797	4.11
458.154	4
458.51	3.99
458.867	4.11
459.223	3.99
459.58	4.11
459.936	4.06
460.292	4.05
460.648	4.16
461.005	3.96
461.361	4.08
461.717	3.8
462.073	3.96
462.429	3.83
462.785	3.92
463.141	3.93
463.496	4.22
463.852	4.14
464.208	4.04
464.564	4.11
464.919	4.2
465.275	4.11
465.631	4.23
465.986	4.23
466.342	4.11
466.697	4.19
467.052	3.99
467.408	4.04
467.763	4.09
468.118	4.27
468.473	3.95
468.829	4.04
469.184	4.1
469.539	4.2
469.894	4.06
470.249	4.27
470.603	4.05
470.958	4.3
471.313	4.21
471.668	4.25
472.023	4.28
472.377	4.12
472.732	4.2
473.086	4.32
473.441	4.07
473.795	4.46
474.15	4
474.504	4.22
474.859	4.27
475.213	4.11
475.567	4
475.921	4.14
476.275	4.19
476.63	4.06
476.984	4.15
477.338	4.23
477.692	4.13
478.045	4.33
478.399	4.25
478.753	4.08
479.107	4.26
479.461	4.03
479.814	4.25
480.168	4.21
480.521	4.18
480.875	4.26
481.228	4.11
481.582	4.16
481.935	4.28
482.289	4.13
482.642	4.18
482.995	4.23
483.348	4.18
483.701	4.14
484.055	4.13
484.408	4.16
484.761	4.12
485.114	4.05
485.466	3.96
485.819	3.93
486.172	3.87
486.525	3.92
486.878	3.92
487.23	3.98
487.583	4.01
487.936	4.08
488.288	4.13
488.641	4.09
488.993	4.05
489.345	4.07
489.698	4
490.05	3.96
490.402	4.06
490.754	4
491.107	4.07
491.459	4.06
491.811	4.1
492.163	4.17
492.515	4.18
492.866	4.16
493.218	4.22
493.57	4.17
493.922	4.11
494.274	4.06
494.625	4.13
494.977	4.23
495.328	4.32
495.68	4.26
496.031	4.25
496.383	4.34
496.734	4.3
497.086	4.43
497.437	4.35
497.788	4.41
498.139	4.42
498.49	4.38
498.842	4.34
499.193	4.21
499.544	4.37
499.894	4.27
500.245	4.37
500.596	4.35
500.947	4.37
501.298	4.41
501.648	4.44
501.999	4.5
502.35	4.36
502.7	4.55
503.051	4.41
503.401	4.53
503.752	4.46
504.102	4.54
504.452	4.45
504.803	4.42
505.153	4.45
505.503	4.39
505.853	4.5
506.203	4.39
506.553	4.5
506.903	4.46
507.253	4.38
507.603	4.44
507.953	4.57
508.303	4.59
508.652	4.57
509.002	4.65
509.352	4.43
509.701	4.6
510.051	4.59
510.4	4.54
510.75	4.45
511.099	4.38
511.449	4.48
511.798	4.5
512.147	4.41
512.496	4.49
512.846	4.46
513.195	4.53
513.544	4.59
513.893	4.64
514.242	4.53
514.591	4.49
514.939	4.69
515.288	4.49
515.637	4.53
515.986	4.49
516.334	4.58
516.683	4.61
517.032	4.62
517.38	4.71
517.729	4.57
518.077	4.66
518.426	4.61
518.774	4.66
519.122	4.6
519.47	4.55
519.819	4.76
520.167	4.68
520.515	4.65
520.863	4.48
521.211	4.56
521.559	4.65
521.907	4.58
522.255	4.57
522.602	4.64
522.95	4.63
523.298	4.69
523.645	4.7
523.993	4.76
524.341	4.6
524.688	4.78
525.036	4.7
525.383	4.79
525.73	4.84
526.078	4.77
526.425	4.79
526.772	4.82
527.119	4.71
527.466	4.62
527.814	4.6
528.161	4.6
528.508	4.67
528.854	4.65
529.201	4.68
529.548	4.65
529.895	4.63
530.242	4.54
530.588	4.5
530.935	4.46
531.282	4.5
531.628	4.56
531.975	4.59
532.321	4.62
532.667	4.68
533.014	4.69
533.36	4.76
533.706	4.81
534.052	4.82
534.399	4.83
534.745	4.84
535.091	4.63
535.437	4.7
535.783	4.63
536.129	4.7
536.474	4.71
536.82	4.73
537.166	4.87
537.512	4.88
537.857	4.9
538.203	4.9
538.549	4.86
538.894	4.79
539.239	4.85
539.585	4.82
539.93	5.01
540.276	4.92
540.621	4.93
540.966	4.92
541.311	5.02
541.656	4.98
542.001	5.09
542.346	5.08
542.691	5.08
543.036	4.99
543.381	4.88
543.726	4.8
544.071	4.82
544.415	4.9
544.76	4.91
545.105	4.87
545.449	4.97
545.794	5.01
546.138	5.1
546.483	5.07
546.827	4.97
547.171	5.1
547.516	5.11
547.86	5.2
548.204	5.25
548.548	5.2
548.892	5.23
549.236	5.18
549.58	5.2
549.924	5.31
550.268	5.32
550.612	5.25
550.956	5.3
551.3	5.39
551.643	5.37
551.987	5.44
552.33	5.49
552.674	5.46
553.017	5.36
553.361	5.31
553.704	5.59
554.048	5.62
554.391	5.54
554.734	5.54
555.077	5.48
555.42	5.39
555.764	5.42
556.107	5.46
556.45	5.43
556.793	5.55
557.135	5.5
557.478	5.48
557.821	5.63
558.164	5.61
558.507	5.86
558.849	5.59
559.192	5.63
559.534	5.78
559.877	5.73
560.219	5.65
560.562	5.74
560.904	5.67
561.246	5.98
561.589	5.88
561.931	5.75
562.273	5.6
562.615	5.74
562.957	5.87
563.299	5.84
563.641	5.84
563.983	5.88
564.325	6.01
564.667	5.97
565.008	5.73
565.35	5.92
565.692	6.02
566.033	5.99
566.375	6.05
566.716	5.92
567.058	5.79
567.399	6.11
567.741	6.14
568.082	5.86
568.423	6.1
568.764	6.09
569.105	5.75
569.447	6.05
569.788	5.96
570.129	6.13
570.47	6.16
570.811	6.04
571.151	6.26
571.492	6.1
571.833	5.98
572.174	6.14
572.514	6.2
572.855	6.19
573.195	6.04
573.536	6.21
573.876	6.24
574.217	6.2
574.557	6.17
574.898	6.26
575.238	6.23
575.578	6.46
575.918	6.31
576.258	6.12
576.598	6.31
576.938	6.42
577.278	6.4
577.618	6.24
577.958	6.43
578.298	6.6
578.638	6.43
578.977	6.57
579.317	6.47
579.657	6.35
579.996	6.57
580.336	6.57
580.675	6.67
581.014	6.67
581.354	6.48
581.693	6.86
582.032	6.85
582.372	6.82
582.711	6.71
583.05	6.8
583.389	6.94
583.728	6.9
584.067	6.84
584.406	6.82
584.745	6.66
585.083	7.01
585.422	7.18
585.761	6.99
586.1	7.02
586.438	7.04
586.777	7.07
587.115	7.1
587.454	6.96
587.792	7.3
588.13	7.16
588.469	6.96
588.807	7.17
589.145	7.07
589.483	7.05
589.821	7.14
590.159	7.14
590.497	7.4
590.835	7.32
591.173	6.97
591.511	7.31
591.849	7.61
592.187	7.2
592.524	7.46
592.862	7.36
593.2	7.22
593.537	7.23
593.875	7.32
594.212	7.44
594.55	7.57
594.887	7.46
595.224	7.67
595.561	7.57
595.899	7.61
596.236	7.7
596.573	7.81
596.91	7.6
597.247	7.46
597.584	7.69
597.921	7.84
598.258	7.84
598.594	7.86
598.931	7.58
599.268	7.59
599.604	7.51
599.941	7.71
600.277	7.63
600.614	7.62
600.95	7.91
601.287	7.5
601.623	7.81
601.959	8.24
602.296	8.11
602.632	7.82
602.968	8.19
603.304	8.15
603.64	7.76
603.976	8.15
604.312	8.09
604.648	8.02
604.984	8.14
605.319	8.04
605.655	7.99
605.991	8.19
606.326	8.08
606.662	8.07
606.998	8.05
607.333	8.15
607.668	8.23
608.004	8.24
608.339	8.17
608.674	8.22
609.01	8.28
609.345	8.37
609.68	8.73
610.015	8.35
610.35	8.18
610.685	8.75
611.02	8.63
611.355	8.7
611.689	8.49
612.024	8.56
612.359	8.37
612.694	8.53
613.028	8.42
613.363	8.48
613.697	8.61
614.032	8.67
614.366	8.74
614.7	8.62
615.035	8.53
615.369	8.4
615.703	8.9
616.037	8.71
616.371	9.21
616.705	9.04
617.039	9.09
617.373	8.91
617.707	8.97
618.041	9.27
618.375	9.29
618.709	8.68
619.042	9.46
619.376	9.15
619.71	9.31
620.043	8.92
620.377	9.25
620.71	9.23
621.043	9.54
621.377	9.21
621.71	9.58
622.043	9.24
622.376	9.66
622.709	9.6
623.043	9.65
623.376	9.53
623.709	9.82
624.041	9.29
624.374	9.34
624.707	9.65
625.04	9.72
625.373	9.22
625.705	9.95
626.038	9.5
626.37	9.96
626.703	9.68
627.035	9.64
627.368	9.57
627.7	10.02
628.032	10.26
628.365	9.8
628.697	9.67
629.029	10
629.361	9.84
629.693	9.94
630.025	9.75
630.357	9.81
630.689	9.93
631.021	9.99
631.353	10.07
631.684	9.82
632.016	10.2
632.348	9.89
632.679	10.15
633.011	9.87
633.342	10.24
633.674	10.48
634.005	9.88
634.336	10.11
634.668	10.51
634.999	10.6
635.33	10.36
635.661	10.34
635.992	10.66
636.323	10.21
636.654	10.49
636.985	10.28
637.316	10.14
637.647	10.73
637.977	10.31
638.308	10.98
638.639	10.48
638.969	10.83
639.3	10.96
639.63	10.82
639.961	10.45
640.291	10.3
640.622	10.79
640.952	10.92
641.282	10.84
641.612	10.85
641.943	10.89
642.273	11.13
642.603	10.96
642.933	10.79
643.263	10.36
643.592	11.07
643.922	11.33
644.252	10.82
644.582	11.63
644.911	11.12
645.241	11.26
645.571	10.81
645.9	11.37
646.23	11.34
646.559	11.08
646.888	11.64
647.218	11.05
647.547	11.19
647.876	11.45
648.205	11.14
648.534	12.22
648.863	11.47
649.192	10.87
649.521	11.67
649.85	11.7
650.179	11.72
650.508	11.64
650.837	11.63
651.165	11.41
651.494	11.57
651.822	11.78
652.151	11.25
652.479	11.63
652.808	11.8
653.136	12
653.465	11.79
653.793	11.37
654.121	12.05
654.449	11.6
654.777	11.98
655.105	12.22
655.433	12.1
655.761	12.12
656.089	11.93
656.417	12.05
656.745	12
657.073	12.3
657.4	12.51
657.728	11.86
658.056	12.33
658.383	12.31
658.711	12.01
659.038	12.33
659.365	12.18
659.693	12.39
660.02	12.07
660.347	12.51
660.674	12.04
661.001	12.03
661.329	12.27
661.656	12.6
661.982	12.3
662.309	12.38
662.636	12.42
662.963	12.7
663.29	12.66
663.616	12.65
663.943	12.94
664.27	12.98
664.596	12.14
664.923	12.43
665.249	13.17
665.576	12.38
665.902	13.05
666.228	12.81
666.554	12.37
666.881	13.12
667.207	12.98
667.533	12.88
667.859	12.93
668.185	12.96
668.511	13
668.837	12.66
669.162	13.18
669.488	13.57
669.814	13.19
670.139	12.67
670.465	13.11
670.791	13.62
671.116	13.56
671.442	14.17
671.767	12.42
672.092	13.74
672.418	13.97
672.743	13.91
673.068	14.07
673.393	13.34
673.718	14.02
674.043	13.79
674.368	13.66
674.693	13.75
675.018	13.52
675.343	14.27
675.667	13.89
675.992	12.98
676.317	13.9
676.641	14.08
676.966	13.92
677.29	13.64
677.615	14.26
677.939	14.46
678.264	13.93
678.588	15.08
678.912	14.05
679.236	14.57
679.56	13.98
679.885	13.78
680.209	14.48
680.532	14.46
680.856	13.54
681.18	14.14
681.504	14.09
681.828	14.3
682.152	14.35
682.475	14.75
682.799	14.84
683.122	14.22
683.446	14.14
683.769	14.28
684.093	14.67
684.416	14.57
684.739	15.41
685.062	15.17
685.386	14.84
685.709	14.17
686.032	15.1
686.355	14.59
686.678	14.86
687.001	14.9
687.324	15.04
687.646	15.27
687.969	15.69
688.292	15.09
688.614	14.93
688.937	14.75
689.26	14.74
689.582	15.18
