Data from 23-1_forehead_Reflection__1__345.txt Node

Date: Fri Sep 22 23:26:25 CDT 2023
User: ToomeyLab
Spectrometer: FLMS14357
Trigger mode: 0
Integration Time (sec): 1.000000E-2
Scans to average: 100
Electric dark correction enabled: true
Nonlinearity correction enabled: false
Boxcar width: 0
XAxis mode: Wavelengths
Number of Pixels in Spectrum: 2048
>>>>>Begin Spectral Data<<<<<
189.047	165.58
189.435	165.58
189.823	165.58
190.211	429.49
190.599	7819.35
190.987	92.21
191.375	242.58
191.763	725.17
192.151	-225.89
192.538	-134.96
192.926	172.26
193.314	8.98
193.702	-10.82
194.089	71.82
194.477	-105.94
194.864	69.3
195.252	55.82
195.639	45.8
196.027	219.35
196.414	185.94
196.801	-235.14
197.189	144.72
197.576	13.13
197.963	89.86
198.351	19.99
198.738	-24.64
199.125	4.06
199.512	56.29
199.899	48.74
200.286	6.79
200.673	28.13
201.06	-11.23
201.447	50.8
201.833	-2.74
202.22	7.3
202.607	44.02
202.994	66.74
203.38	10.79
203.767	9.75
204.154	37.44
204.54	5
204.927	31.84
205.313	25
205.699	43.63
206.086	31.04
206.472	58.22
206.858	31.8
207.245	-14.97
207.631	27.9
208.017	14.18
208.403	6.37
208.789	27.41
209.175	62.45
209.561	31.29
209.947	37.66
210.333	34.6
210.719	7.39
211.105	62.93
211.491	-14.44
211.876	42.43
212.262	26.08
212.648	7.87
213.034	33.4
213.419	17.81
213.805	29.85
214.19	0.22
214.576	44.11
214.961	12.42
215.346	-4.86
215.732	26.04
216.117	21.08
216.502	46.29
216.888	19.96
217.273	-22.69
217.658	16.36
218.043	16.05
218.428	20.7
218.813	0.08
219.198	3.05
219.583	2.41
219.968	-25.51
220.353	42.18
220.738	16
221.122	25.93
221.507	-6.43
221.892	28.13
222.276	21.09
222.661	-5.6
223.046	17.48
223.43	18.53
223.815	18.52
224.199	2.87
224.583	13.15
224.968	14.94
225.352	7.68
225.736	10.41
226.121	5.69
226.505	6.41
226.889	13.67
227.273	14.66
227.657	2.48
228.041	7.22
228.425	10.3
228.809	5.41
229.193	3.39
229.577	6.52
229.961	6.17
230.344	7.57
230.728	3.93
231.112	5.03
231.495	3.96
231.879	4.7
232.263	2.99
232.646	3.13
233.03	4.13
233.413	4.53
233.797	5.34
234.18	4.64
234.563	6.92
234.946	5.04
235.33	-0.5
235.713	3.33
236.096	4.23
236.479	2.82
236.862	5.3
237.245	5.86
237.628	4.28
238.011	4.91
238.394	4.06
238.777	6.92
239.16	6.58
239.543	7
239.925	6.49
240.308	5.93
240.691	6.86
241.073	5.83
241.456	4.21
241.838	3.57
242.221	4.33
242.603	4.56
242.986	4.81
243.368	4.54
243.75	5.37
244.133	5.27
244.515	5.11
244.897	4.48
245.279	5.29
245.661	4.59
246.043	5.55
246.425	4.74
246.807	5.2
247.189	3.75
247.571	5.55
247.953	5.33
248.335	5.36
248.717	5.18
249.098	4.74
249.48	4.77
249.862	4.7
250.243	4.77
250.625	5.08
251.006	5
251.388	5.32
251.769	5.15
252.151	5.16
252.532	4.02
252.913	5.49
253.295	5.21
253.676	5.67
254.057	5.6
254.438	4.73
254.819	5.03
255.2	4.61
255.581	4.61
255.962	5.63
256.343	4.66
256.724	4.57
257.105	4.19
257.486	5.5
257.867	3.92
258.247	5.6
258.628	5.57
259.009	4.73
259.389	5
259.77	4.82
260.15	5.79
260.531	5.07
260.911	4.82
261.292	4.94
261.672	4.57
262.052	4.8
262.432	4.72
262.813	4.93
263.193	4.85
263.573	5.02
263.953	4.79
264.333	5.1
264.713	5.07
265.093	5.13
265.473	4.91
265.853	4.68
266.233	5.64
266.612	4.96
266.992	5.51
267.372	5.45
267.752	5.29
268.131	4.98
268.511	4.28
268.89	4.65
269.27	4.78
269.649	5.11
270.029	5.05
270.408	4.73
270.787	4.59
271.167	4.72
271.546	4.33
271.925	4.67
272.304	4.71
272.683	4.89
273.062	5.01
273.441	4.64
273.82	5.04
274.199	4.6
274.578	5.21
274.957	4.65
275.336	4.36
275.715	4.66
276.093	4.29
276.472	4.67
276.851	5.3
277.229	3.98
277.608	4.75
277.986	4.35
278.365	5.31
278.743	5.38
279.122	4.5
279.5	4.45
279.878	4.5
280.257	5.72
280.635	4.78
281.013	4.89
281.391	4.01
281.769	4.58
282.147	5.03
282.525	4.59
282.903	4.41
283.281	4.76
283.659	4.31
284.037	4.27
284.415	4.63
284.792	4.59
285.17	4.68
285.548	5.48
285.925	4.44
286.303	4.63
286.68	4.04
287.058	4.53
287.435	4.82
287.813	4.35
288.19	4.05
288.567	4.71
288.945	4.49
289.322	4.99
289.699	4.6
290.076	5.01
290.453	4.28
290.83	4.71
291.207	4.55
291.584	4.61
291.961	4.89
292.338	4.72
292.715	5.05
293.092	4.95
293.469	4.87
293.845	4.71
294.222	5.28
294.599	5.09
294.975	4.8
295.352	5.31
295.728	5.1
296.105	5.38
296.481	5.33
296.858	5.1
297.234	5.68
297.61	5.4
297.986	5.51
298.363	5.63
298.739	5.25
299.115	5.54
299.491	5.79
299.867	5.47
300.243	5.43
300.619	5.69
300.995	5.67
301.371	5.9
301.746	6.03
302.122	5.87
302.498	5.76
302.874	5.82
303.249	6.18
303.625	6.14
304	5.84
304.376	6.74
304.751	6.39
305.127	6.07
305.502	6.27
305.878	6.37
306.253	6.5
306.628	6.56
307.003	6.39
307.378	6.41
307.754	7.06
308.129	6.93
308.504	6.54
308.879	7.36
309.254	7.24
309.629	7.22
310.003	7.24
310.378	7.49
310.753	7.32
311.128	7.13
311.502	7.25
311.877	7.27
312.252	7.26
312.626	7.52
313.001	7.72
313.375	7.7
313.75	7.96
314.124	8.31
314.498	7.78
314.873	7.9
315.247	7.99
315.621	8.15
315.995	8.18
316.369	8.29
316.743	8.22
317.117	8.88
317.491	9.14
317.865	7.82
318.239	8.27
318.613	8.44
318.987	8.78
319.361	9.1
319.734	8.5
320.108	9.09
320.482	8.4
320.855	8.94
321.229	9.19
321.602	8.96
321.976	8.83
322.349	9.15
322.723	9.32
323.096	9.15
323.469	9.37
323.843	8.97
324.216	9.3
324.589	8.51
324.962	8.99
325.335	9.52
325.708	9.42
326.081	9.3
326.454	9.11
326.827	9.68
327.2	9.29
327.573	9.95
327.945	9.4
328.318	9.74
328.691	9.72
329.063	9.47
329.436	9.56
329.809	9.83
330.181	10.07
330.553	9.7
330.926	10.18
331.298	9.83
331.671	9.92
332.043	9.47
332.415	9.7
332.787	9.86
333.159	9.57
333.532	9.23
333.904	9.91
334.276	10.1
334.648	9.27
335.02	10.02
335.391	10.03
335.763	10.4
336.135	10.57
336.507	10.16
336.879	9.71
337.25	10.17
337.622	9.96
337.993	10.61
338.365	10.3
338.736	10.19
339.108	10.09
339.479	10.17
339.851	10
340.222	10.16
340.593	9.78
340.964	10.07
341.336	9.8
341.707	10.35
342.078	10.07
342.449	10.43
342.82	10.29
343.191	10.17
343.562	9.99
343.933	10.31
344.303	10.17
344.674	10.43
345.045	10.34
345.416	10.9
345.786	10.05
346.157	10.16
346.527	10.42
346.898	10.27
347.268	10.29
347.639	10.64
348.009	10.34
348.38	10.76
348.75	10.39
349.12	10.45
349.49	11.24
349.861	10.82
350.231	10.83
350.601	11.03
350.971	11.17
351.341	10.79
351.711	10.58
352.081	10.49
352.45	10.49
352.82	10.96
353.19	11.01
353.56	10.68
353.929	10.71
354.299	11.11
354.669	10.58
355.038	10.84
355.408	10.83
355.777	11.38
356.147	11.04
356.516	11.24
356.885	10.99
357.254	11.43
357.624	10.52
357.993	10.95
358.362	11
358.731	11.06
359.1	11.23
359.469	11.06
359.838	10.74
360.207	11.01
360.576	10.87
360.945	11.07
361.314	11.23
361.682	11.17
362.051	11.5
362.42	11.24
362.788	10.87
363.157	11.27
363.525	10.99
363.894	10.99
364.262	11
364.631	11.02
364.999	10.87
365.367	11.55
365.735	11.19
366.104	11.23
366.472	11.35
366.84	11.36
367.208	11.79
367.576	11.7
367.944	11.27
368.312	11.71
368.68	11.27
369.048	11.62
369.416	11.25
369.783	11.5
370.151	11.16
370.519	11.75
370.886	11.63
371.254	11.54
371.621	11.25
371.989	11.64
372.356	11.31
372.724	11.95
373.091	11.74
373.458	11.59
373.826	11.71
374.193	11.56
374.56	11.84
374.927	11.79
375.294	11.54
375.661	11.84
376.028	11.68
376.395	11.98
376.762	11.53
377.129	11.93
377.496	11.69
377.863	11.75
378.229	11.89
378.596	11.7
378.963	11.92
379.329	11.73
379.696	11.95
380.062	11.57
380.429	11.62
380.795	11.55
381.161	11.51
381.528	11.52
381.894	11.46
382.26	11.57
382.626	11.66
382.993	11.75
383.359	11.29
383.725	11.58
384.091	11.47
384.457	11.52
384.823	11.45
385.188	11.66
385.554	11.36
385.92	11.64
386.286	11.67
386.651	11.5
387.017	11.49
387.383	11.33
387.748	11.37
388.114	11.27
388.479	11.49
388.845	10.95
389.21	11.23
389.575	11.61
389.94	10.93
390.306	11.19
390.671	11.59
391.036	10.97
391.401	11.37
391.766	11.1
392.131	11.05
392.496	11.1
392.861	10.98
393.226	10.99
393.591	11.19
393.956	10.94
394.32	10.81
394.685	10.62
395.05	10.96
395.414	11.03
395.779	10.9
396.143	10.87
396.508	10.65
396.872	10.46
397.236	10.75
397.601	10.54
397.965	10.62
398.329	10.65
398.694	10.67
399.058	10.49
399.422	10.46
399.786	10.48
400.15	10.49
400.514	10.28
400.878	10.39
401.242	10.43
401.605	10.03
401.969	10.1
402.333	10.26
402.697	9.95
403.06	10.15
403.424	10.2
403.787	10.25
404.151	10.25
404.514	10.33
404.878	10.36
405.241	10.38
405.604	10.05
405.968	9.89
406.331	9.8
406.694	9.81
407.057	9.77
407.42	9.8
407.783	9.75
408.146	9.87
408.509	9.58
408.872	9.77
409.235	9.84
409.598	9.79
409.961	9.88
410.323	9.86
410.686	9.58
411.049	9.85
411.411	9.86
411.774	9.66
412.136	9.54
412.499	9.57
412.861	9.7
413.223	9.81
413.586	9.61
413.948	9.79
414.31	9.69
414.672	9.66
415.035	9.7
415.397	10.01
415.759	10.21
416.121	9.65
416.483	9.61
416.845	9.74
417.206	9.77
417.568	9.94
417.93	9.91
418.292	10.05
418.653	9.89
419.015	10.08
419.377	9.95
419.738	10.11
420.1	9.92
420.461	10.07
420.822	10.2
421.184	10.15
421.545	10.23
421.906	10.29
422.267	10.32
422.629	10.36
422.99	10.23
423.351	10.32
423.712	10.47
424.073	10.49
424.434	10.7
424.795	10.79
425.155	11.02
425.516	10.9
425.877	11.01
426.238	10.97
426.598	11.16
426.959	11.27
427.32	11.4
427.68	11.31
428.041	11.49
428.401	11.68
428.761	12.05
429.122	12
429.482	12.15
429.842	12.16
430.202	12.49
430.563	12.56
430.923	12.64
431.283	12.86
431.643	13.06
432.003	12.81
432.363	13.05
432.722	13.36
433.082	13.22
433.442	13.15
433.802	13.56
434.161	13.34
434.521	13.55
434.881	13.86
435.24	13.75
435.6	13.71
435.959	13.67
436.319	13.96
436.678	14.01
437.037	14.06
437.396	14.21
437.756	14.4
438.115	14.43
438.474	14.57
438.833	14.55
439.192	14.75
439.551	14.62
439.91	14.84
440.269	15.04
440.628	14.74
440.987	15.1
441.345	15.14
441.704	15.17
442.063	15.09
442.421	15.28
442.78	15.26
443.138	15.33
443.497	15.3
443.855	15.57
444.214	15.38
444.572	15.8
444.93	15.76
445.288	15.87
445.647	15.95
446.005	15.83
446.363	15.85
446.721	16.14
447.079	16.06
447.437	16.21
447.795	16.09
448.153	16.08
448.51	16.14
448.868	16
449.226	16.21
449.584	16.17
449.941	16.23
450.299	16.53
450.656	16.62
451.014	16.88
451.371	16.67
451.729	16.69
452.086	16.93
452.443	17.06
452.801	17.05
453.158	17.06
453.515	17.18
453.872	17.14
454.229	17.5
454.586	17.44
454.943	17.41
455.3	17.38
455.657	17.53
456.014	17.56
456.371	17.82
456.727	17.94
457.084	17.82
457.441	17.76
457.797	17.95
458.154	17.94
458.51	17.94
458.867	18.17
459.223	18.21
459.58	18.42
459.936	18.45
460.292	18.45
460.648	18.67
461.005	18.59
461.361	18.49
461.717	18.18
462.073	18.24
462.429	18.34
462.785	18.39
463.141	18.51
463.496	18.84
463.852	18.87
464.208	19.05
464.564	19.29
464.919	19.21
465.275	19.47
465.631	19.62
465.986	19.7
466.342	19.57
466.697	19.64
467.052	19.35
467.408	19.67
467.763	19.77
468.118	19.88
468.473	19.76
468.829	19.72
469.184	19.94
469.539	19.83
469.894	19.99
470.249	20.21
470.603	20.33
470.958	20.1
471.313	20.33
471.668	20.42
472.023	20.51
472.377	20.3
472.732	20.37
473.086	20.65
473.441	20.32
473.795	20.64
474.15	20.26
474.504	20.73
474.859	20.92
475.213	20.53
475.567	20.66
475.921	20.99
476.275	21
476.63	20.98
476.984	20.85
477.338	21.08
477.692	21.27
478.045	21.25
478.399	21.16
478.753	21.16
479.107	21.13
479.461	21.28
479.814	21.4
480.168	21.32
480.521	21.28
480.875	21.44
481.228	21.18
481.582	21.26
481.935	21.53
482.289	21.46
482.642	21.41
482.995	21.61
483.348	21.43
483.701	21.48
484.055	21.42
484.408	21.27
484.761	21.3
485.114	21.23
485.466	20.97
485.819	20.64
486.172	20.54
486.525	20.66
486.878	20.75
487.23	20.99
487.583	21.04
487.936	21.21
488.288	21.34
488.641	21.51
488.993	21.25
489.345	21.26
489.698	21.09
490.05	21.13
490.402	21.27
490.754	21.21
491.107	21.42
491.459	21.64
491.811	21.77
492.163	21.94
492.515	22.05
492.866	22.02
493.218	22.04
493.57	21.68
493.922	21.57
494.274	21.58
494.625	21.79
494.977	21.98
495.328	22.17
495.68	22.36
496.031	22.39
496.383	22.67
496.734	22.75
497.086	22.91
497.437	22.83
497.788	22.83
498.139	22.92
498.49	22.92
498.842	22.83
499.193	22.66
499.544	22.82
499.894	22.83
500.245	22.92
500.596	22.97
500.947	23.12
501.298	23.18
501.648	23.25
501.999	23.14
502.35	23.18
502.7	23.28
503.051	23.25
503.401	23.27
503.752	23.52
504.102	23.46
504.452	23.66
504.803	23.47
505.153	23.52
505.503	23.31
505.853	23.44
506.203	23.59
506.553	23.4
506.903	23.39
507.253	23.49
507.603	23.78
507.953	23.73
508.303	23.62
508.652	23.68
509.002	23.78
509.352	23.67
509.701	23.73
510.051	23.8
510.4	23.61
510.75	23.64
511.099	23.5
511.449	23.64
511.798	23.75
512.147	23.59
512.496	23.58
512.846	23.64
513.195	23.81
513.544	23.79
513.893	23.79
514.242	23.59
514.591	23.68
514.939	23.84
515.288	23.86
515.637	23.9
515.986	23.87
516.334	24.12
516.683	23.93
517.032	24.14
517.38	24.04
517.729	23.81
518.077	24
518.426	24.07
518.774	24.03
519.122	23.98
519.47	23.7
519.819	23.94
520.167	23.73
520.515	23.69
520.863	23.5
521.211	23.49
521.559	23.62
521.907	23.65
522.255	23.83
522.602	23.79
522.95	24.03
523.298	23.88
523.645	23.89
523.993	23.9
524.341	23.82
524.688	24.01
525.036	24.04
525.383	23.91
525.73	24.22
526.078	23.95
526.425	24.01
526.772	24.03
527.119	23.95
527.466	23.77
527.814	23.44
528.161	23.47
528.508	23.54
528.854	23.6
529.201	23.66
529.548	23.66
529.895	23.61
530.242	23.32
530.588	23.17
530.935	23.06
531.282	23.1
531.628	23.26
531.975	23.31
532.321	23.41
532.667	23.5
533.014	23.73
533.36	23.89
533.706	23.94
534.052	23.99
534.399	23.94
534.745	23.9
535.091	23.69
535.437	23.52
535.783	23.38
536.129	23.41
536.474	23.86
536.82	23.89
537.166	24.11
537.512	24.29
537.857	24.16
538.203	24.33
538.549	24.22
538.894	23.93
539.239	23.93
539.585	24.13
539.93	24.47
540.276	24.42
540.621	24.56
540.966	24.56
541.311	24.66
541.656	24.67
542.001	24.71
542.346	24.64
542.691	24.64
543.036	24.43
543.381	24.24
543.726	23.94
544.071	24.05
544.415	24.19
544.76	24.26
545.105	24.39
545.449	24.34
545.794	24.69
546.138	24.76
546.483	24.99
546.827	24.87
547.171	25.15
547.516	25.22
547.86	25.34
548.204	25.26
548.548	25.36
548.892	25.4
549.236	25.08
549.58	25.31
549.924	25.61
550.268	25.71
550.612	25.81
550.956	25.82
551.3	25.78
551.643	25.88
551.987	26.29
552.33	26.1
552.674	26.18
553.017	26.22
553.361	26.1
553.704	26.66
554.048	26.37
554.391	26.32
554.734	26.35
555.077	26.13
555.42	26.18
555.764	26.61
556.107	26.42
556.45	26.53
556.793	26.51
557.135	26.42
557.478	26.44
557.821	26.61
558.164	26.84
558.507	26.82
558.849	26.82
559.192	27.06
559.534	27.08
559.877	26.84
560.219	27.05
560.562	27.11
560.904	27.01
561.246	27.43
561.589	27.16
561.931	27.14
562.273	27.24
562.615	27.21
562.957	27.16
563.299	27.26
563.641	27.33
563.983	27.18
564.325	27.35
564.667	27.32
565.008	27.39
565.35	27.31
565.692	27.32
566.033	27.42
566.375	27.51
566.716	27.41
567.058	27.55
567.399	27.48
567.741	27.5
568.082	27.43
568.423	27.36
568.764	27.59
569.105	27.27
569.447	27.52
569.788	27.54
570.129	27.8
570.47	27.84
570.811	27.93
571.151	27.8
571.492	27.77
571.833	27.84
572.174	27.81
572.514	28.09
572.855	28.09
573.195	28.11
573.536	28.11
573.876	28.1
574.217	28.25
574.557	28.05
574.898	28.17
575.238	28.29
575.578	28.39
575.918	28.42
576.258	28.57
576.598	28.75
576.938	28.74
577.278	28.96
577.618	28.55
577.958	28.75
578.298	28.88
578.638	28.86
578.977	28.98
579.317	28.88
579.657	29.03
579.996	29.18
580.336	29.5
580.675	29.42
581.014	29.69
581.354	29.3
581.693	29.77
582.032	29.99
582.372	29.67
582.711	30.01
583.05	29.69
583.389	29.95
583.728	30.25
584.067	29.97
584.406	30.26
584.745	30.29
585.083	30.27
585.422	30.61
585.761	30.35
586.1	30.39
586.438	30.42
586.777	30.79
587.115	30.62
587.454	30.64
587.792	30.88
588.13	31.1
588.469	31.18
588.807	31.21
589.145	31.19
589.483	31.26
589.821	30.95
590.159	31.52
590.497	31.51
590.835	31.24
591.173	31.36
591.511	31.55
591.849	31.63
592.187	31.33
592.524	31.67
592.862	31.69
593.2	31.46
593.537	31.57
593.875	31.98
594.212	31.91
594.55	32.22
594.887	32.09
595.224	32.04
595.561	32.44
595.899	32.22
596.236	32.67
596.573	32.32
596.91	32.3
597.247	32.47
597.584	32.66
597.921	32.6
598.258	32.7
598.594	32.71
598.931	32.45
599.268	32.5
599.604	32.27
599.941	32.51
600.277	32.61
600.614	32.63
600.95	32.93
601.287	32.98
601.623	33.47
601.959	33.39
602.296	33.34
602.632	33.47
602.968	33.53
603.304	33.64
603.64	33.65
603.976	33.58
604.312	33.43
604.648	33.56
604.984	33.88
605.319	33.45
605.655	33.63
605.991	33.56
606.326	33.55
606.662	33.36
606.998	33.59
607.333	33.45
607.668	33.78
608.004	33.67
608.339	33.9
608.674	34.03
609.01	34.39
609.345	34.16
609.68	34.44
610.015	34.33
610.35	34.4
610.685	34.5
611.02	34.7
611.355	34.59
611.689	34.23
612.024	34.23
612.359	34.23
612.694	34.46
613.028	34.42
613.363	34.54
613.697	34.59
614.032	35.09
614.366	34.86
614.7	34.62
615.035	34.65
615.369	35.02
615.703	35.01
616.037	35.41
616.371	35.18
616.705	35.68
617.039	35.01
617.373	35.55
617.707	35.71
618.041	35.24
618.375	35.5
618.709	35.51
619.042	35.82
619.376	35.67
619.71	35.71
620.043	35.72
620.377	35.64
620.71	35.65
621.043	35.96
621.377	35.58
621.71	35.99
622.043	35.59
622.376	36.04
622.709	35.88
623.043	36.16
623.376	36.04
623.709	36.25
624.041	36
624.374	36.12
624.707	36.22
625.04	36.32
625.373	36.41
625.705	36.36
626.038	36
626.37	36.57
626.703	36.69
627.035	36.27
627.368	36.51
627.7	36.89
628.032	36.43
628.365	36.68
628.697	36.75
629.029	36.67
629.361	36.68
629.693	36.85
630.025	36.37
630.357	36.74
630.689	37.18
631.021	36.84
631.353	37.44
631.684	37.12
632.016	37.1
632.348	37.23
632.679	37.23
633.011	37.37
633.342	37.21
633.674	37.62
634.005	37.01
634.336	37.53
634.668	37.78
634.999	38.12
635.33	37.76
635.661	37.71
635.992	38.13
636.323	37.87
636.654	37.84
636.985	37.95
637.316	38.46
637.647	37.99
637.977	38.04
638.308	38.71
638.639	38.4
638.969	39.12
639.3	38.31
639.63	38.63
639.961	38.78
640.291	39.08
640.622	38.8
640.952	38.9
641.282	39.22
641.612	39.37
641.943	39.23
642.273	39.68
642.603	39.56
642.933	39.29
643.263	38.97
643.592	39.15
643.922	39.64
644.252	39.36
644.582	40.36
644.911	39.37
645.241	40.06
645.571	40.14
645.9	40.2
646.23	40.93
646.559	40.52
646.888	40.86
647.218	39.71
647.547	40.19
647.876	40.49
648.205	40.34
648.534	41.31
648.863	40.81
649.192	40.78
649.521	41.25
649.85	41.7
650.179	41.17
650.508	41.11
650.837	41.11
651.165	41.9
651.494	41.3
651.822	41.36
652.151	41.43
652.479	41.07
652.808	41.39
653.136	41.85
653.465	41.95
653.793	41.81
654.121	42
654.449	41.57
654.777	41.99
655.105	41.54
655.433	42.17
655.761	42.44
656.089	41.9
656.417	42.7
656.745	42.76
657.073	42.74
657.4	42.98
657.728	42.67
658.056	43.08
658.383	42.3
658.711	42.48
659.038	42.72
659.365	42.88
659.693	43.34
660.02	43.48
660.347	43.33
660.674	43.05
661.001	42.76
661.329	42.64
661.656	42.99
661.982	43.19
662.309	43.15
662.636	43.27
662.963	43.89
663.29	43.61
663.616	43.32
663.943	43.99
664.27	44.07
664.596	44.05
664.923	43.89
665.249	44.09
665.576	43.73
665.902	43.61
666.228	44.09
666.554	43.75
666.881	44.39
667.207	44.26
667.533	44.02
667.859	44.49
668.185	44.43
668.511	44.35
668.837	44.36
669.162	44.68
669.488	44.18
669.814	44.71
670.139	44.21
670.465	44.93
670.791	44.36
671.116	44.76
