Data from 23-1_chest_Reflection__0__334.txt Node

Date: Fri Sep 22 23:22:58 CDT 2023
User: ToomeyLab
Spectrometer: FLMS14357
Trigger mode: 0
Integration Time (sec): 1.000000E-2
Scans to average: 100
Electric dark correction enabled: true
Nonlinearity correction enabled: false
Boxcar width: 0
XAxis mode: Wavelengths
Number of Pixels in Spectrum: 2048
>>>>>Begin Spectral Data<<<<<
189.047	79.26
189.435	79.26
189.823	79.26
190.211	97.92
190.599	-4364.52
190.987	-18.5
191.375	-314.62
191.763	158.8
192.151	-114.06
192.538	-494.09
192.926	98.7
193.314	85.68
193.702	32.45
194.089	59.56
194.477	5.74
194.864	108.93
195.252	5.33
195.639	64.6
196.027	156.87
196.414	16.86
196.801	-468.8
197.189	-422.31
197.576	109.33
197.963	71.91
198.351	22.89
198.738	-10.53
199.125	-20.15
199.512	24.59
199.899	47.49
200.286	6.79
200.673	-9.1
201.06	10.6
201.447	31.82
201.833	-50.9
202.22	6.36
202.607	17.42
202.994	32.31
203.38	4.34
203.767	41.75
204.154	34.86
204.54	37.91
204.927	6.26
205.313	47.23
205.699	31.55
206.086	47.02
206.472	60.48
206.858	14.77
207.245	1.62
207.631	15.26
208.017	23.93
208.403	-12.19
208.789	14.22
209.175	42.95
209.561	15.63
209.947	40.32
210.333	13.66
210.719	-0.92
211.105	42.69
211.491	10.85
211.876	44.23
212.262	25.54
212.648	30.46
213.034	32.78
213.419	43.14
213.805	28.54
214.19	3.28
214.576	27.41
214.961	14.84
215.346	27.34
215.732	12.32
216.117	-10.94
216.502	18.88
216.888	29.15
217.273	8.46
217.658	1.36
218.043	23.81
218.428	31.81
218.813	-48.09
219.198	23.05
219.583	-1.22
219.968	-10.24
220.353	32.47
220.738	-5.79
221.122	-26.19
221.507	12.59
221.892	-11.08
222.276	15.38
222.661	-4.34
223.046	26.86
223.43	18.18
223.815	-2.99
224.199	-1.54
224.583	13.83
224.968	13.56
225.352	5.25
225.736	9.73
226.121	2.41
226.505	8.14
226.889	0.02
227.273	11.89
227.657	5.85
228.041	9.41
228.425	6.18
228.809	1.73
229.193	4.49
229.577	6.19
229.961	5.33
230.344	6.51
230.728	5.55
231.112	6.15
231.495	5.87
231.879	5.33
232.263	3.93
232.646	4.68
233.03	4.41
233.413	5.1
233.797	5.3
234.18	6.91
234.563	6.47
234.946	5.08
235.33	2.77
235.713	4.16
236.096	5.77
236.479	4.53
236.862	6.7
237.245	6.28
237.628	6.11
238.011	7.38
238.394	5.55
238.777	6.75
239.16	4.79
239.543	6.76
239.925	5.84
240.308	3.75
240.691	5.11
241.073	6.94
241.456	6.63
241.838	5.8
242.221	4.95
242.603	5.07
242.986	3.97
243.368	5.18
243.75	5.64
244.133	5.22
244.515	5.07
244.897	5.16
245.279	5.33
245.661	5.19
246.043	5.04
246.425	5.28
246.807	5.46
247.189	4.15
247.571	5.6
247.953	5.36
248.335	5.25
248.717	5.06
249.098	5.46
249.48	5.16
249.862	5.07
250.243	5.14
250.625	5.68
251.006	4.99
251.388	5.47
251.769	5.15
252.151	4.96
252.532	5.73
252.913	5.33
253.295	5.89
253.676	5.35
254.057	5.28
254.438	5.55
254.819	4.51
255.2	5.57
255.581	5.03
255.962	5.1
256.343	5.32
256.724	5.56
257.105	4.6
257.486	5.17
257.867	5.16
258.247	4.77
258.628	5.43
259.009	4.55
259.389	4.85
259.77	5.62
260.15	5.32
260.531	5.1
260.911	5.05
261.292	5.15
261.672	4.76
262.052	5
262.432	5.14
262.813	5.15
263.193	4.54
263.573	5.86
263.953	4.99
264.333	4.71
264.713	5.29
265.093	4.99
265.473	4.86
265.853	4.6
266.233	4.38
266.612	4.64
266.992	5.18
267.372	5.31
267.752	5.53
268.131	4.99
268.511	4.7
268.89	5.28
269.27	4.9
269.649	5.12
270.029	4.71
270.408	4.9
270.787	5.11
271.167	4.92
271.546	4.52
271.925	4.31
272.304	4.17
272.683	5.04
273.062	5.24
273.441	4.72
273.82	5.26
274.199	4.72
274.578	4.77
274.957	4.78
275.336	4.56
275.715	4.91
276.093	4.62
276.472	4.44
276.851	4.81
277.229	4.34
277.608	5.01
277.986	4.54
278.365	5.55
278.743	4.81
279.122	4.98
279.5	5.12
279.878	4.66
280.257	4.47
280.635	4.84
281.013	4.87
281.391	4.28
281.769	4.72
282.147	4.92
282.525	4.91
282.903	4.94
283.281	4.64
283.659	4.81
284.037	4.6
284.415	4.94
284.792	4.19
285.17	4.9
285.548	5.28
285.925	4.69
286.303	4.91
286.68	4.45
287.058	4.53
287.435	4.53
287.813	4.91
288.19	4.52
288.567	4.49
288.945	4.56
289.322	4.84
289.699	4.45
290.076	4.87
290.453	4.32
290.83	4.49
291.207	4.47
291.584	4.4
291.961	4.3
292.338	4.67
292.715	4.96
293.092	4.41
293.469	4.93
293.845	4.59
294.222	4.74
294.599	5.04
294.975	5
295.352	4.49
295.728	4.66
296.105	5.24
296.481	4.65
296.858	5.16
297.234	4.74
297.61	5.15
297.986	4.83
298.363	4.55
298.739	4.96
299.115	5
299.491	4.96
299.867	4.95
300.243	4.41
300.619	4.86
300.995	4.9
301.371	5.24
301.746	5.16
302.122	4.86
302.498	4.36
302.874	4.42
303.249	4.86
303.625	5.02
304	5.24
304.376	4.84
304.751	4.99
305.127	4.87
305.502	5
305.878	5.02
306.253	5.08
306.628	5.05
307.003	5.27
307.378	4.89
307.754	4.61
308.129	4.86
308.504	4.79
308.879	4.94
309.254	4.9
309.629	5.67
310.003	5.42
310.378	5.19
310.753	5.2
311.128	5.26
311.502	5.65
311.877	4.88
312.252	5.18
312.626	5.02
313.001	5.43
313.375	5.07
313.75	5.51
314.124	5.72
314.498	5.01
314.873	5.38
315.247	5.65
315.621	5.07
315.995	5.33
316.369	5.37
316.743	4.89
317.117	5.66
317.491	5.89
317.865	5.29
318.239	5
318.613	5.14
318.987	5.19
319.361	4.89
319.734	5.54
320.108	6.02
320.482	4.62
320.855	4.82
321.229	5.72
321.602	5.6
321.976	5.17
322.349	5.56
322.723	4.92
323.096	5.2
323.469	5.62
323.843	4.8
324.216	5.05
324.589	5.6
324.962	4.96
325.335	4.84
325.708	5.26
326.081	5.49
326.454	4.48
326.827	5.6
327.2	5.22
327.573	5.69
327.945	5.01
328.318	5.44
328.691	5.21
329.063	5.19
329.436	5.53
329.809	5.63
330.181	5.54
330.553	5.41
330.926	5.65
331.298	5.1
331.671	5.29
332.043	4.91
332.415	5.1
332.787	5.62
333.159	5.66
333.532	5.03
333.904	5.21
334.276	4.77
334.648	4.67
335.02	5
335.391	5.11
335.763	5.12
336.135	5.4
336.507	5.47
336.879	4.62
337.25	5.03
337.622	5.37
337.993	4.7
338.365	5.59
338.736	5.3
339.108	5.1
339.479	5.36
339.851	4.79
340.222	4.86
340.593	5.25
340.964	4.95
341.336	4.89
341.707	5.02
342.078	5.49
342.449	5.26
342.82	5
343.191	4.82
343.562	5.48
343.933	5.64
344.303	5.07
344.674	5.32
345.045	5.34
345.416	5.4
345.786	5.41
346.157	5.04
346.527	5.61
346.898	4.95
347.268	5.27
347.639	4.83
348.009	5.26
348.38	5.25
348.75	5.34
349.12	5.19
349.49	5.42
349.861	5.47
350.231	5.36
350.601	5.35
350.971	5.66
351.341	5.01
351.711	4.94
352.081	4.9
352.45	5.58
352.82	5.41
353.19	5.28
353.56	5.17
353.929	5.1
354.299	4.96
354.669	4.93
355.038	5.34
355.408	4.95
355.777	5.64
356.147	5.37
356.516	5.37
356.885	4.77
357.254	5.48
357.624	4.88
357.993	5.06
358.362	5.4
358.731	4.97
359.1	5.3
359.469	5.19
359.838	5.03
360.207	5.1
360.576	5.15
360.945	5.2
361.314	5.28
361.682	5.26
362.051	5.3
362.42	5.18
362.788	5.17
363.157	5.17
363.525	5.16
363.894	5.31
364.262	5.22
364.631	5
364.999	5.01
365.367	5.07
365.735	5.2
366.104	5.18
366.472	5.46
366.84	5.36
367.208	5.66
367.576	5.36
367.944	5.32
368.312	5.23
368.68	5.35
369.048	5.43
369.416	5.29
369.783	5.11
370.151	4.95
370.519	5.03
370.886	5.16
371.254	5.3
371.621	5.04
371.989	5.32
372.356	5.04
372.724	5.53
373.091	5.53
373.458	5.05
373.826	5.36
374.193	5.26
374.56	5.37
374.927	5.67
375.294	5.39
375.661	5.36
376.028	5.28
376.395	5.5
376.762	5.49
377.129	5.64
377.496	5.54
377.863	5.42
378.229	5.65
378.596	5.32
378.963	5.87
379.329	5.37
379.696	5.5
380.062	5.22
380.429	5.54
380.795	5.3
381.161	5.31
381.528	5.15
381.894	5.07
382.26	5.03
382.626	5.01
382.993	5.22
383.359	5.26
383.725	5.17
384.091	5.45
384.457	5.36
384.823	5.44
385.188	5.56
385.554	5.06
385.92	5.48
386.286	5.22
386.651	5.35
387.017	5.54
387.383	5.22
387.748	5.29
388.114	5.11
388.479	5.33
388.845	5.03
389.21	4.87
389.575	5.19
389.94	5.21
390.306	5.36
390.671	5.52
391.036	4.94
391.401	5.26
391.766	4.94
392.131	5.12
392.496	5.63
392.861	5.29
393.226	5.75
393.591	5.39
393.956	5.2
394.32	5.17
394.685	5.29
395.05	5.39
395.414	5.28
395.779	5.16
396.143	5.28
396.508	5.18
396.872	5.07
397.236	5.2
397.601	5.19
397.965	5.61
398.329	5.4
398.694	5.36
399.058	5.55
399.422	5.29
399.786	5.31
400.15	5.42
400.514	5.29
400.878	5.45
401.242	5.45
401.605	5.17
401.969	5.07
402.333	5.38
402.697	5.27
403.06	5.18
403.424	5.29
403.787	5.33
404.151	5.37
404.514	5.51
404.878	5.32
405.241	5.7
405.604	5.54
405.968	5.39
406.331	5.4
406.694	5.32
407.057	5.21
407.42	5.44
407.783	5.14
408.146	5.24
408.509	5.23
408.872	5.02
409.235	5.24
409.598	5.32
409.961	5.4
410.323	5.29
410.686	5.39
411.049	5.38
411.411	5.3
411.774	5.27
412.136	5.05
412.499	5.22
412.861	5.18
413.223	5.2
413.586	5.07
413.948	5.31
414.31	5.26
414.672	5.28
415.035	5.35
415.397	5.39
415.759	5.56
416.121	5.12
416.483	5.16
416.845	5.24
417.206	5.15
417.568	5.2
417.93	5.29
418.292	5.21
418.653	5.06
419.015	5.35
419.377	5.27
419.738	5.23
420.1	5.06
420.461	5.34
420.822	5.22
421.184	5.17
421.545	5.25
421.906	5.22
422.267	5.2
422.629	5.25
422.99	5.13
423.351	5.12
423.712	5.12
424.073	5.13
424.434	5.33
424.795	5.29
425.155	5.37
425.516	5.26
425.877	5.32
426.238	5.1
426.598	5.17
426.959	5.23
427.32	5.32
427.68	5.28
428.041	5.3
428.401	5.36
428.761	5.46
429.122	5.31
429.482	5.52
429.842	5.32
430.202	5.38
430.563	5.38
430.923	5.46
431.283	5.38
431.643	5.49
432.003	5.5
432.363	5.55
432.722	5.43
433.082	5.57
433.442	5.5
433.802	5.53
434.161	5.37
434.521	5.41
434.881	5.56
435.24	5.47
435.6	5.38
435.959	5.41
436.319	5.5
436.678	5.55
437.037	5.33
437.396	5.36
437.756	5.54
438.115	5.56
438.474	5.54
438.833	5.69
439.192	5.51
439.551	5.45
439.91	5.69
440.269	5.58
440.628	5.3
440.987	5.49
441.345	5.41
441.704	5.58
442.063	5.55
442.421	5.36
442.78	5.52
443.138	5.48
443.497	5.48
443.855	5.39
444.214	5.4
444.572	5.64
444.93	5.55
445.288	5.56
445.647	5.69
446.005	5.52
446.363	5.4
446.721	5.56
447.079	5.45
447.437	5.49
447.795	5.66
448.153	5.45
448.51	5.55
448.868	5.41
449.226	5.52
449.584	5.48
449.941	5.34
450.299	5.49
450.656	5.57
451.014	5.51
451.371	5.63
451.729	5.58
452.086	5.53
452.443	5.6
452.801	5.77
453.158	5.59
453.515	5.6
453.872	5.61
454.229	5.72
454.586	5.69
454.943	5.65
455.3	5.49
455.657	5.71
456.014	5.65
456.371	5.72
456.727	5.72
457.084	5.78
457.441	5.54
457.797	5.77
458.154	5.61
458.51	5.59
458.867	5.68
459.223	5.84
459.58	5.69
459.936	5.68
460.292	5.66
460.648	5.72
461.005	5.7
461.361	5.63
461.717	5.51
462.073	5.58
462.429	5.47
462.785	5.55
463.141	5.61
463.496	5.81
463.852	5.69
464.208	5.65
464.564	5.72
464.919	5.54
465.275	5.88
465.631	5.84
465.986	5.73
466.342	5.69
466.697	5.83
467.052	5.64
467.408	5.83
467.763	5.59
468.118	5.82
468.473	5.78
468.829	5.78
469.184	5.65
469.539	5.77
469.894	5.74
470.249	5.86
470.603	5.79
470.958	5.79
471.313	5.8
471.668	5.89
472.023	5.94
472.377	5.79
472.732	5.73
473.086	6
473.441	5.63
473.795	6.11
474.15	5.57
474.504	5.77
474.859	5.95
475.213	5.7
475.567	5.8
475.921	5.76
476.275	5.78
476.63	5.92
476.984	5.72
477.338	5.89
477.692	5.83
478.045	5.99
478.399	5.9
478.753	5.8
479.107	5.74
479.461	5.82
479.814	5.89
480.168	5.85
480.521	5.8
480.875	5.9
481.228	5.74
481.582	5.75
481.935	5.75
482.289	5.74
482.642	5.85
482.995	5.86
483.348	5.81
483.701	5.79
484.055	5.76
484.408	5.74
484.761	5.73
485.114	5.57
485.466	5.58
485.819	5.47
486.172	5.44
486.525	5.45
486.878	5.5
487.23	5.56
487.583	5.66
487.936	5.72
488.288	5.72
488.641	5.74
488.993	5.62
489.345	5.66
489.698	5.6
490.05	5.57
490.402	5.64
490.754	5.65
491.107	5.72
491.459	5.79
491.811	5.81
492.163	5.73
492.515	5.73
492.866	5.8
493.218	5.76
493.57	5.69
493.922	5.59
494.274	5.66
494.625	5.73
494.977	5.86
495.328	5.9
495.68	5.94
496.031	5.79
496.383	5.99
496.734	5.85
497.086	5.95
497.437	5.97
497.788	6.01
498.139	5.97
498.49	5.92
498.842	5.83
499.193	5.85
499.544	6.02
499.894	5.9
500.245	5.97
500.596	6
500.947	5.98
501.298	6.05
501.648	6.02
501.999	6.1
502.35	5.96
502.7	6.1
503.051	6
503.401	6.16
503.752	6.1
504.102	5.91
504.452	6.02
504.803	5.96
505.153	6.15
505.503	6.14
505.853	6.07
506.203	5.95
506.553	6.04
506.903	6.01
507.253	6.12
507.603	6.21
507.953	6.22
508.303	6.13
508.652	6.07
509.002	6.15
509.352	5.96
509.701	6.12
510.051	6.08
510.4	6.13
510.75	6.15
511.099	5.97
511.449	6.15
511.798	6.2
512.147	6.07
512.496	6.01
512.846	6.04
513.195	6.11
513.544	6.11
513.893	6.26
514.242	6.12
514.591	6.21
514.939	6.2
515.288	6.12
515.637	6.21
515.986	6.09
516.334	6.26
516.683	6.24
517.032	6.28
517.38	6.18
517.729	6.21
518.077	6.2
518.426	6.22
518.774	6.31
519.122	6.33
519.47	6.18
519.819	6.14
520.167	6.17
520.515	6.14
520.863	6.07
521.211	6.06
521.559	6.22
521.907	6.21
522.255	6.2
522.602	6.24
522.95	6.32
523.298	6.39
523.645	6.3
523.993	6.29
524.341	6.22
524.688	6.35
525.036	6.33
525.383	6.35
525.73	6.29
526.078	6.38
526.425	6.18
526.772	6.41
527.119	6.37
527.466	6.2
527.814	6.18
528.161	6.17
528.508	6.23
528.854	6.34
529.201	6.29
529.548	6.27
529.895	6.24
530.242	6.14
530.588	5.99
530.935	5.98
531.282	5.99
531.628	6.13
531.975	6.12
532.321	6.2
532.667	6.28
533.014	6.31
533.36	6.43
533.706	6.36
534.052	6.45
534.399	6.38
534.745	6.32
535.091	6.29
535.437	6.24
535.783	6.19
536.129	6.26
536.474	6.39
536.82	6.33
537.166	6.46
537.512	6.51
537.857	6.46
538.203	6.48
538.549	6.42
538.894	6.36
539.239	6.46
539.585	6.4
539.93	6.65
540.276	6.55
540.621	6.46
540.966	6.55
541.311	6.58
541.656	6.6
542.001	6.68
542.346	6.53
542.691	6.62
543.036	6.41
543.381	6.38
543.726	6.36
544.071	6.38
544.415	6.41
544.76	6.47
545.105	6.46
545.449	6.49
545.794	6.6
546.138	6.66
546.483	6.62
546.827	6.55
547.171	6.69
547.516	6.74
547.86	6.68
548.204	6.7
548.548	6.71
548.892	6.79
549.236	6.7
549.58	6.67
549.924	6.79
550.268	6.94
550.612	6.8
550.956	6.9
551.3	7.04
551.643	7.03
551.987	6.96
552.33	7.05
552.674	6.77
553.017	6.94
553.361	6.77
553.704	7.09
554.048	6.97
554.391	6.94
554.734	7.16
555.077	6.84
555.42	6.99
555.764	7.03
556.107	7.07
556.45	6.99
556.793	6.87
557.135	6.88
557.478	6.88
557.821	7.05
558.164	7.11
558.507	7.36
558.849	6.91
559.192	7.22
559.534	7.37
559.877	7.06
560.219	7.22
560.562	7.28
560.904	7.36
561.246	7.34
561.589	7.18
561.931	7.29
562.273	7.01
562.615	7.19
562.957	7.16
563.299	7.39
563.641	7.41
563.983	7.34
564.325	7.3
564.667	7.29
565.008	7.22
565.35	7.52
565.692	7.23
566.033	7.35
566.375	7.35
566.716	7.41
567.058	7.46
567.399	7.54
567.741	7.61
568.082	7.37
568.423	7.43
568.764	7.75
569.105	7.46
569.447	7.56
569.788	7.33
570.129	7.59
570.47	7.63
570.811	7.62
571.151	7.55
571.492	7.55
571.833	7.57
572.174	7.63
572.514	7.62
572.855	7.49
573.195	7.52
573.536	7.73
573.876	7.47
574.217	7.38
574.557	7.43
574.898	7.68
575.238	7.63
575.578	7.63
575.918	7.72
576.258	7.59
576.598	7.72
576.938	7.82
577.278	7.81
577.618	7.61
577.958	7.87
578.298	7.99
578.638	7.69
578.977	8
579.317	7.98
579.657	7.89
579.996	7.99
580.336	7.91
580.675	7.95
581.014	7.78
581.354	7.81
581.693	7.95
582.032	8.21
582.372	8.12
582.711	8
583.05	7.96
583.389	8.14
583.728	8.11
584.067	8.01
584.406	8.27
584.745	8.03
585.083	8.15
585.422	8.17
585.761	8.21
586.1	8.18
586.438	8.03
586.777	8.23
587.115	8.33
587.454	8.24
587.792	8.25
588.13	8.31
588.469	8.24
588.807	8.43
589.145	8.33
589.483	8.33
589.821	8.26
590.159	8.34
590.497	8.57
590.835	8.31
591.173	8.41
591.511	8.65
591.849	8.54
592.187	8.46
592.524	8.62
592.862	8.48
593.2	8.4
593.537	8.36
593.875	8.55
594.212	8.72
594.55	8.75
594.887	8.57
595.224	8.78
595.561	8.72
595.899	8.76
596.236	8.87
596.573	8.86
596.91	8.93
597.247	8.67
597.584	8.9
597.921	9.05
598.258	8.79
598.594	8.82
598.931	8.69
599.268	8.81
599.604	8.88
599.941	8.8
600.277	9.07
600.614	8.87
600.95	8.84
601.287	8.82
601.623	9.07
601.959	9.2
602.296	9
602.632	8.83
602.968	9.08
603.304	9.19
603.64	9.2
603.976	9.25
604.312	9.15
604.648	9.18
604.984	9
605.319	9.2
605.655	9.06
605.991	9.02
606.326	9.05
606.662	9.06
606.998	9.06
607.333	9.13
607.668	9.21
608.004	9.32
608.339	9.17
608.674	9.33
609.01	9.2
609.345	9.45
609.68	9.51
610.015	9.43
610.35	9.45
610.685	9.66
611.02	9.55
611.355	9.66
611.689	9.28
612.024	9.29
612.359	9.29
612.694	9.52
613.028	9.35
613.363	9.36
613.697	9.27
614.032	9.65
614.366	9.63
614.7	9.49
615.035	9.7
615.369	9.49
615.703	9.47
616.037	9.47
616.371	10.18
616.705	10.05
617.039	9.84
617.373	9.83
617.707	9.83
618.041	10.12
618.375	10.1
618.709	9.81
619.042	9.71
619.376	10.05
619.71	10.1
620.043	9.54
620.377	9.79
620.71	10.12
621.043	10.1
621.377	10.17
621.71	9.97
622.043	10.29
622.376	10.27
622.709	10.1
623.043	10.28
623.376	10.45
623.709	10.5
624.041	10.25
624.374	10.29
624.707	10.2
625.04	10.25
625.373	10.09
625.705	10.55
626.038	10.39
626.37	10.31
626.703	10.26
627.035	10.21
627.368	10.53
627.7	10.6
628.032	10.66
628.365	10.46
628.697	10.44
629.029	10.58
629.361	10.13
629.693	10.65
630.025	10.56
630.357	10.38
630.689	10.84
631.021	10.51
631.353	10.65
631.684	10.65
632.016	10.67
632.348	10.76
632.679	10.56
633.011	10.64
633.342	10.82
633.674	11.04
634.005	10.7
634.336	10.83
634.668	10.82
634.999	10.75
635.33	11.03
635.661	10.66
635.992	10.92
636.323	10.73
636.654	10.86
636.985	10.8
637.316	11.15
637.647	10.82
637.977	10.66
638.308	11.29
638.639	11.01
638.969	11.27
639.3	10.87
639.63	11.56
639.961	11.02
640.291	10.9
640.622	11.83
640.952	11.37
641.282	11.39
641.612	10.97
641.943	11.38
642.273	11.46
642.603	11.21
642.933	11.35
643.263	10.75
643.592	11.49
643.922	11.51
644.252	11.25
644.582	11.93
644.911	11.76
645.241	11.79
645.571	11.34
645.9	11.96
646.23	11.99
646.559	11.79
646.888	11.64
647.218	11.56
647.547	11.54
647.876	11.52
648.205	11.35
648.534	12.36
648.863	11.81
649.192	11.89
649.521	11.98
649.85	12.08
650.179	12.09
650.508	11.71
650.837	11.87
651.165	11.51
651.494	12.24
651.822	12.21
652.151	11.84
652.479	12.53
652.808	12.04
653.136	12.14
653.465	12.26
653.793	11.72
654.121	12.35
654.449	12.06
654.777	12.21
655.105	12.39
655.433	12.24
655.761	12.64
656.089	12.17
656.417	12.15
656.745	12.2
657.073	12.35
657.4	13.1
657.728	12.21
658.056	12.34
658.383	12.81
658.711	12.56
659.038	12.42
659.365	12.48
659.693	12.17
660.02	13.12
660.347	13.07
660.674	12.56
661.001	12.43
661.329	12.19
661.656	12.56
661.982	12.37
662.309	12.98
662.636	12.65
662.963	13.12
663.29	13.01
663.616	13.24
663.943	13.29
664.27	13.39
664.596	13.02
664.923	13.48
665.249	12.88
665.576	12.22
665.902	13.41
666.228	13.08
666.554	13.06
666.881	13.04
667.207	13.24
667.533	13.27
667.859	13.28
668.185	13.45
668.511	13.06
668.837	13.46
669.162	13.17
669.488	13.52
669.814	13.23
670.139	13.4
670.465	13.6
670.791	13.33
671.116	13.4
671.442	13.75
671.767	13.2
672.092	13.24
672.418	14.02
672.743	13.24
673.068	13.61
673.393	13.52
673.718	14.01
674.043	13.92
674.368	13.69
674.693	13.39
675.018	13.1
675.343	13.98
675.667	13.54
675.992	13.34
676.317	14.29
676.641	14.35
676.966	14.1
677.29	13.27
677.615	14.08
677.939	14.32
678.264	13.81
678.588	14.74
678.912	14.38
679.236	14.25
679.56	13.91
679.885	14.13
680.209	14.5
680.532	14.21
680.856	14.11
681.18	14.77
681.504	14.1
681.828	14.2
682.152	14.04
682.475	14.52
682.799	14.63
683.122	14.11
683.446	14.48
683.769	14.53
684.093	14.52
684.416	14.5
684.739	14.84
685.062	15.35
685.386	14.39
685.709	15.12
686.032	14.43
686.355	14.54
686.678	14.58
687.001	15.37
687.324	15.14
687.646	14.85
687.969	15.09
688.292	14.76
