Data from 23-1_forehead_Reflection__0__344.txt Node

Date: Fri Sep 22 23:26:07 CDT 2023
User: ToomeyLab
Spectrometer: FLMS14357
Trigger mode: 0
Integration Time (sec): 1.000000E-2
Scans to average: 100
Electric dark correction enabled: true
Nonlinearity correction enabled: false
Boxcar width: 0
XAxis mode: Wavelengths
Number of Pixels in Spectrum: 2048
>>>>>Begin Spectral Data<<<<<
189.047	1.78
189.435	1.78
189.823	1.78
190.211	-17.17
190.599	6264.52
190.987	-27.63
191.375	-180.22
191.763	561.69
192.151	-75.22
192.538	-561.04
192.926	67.87
193.314	178.89
193.702	20.99
194.089	48.57
194.477	-202.92
194.864	95.93
195.252	115.12
195.639	-5.16
196.027	276.54
196.414	-126
196.801	-492.28
197.189	74.38
197.576	114.42
197.963	46.77
198.351	-26.02
198.738	1.21
199.125	15.81
199.512	61.89
199.899	97.93
200.286	21.81
200.673	58.25
201.06	44.24
201.447	33.93
201.833	-39.5
202.22	41.68
202.607	8.87
202.994	53.94
203.38	66.71
203.767	29.28
204.154	29.05
204.54	37.27
204.927	-44.8
205.313	33.63
205.699	43.08
206.086	41.22
206.472	82.9
206.858	35.37
207.245	-0.23
207.631	51.24
208.017	42.63
208.403	28.05
208.789	40.23
209.175	54.95
209.561	48.97
209.947	22.33
210.333	29.5
210.719	-6.01
211.105	28.08
211.491	-3.18
211.876	31.05
212.262	33.72
212.648	95.42
213.034	36.28
213.419	52.5
213.805	32.08
214.19	23.67
214.576	20.73
214.961	7.1
215.346	0.96
215.732	24.33
216.117	-19.1
216.502	17.82
216.888	25.89
217.273	35.94
217.658	3.09
218.043	11.19
218.428	47.21
218.813	-19.8
219.198	37.71
219.583	20.1
219.968	9.11
220.353	56.65
220.738	2.01
221.122	20.37
221.507	-1.3
221.892	-6.86
222.276	7.64
222.661	-15.19
223.046	12.52
223.43	23.29
223.815	7.26
224.199	5.5
224.583	3.47
224.968	14.69
225.352	8.84
225.736	17.84
226.121	8.26
226.505	7.96
226.889	8
227.273	17.83
227.657	10.81
228.041	6.93
228.425	11.36
228.809	6.32
229.193	6.62
229.577	5.22
229.961	9.4
230.344	8.18
230.728	3.91
231.112	5.44
231.495	3.89
231.879	4.36
232.263	4.46
232.646	5.73
233.03	3.15
233.413	4.14
233.797	4.9
234.18	5.93
234.563	6.05
234.946	4.12
235.33	1.91
235.713	7.04
236.096	5.42
236.479	3.3
236.862	5.98
237.245	5.43
237.628	5.89
238.011	6.15
238.394	5.92
238.777	7.2
239.16	5.69
239.543	5.94
239.925	5.02
240.308	7.07
240.691	5.79
241.073	7.46
241.456	5.57
241.838	5.07
242.221	4.83
242.603	4.67
242.986	5.81
243.368	4.24
243.75	5.79
244.133	6.09
244.515	5.37
244.897	4.77
245.279	4.89
245.661	4.76
246.043	5.58
246.425	4.88
246.807	4.89
247.189	4.04
247.571	5.35
247.953	5.66
248.335	5.55
248.717	5.25
249.098	5.16
249.48	4.67
249.862	4.82
250.243	4.89
250.625	5.42
251.006	4.7
251.388	5.18
251.769	5.61
252.151	4.93
252.532	5.62
252.913	5.72
253.295	6.17
253.676	5.07
254.057	5.39
254.438	5.67
254.819	5.2
255.2	5.35
255.581	5.59
255.962	5.72
256.343	5.52
256.724	5.21
257.105	4.93
257.486	5.92
257.867	6.77
258.247	5.91
258.628	5.87
259.009	5.33
259.389	4.59
259.77	5.48
260.15	5.81
260.531	5.62
260.911	4.84
261.292	5.3
261.672	4.78
262.052	4.95
262.432	4.89
262.813	4.98
263.193	4.6
263.573	5.52
263.953	4.75
264.333	5.04
264.713	5.6
265.093	5
265.473	4.31
265.853	4.43
266.233	5.08
266.612	5.72
266.992	5.39
267.372	5.32
267.752	5.5
268.131	4.54
268.511	4.58
268.89	5.29
269.27	4.71
269.649	4.63
270.029	4.98
270.408	5.13
270.787	4.97
271.167	4.75
271.546	4.91
271.925	4.39
272.304	4.98
272.683	5.05
273.062	5.15
273.441	4.91
273.82	4.92
274.199	4.83
274.578	5.04
274.957	4.91
275.336	4.47
275.715	4.62
276.093	4.48
276.472	4.43
276.851	4.39
277.229	4.1
277.608	5
277.986	4.83
278.365	5.22
278.743	4.69
279.122	4.49
279.5	5.05
279.878	4.84
280.257	5.51
280.635	4.53
281.013	5.28
281.391	4.69
281.769	4.82
282.147	4.86
282.525	4.49
282.903	5.53
283.281	4.97
283.659	4.6
284.037	4.55
284.415	4.63
284.792	4.8
285.17	4.43
285.548	4.76
285.925	5.23
286.303	4.99
286.68	4.58
287.058	4.43
287.435	4.63
287.813	4.67
288.19	4.07
288.567	4.66
288.945	4.78
289.322	4.95
289.699	4.89
290.076	5.01
290.453	4.66
290.83	4.76
291.207	5.12
291.584	4
291.961	4.6
292.338	4.94
292.715	5.16
293.092	5.01
293.469	5.17
293.845	4.96
294.222	4.64
294.599	5.19
294.975	5.35
295.352	5.02
295.728	4.92
296.105	5.64
296.481	4.9
296.858	5.36
297.234	5.15
297.61	5.31
297.986	5.35
298.363	5.57
298.739	5.6
299.115	5.52
299.491	5.85
299.867	5.46
300.243	5.48
300.619	5.46
300.995	5.43
301.371	5.91
301.746	6.02
302.122	5.85
302.498	5.37
302.874	5.6
303.249	5.68
303.625	5.8
304	6.18
304.376	6.27
304.751	6.27
305.127	6.24
305.502	6.05
305.878	6.11
306.253	6.54
306.628	6.38
307.003	6.37
307.378	6.33
307.754	6.89
308.129	7.24
308.504	6.85
308.879	7
309.254	7.17
309.629	7.1
310.003	7.35
310.378	7.41
310.753	7.45
311.128	7.09
311.502	7.55
311.877	6.73
312.252	7.18
312.626	6.98
313.001	7.87
313.375	7.64
313.75	8.15
314.124	8.08
314.498	7.57
314.873	7.76
315.247	8.31
315.621	8.05
315.995	8.2
316.369	8.24
316.743	8.14
317.117	8.09
317.491	8.37
317.865	7.85
318.239	8.2
318.613	9.07
318.987	8.76
319.361	8.99
319.734	8.25
320.108	8.94
320.482	8.97
320.855	8.51
321.229	9.46
321.602	9.05
321.976	8.26
322.349	9.34
322.723	9.09
323.096	9.62
323.469	8.75
323.843	8.76
324.216	8.98
324.589	9.29
324.962	9.07
325.335	8.13
325.708	8.96
326.081	9.48
326.454	9.32
326.827	9.65
327.2	9.45
327.573	9.61
327.945	9.69
328.318	9.65
328.691	9.74
329.063	9.64
329.436	9.81
329.809	9.91
330.181	9.53
330.553	9.35
330.926	9.62
331.298	10.45
331.671	9.9
332.043	9.2
332.415	9.72
332.787	10.47
333.159	9.46
333.532	9.54
333.904	9.97
334.276	9.52
334.648	9.18
335.02	10.25
335.391	9.9
335.763	9.97
336.135	9.98
336.507	10.28
336.879	9.92
337.25	10.19
337.622	10.38
337.993	10.24
338.365	10.39
338.736	9.94
339.108	9.96
339.479	9.72
339.851	10.03
340.222	10.13
340.593	10.22
340.964	10.3
341.336	9.94
341.707	10.08
342.078	10.54
342.449	10.82
342.82	10.09
343.191	10.27
343.562	10.26
343.933	10.02
344.303	10.51
344.674	10.71
345.045	10.55
345.416	10.61
345.786	10.52
346.157	10.68
346.527	10.52
346.898	10.41
347.268	10.41
347.639	10.7
348.009	10.21
348.38	10.63
348.75	10.73
349.12	10.65
349.49	10.91
349.861	10.6
350.231	10.75
350.601	11.03
350.971	11.36
351.341	11.05
351.711	10.75
352.081	10.59
352.45	10.8
352.82	11.07
353.19	11.04
353.56	10.66
353.929	10.57
354.299	10.96
354.669	10.85
355.038	10.88
355.408	10.95
355.777	11.32
356.147	11.34
356.516	11.24
356.885	11.33
357.254	10.93
357.624	10.93
357.993	11.37
358.362	11.27
358.731	11.24
359.1	11.17
359.469	11.38
359.838	10.92
360.207	11.13
360.576	11.1
360.945	11.2
361.314	11.35
361.682	11.51
362.051	11.47
362.42	11.3
362.788	11.18
363.157	11.5
363.525	11.49
363.894	11.45
364.262	11.21
364.631	11.37
364.999	11.29
365.367	11.35
365.735	11.71
366.104	11.59
366.472	11.57
366.84	11.5
367.208	12
367.576	11.78
367.944	11.3
368.312	12.03
368.68	11.76
369.048	11.97
369.416	11.56
369.783	11.38
370.151	11.43
370.519	11.65
370.886	11.94
371.254	12.05
371.621	11.36
371.989	12.1
372.356	11.34
372.724	11.65
373.091	12.09
373.458	11.87
373.826	12.04
374.193	12.43
374.56	11.7
374.927	11.95
375.294	11.78
375.661	11.74
376.028	11.81
376.395	11.9
376.762	11.86
377.129	12.44
377.496	12.2
377.863	11.94
378.229	12.04
378.596	11.97
378.963	12.15
379.329	12.15
379.696	12.09
380.062	11.72
380.429	12.09
380.795	11.89
381.161	11.6
381.528	11.69
381.894	11.9
382.26	12.33
382.626	11.85
382.993	12.13
383.359	11.4
383.725	11.93
384.091	11.68
384.457	11.77
384.823	11.78
385.188	11.74
385.554	11.94
385.92	11.85
386.286	11.64
386.651	11.77
387.017	11.64
387.383	11.45
387.748	11.69
388.114	11.58
388.479	11.63
388.845	11.65
389.21	11.23
389.575	11.66
389.94	11.15
390.306	11.31
390.671	11.6
391.036	11.15
391.401	11.59
391.766	11.07
392.131	11.24
392.496	11.82
392.861	11.13
393.226	11.36
393.591	11.13
393.956	11.03
394.32	11.13
394.685	10.88
395.05	11.33
395.414	11.04
395.779	11.12
396.143	10.97
396.508	10.79
396.872	10.84
397.236	10.81
397.601	10.7
397.965	10.69
398.329	10.69
398.694	10.63
399.058	10.76
399.422	10.47
399.786	10.51
400.15	10.67
400.514	10.56
400.878	10.62
401.242	10.39
401.605	10.17
401.969	10.1
402.333	10.47
402.697	10.37
403.06	10.22
403.424	10.05
403.787	10.16
404.151	10.25
404.514	10.33
404.878	10.34
405.241	10.15
405.604	10.24
405.968	9.93
406.331	9.9
406.694	9.85
407.057	9.78
407.42	10
407.783	9.69
408.146	9.84
408.509	9.57
408.872	9.69
409.235	9.66
409.598	9.83
409.961	9.8
410.323	9.79
410.686	9.91
411.049	9.75
411.411	9.8
411.774	9.79
412.136	9.74
412.499	9.53
412.861	9.79
413.223	9.73
413.586	9.68
413.948	9.71
414.31	9.76
414.672	9.86
415.035	9.72
415.397	10.08
415.759	10.11
416.121	9.77
416.483	9.9
416.845	9.83
417.206	10.11
417.568	9.92
417.93	10.14
418.292	9.83
418.653	9.91
419.015	10
419.377	10.18
419.738	10.25
420.1	10.06
420.461	10.21
420.822	10.18
421.184	10.33
421.545	10.27
421.906	10.35
422.267	10.39
422.629	10.5
422.99	10.5
423.351	10.53
423.712	10.46
424.073	10.67
424.434	10.85
424.795	10.91
425.155	11.15
425.516	11.12
425.877	11.31
426.238	11.2
426.598	11.36
426.959	11.49
427.32	11.58
427.68	11.7
428.041	11.89
428.401	11.94
428.761	12.24
429.122	12.36
429.482	12.5
429.842	12.49
430.202	12.73
430.563	12.92
430.923	13.04
431.283	13.24
431.643	13.21
432.003	13.35
432.363	13.55
432.722	13.57
433.082	13.72
433.442	13.78
433.802	14
434.161	13.94
434.521	13.85
434.881	14.13
435.24	14.27
435.6	14.09
435.959	14.29
436.319	14.61
436.678	14.66
437.037	14.69
437.396	14.76
437.756	14.91
438.115	15.01
438.474	15.01
438.833	15.37
439.192	15.3
439.551	15.43
439.91	15.49
440.269	15.66
440.628	15.39
440.987	15.72
441.345	15.81
441.704	15.95
442.063	15.71
442.421	15.83
442.78	15.91
443.138	15.95
443.497	16.13
443.855	16.24
444.214	16.12
444.572	16.56
444.93	16.53
445.288	16.72
445.647	16.78
446.005	16.67
446.363	16.83
446.721	16.89
447.079	16.69
447.437	16.91
447.795	16.96
448.153	16.74
448.51	16.84
448.868	16.92
449.226	16.97
449.584	17.08
449.941	17.2
450.299	17.35
450.656	17.45
451.014	17.56
451.371	17.5
451.729	17.79
452.086	17.89
452.443	17.89
452.801	17.97
453.158	18.08
453.515	18.41
453.872	18.15
454.229	18.22
454.586	18.43
454.943	18.35
455.3	18.52
455.657	18.35
456.014	18.5
456.371	18.75
456.727	18.9
457.084	18.81
457.441	18.66
457.797	18.77
458.154	19.14
458.51	19
458.867	19.11
459.223	19.29
459.58	19.41
459.936	19.48
460.292	19.38
460.648	19.42
461.005	19.53
461.361	19.47
461.717	19.2
462.073	19.25
462.429	19.24
462.785	19.43
463.141	19.63
463.496	19.92
463.852	20.05
464.208	20.07
464.564	20.33
464.919	20.24
465.275	20.57
465.631	20.43
465.986	20.53
466.342	20.79
466.697	20.87
467.052	20.7
467.408	20.94
467.763	20.84
468.118	21.2
468.473	20.93
468.829	21
469.184	21.05
469.539	21.25
469.894	20.93
470.249	21.34
470.603	21.4
470.958	21.35
471.313	21.57
471.668	21.56
472.023	21.68
472.377	21.61
472.732	21.5
473.086	21.88
473.441	21.69
473.795	22.03
474.15	21.67
474.504	21.92
474.859	22.05
475.213	21.88
475.567	21.88
475.921	22.07
476.275	22.34
476.63	22.12
476.984	22.51
477.338	22.45
477.692	22.38
478.045	22.44
478.399	22.45
478.753	22.35
479.107	22.5
479.461	22.52
479.814	22.58
480.168	22.63
480.521	22.56
480.875	22.6
481.228	22.67
481.582	22.61
481.935	22.7
482.289	22.82
482.642	22.82
482.995	22.69
483.348	22.86
483.701	22.81
484.055	22.7
484.408	22.7
484.761	22.64
485.114	22.45
485.466	22.26
485.819	22
486.172	21.89
486.525	22.04
486.878	22.12
487.23	22.37
487.583	22.5
487.936	22.68
488.288	22.7
488.641	22.73
488.993	22.62
489.345	22.55
489.698	22.52
490.05	22.44
490.402	22.73
490.754	22.65
491.107	22.89
491.459	23.06
491.811	23.27
492.163	23.41
492.515	23.59
492.866	23.46
493.218	23.44
493.57	23.25
493.922	22.97
494.274	23.03
494.625	23.23
494.977	23.44
495.328	23.73
495.68	23.87
496.031	23.86
496.383	24.28
496.734	24.18
497.086	24.29
497.437	24.45
497.788	24.32
498.139	24.37
498.49	24.51
498.842	24.45
499.193	24.09
499.544	24.4
499.894	24.4
500.245	24.47
500.596	24.57
500.947	24.62
501.298	24.6
501.648	24.71
501.999	24.81
502.35	24.9
502.7	24.93
503.051	24.84
503.401	25.01
503.752	25.11
504.102	24.98
504.452	25.13
504.803	25.18
505.153	25.21
505.503	25.16
505.853	25.15
506.203	24.96
506.553	25.32
506.903	25.05
507.253	25.21
507.603	25.38
507.953	25.15
508.303	25.29
508.652	25.36
509.002	25.41
509.352	25.18
509.701	25.35
510.051	25.49
510.4	25.35
510.75	25.31
511.099	25.12
511.449	25.29
511.798	25.4
512.147	25.44
512.496	25.35
512.846	25.43
513.195	25.38
513.544	25.49
513.893	25.64
514.242	25.43
514.591	25.44
514.939	25.55
515.288	25.31
515.637	25.55
515.986	25.56
516.334	25.63
516.683	25.64
517.032	25.66
517.38	25.66
517.729	25.57
518.077	25.77
518.426	25.71
518.774	25.81
519.122	25.7
519.47	25.58
519.819	25.64
520.167	25.48
520.515	25.41
520.863	25.16
521.211	25.07
521.559	25.34
521.907	25.46
522.255	25.43
522.602	25.47
522.95	25.66
523.298	25.64
523.645	25.84
523.993	25.87
524.341	25.64
524.688	25.68
525.036	25.79
525.383	25.8
525.73	25.86
526.078	25.84
526.425	25.75
526.772	25.77
527.119	25.74
527.466	25.47
527.814	25.25
528.161	25.33
528.508	25.37
528.854	25.33
529.201	25.54
529.548	25.41
529.895	25.55
530.242	25.18
530.588	25
530.935	24.81
531.282	24.86
531.628	25.1
531.975	25.16
532.321	25.31
532.667	25.29
533.014	25.44
533.36	25.61
533.706	25.59
534.052	25.71
534.399	25.81
534.745	25.73
535.091	25.52
535.437	25.29
535.783	25.2
536.129	25.34
536.474	25.57
536.82	25.68
537.166	25.97
537.512	26.08
537.857	26.06
538.203	26.2
538.549	26.05
538.894	25.88
539.239	26.01
539.585	26.02
539.93	26.23
540.276	26.32
540.621	26.47
540.966	26.53
541.311	26.69
541.656	26.5
542.001	26.74
542.346	26.58
542.691	26.62
543.036	26.37
543.381	26.08
543.726	25.86
544.071	26.02
544.415	26.32
544.76	26.38
545.105	26.44
545.449	26.44
545.794	26.62
546.138	26.74
546.483	26.95
546.827	27.02
547.171	27.28
547.516	27.37
547.86	27.36
548.204	27.26
548.548	27.37
548.892	27.3
549.236	27.26
549.58	27.41
549.924	27.62
550.268	27.72
550.612	27.8
550.956	27.87
551.3	28.1
551.643	28.09
551.987	28.41
552.33	28.43
552.674	28.29
553.017	28.39
553.361	28.32
553.704	28.47
554.048	28.57
554.391	28.43
554.734	28.47
555.077	28.31
555.42	28.41
555.764	28.41
556.107	28.49
556.45	28.66
556.793	28.72
557.135	28.47
557.478	28.77
557.821	28.79
558.164	28.88
558.507	28.97
558.849	29.03
559.192	29.14
559.534	29.24
559.877	29.31
560.219	29.26
560.562	29.28
560.904	29.17
561.246	29.48
561.589	29.16
561.931	29.15
562.273	29.14
562.615	29.37
562.957	29.48
563.299	29.23
563.641	29.31
563.983	29.64
564.325	29.48
564.667	29.74
565.008	29.48
565.35	29.58
565.692	29.53
566.033	29.58
566.375	29.65
566.716	29.58
567.058	29.71
567.399	29.73
567.741	29.91
568.082	29.69
568.423	29.64
568.764	29.79
569.105	29.58
569.447	29.81
569.788	29.83
570.129	29.9
570.47	30.02
570.811	30.03
571.151	30.34
571.492	30.48
571.833	30.19
572.174	30.48
572.514	30.46
572.855	30.4
573.195	30.24
573.536	30.35
573.876	30.5
574.217	30.38
574.557	30.52
574.898	30.72
575.238	30.73
575.578	30.88
575.918	30.78
576.258	30.89
576.598	30.86
576.938	31.09
577.278	31.5
577.618	30.92
577.958	31.14
578.298	31.21
578.638	31.18
578.977	31.62
579.317	31.68
579.657	31.57
579.996	31.66
580.336	32.02
580.675	31.9
581.014	32.04
581.354	32.09
581.693	32.41
582.032	32.3
582.372	32.61
582.711	32.43
583.05	32.55
583.389	32.69
583.728	32.65
584.067	32.67
584.406	33.05
584.745	32.57
585.083	33.14
585.422	33.29
585.761	33.19
586.1	33.04
586.438	33.06
586.777	33.46
587.115	33.15
587.454	33.5
587.792	33.58
588.13	33.55
588.469	33.48
588.807	33.67
589.145	33.9
589.483	33.45
589.821	33.74
590.159	33.86
590.497	34.34
590.835	33.93
591.173	34.02
591.511	34.25
591.849	34.4
592.187	34.34
592.524	34.28
592.862	34.49
593.2	34.28
593.537	34.78
593.875	34.57
594.212	34.42
594.55	34.89
594.887	35.08
595.224	35.04
595.561	35.21
595.899	35.2
596.236	35.37
596.573	35.53
596.91	35.05
597.247	35.35
597.584	35.23
597.921	35.45
598.258	35.6
598.594	35.46
598.931	35.46
599.268	35.14
599.604	35.26
599.941	35.36
600.277	35.56
600.614	35.61
600.95	35.91
601.287	35.85
601.623	36.4
601.959	36.36
602.296	36.25
602.632	36.38
602.968	36.4
603.304	36.66
603.64	36.16
603.976	36.19
604.312	36.48
604.648	36.48
604.984	36.86
605.319	36.51
605.655	36.64
605.991	36.86
606.326	36.56
606.662	36.4
606.998	36.64
607.333	36.81
607.668	36.77
608.004	36.74
608.339	36.76
608.674	36.88
609.01	37.15
609.345	37.27
609.68	37.65
610.015	37.15
610.35	37.63
610.685	37.7
611.02	37.77
611.355	37.53
611.689	37.38
612.024	37.38
612.359	37.1
612.694	37.52
613.028	37.83
613.363	37.63
613.697	37.84
614.032	37.93
614.366	38.09
614.7	37.76
615.035	37.97
615.369	38.1
615.703	38.37
616.037	38.5
616.371	38.83
616.705	38.58
617.039	38.53
617.373	38.7
617.707	38.6
618.041	38.45
618.375	38.91
618.709	38.48
619.042	38.67
619.376	38.69
619.71	38.68
620.043	38.82
620.377	38.76
620.71	39.21
621.043	39.23
621.377	38.84
621.71	39.12
622.043	38.77
622.376	39.11
622.709	39.29
623.043	39.42
623.376	39.54
623.709	39.42
624.041	39.17
624.374	39.54
624.707	39.35
625.04	39.76
625.373	39.47
625.705	39.69
626.038	39.59
626.37	39.79
626.703	39.97
627.035	39.9
627.368	39.78
627.7	40.21
628.032	40.36
628.365	40.28
628.697	39.98
629.029	39.84
629.361	39.72
629.693	40.14
630.025	40.05
630.357	40.13
630.689	40.39
631.021	40.38
631.353	40.45
631.684	40.35
632.016	40.51
632.348	40.66
632.679	40.83
633.011	41.18
633.342	40.88
633.674	40.98
634.005	41.29
634.336	41.11
634.668	41.22
634.999	41.4
635.33	41.49
635.661	41.14
635.992	41.72
636.323	41.24
636.654	41.68
636.985	41.73
637.316	41.67
637.647	41.83
637.977	41.85
638.308	42.66
638.639	41.67
638.969	42.72
639.3	42.37
639.63	42.33
639.961	42.64
640.291	42.75
640.622	42.96
640.952	42.96
641.282	42.8
641.612	42.46
641.943	43.06
642.273	43.21
642.603	43.42
642.933	43.33
643.263	42.69
643.592	43.46
643.922	43.93
644.252	43.26
644.582	43.81
644.911	43.69
645.241	44.17
645.571	43.72
645.9	44.43
646.23	44.18
646.559	44.19
646.888	44.21
647.218	44.56
647.547	44.29
647.876	44.53
648.205	44.45
648.534	44.88
648.863	44.3
649.192	45.07
649.521	45.43
649.85	45.49
650.179	45.22
650.508	45.49
650.837	45.99
651.165	45.2
651.494	45.15
651.822	45.13
652.151	45.64
652.479	45.93
652.808	45.59
653.136	46.17
653.465	45.95
653.793	45.46
654.121	46.17
654.449	45.11
654.777	46.45
655.105	46.02
655.433	46.51
655.761	46.57
656.089	45.84
656.417	46.44
656.745	46.54
657.073	47.28
657.4	47.22
657.728	46.86
658.056	46.58
658.383	46.84
658.711	47.15
659.038	47.08
659.365	47.06
659.693	46.72
660.02	47.32
660.347	47.23
660.674	46.97
661.001	47.22
661.329	47.18
661.656	47.53
661.982	47.79
662.309	47.56
662.636	47.33
662.963	48.04
663.29	47.55
663.616	47.94
663.943	47.89
664.27	48
664.596	47.84
664.923	48.08
665.249	48.17
665.576	48.37
665.902	48.9
666.228	48.9
666.554	47.8
666.881	48.76
667.207	48.9
667.533	48.21
667.859	48.63
668.185	48.88
668.511	48.76
668.837	48.83
669.162	49.37
669.488	49.11
669.814	49.07
670.139	48.68
670.465	49.27
670.791	49.11
671.116	49.08
671.442	49.23
