Data from 23-1_forehead_Reflection__4__348.txt Node

Date: Fri Sep 22 23:27:04 CDT 2023
User: ToomeyLab
Spectrometer: FLMS14357
Trigger mode: 0
Integration Time (sec): 1.000000E-2
Scans to average: 100
Electric dark correction enabled: true
Nonlinearity correction enabled: false
Boxcar width: 0
XAxis mode: Wavelengths
Number of Pixels in Spectrum: 2048
>>>>>Begin Spectral Data<<<<<
189.047	-31.36
189.435	-31.36
189.823	-31.36
190.211	-52.91
190.599	3516.13
190.987	77.22
191.375	-189.68
191.763	-264.14
192.151	-94.78
192.538	-27.48
192.926	63.14
193.314	40.7
193.702	45.31
194.089	63.31
194.477	-210.01
194.864	89.28
195.252	-18.62
195.639	-5.41
196.027	176.27
196.414	-82.71
196.801	-60.76
197.189	268.69
197.576	40.14
197.963	108.44
198.351	16
198.738	33.42
199.125	34.73
199.512	24.18
199.899	98.09
200.286	12.68
200.673	25.49
201.06	-8.49
201.447	69.41
201.833	-9.98
202.22	35.3
202.607	30.11
202.994	58.2
203.38	46.27
203.767	-3.19
204.154	38.03
204.54	11.38
204.927	-17.16
205.313	37.62
205.699	56.07
206.086	37.46
206.472	51.97
206.858	15.46
207.245	29.25
207.631	22.08
208.017	19.67
208.403	33.32
208.789	32.07
209.175	65.19
209.561	29.23
209.947	49.09
210.333	26.27
210.719	30.74
211.105	37.92
211.491	20.98
211.876	54.34
212.262	36.79
212.648	37.2
213.034	30.32
213.419	50.04
213.805	42.41
214.19	6.24
214.576	21.55
214.961	22.6
215.346	24.22
215.732	35.08
216.117	22.32
216.502	39.68
216.888	44.97
217.273	10.65
217.658	32.06
218.043	16.33
218.428	32.33
218.813	29.05
219.198	33.78
219.583	12.85
219.968	14.98
220.353	47.59
220.738	-6.57
221.122	19.16
221.507	10.69
221.892	-7.22
222.276	35.51
222.661	-11.62
223.046	29.23
223.43	36.48
223.815	1.53
224.199	-1.39
224.583	14.89
224.968	24.62
225.352	9.34
225.736	10.1
226.121	8.27
226.505	11.53
226.889	6.69
227.273	9.53
227.657	9.33
228.041	9.6
228.425	10.95
228.809	10.71
229.193	9.96
229.577	12.97
229.961	8.55
230.344	8.68
230.728	7.41
231.112	6.63
231.495	6.66
231.879	6.75
232.263	7.08
232.646	7.66
233.03	6.96
233.413	7.21
233.797	7.01
234.18	7.2
234.563	8.35
234.946	7.32
235.33	5.32
235.713	4.03
236.096	7.56
236.479	6.65
236.862	8.6
237.245	7.24
237.628	8.19
238.011	7.62
238.394	6.05
238.777	8.2
239.16	7.53
239.543	9.59
239.925	8.88
240.308	9.34
240.691	7.43
241.073	8.01
241.456	6.1
241.838	6.67
242.221	6.98
242.603	6.13
242.986	6.38
243.368	6.86
243.75	7.52
244.133	7.64
244.515	6.95
244.897	6.84
245.279	7.29
245.661	7
246.043	6.91
246.425	7.29
246.807	7.58
247.189	6.84
247.571	7.88
247.953	7.68
248.335	7.18
248.717	7.58
249.098	7.07
249.48	6.86
249.862	7.04
250.243	6.93
250.625	7.5
251.006	6.48
251.388	7.87
251.769	7.87
252.151	7.41
252.532	8.04
252.913	7.89
253.295	8.42
253.676	7.69
254.057	7.22
254.438	7.38
254.819	7.35
255.2	7.53
255.581	7.76
255.962	7.95
256.343	6.44
256.724	6.92
257.105	7.59
257.486	7.77
257.867	8.12
258.247	6.63
258.628	7.65
259.009	6.83
259.389	6.12
259.77	8.08
260.15	8.24
260.531	7.05
260.911	7.15
261.292	6.91
261.672	6.5
262.052	6.91
262.432	6.68
262.813	7.29
263.193	6.63
263.573	7.18
263.953	7.13
264.333	7.09
264.713	6.57
265.093	7.35
265.473	7.11
265.853	6.49
266.233	7.57
266.612	7.56
266.992	7.26
267.372	7.47
267.752	7.68
268.131	7.02
268.511	7.2
268.89	7.08
269.27	7.1
269.649	6.78
270.029	6.57
270.408	6.54
270.787	6.79
271.167	6.89
271.546	6.69
271.925	6.54
272.304	6.61
272.683	6.67
273.062	7.26
273.441	7.27
273.82	6.82
274.199	6.37
274.578	6.87
274.957	6.25
275.336	6.64
275.715	6.34
276.093	6.47
276.472	6.64
276.851	6.76
277.229	5.81
277.608	6.79
277.986	6.04
278.365	6.18
278.743	6.42
279.122	6.85
279.5	6.75
279.878	6.3
280.257	7.09
280.635	6.82
281.013	6.43
281.391	5.39
281.769	6.1
282.147	6.3
282.525	6.05
282.903	6.83
283.281	6.17
283.659	6.64
284.037	6.45
284.415	6.25
284.792	6.17
285.17	6.29
285.548	6.98
285.925	6.52
286.303	6.99
286.68	6.17
287.058	6.26
287.435	6.3
287.813	6.44
288.19	5.85
288.567	6.5
288.945	6.31
289.322	6.61
289.699	5.98
290.076	6.59
290.453	6.5
290.83	6.12
291.207	6.4
291.584	6.4
291.961	6.42
292.338	6.48
292.715	6.75
293.092	6.53
293.469	6.64
293.845	6.9
294.222	7.05
294.599	6.94
294.975	7.32
295.352	7.29
295.728	6.9
296.105	7.31
296.481	6.78
296.858	7.43
297.234	7.1
297.61	6.95
297.986	7.27
298.363	6.96
298.739	7.28
299.115	7.53
299.491	7.37
299.867	7.1
300.243	7.34
300.619	7.21
300.995	7.3
301.371	7.62
301.746	8.22
302.122	7.44
302.498	8.03
302.874	7.35
303.249	8.14
303.625	7.58
304	8.34
304.376	8.35
304.751	8.72
305.127	8.29
305.502	8.49
305.878	8.74
306.253	8.84
306.628	8.83
307.003	8.6
307.378	8.15
307.754	8.56
308.129	8.64
308.504	9.07
308.879	9.58
309.254	9.5
309.629	9.4
310.003	9.55
310.378	9.84
310.753	9.71
311.128	9.19
311.502	10.04
311.877	9.44
312.252	9.56
312.626	10.04
313.001	9.92
313.375	10.2
313.75	10.36
314.124	10.56
314.498	10.07
314.873	10.62
315.247	11.09
315.621	10.64
315.995	10.94
316.369	10.55
316.743	10.86
317.117	11.32
317.491	11.54
317.865	10.87
318.239	11.34
318.613	11.85
318.987	11.29
319.361	11.76
319.734	11.78
320.108	11.95
320.482	11.68
320.855	11.84
321.229	12.3
321.602	12.08
321.976	11.55
322.349	11.79
322.723	12.11
323.096	12.42
323.469	12.49
323.843	12.06
324.216	12.77
324.589	11.81
324.962	12.08
325.335	12.17
325.708	12.29
326.081	12.63
326.454	12.03
326.827	12.53
327.2	13.15
327.573	13.39
327.945	12.78
328.318	13.1
328.691	13.24
329.063	12.7
329.436	13.03
329.809	13.32
330.181	13.14
330.553	13.01
330.926	12.57
331.298	13.28
331.671	13.56
332.043	12.79
332.415	13.13
332.787	13.4
333.159	12.71
333.532	12.96
333.904	12.81
334.276	13.26
334.648	13.05
335.02	13.32
335.391	13.53
335.763	13.65
336.135	13.65
336.507	13.62
336.879	13.32
337.25	13.59
337.622	14.04
337.993	13.93
338.365	14.1
338.736	13.94
339.108	13.78
339.479	13.42
339.851	13.34
340.222	13.58
340.593	13.69
340.964	13.79
341.336	13.69
341.707	14.04
342.078	13.82
342.449	14
342.82	13.44
343.191	13.91
343.562	14.01
343.933	14.4
344.303	14.05
344.674	14.6
345.045	14.39
345.416	14.32
345.786	13.79
346.157	14.3
346.527	13.96
346.898	14.38
347.268	13.84
347.639	14.23
348.009	14.26
348.38	14.62
348.75	14.58
349.12	14.71
349.49	14.75
349.861	14.39
350.231	14.62
350.601	14.93
350.971	14.9
351.341	14.48
351.711	14.81
352.081	14.31
352.45	14.6
352.82	14.76
353.19	15.18
353.56	14.85
353.929	15.04
354.299	14.63
354.669	14.79
355.038	14.59
355.408	15.07
355.777	15.07
356.147	15.2
356.516	15.13
356.885	14.97
357.254	15.2
357.624	14.95
357.993	15
358.362	15.13
358.731	14.73
359.1	15.13
359.469	15.34
359.838	14.98
360.207	15.27
360.576	15.23
360.945	15.09
361.314	15.05
361.682	15.62
362.051	15.48
362.42	15.33
362.788	15.36
363.157	15.49
363.525	15.07
363.894	15.44
364.262	15.57
364.631	15.3
364.999	15.28
365.367	15.58
365.735	15.51
366.104	15.48
366.472	15.65
366.84	15.36
367.208	15.78
367.576	15.78
367.944	15.71
368.312	15.72
368.68	15.67
369.048	15.7
369.416	15.75
369.783	15.67
370.151	15.49
370.519	15.79
370.886	16.02
371.254	16.02
371.621	15.8
371.989	16.3
372.356	15.53
372.724	16.15
373.091	16.21
373.458	15.95
373.826	16.4
374.193	15.98
374.56	15.88
374.927	16.37
375.294	16.23
375.661	16.05
376.028	16.19
376.395	16.3
376.762	15.68
377.129	16.28
377.496	15.99
377.863	16.02
378.229	16.31
378.596	16.25
378.963	16.18
379.329	16.1
379.696	15.99
380.062	15.87
380.429	15.86
380.795	16.09
381.161	15.71
381.528	15.87
381.894	15.89
382.26	15.87
382.626	15.71
382.993	16.16
383.359	15.85
383.725	16.08
384.091	15.62
384.457	15.8
384.823	15.69
385.188	15.92
385.554	15.48
385.92	16.02
386.286	15.6
386.651	15.54
387.017	15.39
387.383	15.64
387.748	15.54
388.114	15.25
388.479	15.41
388.845	15.3
389.21	15.06
389.575	15.49
389.94	15.03
390.306	15.36
390.671	15.77
391.036	14.73
391.401	15.15
391.766	15.34
392.131	15.26
392.496	15.18
392.861	14.93
393.226	14.93
393.591	14.79
393.956	14.78
394.32	14.67
394.685	14.51
395.05	14.8
395.414	14.65
395.779	14.72
396.143	14.63
396.508	14.41
396.872	14.31
397.236	14.31
397.601	14.1
397.965	14.45
398.329	14.48
398.694	14.16
399.058	14.08
399.422	13.92
399.786	14.2
400.15	14.38
400.514	14.14
400.878	14.11
401.242	13.97
401.605	13.8
401.969	13.5
402.333	13.89
402.697	13.68
403.06	13.73
403.424	13.63
403.787	13.77
404.151	13.68
404.514	13.53
404.878	13.5
405.241	13.66
405.604	13.44
405.968	13.31
406.331	13.31
406.694	13.37
407.057	13.11
407.42	13.03
407.783	13.1
408.146	13.35
408.509	12.8
408.872	12.93
409.235	12.89
409.598	12.93
409.961	13.06
410.323	12.99
410.686	13.1
411.049	13.13
411.411	13.14
411.774	12.8
412.136	12.86
412.499	12.86
412.861	13.06
413.223	12.97
413.586	13
413.948	13.03
414.31	12.87
414.672	12.97
415.035	13.04
415.397	13.39
415.759	13.36
416.121	12.98
416.483	12.98
416.845	12.94
417.206	13.38
417.568	13.31
417.93	13.3
418.292	13.29
418.653	13.14
419.015	13.44
419.377	13.5
419.738	13.5
420.1	13.38
420.461	13.54
420.822	13.52
421.184	13.5
421.545	13.69
421.906	13.84
422.267	13.74
422.629	14.04
422.99	13.9
423.351	13.91
423.712	14.1
424.073	14.19
424.434	14.38
424.795	14.49
425.155	14.8
425.516	14.96
425.877	14.86
426.238	15.01
426.598	15.05
426.959	15.21
427.32	15.47
427.68	15.63
428.041	15.6
428.401	15.93
428.761	16.22
429.122	16.36
429.482	16.23
429.842	16.47
430.202	16.78
430.563	16.95
430.923	17.29
431.283	17.42
431.643	17.45
432.003	17.5
432.363	17.68
432.722	17.93
433.082	17.89
433.442	17.92
433.802	18.18
434.161	18.29
434.521	18.37
434.881	18.6
435.24	18.61
435.6	18.65
435.959	18.83
436.319	18.99
436.678	19.12
437.037	19.35
437.396	19.27
437.756	19.42
438.115	19.65
438.474	19.86
438.833	20.06
439.192	20.18
439.551	20.05
439.91	20.38
440.269	20.34
440.628	20.54
440.987	20.63
441.345	20.62
441.704	20.91
442.063	20.73
442.421	20.74
442.78	20.72
443.138	21.08
443.497	21.07
443.855	21.22
444.214	21.18
444.572	21.4
444.93	21.65
445.288	21.85
445.647	21.93
446.005	21.91
446.363	21.96
446.721	21.98
447.079	22.11
447.437	22.14
447.795	22.23
448.153	22.26
448.51	22.18
448.868	22.16
449.226	22.29
449.584	22.39
449.941	22.4
450.299	22.67
450.656	22.8
451.014	22.76
451.371	22.8
451.729	23.1
452.086	23.21
452.443	23.54
452.801	23.71
453.158	23.76
453.515	23.84
453.872	23.79
454.229	23.68
454.586	24.06
454.943	23.83
455.3	23.96
455.657	24.05
456.014	24.27
456.371	24.52
456.727	24.46
457.084	24.47
457.441	24.35
457.797	24.7
458.154	24.58
458.51	24.9
458.867	24.75
459.223	25.11
459.58	25.17
459.936	25.22
460.292	25.32
460.648	25.52
461.005	25.5
461.361	25.72
461.717	25.23
462.073	25.27
462.429	25.27
462.785	25.39
463.141	25.67
463.496	25.93
463.852	25.98
464.208	25.93
464.564	26.31
464.919	26.21
465.275	26.57
465.631	26.66
465.986	26.84
466.342	26.78
466.697	26.92
467.052	26.75
467.408	27.1
467.763	27.05
468.118	27.32
468.473	27.42
468.829	27.14
469.184	27.4
469.539	27.31
469.894	27.42
470.249	27.55
470.603	27.52
470.958	27.58
471.313	27.69
471.668	27.94
472.023	27.81
472.377	27.87
472.732	27.94
473.086	28.45
473.441	28.02
473.795	28.43
474.15	28.28
474.504	28.21
474.859	28.37
475.213	28.42
475.567	28.46
475.921	28.58
476.275	28.58
476.63	28.6
476.984	28.71
477.338	28.88
477.692	28.63
478.045	29.07
478.399	28.87
478.753	28.97
479.107	29.04
479.461	28.96
479.814	29.07
480.168	28.98
480.521	29.25
480.875	29.27
481.228	29.29
481.582	29.14
481.935	29.19
482.289	29.4
482.642	29.25
482.995	29.28
483.348	29.36
483.701	29.38
484.055	29.36
484.408	29.18
484.761	29.23
485.114	29.05
485.466	28.9
485.819	28.87
486.172	28.77
486.525	28.86
486.878	28.72
487.23	28.89
487.583	29.01
487.936	29.13
488.288	29.23
488.641	29.49
488.993	29.48
489.345	29.33
489.698	29.32
490.05	29.19
490.402	29.42
490.754	29.4
491.107	29.54
491.459	29.78
491.811	29.88
492.163	30.04
492.515	30.1
492.866	30.04
493.218	30.06
493.57	29.89
493.922	29.9
494.274	29.88
494.625	29.8
494.977	30.08
495.328	30.29
495.68	30.52
496.031	30.65
496.383	30.72
496.734	31.06
497.086	30.87
497.437	30.95
497.788	31.1
498.139	31.19
498.49	31.19
498.842	31.22
499.193	30.88
499.544	31.13
499.894	31.29
500.245	31.17
500.596	31.37
500.947	31.56
501.298	31.51
501.648	31.51
501.999	31.57
502.35	31.59
502.7	31.67
503.051	31.62
503.401	31.65
503.752	32
504.102	31.89
504.452	31.83
504.803	31.8
505.153	31.84
505.503	31.78
505.853	31.79
506.203	31.94
506.553	31.99
506.903	32.03
507.253	32.04
507.603	32.25
507.953	32.15
508.303	32.22
508.652	32.19
509.002	32.05
509.352	32.08
509.701	32.27
510.051	32.48
510.4	32.18
510.75	32.11
511.099	32.06
511.449	32.19
511.798	32.3
512.147	32.15
512.496	32.27
512.846	32.09
513.195	32.28
513.544	32.22
513.893	32.32
514.242	32.13
514.591	32.4
514.939	32.38
515.288	32.31
515.637	32.39
515.986	32.33
516.334	32.45
516.683	32.31
517.032	32.46
517.38	32.45
517.729	32.45
518.077	32.54
518.426	32.65
518.774	32.51
519.122	32.54
519.47	32.47
519.819	32.49
520.167	32.11
520.515	32.1
520.863	31.99
521.211	31.92
521.559	32.07
521.907	31.98
522.255	32.04
522.602	32.32
522.95	32.22
523.298	32.26
523.645	32.37
523.993	32.4
524.341	32.29
524.688	32.44
525.036	32.39
525.383	32.43
525.73	32.39
526.078	32.42
526.425	32.29
526.772	32.43
527.119	32.29
527.466	32.25
527.814	31.88
528.161	31.9
528.508	32.07
528.854	32.07
529.201	32.05
529.548	31.95
529.895	32.03
530.242	31.84
530.588	31.55
530.935	31.64
531.282	31.62
531.628	31.6
531.975	31.58
532.321	31.66
532.667	31.82
533.014	32.04
533.36	32.16
533.706	32.22
534.052	32.29
534.399	32.16
534.745	32.33
535.091	32.05
535.437	31.94
535.783	31.98
536.129	31.97
536.474	32.04
536.82	32.13
537.166	32.37
537.512	32.33
537.857	32.48
538.203	32.67
538.549	32.66
538.894	32.36
539.239	32.49
539.585	32.54
539.93	32.74
540.276	32.8
540.621	32.9
540.966	33.06
541.311	33.07
541.656	33.19
542.001	33.1
542.346	33
542.691	33.11
543.036	32.87
543.381	32.83
543.726	32.67
544.071	32.67
544.415	32.83
544.76	32.8
545.105	32.85
545.449	33.05
545.794	33.11
546.138	33.32
546.483	33.36
546.827	33.39
547.171	33.79
547.516	33.78
547.86	33.88
548.204	33.95
548.548	33.93
548.892	33.88
549.236	33.83
549.58	34.18
549.924	34.15
550.268	34.32
550.612	34.49
550.956	34.43
551.3	34.51
551.643	34.77
551.987	35.06
552.33	35.02
552.674	35.06
553.017	34.68
553.361	34.86
553.704	35.09
554.048	35.17
554.391	35.16
554.734	34.95
555.077	35.12
555.42	35.08
555.764	35.18
556.107	35.34
556.45	35.2
556.793	35.23
557.135	35.38
557.478	35.19
557.821	35.33
558.164	35.56
558.507	35.46
558.849	35.4
559.192	35.77
559.534	35.83
559.877	35.87
560.219	35.81
560.562	35.89
560.904	35.77
561.246	36.03
561.589	36.08
561.931	35.74
562.273	35.81
562.615	36.24
562.957	36.28
563.299	36.03
563.641	36.24
563.983	36.16
564.325	36.32
564.667	36.34
565.008	36.22
565.35	36.43
565.692	36.3
566.033	36.38
566.375	36.53
566.716	36.48
567.058	36.53
567.399	36.36
567.741	36.62
568.082	36.43
568.423	36.5
568.764	36.46
569.105	36.32
569.447	36.34
569.788	36.54
570.129	36.82
570.47	36.82
570.811	36.9
571.151	36.91
571.492	37.06
571.833	36.81
572.174	37.04
572.514	36.95
572.855	37.13
573.195	37.15
573.536	37.11
573.876	37.3
574.217	37.17
574.557	37.31
574.898	37.44
575.238	37.52
575.578	37.75
575.918	37.68
576.258	37.55
576.598	37.5
576.938	37.89
577.278	37.93
577.618	37.73
577.958	38.04
578.298	38.18
578.638	38.09
578.977	38.72
579.317	38.48
579.657	38.32
579.996	38.53
580.336	38.84
580.675	38.7
581.014	39.12
581.354	39.04
581.693	39.21
582.032	39.27
582.372	39.28
582.711	39.4
583.05	39.78
583.389	39.33
583.728	39.84
584.067	39.84
584.406	39.74
584.745	39.65
585.083	40.08
585.422	40.49
585.761	40.33
586.1	40.61
586.438	40.16
586.777	40.49
587.115	40.52
587.454	40.47
587.792	40.86
588.13	40.9
588.469	40.9
588.807	40.88
589.145	40.89
589.483	40.9
589.821	40.96
590.159	41.03
590.497	41.54
590.835	41.28
591.173	41.22
591.511	41.63
591.849	41.48
592.187	41.63
592.524	41.55
592.862	41.66
593.2	41.64
593.537	41.92
593.875	41.66
594.212	42.21
594.55	42.18
594.887	42.32
595.224	42.32
595.561	42.5
595.899	42.48
596.236	42.74
596.573	42.81
596.91	42.54
597.247	42.51
597.584	42.78
597.921	42.92
598.258	43.03
598.594	42.79
598.931	43.03
599.268	43.1
599.604	42.81
599.941	43
600.277	42.93
600.614	43.07
600.95	43.07
601.287	43.44
601.623	43.81
601.959	43.76
602.296	43.84
602.632	43.71
602.968	43.98
603.304	43.97
603.64	43.73
603.976	44.44
604.312	43.78
604.648	44.33
604.984	44.53
605.319	44.2
605.655	44.31
605.991	44.25
606.326	44.43
606.662	44.16
606.998	44.43
607.333	44.46
607.668	44.44
608.004	44.35
608.339	44.22
608.674	44.29
609.01	44.54
609.345	44.91
609.68	44.76
610.015	45.01
610.35	44.77
610.685	45.25
611.02	45.31
611.355	45.46
611.689	45.09
612.024	45.22
612.359	44.82
612.694	45.16
613.028	45.25
613.363	45.37
613.697	45.16
614.032	45.76
614.366	45.39
614.7	45.3
615.035	45.32
615.369	46.1
615.703	46.04
616.037	45.91
616.371	45.79
616.705	46.4
617.039	45.98
617.373	46.03
617.707	46.11
618.041	46.21
618.375	46.53
618.709	46.51
619.042	46.34
619.376	46.88
619.71	46.51
620.043	46.62
620.377	46.54
620.71	46.67
621.043	46.74
621.377	46.54
621.71	47.01
622.043	47.06
622.376	47.13
622.709	46.79
623.043	47.2
623.376	47
623.709	46.96
624.041	46.94
624.374	47.1
624.707	47.1
625.04	47.66
625.373	46.98
625.705	47.34
626.038	47.47
626.37	48
626.703	47.36
627.035	47.78
627.368	47.59
627.7	48.19
628.032	48.28
628.365	47.92
628.697	47.87
629.029	48.27
629.361	48.25
629.693	48.2
630.025	48.12
630.357	48.19
630.689	48.61
631.021	48.38
631.353	48.56
631.684	48.28
632.016	49.07
632.348	49
632.679	48.87
633.011	49.04
633.342	48.91
633.674	48.91
634.005	48.99
634.336	48.8
634.668	49.74
634.999	49.36
635.33	49.68
635.661	49.35
635.992	49.76
636.323	49.32
636.654	50.02
636.985	49.69
637.316	49.72
637.647	50.08
637.977	49.95
638.308	50.64
638.639	50.61
638.969	50.27
639.3	50.04
639.63	50.56
639.961	50.22
640.291	50.45
640.622	50.76
640.952	51
641.282	50.83
641.612	50.93
641.943	51.27
642.273	51.46
642.603	51.3
642.933	51.35
643.263	50.82
643.592	51.46
643.922	52.19
644.252	51.93
644.582	51.89
644.911	51.81
645.241	52.94
645.571	52.45
645.9	52.34
646.23	52.91
646.559	52.51
646.888	52.71
647.218	52.47
647.547	52.55
647.876	52.67
648.205	52.77
648.534	53.27
648.863	52.99
649.192	53.15
649.521	53.46
649.85	53.84
650.179	53.7
650.508	53.91
650.837	53.6
651.165	54.27
651.494	53.79
651.822	54.14
652.151	53.74
652.479	53.41
652.808	54.32
653.136	54.51
653.465	54.43
653.793	54.38
654.121	54.76
654.449	54.2
654.777	54.72
655.105	54.78
655.433	54.77
655.761	54.97
656.089	54.8
656.417	54.91
656.745	55.58
657.073	54.85
657.4	54.87
657.728	55.56
658.056	55.32
658.383	55.48
658.711	55.56
659.038	55.91
659.365	55.01
659.693	55.59
660.02	55.59
660.347	56.09
660.674	55.56
661.001	56
661.329	56.12
661.656	56.41
661.982	56.53
662.309	56.34
662.636	56.02
662.963	56.8
663.29	57.07
663.616	56.41
663.943	56.47
664.27	56.78
664.596	57.09
664.923	56.88
665.249	56.3
665.576	57.08
665.902	57.02
666.228	57.19
666.554	56.83
666.881	57.26
667.207	56.88
667.533	57.81
667.859	56.95
668.185	57.37
668.511	57.19
668.837	57.54
669.162	57.28
