Data from 23-1_forehead_Reflection__3__347.txt Node

Date: Fri Sep 22 23:26:46 CDT 2023
User: ToomeyLab
Spectrometer: FLMS14357
Trigger mode: 0
Integration Time (sec): 1.000000E-2
Scans to average: 100
Electric dark correction enabled: true
Nonlinearity correction enabled: false
Boxcar width: 0
XAxis mode: Wavelengths
Number of Pixels in Spectrum: 2048
>>>>>Begin Spectral Data<<<<<
189.047	121.5
189.435	121.5
189.823	121.5
190.211	-121.16
190.599	12661.29
190.987	36.92
191.375	-259.14
191.763	-125.84
192.151	3.74
192.538	-1265.22
192.926	218.42
193.314	131.36
193.702	46.6
194.089	63.36
194.477	272.47
194.864	48.63
195.252	82.07
195.639	40.49
196.027	411.6
196.414	131.31
196.801	43.84
197.189	-62.17
197.576	19.2
197.963	64.68
198.351	11.44
198.738	33.39
199.125	-8.03
199.512	13.24
199.899	61.21
200.286	19.72
200.673	54.46
201.06	42.7
201.447	57.31
201.833	61.31
202.22	72
202.607	28.21
202.994	74.28
203.38	75.38
203.767	7.5
204.154	56.76
204.54	48.03
204.927	64.12
205.313	42.25
205.699	55.25
206.086	46.16
206.472	72.74
206.858	29.25
207.245	70.5
207.631	67.86
208.017	46.93
208.403	95.55
208.789	21.16
209.175	71.25
209.561	58.23
209.947	59.78
210.333	35.73
210.719	18.68
211.105	40.05
211.491	53.79
211.876	36.02
212.262	26.99
212.648	62.41
213.034	28.76
213.419	61.14
213.805	19.87
214.19	68.65
214.576	39.11
214.961	14.07
215.346	32.15
215.732	62.88
216.117	45.06
216.502	50.51
216.888	27.7
217.273	52.26
217.658	49.64
218.043	39
218.428	40.55
218.813	-12.69
219.198	12.91
219.583	28.15
219.968	0.68
220.353	38.33
220.738	-1.63
221.122	33.89
221.507	-1.29
221.892	21.54
222.276	29.63
222.661	-4.75
223.046	14.53
223.43	26.7
223.815	13.59
224.199	10.7
224.583	18.01
224.968	14
225.352	12.42
225.736	16.89
226.121	18.06
226.505	2.48
226.889	20.17
227.273	3.56
227.657	11.14
228.041	4.97
228.425	15.98
228.809	7.37
229.193	8.12
229.577	9.11
229.961	11.21
230.344	8.73
230.728	4.69
231.112	6
231.495	5.24
231.879	5.77
232.263	6.54
232.646	5.45
233.03	5.28
233.413	5.43
233.797	5.42
234.18	4.71
234.563	7.86
234.946	9.39
235.33	2.49
235.713	5.43
236.096	5.37
236.479	5.94
236.862	8.5
237.245	6.45
237.628	8.35
238.011	7.35
238.394	5.92
238.777	7.31
239.16	6.82
239.543	8.01
239.925	6.58
240.308	7.24
240.691	6.77
241.073	8.66
241.456	8.16
241.838	4.62
242.221	6.29
242.603	6.66
242.986	5.56
243.368	6.15
243.75	6.47
244.133	6.46
244.515	5.52
244.897	5.4
245.279	5.57
245.661	6.24
246.043	5.46
246.425	4.87
246.807	6.24
247.189	6.08
247.571	5.97
247.953	5.89
248.335	5.78
248.717	5.69
249.098	5.53
249.48	5.22
249.862	5.5
250.243	5.75
250.625	5.36
251.006	5.42
251.388	5.79
251.769	6.55
252.151	6.05
252.532	6.36
252.913	5.15
253.295	6.95
253.676	5.26
254.057	6.2
254.438	6.1
254.819	5.63
255.2	5.6
255.581	5.8
255.962	6.84
256.343	5.87
256.724	5.27
257.105	6.88
257.486	6.76
257.867	5.06
258.247	5.87
258.628	7.1
259.009	6.55
259.389	5.25
259.77	6.52
260.15	6.7
260.531	6.18
260.911	5.18
261.292	5.45
261.672	5.16
262.052	5.52
262.432	5.29
262.813	5.64
263.193	5.19
263.573	5.76
263.953	5.76
264.333	5.68
264.713	5.39
265.093	5.71
265.473	5.44
265.853	5.36
266.233	6.24
266.612	5.42
266.992	6.12
267.372	6.59
267.752	6.12
268.131	5.45
268.511	5.92
268.89	5.63
269.27	5.33
269.649	5.92
270.029	5.02
270.408	5.54
270.787	5.17
271.167	5.48
271.546	5.44
271.925	4.77
272.304	5.29
272.683	5.49
273.062	5.84
273.441	4.94
273.82	5.55
274.199	5.7
274.578	5.9
274.957	5.47
275.336	5.56
275.715	5.24
276.093	4.84
276.472	5.22
276.851	5.85
277.229	4.53
277.608	5.52
277.986	5.21
278.365	5.56
278.743	5.24
279.122	5.42
279.5	5.79
279.878	4.78
280.257	5.65
280.635	4.66
281.013	5.42
281.391	4.71
281.769	5.19
282.147	5.74
282.525	5.02
282.903	5.71
283.281	5.28
283.659	5.7
284.037	5.14
284.415	5.35
284.792	5.25
285.17	5.19
285.548	5.84
285.925	5.48
286.303	5.17
286.68	4.98
287.058	4.85
287.435	5.28
287.813	4.87
288.19	4.79
288.567	5.43
288.945	5.08
289.322	5.14
289.699	5.36
290.076	5.3
290.453	4.94
290.83	5.56
291.207	5.03
291.584	4.98
291.961	5.02
292.338	5.16
292.715	5.34
293.092	5.28
293.469	5.58
293.845	5.01
294.222	5.43
294.599	5.36
294.975	6.09
295.352	5.78
295.728	5.56
296.105	6.05
296.481	5.51
296.858	5.88
297.234	6.15
297.61	6.21
297.986	5.9
298.363	5.92
298.739	5.7
299.115	6.12
299.491	5.91
299.867	5.94
300.243	5.75
300.619	5.94
300.995	5.97
301.371	6.41
301.746	6.35
302.122	6.19
302.498	6.1
302.874	6.6
303.249	6.32
303.625	5.69
304	6.84
304.376	6.56
304.751	6.94
305.127	6.4
305.502	7.23
305.878	6.69
306.253	6.86
306.628	6.44
307.003	7.35
307.378	6.52
307.754	7.03
308.129	7.05
308.504	7.91
308.879	7.53
309.254	6.87
309.629	7.6
310.003	7.7
310.378	7.83
310.753	7.73
311.128	7.68
311.502	7.85
311.877	7.74
312.252	8
312.626	7.94
313.001	7.82
313.375	8
313.75	8.41
314.124	8.67
314.498	7.6
314.873	8.02
315.247	8.89
315.621	8.33
315.995	8.09
316.369	8
316.743	8.79
317.117	8.83
317.491	8.54
317.865	9.12
318.239	8.54
318.613	9.28
318.987	8.83
319.361	8.83
319.734	8.86
320.108	9.03
320.482	9.3
320.855	9.16
321.229	9.61
321.602	9.5
321.976	9.17
322.349	9.29
322.723	9.43
323.096	9.97
323.469	9.51
323.843	9.54
324.216	9.82
324.589	9.54
324.962	8.95
325.335	9.33
325.708	9.41
326.081	9.88
326.454	9
326.827	9.7
327.2	9.49
327.573	10.26
327.945	9.8
328.318	9.86
328.691	10.23
329.063	9.37
329.436	9.87
329.809	9.67
330.181	10.14
330.553	9.52
330.926	9.96
331.298	10.03
331.671	10.25
332.043	9.44
332.415	10.2
332.787	10.29
333.159	10.09
333.532	10.13
333.904	10.4
334.276	10.27
334.648	9.63
335.02	9.57
335.391	10.12
335.763	10.03
336.135	10.23
336.507	10.46
336.879	10.05
337.25	9.97
337.622	11.11
337.993	10.17
338.365	10.26
338.736	10.3
339.108	10.45
339.479	10.31
339.851	10.02
340.222	9.98
340.593	9.9
340.964	9.89
341.336	10.19
341.707	10.41
342.078	10.64
342.449	10.42
342.82	10.42
343.191	10.14
343.562	10.71
343.933	10.71
344.303	10.27
344.674	10.83
345.045	10.29
345.416	10.85
345.786	10.56
346.157	10.75
346.527	10.21
346.898	10.47
347.268	10.63
347.639	10.64
348.009	10.59
348.38	11.4
348.75	10.94
349.12	10.39
349.49	11.13
349.861	10.77
350.231	11
350.601	11.03
350.971	10.96
351.341	10.71
351.711	10.44
352.081	10.57
352.45	10.82
352.82	11.19
353.19	11.1
353.56	10.98
353.929	10.92
354.299	10.96
354.669	11.03
355.038	10.86
355.408	11.26
355.777	11.36
356.147	11.21
356.516	11.26
356.885	11.21
357.254	11.31
357.624	10.95
357.993	11.25
358.362	11.1
358.731	10.92
359.1	11.19
359.469	11.13
359.838	10.88
360.207	11.19
360.576	11.2
360.945	11.1
361.314	11.23
361.682	11.4
362.051	11.69
362.42	11.18
362.788	11.08
363.157	11.39
363.525	10.99
363.894	11.25
364.262	11.34
364.631	11.36
364.999	11.16
365.367	11.52
365.735	11.61
366.104	11.87
366.472	11.44
366.84	11.53
367.208	11.86
367.576	11.83
367.944	11.51
368.312	12.12
368.68	11.64
369.048	11.89
369.416	11.64
369.783	11.23
370.151	11.6
370.519	11.8
370.886	11.91
371.254	11.96
371.621	11.49
371.989	11.69
372.356	11.43
372.724	12.03
373.091	11.95
373.458	11.69
373.826	12.24
374.193	11.95
374.56	11.85
374.927	12.06
375.294	11.48
375.661	11.78
376.028	11.93
376.395	12.01
376.762	11.84
377.129	12.25
377.496	12.27
377.863	11.95
378.229	11.92
378.596	11.97
378.963	12.03
379.329	11.33
379.696	11.88
380.062	11.62
380.429	11.87
380.795	11.88
381.161	11.73
381.528	11.85
381.894	11.68
382.26	11.64
382.626	11.81
382.993	12.03
383.359	11.56
383.725	11.67
384.091	11.86
384.457	11.48
384.823	11.77
385.188	11.55
385.554	11.66
385.92	11.9
386.286	11.76
386.651	11.66
387.017	11.59
387.383	11.55
387.748	11.52
388.114	11.41
388.479	11.48
388.845	10.99
389.21	11.28
389.575	11.47
389.94	10.96
390.306	11.18
390.671	11.49
391.036	11.12
391.401	11.37
391.766	11.08
392.131	11.09
392.496	11.38
392.861	11.09
393.226	11.27
393.591	11.24
393.956	11.02
394.32	10.91
394.685	11.02
395.05	11.33
395.414	10.97
395.779	11.18
396.143	10.85
396.508	10.8
396.872	10.82
397.236	10.92
397.601	10.65
397.965	11.05
398.329	10.69
398.694	10.71
399.058	10.74
399.422	10.59
399.786	10.6
400.15	10.52
400.514	10.48
400.878	10.47
401.242	10.41
401.605	10.41
401.969	10.21
402.333	10.58
402.697	10.28
403.06	10.52
403.424	10.21
403.787	10.29
404.151	10.14
404.514	10.38
404.878	10.37
405.241	10.23
405.604	9.94
405.968	10.33
406.331	10.2
406.694	9.94
407.057	10.03
407.42	9.88
407.783	9.8
408.146	9.79
408.509	9.82
408.872	9.75
409.235	9.9
409.598	9.98
409.961	9.97
410.323	10.17
410.686	9.77
411.049	9.97
411.411	10.06
411.774	9.87
412.136	9.76
412.499	9.89
412.861	9.87
413.223	9.91
413.586	9.65
413.948	9.86
414.31	9.95
414.672	9.98
415.035	9.8
415.397	10.23
415.759	10.39
416.121	9.84
416.483	9.88
416.845	9.9
417.206	10.11
417.568	10.07
417.93	10.21
418.292	10.12
418.653	9.9
419.015	10.1
419.377	10.03
419.738	10.32
420.1	10.24
420.461	10.21
420.822	10.28
421.184	10.35
421.545	10.29
421.906	10.34
422.267	10.42
422.629	10.57
422.99	10.51
423.351	10.55
423.712	10.59
424.073	10.72
424.434	10.84
424.795	10.92
425.155	11.07
425.516	11.18
425.877	11.21
426.238	11.05
426.598	11.24
426.959	11.43
427.32	11.57
427.68	11.47
428.041	11.8
428.401	11.99
428.761	12.14
429.122	12.17
429.482	12.46
429.842	12.43
430.202	12.65
430.563	12.78
430.923	12.9
431.283	13.03
431.643	13
432.003	13.26
432.363	13.34
432.722	13.42
433.082	13.54
433.442	13.69
433.802	13.75
434.161	13.67
434.521	13.78
434.881	14.16
435.24	14.02
435.6	14.02
435.959	14.17
436.319	14.33
436.678	14.47
437.037	14.46
437.396	14.57
437.756	14.71
438.115	14.84
438.474	14.99
438.833	15.12
439.192	15.19
439.551	15.2
439.91	15.4
440.269	15.38
440.628	15.34
440.987	15.44
441.345	15.69
441.704	15.74
442.063	15.79
442.421	15.7
442.78	15.71
443.138	15.85
443.497	16.03
443.855	16.15
444.214	16.08
444.572	16.43
444.93	16.38
445.288	16.61
445.647	16.64
446.005	16.71
446.363	16.65
446.721	16.87
447.079	16.58
447.437	16.77
447.795	16.89
448.153	16.72
448.51	16.89
448.868	16.8
449.226	16.95
449.584	17.01
449.941	17
450.299	17.29
450.656	17.4
451.014	17.41
451.371	17.52
451.729	17.48
452.086	17.92
452.443	18
452.801	18.11
453.158	18.14
453.515	18.1
453.872	18.29
454.229	18.37
454.586	18.4
454.943	18.19
455.3	18.4
455.657	18.41
456.014	18.36
456.371	18.65
456.727	18.93
457.084	18.89
457.441	19.01
457.797	18.93
458.154	19.07
458.51	18.88
458.867	19.14
459.223	19.24
459.58	19.58
459.936	19.42
460.292	19.59
460.648	19.61
461.005	19.47
461.361	19.56
461.717	19.42
462.073	19.44
462.429	19.31
462.785	19.55
463.141	19.64
463.496	20.02
463.852	20.07
464.208	20.21
464.564	20.51
464.919	20.48
465.275	20.75
465.631	20.7
465.986	20.75
466.342	20.77
466.697	20.86
467.052	20.65
467.408	20.97
467.763	21.03
468.118	21.27
468.473	21
468.829	21.13
469.184	21.38
469.539	21.34
469.894	21.21
470.249	21.42
470.603	21.54
470.958	21.63
471.313	21.78
471.668	21.7
472.023	21.9
472.377	21.99
472.732	21.88
473.086	22.21
473.441	22.04
473.795	22.21
474.15	22.12
474.504	22.17
474.859	22.31
475.213	22.05
475.567	22.25
475.921	22.3
476.275	22.67
476.63	22.54
476.984	22.66
477.338	22.8
477.692	22.65
478.045	22.88
478.399	22.76
478.753	22.76
479.107	22.8
479.461	22.72
479.814	22.79
480.168	22.89
480.521	22.92
480.875	23.03
481.228	22.85
481.582	22.86
481.935	23.08
482.289	23.19
482.642	23.09
482.995	23.19
483.348	23.07
483.701	23.17
484.055	23.05
484.408	23.1
484.761	22.83
485.114	22.86
485.466	22.57
485.819	22.25
486.172	22.28
486.525	22.4
486.878	22.44
487.23	22.66
487.583	22.79
487.936	22.93
488.288	23.11
488.641	23.08
488.993	23.1
489.345	23.01
489.698	22.93
490.05	22.87
490.402	23
490.754	23.05
491.107	23.18
491.459	23.33
491.811	23.58
492.163	23.72
492.515	23.78
492.866	23.76
493.218	23.74
493.57	23.55
493.922	23.29
494.274	23.43
494.625	23.52
494.977	23.85
495.328	23.94
495.68	24.25
496.031	24.3
496.383	24.62
496.734	24.49
497.086	24.74
497.437	24.91
497.788	24.8
498.139	24.74
498.49	24.85
498.842	24.7
499.193	24.71
499.544	24.72
499.894	24.79
500.245	24.88
500.596	24.77
500.947	24.99
501.298	25.05
501.648	25.17
501.999	25.16
502.35	25.21
502.7	25.37
503.051	25.18
503.401	25.25
503.752	25.49
504.102	25.49
504.452	25.41
504.803	25.48
505.153	25.6
505.503	25.57
505.853	25.65
506.203	25.45
506.553	25.63
506.903	25.6
507.253	25.54
507.603	25.6
507.953	25.77
508.303	25.75
508.652	25.85
509.002	26.05
509.352	25.6
509.701	25.63
510.051	25.94
510.4	25.77
510.75	25.68
511.099	25.72
511.449	25.71
511.798	25.68
512.147	25.79
512.496	25.79
512.846	25.69
513.195	25.9
513.544	25.79
513.893	25.87
514.242	25.8
514.591	25.93
514.939	25.96
515.288	25.93
515.637	25.82
515.986	26
516.334	26.07
516.683	26.06
517.032	26.06
517.38	26.02
517.729	25.91
518.077	26.28
518.426	25.91
518.774	26.12
519.122	25.95
519.47	25.94
519.819	25.91
520.167	25.81
520.515	25.7
520.863	25.44
521.211	25.38
521.559	25.56
521.907	25.43
522.255	25.68
522.602	25.81
522.95	25.94
523.298	25.95
523.645	26.11
523.993	25.93
524.341	25.86
524.688	26
525.036	26.09
525.383	25.94
525.73	25.96
526.078	26.16
526.425	26
526.772	26.02
527.119	25.81
527.466	25.72
527.814	25.46
528.161	25.38
528.508	25.52
528.854	25.67
529.201	25.63
529.548	25.71
529.895	25.62
530.242	25.35
530.588	25.06
530.935	25.03
531.282	24.95
531.628	25.08
531.975	25.16
532.321	25.3
532.667	25.43
533.014	25.59
533.36	25.8
533.706	25.71
534.052	25.86
534.399	25.9
534.745	25.9
535.091	25.64
535.437	25.43
535.783	25.35
536.129	25.41
536.474	25.68
536.82	25.72
537.166	26.06
537.512	26.22
537.857	26.19
538.203	26.34
538.549	26.21
538.894	25.98
539.239	26.02
539.585	26.09
539.93	26.4
540.276	26.4
540.621	26.59
540.966	26.53
541.311	26.68
541.656	26.72
542.001	26.68
542.346	26.87
542.691	26.59
543.036	26.47
543.381	26.32
543.726	26.1
544.071	26.1
544.415	26.33
544.76	26.4
545.105	26.45
545.449	26.66
545.794	26.89
546.138	26.89
546.483	27.02
546.827	27.11
547.171	27.29
547.516	27.36
547.86	27.45
548.204	27.51
548.548	27.46
548.892	27.63
549.236	27.4
549.58	27.6
549.924	27.68
550.268	28
550.612	27.89
550.956	27.87
551.3	28.16
551.643	28.3
551.987	28.3
552.33	28.42
552.674	28.42
553.017	28.45
553.361	28.39
553.704	28.7
554.048	28.75
554.391	28.75
554.734	28.62
555.077	28.51
555.42	28.58
555.764	28.74
556.107	28.9
556.45	28.88
556.793	28.8
557.135	29.07
557.478	28.77
557.821	29.1
558.164	29.15
558.507	29.13
558.849	29.17
559.192	29.19
559.534	29.4
559.877	29.24
560.219	29.43
560.562	29.35
560.904	29.63
561.246	29.57
561.589	29.72
561.931	29.52
562.273	29.41
562.615	29.6
562.957	29.57
563.299	29.79
563.641	29.49
563.983	29.61
564.325	29.84
564.667	29.78
565.008	29.94
565.35	29.76
565.692	29.81
566.033	29.89
566.375	29.99
566.716	29.79
567.058	29.84
567.399	29.93
567.741	30.02
568.082	29.91
568.423	29.83
568.764	30.08
569.105	29.67
569.447	30.03
569.788	29.92
570.129	30.07
570.47	30.29
570.811	30.35
571.151	30.47
571.492	30.34
571.833	30.24
572.174	30.66
572.514	30.76
572.855	30.61
573.195	30.58
573.536	30.76
573.876	30.72
574.217	30.62
574.557	30.83
574.898	30.82
575.238	30.76
575.578	31.01
575.918	30.89
576.258	31.09
576.598	31.3
576.938	31.39
577.278	31.59
577.618	31.37
577.958	31.7
578.298	31.76
578.638	31.62
578.977	31.94
579.317	31.91
579.657	32.06
579.996	32.36
580.336	32.5
580.675	32.47
581.014	32.66
581.354	32.58
581.693	32.81
582.032	32.7
582.372	32.85
582.711	33.02
583.05	33.21
583.389	33.11
583.728	33.16
584.067	33.62
584.406	33.33
584.745	33.41
585.083	33.77
585.422	33.83
585.761	33.86
586.1	33.81
586.438	33.98
586.777	34.23
587.115	33.92
587.454	33.72
587.792	34.57
588.13	34.18
588.469	34.45
588.807	34.76
589.145	34.6
589.483	34.69
589.821	34.69
590.159	34.9
590.497	34.96
590.835	34.85
591.173	34.69
591.511	35.24
591.849	35.11
592.187	35.42
592.524	35.2
592.862	35.34
593.2	35.43
593.537	35.57
593.875	35.74
594.212	35.9
594.55	35.93
594.887	36.19
595.224	36.06
595.561	36.23
595.899	36.16
596.236	36.6
596.573	36.5
596.91	36.08
597.247	36.34
597.584	36.72
597.921	36.95
598.258	36.89
598.594	36.77
598.931	36.79
599.268	36.51
599.604	36.6
599.941	36.7
600.277	36.78
600.614	37.02
600.95	37.3
601.287	37.16
601.623	37.46
601.959	37.73
602.296	37.5
602.632	37.55
602.968	37.72
603.304	38.27
603.64	37.88
603.976	37.88
604.312	37.81
604.648	37.89
604.984	38.16
605.319	38.01
605.655	37.89
605.991	37.88
606.326	38.3
606.662	37.94
606.998	38.12
607.333	38.11
607.668	38.25
608.004	38.53
608.339	38.19
608.674	38.74
609.01	38.63
609.345	38.67
609.68	38.76
610.015	38.79
610.35	39.1
610.685	39.08
611.02	39.33
611.355	39.33
611.689	38.92
612.024	39.2
612.359	38.77
612.694	38.93
613.028	39.19
613.363	39.06
613.697	39.27
614.032	39.58
614.366	39.53
614.7	39.25
615.035	39.7
615.369	40.05
615.703	39.71
616.037	39.94
616.371	40.07
616.705	40.03
617.039	40.33
617.373	39.93
617.707	39.82
618.041	40.31
618.375	40.11
618.709	40.48
619.042	40.2
619.376	40.38
619.71	40.13
620.043	40.27
620.377	40.19
620.71	40.73
621.043	40.71
621.377	40.58
621.71	40.93
622.043	40.28
622.376	40.84
622.709	40.9
623.043	40.69
623.376	41.17
623.709	41.01
624.041	41.14
624.374	41.33
624.707	41.08
625.04	40.95
625.373	41.1
625.705	41.54
626.038	41.26
626.37	41.44
626.703	41.52
627.035	41.6
627.368	41.98
627.7	42.12
628.032	42.19
628.365	42.1
628.697	41.87
629.029	41.86
629.361	41.83
629.693	42.17
630.025	41.86
630.357	42.12
630.689	42.72
631.021	42.37
631.353	42.59
631.684	42.6
632.016	43.22
632.348	42.8
632.679	43.04
633.011	42.99
633.342	43.26
633.674	43.5
634.005	43.17
634.336	43.27
634.668	43.56
634.999	44
635.33	43.73
635.661	43.78
635.992	44.15
636.323	43.69
636.654	44.27
636.985	44.54
637.316	44.27
637.647	44.4
637.977	44.27
638.308	44.37
638.639	44.62
638.969	45.24
639.3	45.06
639.63	45.37
639.961	45.35
640.291	45.69
640.622	46.04
640.952	45.61
641.282	45.91
641.612	45.97
641.943	45.93
642.273	46.42
642.603	46.38
642.933	46.19
643.263	45.51
643.592	46.29
643.922	46.82
644.252	46.54
644.582	47.06
644.911	47.18
645.241	47.11
645.571	47.14
645.9	47.49
646.23	47.74
646.559	47.53
646.888	47.94
647.218	47.52
647.547	47.81
647.876	48.04
648.205	47.88
648.534	48.61
648.863	48.53
649.192	48.08
649.521	48.66
649.85	49.01
650.179	48.93
650.508	48.68
650.837	49
651.165	49.04
651.494	49.08
651.822	48.95
652.151	49.88
652.479	49.07
652.808	49.36
653.136	50.27
653.465	49.44
653.793	49.73
654.121	50.3
654.449	49.35
654.777	50.31
655.105	50.16
655.433	50.14
655.761	50.26
656.089	50.35
656.417	50.8
656.745	51.05
657.073	51.24
657.4	50.74
657.728	50.57
658.056	51.39
658.383	51.25
658.711	51.56
659.038	51.38
659.365	52.23
659.693	51.57
660.02	51.74
660.347	51.77
660.674	51.65
661.001	51.95
661.329	51.4
661.656	51.91
661.982	51.79
662.309	51.96
662.636	52.21
662.963	52.46
663.29	52.7
663.616	52.47
663.943	52.81
664.27	53.44
664.596	52.84
664.923	53.34
665.249	53.32
665.576	53.19
665.902	53.47
666.228	53.85
666.554	52.71
666.881	53.69
667.207	53.61
667.533	53.74
667.859	53.37
668.185	53.88
668.511	53.52
668.837	53.84
669.162	53.84
669.488	53.84
669.814	54.02
670.139	54.03
670.465	53.78
670.791	54.5
671.116	54.65
671.442	54.51
