Data from 815657_chest_Reflection__4__129.txt Node

Date: Fri Sep 16 15:41:59 CDT 2022
User: ToomeyLab
Spectrometer: FLMS14357
Trigger mode: 0
Integration Time (sec): 1.000000E-2
Scans to average: 100
Electric dark correction enabled: true
Nonlinearity correction enabled: false
Boxcar width: 0
XAxis mode: Wavelengths
Number of Pixels in Spectrum: 2048
>>>>>Begin Spectral Data<<<<<
189.047	109.8
189.435	109.8
189.823	109.8
190.211	346.85
190.599	-130.71
190.987	147.67
191.375	119.1
191.763	77.11
192.151	-14
192.538	86.13
192.926	124.39
193.314	-3.33
193.702	17.09
194.089	-1132.24
194.477	-56.66
194.864	91.98
195.252	-45.97
195.639	97.86
196.027	50.33
196.414	-70.29
196.801	87.92
197.189	67.95
197.576	-859.9
197.963	-33.14
198.351	-15.99
198.738	-4.37
199.125	21.35
199.512	-41.5
199.899	33.33
200.286	20.22
200.673	53.51
201.06	65.3
201.447	8.97
201.833	19.3
202.22	25.59
202.607	-18.76
202.994	40.43
203.38	23.34
203.767	9.02
204.154	45.43
204.54	24.49
204.927	-11.11
205.313	35.94
205.699	38.98
206.086	44.55
206.472	41.53
206.858	64.35
207.245	31.99
207.631	30.22
208.017	26.42
208.403	-12.26
208.789	-21.03
209.175	54.35
209.561	2.18
209.947	16.95
210.333	30.99
210.719	13.65
211.105	21.95
211.491	-24.28
211.876	45.29
212.262	55.61
212.648	15.03
213.034	16.23
213.419	22.3
213.805	30.97
214.19	48.29
214.576	27.58
214.961	-5.23
215.346	5.35
215.732	-29.98
216.117	50.47
216.502	-20.53
216.888	-8.5
217.273	-13.62
217.658	-1.5
218.043	-31.42
218.428	29.76
218.813	-1.23
219.198	10.3
219.583	9.78
219.968	31.46
220.353	11.38
220.738	13.75
221.122	-10.14
221.507	18.93
221.892	5.02
222.276	19.94
222.661	8.99
223.046	17.71
223.43	-0.76
223.815	-3.68
224.199	9.69
224.583	19.26
224.968	13.89
225.352	5.26
225.736	14.19
226.121	10.05
226.505	11.54
226.889	11.55
227.273	6.74
227.657	10.6
228.041	4.84
228.425	0.25
228.809	13.6
229.193	7.08
229.577	8.39
229.961	7.41
230.344	8.28
230.728	7.02
231.112	7.15
231.495	6.32
231.879	6.92
232.263	6
232.646	5.89
233.03	6.46
233.413	7.92
233.797	6.35
234.18	8.89
234.563	5.35
234.946	6.88
235.33	8.33
235.713	5.77
236.096	7.8
236.479	7.01
236.862	7.13
237.245	6.15
237.628	9.01
238.011	8.06
238.394	6.68
238.777	8.11
239.16	6.72
239.543	8.49
239.925	8.52
240.308	4.34
240.691	7.48
241.073	6.22
241.456	6.71
241.838	6.34
242.221	6.32
242.603	6.72
242.986	5.68
243.368	5.98
243.75	5.73
244.133	6.46
244.515	5.98
244.897	6.46
245.279	5.67
245.661	6.96
246.043	6.39
246.425	5.24
246.807	6.67
247.189	6.29
247.571	6
247.953	5.7
248.335	6.05
248.717	5.72
249.098	5.75
249.48	5.67
249.862	5.98
250.243	6
250.625	5.67
251.006	5.9
251.388	6.86
251.769	4.69
252.151	5.38
252.532	5.56
252.913	5.9
253.295	5.79
253.676	6.09
254.057	5.9
254.438	4.77
254.819	4.38
255.2	4.54
255.581	5.86
255.962	5.6
256.343	6.3
256.724	5.13
257.105	5.12
257.486	6.29
257.867	6.21
258.247	6.1
258.628	6.22
259.009	5.7
259.389	5.72
259.77	4.51
260.15	5.6
260.531	5.29
260.911	5.34
261.292	5.06
261.672	5.31
262.052	5.08
262.432	5.21
262.813	5.72
263.193	5.22
263.573	6.22
263.953	5.59
264.333	5.62
264.713	5.51
265.093	5.1
265.473	4.93
265.853	5.77
266.233	5.35
266.612	6.21
266.992	5.23
267.372	5.83
267.752	5.42
268.131	5.19
268.511	5.97
268.89	5.74
269.27	4.84
269.649	4.85
270.029	5.12
270.408	5.88
270.787	5.21
271.167	5.28
271.546	6.1
271.925	5.23
272.304	5.41
272.683	4.97
273.062	5.09
273.441	5.44
273.82	4.81
274.199	5.21
274.578	4.93
274.957	5.02
275.336	4.78
275.715	5.75
276.093	5.26
276.472	5.27
276.851	5.46
277.229	5
277.608	5.34
277.986	5.11
278.365	4.94
278.743	5.32
279.122	5.24
279.5	5.08
279.878	5.6
280.257	6
280.635	5.12
281.013	5.16
281.391	5.86
281.769	5.42
282.147	5.69
282.525	4.61
282.903	5.23
283.281	4.72
283.659	5.13
284.037	5.32
284.415	5.17
284.792	5.54
285.17	5.41
285.548	4.8
285.925	5.22
286.303	5.47
286.68	4.86
287.058	4.88
287.435	4.96
287.813	5.49
288.19	4.73
288.567	4.95
288.945	4.73
289.322	4.93
289.699	5
290.076	4.5
290.453	5.09
290.83	5.02
291.207	4.74
291.584	4.5
291.961	5.37
292.338	4.78
292.715	4.76
293.092	4.66
293.469	4.95
293.845	4.75
294.222	4.9
294.599	4.33
294.975	4.86
295.352	4.9
295.728	4.9
296.105	5.55
296.481	4.83
296.858	4.64
297.234	5.04
297.61	4.92
297.986	4.96
298.363	4.53
298.739	4.73
299.115	5.09
299.491	5.23
299.867	4.72
300.243	4.86
300.619	5.06
300.995	4.67
301.371	5.09
301.746	4.77
302.122	4.95
302.498	5.15
302.874	4.78
303.249	4.88
303.625	4.9
304	5.28
304.376	4.83
304.751	4.8
305.127	4.91
305.502	4.89
305.878	4.77
306.253	4.72
306.628	4.67
307.003	5.1
307.378	5.13
307.754	5
308.129	5.46
308.504	5.39
308.879	5.09
309.254	5
309.629	4.6
310.003	4.73
310.378	4.57
310.753	4.96
311.128	4.96
311.502	4.69
311.877	4.65
312.252	4.74
312.626	4.72
313.001	4.87
313.375	4.97
313.75	4.65
314.124	4.67
314.498	4.72
314.873	5.39
315.247	4.97
315.621	4.66
315.995	5.03
316.369	4.88
316.743	5.11
317.117	4.73
317.491	4.26
317.865	5.25
318.239	4.79
318.613	4.94
318.987	4.25
319.361	4.72
319.734	4.97
320.108	4.59
320.482	5.06
320.855	4.78
321.229	4.55
321.602	5.16
321.976	4.42
322.349	4.94
322.723	5.16
323.096	4.33
323.469	4.93
323.843	5.5
324.216	5.23
324.589	4.96
324.962	4.58
325.335	4.98
325.708	4.53
326.081	4.88
326.454	4.72
326.827	4.36
327.2	4.93
327.573	4.64
327.945	5.04
328.318	4.62
328.691	4.8
329.063	4.88
329.436	4.63
329.809	4.51
330.181	5.23
330.553	5.06
330.926	4.6
331.298	5.06
331.671	4.56
332.043	4.47
332.415	4.65
332.787	4.09
333.159	4.56
333.532	5.27
333.904	4.89
334.276	5.12
334.648	4.66
335.02	5.12
335.391	5.43
335.763	4.4
336.135	3.67
336.507	4.82
336.879	4.84
337.25	4.16
337.622	4.85
337.993	5.05
338.365	4.76
338.736	4.74
339.108	4.76
339.479	5.02
339.851	4.84
340.222	4.71
340.593	4.56
340.964	5.03
341.336	4.89
341.707	4.74
342.078	5.3
342.449	4.43
342.82	5.04
343.191	4.95
343.562	4.88
343.933	4.91
344.303	5.41
344.674	4.21
345.045	4.93
345.416	4.9
345.786	4.81
346.157	4.76
346.527	4.74
346.898	4.41
347.268	4.88
347.639	4.49
348.009	4.76
348.38	5.27
348.75	4.71
349.12	5.03
349.49	5.29
349.861	5.02
350.231	4.95
350.601	4.74
350.971	4.91
351.341	5.09
351.711	5
352.081	4.92
352.45	5.12
352.82	5.22
353.19	4.93
353.56	5.07
353.929	4.99
354.299	5.06
354.669	4.89
355.038	4.65
355.408	4.75
355.777	4.93
356.147	4.6
356.516	4.99
356.885	5.09
357.254	5.09
357.624	4.78
357.993	4.88
358.362	4.7
358.731	5.08
359.1	4.95
359.469	4.63
359.838	4.84
360.207	5
360.576	4.72
360.945	4.78
361.314	4.84
361.682	4.73
362.051	4.69
362.42	5.11
362.788	5.09
363.157	4.67
363.525	4.79
363.894	5.02
364.262	4.85
364.631	4.93
364.999	4.76
365.367	5.01
365.735	5.09
366.104	5.13
366.472	5.22
366.84	4.93
367.208	5.09
367.576	4.85
367.944	4.78
368.312	4.71
368.68	5.21
369.048	5
369.416	4.63
369.783	4.98
370.151	5.31
370.519	5.08
370.886	5.12
371.254	5.11
371.621	4.84
371.989	4.96
372.356	5.02
372.724	5.17
373.091	4.93
373.458	5.16
373.826	4.86
374.193	5.34
374.56	4.89
374.927	5.08
375.294	5.25
375.661	4.99
376.028	5.17
376.395	4.96
376.762	5.2
377.129	5.02
377.496	4.97
377.863	5.2
378.229	5.42
378.596	4.86
378.963	4.97
379.329	5.06
379.696	5.41
380.062	4.88
380.429	5.16
380.795	5.23
381.161	5.13
381.528	5.22
381.894	5.08
382.26	5.01
382.626	5.35
382.993	4.93
383.359	5.09
383.725	5.11
384.091	5.26
384.457	4.75
384.823	5.01
385.188	4.96
385.554	4.91
385.92	5.02
386.286	5.07
386.651	5.16
387.017	5.17
387.383	4.73
387.748	4.71
388.114	4.85
388.479	5.31
388.845	5.17
389.21	5.43
389.575	5.15
389.94	5.3
390.306	4.9
390.671	4.87
391.036	4.91
391.401	5.01
391.766	5.07
392.131	5.34
392.496	4.96
392.861	5.22
393.226	5.26
393.591	5
393.956	5.25
394.32	5.5
394.685	5.09
395.05	5.37
395.414	5.1
395.779	5.33
396.143	5.25
396.508	5.08
396.872	5.13
397.236	5.23
397.601	5.05
397.965	4.76
398.329	4.81
398.694	5.34
399.058	5.52
399.422	5.21
399.786	5.05
400.15	5.34
400.514	5.12
400.878	5.41
401.242	4.92
401.605	5.03
401.969	5.02
402.333	5.31
402.697	5.14
403.06	5.39
403.424	5.23
403.787	5.02
404.151	5.41
404.514	5.13
404.878	5.06
405.241	4.99
405.604	5.26
405.968	5.24
406.331	5.08
406.694	5.23
407.057	5.17
407.42	5.1
407.783	5.3
408.146	5.4
408.509	5.35
408.872	5.32
409.235	5.31
409.598	4.94
409.961	5.36
410.323	5.35
410.686	5.57
411.049	4.98
411.411	5.26
411.774	5.33
412.136	5.05
412.499	5.15
412.861	5.23
413.223	5.2
413.586	5.4
413.948	5.08
414.31	5.47
414.672	5.18
415.035	5.46
415.397	5.1
415.759	5.36
416.121	5.43
416.483	5.29
416.845	5.54
417.206	5.48
417.568	5.36
417.93	5.35
418.292	5.3
418.653	4.92
419.015	5.17
419.377	5.28
419.738	5.09
420.1	5.3
420.461	5.26
420.822	5.09
421.184	5.19
421.545	5.22
421.906	5.08
422.267	5.19
422.629	5.03
422.99	5.14
423.351	5.17
423.712	5.05
424.073	5.22
424.434	5.12
424.795	5.17
425.155	5.25
425.516	5.13
425.877	5.02
426.238	5.16
426.598	5.04
426.959	5.13
427.32	5.11
427.68	5.15
428.041	5.05
428.401	5.18
428.761	5.5
429.122	5.36
429.482	5.15
429.842	5.23
430.202	5.43
430.563	5.18
430.923	5.35
431.283	5.57
431.643	5.46
432.003	5.28
432.363	5.45
432.722	5.4
433.082	5.47
433.442	5.46
433.802	5.31
434.161	5.24
434.521	5.23
434.881	5.13
435.24	5.15
435.6	5.39
435.959	5.38
436.319	5.33
436.678	5.4
437.037	5.28
437.396	5.33
437.756	5.53
438.115	5.45
438.474	5.32
438.833	5.33
439.192	5.29
439.551	5.38
439.91	5.24
440.269	5.42
440.628	5.21
440.987	5.19
441.345	5.35
441.704	5.24
442.063	5.3
442.421	5.2
442.78	5.19
443.138	5.29
443.497	5.32
443.855	5.27
444.214	5.17
444.572	5.34
444.93	5.34
445.288	5.25
445.647	5.45
446.005	5.3
446.363	5.43
446.721	5.36
447.079	5.32
447.437	5.36
447.795	5.35
448.153	5.39
448.51	5.17
448.868	5.21
449.226	5.33
449.584	5.33
449.941	5.18
450.299	5.34
450.656	5.29
451.014	5.4
451.371	5.43
451.729	5.4
452.086	5.27
452.443	5.45
452.801	5.54
453.158	5.43
453.515	5.33
453.872	5.37
454.229	5.4
454.586	5.42
454.943	5.31
455.3	5.39
455.657	5.24
456.014	5.35
456.371	5.4
456.727	5.42
457.084	5.67
457.441	5.42
457.797	5.56
458.154	5.48
458.51	5.31
458.867	5.44
459.223	5.38
459.58	5.53
459.936	5.51
460.292	5.22
460.648	5.26
461.005	5.56
461.361	5.33
461.717	5.33
462.073	5.28
462.429	5.33
462.785	5.42
463.141	5.47
463.496	5.45
463.852	5.41
464.208	5.41
464.564	5.48
464.919	5.5
465.275	5.51
465.631	5.62
465.986	5.51
466.342	5.56
466.697	5.51
467.052	5.48
467.408	5.62
467.763	5.45
468.118	5.41
468.473	5.45
468.829	5.55
469.184	5.54
469.539	5.69
469.894	5.54
470.249	5.49
470.603	5.53
470.958	5.35
471.313	5.55
471.668	5.51
472.023	5.52
472.377	5.6
472.732	5.58
473.086	5.64
473.441	5.4
473.795	5.56
474.15	5.45
474.504	5.63
474.859	5.49
475.213	5.47
475.567	5.28
475.921	5.58
476.275	5.64
476.63	5.62
476.984	5.65
477.338	5.53
477.692	5.64
478.045	5.59
478.399	5.51
478.753	5.52
479.107	5.48
479.461	5.53
479.814	5.56
480.168	5.45
480.521	5.61
480.875	5.64
481.228	5.45
481.582	5.48
481.935	5.54
482.289	5.56
482.642	5.55
482.995	5.46
483.348	5.6
483.701	5.48
484.055	5.51
484.408	5.44
484.761	5.39
485.114	5.25
485.466	5.2
485.819	5.19
486.172	5.2
486.525	5.22
486.878	5.22
487.23	5.32
487.583	5.35
487.936	5.38
488.288	5.4
488.641	5.36
488.993	5.3
489.345	5.29
489.698	5.26
490.05	5.27
490.402	5.22
490.754	5.34
491.107	5.38
491.459	5.41
491.811	5.4
492.163	5.41
492.515	5.38
492.866	5.41
493.218	5.33
493.57	5.3
493.922	5.31
494.274	5.34
494.625	5.38
494.977	5.38
495.328	5.48
495.68	5.52
496.031	5.62
496.383	5.52
496.734	5.69
497.086	5.54
497.437	5.56
497.788	5.64
498.139	5.55
498.49	5.62
498.842	5.58
499.193	5.65
499.544	5.69
499.894	5.47
500.245	5.63
500.596	5.52
500.947	5.69
501.298	5.51
501.648	5.66
501.999	5.61
502.35	5.77
502.7	5.76
503.051	5.73
503.401	5.56
503.752	5.76
504.102	5.79
504.452	5.62
504.803	5.75
505.153	5.78
505.503	5.71
505.853	5.69
506.203	5.79
506.553	5.62
506.903	5.59
507.253	5.6
507.603	5.76
507.953	5.73
508.303	5.83
508.652	5.73
509.002	5.78
509.352	5.71
509.701	5.72
510.051	5.74
510.4	5.55
510.75	5.68
511.099	5.72
511.449	5.62
511.798	5.67
512.147	5.71
512.496	5.77
512.846	5.87
513.195	5.73
513.544	5.78
513.893	5.86
514.242	5.69
514.591	5.74
514.939	5.79
515.288	5.83
515.637	5.82
515.986	5.61
516.334	5.68
516.683	5.81
517.032	5.86
517.38	5.98
517.729	5.89
518.077	5.85
518.426	5.85
518.774	5.77
519.122	5.79
519.47	5.83
519.819	5.71
520.167	5.66
520.515	5.64
520.863	5.77
521.211	5.7
521.559	5.76
521.907	5.72
522.255	5.74
522.602	5.76
522.95	5.83
523.298	5.88
523.645	5.82
523.993	5.82
524.341	5.89
524.688	5.96
525.036	5.92
525.383	6.09
525.73	6.05
526.078	5.93
526.425	5.83
526.772	5.89
527.119	5.78
527.466	5.83
527.814	5.88
528.161	5.82
528.508	5.84
528.854	5.8
529.201	5.78
529.548	5.74
529.895	5.7
530.242	5.71
530.588	5.7
530.935	5.69
531.282	5.71
531.628	5.7
531.975	5.77
532.321	5.86
532.667	5.95
533.014	5.94
533.36	5.93
533.706	5.97
534.052	5.87
534.399	5.98
534.745	5.9
535.091	5.8
535.437	5.81
535.783	5.89
536.129	5.9
536.474	5.92
536.82	5.96
537.166	5.97
537.512	6.1
537.857	6.09
538.203	6.02
538.549	6.08
538.894	5.91
539.239	6.16
539.585	6.07
539.93	6.06
540.276	6.21
540.621	6.27
540.966	6.25
541.311	6.21
541.656	6.19
542.001	6.1
542.346	6.1
542.691	6.05
543.036	5.97
543.381	5.94
543.726	5.98
544.071	6.03
544.415	6.03
544.76	6.03
545.105	6.14
545.449	6.14
545.794	6.18
546.138	6.19
546.483	6.26
546.827	6.28
547.171	6.38
547.516	6.33
547.86	6.29
548.204	6.36
548.548	6.35
548.892	6.28
549.236	6.25
549.58	6.4
549.924	6.55
550.268	6.43
550.612	6.5
550.956	6.57
551.3	6.64
551.643	6.61
551.987	6.67
552.33	6.56
552.674	6.56
553.017	6.61
553.361	6.68
553.704	6.68
554.048	6.68
554.391	6.76
554.734	6.61
555.077	6.71
555.42	6.61
555.764	6.7
556.107	6.75
556.45	6.68
556.793	6.86
557.135	6.71
557.478	6.74
557.821	6.67
558.164	6.93
558.507	6.81
558.849	6.76
559.192	6.93
559.534	6.84
559.877	6.68
560.219	6.72
560.562	6.88
560.904	6.84
561.246	6.9
561.589	7.09
561.931	6.96
562.273	6.99
562.615	7.05
562.957	7.03
563.299	6.84
563.641	7.02
563.983	7.24
564.325	6.99
564.667	7
565.008	7.17
565.35	7.13
565.692	6.96
566.033	7.06
566.375	7.08
566.716	7.12
567.058	6.98
567.399	7.2
567.741	7.09
568.082	7.38
568.423	6.96
568.764	7.18
569.105	7.1
569.447	7.34
569.788	7.34
570.129	7.22
570.47	7.37
570.811	7.37
571.151	7.33
571.492	7.31
571.833	7.46
572.174	7.47
572.514	7.31
572.855	7.24
573.195	7.44
573.536	7.47
573.876	7.46
574.217	7.5
574.557	7.48
574.898	7.44
575.238	7.55
575.578	7.44
575.918	7.49
576.258	7.66
576.598	7.57
576.938	7.62
577.278	7.52
577.618	7.59
577.958	7.6
578.298	7.57
578.638	7.48
578.977	7.68
579.317	7.7
579.657	7.75
579.996	7.66
580.336	7.75
580.675	7.59
581.014	7.89
581.354	7.67
581.693	7.88
582.032	7.94
582.372	7.79
582.711	8.09
583.05	7.83
583.389	7.95
583.728	8.06
584.067	8.2
584.406	8.38
584.745	8.16
585.083	7.91
585.422	8.4
585.761	8.2
586.1	8.13
586.438	8.24
586.777	8.03
587.115	8.28
587.454	8.26
587.792	8.13
588.13	8.17
588.469	8.4
588.807	8.31
589.145	8.32
589.483	8.55
589.821	8.53
590.159	8.54
590.497	8.35
590.835	8.8
591.173	8.49
591.511	8.42
591.849	8.73
592.187	8.54
592.524	8.37
592.862	8.71
593.2	8.66
593.537	8.5
593.875	8.53
594.212	8.81
594.55	8.6
594.887	8.85
595.224	8.89
595.561	8.84
595.899	8.87
596.236	9.03
596.573	8.68
596.91	8.9
597.247	8.82
597.584	8.99
597.921	9.06
598.258	8.7
598.594	8.68
598.931	8.77
599.268	8.8
599.604	8.66
599.941	8.91
600.277	8.96
600.614	9.08
600.95	9.09
601.287	9.11
601.623	9.13
601.959	9.35
602.296	9.02
602.632	9.29
602.968	9.25
603.304	9.3
603.64	9.12
603.976	9.32
604.312	9.3
604.648	9.41
604.984	9.29
605.319	9.5
605.655	9.52
605.991	9.42
606.326	9.41
606.662	9.39
606.998	9.33
607.333	9.23
607.668	9.59
608.004	9.47
608.339	9.51
608.674	9.56
609.01	9.56
609.345	9.83
609.68	9.59
610.015	9.59
610.35	9.83
610.685	10.16
611.02	9.71
611.355	9.92
611.689	9.93
612.024	10.08
612.359	9.93
612.694	9.95
613.028	9.81
613.363	9.79
613.697	10.02
614.032	10.04
614.366	10
614.7	10.06
615.035	10.19
615.369	10.16
615.703	10.22
616.037	10.14
616.371	10.3
616.705	10.23
617.039	10.37
617.373	10.43
617.707	10.45
618.041	10.43
618.375	10.52
618.709	10.35
619.042	10.41
619.376	10.45
619.71	10.43
620.043	10.7
620.377	10.55
620.71	11
621.043	10.81
621.377	10.86
621.71	10.71
622.043	10.54
622.376	10.87
622.709	10.83
623.043	10.94
623.376	10.74
623.709	10.38
624.041	11.13
624.374	11.05
624.707	11.05
625.04	10.92
625.373	10.9
625.705	10.96
626.038	11.21
626.37	11.13
626.703	10.99
627.035	10.96
627.368	11.52
627.7	11.29
628.032	11.17
628.365	11.04
628.697	11.39
629.029	11.28
629.361	11.23
629.693	11.38
630.025	11.29
630.357	11.23
630.689	11.62
631.021	11.83
631.353	11.78
631.684	11.43
632.016	11.41
632.348	11.68
632.679	11.37
633.011	11.64
633.342	11.72
633.674	12.2
634.005	11.5
634.336	11.6
634.668	12.16
634.999	11.75
635.33	11.9
635.661	11.83
635.992	11.7
636.323	11.88
636.654	11.77
636.985	11.81
637.316	12.44
637.647	12.19
637.977	12.08
638.308	12.44
638.639	12.13
638.969	12.3
639.3	12.34
639.63	12.13
639.961	12.6
640.291	12.25
640.622	12.16
640.952	12.76
641.282	12.48
641.612	12.41
641.943	12.65
642.273	12.29
642.603	12.71
642.933	12.32
643.263	12.51
643.592	12.62
643.922	12.49
644.252	12.71
644.582	12.91
644.911	12.76
645.241	12.85
645.571	12.95
645.9	12.71
646.23	12.89
646.559	12.58
646.888	12.69
647.218	13.3
647.547	13.05
647.876	13.51
648.205	13.2
648.534	13.08
648.863	13.01
649.192	13.27
649.521	13.15
649.85	13.49
650.179	13.23
650.508	13.64
650.837	12.95
651.165	13.17
651.494	13.66
651.822	13.2
652.151	13.35
652.479	13.62
652.808	13.78
653.136	13.32
653.465	13.47
653.793	13.32
654.121	13.34
654.449	13.3
654.777	13.7
655.105	13.82
655.433	13.33
655.761	14.23
656.089	13.57
656.417	13.84
656.745	13.76
657.073	14.11
657.4	13.97
657.728	14.45
658.056	13.72
658.383	14.21
658.711	14.15
659.038	14.14
659.365	14.6
659.693	14.07
660.02	13.92
660.347	14.28
660.674	14.14
661.001	14.12
661.329	14.22
661.656	14.19
661.982	14.85
662.309	14.45
662.636	14.43
662.963	14.31
663.29	14.65
663.616	15.17
663.943	14.64
664.27	14.75
664.596	14.69
664.923	14.51
665.249	14.68
665.576	14.64
665.902	15.23
666.228	14.82
666.554	14.86
666.881	15.39
667.207	14.86
667.533	15.28
667.859	15.44
668.185	15.32
668.511	15.2
668.837	15.4
669.162	15.39
669.488	15.75
669.814	15.58
670.139	14.71
670.465	15.17
670.791	15.11
671.116	15.24
671.442	15.69
671.767	15.61
672.092	14.83
672.418	15.51
672.743	15.54
673.068	16.13
673.393	15.34
673.718	15.72
674.043	15.48
674.368	15.53
674.693	16.46
675.018	16.58
675.343	15.48
675.667	15.47
675.992	15.67
676.317	15.8
676.641	15.41
676.966	15.71
677.29	16.12
677.615	16.9
677.939	15.85
678.264	16.18
678.588	15.27
678.912	15.73
679.236	15.7
679.56	16.25
679.885	16.61
680.209	15.97
680.532	16.32
680.856	16.4
681.18	16.78
681.504	16.46
681.828	16.39
682.152	16.14
682.475	16.53
682.799	16.43
683.122	16.39
683.446	16.48
683.769	17.08
684.093	16.53
684.416	16.63
684.739	16.65
685.062	16.67
685.386	16.46
685.709	16.5
686.032	17.16
686.355	16.84
686.678	17.22
687.001	16.38
687.324	16.9
687.646	17.71
