Data from 815650_crown_Reflection__2__137.txt Node

Date: Fri Sep 16 15:46:58 CDT 2022
User: ToomeyLab
Spectrometer: FLMS14357
Trigger mode: 0
Integration Time (sec): 1.000000E-2
Scans to average: 100
Electric dark correction enabled: true
Nonlinearity correction enabled: false
Boxcar width: 0
XAxis mode: Wavelengths
Number of Pixels in Spectrum: 2048
>>>>>Begin Spectral Data<<<<<
189.047	139.74
189.435	139.74
189.823	139.74
190.211	158.9
190.599	132.2
190.987	116.63
191.375	61.83
191.763	363.13
192.151	-139.97
192.538	-125.93
192.926	93.79
193.314	71.74
193.702	-21.6
194.089	-1209.8
194.477	497.56
194.864	-13.54
195.252	-10.95
195.639	-65.4
196.027	65.07
196.414	-52.85
196.801	-53.08
197.189	71.71
197.576	-46.7
197.963	614.86
198.351	-51.81
198.738	-5.27
199.125	65.39
199.512	-73.99
199.899	10.6
200.286	18.31
200.673	21.21
201.06	46.62
201.447	4.67
201.833	14.41
202.22	2.81
202.607	-31.15
202.994	38.34
203.38	12.09
203.767	-2.34
204.154	1.12
204.54	-2.07
204.927	-28.4
205.313	30.12
205.699	54.4
206.086	63.75
206.472	24.1
206.858	-3.87
207.245	-4.06
207.631	19.27
208.017	-20.55
208.403	-7.51
208.789	5.25
209.175	17.15
209.561	12.37
209.947	-55.91
210.333	-22.39
210.719	-5.79
211.105	27.18
211.491	46.98
211.876	-1.34
212.262	6.98
212.648	9.77
213.034	17.27
213.419	-16.68
213.805	-3.48
214.19	20.67
214.576	14.01
214.961	-30.37
215.346	-47.1
215.732	-79.16
216.117	16.54
216.502	4.83
216.888	-10.33
217.273	1.76
217.658	5.09
218.043	-37.8
218.428	-5.35
218.813	9.52
219.198	2.13
219.583	-12.04
219.968	7.59
220.353	-7.84
220.738	17.87
221.122	11.57
221.507	11.91
221.892	-2.81
222.276	12.68
222.661	8.59
223.046	17.14
223.43	4.98
223.815	-5.62
224.199	8.95
224.583	7.17
224.968	7.27
225.352	-1.34
225.736	12.5
226.121	12.01
226.505	8.6
226.889	5.77
227.273	9.91
227.657	8.8
228.041	-1.17
228.425	-3.64
228.809	8.54
229.193	3.78
229.577	6.97
229.961	5.07
230.344	6.22
230.728	5.94
231.112	5.65
231.495	5
231.879	5.59
232.263	4.48
232.646	5.58
233.03	5.93
233.413	6.94
233.797	4.27
234.18	7.86
234.563	5.38
234.946	6.83
235.33	7.13
235.713	5.32
236.096	5.47
236.479	6.36
236.862	5.41
237.245	4.92
237.628	7.05
238.011	5.97
238.394	4.76
238.777	7.42
239.16	7.05
239.543	8.31
239.925	5.75
240.308	5.45
240.691	5.69
241.073	5.89
241.456	4.81
241.838	4.42
242.221	4.98
242.603	4.84
242.986	5.26
243.368	5.61
243.75	5.36
244.133	5.58
244.515	5.44
244.897	5.78
245.279	4.93
245.661	5.19
246.043	5.73
246.425	5.45
246.807	4.91
247.189	5.21
247.571	4.97
247.953	5.46
248.335	5.42
248.717	5.38
249.098	5.44
249.48	5.26
249.862	5.46
250.243	5.68
250.625	6
251.006	5.32
251.388	5.74
251.769	4.63
252.151	5.54
252.532	4.38
252.913	5.62
253.295	4.99
253.676	5.77
254.057	4.92
254.438	4.79
254.819	4.34
255.2	4.92
255.581	5.83
255.962	3.99
256.343	4.46
256.724	4.21
257.105	3.97
257.486	6.31
257.867	5.1
258.247	5.49
258.628	5.04
259.009	5.94
259.389	5.24
259.77	4.22
260.15	5.31
260.531	4.9
260.911	4.69
261.292	4.85
261.672	4.95
262.052	4.55
262.432	5.13
262.813	5.53
263.193	4.79
263.573	5.11
263.953	4.62
264.333	5.01
264.713	4.48
265.093	4.36
265.473	4.64
265.853	6.03
266.233	4.32
266.612	6.13
266.992	3.99
267.372	4.69
267.752	5.56
268.131	4.78
268.511	5.29
268.89	5.62
269.27	4.57
269.649	4.99
270.029	4.64
270.408	5.44
270.787	5.23
271.167	5.07
271.546	5.95
271.925	5.67
272.304	5.38
272.683	4.63
273.062	4.65
273.441	4.8
273.82	4.99
274.199	4.8
274.578	4.89
274.957	4.84
275.336	4.96
275.715	5.23
276.093	4.64
276.472	4.76
276.851	4.07
277.229	4.68
277.608	5
277.986	4.6
278.365	4.58
278.743	5.13
279.122	4.78
279.5	4.85
279.878	3.86
280.257	4.54
280.635	4.75
281.013	4.33
281.391	5.01
281.769	5.05
282.147	4.56
282.525	4.02
282.903	4.38
283.281	4.29
283.659	5.33
284.037	4.86
284.415	5.28
284.792	5.24
285.17	4.96
285.548	4.48
285.925	4.59
286.303	4.82
286.68	4.65
287.058	4.59
287.435	4.6
287.813	4.98
288.19	4.52
288.567	4.37
288.945	4.55
289.322	4.85
289.699	4.67
290.076	4.52
290.453	4.8
290.83	4.83
291.207	4.71
291.584	4.2
291.961	4.53
292.338	4.76
292.715	4.52
293.092	4.63
293.469	5.05
293.845	5.15
294.222	4.64
294.599	4.47
294.975	4.3
295.352	4.69
295.728	4.18
296.105	4.86
296.481	4.31
296.858	4.43
297.234	4.69
297.61	4.82
297.986	4.79
298.363	4.72
298.739	4.34
299.115	4.87
299.491	4.58
299.867	4.25
300.243	4.63
300.619	4.9
300.995	4.4
301.371	4.81
301.746	4.68
302.122	4.82
302.498	4.57
302.874	4.55
303.249	5.01
303.625	4.33
304	4.42
304.376	4.72
304.751	4.87
305.127	4.67
305.502	4.25
305.878	4.3
306.253	4.74
306.628	4.66
307.003	4.89
307.378	4.71
307.754	5.19
308.129	5.09
308.504	4.87
308.879	4.64
309.254	4.85
309.629	4.04
310.003	4.39
310.378	4.2
310.753	4.48
311.128	4.64
311.502	3.81
311.877	4.79
312.252	4.89
312.626	4.54
313.001	4.53
313.375	4.72
313.75	4.43
314.124	4.54
314.498	4.29
314.873	4.88
315.247	4.66
315.621	4.81
315.995	4.16
316.369	4.69
316.743	5.08
317.117	4.66
317.491	4.37
317.865	4.94
318.239	4.87
318.613	4.32
318.987	4.33
319.361	4.02
319.734	4.65
320.108	4.41
320.482	4.4
320.855	4.64
321.229	4.27
321.602	4.88
321.976	4.27
322.349	4.76
322.723	4.49
323.096	4.33
323.469	4.41
323.843	5.14
324.216	5.03
324.589	4.73
324.962	4.5
325.335	4.9
325.708	4.37
326.081	4.83
326.454	4.46
326.827	4.32
327.2	4.89
327.573	4.35
327.945	4.79
328.318	4.5
328.691	4.37
329.063	4.63
329.436	4.54
329.809	3.93
330.181	4.91
330.553	4.62
330.926	4.35
331.298	4.88
331.671	4.86
332.043	4.6
332.415	4.72
332.787	4.03
333.159	5.15
333.532	4.8
333.904	4.84
334.276	4.15
334.648	4.68
335.02	4.63
335.391	5.08
335.763	4.01
336.135	4.4
336.507	4.6
336.879	5.03
337.25	3.71
337.622	4.8
337.993	4.67
338.365	4.94
338.736	5.25
339.108	4.6
339.479	4.8
339.851	4.62
340.222	4.53
340.593	4.94
340.964	4.77
341.336	4.43
341.707	4.05
342.078	4.64
342.449	4.49
342.82	4.54
343.191	4.93
343.562	4.67
343.933	4.63
344.303	4.96
344.674	3.95
345.045	4.75
345.416	4.75
345.786	4.75
346.157	4.61
346.527	4.67
346.898	4.36
347.268	4.51
347.639	4.46
348.009	4.74
348.38	4.65
348.75	4.09
349.12	4.88
349.49	4.77
349.861	5.01
350.231	4.35
350.601	4.44
350.971	5
351.341	4.8
351.711	4.96
352.081	4.64
352.45	5.02
352.82	5.04
353.19	4.66
353.56	4.5
353.929	4.47
354.299	4.67
354.669	4.72
355.038	4.92
355.408	4.76
355.777	4.21
356.147	4.5
356.516	4.78
356.885	4.61
357.254	4.56
357.624	4.74
357.993	4.64
358.362	4.49
358.731	4.84
359.1	4.7
359.469	4.45
359.838	4.63
360.207	4.83
360.576	4.77
360.945	4.7
361.314	4.85
361.682	4.45
362.051	4.82
362.42	5.09
362.788	4.88
363.157	5.03
363.525	4.63
363.894	4.67
364.262	4.66
364.631	4.92
364.999	4.88
365.367	4.96
365.735	5.03
366.104	4.85
366.472	5
366.84	4.85
367.208	5.06
367.576	5.03
367.944	4.88
368.312	4.58
368.68	4.99
369.048	5.1
369.416	5.02
369.783	4.87
370.151	4.96
370.519	4.8
370.886	4.9
371.254	4.7
371.621	5.27
371.989	4.94
372.356	4.93
372.724	5.13
373.091	4.87
373.458	5.04
373.826	5.37
374.193	5.32
374.56	4.73
374.927	4.88
375.294	4.9
375.661	4.64
376.028	5.21
376.395	4.52
376.762	5.11
377.129	4.71
377.496	5.13
377.863	4.91
378.229	5.29
378.596	4.58
378.963	5.16
379.329	5.03
379.696	5.01
380.062	5.21
380.429	5.12
380.795	4.97
381.161	4.92
381.528	5.35
381.894	5.04
382.26	5.15
382.626	4.92
382.993	4.84
383.359	4.86
383.725	5.02
384.091	5.13
384.457	4.64
384.823	5.11
385.188	5.07
385.554	4.75
385.92	5.1
386.286	5.28
386.651	4.98
387.017	5.13
387.383	4.64
387.748	4.99
388.114	4.77
388.479	5.17
388.845	5.06
389.21	5.24
389.575	5.13
389.94	5.38
390.306	5.14
390.671	5.29
391.036	4.87
391.401	5.19
391.766	5.06
392.131	5.47
392.496	5.17
392.861	5.18
393.226	5.29
393.591	5.2
393.956	5.08
394.32	5.14
394.685	5.01
395.05	5.21
395.414	4.82
395.779	4.98
396.143	5.19
396.508	4.88
396.872	5.1
397.236	5.3
397.601	5.09
397.965	5.08
398.329	5.15
398.694	5.19
399.058	5.49
399.422	5.14
399.786	5.08
400.15	5.3
400.514	5.15
400.878	5.2
401.242	5.11
401.605	5.19
401.969	5.25
402.333	5.22
402.697	5.13
403.06	5.49
403.424	5.12
403.787	5.11
404.151	5.23
404.514	5.25
404.878	5.19
405.241	5.06
405.604	5.28
405.968	5.36
406.331	5.2
406.694	5.08
407.057	5.2
407.42	5.2
407.783	5.47
408.146	5.46
408.509	5.42
408.872	5.37
409.235	5.35
409.598	5.01
409.961	5.47
410.323	5.32
410.686	5.29
411.049	5.15
411.411	5.14
411.774	5.36
412.136	5.22
412.499	5.15
412.861	5.41
413.223	5.32
413.586	5.42
413.948	5.38
414.31	5.29
414.672	5.11
415.035	5.39
415.397	5.09
415.759	5.2
416.121	5.26
416.483	5.43
416.845	5.47
417.206	5.43
417.568	5.57
417.93	5.56
418.292	5.2
418.653	5.13
419.015	5.28
419.377	5.32
419.738	5.1
420.1	5.16
420.461	5.25
420.822	5.29
421.184	5.24
421.545	5.25
421.906	5.31
422.267	5.2
422.629	5.13
422.99	5.17
423.351	5.24
423.712	5.25
424.073	5.34
424.434	5.28
424.795	5.23
425.155	5.32
425.516	5.37
425.877	5.2
426.238	5.19
426.598	5.22
426.959	5.35
427.32	5.29
427.68	5.39
428.041	5.22
428.401	5.33
428.761	5.51
429.122	5.42
429.482	5.41
429.842	5.46
430.202	5.41
430.563	5.41
430.923	5.48
431.283	5.76
431.643	5.6
432.003	5.54
432.363	5.48
432.722	5.64
433.082	5.53
433.442	5.46
433.802	5.63
434.161	5.46
434.521	5.53
434.881	5.46
435.24	5.36
435.6	5.55
435.959	5.56
436.319	5.44
436.678	5.6
437.037	5.38
437.396	5.45
437.756	5.6
438.115	5.54
438.474	5.54
438.833	5.59
439.192	5.66
439.551	5.51
439.91	5.43
440.269	5.58
440.628	5.44
440.987	5.44
441.345	5.53
441.704	5.49
442.063	5.42
442.421	5.49
442.78	5.47
443.138	5.52
443.497	5.64
443.855	5.55
444.214	5.55
444.572	5.69
444.93	5.63
445.288	5.58
445.647	5.53
446.005	5.49
446.363	5.59
446.721	5.56
447.079	5.51
447.437	5.62
447.795	5.51
448.153	5.59
448.51	5.42
448.868	5.44
449.226	5.58
449.584	5.61
449.941	5.57
450.299	5.49
450.656	5.59
451.014	5.63
451.371	5.72
451.729	5.63
452.086	5.64
452.443	5.6
452.801	5.71
453.158	5.6
453.515	5.45
453.872	5.65
454.229	5.55
454.586	5.66
454.943	5.55
455.3	5.87
455.657	5.6
456.014	5.78
456.371	5.66
456.727	5.71
457.084	5.9
457.441	5.76
457.797	5.93
458.154	5.75
458.51	5.76
458.867	5.74
459.223	5.77
459.58	5.79
459.936	5.77
460.292	5.84
460.648	5.66
461.005	5.68
461.361	5.59
461.717	5.55
462.073	5.61
462.429	5.64
462.785	5.76
463.141	5.81
463.496	5.84
463.852	5.76
464.208	5.83
464.564	5.99
464.919	5.81
465.275	6.04
465.631	5.87
465.986	5.7
466.342	5.86
466.697	5.87
467.052	5.84
467.408	5.8
467.763	5.73
468.118	5.99
468.473	5.89
468.829	5.84
469.184	5.74
469.539	5.91
469.894	5.91
470.249	5.99
470.603	5.88
470.958	5.83
471.313	5.95
471.668	5.81
472.023	5.89
472.377	5.84
472.732	5.8
473.086	5.97
473.441	5.9
473.795	6.08
474.15	5.76
474.504	6.08
474.859	5.93
475.213	6.08
475.567	5.68
475.921	5.99
476.275	6.06
476.63	5.99
476.984	5.99
477.338	6.02
477.692	5.92
478.045	5.91
478.399	5.99
478.753	5.99
479.107	5.95
479.461	5.98
479.814	5.97
480.168	5.87
480.521	6.01
480.875	5.94
481.228	5.89
481.582	5.95
481.935	6
482.289	5.99
482.642	5.94
482.995	5.83
483.348	5.92
483.701	5.89
484.055	5.85
484.408	5.83
484.761	5.71
485.114	5.61
485.466	5.56
485.819	5.53
486.172	5.59
486.525	5.69
486.878	5.7
487.23	5.82
487.583	5.8
487.936	5.84
488.288	5.84
488.641	5.75
488.993	5.78
489.345	5.71
489.698	5.73
490.05	5.74
490.402	5.75
490.754	5.89
491.107	5.86
491.459	5.95
491.811	5.92
492.163	5.93
492.515	5.82
492.866	5.74
493.218	5.73
493.57	5.7
493.922	5.78
494.274	5.87
494.625	5.88
494.977	5.97
495.328	6.04
495.68	6.02
496.031	6.11
496.383	6.02
496.734	6.14
497.086	6.14
497.437	6.12
497.788	6.11
498.139	6.13
498.49	6.04
498.842	6.02
499.193	6.04
499.544	6.07
499.894	6.02
500.245	6.14
500.596	6.12
500.947	6.07
501.298	6.11
501.648	6.2
501.999	6.04
502.35	6.21
502.7	6.13
503.051	6.21
503.401	6.04
503.752	6.29
504.102	6.33
504.452	6.21
504.803	6.2
505.153	6.3
505.503	6.24
505.853	6.26
506.203	6.14
506.553	6.24
506.903	6.17
507.253	6.14
507.603	6.34
507.953	6.22
508.303	6.3
508.652	6.14
509.002	6.32
509.352	6.3
509.701	6.22
510.051	6.23
510.4	6.13
510.75	6.2
511.099	6.18
511.449	6.12
511.798	6.21
512.147	6.12
512.496	6.3
512.846	6.18
513.195	6.16
513.544	6.26
513.893	6.25
514.242	6.25
514.591	6.27
514.939	6.32
515.288	6.39
515.637	6.23
515.986	6.38
516.334	6.21
516.683	6.21
517.032	6.34
517.38	6.5
517.729	6.37
518.077	6.3
518.426	6.32
518.774	6.41
519.122	6.39
519.47	6.25
519.819	6.23
520.167	6.2
520.515	6.14
520.863	6.25
521.211	6.24
521.559	6.3
521.907	6.25
522.255	6.26
522.602	6.33
522.95	6.38
523.298	6.33
523.645	6.36
523.993	6.45
524.341	6.46
524.688	6.46
525.036	6.5
525.383	6.45
525.73	6.63
526.078	6.48
526.425	6.23
526.772	6.34
527.119	6.31
527.466	6.31
527.814	6.26
528.161	6.37
528.508	6.36
528.854	6.35
529.201	6.26
529.548	6.19
529.895	6.17
530.242	6.13
530.588	6.14
530.935	6.19
531.282	6.2
531.628	6.25
531.975	6.34
532.321	6.28
532.667	6.43
533.014	6.42
533.36	6.49
533.706	6.47
534.052	6.43
534.399	6.34
534.745	6.31
535.091	6.25
535.437	6.3
535.783	6.37
536.129	6.41
536.474	6.44
536.82	6.4
537.166	6.47
537.512	6.49
537.857	6.54
538.203	6.37
538.549	6.44
538.894	6.36
539.239	6.57
539.585	6.53
539.93	6.53
540.276	6.66
540.621	6.7
540.966	6.62
541.311	6.75
541.656	6.48
542.001	6.49
542.346	6.48
542.691	6.35
543.036	6.33
543.381	6.28
543.726	6.38
544.071	6.36
544.415	6.42
544.76	6.46
545.105	6.58
545.449	6.5
545.794	6.6
546.138	6.55
546.483	6.58
546.827	6.74
547.171	6.62
547.516	6.4
547.86	6.65
548.204	6.58
548.548	6.55
548.892	6.56
549.236	6.66
549.58	6.76
549.924	6.75
550.268	6.65
550.612	6.81
550.956	6.71
551.3	6.77
551.643	6.82
551.987	6.95
552.33	6.8
552.674	6.73
553.017	6.87
553.361	6.96
553.704	6.88
554.048	6.84
554.391	6.82
554.734	6.86
555.077	6.76
555.42	6.87
555.764	6.88
556.107	7.13
556.45	6.87
556.793	6.92
557.135	6.78
557.478	6.8
557.821	6.78
558.164	6.97
558.507	6.91
558.849	6.76
559.192	6.91
559.534	7.02
559.877	6.88
560.219	6.84
560.562	6.83
560.904	6.93
561.246	7.03
561.589	7.15
561.931	7.06
562.273	7.08
562.615	7.09
562.957	7.02
563.299	7.13
563.641	7.08
563.983	6.98
564.325	7.08
564.667	6.92
565.008	6.91
565.35	6.99
565.692	6.82
566.033	7.12
566.375	6.93
566.716	6.96
567.058	6.95
567.399	7.05
567.741	6.9
568.082	7.16
568.423	6.77
568.764	6.82
569.105	7.03
569.447	7.18
569.788	7.1
570.129	7.16
570.47	7.14
570.811	7.08
571.151	7.02
571.492	7.19
571.833	7.04
572.174	7.19
572.514	7.06
572.855	7.06
573.195	7.09
573.536	7.05
573.876	7.09
574.217	6.96
574.557	7.17
574.898	6.96
575.238	7.2
575.578	7.16
575.918	7.3
576.258	7.19
576.598	7.09
576.938	7.12
577.278	7.3
577.618	6.95
577.958	7.13
578.298	7.18
578.638	7.17
578.977	7.17
579.317	7.12
579.657	7.16
579.996	7.19
580.336	7.24
580.675	7.35
581.014	7.32
581.354	7.19
581.693	7.21
582.032	7.23
582.372	7.28
582.711	7.43
583.05	7.26
583.389	7.3
583.728	7.31
584.067	7.4
584.406	7.36
584.745	7.37
585.083	7.3
585.422	7.47
585.761	7.38
586.1	7.29
586.438	7.4
586.777	7.2
587.115	7.25
587.454	7.36
587.792	7.32
588.13	7.44
588.469	7.57
588.807	7.41
589.145	7.44
589.483	7.59
589.821	7.63
590.159	7.24
590.497	7.37
590.835	7.26
591.173	7.68
591.511	7.43
591.849	7.47
592.187	7.36
592.524	7.31
592.862	7.53
593.2	7.45
593.537	7.44
593.875	7.35
594.212	7.44
594.55	7.28
594.887	7.47
595.224	7.27
595.561	7.5
595.899	7.71
596.236	7.51
596.573	7.57
596.91	7.58
597.247	7.44
597.584	7.45
597.921	7.71
598.258	7.44
598.594	7.24
598.931	7.4
599.268	7.5
599.604	7.56
599.941	7.45
600.277	7.42
600.614	7.49
600.95	7.48
601.287	7.65
601.623	7.72
601.959	7.79
602.296	7.47
602.632	7.47
602.968	7.71
603.304	7.57
603.64	7.71
603.976	7.78
604.312	7.71
604.648	7.75
604.984	7.58
605.319	7.87
605.655	7.78
605.991	7.66
606.326	7.65
606.662	7.57
606.998	7.42
607.333	7.68
607.668	7.9
608.004	7.63
608.339	7.76
608.674	7.79
609.01	7.64
609.345	7.96
609.68	7.73
610.015	7.67
610.35	7.66
610.685	7.82
611.02	7.62
611.355	7.89
611.689	7.7
612.024	7.71
612.359	7.98
612.694	7.8
613.028	7.7
613.363	7.49
613.697	7.82
614.032	7.86
614.366	7.59
614.7	8.06
615.035	7.81
615.369	7.8
615.703	7.88
616.037	7.9
616.371	8.01
616.705	7.88
617.039	8.38
617.373	7.84
617.707	7.65
618.041	7.78
618.375	8.03
618.709	7.61
619.042	8
619.376	7.98
619.71	7.99
620.043	8.01
620.377	8.23
620.71	8.04
621.043	7.83
621.377	7.93
621.71	7.96
622.043	7.64
622.376	7.94
622.709	8.36
623.043	8.3
623.376	7.87
623.709	7.68
624.041	8.32
624.374	8.08
624.707	7.82
625.04	8.27
625.373	7.99
625.705	8.39
626.038	8.31
626.37	8.36
626.703	8.09
627.035	7.92
627.368	8.3
627.7	8.08
628.032	7.89
628.365	8.04
628.697	7.95
629.029	8.18
629.361	8.13
629.693	8.34
630.025	8.15
630.357	8.32
630.689	8.06
631.021	8.22
631.353	8.26
631.684	8
632.016	8.05
632.348	8.1
632.679	8.03
633.011	7.8
633.342	7.97
633.674	8.33
634.005	8.34
634.336	8.26
634.668	8.12
634.999	8
635.33	8.04
635.661	7.85
635.992	8.15
636.323	8.11
636.654	7.81
636.985	8.33
637.316	8.4
637.647	8.13
637.977	7.95
638.308	8.32
638.639	8.55
638.969	8.26
639.3	8.5
639.63	8.25
639.961	8.54
640.291	8.37
640.622	8.17
640.952	8.3
641.282	8.27
641.612	8.13
641.943	8.32
642.273	8.29
642.603	8.53
642.933	8.63
643.263	8.36
643.592	8
643.922	8.04
644.252	8.17
644.582	8.11
644.911	8.38
645.241	8.41
645.571	8.69
645.9	8.38
646.23	8.27
646.559	8.21
646.888	8.34
647.218	8.74
647.547	8.17
647.876	8.81
648.205	8.7
648.534	8.52
648.863	8.5
649.192	8.6
649.521	8.5
649.85	8.86
650.179	7.98
650.508	8.59
650.837	8.35
651.165	8.28
651.494	9.08
651.822	8.32
652.151	8.41
652.479	8.59
652.808	8.88
653.136	8.13
653.465	8.53
653.793	8.54
654.121	8.88
654.449	8.53
654.777	8.43
655.105	8.96
655.433	8.82
655.761	8.96
656.089	8.59
656.417	8.58
656.745	8.49
657.073	8.98
657.4	8.47
657.728	8.6
658.056	8.07
658.383	8.47
658.711	8.72
659.038	9.16
659.365	8.75
659.693	8.05
660.02	8.72
660.347	8.64
660.674	8.81
661.001	8.71
661.329	8.85
661.656	8.6
661.982	8.54
662.309	8.83
662.636	8.88
662.963	8.92
663.29	8.98
663.616	9.44
663.943	9.03
664.27	8.17
664.596	9.13
664.923	8.82
665.249	8.73
665.576	8.83
665.902	9.16
666.228	7.96
666.554	9.16
666.881	9.1
667.207	8.64
667.533	9.23
667.859	9.19
668.185	9.43
668.511	8.67
668.837	8.86
669.162	9.47
669.488	9.23
669.814	9.14
670.139	8.61
670.465	9.17
670.791	8.66
671.116	9.12
671.442	9.7
671.767	9.3
672.092	9.65
672.418	9.22
672.743	8.6
673.068	9.37
673.393	8.51
673.718	9.81
674.043	8.99
674.368	9.18
674.693	10.21
675.018	9.49
675.343	9.22
675.667	9.38
675.992	9.02
676.317	8.92
676.641	8.77
676.966	9.6
677.29	8.85
677.615	9.68
677.939	9.41
678.264	9.07
678.588	8.82
678.912	9.36
679.236	9.14
679.56	9.44
679.885	8.98
680.209	8.99
680.532	9.72
680.856	8.94
681.18	9.54
681.504	9.04
681.828	9.3
682.152	9
682.475	9.47
682.799	9.26
683.122	8.8
683.446	9.3
683.769	9.53
684.093	9.04
684.416	9.07
684.739	9.49
685.062	9.33
685.386	9.56
685.709	9.08
686.032	9.59
686.355	8.92
686.678	10.28
687.001	8.63
687.324	9.8
687.646	10.21
687.969	9.93
688.292	9.58
688.614	8.9
688.937	9.6
689.26	9.62
689.582	9.36
689.904	9.67
690.227	9.53
690.549	10.1
690.871	9.83
691.194	9.59
691.516	9.24
691.838	9.47
692.16	9.43
692.482	9.04
692.804	9.8
