Data from 815657_chest_Reflection__3__128.txt Node

Date: Fri Sep 16 15:41:47 CDT 2022
User: ToomeyLab
Spectrometer: FLMS14357
Trigger mode: 0
Integration Time (sec): 1.000000E-2
Scans to average: 100
Electric dark correction enabled: true
Nonlinearity correction enabled: false
Boxcar width: 0
XAxis mode: Wavelengths
Number of Pixels in Spectrum: 2048
>>>>>Begin Spectral Data<<<<<
189.047	-127.08
189.435	-127.08
189.823	-127.08
190.211	712.47
190.599	110.57
190.987	109.11
191.375	76.54
191.763	286.25
192.151	-362.13
192.538	240.35
192.926	27.55
193.314	62.48
193.702	209.73
194.089	-355.71
194.477	244.75
194.864	26.08
195.252	50.37
195.639	104.88
196.027	19.91
196.414	-19.66
196.801	122.79
197.189	23.5
197.576	130.2
197.963	318.57
198.351	-77.39
198.738	31.74
199.125	23.28
199.512	-100.23
199.899	6.66
200.286	36.4
200.673	12.07
201.06	55.03
201.447	8.53
201.833	16.71
202.22	18.65
202.607	3.39
202.994	30.11
203.38	-3.59
203.767	4.37
204.154	20.92
204.54	-35.71
204.927	10.81
205.313	38.11
205.699	23.29
206.086	21.61
206.472	31.48
206.858	12.22
207.245	10.47
207.631	15.85
208.017	15.26
208.403	-22.61
208.789	-5.98
209.175	46.47
209.561	-19.33
209.947	-14.48
210.333	-7.02
210.719	4.74
211.105	-7.77
211.491	26.27
211.876	7.15
212.262	27.35
212.648	-13.41
213.034	-1.85
213.419	-22.76
213.805	12.37
214.19	-8
214.576	9.79
214.961	-17.48
215.346	-36.79
215.732	-37.38
216.117	16.39
216.502	-9.91
216.888	-24.13
217.273	-4.64
217.658	-4.3
218.043	-15.94
218.428	-1.96
218.813	-1.01
219.198	13.5
219.583	-2.59
219.968	2.73
220.353	16.59
220.738	18.79
221.122	-15.23
221.507	5.05
221.892	-5.19
222.276	21.29
222.661	6.85
223.046	-6.37
223.43	12.44
223.815	-6.54
224.199	2.53
224.583	15.39
224.968	8.75
225.352	11.01
225.736	11.87
226.121	10.41
226.505	6.67
226.889	2.52
227.273	6.86
227.657	4.17
228.041	3.73
228.425	-3.68
228.809	11.72
229.193	4.37
229.577	6.39
229.961	4.1
230.344	6.07
230.728	5.65
231.112	5.32
231.495	5.12
231.879	5.46
232.263	5.18
232.646	4.59
233.03	6.51
233.413	8.01
233.797	6.35
234.18	4.94
234.563	3.68
234.946	3.93
235.33	5.27
235.713	6.26
236.096	7.08
236.479	6.52
236.862	6.1
237.245	2.82
237.628	8.38
238.011	5
238.394	5.02
238.777	6.68
239.16	4.73
239.543	8.1
239.925	5.09
240.308	4.8
240.691	5.87
241.073	5.26
241.456	4.38
241.838	5.15
242.221	5.13
242.603	5.22
242.986	4.66
243.368	5.28
243.75	4.88
244.133	5.46
244.515	4.91
244.897	5.24
245.279	4.8
245.661	5.64
246.043	5.55
246.425	3.88
246.807	5.06
247.189	5.2
247.571	4.75
247.953	4.38
248.335	4.66
248.717	5.14
249.098	4.83
249.48	4.78
249.862	4.59
250.243	4.97
250.625	4.88
251.006	5.39
251.388	5.29
251.769	3.71
252.151	5.1
252.532	4.55
252.913	4.81
253.295	4.89
253.676	5.09
254.057	4.54
254.438	4.18
254.819	3.84
255.2	4.31
255.581	4.89
255.962	3.61
256.343	6.2
256.724	3.39
257.105	3.57
257.486	4.74
257.867	4.8
258.247	5.88
258.628	4.76
259.009	5.3
259.389	4.56
259.77	4.53
260.15	4.24
260.531	4.19
260.911	4.35
261.292	4.49
261.672	4.47
262.052	4.12
262.432	4.21
262.813	4.94
263.193	4.77
263.573	4.62
263.953	4.31
264.333	4.62
264.713	4.13
265.093	4.36
265.473	4.61
265.853	5.16
266.233	4.33
266.612	5.2
266.992	3.6
267.372	4.37
267.752	4.55
268.131	4.13
268.511	4.24
268.89	4.87
269.27	3.59
269.649	3.91
270.029	4.37
270.408	4.46
270.787	4.02
271.167	3.81
271.546	4.75
271.925	4.14
272.304	4.33
272.683	4.15
273.062	4.11
273.441	4.4
273.82	4.69
274.199	4.44
274.578	4.27
274.957	4.51
275.336	4.52
275.715	4.46
276.093	4
276.472	4.2
276.851	3.9
277.229	4.24
277.608	4.5
277.986	4.66
278.365	3.98
278.743	4.85
279.122	4.71
279.5	4.09
279.878	4.57
280.257	4.82
280.635	4.3
281.013	3.82
281.391	4.25
281.769	5
282.147	4.34
282.525	3.74
282.903	4.63
283.281	4.19
283.659	4.17
284.037	4.49
284.415	4.28
284.792	4.58
285.17	4.33
285.548	3.86
285.925	3.87
286.303	4.47
286.68	4.15
287.058	4.16
287.435	4.59
287.813	4.45
288.19	4.03
288.567	4.11
288.945	4.47
289.322	4.54
289.699	3.86
290.076	3.88
290.453	4.47
290.83	4.62
291.207	4.35
291.584	3.49
291.961	3.95
292.338	4.15
292.715	3.98
293.092	4.14
293.469	3.93
293.845	4.19
294.222	3.9
294.599	4.03
294.975	3.61
295.352	4.26
295.728	3.87
296.105	4.12
296.481	3.45
296.858	3.96
297.234	4.19
297.61	4.36
297.986	4.39
298.363	4.01
298.739	3.81
299.115	3.99
299.491	4.19
299.867	3.74
300.243	3.8
300.619	4.18
300.995	3.85
301.371	4.26
301.746	3.79
302.122	4.38
302.498	3.88
302.874	4.01
303.249	4.07
303.625	3.7
304	3.86
304.376	3.58
304.751	4.38
305.127	4.17
305.502	4.25
305.878	4.15
306.253	4.25
306.628	3.67
307.003	4.07
307.378	4.58
307.754	3.89
308.129	4.71
308.504	4.5
308.879	3.77
309.254	4.22
309.629	3.56
310.003	4
310.378	3.73
310.753	4.01
311.128	4.04
311.502	3.49
311.877	4
312.252	4.37
312.626	3.8
313.001	4.07
313.375	4.16
313.75	3.7
314.124	3.83
314.498	4.14
314.873	3.96
315.247	4.1
315.621	4.07
315.995	3.8
316.369	4.09
316.743	3.87
317.117	3.63
317.491	3.69
317.865	4.37
318.239	4.48
318.613	3.67
318.987	3.5
319.361	3.79
319.734	3.76
320.108	3.63
320.482	4.33
320.855	3.91
321.229	3.58
321.602	4.75
321.976	3.81
322.349	4.11
322.723	3.78
323.096	3.93
323.469	4.17
323.843	4.54
324.216	4.44
324.589	3.79
324.962	4.07
325.335	4.46
325.708	3.9
326.081	3.87
326.454	3.93
326.827	3.74
327.2	3.45
327.573	3.58
327.945	3.96
328.318	3.87
328.691	4.09
329.063	3.66
329.436	3.46
329.809	3.15
330.181	4.26
330.553	3.7
330.926	3.92
331.298	4.06
331.671	3.89
332.043	3.92
332.415	3.82
332.787	3.64
333.159	3.96
333.532	4.06
333.904	3.68
334.276	3.48
334.648	3.88
335.02	4.05
335.391	4.19
335.763	3.49
336.135	3.36
336.507	4.01
336.879	4.08
337.25	3.42
337.622	3.74
337.993	4.03
338.365	4.37
338.736	4.04
339.108	4.07
339.479	3.98
339.851	3.92
340.222	4.02
340.593	4.08
340.964	3.91
341.336	4.16
341.707	4.19
342.078	4.25
342.449	4.04
342.82	3.77
343.191	3.89
343.562	4
343.933	4.03
344.303	4.55
344.674	3.53
345.045	4.36
345.416	3.88
345.786	4.12
346.157	3.98
346.527	4.25
346.898	3.77
347.268	4.34
347.639	3.99
348.009	3.92
348.38	3.96
348.75	3.7
349.12	4.04
349.49	4.21
349.861	4.11
350.231	3.83
350.601	3.84
350.971	3.96
351.341	4.11
351.711	4.31
352.081	3.87
352.45	4.21
352.82	4.49
353.19	4.03
353.56	4.28
353.929	3.94
354.299	4.02
354.669	4
355.038	3.67
355.408	4.22
355.777	4.11
356.147	3.89
356.516	4.21
356.885	3.73
357.254	4.18
357.624	4.05
357.993	4.15
358.362	3.99
358.731	4.3
359.1	4.01
359.469	4.05
359.838	4.03
360.207	4.32
360.576	4.14
360.945	4.05
361.314	3.79
361.682	3.67
362.051	4.24
362.42	4.23
362.788	4.34
363.157	4.21
363.525	3.86
363.894	4.23
364.262	3.87
364.631	4.18
364.999	3.91
365.367	4.2
365.735	4.38
366.104	4.41
366.472	4.38
366.84	3.97
367.208	4.31
367.576	4.2
367.944	3.95
368.312	4.04
368.68	4.2
369.048	4.59
369.416	4.32
369.783	4.39
370.151	3.88
370.519	3.82
370.886	3.94
371.254	3.98
371.621	4.4
371.989	4.27
372.356	4.27
372.724	4.4
373.091	4.2
373.458	4.1
373.826	4.41
374.193	4.57
374.56	4.06
374.927	4.07
375.294	4.12
375.661	4.31
376.028	4.69
376.395	3.86
376.762	4.45
377.129	4.06
377.496	4.41
377.863	4.12
378.229	4.48
378.596	4.21
378.963	4.53
379.329	4.23
379.696	4.52
380.062	4.14
380.429	4.21
380.795	4.39
381.161	4.27
381.528	4.45
381.894	4.48
382.26	4.53
382.626	4.38
382.993	4.16
383.359	4.19
383.725	4.19
384.091	4.58
384.457	4.09
384.823	4.1
385.188	4.21
385.554	4.21
385.92	4.28
386.286	4.23
386.651	4.33
387.017	4.08
387.383	4.03
387.748	4.11
388.114	3.93
388.479	4.4
388.845	4.34
389.21	4.33
389.575	4.27
389.94	4.1
390.306	4.32
390.671	4.33
391.036	4.18
391.401	4.25
391.766	4.39
392.131	4.6
392.496	4.07
392.861	4.56
393.226	4.47
393.591	4.32
393.956	4.3
394.32	4.77
394.685	4.06
395.05	4.58
395.414	4.19
395.779	4.41
396.143	4.51
396.508	4.26
396.872	4.32
397.236	4.4
397.601	4.51
397.965	4.38
398.329	4.27
398.694	4.37
399.058	4.69
399.422	4.44
399.786	4.38
400.15	4.38
400.514	4.36
400.878	4.5
401.242	4.37
401.605	4.09
401.969	4.34
402.333	4.47
402.697	4.19
403.06	4.64
403.424	4.38
403.787	4.28
404.151	4.42
404.514	4.26
404.878	4.19
405.241	4.42
405.604	4.38
405.968	4.5
406.331	4.34
406.694	4.46
407.057	4.35
407.42	4.46
407.783	4.47
408.146	4.49
408.509	4.36
408.872	4.37
409.235	4.56
409.598	4.44
409.961	4.38
410.323	4.37
410.686	4.67
411.049	4.48
411.411	4.29
411.774	4.46
412.136	4.36
412.499	4.56
412.861	4.34
413.223	4.52
413.586	4.41
413.948	4.47
414.31	4.67
414.672	4.46
415.035	4.53
415.397	4.33
415.759	4.52
416.121	4.36
416.483	4.59
416.845	4.45
417.206	4.59
417.568	4.55
417.93	4.56
418.292	4.36
418.653	4.45
419.015	4.4
419.377	4.49
419.738	4.37
420.1	4.65
420.461	4.51
420.822	4.36
421.184	4.45
421.545	4.45
421.906	4.45
422.267	4.46
422.629	4.35
422.99	4.28
423.351	4.44
423.712	4.35
424.073	4.5
424.434	4.43
424.795	4.41
425.155	4.48
425.516	4.46
425.877	4.39
426.238	4.45
426.598	4.43
426.959	4.42
427.32	4.37
427.68	4.47
428.041	4.43
428.401	4.49
428.761	4.56
429.122	4.65
429.482	4.49
429.842	4.6
430.202	4.59
430.563	4.62
430.923	4.71
431.283	4.69
431.643	4.73
432.003	4.64
432.363	4.51
432.722	4.65
433.082	4.48
433.442	4.69
433.802	4.59
434.161	4.39
434.521	4.52
434.881	4.49
435.24	4.42
435.6	4.59
435.959	4.66
436.319	4.54
436.678	4.6
437.037	4.38
437.396	4.45
437.756	4.55
438.115	4.56
438.474	4.57
438.833	4.55
439.192	4.6
439.551	4.64
439.91	4.56
440.269	4.7
440.628	4.48
440.987	4.57
441.345	4.51
441.704	4.61
442.063	4.58
442.421	4.5
442.78	4.5
443.138	4.54
443.497	4.62
443.855	4.43
444.214	4.67
444.572	4.7
444.93	4.71
445.288	4.56
445.647	4.67
446.005	4.49
446.363	4.63
446.721	4.51
447.079	4.55
447.437	4.54
447.795	4.46
448.153	4.58
448.51	4.55
448.868	4.52
449.226	4.65
449.584	4.57
449.941	4.62
450.299	4.56
450.656	4.56
451.014	4.58
451.371	4.59
451.729	4.62
452.086	4.64
452.443	4.56
452.801	4.66
453.158	4.66
453.515	4.69
453.872	4.47
454.229	4.48
454.586	4.52
454.943	4.37
455.3	4.59
455.657	4.44
456.014	4.7
456.371	4.5
456.727	4.54
457.084	4.69
457.441	4.6
457.797	4.74
458.154	4.82
458.51	4.75
458.867	4.64
459.223	4.68
459.58	4.69
459.936	4.67
460.292	4.73
460.648	4.62
461.005	4.66
461.361	4.51
461.717	4.65
462.073	4.59
462.429	4.62
462.785	4.65
463.141	4.55
463.496	4.84
463.852	4.73
464.208	4.64
464.564	4.66
464.919	4.63
465.275	4.62
465.631	4.84
465.986	4.75
466.342	4.81
466.697	4.79
467.052	4.67
467.408	4.74
467.763	4.74
468.118	4.6
468.473	4.61
468.829	4.77
469.184	4.56
469.539	4.68
469.894	4.74
470.249	4.94
470.603	4.7
470.958	4.61
471.313	4.78
471.668	4.86
472.023	4.68
472.377	4.64
472.732	4.63
473.086	4.7
473.441	4.67
473.795	4.69
474.15	4.66
474.504	4.83
474.859	4.75
475.213	4.68
475.567	4.54
475.921	4.82
476.275	4.79
476.63	4.85
476.984	4.93
477.338	4.78
477.692	4.84
478.045	4.79
478.399	4.69
478.753	4.68
479.107	4.69
479.461	4.81
479.814	4.75
480.168	4.63
480.521	4.73
480.875	4.74
481.228	4.67
481.582	4.77
481.935	4.83
482.289	4.84
482.642	4.76
482.995	4.71
483.348	4.77
483.701	4.8
484.055	4.65
484.408	4.75
484.761	4.6
485.114	4.5
485.466	4.53
485.819	4.48
486.172	4.44
486.525	4.48
486.878	4.51
487.23	4.62
487.583	4.66
487.936	4.65
488.288	4.59
488.641	4.56
488.993	4.57
489.345	4.53
489.698	4.55
490.05	4.57
490.402	4.58
490.754	4.6
491.107	4.58
491.459	4.63
491.811	4.74
492.163	4.73
492.515	4.65
492.866	4.64
493.218	4.62
493.57	4.59
493.922	4.63
494.274	4.66
494.625	4.65
494.977	4.69
495.328	4.73
495.68	4.79
496.031	4.73
496.383	4.76
496.734	4.84
497.086	4.81
497.437	4.82
497.788	4.89
498.139	4.88
498.49	4.91
498.842	4.8
499.193	4.77
499.544	4.82
499.894	4.85
500.245	4.78
500.596	4.8
500.947	4.85
501.298	4.83
501.648	4.86
501.999	4.87
502.35	4.92
502.7	4.99
503.051	4.8
503.401	4.86
503.752	4.85
504.102	4.84
504.452	4.82
504.803	4.92
505.153	5
505.503	4.97
505.853	4.91
506.203	4.94
506.553	4.78
506.903	4.85
507.253	4.92
507.603	4.89
507.953	4.99
508.303	4.96
508.652	4.84
509.002	4.92
509.352	4.92
509.701	4.84
510.051	4.99
510.4	4.77
510.75	4.83
511.099	4.82
511.449	4.78
511.798	4.84
512.147	4.88
512.496	5.01
512.846	4.9
513.195	4.86
513.544	5.02
513.893	4.93
514.242	4.93
514.591	5.05
514.939	4.85
515.288	4.97
515.637	5.01
515.986	5.01
516.334	4.99
516.683	5
517.032	4.93
517.38	5.12
517.729	5.09
518.077	4.98
518.426	5.01
518.774	5.09
519.122	5.05
519.47	5.01
519.819	4.85
520.167	4.88
520.515	4.84
520.863	4.91
521.211	4.95
521.559	4.98
521.907	5.01
522.255	4.91
522.602	4.98
522.95	5.1
523.298	5.04
523.645	5.12
523.993	4.98
524.341	5.06
524.688	5.15
525.036	5.16
525.383	5.17
525.73	5.11
526.078	5.02
526.425	5.04
526.772	5.02
527.119	5.01
527.466	5.06
527.814	5.04
528.161	4.99
528.508	5
528.854	5.09
529.201	4.96
529.548	5.06
529.895	4.97
530.242	4.95
530.588	4.89
530.935	4.93
531.282	4.92
531.628	4.96
531.975	4.95
532.321	5
532.667	5.12
533.014	5.17
533.36	5.08
533.706	5.14
534.052	5.09
534.399	5.15
534.745	5.07
535.091	5.02
535.437	5.09
535.783	5.07
536.129	5.16
536.474	5.14
536.82	5.11
537.166	5.21
537.512	5.28
537.857	5.27
538.203	5.17
538.549	5.17
538.894	5.06
539.239	5.22
539.585	5.22
539.93	5.19
540.276	5.3
540.621	5.44
540.966	5.22
541.311	5.25
541.656	5.45
542.001	5.22
542.346	5.25
542.691	5.25
543.036	5.14
543.381	5.11
543.726	5.21
544.071	5.14
544.415	5.23
544.76	5.18
545.105	5.25
545.449	5.34
545.794	5.31
546.138	5.3
546.483	5.42
546.827	5.43
547.171	5.37
547.516	5.33
547.86	5.35
548.204	5.35
548.548	5.4
548.892	5.31
549.236	5.39
549.58	5.46
549.924	5.55
550.268	5.41
550.612	5.65
550.956	5.54
551.3	5.56
551.643	5.68
551.987	5.52
552.33	5.48
552.674	5.59
553.017	5.56
553.361	5.66
553.704	5.79
554.048	5.6
554.391	5.54
554.734	5.68
555.077	5.63
555.42	5.65
555.764	5.77
556.107	5.79
556.45	5.6
556.793	5.8
557.135	5.85
557.478	5.72
557.821	5.69
558.164	5.89
558.507	5.83
558.849	5.67
559.192	5.79
559.534	5.9
559.877	5.68
560.219	5.61
560.562	5.86
560.904	5.94
561.246	5.83
561.589	5.85
561.931	5.83
562.273	5.97
562.615	5.86
562.957	5.87
563.299	5.94
563.641	6
563.983	5.98
564.325	6.01
564.667	5.94
565.008	6.04
565.35	6.01
565.692	5.78
566.033	6.13
566.375	5.91
566.716	6.06
567.058	6.08
567.399	6.12
567.741	6.05
568.082	6.14
568.423	6.05
568.764	5.94
569.105	6.14
569.447	6.22
569.788	6.22
570.129	6.16
570.47	6.15
570.811	6.2
571.151	6.24
571.492	6.17
571.833	6.37
572.174	6.37
572.514	6.21
572.855	6.18
573.195	6.38
573.536	6.28
573.876	6.23
574.217	6.26
574.557	6.22
574.898	6.32
575.238	6.37
575.578	6.38
575.918	6.39
576.258	6.44
576.598	6.28
576.938	6.4
577.278	6.32
577.618	6.4
577.958	6.47
578.298	6.44
578.638	6.41
578.977	6.5
579.317	6.51
579.657	6.51
579.996	6.6
580.336	6.78
580.675	6.62
581.014	6.53
581.354	6.67
581.693	6.45
582.032	6.63
582.372	6.63
582.711	6.99
583.05	6.62
583.389	6.65
583.728	6.46
584.067	6.89
584.406	7.03
584.745	6.91
585.083	6.81
585.422	6.84
585.761	7.19
586.1	6.6
586.438	7.01
586.777	6.49
587.115	6.89
587.454	7.04
587.792	7.09
588.13	6.97
588.469	7.15
588.807	7.06
589.145	6.99
589.483	7.12
589.821	7.19
590.159	6.94
590.497	7.05
590.835	7.15
591.173	7.22
591.511	7.2
591.849	7.08
592.187	7.18
592.524	6.94
592.862	7.26
593.2	7.13
593.537	7.19
593.875	7.31
594.212	7.43
594.55	7.26
594.887	7.48
595.224	7.39
595.561	7.52
595.899	7.37
596.236	7.64
596.573	7.44
596.91	7.58
597.247	7.43
597.584	7.51
597.921	7.55
598.258	7.36
598.594	7.41
598.931	7.42
599.268	7.31
599.604	7.44
599.941	7.55
600.277	7.52
600.614	7.83
600.95	7.42
601.287	7.62
601.623	7.8
601.959	7.64
602.296	7.68
602.632	7.59
602.968	7.77
603.304	8.04
603.64	7.72
603.976	7.77
604.312	7.98
604.648	8.15
604.984	7.88
605.319	8.02
605.655	7.86
605.991	7.91
606.326	7.86
606.662	7.97
606.998	7.86
607.333	8.12
607.668	7.9
608.004	7.9
608.339	7.96
608.674	8.2
609.01	8.09
609.345	8.32
609.68	8.1
610.015	8.24
610.35	8.36
610.685	8.52
611.02	8.29
611.355	8.15
611.689	8.23
612.024	8.19
612.359	8.07
612.694	8.34
613.028	8.32
613.363	8.19
613.697	8.46
614.032	8.6
614.366	8.2
614.7	8.72
615.035	8.67
615.369	8.41
615.703	8.51
616.037	8.6
616.371	8.69
616.705	8.5
617.039	8.8
617.373	8.43
617.707	8.5
618.041	8.62
618.375	8.93
618.709	8.74
619.042	8.8
619.376	8.86
619.71	8.89
620.043	8.73
620.377	8.9
620.71	9.04
621.043	9.25
621.377	8.99
621.71	8.87
622.043	8.78
622.376	9.04
622.709	9.14
623.043	9.14
623.376	8.65
623.709	8.76
624.041	9.34
624.374	9.2
624.707	9.22
625.04	9.39
625.373	9.05
625.705	9.41
626.038	9.78
626.37	9.72
626.703	8.97
627.035	9.2
627.368	9.68
627.7	9.71
628.032	9.26
628.365	9.46
628.697	9.5
629.029	9.57
629.361	9.67
629.693	9.74
630.025	9.77
630.357	9.62
630.689	9.58
631.021	9.57
631.353	9.65
631.684	9.64
632.016	9.78
632.348	9.73
632.679	9.63
633.011	9.61
633.342	9.86
633.674	10.21
634.005	9.81
634.336	9.81
634.668	9.73
634.999	9.73
635.33	9.9
635.661	10.16
635.992	9.89
636.323	9.73
636.654	9.9
636.985	9.95
637.316	9.9
637.647	9.99
637.977	9.82
638.308	10.44
638.639	10.2
638.969	10
639.3	10.26
639.63	9.95
639.961	10.42
640.291	10.18
640.622	10.37
640.952	10.56
641.282	10.63
641.612	10.17
641.943	10.74
642.273	10.02
642.603	10.77
642.933	10.63
643.263	10.53
643.592	10.49
643.922	10.23
644.252	10.76
644.582	11.06
644.911	10.64
645.241	10.93
645.571	10.48
645.9	10.92
646.23	10.56
646.559	10.57
646.888	10.67
647.218	11.02
647.547	11.12
647.876	11.55
648.205	11.15
648.534	10.86
648.863	10.96
649.192	11.18
649.521	10.76
649.85	10.89
650.179	10.72
650.508	11.51
650.837	11.42
651.165	11.04
651.494	11.26
651.822	11.02
652.151	11.25
652.479	11.23
652.808	11.38
653.136	10.97
653.465	11.2
653.793	11.36
654.121	11.66
654.449	11.63
654.777	11.33
655.105	11.41
655.433	11.56
655.761	11.57
656.089	11.3
656.417	11.62
656.745	11.76
657.073	11.68
657.4	11.36
657.728	11.9
658.056	11.36
658.383	11.8
658.711	11.91
659.038	11.58
659.365	11.99
659.693	11.11
660.02	12.13
660.347	11.87
660.674	12.03
661.001	12.09
661.329	11.81
661.656	11.81
661.982	12.06
662.309	12.32
662.636	11.9
662.963	12.17
663.29	12.36
663.616	12.42
663.943	12.01
664.27	11.59
664.596	12.01
664.923	11.6
665.249	12.21
665.576	12.53
665.902	12.29
666.228	11.83
666.554	12.21
666.881	12.61
667.207	12.58
667.533	12.29
667.859	13.23
668.185	12.64
668.511	12.65
668.837	12.41
669.162	13.01
669.488	13.31
669.814	12.76
670.139	12.22
670.465	12.71
670.791	12.84
671.116	12.87
671.442	12.54
671.767	13.22
672.092	12.9
672.418	12.79
672.743	12.95
673.068	13.02
673.393	12.73
673.718	13.27
674.043	12.87
674.368	13.17
674.693	14.37
675.018	13.41
675.343	12.78
675.667	12.77
675.992	13.06
676.317	13.45
676.641	12.64
676.966	12.9
677.29	13.55
677.615	13.59
677.939	13.16
678.264	13.63
678.588	13.05
678.912	12.85
679.236	13.51
679.56	13.91
679.885	13.59
680.209	13.37
680.532	14.08
680.856	13.59
681.18	13.68
681.504	13.9
681.828	13.55
682.152	13.65
682.475	14.09
682.799	13.34
683.122	13.36
683.446	14.01
683.769	13.96
684.093	13.69
684.416	14.09
684.739	13.56
685.062	13.86
685.386	14.34
685.709	14.15
686.032	14.14
686.355	14.17
686.678	14.25
687.001	13.99
687.324	14.17
687.646	14.71
687.969	14.49
688.292	14.09
688.614	14.05
