Data from 815650_forehead_Reflection__1__131.txt Node

Date: Fri Sep 16 15:44:57 CDT 2022
User: ToomeyLab
Spectrometer: FLMS14357
Trigger mode: 0
Integration Time (sec): 1.000000E-2
Scans to average: 100
Electric dark correction enabled: true
Nonlinearity correction enabled: false
Boxcar width: 0
XAxis mode: Wavelengths
Number of Pixels in Spectrum: 2048
>>>>>Begin Spectral Data<<<<<
189.047	386.32
189.435	386.32
189.823	386.32
190.211	357.81
190.599	-94.16
190.987	169.37
191.375	123.72
191.763	149.62
192.151	222.4
192.538	149.82
192.926	16.61
193.314	51.29
193.702	-31.57
194.089	-1292.24
194.477	209.01
194.864	59.07
195.252	23.62
195.639	60.43
196.027	62.19
196.414	-135.87
196.801	-162.94
197.189	-12.75
197.576	480.2
197.963	187.81
198.351	11.03
198.738	44.61
199.125	33.7
199.512	-125.34
199.899	-20.2
200.286	-18.05
200.673	40.64
201.06	25.92
201.447	33.91
201.833	1.27
202.22	11.59
202.607	-41.3
202.994	3.84
203.38	8.42
203.767	18.76
204.154	-9.37
204.54	14.55
204.927	30.37
205.313	27.24
205.699	39.72
206.086	23.35
206.472	31.57
206.858	16.55
207.245	13.39
207.631	17.82
208.017	19.59
208.403	21.87
208.789	0.12
209.175	38.16
209.561	-19.23
209.947	-7.44
210.333	-24.05
210.719	-0.59
211.105	-1.34
211.491	30.81
211.876	22.73
212.262	43.02
212.648	25.12
213.034	45.86
213.419	-13.58
213.805	14.59
214.19	31.35
214.576	23.57
214.961	-24.79
215.346	-16.92
215.732	-43.93
216.117	-2.69
216.502	-2.13
216.888	0.48
217.273	2.19
217.658	10.39
218.043	-19.88
218.428	11.89
218.813	-10.3
219.198	-13.99
219.583	6.65
219.968	14.83
220.353	0.81
220.738	7.63
221.122	-28.27
221.507	21.92
221.892	9.47
222.276	13.14
222.661	1.42
223.046	10.68
223.43	10.26
223.815	-10.3
224.199	5.51
224.583	9.73
224.968	12.45
225.352	-2.92
225.736	14.42
226.121	8.47
226.505	4.26
226.889	5.51
227.273	5.92
227.657	6.28
228.041	-2.64
228.425	-3.71
228.809	4.56
229.193	2.2
229.577	2.89
229.961	1.92
230.344	3.23
230.728	2.62
231.112	1.73
231.495	1.57
231.879	3.96
232.263	3.34
232.646	2.2
233.03	2.65
233.413	4.38
233.797	3.84
234.18	5.41
234.563	3.46
234.946	3.2
235.33	3.21
235.713	2.24
236.096	1.61
236.479	2.98
236.862	2.77
237.245	2.7
237.628	5.02
238.011	3.16
238.394	1.14
238.777	3
239.16	3.74
239.543	4.27
239.925	2.93
240.308	3.12
240.691	3.46
241.073	2.56
241.456	2.72
241.838	1.75
242.221	2.96
242.603	2.98
242.986	1.79
243.368	2.24
243.75	2.25
244.133	2.68
244.515	2.53
244.897	2.93
245.279	2.91
245.661	3.54
246.043	3.49
246.425	2.74
246.807	2.94
247.189	2.08
247.571	1.84
247.953	1.79
248.335	2.37
248.717	2.46
249.098	2.33
249.48	2.12
249.862	2.54
250.243	2.25
250.625	2.9
251.006	3.14
251.388	2.86
251.769	1.8
252.151	1.85
252.532	2.09
252.913	2.37
253.295	2.31
253.676	2.43
254.057	2.62
254.438	1.89
254.819	1.39
255.2	2.28
255.581	3.65
255.962	0.96
256.343	3.83
256.724	2.76
257.105	0.87
257.486	3.46
257.867	1.97
258.247	2.52
258.628	3.09
259.009	2.53
259.389	3.14
259.77	2.62
260.15	2.9
260.531	2.14
260.911	2.11
261.292	2.38
261.672	2.4
262.052	2.06
262.432	2.47
262.813	2.7
263.193	2.03
263.573	2.63
263.953	2.68
264.333	2.14
264.713	2.17
265.093	1.44
265.473	2.06
265.853	2.86
266.233	2.57
266.612	2.88
266.992	1.66
267.372	2.08
267.752	1.96
268.131	2.31
268.511	2.6
268.89	2.58
269.27	2.21
269.649	2.34
270.029	2.73
270.408	2.77
270.787	2.26
271.167	2.09
271.546	3.16
271.925	2.37
272.304	2.49
272.683	1.92
273.062	2.26
273.441	2.45
273.82	2.2
274.199	2.14
274.578	2.06
274.957	2.23
275.336	2.83
275.715	2.85
276.093	2.59
276.472	2.48
276.851	2.07
277.229	2.51
277.608	2.75
277.986	2.56
278.365	2.06
278.743	2.89
279.122	2.07
279.5	2.27
279.878	2.58
280.257	2.82
280.635	1.94
281.013	2.11
281.391	2.54
281.769	3.15
282.147	2.51
282.525	1.91
282.903	2.69
283.281	2.25
283.659	2.78
284.037	2.52
284.415	2.75
284.792	3.03
285.17	2.63
285.548	2.28
285.925	2.67
286.303	2.87
286.68	2.13
287.058	2.34
287.435	2.04
287.813	2.5
288.19	2.11
288.567	2.3
288.945	2.1
289.322	2.39
289.699	2.71
290.076	1.84
290.453	2.7
290.83	2.66
291.207	2.26
291.584	2.53
291.961	2.36
292.338	2.48
292.715	2.2
293.092	2.42
293.469	2.43
293.845	2.19
294.222	2.66
294.599	2.84
294.975	2.56
295.352	2.95
295.728	2.42
296.105	3.21
296.481	2.53
296.858	2.5
297.234	2.6
297.61	2.9
297.986	3.06
298.363	2.4
298.739	2.27
299.115	2.56
299.491	2.88
299.867	2.47
300.243	2.75
300.619	2.93
300.995	2.49
301.371	2.84
301.746	2.6
302.122	3.01
302.498	3.18
302.874	2.66
303.249	3.05
303.625	2.69
304	3.17
304.376	2.62
304.751	3.04
305.127	3.05
305.502	3.06
305.878	2.87
306.253	3.5
306.628	2.88
307.003	3.3
307.378	3.5
307.754	3.7
308.129	4.07
308.504	3.06
308.879	3.76
309.254	3.43
309.629	2.66
310.003	3.3
310.378	2.8
310.753	3.2
311.128	3.29
311.502	2.94
311.877	3.42
312.252	3.42
312.626	3.35
313.001	3.62
313.375	3.53
313.75	3.47
314.124	3.3
314.498	3.27
314.873	4.06
315.247	3.68
315.621	3.69
315.995	3.18
316.369	3.54
316.743	4.03
317.117	3.81
317.491	3.51
317.865	3.73
318.239	3.71
318.613	3.38
318.987	3.24
319.361	3.71
319.734	3.99
320.108	3.82
320.482	3.7
320.855	3.8
321.229	3.58
321.602	4
321.976	4.07
322.349	3.98
322.723	4.12
323.096	3.91
323.469	4.39
323.843	4.62
324.216	4.87
324.589	4.4
324.962	4.06
325.335	4.69
325.708	4.4
326.081	4.26
326.454	4.53
326.827	4.22
327.2	3.99
327.573	3.99
327.945	4.12
328.318	4.27
328.691	4.49
329.063	4.18
329.436	3.83
329.809	3.49
330.181	4.4
330.553	4.36
330.926	4.84
331.298	4.91
331.671	4.43
332.043	3.99
332.415	4.71
332.787	4.42
333.159	4.47
333.532	5.37
333.904	4.51
334.276	4.82
334.648	4.73
335.02	4.84
335.391	4.98
335.763	4.9
336.135	4.47
336.507	5.31
336.879	5.42
337.25	4.64
337.622	5.28
337.993	5.27
338.365	5.18
338.736	5.84
339.108	5.44
339.479	5.04
339.851	5.26
340.222	5.09
340.593	4.88
340.964	5.24
341.336	5.48
341.707	5.64
342.078	5.47
342.449	4.94
342.82	5.39
343.191	5.3
343.562	5.54
343.933	5.59
344.303	5.98
344.674	5.22
345.045	6.02
345.416	5.72
345.786	5.56
346.157	5.94
346.527	5.8
346.898	5.39
347.268	5.73
347.639	5.91
348.009	5.87
348.38	5.57
348.75	5.39
349.12	5.78
349.49	6.15
349.861	6.22
350.231	5.8
350.601	6.12
350.971	6.2
351.341	6.21
351.711	5.98
352.081	6.21
352.45	6.38
352.82	6.69
353.19	6.21
353.56	6.71
353.929	6.4
354.299	6.09
354.669	6.22
355.038	6.53
355.408	6.1
355.777	6.26
356.147	6.37
356.516	6.47
356.885	6.46
357.254	6.32
357.624	6.51
357.993	6.52
358.362	6.38
358.731	6.68
359.1	6.67
359.469	6.63
359.838	6.56
360.207	6.76
360.576	6.8
360.945	6.75
361.314	6.8
361.682	6.7
362.051	6.98
362.42	7.04
362.788	7.18
363.157	6.98
363.525	6.79
363.894	7.05
364.262	6.86
364.631	7.16
364.999	7.14
365.367	7.16
365.735	7.1
366.104	7.17
366.472	7.34
366.84	7.34
367.208	7.47
367.576	7.46
367.944	7.22
368.312	7.42
368.68	7.48
369.048	7.7
369.416	7.63
369.783	7.92
370.151	7.89
370.519	7.69
370.886	7.9
371.254	7.59
371.621	8.08
371.989	7.69
372.356	7.95
372.724	8.01
373.091	7.93
373.458	7.96
373.826	8.03
374.193	7.8
374.56	8.03
374.927	7.92
375.294	8.38
375.661	8.11
376.028	8.29
376.395	7.76
376.762	8.74
377.129	7.98
377.496	8.28
377.863	8.58
378.229	8.56
378.596	8.14
378.963	8.48
379.329	8.59
379.696	8.92
380.062	8.54
380.429	8.81
380.795	8.65
381.161	9.07
381.528	9.14
381.894	8.82
382.26	8.76
382.626	8.76
382.993	8.72
383.359	8.97
383.725	8.26
384.091	9.1
384.457	8.58
384.823	9.02
385.188	8.95
385.554	9.07
385.92	9.24
386.286	9.08
386.651	9.14
387.017	9.19
387.383	8.98
387.748	9.11
388.114	9.24
388.479	9.26
388.845	9.38
389.21	9.49
389.575	9.67
389.94	9.62
390.306	9.46
390.671	9.43
391.036	9.48
391.401	9.46
391.766	9.66
392.131	9.82
392.496	9.48
392.861	9.51
393.226	10.03
393.591	9.68
393.956	9.91
394.32	10.15
394.685	9.91
395.05	10.08
395.414	9.71
395.779	10.01
396.143	10
396.508	10.2
396.872	10.2
397.236	10.26
397.601	10.17
397.965	9.92
398.329	10.29
398.694	10.43
399.058	10.66
399.422	10.49
399.786	10.47
400.15	10.61
400.514	10.27
400.878	10.59
401.242	10.61
401.605	10.63
401.969	10.45
402.333	10.78
402.697	10.69
403.06	11
403.424	10.87
403.787	10.83
404.151	10.69
404.514	10.75
404.878	10.88
405.241	10.8
405.604	11.1
405.968	11.1
406.331	11.01
406.694	10.91
407.057	10.93
407.42	10.99
407.783	11.32
408.146	11.43
408.509	11.3
408.872	11.36
409.235	11.54
409.598	11.11
409.961	11.43
410.323	11.64
410.686	11.5
411.049	11.37
411.411	11.43
411.774	11.51
412.136	11.52
412.499	11.62
412.861	11.69
413.223	11.89
413.586	11.63
413.948	11.9
414.31	12.22
414.672	11.78
415.035	12.11
415.397	11.81
415.759	11.85
416.121	12.08
416.483	12.15
416.845	12.19
417.206	12.13
417.568	12.24
417.93	12.32
418.292	12.03
418.653	12.07
419.015	12.18
419.377	12.09
419.738	12.11
420.1	12.22
420.461	12.17
420.822	12.16
421.184	12.27
421.545	12.3
421.906	12.27
422.267	12.37
422.629	12.27
422.99	12.31
423.351	12.4
423.712	12.43
424.073	12.57
424.434	12.59
424.795	12.68
425.155	12.76
425.516	12.78
425.877	12.49
426.238	12.72
426.598	12.69
426.959	12.83
427.32	12.92
427.68	12.98
428.041	13.12
428.401	13.18
428.761	13.39
429.122	13.35
429.482	13.34
429.842	13.6
430.202	13.61
430.563	13.67
430.923	13.55
431.283	13.7
431.643	13.77
432.003	14.06
432.363	13.82
432.722	13.9
433.082	13.95
433.442	13.98
433.802	13.95
434.161	13.82
434.521	14.1
434.881	13.91
435.24	13.92
435.6	14.12
435.959	14.2
436.319	14.16
436.678	14.43
437.037	14.2
437.396	14.57
437.756	14.53
438.115	14.47
438.474	14.48
438.833	14.59
439.192	14.51
439.551	14.72
439.91	14.51
440.269	14.69
440.628	14.58
440.987	14.69
441.345	14.61
441.704	14.72
442.063	14.9
442.421	14.69
442.78	14.74
443.138	14.91
443.497	14.93
443.855	15.05
444.214	15.05
444.572	15.1
444.93	15.21
445.288	15.23
445.647	15.27
446.005	15.17
446.363	15.25
446.721	15.32
447.079	15.23
447.437	15.21
447.795	15.23
448.153	15.41
448.51	15.23
448.868	15.31
449.226	15.49
449.584	15.68
449.941	15.59
450.299	15.75
450.656	15.75
451.014	16
451.371	16
451.729	16.14
452.086	16.19
452.443	16.17
452.801	16.2
453.158	16.35
453.515	16.16
453.872	16.06
454.229	16.25
454.586	16.34
454.943	16.21
455.3	16.54
455.657	16.33
456.014	16.54
456.371	16.48
456.727	16.72
457.084	16.8
457.441	16.67
457.797	16.82
458.154	16.71
458.51	16.87
458.867	16.94
459.223	17.01
459.58	17.05
459.936	17.11
460.292	17.05
460.648	16.82
461.005	16.87
461.361	16.68
461.717	16.74
462.073	16.91
462.429	17.13
462.785	17.2
463.141	17.27
463.496	17.44
463.852	17.67
464.208	17.81
464.564	17.67
464.919	17.73
465.275	17.79
465.631	17.79
465.986	17.92
466.342	17.77
466.697	17.94
467.052	17.76
467.408	17.97
467.763	18.12
468.118	18.01
468.473	18.3
468.829	18.21
469.184	18.24
469.539	18.13
469.894	18.44
470.249	18.61
470.603	18.38
470.958	18.43
471.313	18.53
471.668	18.63
472.023	18.4
472.377	18.65
472.732	18.63
473.086	18.59
473.441	18.68
473.795	18.86
474.15	18.66
474.504	19.05
474.859	18.88
475.213	18.94
475.567	18.77
475.921	19.2
476.275	19.11
476.63	19.2
476.984	19.25
477.338	19.27
477.692	19.36
478.045	19.38
478.399	19.29
478.753	19.28
479.107	19.35
479.461	19.4
479.814	19.44
480.168	19.31
480.521	19.39
480.875	19.63
481.228	19.51
481.582	19.63
481.935	19.61
482.289	19.64
482.642	19.64
482.995	19.44
483.348	19.49
483.701	19.59
484.055	19.52
484.408	19.41
484.761	19.1
485.114	18.78
485.466	18.7
485.819	18.8
486.172	19
486.525	19.22
486.878	19.39
487.23	19.53
487.583	19.58
487.936	19.67
488.288	19.61
488.641	19.4
488.993	19.39
489.345	19.32
489.698	19.42
490.05	19.55
490.402	19.77
490.754	19.97
491.107	20.1
491.459	20.24
491.811	20.33
492.163	20.39
492.515	20.23
492.866	20.01
493.218	19.89
493.57	19.88
493.922	20.09
494.274	20.26
494.625	20.58
494.977	20.83
495.328	20.97
495.68	21.1
496.031	21.24
496.383	21.33
496.734	21.28
497.086	21.29
497.437	21.26
497.788	21.28
498.139	21.38
498.49	21.23
498.842	21.27
499.193	21.47
499.544	21.47
499.894	21.42
500.245	21.62
500.596	21.55
500.947	21.73
501.298	21.81
501.648	21.96
501.999	22.09
502.35	22.06
502.7	22.36
503.051	22.38
503.401	22.1
503.752	22.38
504.102	22.35
504.452	22.43
504.803	22.45
505.153	22.53
505.503	22.37
505.853	22.52
506.203	22.37
506.553	22.51
506.903	22.59
507.253	22.61
507.603	22.89
507.953	22.7
508.303	22.65
508.652	22.7
509.002	22.84
509.352	22.84
509.701	22.71
510.051	22.84
510.4	22.75
510.75	22.66
511.099	22.81
511.449	22.76
511.798	22.84
512.147	22.93
512.496	23.07
512.846	23.11
513.195	23.03
513.544	22.98
513.893	23.04
514.242	23.17
514.591	23.13
514.939	23.2
515.288	23.56
515.637	23.41
515.986	23.4
516.334	23.48
516.683	23.54
517.032	23.8
517.38	23.82
517.729	23.91
518.077	23.81
518.426	23.79
518.774	23.78
519.122	23.69
519.47	23.48
519.819	23.52
520.167	23.38
520.515	23.36
520.863	23.58
521.211	23.66
521.559	23.61
521.907	23.8
522.255	23.89
522.602	24.09
522.95	24.22
523.298	24.33
523.645	24.2
523.993	24.38
524.341	24.42
524.688	24.57
525.036	24.38
525.383	24.65
525.73	24.62
526.078	24.5
526.425	24.41
526.772	24.39
527.119	24.17
527.466	24.09
527.814	24.18
528.161	24.27
528.508	24.31
528.854	24.29
529.201	24.18
529.548	24.08
529.895	23.84
530.242	23.74
530.588	23.76
530.935	24.02
531.282	24.15
531.628	24.28
531.975	24.39
532.321	24.56
532.667	24.79
533.014	25
533.36	24.88
533.706	24.95
534.052	24.95
534.399	24.77
534.745	24.54
535.091	24.47
535.437	24.64
535.783	24.79
536.129	25.02
536.474	25.14
536.82	25.38
537.166	25.44
537.512	25.46
537.857	25.38
538.203	25.19
538.549	25.15
538.894	25.32
539.239	25.59
539.585	25.5
539.93	25.61
540.276	25.97
540.621	26.04
540.966	25.92
541.311	26.1
541.656	26.08
542.001	25.75
542.346	25.83
542.691	25.42
543.036	25.2
543.381	25.3
543.726	25.46
544.071	25.55
544.415	25.65
544.76	25.76
545.105	25.97
545.449	26.04
545.794	26.24
546.138	26.28
546.483	26.55
546.827	26.54
547.171	26.56
547.516	26.51
547.86	26.43
548.204	26.63
548.548	26.5
548.892	26.44
549.236	26.61
549.58	26.88
549.924	27.04
550.268	27.03
550.612	27.36
550.956	27.2
551.3	27.53
551.643	27.57
551.987	27.56
552.33	27.51
552.674	27.67
553.017	27.94
553.361	27.79
553.704	27.76
554.048	27.84
554.391	27.6
554.734	27.48
555.077	27.65
555.42	27.76
555.764	27.89
556.107	27.99
556.45	28.15
556.793	28.09
557.135	28.12
557.478	28.07
557.821	28.2
558.164	28.52
558.507	28.36
558.849	28.15
559.192	28.3
559.534	28.51
559.877	28.41
560.219	28.44
560.562	28.44
560.904	28.41
561.246	28.6
561.589	28.86
561.931	28.59
562.273	28.66
562.615	28.76
562.957	28.82
563.299	28.76
563.641	28.75
563.983	28.93
564.325	28.92
564.667	28.95
565.008	28.68
565.35	29.15
565.692	29.22
566.033	28.91
566.375	28.74
566.716	28.8
567.058	29.09
567.399	29.1
567.741	28.79
568.082	28.99
568.423	28.82
568.764	29.03
569.105	28.98
569.447	29.12
569.788	29.2
570.129	29.42
570.47	29.38
570.811	29.41
571.151	29.48
571.492	29.82
571.833	29.54
572.174	29.92
572.514	29.57
572.855	29.52
573.195	29.7
573.536	29.65
573.876	29.58
574.217	29.53
574.557	29.65
574.898	29.77
575.238	29.73
575.578	29.84
575.918	29.97
576.258	29.8
576.598	29.79
576.938	29.72
577.278	30.04
577.618	29.91
577.958	29.96
578.298	30.05
578.638	30.3
578.977	30.3
579.317	30.34
579.657	30.1
579.996	30.56
580.336	30.56
580.675	30.57
581.014	30.49
581.354	30.81
581.693	30.47
582.032	30.88
582.372	30.79
582.711	30.87
583.05	30.77
583.389	30.93
583.728	30.75
584.067	31.06
584.406	30.86
584.745	31.04
585.083	31.08
585.422	31.42
585.761	31.27
586.1	31.05
586.438	31.4
586.777	31.13
587.115	31.43
587.454	31.43
587.792	31.38
588.13	31.7
588.469	31.54
588.807	31.54
589.145	31.45
589.483	31.65
589.821	31.67
590.159	31.47
590.497	31.43
590.835	31.73
591.173	31.96
591.511	31.58
591.849	31.74
592.187	31.75
592.524	31.34
592.862	31.81
593.2	31.61
593.537	31.59
593.875	32.09
594.212	32.06
594.55	31.67
594.887	32.28
595.224	31.97
595.561	31.85
595.899	32.11
596.236	32.3
596.573	32.14
596.91	32.09
597.247	31.96
597.584	32.03
597.921	32.4
598.258	32.1
598.594	31.84
598.931	31.84
599.268	32.01
599.604	32.03
599.941	32.2
600.277	32.19
600.614	32.55
600.95	32.53
601.287	32.65
601.623	32.79
601.959	32.75
602.296	32.54
602.632	32.41
602.968	32.74
603.304	32.95
603.64	33.03
603.976	33.07
604.312	32.51
604.648	32.77
604.984	32.72
605.319	32.66
605.655	32.66
605.991	32.48
606.326	32.63
606.662	32.58
606.998	32.57
607.333	32.58
607.668	32.98
608.004	32.97
608.339	33.06
608.674	33.1
609.01	33.25
609.345	33.46
609.68	33.31
610.015	33.19
610.35	33.27
610.685	33.58
611.02	33.16
611.355	33.29
611.689	33.33
612.024	33.48
612.359	33.56
612.694	33.58
613.028	33.6
613.363	33.41
613.697	33.73
614.032	33.99
614.366	33.89
614.7	33.98
615.035	34.01
615.369	33.88
615.703	33.76
616.037	34.03
616.371	33.98
616.705	34.08
617.039	34.34
617.373	34.08
617.707	34.21
618.041	34.17
618.375	34.55
618.709	34.28
619.042	34.08
619.376	34.39
619.71	34.57
620.043	34.63
620.377	34.32
620.71	34.34
621.043	34.48
621.377	34.46
621.71	34.49
622.043	34.62
622.376	34.74
622.709	34.39
623.043	34.78
623.376	34.75
623.709	34.38
624.041	34.74
624.374	34.96
624.707	34.96
625.04	35.17
625.373	34.61
625.705	35.01
626.038	34.8
626.37	35.15
626.703	34.71
627.035	34.74
627.368	35.44
627.7	34.89
628.032	34.92
628.365	34.69
628.697	34.8
629.029	35.11
629.361	34.63
629.693	34.88
630.025	34.87
630.357	35.06
630.689	35
631.021	35.02
631.353	35.25
631.684	35.3
632.016	35.51
632.348	35.44
632.679	35.2
633.011	34.81
633.342	35.54
633.674	35.73
634.005	35.6
634.336	35.11
634.668	35.76
634.999	35.06
635.33	35.69
635.661	35.47
635.992	35.41
636.323	35.4
636.654	35.71
636.985	35.58
637.316	35.9
637.647	35.64
637.977	35.82
638.308	35.47
638.639	35.79
638.969	35.3
639.3	36.08
639.63	36.13
639.961	36.3
640.291	35.57
640.622	35.91
640.952	36.31
641.282	36.23
641.612	36.27
641.943	36.08
642.273	36.15
642.603	36.46
642.933	36.37
643.263	36.09
643.592	36.23
643.922	35.9
644.252	36.66
644.582	36.12
644.911	36.62
645.241	36.62
645.571	36.59
645.9	36.62
646.23	36.34
646.559	36.39
646.888	36.44
647.218	36.67
647.547	36.9
647.876	37
648.205	36.98
648.534	36.86
648.863	36.78
649.192	36.96
649.521	36.28
649.85	36.65
650.179	36.36
650.508	36.65
650.837	37.14
651.165	36.9
651.494	37.52
651.822	36.78
652.151	36.77
652.479	37.39
652.808	37.31
653.136	36.49
653.465	37.34
653.793	37.09
654.121	37.33
654.449	37.45
654.777	37.32
655.105	37.44
655.433	36.7
655.761	37.22
656.089	37.65
656.417	37.22
656.745	37.35
657.073	37.32
657.4	37.79
657.728	37.74
658.056	36.85
658.383	37.38
658.711	37.78
659.038	37.13
659.365	37.35
659.693	37.61
660.02	37.45
660.347	37.51
660.674	37.34
661.001	37.9
661.329	37.18
661.656	37.33
661.982	37.38
662.309	37.54
662.636	37.26
662.963	37.54
663.29	37.68
663.616	37.99
663.943	37.39
664.27	37.75
664.596	37.86
664.923	37.85
665.249	38.04
665.576	37.66
665.902	37.98
666.228	37.65
666.554	38.33
666.881	37.43
667.207	37.94
667.533	37.92
667.859	38.22
668.185	37.89
668.511	38.3
668.837	38.08
669.162	38.89
669.488	38.68
669.814	37.92
670.139	38.19
670.465	38.08
670.791	38.03
671.116	37.82
671.442	38.38
671.767	38.64
672.092	38.59
672.418	37.9
672.743	38.4
673.068	38.65
673.393	38.58
673.718	38.63
