Data from 815650_crown_Reflection__4__139.txt Node

Date: Fri Sep 16 15:47:29 CDT 2022
User: ToomeyLab
Spectrometer: FLMS14357
Trigger mode: 0
Integration Time (sec): 1.000000E-2
Scans to average: 100
Electric dark correction enabled: true
Nonlinearity correction enabled: false
Boxcar width: 0
XAxis mode: Wavelengths
Number of Pixels in Spectrum: 2048
>>>>>Begin Spectral Data<<<<<
189.047	-348.71
189.435	-348.71
189.823	-348.71
190.211	690.82
190.599	108.13
190.987	101.74
191.375	144.59
191.763	490.09
192.151	376.75
192.538	-276.78
192.926	-106.19
193.314	95.97
193.702	224.78
194.089	-325.92
194.477	135.37
194.864	92.31
195.252	-59.75
195.639	83.1
196.027	82.05
196.414	-107.86
196.801	-86.47
197.189	20.61
197.576	658.63
197.963	-42.38
198.351	-75.08
198.738	-31.89
199.125	-2.33
199.512	-110.63
199.899	18.66
200.286	13.2
200.673	18.08
201.06	34.58
201.447	-12.6
201.833	-13.78
202.22	16.64
202.607	-71.05
202.994	39.81
203.38	34.11
203.767	18.56
204.154	26.07
204.54	2.24
204.927	-36.73
205.313	63.11
205.699	33.11
206.086	33.86
206.472	45.78
206.858	-5.65
207.245	26.94
207.631	15.91
208.017	-19.52
208.403	-15.52
208.789	-3.74
209.175	27.29
209.561	0.47
209.947	-11.99
210.333	9.06
210.719	15.47
211.105	2.93
211.491	30.66
211.876	0.78
212.262	33.8
212.648	-17.26
213.034	-29.04
213.419	-29.06
213.805	16.01
214.19	11.07
214.576	-24.46
214.961	-11.36
215.346	-33.92
215.732	-69
216.117	22
216.502	-5.03
216.888	-15.16
217.273	-9.08
217.658	9.3
218.043	-37.07
218.428	10.97
218.813	-18.26
219.198	5.65
219.583	-13.97
219.968	1.03
220.353	-27.93
220.738	28.35
221.122	-32.4
221.507	16.01
221.892	-4.03
222.276	15.69
222.661	9.16
223.046	15.85
223.43	15.84
223.815	0.35
224.199	13.56
224.583	8.66
224.968	18.57
225.352	9.6
225.736	16.18
226.121	11.81
226.505	4.07
226.889	3.04
227.273	6.4
227.657	13.08
228.041	9.02
228.425	1.99
228.809	8.5
229.193	7.49
229.577	9
229.961	7.62
230.344	7.75
230.728	7.35
231.112	7.44
231.495	7.59
231.879	6.14
232.263	7.32
232.646	6.39
233.03	7.99
233.413	7.25
233.797	5.67
234.18	6.5
234.563	4.62
234.946	7.59
235.33	6.73
235.713	6.38
236.096	7.45
236.479	6.27
236.862	6.52
237.245	7.63
237.628	9.21
238.011	7.24
238.394	6.48
238.777	8.3
239.16	6.04
239.543	8.07
239.925	8.05
240.308	6.7
240.691	7.57
241.073	6.37
241.456	6.45
241.838	5.38
242.221	7.16
242.603	7.17
242.986	5.97
243.368	6.85
243.75	6.06
244.133	7.16
244.515	6.44
244.897	7.29
245.279	6.22
245.661	7.27
246.043	7.27
246.425	7.35
246.807	7.04
247.189	6.11
247.571	5.94
247.953	6.27
248.335	6.39
248.717	6.41
249.098	6.55
249.48	6.4
249.862	6.15
250.243	6.91
250.625	6.28
251.006	6.22
251.388	6.33
251.769	5.19
252.151	6.03
252.532	5.67
252.913	6
253.295	6.57
253.676	6.25
254.057	5.88
254.438	5.69
254.819	5.05
255.2	5.25
255.581	6.11
255.962	6.73
256.343	6.76
256.724	5.37
257.105	6.61
257.486	6.31
257.867	5.65
258.247	6.33
258.628	5.93
259.009	6.55
259.389	5.93
259.77	5.57
260.15	5.96
260.531	5.83
260.911	5.7
261.292	5.71
261.672	5.92
262.052	5.74
262.432	5.74
262.813	6.45
263.193	5.99
263.573	6.43
263.953	5.91
264.333	5.89
264.713	4.88
265.093	5
265.473	5.7
265.853	6.68
266.233	6.21
266.612	6.49
266.992	4.69
267.372	5.39
267.752	5.33
268.131	6.2
268.511	6.04
268.89	6.46
269.27	5.38
269.649	5.53
270.029	5.6
270.408	6.51
270.787	5.32
271.167	5.25
271.546	5.89
271.925	5.91
272.304	5.85
272.683	5.84
273.062	5.42
273.441	5.73
273.82	5.74
274.199	5.89
274.578	5.96
274.957	5.57
275.336	5.66
275.715	6.27
276.093	5.68
276.472	5.48
276.851	5.36
277.229	5.57
277.608	5.48
277.986	4.88
278.365	5.12
278.743	5.43
279.122	5.54
279.5	5.06
279.878	5.82
280.257	5.93
280.635	5.5
281.013	5.24
281.391	5.4
281.769	5.4
282.147	5.44
282.525	5.06
282.903	5.52
283.281	4.96
283.659	5.73
284.037	5.37
284.415	5.32
284.792	5.87
285.17	5.53
285.548	5.12
285.925	5.39
286.303	5.54
286.68	5.49
287.058	4.88
287.435	5
287.813	5.45
288.19	5.06
288.567	5
288.945	5.23
289.322	5.25
289.699	5
290.076	5.18
290.453	5.44
290.83	4.99
291.207	4.76
291.584	4.61
291.961	5.47
292.338	5.27
292.715	5.19
293.092	4.94
293.469	5.05
293.845	4.92
294.222	4.4
294.599	5.08
294.975	4.9
295.352	5.25
295.728	4.55
296.105	4.79
296.481	4.59
296.858	5.19
297.234	4.47
297.61	5.24
297.986	4.71
298.363	4.75
298.739	4.47
299.115	5
299.491	4.9
299.867	4.88
300.243	4.83
300.619	4.9
300.995	4.33
301.371	4.95
301.746	4.58
302.122	4.84
302.498	4.77
302.874	4.95
303.249	5.24
303.625	4.68
304	4.32
304.376	4.65
304.751	4.89
305.127	4.92
305.502	4.62
305.878	4.52
306.253	4.91
306.628	4.91
307.003	4.84
307.378	5.15
307.754	5.21
308.129	5.64
308.504	5.26
308.879	5.19
309.254	4.63
309.629	4.3
310.003	4.9
310.378	4.61
310.753	4.72
311.128	4.85
311.502	4.52
311.877	4.44
312.252	4.65
312.626	4.81
313.001	4.57
313.375	4.67
313.75	4.64
314.124	4.55
314.498	4.4
314.873	4.8
315.247	4.28
315.621	4.48
315.995	4.42
316.369	4.52
316.743	4.65
317.117	4.68
317.491	4.55
317.865	4.63
318.239	4.17
318.613	4.17
318.987	4.59
319.361	4.1
319.734	4.1
320.108	4.45
320.482	4.54
320.855	4.38
321.229	4.69
321.602	4.98
321.976	4.51
322.349	4.35
322.723	4.64
323.096	4.17
323.469	4.4
323.843	4.7
324.216	4.56
324.589	4.38
324.962	4.3
325.335	4.77
325.708	4.57
326.081	4.41
326.454	4.62
326.827	4.61
327.2	4.26
327.573	3.99
327.945	4.57
328.318	4.41
328.691	4.24
329.063	4.16
329.436	4.19
329.809	4.26
330.181	4.77
330.553	4.64
330.926	4.66
331.298	4.67
331.671	4.51
332.043	4.28
332.415	4.76
332.787	4.32
333.159	4.3
333.532	4.78
333.904	4.64
334.276	4.53
334.648	4.19
335.02	4.53
335.391	4.73
335.763	4.11
336.135	4.45
336.507	4.91
336.879	4.88
337.25	4.37
337.622	4.55
337.993	4.33
338.365	4.71
338.736	4.95
339.108	3.91
339.479	4.62
339.851	3.97
340.222	4.59
340.593	4.34
340.964	4.44
341.336	4.4
341.707	4.48
342.078	5.19
342.449	4.33
342.82	4.44
343.191	4.53
343.562	4.7
343.933	4.83
344.303	4.42
344.674	4.13
345.045	4.79
345.416	4.39
345.786	4.99
346.157	4.66
346.527	4.47
346.898	4.28
347.268	4.83
347.639	4.25
348.009	4.45
348.38	4.75
348.75	4.51
349.12	4.66
349.49	4.76
349.861	4.64
350.231	4.49
350.601	4.53
350.971	4.57
351.341	4.77
351.711	4.38
352.081	4.37
352.45	4.74
352.82	4.9
353.19	4.54
353.56	4.58
353.929	4.82
354.299	4.62
354.669	4.84
355.038	4.49
355.408	4.93
355.777	4.75
356.147	4.78
356.516	4.82
356.885	4.87
357.254	4.54
357.624	4.6
357.993	4.77
358.362	4.58
358.731	4.93
359.1	4.66
359.469	4.82
359.838	4.4
360.207	4.66
360.576	4.74
360.945	4.77
361.314	4.45
361.682	3.9
362.051	4.64
362.42	5
362.788	5.1
363.157	4.87
363.525	4.72
363.894	4.99
364.262	4.59
364.631	4.8
364.999	4.51
365.367	4.75
365.735	5.05
366.104	4.74
366.472	5.09
366.84	4.7
367.208	5.1
367.576	4.72
367.944	4.94
368.312	4.93
368.68	5.16
369.048	4.93
369.416	5.06
369.783	4.86
370.151	5.02
370.519	5.06
370.886	4.91
371.254	4.74
371.621	5
371.989	5.06
372.356	5.16
372.724	5.03
373.091	4.7
373.458	4.74
373.826	4.94
374.193	5.43
374.56	4.8
374.927	4.9
375.294	4.89
375.661	4.78
376.028	5.09
376.395	4.54
376.762	5.33
377.129	5.06
377.496	4.91
377.863	4.81
378.229	5.2
378.596	4.66
378.963	4.97
379.329	4.95
379.696	5.23
380.062	4.87
380.429	4.95
380.795	5.03
381.161	5.17
381.528	5.54
381.894	5.04
382.26	5.03
382.626	5.08
382.993	5.11
383.359	4.86
383.725	4.88
384.091	5.1
384.457	4.88
384.823	4.97
385.188	5
385.554	5.14
385.92	5.09
386.286	5.14
386.651	5.28
387.017	5.11
387.383	5.03
387.748	4.79
388.114	4.83
388.479	5.5
388.845	5.17
389.21	5.2
389.575	5.09
389.94	5.3
390.306	5.06
390.671	5.15
391.036	4.99
391.401	4.98
391.766	5.19
392.131	5.57
392.496	5.01
392.861	5.22
393.226	5.24
393.591	5.03
393.956	5.15
394.32	5.6
394.685	4.97
395.05	5.49
395.414	4.93
395.779	5.14
396.143	5.24
396.508	5.06
396.872	5.33
397.236	5.16
397.601	5.09
397.965	4.99
398.329	4.95
398.694	5.33
399.058	5.41
399.422	5.23
399.786	5.4
400.15	5.49
400.514	5.28
400.878	5.43
401.242	5.08
401.605	5.16
401.969	5.13
402.333	5.15
402.697	5.24
403.06	5.38
403.424	5.2
403.787	5.24
404.151	5.23
404.514	5.3
404.878	5.22
405.241	5.19
405.604	5.34
405.968	5.46
406.331	5.39
406.694	5.24
407.057	5.34
407.42	5.06
407.783	5.35
408.146	5.41
408.509	5.23
408.872	5.4
409.235	5.37
409.598	5.17
409.961	5.31
410.323	5.32
410.686	5.57
411.049	5.27
411.411	5.22
411.774	5.36
412.136	5.27
412.499	5.17
412.861	5.33
413.223	5.29
413.586	5.4
413.948	5.44
414.31	5.41
414.672	5.24
415.035	5.31
415.397	5.3
415.759	5.47
416.121	5.59
416.483	5.46
416.845	5.52
417.206	5.53
417.568	5.48
417.93	5.51
418.292	5.44
418.653	5.33
419.015	5.25
419.377	5.41
419.738	5.29
420.1	5.34
420.461	5.41
420.822	5.21
421.184	5.25
421.545	5.26
421.906	5.23
422.267	5.32
422.629	5.24
422.99	5.2
423.351	5.24
423.712	5.17
424.073	5.39
424.434	5.34
424.795	5.29
425.155	5.3
425.516	5.4
425.877	5.24
426.238	5.22
426.598	5.28
426.959	5.4
427.32	5.21
427.68	5.4
428.041	5.16
428.401	5.39
428.761	5.42
429.122	5.47
429.482	5.21
429.842	5.36
430.202	5.55
430.563	5.3
430.923	5.4
431.283	5.64
431.643	5.45
432.003	5.43
432.363	5.5
432.722	5.53
433.082	5.49
433.442	5.62
433.802	5.58
434.161	5.34
434.521	5.44
434.881	5.52
435.24	5.43
435.6	5.49
435.959	5.47
436.319	5.31
436.678	5.42
437.037	5.32
437.396	5.5
437.756	5.44
438.115	5.49
438.474	5.45
438.833	5.41
439.192	5.33
439.551	5.44
439.91	5.37
440.269	5.55
440.628	5.37
440.987	5.34
441.345	5.36
441.704	5.41
442.063	5.43
442.421	5.38
442.78	5.42
443.138	5.44
443.497	5.34
443.855	5.43
444.214	5.31
444.572	5.51
444.93	5.4
445.288	5.43
445.647	5.54
446.005	5.33
446.363	5.39
446.721	5.4
447.079	5.4
447.437	5.45
447.795	5.37
448.153	5.43
448.51	5.31
448.868	5.33
449.226	5.45
449.584	5.46
449.941	5.39
450.299	5.41
450.656	5.48
451.014	5.46
451.371	5.58
451.729	5.55
452.086	5.45
452.443	5.42
452.801	5.46
453.158	5.57
453.515	5.5
453.872	5.55
454.229	5.4
454.586	5.36
454.943	5.33
455.3	5.66
455.657	5.51
456.014	5.52
456.371	5.55
456.727	5.57
457.084	5.71
457.441	5.52
457.797	5.64
458.154	5.44
458.51	5.51
458.867	5.51
459.223	5.57
459.58	5.59
459.936	5.55
460.292	5.5
460.648	5.41
461.005	5.49
461.361	5.36
461.717	5.45
462.073	5.46
462.429	5.41
462.785	5.5
463.141	5.48
463.496	5.58
463.852	5.54
464.208	5.62
464.564	5.63
464.919	5.52
465.275	5.68
465.631	5.57
465.986	5.39
466.342	5.57
466.697	5.59
467.052	5.49
467.408	5.55
467.763	5.54
468.118	5.57
468.473	5.44
468.829	5.49
469.184	5.47
469.539	5.43
469.894	5.56
470.249	5.68
470.603	5.61
470.958	5.51
471.313	5.72
471.668	5.59
472.023	5.48
472.377	5.59
472.732	5.52
473.086	5.47
473.441	5.47
473.795	5.59
474.15	5.5
474.504	5.68
474.859	5.54
475.213	5.68
475.567	5.39
475.921	5.61
476.275	5.58
476.63	5.6
476.984	5.61
477.338	5.66
477.692	5.45
478.045	5.55
478.399	5.5
478.753	5.56
479.107	5.41
479.461	5.59
479.814	5.51
480.168	5.47
480.521	5.47
480.875	5.44
481.228	5.45
481.582	5.43
481.935	5.58
482.289	5.59
482.642	5.37
482.995	5.44
483.348	5.43
483.701	5.47
484.055	5.4
484.408	5.4
484.761	5.33
485.114	5.19
485.466	5.17
485.819	5.15
486.172	5.22
486.525	5.28
486.878	5.32
487.23	5.39
487.583	5.36
487.936	5.35
488.288	5.33
488.641	5.37
488.993	5.31
489.345	5.25
489.698	5.26
490.05	5.3
490.402	5.31
490.754	5.37
491.107	5.39
491.459	5.44
491.811	5.35
492.163	5.47
492.515	5.38
492.866	5.34
493.218	5.27
493.57	5.25
493.922	5.32
494.274	5.4
494.625	5.39
494.977	5.47
495.328	5.49
495.68	5.5
496.031	5.6
496.383	5.53
496.734	5.55
497.086	5.58
497.437	5.53
497.788	5.53
498.139	5.55
498.49	5.54
498.842	5.45
499.193	5.48
499.544	5.47
499.894	5.45
500.245	5.55
500.596	5.47
500.947	5.48
501.298	5.44
501.648	5.61
501.999	5.56
502.35	5.56
502.7	5.63
503.051	5.53
503.401	5.55
503.752	5.48
504.102	5.59
504.452	5.45
504.803	5.63
505.153	5.57
505.503	5.53
505.853	5.62
506.203	5.55
506.553	5.43
506.903	5.52
507.253	5.51
507.603	5.51
507.953	5.57
508.303	5.58
508.652	5.52
509.002	5.55
509.352	5.55
509.701	5.48
510.051	5.5
510.4	5.57
510.75	5.51
511.099	5.56
511.449	5.48
511.798	5.52
512.147	5.47
512.496	5.57
512.846	5.48
513.195	5.53
513.544	5.53
513.893	5.53
514.242	5.52
514.591	5.49
514.939	5.56
515.288	5.63
515.637	5.55
515.986	5.6
516.334	5.4
516.683	5.57
517.032	5.6
517.38	5.7
517.729	5.66
518.077	5.58
518.426	5.6
518.774	5.58
519.122	5.57
519.47	5.61
519.819	5.35
520.167	5.46
520.515	5.39
520.863	5.48
521.211	5.55
521.559	5.45
521.907	5.45
522.255	5.47
522.602	5.57
522.95	5.52
523.298	5.53
523.645	5.64
523.993	5.67
524.341	5.55
524.688	5.6
525.036	5.6
525.383	5.62
525.73	5.64
526.078	5.59
526.425	5.55
526.772	5.58
527.119	5.41
527.466	5.46
527.814	5.4
528.161	5.45
528.508	5.47
528.854	5.49
529.201	5.45
529.548	5.33
529.895	5.36
530.242	5.29
530.588	5.28
530.935	5.34
531.282	5.34
531.628	5.4
531.975	5.36
532.321	5.44
532.667	5.55
533.014	5.5
533.36	5.48
533.706	5.43
534.052	5.45
534.399	5.42
534.745	5.41
535.091	5.3
535.437	5.36
535.783	5.38
536.129	5.38
536.474	5.41
536.82	5.48
537.166	5.57
537.512	5.57
537.857	5.57
538.203	5.45
538.549	5.42
538.894	5.33
539.239	5.57
539.585	5.54
539.93	5.44
540.276	5.68
540.621	5.63
540.966	5.62
541.311	5.63
541.656	5.61
542.001	5.46
542.346	5.44
542.691	5.43
543.036	5.27
543.381	5.28
543.726	5.36
544.071	5.41
544.415	5.41
544.76	5.44
545.105	5.47
545.449	5.49
545.794	5.53
546.138	5.51
546.483	5.52
546.827	5.57
547.171	5.55
547.516	5.34
547.86	5.36
548.204	5.56
548.548	5.45
548.892	5.43
549.236	5.48
549.58	5.55
549.924	5.56
550.268	5.55
550.612	5.6
550.956	5.51
551.3	5.62
551.643	5.68
551.987	5.57
552.33	5.48
552.674	5.58
553.017	5.61
553.361	5.61
553.704	5.62
554.048	5.52
554.391	5.56
554.734	5.58
555.077	5.7
555.42	5.57
555.764	5.79
556.107	5.73
556.45	5.62
556.793	5.81
557.135	5.7
557.478	5.51
557.821	5.58
558.164	5.67
558.507	5.63
558.849	5.58
559.192	5.6
559.534	5.78
559.877	5.45
560.219	5.59
560.562	5.62
560.904	5.65
561.246	5.65
561.589	5.52
561.931	5.6
562.273	5.69
562.615	5.82
562.957	5.5
563.299	5.57
563.641	5.53
563.983	5.54
564.325	5.43
564.667	5.44
565.008	5.55
565.35	5.63
565.692	5.59
566.033	5.56
566.375	5.52
566.716	5.45
567.058	5.45
567.399	5.55
567.741	5.49
568.082	5.63
568.423	5.42
568.764	5.48
569.105	5.53
569.447	5.55
569.788	5.43
570.129	5.6
570.47	5.54
570.811	5.43
571.151	5.59
571.492	5.49
571.833	5.5
572.174	5.58
572.514	5.46
572.855	5.58
573.195	5.64
573.536	5.48
573.876	5.52
574.217	5.53
574.557	5.57
574.898	5.54
575.238	5.54
575.578	5.65
575.918	5.6
576.258	5.5
576.598	5.41
576.938	5.57
577.278	5.52
577.618	5.55
577.958	5.66
578.298	5.52
578.638	5.48
578.977	5.53
579.317	5.65
579.657	5.4
579.996	5.48
580.336	5.52
580.675	5.5
581.014	5.56
581.354	5.61
581.693	5.48
582.032	5.67
582.372	5.45
582.711	5.85
583.05	5.66
583.389	5.59
583.728	5.5
584.067	5.6
584.406	5.67
584.745	5.64
585.083	5.83
585.422	5.78
585.761	5.72
586.1	5.44
586.438	5.64
586.777	5.29
587.115	5.56
587.454	5.7
587.792	5.59
588.13	5.65
588.469	5.61
588.807	5.6
589.145	5.38
589.483	5.42
589.821	5.62
590.159	5.49
590.497	5.3
590.835	5.48
591.173	5.74
591.511	5.46
591.849	5.58
592.187	5.48
592.524	5.35
592.862	5.61
593.2	5.49
593.537	5.61
593.875	5.41
594.212	5.6
594.55	5.3
594.887	5.68
595.224	5.46
595.561	5.45
595.899	5.65
596.236	5.7
596.573	5.47
596.91	5.58
597.247	5.59
597.584	5.62
597.921	5.63
598.258	5.45
598.594	5.38
598.931	5.29
599.268	5.44
599.604	5.44
599.941	5.3
600.277	5.63
600.614	5.65
600.95	5.41
601.287	5.41
601.623	5.72
601.959	5.61
602.296	5.21
602.632	5.37
602.968	5.47
603.304	5.58
603.64	5.64
603.976	5.45
604.312	5.52
604.648	5.66
604.984	5.55
605.319	5.65
605.655	5.59
605.991	5.55
606.326	5.51
606.662	5.51
606.998	5.31
607.333	5.58
607.668	5.49
608.004	5.48
608.339	5.28
608.674	5.48
609.01	5.56
609.345	5.58
609.68	5.49
610.015	5.53
610.35	5.46
610.685	5.77
611.02	5.32
611.355	5.52
611.689	5.49
612.024	5.41
612.359	5.29
612.694	5.26
613.028	5.43
613.363	5.4
613.697	5.66
614.032	5.56
614.366	5.39
614.7	5.71
615.035	5.77
615.369	5.46
615.703	5.43
616.037	5.53
616.371	5.59
616.705	5.55
617.039	5.47
617.373	5.41
617.707	5.54
618.041	5.39
618.375	5.61
618.709	5.12
619.042	5.41
619.376	5.51
619.71	5.68
620.043	5.38
620.377	5.49
620.71	5.62
621.043	5.85
621.377	5.74
621.71	5.41
622.043	5.01
622.376	5.52
622.709	5.22
623.043	5.35
623.376	5.33
623.709	5.08
624.041	5.3
624.374	5.59
624.707	5.63
625.04	5.6
625.373	5.41
625.705	5.69
626.038	5.77
626.37	5.72
626.703	5.36
627.035	5.34
627.368	5.71
627.7	5.49
628.032	5.33
628.365	5.66
628.697	5.4
629.029	5.5
629.361	5.24
629.693	5.54
630.025	5.55
630.357	5.67
630.689	5.49
631.021	5.46
631.353	5.56
631.684	5.27
632.016	5.51
632.348	5.81
632.679	5.35
633.011	5.43
633.342	5.22
633.674	5.71
634.005	5.51
634.336	5.38
634.668	5.55
634.999	5.33
635.33	5.33
635.661	5.21
635.992	5.51
636.323	5.4
636.654	5.29
636.985	5.47
637.316	5.53
637.647	5.45
637.977	5.29
638.308	5.62
638.639	5.48
638.969	5.32
639.3	5.63
639.63	5.47
639.961	5.62
640.291	5.38
640.622	5.46
640.952	5.83
641.282	5.63
641.612	5.15
641.943	5.29
642.273	5.43
642.603	5.91
642.933	5.54
643.263	5.64
643.592	5.19
643.922	5.11
644.252	5.38
644.582	5.21
644.911	5.44
645.241	5.34
645.571	5.66
645.9	5.42
646.23	5.06
646.559	5.32
646.888	5.29
647.218	5.88
647.547	5.75
647.876	5.85
648.205	5.55
648.534	5.63
648.863	5.19
649.192	5.46
649.521	5.59
649.85	5.26
650.179	5.11
650.508	5.65
650.837	5.72
651.165	5.03
651.494	5.68
651.822	5.49
652.151	5.62
652.479	5.21
652.808	5.47
653.136	5.31
653.465	5.14
653.793	5.47
654.121	5.57
654.449	5.46
654.777	5.31
655.105	5.65
655.433	5.25
655.761	5.44
656.089	5.4
656.417	5.2
656.745	5.26
657.073	5.32
657.4	5.36
657.728	6.04
658.056	5.04
658.383	5.43
658.711	5.5
659.038	5.23
659.365	5.63
659.693	5.1
660.02	5.36
660.347	5.7
660.674	5.54
661.001	5.36
661.329	5.18
661.656	5.16
661.982	5.67
662.309	5.34
662.636	5.45
662.963	5.52
663.29	5.79
663.616	5.59
663.943	5.78
664.27	4.75
664.596	5.38
664.923	4.97
665.249	5.84
665.576	5.16
665.902	5.68
666.228	5.42
666.554	5.83
666.881	6.08
667.207	5.6
667.533	5.09
667.859	5.33
668.185	5.69
668.511	5.77
668.837	5.38
669.162	5.62
669.488	5.51
669.814	5.54
670.139	5.41
670.465	5.7
670.791	5.62
671.116	5.08
671.442	5.43
671.767	5.61
672.092	5.33
672.418	5.3
672.743	5.42
673.068	6.23
673.393	4.86
673.718	6.03
674.043	5.54
674.368	5.46
674.693	6.36
675.018	5.38
675.343	5.41
675.667	5.35
675.992	5.47
676.317	5.55
676.641	4.75
676.966	5.16
677.29	5.81
677.615	6.03
677.939	4.98
678.264	5.26
678.588	4.73
678.912	4.92
679.236	5.18
679.56	5.69
679.885	5.38
680.209	5.59
680.532	5.79
680.856	5.21
681.18	5.71
681.504	5.68
681.828	5.26
682.152	5.74
682.475	5.65
682.799	5.17
683.122	4.99
683.446	5.45
683.769	5.87
684.093	5.33
684.416	5.65
684.739	5.4
685.062	5.2
685.386	5.7
685.709	4.82
686.032	5.49
686.355	5.24
686.678	6.04
687.001	5.59
687.324	6.04
687.646	6.34
687.969	5.68
688.292	5.6
688.614	5.72
688.937	5.55
689.26	5.69
689.582	5.28
689.904	5.71
690.227	5.71
690.549	5.67
690.871	5.56
691.194	5.54
691.516	5.04
691.838	5.56
692.16	6.18
692.482	4.91
