Data from 815657_chest_Reflection__1__126.txt Node

Date: Fri Sep 16 15:41:09 CDT 2022
User: ToomeyLab
Spectrometer: FLMS14357
Trigger mode: 0
Integration Time (sec): 1.000000E-2
Scans to average: 100
Electric dark correction enabled: true
Nonlinearity correction enabled: false
Boxcar width: 0
XAxis mode: Wavelengths
Number of Pixels in Spectrum: 2048
>>>>>Begin Spectral Data<<<<<
189.047	100.83
189.435	100.83
189.823	100.83
190.211	857.4
190.599	-124.81
190.987	110.03
191.375	112.04
191.763	352.46
192.151	108.01
192.538	-131.06
192.926	-33.08
193.314	56.24
193.702	9.15
194.089	-688.37
194.477	49.81
194.864	-6.11
195.252	-9.96
195.639	90.03
196.027	66.35
196.414	-28.9
196.801	129.39
197.189	12.54
197.576	459.64
197.963	356.86
198.351	-57.97
198.738	-30.53
199.125	49.36
199.512	-150.04
199.899	-1.07
200.286	-56.1
200.673	-4
201.06	28.61
201.447	7.25
201.833	-17.93
202.22	17.59
202.607	21.01
202.994	29.92
203.38	14.44
203.767	25.32
204.154	12.34
204.54	9.15
204.927	-1.96
205.313	12.22
205.699	44.68
206.086	33.34
206.472	19.33
206.858	24.86
207.245	27.53
207.631	20.61
208.017	20.84
208.403	-5.15
208.789	-29.74
209.175	20.82
209.561	-16.03
209.947	4.88
210.333	2.44
210.719	-7.84
211.105	20.43
211.491	-26.31
211.876	1.07
212.262	-21.14
212.648	8.02
213.034	7.19
213.419	2.91
213.805	-3.79
214.19	29.12
214.576	-19.21
214.961	-6.04
215.346	-33.92
215.732	-34.07
216.117	45.4
216.502	-16.56
216.888	2.16
217.273	20.52
217.658	-24.06
218.043	-48.61
218.428	25.67
218.813	15.6
219.198	3.01
219.583	-3.7
219.968	15.16
220.353	-11.89
220.738	10.93
221.122	-12.6
221.507	41.6
221.892	-13.95
222.276	26.05
222.661	19.6
223.046	-2.1
223.43	13.41
223.815	-22.61
224.199	3.98
224.583	5.96
224.968	2.2
225.352	-0.15
225.736	18.7
226.121	15.16
226.505	4.4
226.889	8.96
227.273	4.47
227.657	7.13
228.041	-0
228.425	-4.7
228.809	6.05
229.193	6.22
229.577	2.56
229.961	2.48
230.344	3.72
230.728	2.83
231.112	2.49
231.495	1.75
231.879	3.45
232.263	1.22
232.646	0.45
233.03	2.73
233.413	3.34
233.797	2.5
234.18	2.56
234.563	1.94
234.946	1.06
235.33	2.56
235.713	2.3
236.096	2.37
236.479	1.69
236.862	2.41
237.245	2.69
237.628	3.87
238.011	2.81
238.394	3.99
238.777	4.17
239.16	4.3
239.543	5.04
239.925	2.46
240.308	2.97
240.691	1.43
241.073	1.55
241.456	2.47
241.838	0.86
242.221	2.34
242.603	2.32
242.986	1.79
243.368	2.4
243.75	2.02
244.133	2.5
244.515	2.31
244.897	2.58
245.279	1.8
245.661	1.65
246.043	2.48
246.425	1.99
246.807	2.88
247.189	2.42
247.571	1.49
247.953	2.18
248.335	2.25
248.717	2.3
249.098	2.32
249.48	2.2
249.862	2.21
250.243	2.41
250.625	2.75
251.006	2.89
251.388	2.62
251.769	0.54
252.151	2.45
252.532	1.99
252.913	2.56
253.295	2.56
253.676	2.61
254.057	2.42
254.438	1.8
254.819	1.74
255.2	2.25
255.581	2.12
255.962	2.47
256.343	3.3
256.724	1.27
257.105	0.76
257.486	2.67
257.867	2.75
258.247	1.72
258.628	3.28
259.009	2.42
259.389	1.98
259.77	2.51
260.15	2.13
260.531	2.04
260.911	2.02
261.292	2.06
261.672	2.03
262.052	2.04
262.432	2.22
262.813	2.97
263.193	2.04
263.573	2.16
263.953	2.59
264.333	2
264.713	1.63
265.093	0.92
265.473	2.35
265.853	3.09
266.233	2.49
266.612	3.09
266.992	1.78
267.372	2.42
267.752	1.87
268.131	2.26
268.511	2.25
268.89	2.23
269.27	1.79
269.649	2
270.029	2.1
270.408	2.38
270.787	1.33
271.167	1.84
271.546	2.8
271.925	2.6
272.304	2
272.683	1.83
273.062	1.97
273.441	1.87
273.82	1.79
274.199	1.98
274.578	1.79
274.957	2.1
275.336	1.95
275.715	2.63
276.093	2.19
276.472	1.73
276.851	1.63
277.229	2.04
277.608	2.32
277.986	1.94
278.365	1.57
278.743	2.03
279.122	2.09
279.5	1.71
279.878	2.28
280.257	2.22
280.635	1.94
281.013	1.86
281.391	2.5
281.769	2.67
282.147	2.43
282.525	2.03
282.903	2.24
283.281	1.93
283.659	2.64
284.037	2.21
284.415	2.36
284.792	2.84
285.17	2.56
285.548	1.93
285.925	1.88
286.303	2.21
286.68	1.97
287.058	1.91
287.435	2.17
287.813	2.09
288.19	1.83
288.567	1.7
288.945	1.92
289.322	2.36
289.699	2.17
290.076	1.83
290.453	2.35
290.83	2.33
291.207	2.31
291.584	1.57
291.961	2.41
292.338	2.42
292.715	1.81
293.092	2.02
293.469	2.33
293.845	2.18
294.222	2.68
294.599	1.67
294.975	2.14
295.352	2.18
295.728	2.47
296.105	2.46
296.481	2.34
296.858	2.13
297.234	2.16
297.61	2.73
297.986	2.34
298.363	2.23
298.739	2.02
299.115	2.61
299.491	2.53
299.867	1.97
300.243	2.29
300.619	2.55
300.995	2.61
301.371	2.25
301.746	2.3
302.122	2.92
302.498	2.46
302.874	2.66
303.249	2.8
303.625	2.78
304	2.7
304.376	2.26
304.751	3.06
305.127	2.2
305.502	2.44
305.878	2.66
306.253	2.41
306.628	2.27
307.003	2.71
307.378	3.56
307.754	2.99
308.129	3.25
308.504	3.26
308.879	2.75
309.254	2.56
309.629	2.37
310.003	2.91
310.378	2.52
310.753	2.29
311.128	2.42
311.502	2.28
311.877	2.65
312.252	2.56
312.626	2.76
313.001	2.59
313.375	2.89
313.75	2.96
314.124	2.5
314.498	2.6
314.873	3.12
315.247	2.77
315.621	2.78
315.995	2.73
316.369	3.06
316.743	3.07
317.117	2.82
317.491	2.87
317.865	2.97
318.239	2.77
318.613	2.48
318.987	2.41
319.361	2.63
319.734	2.86
320.108	2.61
320.482	3.52
320.855	2.78
321.229	2.58
321.602	3.3
321.976	2.79
322.349	3.02
322.723	2.56
323.096	3.33
323.469	2.61
323.843	3.55
324.216	3.45
324.589	3.22
324.962	3.17
325.335	3.42
325.708	3.12
326.081	3.33
326.454	3.91
326.827	2.89
327.2	3.18
327.573	2.94
327.945	3.21
328.318	3.37
328.691	3.2
329.063	2.92
329.436	2.81
329.809	2.75
330.181	3.48
330.553	2.98
330.926	3.13
331.298	3.41
331.671	2.87
332.043	3.5
332.415	2.96
332.787	2.86
333.159	2.86
333.532	3.69
333.904	3.75
334.276	3.47
334.648	3.26
335.02	3.11
335.391	3.58
335.763	3.13
336.135	2.88
336.507	3.4
336.879	3.65
337.25	2.67
337.622	3.5
337.993	3.27
338.365	3.2
338.736	3.46
339.108	3.1
339.479	3.45
339.851	3.17
340.222	2.93
340.593	3.49
340.964	3.63
341.336	3.29
341.707	3.02
342.078	3.65
342.449	3.44
342.82	3.45
343.191	3.3
343.562	3.39
343.933	3.78
344.303	4
344.674	2.82
345.045	3.58
345.416	3.09
345.786	3.32
346.157	3.5
346.527	3.3
346.898	3.41
347.268	3.78
347.639	3.27
348.009	3.7
348.38	3.57
348.75	2.87
349.12	3.42
349.49	3.86
349.861	3.69
350.231	3.31
350.601	3.44
350.971	3.48
351.341	3.77
351.711	3.64
352.081	3.48
352.45	4.03
352.82	3.75
353.19	3.5
353.56	3.76
353.929	3.63
354.299	3.5
354.669	3.58
355.038	3.27
355.408	3.61
355.777	3.45
356.147	3.25
356.516	3.71
356.885	3.55
357.254	3.57
357.624	3.91
357.993	3.66
358.362	3.17
358.731	3.92
359.1	3.55
359.469	3.54
359.838	3.46
360.207	3.93
360.576	3.66
360.945	3.85
361.314	3.7
361.682	3.17
362.051	3.71
362.42	3.74
362.788	4.03
363.157	3.7
363.525	3.61
363.894	3.76
364.262	3.59
364.631	3.5
364.999	3.54
365.367	3.56
365.735	3.91
366.104	3.75
366.472	4.03
366.84	3.83
367.208	3.85
367.576	3.55
367.944	3.74
368.312	3.62
368.68	4.15
369.048	4.12
369.416	4.08
369.783	3.91
370.151	4.14
370.519	3.96
370.886	3.97
371.254	3.74
371.621	4.22
371.989	3.8
372.356	3.84
372.724	3.91
373.091	4.04
373.458	4
373.826	3.73
374.193	4.16
374.56	3.87
374.927	4.01
375.294	4.06
375.661	3.69
376.028	4.43
376.395	3.6
376.762	4.41
377.129	3.87
377.496	4.11
377.863	4.16
378.229	4.16
378.596	3.64
378.963	3.92
379.329	3.85
379.696	4.04
380.062	3.97
380.429	4.32
380.795	4.33
381.161	4.32
381.528	4.22
381.894	4.18
382.26	4.08
382.626	3.88
382.993	3.99
383.359	4
383.725	4.11
384.091	4.17
384.457	3.72
384.823	4.1
385.188	4.19
385.554	3.73
385.92	4.39
386.286	3.98
386.651	4.26
387.017	4.09
387.383	3.59
387.748	3.74
388.114	3.89
388.479	4.06
388.845	4.15
389.21	4.45
389.575	4.08
389.94	3.96
390.306	3.96
390.671	3.96
391.036	4.06
391.401	4.28
391.766	4.36
392.131	4.36
392.496	3.99
392.861	4.25
393.226	4.23
393.591	4.21
393.956	4.13
394.32	4.58
394.685	4.08
395.05	4.54
395.414	4.23
395.779	4.22
396.143	4.26
396.508	4.05
396.872	4.27
397.236	4.08
397.601	4.21
397.965	4.09
398.329	4.24
398.694	4.29
399.058	4.58
399.422	4.29
399.786	4.36
400.15	4.25
400.514	4.14
400.878	4.62
401.242	4.45
401.605	4.05
401.969	4.27
402.333	4.37
402.697	4.24
403.06	4.46
403.424	4.37
403.787	4.44
404.151	4.38
404.514	4.29
404.878	4.27
405.241	4.41
405.604	4.35
405.968	4.45
406.331	4.32
406.694	4.28
407.057	4.43
407.42	4.23
407.783	4.35
408.146	4.58
408.509	4.45
408.872	4.48
409.235	4.63
409.598	4.44
409.961	4.47
410.323	4.54
410.686	4.41
411.049	4.29
411.411	4.07
411.774	4.49
412.136	4.43
412.499	4.46
412.861	4.51
413.223	4.4
413.586	4.56
413.948	4.36
414.31	4.63
414.672	4.23
415.035	4.57
415.397	4.42
415.759	4.62
416.121	4.45
416.483	4.55
416.845	4.45
417.206	4.59
417.568	4.53
417.93	4.8
418.292	4.55
418.653	4.42
419.015	4.41
419.377	4.59
419.738	4.34
420.1	4.55
420.461	4.52
420.822	4.41
421.184	4.49
421.545	4.46
421.906	4.57
422.267	4.56
422.629	4.42
422.99	4.5
423.351	4.5
423.712	4.38
424.073	4.57
424.434	4.54
424.795	4.5
425.155	4.54
425.516	4.63
425.877	4.46
426.238	4.48
426.598	4.45
426.959	4.53
427.32	4.53
427.68	4.61
428.041	4.5
428.401	4.51
428.761	4.76
429.122	4.74
429.482	4.53
429.842	4.71
430.202	4.69
430.563	4.75
430.923	4.79
431.283	4.89
431.643	4.72
432.003	4.64
432.363	4.88
432.722	4.85
433.082	4.65
433.442	4.71
433.802	4.86
434.161	4.73
434.521	4.8
434.881	4.77
435.24	4.72
435.6	4.77
435.959	4.8
436.319	4.68
436.678	4.85
437.037	4.67
437.396	4.79
437.756	4.92
438.115	4.87
438.474	4.76
438.833	4.71
439.192	4.66
439.551	4.96
439.91	4.78
440.269	4.83
440.628	4.81
440.987	4.82
441.345	4.83
441.704	4.85
442.063	4.89
442.421	4.77
442.78	4.72
443.138	4.83
443.497	4.76
443.855	4.91
444.214	4.75
444.572	5.13
444.93	4.97
445.288	4.85
445.647	4.94
446.005	4.86
446.363	4.96
446.721	4.96
447.079	4.88
447.437	4.87
447.795	4.87
448.153	4.86
448.51	4.79
448.868	4.76
449.226	4.88
449.584	4.91
449.941	4.84
450.299	4.98
450.656	5.03
451.014	4.97
451.371	5.09
451.729	4.93
452.086	4.89
452.443	5.18
452.801	4.99
453.158	5.09
453.515	4.95
453.872	4.91
454.229	5.09
454.586	4.88
454.943	4.96
455.3	5.13
455.657	5.06
456.014	5.13
456.371	5.03
456.727	5.09
457.084	5.24
457.441	5.01
457.797	5.14
458.154	5.22
458.51	5.14
458.867	5
459.223	5.2
459.58	5.38
459.936	5.23
460.292	5.19
460.648	5.03
461.005	5
461.361	4.99
461.717	4.97
462.073	5
462.429	5.04
462.785	5.08
463.141	5.14
463.496	5.34
463.852	5.27
464.208	5.18
464.564	5.25
464.919	5.21
465.275	5.39
465.631	5.38
465.986	5.31
466.342	5.3
466.697	5.22
467.052	5.23
467.408	5.3
467.763	5.42
468.118	5.15
468.473	5.24
468.829	5.35
469.184	5.36
469.539	5.28
469.894	5.44
470.249	5.34
470.603	5.47
470.958	5.27
471.313	5.41
471.668	5.41
472.023	5.25
472.377	5.43
472.732	5.28
473.086	5.42
473.441	5.26
473.795	5.46
474.15	5.28
474.504	5.47
474.859	5.41
475.213	5.52
475.567	5.17
475.921	5.4
476.275	5.45
476.63	5.62
476.984	5.48
477.338	5.43
477.692	5.36
478.045	5.43
478.399	5.37
478.753	5.42
479.107	5.44
479.461	5.54
479.814	5.41
480.168	5.38
480.521	5.57
480.875	5.58
481.228	5.39
481.582	5.56
481.935	5.5
482.289	5.55
482.642	5.58
482.995	5.36
483.348	5.45
483.701	5.51
484.055	5.38
484.408	5.46
484.761	5.32
485.114	5.2
485.466	5.18
485.819	5.14
486.172	5.14
486.525	5.24
486.878	5.25
487.23	5.34
487.583	5.4
487.936	5.42
488.288	5.37
488.641	5.39
488.993	5.38
489.345	5.29
489.698	5.25
490.05	5.27
490.402	5.31
490.754	5.44
491.107	5.42
491.459	5.55
491.811	5.48
492.163	5.56
492.515	5.49
492.866	5.47
493.218	5.44
493.57	5.39
493.922	5.42
494.274	5.43
494.625	5.53
494.977	5.6
495.328	5.63
495.68	5.67
496.031	5.72
496.383	5.81
496.734	5.79
497.086	5.8
497.437	5.84
497.788	5.72
498.139	5.77
498.49	5.8
498.842	5.77
499.193	5.74
499.544	5.73
499.894	5.72
500.245	5.82
500.596	5.75
500.947	5.9
501.298	5.81
501.648	5.87
501.999	5.85
502.35	5.89
502.7	6.04
503.051	5.99
503.401	5.91
503.752	6
504.102	6.03
504.452	5.98
504.803	6.06
505.153	6.02
505.503	6.07
505.853	5.97
506.203	5.99
506.553	5.97
506.903	5.98
507.253	6.01
507.603	6.14
507.953	6.1
508.303	6.16
508.652	6.09
509.002	6.06
509.352	6.17
509.701	6.06
510.051	6.15
510.4	6.05
510.75	6.09
511.099	6.08
511.449	6.04
511.798	5.99
512.147	5.96
512.496	6.12
512.846	6.24
513.195	6.14
513.544	6.09
513.893	6.14
514.242	6.13
514.591	6.17
514.939	6.2
515.288	6.27
515.637	6.21
515.986	6.25
516.334	6.25
516.683	6.18
517.032	6.32
517.38	6.59
517.729	6.49
518.077	6.33
518.426	6.39
518.774	6.25
519.122	6.34
519.47	6.28
519.819	6.21
520.167	6.21
520.515	6.18
520.863	6.2
521.211	6.3
521.559	6.29
521.907	6.3
522.255	6.27
522.602	6.32
522.95	6.43
523.298	6.44
523.645	6.54
523.993	6.46
524.341	6.5
524.688	6.59
525.036	6.53
525.383	6.54
525.73	6.42
526.078	6.53
526.425	6.49
526.772	6.54
527.119	6.42
527.466	6.4
527.814	6.43
528.161	6.44
528.508	6.51
528.854	6.48
529.201	6.47
529.548	6.48
529.895	6.39
530.242	6.34
530.588	6.33
530.935	6.37
531.282	6.37
531.628	6.39
531.975	6.44
532.321	6.57
532.667	6.67
533.014	6.75
533.36	6.72
533.706	6.7
534.052	6.69
534.399	6.72
534.745	6.65
535.091	6.63
535.437	6.63
535.783	6.61
536.129	6.69
536.474	6.73
536.82	6.82
537.166	6.89
537.512	6.97
537.857	6.89
538.203	6.78
538.549	6.81
538.894	6.82
539.239	6.96
539.585	6.95
539.93	6.94
540.276	7.14
540.621	7.14
540.966	7.06
541.311	7.19
541.656	7.11
542.001	7.14
542.346	7.1
542.691	7
543.036	6.9
543.381	6.87
543.726	6.91
544.071	6.92
544.415	6.96
544.76	7.02
545.105	7.05
545.449	7.12
545.794	7.18
546.138	7.12
546.483	7.37
546.827	7.35
547.171	7.32
547.516	7.21
547.86	7.35
548.204	7.41
548.548	7.36
548.892	7.27
549.236	7.43
549.58	7.45
549.924	7.44
550.268	7.65
550.612	7.65
550.956	7.5
551.3	7.65
551.643	7.65
551.987	7.67
552.33	7.72
552.674	7.71
553.017	7.73
553.361	7.68
553.704	7.76
554.048	7.77
554.391	7.94
554.734	7.9
555.077	7.95
555.42	7.87
555.764	7.96
556.107	8.06
556.45	7.9
556.793	8.1
557.135	7.97
557.478	7.98
557.821	7.94
558.164	8.36
558.507	8.22
558.849	8.03
559.192	8.04
559.534	8.16
559.877	7.92
560.219	8.09
560.562	8.26
560.904	8.15
561.246	8.25
561.589	8.39
561.931	8.35
562.273	8.41
562.615	8.43
562.957	8.24
563.299	8.41
563.641	8.36
563.983	8.5
564.325	8.38
564.667	8.48
565.008	8.42
565.35	8.37
565.692	8.57
566.033	8.5
566.375	8.36
566.716	8.47
567.058	8.59
567.399	8.61
567.741	8.5
568.082	8.71
568.423	8.44
568.764	8.55
569.105	8.63
569.447	8.76
569.788	8.75
570.129	8.78
570.47	8.82
570.811	8.89
571.151	8.99
571.492	8.94
571.833	8.86
572.174	8.87
572.514	9.05
572.855	8.94
573.195	8.91
573.536	8.86
573.876	9.05
574.217	8.97
574.557	9.09
574.898	9
575.238	9.08
575.578	9
575.918	9.17
576.258	9.25
576.598	9.09
576.938	9.13
577.278	9.24
577.618	9.32
577.958	9.35
578.298	9.29
578.638	9.34
578.977	9.42
579.317	9.36
579.657	9.4
579.996	9.52
580.336	9.52
580.675	9.56
581.014	9.69
581.354	9.52
581.693	9.29
582.032	9.65
582.372	9.71
582.711	9.8
583.05	9.74
583.389	9.81
583.728	9.98
584.067	9.86
584.406	9.9
584.745	9.77
585.083	9.9
585.422	10.18
585.761	10.05
586.1	9.91
586.438	10.04
586.777	9.94
587.115	10.29
587.454	10.12
587.792	9.96
588.13	10.41
588.469	10.19
588.807	10.17
589.145	10.11
589.483	10.41
589.821	10.4
590.159	10.26
590.497	10.24
590.835	10.41
591.173	10.39
591.511	10.4
591.849	10.61
592.187	10.28
592.524	10.32
592.862	10.6
593.2	10.37
593.537	10.67
593.875	10.41
594.212	10.43
594.55	10.5
594.887	10.76
595.224	10.69
595.561	10.67
595.899	10.89
596.236	10.72
596.573	10.56
596.91	10.82
597.247	10.81
597.584	10.89
597.921	11.14
598.258	10.73
598.594	10.58
598.931	10.7
599.268	10.69
599.604	10.77
599.941	10.73
600.277	10.85
600.614	11.17
600.95	11.25
601.287	11.04
601.623	11.07
601.959	11.26
602.296	11.33
602.632	11.37
602.968	11.15
603.304	11.51
603.64	11.23
603.976	11.39
604.312	11.33
604.648	11.36
604.984	11.66
605.319	11.6
605.655	11.64
605.991	11.68
606.326	11.46
606.662	11.46
606.998	11.5
607.333	11.64
607.668	11.57
608.004	11.48
608.339	11.69
608.674	11.71
609.01	11.55
609.345	11.87
609.68	11.71
610.015	11.87
610.35	11.79
610.685	12.08
611.02	11.75
611.355	11.94
611.689	12.17
612.024	12.04
612.359	12.02
612.694	11.98
613.028	12.12
613.363	12.16
613.697	12.22
614.032	12.21
614.366	11.91
614.7	12.09
615.035	12.02
615.369	12.25
615.703	12.61
616.037	12.17
616.371	12.43
616.705	12.3
617.039	12.41
617.373	12.51
617.707	12.56
618.041	12.78
618.375	12.48
618.709	12.58
619.042	12.49
619.376	12.42
619.71	12.97
620.043	12.8
620.377	12.88
620.71	12.72
621.043	13.02
621.377	13.02
621.71	12.73
622.043	12.52
622.376	12.89
622.709	13.02
623.043	13.02
623.376	12.73
623.709	12.82
624.041	13.2
624.374	13.08
624.707	13.4
625.04	13
625.373	13.29
625.705	13.55
626.038	13.58
626.37	13.55
626.703	13.01
627.035	13.24
627.368	13.98
627.7	13.37
628.032	13.26
628.365	13.5
628.697	13.55
629.029	13.69
629.361	13.51
629.693	13.61
630.025	13.41
630.357	13.47
630.689	14
631.021	13.61
631.353	13.67
631.684	13.64
632.016	13.57
632.348	13.99
632.679	13.92
633.011	13.67
633.342	13.84
633.674	14.28
634.005	14.24
634.336	14.18
634.668	13.86
634.999	14.22
635.33	14.3
635.661	13.91
635.992	13.79
636.323	14.17
636.654	14.03
636.985	14.38
637.316	14.25
637.647	14.14
637.977	14.02
638.308	14.23
638.639	14.35
638.969	14.27
639.3	14.68
639.63	14.23
639.961	14.57
640.291	14.52
640.622	14.43
640.952	15.08
641.282	14.73
641.612	14.47
641.943	14.53
642.273	14.67
642.603	14.79
642.933	14.74
643.263	14.76
643.592	14.46
643.922	14.16
644.252	15.32
644.582	14.8
644.911	14.97
645.241	14.93
645.571	14.76
645.9	15.22
646.23	14.91
646.559	14.84
646.888	15.13
647.218	15.4
647.547	15.23
647.876	15.89
648.205	15.43
648.534	15.86
648.863	15.61
649.192	15.53
649.521	15.27
649.85	15.71
650.179	14.92
650.508	15.72
650.837	15.69
651.165	15.19
651.494	15.85
651.822	15.21
652.151	15.94
652.479	15.75
652.808	15.92
653.136	15.41
653.465	15.78
653.793	16.09
654.121	16.06
654.449	15.8
654.777	15.58
655.105	15.6
655.433	16.15
655.761	15.8
656.089	15.78
656.417	15.97
656.745	16.17
657.073	15.97
657.4	16.21
657.728	16.52
658.056	15.88
658.383	15.9
658.711	16.46
659.038	16.42
659.365	16.31
659.693	16.22
660.02	16.4
660.347	16.25
660.674	16.34
661.001	16.03
661.329	16.1
661.656	16.31
661.982	16.45
662.309	16.4
662.636	16.33
662.963	16.39
663.29	16.21
663.616	16.58
663.943	16.7
664.27	15.8
664.596	16.81
664.923	16.86
665.249	16.96
665.576	16.67
665.902	16.41
666.228	16.06
666.554	16.94
666.881	17.21
667.207	17.41
667.533	17.11
667.859	16.46
668.185	17.29
668.511	17.31
668.837	17.11
669.162	17.21
669.488	17.53
669.814	17.4
670.139	16.97
670.465	16.95
670.791	16.98
671.116	17.01
671.442	17.14
671.767	17.48
672.092	16.91
672.418	17.14
672.743	17.6
673.068	17.59
673.393	17.11
673.718	18.04
674.043	17.82
674.368	18.11
674.693	18.21
675.018	17.43
675.343	17.45
675.667	17.7
675.992	17.54
676.317	18.08
676.641	17.28
676.966	17.13
677.29	17.97
677.615	18.1
677.939	17.63
678.264	17.99
678.588	17.36
678.912	17.65
679.236	17.61
679.56	18.04
679.885	18.49
680.209	17.87
680.532	18.57
680.856	18.28
681.18	17.85
681.504	18.09
681.828	18.24
682.152	18.1
682.475	18.32
682.799	17.79
683.122	17.95
683.446	18.38
683.769	18.68
684.093	18.24
684.416	17.69
684.739	18.36
685.062	18.49
685.386	18.68
685.709	18.81
