Data from 815657_chest_Reflection__2__127.txt Node

Date: Fri Sep 16 15:41:25 CDT 2022
User: ToomeyLab
Spectrometer: FLMS14357
Trigger mode: 0
Integration Time (sec): 1.000000E-2
Scans to average: 100
Electric dark correction enabled: true
Nonlinearity correction enabled: false
Boxcar width: 0
XAxis mode: Wavelengths
Number of Pixels in Spectrum: 2048
>>>>>Begin Spectral Data<<<<<
189.047	372.09
189.435	372.09
189.823	372.09
190.211	253.42
190.599	-8.82
190.987	122.98
191.375	117.73
191.763	374.04
192.151	10.42
192.538	-43.79
192.926	97.08
193.314	-7.94
193.702	-1.52
194.089	-641.22
194.477	-59.1
194.864	107.54
195.252	27.41
195.639	-29.87
196.027	29.18
196.414	-49.56
196.801	156.93
197.189	79.09
197.576	-94.92
197.963	359.05
198.351	-89.16
198.738	21.5
199.125	-8.09
199.512	-139.83
199.899	-0.54
200.286	46.63
200.673	-9.16
201.06	13.33
201.447	-18.54
201.833	-0.55
202.22	13.17
202.607	-9.49
202.994	24.85
203.38	14.27
203.767	5.6
204.154	-19.72
204.54	-30.5
204.927	-51.86
205.313	34.51
205.699	49.85
206.086	-25.21
206.472	2.1
206.858	3.99
207.245	16.64
207.631	6.93
208.017	24.76
208.403	-7.41
208.789	-66.62
209.175	42.77
209.561	-13.49
209.947	-15.12
210.333	-9.04
210.719	-51.32
211.105	-6.41
211.491	-3.4
211.876	29.05
212.262	-5.73
212.648	16.39
213.034	-3.78
213.419	-3.58
213.805	39.3
214.19	10.6
214.576	-8.65
214.961	-5.97
215.346	-17.97
215.732	-27.72
216.117	32.56
216.502	-10.67
216.888	-21.51
217.273	2.25
217.658	-4.37
218.043	-45.78
218.428	5.15
218.813	-12.56
219.198	13.15
219.583	-8.36
219.968	14.56
220.353	-8.59
220.738	7.88
221.122	-45.46
221.507	-16.3
221.892	13.67
222.276	17.18
222.661	4.16
223.046	12.2
223.43	11.71
223.815	-7.23
224.199	6.72
224.583	12.02
224.968	15.95
225.352	2.52
225.736	8.83
226.121	12.48
226.505	5.88
226.889	5.19
227.273	7.6
227.657	1.94
228.041	0.23
228.425	-3.99
228.809	7.24
229.193	4.01
229.577	6.2
229.961	3.61
230.344	5.13
230.728	5.79
231.112	4.64
231.495	3.99
231.879	4.55
232.263	2.86
232.646	5
233.03	4.44
233.413	4.83
233.797	3.89
234.18	5
234.563	5.54
234.946	4.67
235.33	3.93
235.713	4.56
236.096	2.46
236.479	3.43
236.862	5.42
237.245	5.64
237.628	6.43
238.011	4.86
238.394	3.63
238.777	4.51
239.16	3.52
239.543	6.6
239.925	4.18
240.308	4.25
240.691	5.23
241.073	4.11
241.456	4.41
241.838	4.21
242.221	4.55
242.603	4.54
242.986	3.71
243.368	4.46
243.75	4.11
244.133	4.61
244.515	4.58
244.897	4.67
245.279	3.58
245.661	4.36
246.043	4.12
246.425	3.71
246.807	3.76
247.189	4.35
247.571	3.66
247.953	4.14
248.335	4.36
248.717	4.42
249.098	4.17
249.48	4.12
249.862	4.15
250.243	4.57
250.625	4.32
251.006	3.91
251.388	5.2
251.769	3.48
252.151	4.26
252.532	3.45
252.913	5.37
253.295	4.02
253.676	4.53
254.057	3.81
254.438	3.92
254.819	3.42
255.2	3.68
255.581	4.26
255.962	2.74
256.343	4.38
256.724	3.62
257.105	3.1
257.486	3.06
257.867	3.61
258.247	4.87
258.628	4.16
259.009	3.39
259.389	4.1
259.77	3.76
260.15	3.87
260.531	3.89
260.911	3.87
261.292	3.78
261.672	3.97
262.052	3.66
262.432	3.88
262.813	4.41
263.193	3.99
263.573	3.68
263.953	4.19
264.333	4.04
264.713	3.84
265.093	3.28
265.473	3.66
265.853	4.51
266.233	2.65
266.612	3.83
266.992	2.74
267.372	4.48
267.752	3.78
268.131	4.22
268.511	4.48
268.89	3.64
269.27	3.81
269.649	3.52
270.029	3.64
270.408	4.39
270.787	3.3
271.167	3.58
271.546	4.71
271.925	3.18
272.304	3.71
272.683	3.35
273.062	3.66
273.441	4.03
273.82	3.5
274.199	3.88
274.578	3.62
274.957	3.87
275.336	3.96
275.715	4.02
276.093	3.62
276.472	3.34
276.851	3.16
277.229	3.73
277.608	3.89
277.986	3.87
278.365	3.09
278.743	4.29
279.122	4.03
279.5	3.07
279.878	3.84
280.257	3.88
280.635	3.52
281.013	3.9
281.391	3.39
281.769	4.23
282.147	3.58
282.525	3.71
282.903	3.62
283.281	3.28
283.659	3.87
284.037	3.61
284.415	3.99
284.792	4
285.17	3.75
285.548	3.69
285.925	3.67
286.303	3.96
286.68	3.49
287.058	3.4
287.435	3.67
287.813	3.74
288.19	3.47
288.567	3.37
288.945	3.68
289.322	3.71
289.699	3.87
290.076	3.73
290.453	4
290.83	3.91
291.207	3.53
291.584	3.36
291.961	3.56
292.338	4.05
292.715	3.42
293.092	3.55
293.469	3.77
293.845	3.65
294.222	3.88
294.599	3.84
294.975	3.67
295.352	4
295.728	3.61
296.105	4.48
296.481	3.46
296.858	3.65
297.234	3.62
297.61	3.91
297.986	3.65
298.363	3.54
298.739	3.51
299.115	4.06
299.491	4
299.867	3.7
300.243	3.7
300.619	4.17
300.995	3.64
301.371	3.75
301.746	3.77
302.122	4.07
302.498	4.14
302.874	4.01
303.249	3.84
303.625	3.99
304	3.84
304.376	3.58
304.751	3.93
305.127	3.63
305.502	3.99
305.878	3.79
306.253	3.92
306.628	3.46
307.003	3.85
307.378	4.2
307.754	3.64
308.129	4.09
308.504	3.58
308.879	4.36
309.254	4.17
309.629	3.5
310.003	3.73
310.378	3.43
310.753	4.09
311.128	3.86
311.502	3.54
311.877	3.92
312.252	4.07
312.626	3.93
313.001	4
313.375	4.13
313.75	3.92
314.124	4.06
314.498	3.48
314.873	4.24
315.247	3.83
315.621	4.04
315.995	3.83
316.369	4.12
316.743	4.13
317.117	3.92
317.491	3.95
317.865	3.98
318.239	4.41
318.613	3.37
318.987	4.02
319.361	3.61
319.734	3.91
320.108	3.92
320.482	4.22
320.855	3.89
321.229	3.55
321.602	4.23
321.976	3.64
322.349	4.43
322.723	3.77
323.096	4.24
323.469	3.48
323.843	4.33
324.216	4.25
324.589	3.99
324.962	3.94
325.335	3.96
325.708	4.16
326.081	4.17
326.454	3.82
326.827	3.78
327.2	4.05
327.573	2.97
327.945	4.14
328.318	3.95
328.691	4.48
329.063	4
329.436	3.6
329.809	3.81
330.181	3.95
330.553	3.9
330.926	4
331.298	4.38
331.671	3.59
332.043	4
332.415	4.03
332.787	4.23
333.159	3.86
333.532	4.66
333.904	3.63
334.276	3.77
334.648	3.92
335.02	4.17
335.391	4.16
335.763	3.82
336.135	3.53
336.507	3.77
336.879	4.55
337.25	3.18
337.622	3.99
337.993	4.29
338.365	4.53
338.736	4.49
339.108	4.27
339.479	4.38
339.851	3.77
340.222	4.14
340.593	4.3
340.964	3.73
341.336	3.74
341.707	4.16
342.078	4.15
342.449	3.85
342.82	3.85
343.191	4.36
343.562	4.29
343.933	4.19
344.303	4.5
344.674	3.75
345.045	4.47
345.416	3.94
345.786	4.34
346.157	4.12
346.527	4.29
346.898	4.04
347.268	4.14
347.639	3.86
348.009	3.93
348.38	4.05
348.75	4.02
349.12	4.22
349.49	4.36
349.861	4.4
350.231	4.41
350.601	4.3
350.971	4.17
351.341	4.19
351.711	3.86
352.081	4
352.45	4.55
352.82	4.61
353.19	4.21
353.56	4.66
353.929	4.15
354.299	4.41
354.669	4
355.038	4.14
355.408	4.42
355.777	4.22
356.147	4.29
356.516	4.25
356.885	4.5
357.254	4.59
357.624	4.04
357.993	4.26
358.362	4.07
358.731	4.46
359.1	4.23
359.469	3.9
359.838	4.29
360.207	4.66
360.576	4.27
360.945	4.49
361.314	4.1
361.682	4.18
362.051	4.33
362.42	4.43
362.788	4.19
363.157	4.32
363.525	4.24
363.894	4.31
364.262	4.32
364.631	4.38
364.999	4.14
365.367	4.36
365.735	4.59
366.104	4.37
366.472	4.31
366.84	4.46
367.208	4.69
367.576	4.09
367.944	3.96
368.312	4.14
368.68	4.54
369.048	4.45
369.416	4.26
369.783	4.21
370.151	4.76
370.519	4.23
370.886	4.45
371.254	4.12
371.621	4.47
371.989	4.37
372.356	4.47
372.724	4.6
373.091	4.21
373.458	4.36
373.826	4.41
374.193	4.83
374.56	4.08
374.927	4.31
375.294	4.67
375.661	4.5
376.028	4.89
376.395	4.06
376.762	4.8
377.129	4.27
377.496	4.58
377.863	4.47
378.229	4.54
378.596	4.25
378.963	4.56
379.329	4.41
379.696	4.8
380.062	4.36
380.429	4.53
380.795	4.42
381.161	4.75
381.528	4.7
381.894	4.48
382.26	4.55
382.626	4.57
382.993	4.2
383.359	4.54
383.725	4.43
384.091	4.59
384.457	4.13
384.823	4.52
385.188	4.58
385.554	4.33
385.92	4.45
386.286	4.53
386.651	4.57
387.017	4.42
387.383	4.43
387.748	4.11
388.114	4.25
388.479	4.34
388.845	4.43
389.21	4.84
389.575	4.66
389.94	4.7
390.306	4.59
390.671	4.5
391.036	4.25
391.401	4.35
391.766	4.66
392.131	4.66
392.496	4.52
392.861	4.43
393.226	4.62
393.591	4.69
393.956	4.65
394.32	4.78
394.685	4.57
395.05	4.88
395.414	4.38
395.779	4.4
396.143	4.82
396.508	4.53
396.872	4.64
397.236	4.57
397.601	4.6
397.965	4.45
398.329	4.34
398.694	4.7
399.058	4.82
399.422	4.58
399.786	4.69
400.15	4.77
400.514	4.61
400.878	4.72
401.242	4.52
401.605	4.7
401.969	4.76
402.333	4.9
402.697	4.68
403.06	4.9
403.424	4.47
403.787	4.54
404.151	4.66
404.514	4.8
404.878	4.77
405.241	4.45
405.604	4.85
405.968	4.78
406.331	4.68
406.694	4.7
407.057	4.63
407.42	4.51
407.783	4.66
408.146	4.92
408.509	4.86
408.872	5.03
409.235	4.97
409.598	4.69
409.961	4.82
410.323	4.97
410.686	5.04
411.049	4.64
411.411	4.56
411.774	4.84
412.136	4.91
412.499	4.88
412.861	4.79
413.223	4.68
413.586	4.98
413.948	4.75
414.31	4.97
414.672	4.69
415.035	5.08
415.397	4.63
415.759	4.86
416.121	4.84
416.483	4.9
416.845	4.86
417.206	4.79
417.568	5.02
417.93	4.94
418.292	4.76
418.653	4.69
419.015	4.76
419.377	4.84
419.738	4.65
420.1	4.72
420.461	4.82
420.822	4.77
421.184	4.78
421.545	4.74
421.906	4.8
422.267	4.88
422.629	4.54
422.99	4.65
423.351	4.74
423.712	4.65
424.073	4.79
424.434	4.73
424.795	4.8
425.155	4.78
425.516	4.75
425.877	4.67
426.238	4.63
426.598	4.78
426.959	4.81
427.32	4.82
427.68	4.84
428.041	4.78
428.401	4.84
428.761	4.96
429.122	4.93
429.482	4.9
429.842	4.93
430.202	5.1
430.563	4.97
430.923	5
431.283	5.13
431.643	5.02
432.003	5.01
432.363	4.97
432.722	5.1
433.082	5.01
433.442	5.02
433.802	4.93
434.161	4.92
434.521	4.91
434.881	4.99
435.24	4.91
435.6	5.08
435.959	5.08
436.319	4.91
436.678	5.09
437.037	4.84
437.396	5.15
437.756	5
438.115	4.9
438.474	4.91
438.833	4.94
439.192	4.95
439.551	4.9
439.91	4.94
440.269	4.92
440.628	4.96
440.987	5.02
441.345	4.88
441.704	5.1
442.063	5.01
442.421	4.87
442.78	4.93
443.138	4.99
443.497	5
443.855	5.02
444.214	4.93
444.572	5.23
444.93	5.05
445.288	5.07
445.647	4.98
446.005	4.93
446.363	5.09
446.721	5.08
447.079	5.02
447.437	5.02
447.795	5.01
448.153	5.04
448.51	4.99
448.868	5
449.226	5.07
449.584	5.12
449.941	5.07
450.299	5.03
450.656	5.15
451.014	5.16
451.371	5.15
451.729	5.09
452.086	5.05
452.443	5.12
452.801	5.23
453.158	5.19
453.515	5.14
453.872	5.02
454.229	5.09
454.586	5.04
454.943	4.98
455.3	5.38
455.657	5.15
456.014	5.15
456.371	5.18
456.727	5.27
457.084	5.42
457.441	5.3
457.797	5.2
458.154	5.19
458.51	5.17
458.867	5.04
459.223	5.31
459.58	5.27
459.936	5.2
460.292	5.23
460.648	5.11
461.005	5.21
461.361	5.05
461.717	5.07
462.073	5.2
462.429	5.21
462.785	5.19
463.141	5.29
463.496	5.26
463.852	5.23
464.208	5.24
464.564	5.18
464.919	5.19
465.275	5.38
465.631	5.37
465.986	5.24
466.342	5.2
466.697	5.39
467.052	5.31
467.408	5.34
467.763	5.3
468.118	5.18
468.473	5.33
468.829	5.18
469.184	5.29
469.539	5.31
469.894	5.31
470.249	5.37
470.603	5.32
470.958	5.29
471.313	5.42
471.668	5.38
472.023	5.12
472.377	5.35
472.732	5.25
473.086	5.38
473.441	5.31
473.795	5.4
474.15	5.28
474.504	5.45
474.859	5.42
475.213	5.4
475.567	5.15
475.921	5.36
476.275	5.42
476.63	5.53
476.984	5.53
477.338	5.37
477.692	5.49
478.045	5.46
478.399	5.42
478.753	5.43
479.107	5.36
479.461	5.44
479.814	5.49
480.168	5.43
480.521	5.4
480.875	5.39
481.228	5.37
481.582	5.32
481.935	5.37
482.289	5.55
482.642	5.51
482.995	5.37
483.348	5.42
483.701	5.42
484.055	5.38
484.408	5.44
484.761	5.22
485.114	5.12
485.466	5.08
485.819	5.09
486.172	5.15
486.525	5.22
486.878	5.23
487.23	5.35
487.583	5.36
487.936	5.31
488.288	5.38
488.641	5.29
488.993	5.25
489.345	5.21
489.698	5.21
490.05	5.27
490.402	5.29
490.754	5.45
491.107	5.44
491.459	5.48
491.811	5.43
492.163	5.37
492.515	5.44
492.866	5.37
493.218	5.27
493.57	5.26
493.922	5.36
494.274	5.46
494.625	5.41
494.977	5.54
495.328	5.53
495.68	5.59
496.031	5.61
496.383	5.54
496.734	5.68
497.086	5.62
497.437	5.63
497.788	5.62
498.139	5.59
498.49	5.6
498.842	5.67
499.193	5.55
499.544	5.63
499.894	5.55
500.245	5.71
500.596	5.63
500.947	5.6
501.298	5.72
501.648	5.69
501.999	5.66
502.35	5.77
502.7	5.82
503.051	5.74
503.401	5.65
503.752	5.72
504.102	5.72
504.452	5.79
504.803	5.82
505.153	5.83
505.503	5.8
505.853	5.71
506.203	5.79
506.553	5.72
506.903	5.74
507.253	5.78
507.603	5.86
507.953	5.84
508.303	5.77
508.652	5.83
509.002	5.93
509.352	5.87
509.701	5.77
510.051	5.91
510.4	5.7
510.75	5.89
511.099	5.72
511.449	5.74
511.798	5.78
512.147	5.72
512.496	5.9
512.846	5.97
513.195	5.87
513.544	5.9
513.893	5.81
514.242	5.91
514.591	5.95
514.939	6
515.288	6.09
515.637	6.03
515.986	5.97
516.334	5.91
516.683	5.98
517.032	6.11
517.38	6.1
517.729	6.1
518.077	6.04
518.426	5.98
518.774	5.97
519.122	5.98
519.47	5.95
519.819	5.93
520.167	5.83
520.515	5.93
520.863	6.01
521.211	6.04
521.559	6.02
521.907	6.02
522.255	6
522.602	6.04
522.95	6.1
523.298	6.07
523.645	6.12
523.993	6.14
524.341	6.15
524.688	6.13
525.036	6.21
525.383	6.22
525.73	6.22
526.078	6.11
526.425	6.07
526.772	6.07
527.119	6.09
527.466	6.02
527.814	6.13
528.161	6.1
528.508	6.18
528.854	6.15
529.201	6.07
529.548	6.06
529.895	5.98
530.242	5.95
530.588	5.98
530.935	6.04
531.282	6.03
531.628	6.12
531.975	6.17
532.321	6.24
532.667	6.34
533.014	6.3
533.36	6.32
533.706	6.29
534.052	6.27
534.399	6.34
534.745	6.18
535.091	6.19
535.437	6.21
535.783	6.29
536.129	6.37
536.474	6.29
536.82	6.39
537.166	6.41
537.512	6.44
537.857	6.42
538.203	6.35
538.549	6.38
538.894	6.32
539.239	6.57
539.585	6.49
539.93	6.39
540.276	6.69
540.621	6.61
540.966	6.6
541.311	6.52
541.656	6.59
542.001	6.55
542.346	6.51
542.691	6.48
543.036	6.37
543.381	6.33
543.726	6.43
544.071	6.5
544.415	6.52
544.76	6.6
545.105	6.65
545.449	6.68
545.794	6.71
546.138	6.64
546.483	6.88
546.827	6.89
547.171	6.82
547.516	6.67
547.86	6.8
548.204	6.83
548.548	6.69
548.892	6.84
549.236	6.85
549.58	6.91
549.924	7.04
550.268	6.93
550.612	7.12
550.956	6.93
551.3	7.07
551.643	7.16
551.987	7.16
552.33	7.17
552.674	6.92
553.017	7.15
553.361	7.26
553.704	7.15
554.048	7.16
554.391	7.21
554.734	7.18
555.077	7.19
555.42	7.33
555.764	7.3
556.107	7.44
556.45	7.39
556.793	7.44
557.135	7.22
557.478	7.28
557.821	7.27
558.164	7.6
558.507	7.32
558.849	7.32
559.192	7.4
559.534	7.55
559.877	7.39
560.219	7.43
560.562	7.57
560.904	7.41
561.246	7.35
561.589	7.56
561.931	7.71
562.273	7.6
562.615	7.72
562.957	7.72
563.299	7.7
563.641	7.65
563.983	7.78
564.325	7.81
564.667	7.74
565.008	7.71
565.35	7.82
565.692	7.77
566.033	7.8
566.375	7.63
566.716	7.86
567.058	7.9
567.399	7.92
567.741	7.81
568.082	7.77
568.423	7.71
568.764	7.7
569.105	7.85
569.447	7.96
569.788	8.03
570.129	7.93
570.47	7.9
570.811	8.04
571.151	8.19
571.492	7.93
571.833	8.09
572.174	8.19
572.514	8.08
572.855	7.98
573.195	8.2
573.536	8.04
573.876	8.19
574.217	8.19
574.557	8.28
574.898	8.17
575.238	8.35
575.578	8.18
575.918	8.3
576.258	8.4
576.598	8.31
576.938	8.38
577.278	8.35
577.618	8.42
577.958	8.37
578.298	8.41
578.638	8.45
578.977	8.53
579.317	8.48
579.657	8.34
579.996	8.79
580.336	8.51
580.675	8.58
581.014	8.75
581.354	8.65
581.693	8.85
582.032	8.79
582.372	8.79
582.711	8.9
583.05	9
583.389	8.84
583.728	9.11
584.067	9.02
584.406	9.15
584.745	9.07
585.083	8.83
585.422	8.99
585.761	9.05
586.1	8.88
586.438	9.14
586.777	8.65
587.115	8.87
587.454	9.22
587.792	9.07
588.13	9.19
588.469	9.05
588.807	9.02
589.145	9.11
589.483	9.46
589.821	9.25
590.159	9.12
590.497	9.27
590.835	9.26
591.173	9.47
591.511	9.24
591.849	9.62
592.187	9.34
592.524	9.22
592.862	9.64
593.2	9.21
593.537	9.6
593.875	9.46
594.212	9.64
594.55	9.66
594.887	9.65
595.224	9.51
595.561	9.66
595.899	9.58
596.236	9.76
596.573	9.66
596.91	9.99
597.247	9.79
597.584	9.99
597.921	9.98
598.258	9.66
598.594	9.56
598.931	9.82
599.268	9.83
599.604	9.73
599.941	9.87
600.277	9.89
600.614	10.25
600.95	10.09
601.287	9.97
601.623	10.23
601.959	10.36
602.296	10.13
602.632	10.26
602.968	10.15
603.304	10.33
603.64	9.88
603.976	10.39
604.312	10.35
604.648	10.46
604.984	10.34
605.319	10.5
605.655	10.55
605.991	10.47
606.326	10.57
606.662	10.43
606.998	10.38
607.333	10.56
607.668	10.62
608.004	10.44
608.339	10.39
608.674	10.65
609.01	10.88
609.345	10.96
609.68	10.81
610.015	10.62
610.35	10.85
610.685	10.93
611.02	10.8
611.355	10.8
611.689	11.01
612.024	10.84
612.359	11.09
612.694	11.01
613.028	11.03
613.363	11.02
613.697	11.05
614.032	11.19
614.366	11.08
614.7	11.15
615.035	11.09
615.369	11.21
615.703	11.28
616.037	11.21
616.371	11.24
616.705	11.27
617.039	11.55
617.373	11.49
617.707	11.57
618.041	11.51
618.375	11.43
618.709	11.22
619.042	11.56
619.376	11.6
619.71	11.63
620.043	11.76
620.377	11.77
620.71	11.75
621.043	11.94
621.377	11.32
621.71	11.77
622.043	11.72
622.376	12.1
622.709	11.74
623.043	11.75
623.376	11.59
623.709	11.52
624.041	12.04
624.374	12.12
624.707	12.12
625.04	12.23
625.373	11.84
625.705	12.05
626.038	12.36
626.37	12.36
626.703	12.02
627.035	12.03
627.368	12.7
627.7	12.6
628.032	12.32
628.365	12.15
628.697	12.34
629.029	12.6
629.361	12.59
629.693	12.68
630.025	12.61
630.357	12.32
630.689	12.76
631.021	12.6
631.353	12.51
631.684	12.51
632.016	12.87
632.348	12.9
632.679	12.53
633.011	12.63
633.342	12.81
633.674	12.95
634.005	13.07
634.336	13.11
634.668	12.92
634.999	12.68
635.33	13.02
635.661	13.22
635.992	12.96
636.323	13.18
636.654	13.25
636.985	13.16
637.316	13.17
637.647	13
637.977	13.2
638.308	13.34
638.639	13.56
638.969	13.15
639.3	13.45
639.63	13.02
639.961	13.84
640.291	13.29
640.622	13.19
640.952	13.52
641.282	13.37
641.612	13.34
641.943	13.73
642.273	13.48
642.603	13.89
642.933	14.03
643.263	13.71
643.592	13.38
643.922	13.67
644.252	14.06
644.582	13.94
644.911	14.12
645.241	14.07
645.571	14.03
645.9	13.72
646.23	13.91
646.559	13.82
646.888	14.18
647.218	14.31
647.547	14.25
647.876	14.55
648.205	14.5
648.534	13.85
648.863	14.23
649.192	14.56
649.521	13.93
649.85	14.66
650.179	14.45
650.508	14.56
650.837	14.66
651.165	14.17
651.494	14.87
651.822	14.37
652.151	14.3
652.479	14.7
652.808	14.86
653.136	14.83
653.465	14.71
653.793	14.97
654.121	14.87
654.449	14.54
654.777	14.77
655.105	14.82
655.433	14.94
655.761	15.25
656.089	14.79
656.417	14.86
656.745	14.95
657.073	15.16
657.4	14.95
657.728	15.37
658.056	14.55
658.383	15.17
658.711	15.27
659.038	15.22
659.365	15.95
659.693	14.85
660.02	15.14
660.347	14.86
660.674	15.42
661.001	15.25
661.329	15.19
661.656	15.12
661.982	15.55
662.309	15.5
662.636	15.62
662.963	15.69
663.29	15.67
663.616	15.5
663.943	15.55
664.27	15.41
664.596	15.73
664.923	15.85
665.249	15.63
665.576	16.09
665.902	16.35
666.228	15.5
666.554	16.28
666.881	16.03
667.207	16.05
667.533	15.97
667.859	16.1
668.185	16.43
668.511	16.57
668.837	16.11
669.162	16.64
669.488	16.49
669.814	16.4
670.139	16.64
670.465	16.54
670.791	16.2
671.116	16.62
671.442	16.8
671.767	16.92
672.092	16.07
672.418	16.95
672.743	16.59
673.068	16.35
673.393	16.19
673.718	17.26
674.043	16.97
674.368	17.06
674.693	17.31
675.018	16.95
675.343	16.85
675.667	16.67
675.992	17.1
676.317	16.65
676.641	16.63
676.966	17.16
677.29	17.04
677.615	17.4
677.939	17.23
678.264	17.44
678.588	17.01
678.912	17.02
679.236	17.37
679.56	17.25
679.885	17.26
680.209	17.11
680.532	17.79
680.856	17.02
681.18	17.81
681.504	17.6
681.828	17.17
682.152	17.24
682.475	17.68
682.799	17.31
683.122	17.22
683.446	17.92
683.769	18.19
684.093	17.65
684.416	17.4
684.739	17.56
685.062	17.57
685.386	17.33
685.709	17.75
686.032	18.27
686.355	18.11
686.678	17.94
687.001	17.93
