Data from 815657_chest_Reflection__0__125.txt Node

Date: Fri Sep 16 15:40:56 CDT 2022
User: ToomeyLab
Spectrometer: FLMS14357
Trigger mode: 0
Integration Time (sec): 1.000000E-2
Scans to average: 100
Electric dark correction enabled: true
Nonlinearity correction enabled: false
Boxcar width: 0
XAxis mode: Wavelengths
Number of Pixels in Spectrum: 2048
>>>>>Begin Spectral Data<<<<<
189.047	-221.44
189.435	-221.44
189.823	-221.44
190.211	561.64
190.599	-9.99
190.987	99.8
191.375	90.68
191.763	86.94
192.151	-130.95
192.538	-3.62
192.926	52.95
193.314	-4.12
193.702	-50.87
194.089	-1785.31
194.477	109.94
194.864	109.47
195.252	32.62
195.639	-3.35
196.027	132.32
196.414	125.64
196.801	63.6
197.189	133.24
197.576	-43.65
197.963	105.52
198.351	-28.04
198.738	-2.02
199.125	13.42
199.512	-206.85
199.899	27.69
200.286	18.77
200.673	8.54
201.06	-1.68
201.447	39.22
201.833	-11.06
202.22	18.16
202.607	-54.05
202.994	23.98
203.38	0.43
203.767	-4.2
204.154	23.34
204.54	2.48
204.927	-36.87
205.313	27.24
205.699	29.39
206.086	12.24
206.472	-0.49
206.858	3.48
207.245	23.4
207.631	-6.4
208.017	-26.98
208.403	2.88
208.789	-22.48
209.175	39.72
209.561	-26.13
209.947	-0.14
210.333	-37.29
210.719	-12.88
211.105	-6.81
211.491	-41.27
211.876	7.83
212.262	10.59
212.648	-17.01
213.034	-8.33
213.419	-30.19
213.805	7.51
214.19	1.35
214.576	12.39
214.961	-32.65
215.346	-46.44
215.732	-51.1
216.117	22.55
216.502	1.6
216.888	-25.95
217.273	-15.93
217.658	18.37
218.043	-60.86
218.428	-11.75
218.813	9.25
219.198	3.4
219.583	2.25
219.968	-8.13
220.353	-16.81
220.738	7.14
221.122	-19.29
221.507	8.45
221.892	2.9
222.276	10.85
222.661	11.14
223.046	-0.76
223.43	-0.45
223.815	-20.73
224.199	-0.51
224.583	-1.84
224.968	7.51
225.352	3.19
225.736	8.71
226.121	7.09
226.505	1.41
226.889	-1.77
227.273	3.64
227.657	3.92
228.041	0.65
228.425	-1.51
228.809	6.19
229.193	-0.3
229.577	0.98
229.961	2.76
230.344	3.13
230.728	1.82
231.112	1.83
231.495	1.69
231.879	2.67
232.263	0.83
232.646	1.06
233.03	1.94
233.413	2.51
233.797	-0.14
234.18	3.42
234.563	-0.7
234.946	4.61
235.33	0.36
235.713	1.3
236.096	1.32
236.479	2.68
236.862	0.99
237.245	0.66
237.628	3.13
238.011	2.83
238.394	3.28
238.777	1.98
239.16	1.76
239.543	3.41
239.925	1.96
240.308	0.91
240.691	1.19
241.073	1.35
241.456	1.13
241.838	1.1
242.221	1.88
242.603	2.44
242.986	1.42
243.368	1.87
243.75	1.64
244.133	2.12
244.515	1.78
244.897	2.14
245.279	1.6
245.661	2.04
246.043	1.52
246.425	1.87
246.807	2.37
247.189	1.72
247.571	1.34
247.953	1.77
248.335	1.92
248.717	1.93
249.098	1.89
249.48	1.78
249.862	1.87
250.243	2.38
250.625	2.25
251.006	2.21
251.388	1.73
251.769	0.79
252.151	1.16
252.532	1.49
252.913	1.79
253.295	1.79
253.676	2.15
254.057	1.29
254.438	1.31
254.819	0.37
255.2	1.38
255.581	1.05
255.962	1.78
256.343	2.25
256.724	0.94
257.105	0.84
257.486	1.61
257.867	-0.05
258.247	1.62
258.628	1.37
259.009	1.53
259.389	1.65
259.77	1.39
260.15	1.72
260.531	1.47
260.911	1.75
261.292	1.59
261.672	1.77
262.052	1.7
262.432	1.66
262.813	1.92
263.193	1.46
263.573	2.05
263.953	1.51
264.333	1.87
264.713	0.99
265.093	1.07
265.473	1.27
265.853	1.92
266.233	1.52
266.612	2.57
266.992	0.84
267.372	1.69
267.752	1.12
268.131	1.52
268.511	2.07
268.89	2.37
269.27	1.01
269.649	1.22
270.029	1.03
270.408	2.4
270.787	1.67
271.167	1.54
271.546	2.09
271.925	1.57
272.304	2.18
272.683	1.48
273.062	1.61
273.441	1.71
273.82	1.62
274.199	2.02
274.578	1.65
274.957	1.84
275.336	1.62
275.715	2
276.093	1.31
276.472	1.25
276.851	1.25
277.229	1.39
277.608	1.8
277.986	2.05
278.365	0.98
278.743	1.63
279.122	1.27
279.5	1.1
279.878	1.77
280.257	2.24
280.635	1.36
281.013	1.28
281.391	2.3
281.769	1.9
282.147	1.97
282.525	0.74
282.903	1.72
283.281	1.22
283.659	1.54
284.037	1.48
284.415	1.81
284.792	2
285.17	1.8
285.548	1.83
285.925	1.23
286.303	2.07
286.68	1.36
287.058	1.29
287.435	2
287.813	2.01
288.19	1.32
288.567	1.39
288.945	1.38
289.322	1.52
289.699	1.2
290.076	1.06
290.453	1.67
290.83	1.64
291.207	1.25
291.584	1.4
291.961	1.85
292.338	1.79
292.715	1.81
293.092	1.43
293.469	1.41
293.845	1.88
294.222	1.76
294.599	1.23
294.975	1.59
295.352	1.69
295.728	1.34
296.105	1.96
296.481	1.69
296.858	1.61
297.234	1.46
297.61	1.81
297.986	1.71
298.363	1.67
298.739	1.4
299.115	1.66
299.491	1.73
299.867	1.66
300.243	1.61
300.619	1.89
300.995	1.48
301.371	1.62
301.746	1.37
302.122	2.11
302.498	1.7
302.874	1.45
303.249	2.18
303.625	1.5
304	1.53
304.376	1.51
304.751	1.89
305.127	1.59
305.502	1.8
305.878	1.45
306.253	1.75
306.628	1.24
307.003	1.87
307.378	1.88
307.754	2.08
308.129	2.27
308.504	2.04
308.879	2.1
309.254	1.63
309.629	1.84
310.003	1.34
310.378	1.31
310.753	1.3
311.128	1.57
311.502	1.48
311.877	1.4
312.252	2.06
312.626	1.45
313.001	1.2
313.375	2.15
313.75	1.65
314.124	1.58
314.498	1.32
314.873	1.77
315.247	1.68
315.621	1.73
315.995	1.37
316.369	1.65
316.743	2.07
317.117	1.68
317.491	1.7
317.865	1.86
318.239	1.58
318.613	1.36
318.987	1.1
319.361	1.3
319.734	1.12
320.108	1.94
320.482	1.96
320.855	1.67
321.229	1.41
321.602	2.02
321.976	1.62
322.349	2.02
322.723	1.8
323.096	1.78
323.469	1.58
323.843	2.09
324.216	1.68
324.589	1.97
324.962	1.59
325.335	2.1
325.708	1.97
326.081	1.56
326.454	1.84
326.827	1.9
327.2	1.93
327.573	1.4
327.945	2.1
328.318	1.58
328.691	1.61
329.063	1.55
329.436	1.77
329.809	1.18
330.181	1.61
330.553	1.54
330.926	1.65
331.298	1.94
331.671	1.91
332.043	1.52
332.415	1.85
332.787	1.72
333.159	1.64
333.532	1.67
333.904	2
334.276	1.89
334.648	1.74
335.02	1.86
335.391	1.82
335.763	1.39
336.135	1.19
336.507	2.11
336.879	2.17
337.25	1.6
337.622	1.68
337.993	2.25
338.365	1.84
338.736	2.46
339.108	1.62
339.479	2.21
339.851	2.11
340.222	1.89
340.593	2.04
340.964	1.9
341.336	2.22
341.707	1.7
342.078	1.64
342.449	1.8
342.82	1.73
343.191	1.81
343.562	2.2
343.933	1.89
344.303	2.41
344.674	1.38
345.045	2.06
345.416	1.63
345.786	2.05
346.157	1.89
346.527	1.63
346.898	1.94
347.268	1.9
347.639	1.79
348.009	1.76
348.38	2.03
348.75	1.55
349.12	1.89
349.49	2.19
349.861	2.22
350.231	1.91
350.601	1.84
350.971	1.92
351.341	2.03
351.711	1.72
352.081	1.85
352.45	2.05
352.82	2.25
353.19	1.74
353.56	2.13
353.929	1.73
354.299	1.93
354.669	1.89
355.038	2.01
355.408	2.09
355.777	1.73
356.147	2.15
356.516	1.94
356.885	1.93
357.254	2.14
357.624	2.05
357.993	1.63
358.362	1.89
358.731	2.01
359.1	1.95
359.469	1.76
359.838	1.99
360.207	2.15
360.576	1.88
360.945	1.8
361.314	1.82
361.682	1.78
362.051	2.12
362.42	2.1
362.788	2.16
363.157	1.84
363.525	1.89
363.894	2.12
364.262	1.68
364.631	2.26
364.999	2
365.367	1.92
365.735	2.34
366.104	2.35
366.472	2.03
366.84	1.98
367.208	2.41
367.576	2.05
367.944	1.86
368.312	1.96
368.68	2.19
369.048	2.3
369.416	2.25
369.783	2.03
370.151	2.26
370.519	1.93
370.886	1.94
371.254	2
371.621	2.36
371.989	1.99
372.356	2.29
372.724	2.19
373.091	2.27
373.458	2
373.826	2.01
374.193	2.47
374.56	1.98
374.927	2.04
375.294	2.08
375.661	2.11
376.028	2.59
376.395	1.96
376.762	2.41
377.129	1.87
377.496	1.64
377.863	2.19
378.229	2.37
378.596	2.14
378.963	2.36
379.329	2
379.696	2.18
380.062	2.05
380.429	2.15
380.795	2.31
381.161	2.7
381.528	2.3
381.894	2.07
382.26	2.07
382.626	2.2
382.993	1.99
383.359	2.29
383.725	2.27
384.091	2.15
384.457	2.12
384.823	1.76
385.188	1.83
385.554	1.9
385.92	2.01
386.286	2.13
386.651	2.24
387.017	2.01
387.383	1.86
387.748	1.94
388.114	1.9
388.479	2.23
388.845	2.22
389.21	2.32
389.575	2.23
389.94	2.33
390.306	2.04
390.671	2.04
391.036	2.09
391.401	2.31
391.766	2.21
392.131	2.29
392.496	1.85
392.861	2.13
393.226	2.28
393.591	2.36
393.956	2.24
394.32	2.34
394.685	2.07
395.05	2.21
395.414	2
395.779	2.13
396.143	2.27
396.508	1.97
396.872	2.38
397.236	2.08
397.601	2.27
397.965	1.95
398.329	2.1
398.694	2.15
399.058	2.43
399.422	2.17
399.786	2.18
400.15	2.36
400.514	2.04
400.878	2.33
401.242	2.1
401.605	2.04
401.969	2.2
402.333	2.22
402.697	2.01
403.06	2.5
403.424	2.27
403.787	2.3
404.151	2.24
404.514	2.25
404.878	2.18
405.241	2.01
405.604	2.35
405.968	2.26
406.331	2.25
406.694	2.04
407.057	2.25
407.42	2.05
407.783	2.31
408.146	2.59
408.509	2.44
408.872	2.25
409.235	2.52
409.598	2.29
409.961	2.28
410.323	2.5
410.686	2.64
411.049	2.37
411.411	2.27
411.774	2.32
412.136	2.26
412.499	2.41
412.861	2.26
413.223	2.32
413.586	2.25
413.948	2.33
414.31	2.26
414.672	2.14
415.035	2.52
415.397	2.1
415.759	2.44
416.121	2.12
416.483	2.34
416.845	2.41
417.206	2.38
417.568	2.52
417.93	2.44
418.292	2.37
418.653	2.16
419.015	2.24
419.377	2.48
419.738	2.2
420.1	2.32
420.461	2.43
420.822	2.27
421.184	2.33
421.545	2.26
421.906	2.27
422.267	2.34
422.629	2.2
422.99	2.28
423.351	2.31
423.712	2.2
424.073	2.34
424.434	2.2
424.795	2.36
425.155	2.42
425.516	2.37
425.877	2.28
426.238	2.32
426.598	2.35
426.959	2.37
427.32	2.3
427.68	2.51
428.041	2.25
428.401	2.31
428.761	2.53
429.122	2.58
429.482	2.39
429.842	2.4
430.202	2.44
430.563	2.54
430.923	2.38
431.283	2.52
431.643	2.41
432.003	2.26
432.363	2.35
432.722	2.51
433.082	2.51
433.442	2.38
433.802	2.47
434.161	2.4
434.521	2.42
434.881	2.4
435.24	2.35
435.6	2.4
435.959	2.5
436.319	2.43
436.678	2.53
437.037	2.44
437.396	2.59
437.756	2.64
438.115	2.5
438.474	2.39
438.833	2.44
439.192	2.38
439.551	2.5
439.91	2.45
440.269	2.52
440.628	2.52
440.987	2.43
441.345	2.38
441.704	2.51
442.063	2.57
442.421	2.41
442.78	2.44
443.138	2.5
443.497	2.46
443.855	2.49
444.214	2.43
444.572	2.47
444.93	2.6
445.288	2.41
445.647	2.42
446.005	2.42
446.363	2.49
446.721	2.57
447.079	2.44
447.437	2.52
447.795	2.47
448.153	2.52
448.51	2.42
448.868	2.42
449.226	2.54
449.584	2.59
449.941	2.48
450.299	2.45
450.656	2.52
451.014	2.57
451.371	2.59
451.729	2.47
452.086	2.56
452.443	2.57
452.801	2.4
453.158	2.41
453.515	2.43
453.872	2.41
454.229	2.45
454.586	2.48
454.943	2.31
455.3	2.58
455.657	2.38
456.014	2.6
456.371	2.53
456.727	2.5
457.084	2.62
457.441	2.51
457.797	2.49
458.154	2.63
458.51	2.46
458.867	2.45
459.223	2.45
459.58	2.61
459.936	2.48
460.292	2.62
460.648	2.5
461.005	2.52
461.361	2.43
461.717	2.5
462.073	2.49
462.429	2.6
462.785	2.6
463.141	2.63
463.496	2.56
463.852	2.61
464.208	2.62
464.564	2.57
464.919	2.61
465.275	2.77
465.631	2.74
465.986	2.46
466.342	2.57
466.697	2.6
467.052	2.61
467.408	2.62
467.763	2.52
468.118	2.65
468.473	2.51
468.829	2.69
469.184	2.64
469.539	2.71
469.894	2.8
470.249	2.78
470.603	2.66
470.958	2.42
471.313	2.65
471.668	2.62
472.023	2.44
472.377	2.66
472.732	2.71
473.086	2.65
473.441	2.53
473.795	2.52
474.15	2.49
474.504	2.78
474.859	2.75
475.213	2.65
475.567	2.45
475.921	2.63
476.275	2.72
476.63	2.72
476.984	2.74
477.338	2.71
477.692	2.63
478.045	2.67
478.399	2.7
478.753	2.65
479.107	2.56
479.461	2.65
479.814	2.56
480.168	2.66
480.521	2.72
480.875	2.68
481.228	2.61
481.582	2.69
481.935	2.72
482.289	2.68
482.642	2.63
482.995	2.65
483.348	2.73
483.701	2.73
484.055	2.64
484.408	2.66
484.761	2.56
485.114	2.5
485.466	2.47
485.819	2.48
486.172	2.53
486.525	2.59
486.878	2.63
487.23	2.64
487.583	2.65
487.936	2.61
488.288	2.64
488.641	2.59
488.993	2.63
489.345	2.58
489.698	2.56
490.05	2.58
490.402	2.58
490.754	2.7
491.107	2.65
491.459	2.76
491.811	2.73
492.163	2.71
492.515	2.7
492.866	2.61
493.218	2.55
493.57	2.58
493.922	2.62
494.274	2.73
494.625	2.66
494.977	2.69
495.328	2.72
495.68	2.78
496.031	2.72
496.383	2.83
496.734	2.86
497.086	2.78
497.437	2.88
497.788	2.73
498.139	2.8
498.49	2.87
498.842	2.79
499.193	2.81
499.544	2.89
499.894	2.68
500.245	2.82
500.596	2.76
500.947	2.88
501.298	2.79
501.648	2.71
501.999	2.86
502.35	2.88
502.7	2.92
503.051	2.91
503.401	2.75
503.752	2.88
504.102	2.92
504.452	2.89
504.803	2.92
505.153	2.99
505.503	2.93
505.853	2.89
506.203	2.89
506.553	2.84
506.903	2.92
507.253	2.84
507.603	2.94
507.953	3.03
508.303	2.95
508.652	2.85
509.002	2.93
509.352	2.98
509.701	2.88
510.051	3.01
510.4	2.96
510.75	3
511.099	2.97
511.449	2.74
511.798	2.93
512.147	2.82
512.496	2.97
512.846	2.86
513.195	2.92
513.544	2.92
513.893	2.99
514.242	2.99
514.591	2.96
514.939	3.04
515.288	3.03
515.637	3.07
515.986	3.05
516.334	2.96
516.683	2.9
517.032	3.13
517.38	3.12
517.729	3.03
518.077	3.04
518.426	3.03
518.774	3.03
519.122	3.13
519.47	3.02
519.819	3.01
520.167	2.95
520.515	2.99
520.863	2.94
521.211	3.03
521.559	3.03
521.907	3.1
522.255	3.03
522.602	3.07
522.95	3.17
523.298	3.06
523.645	3.1
523.993	3.08
524.341	3.12
524.688	3.11
525.036	3.14
525.383	3.17
525.73	3.2
526.078	3.09
526.425	3.17
526.772	3.08
527.119	3.07
527.466	3.15
527.814	3.15
528.161	3.05
528.508	3.16
528.854	3.24
529.201	3.05
529.548	3.05
529.895	2.97
530.242	3.03
530.588	3.03
530.935	3.07
531.282	3.12
531.628	3.16
531.975	3.18
532.321	3.16
532.667	3.24
533.014	3.28
533.36	3.21
533.706	3.23
534.052	3.22
534.399	3.24
534.745	3.21
535.091	3.15
535.437	3.14
535.783	3.23
536.129	3.31
536.474	3.3
536.82	3.41
537.166	3.35
537.512	3.36
537.857	3.38
538.203	3.22
538.549	3.32
538.894	3.21
539.239	3.49
539.585	3.32
539.93	3.37
540.276	3.48
540.621	3.57
540.966	3.37
541.311	3.43
541.656	3.52
542.001	3.37
542.346	3.4
542.691	3.38
543.036	3.29
543.381	3.26
543.726	3.34
544.071	3.33
544.415	3.44
544.76	3.44
545.105	3.48
545.449	3.5
545.794	3.54
546.138	3.48
546.483	3.61
546.827	3.56
547.171	3.58
547.516	3.49
547.86	3.58
548.204	3.59
548.548	3.49
548.892	3.43
549.236	3.6
549.58	3.69
549.924	3.76
550.268	3.79
550.612	3.83
550.956	3.66
551.3	3.81
551.643	3.81
551.987	3.8
552.33	3.64
552.674	3.72
553.017	3.76
553.361	3.9
553.704	3.83
554.048	3.91
554.391	3.83
554.734	3.73
555.077	3.89
555.42	3.83
555.764	3.92
556.107	4.02
556.45	3.83
556.793	4.11
557.135	3.92
557.478	3.93
557.821	3.75
558.164	4.27
558.507	3.97
558.849	3.68
559.192	4.07
559.534	3.98
559.877	3.84
560.219	4.03
560.562	3.97
560.904	4.12
561.246	3.91
561.589	4.19
561.931	4.3
562.273	4.15
562.615	4.12
562.957	4.02
563.299	4.22
563.641	4.1
563.983	4.3
564.325	4.19
564.667	4.05
565.008	4.09
565.35	4.27
565.692	4.22
566.033	4.2
566.375	4.17
566.716	4.16
567.058	4.21
567.399	4.31
567.741	4.14
568.082	4.35
568.423	4.22
568.764	4.16
569.105	4.33
569.447	4.36
569.788	4.47
570.129	4.44
570.47	4.46
570.811	4.49
571.151	4.44
571.492	4.43
571.833	4.45
572.174	4.54
572.514	4.52
572.855	4.45
573.195	4.49
573.536	4.44
573.876	4.47
574.217	4.48
574.557	4.63
574.898	4.61
575.238	4.58
575.578	4.63
575.918	4.79
576.258	4.71
576.598	4.53
576.938	4.66
577.278	4.68
577.618	4.63
577.958	4.78
578.298	4.73
578.638	4.68
578.977	4.72
579.317	4.76
579.657	4.78
579.996	4.81
580.336	4.83
580.675	4.9
581.014	5.14
581.354	4.83
581.693	4.69
582.032	5.05
582.372	5.08
582.711	5.25
583.05	5.14
583.389	4.98
583.728	5.13
584.067	5.38
584.406	5.32
584.745	5.23
585.083	5.09
585.422	5.35
585.761	5.25
586.1	5.11
586.438	5.37
586.777	5.04
587.115	5.51
587.454	5.28
587.792	5.16
588.13	5.35
588.469	5.24
588.807	5.32
589.145	5.24
589.483	5.39
589.821	5.5
590.159	5.38
590.497	5.29
590.835	5.44
591.173	5.66
591.511	5.54
591.849	5.53
592.187	5.61
592.524	5.32
592.862	5.57
593.2	5.39
593.537	5.79
593.875	5.43
594.212	5.74
594.55	5.35
594.887	5.82
595.224	5.81
595.561	5.75
595.899	5.58
596.236	5.74
596.573	5.51
596.91	5.76
597.247	5.75
597.584	6.05
597.921	5.88
598.258	5.74
598.594	5.46
598.931	5.69
599.268	5.71
599.604	5.76
599.941	5.86
600.277	5.87
600.614	6.05
600.95	6.1
601.287	6.06
601.623	6.19
601.959	6.19
602.296	5.85
602.632	6.07
602.968	5.87
603.304	6.18
603.64	5.99
603.976	6.34
604.312	6.13
604.648	6.25
604.984	6.27
605.319	6.38
605.655	6.37
605.991	6.39
606.326	6.23
606.662	6.23
606.998	6.29
607.333	6.26
607.668	6.43
608.004	6.41
608.339	6.38
608.674	6.53
609.01	6.56
609.345	6.7
609.68	6.42
610.015	6.41
610.35	6.52
610.685	6.77
611.02	6.62
611.355	6.71
611.689	6.59
612.024	6.78
612.359	6.7
612.694	6.73
613.028	6.72
613.363	6.66
613.697	6.79
614.032	6.73
614.366	6.78
614.7	6.98
615.035	6.91
615.369	6.78
615.703	6.92
616.037	6.65
616.371	7.15
616.705	6.84
617.039	7.28
617.373	6.82
617.707	7.09
618.041	6.88
618.375	7.16
618.709	6.78
619.042	7.13
619.376	7.24
619.71	7.4
620.043	7.03
620.377	7.24
620.71	7.27
621.043	7.33
621.377	7.55
621.71	7.23
622.043	7.03
622.376	7.33
622.709	7.69
623.043	7.64
623.376	7.29
623.709	7.31
624.041	7.57
624.374	7.36
624.707	7.73
625.04	7.67
625.373	7.67
625.705	7.39
626.038	7.94
626.37	7.56
626.703	7.7
627.035	7.58
627.368	8.07
627.7	7.79
628.032	7.82
628.365	7.73
628.697	7.85
629.029	7.92
629.361	7.67
629.693	7.86
630.025	7.75
630.357	7.89
630.689	7.95
631.021	8.05
631.353	8.07
631.684	7.98
632.016	8.19
632.348	8.06
632.679	8.03
633.011	8.03
633.342	8.23
633.674	8.1
634.005	8.02
634.336	7.94
634.668	8.23
634.999	7.96
635.33	8.27
635.661	8.36
635.992	8.15
636.323	8.37
636.654	8.37
636.985	8.32
637.316	8.32
637.647	8.15
637.977	8.47
638.308	8.43
638.639	8.48
638.969	8.46
639.3	8.46
639.63	8.33
639.961	8.76
640.291	8.4
640.622	8.51
640.952	9.11
641.282	8.97
641.612	8.59
641.943	8.83
642.273	8.68
642.603	8.64
642.933	8.89
643.263	8.83
643.592	8.55
643.922	8.39
644.252	8.65
644.582	8.84
644.911	8.7
645.241	9.29
645.571	9.35
645.9	9.04
646.23	8.84
646.559	9.25
646.888	9.16
647.218	9.27
647.547	9.28
647.876	9.57
648.205	9.35
648.534	9.17
648.863	9.15
649.192	9.61
649.521	8.84
649.85	9.49
650.179	9.11
650.508	9.62
650.837	9.62
651.165	9.08
651.494	9.72
651.822	9.46
652.151	9.7
652.479	9.73
652.808	9.72
653.136	9.3
653.465	9.43
653.793	9.44
654.121	9.44
654.449	9.89
654.777	10.05
655.105	9.72
655.433	9.82
655.761	9.68
656.089	9.77
656.417	9.56
656.745	9.53
657.073	9.99
657.4	9.69
657.728	10.43
658.056	9.33
658.383	9.72
658.711	9.79
659.038	9.67
659.365	10.42
659.693	9.54
660.02	9.75
660.347	9.84
660.674	9.85
661.001	10.06
661.329	9.91
661.656	10.04
661.982	10.29
662.309	10.45
662.636	10.13
662.963	10.28
663.29	10.31
663.616	10.55
663.943	10.51
664.27	10.22
664.596	10.33
664.923	10.1
665.249	10.59
665.576	10.42
665.902	10.47
666.228	10.08
666.554	10.78
666.881	11
667.207	10.42
667.533	11.1
667.859	11.01
668.185	10.38
668.511	10.7
668.837	10.86
669.162	10.85
669.488	11.31
669.814	10.81
670.139	11.17
670.465	10.84
670.791	11.03
671.116	11.22
671.442	11.13
671.767	11.08
672.092	10.88
672.418	10.56
672.743	11.07
673.068	11.19
673.393	10.79
673.718	11.4
674.043	11.2
674.368	11.67
674.693	11.79
675.018	11.11
675.343	10.89
675.667	10.81
675.992	11.28
676.317	10.78
676.641	11.4
676.966	11.03
677.29	11.58
677.615	11.68
677.939	11.42
678.264	11.42
678.588	11.57
678.912	10.97
679.236	11.18
679.56	11.43
679.885	11.77
680.209	11.6
680.532	12.07
680.856	11.71
681.18	11.64
681.504	11.72
681.828	11.5
682.152	11.33
682.475	12.27
682.799	11.45
683.122	11.51
683.446	12.17
683.769	11.54
684.093	11.75
684.416	11.58
684.739	11.91
685.062	12.3
685.386	11.96
685.709	12.29
686.032	11.94
686.355	12.05
686.678	12.21
687.001	11.72
687.324	12.16
687.646	12.63
687.969	12.62
688.292	11.97
688.614	12.09
688.937	12.65
689.26	12.39
689.582	12.35
689.904	12.4
690.227	12.63
