Data from 815650_crown_Reflection__0__135.txt Node

Date: Fri Sep 16 15:46:29 CDT 2022
User: ToomeyLab
Spectrometer: FLMS14357
Trigger mode: 0
Integration Time (sec): 1.000000E-2
Scans to average: 100
Electric dark correction enabled: true
Nonlinearity correction enabled: false
Boxcar width: 0
XAxis mode: Wavelengths
Number of Pixels in Spectrum: 2048
>>>>>Begin Spectral Data<<<<<
189.047	220.7
189.435	220.7
189.823	220.7
190.211	660.27
190.599	77.58
190.987	181.17
191.375	81.69
191.763	56.22
192.151	-176.98
192.538	-52.83
192.926	40.42
193.314	16.53
193.702	-19.4
194.089	-880.82
194.477	542.21
194.864	25.46
195.252	40.42
195.639	175.51
196.027	115.22
196.414	-104.96
196.801	-33.06
197.189	65.75
197.576	1247.72
197.963	244.19
198.351	-72.17
198.738	-26.57
199.125	-0.93
199.512	-253.95
199.899	15.24
200.286	-74.32
200.673	-7.98
201.06	4.89
201.447	-1.3
201.833	-28.37
202.22	-46.58
202.607	-61.49
202.994	-3.98
203.38	-11.83
203.767	-9.07
204.154	-2.46
204.54	-38.76
204.927	-52.07
205.313	15.43
205.699	32.45
206.086	4.34
206.472	1.35
206.858	-22.53
207.245	-9.57
207.631	-0.24
208.017	25.67
208.403	-19.48
208.789	-10.7
209.175	7.48
209.561	-25.14
209.947	-42.88
210.333	-20.93
210.719	-24.6
211.105	-21.24
211.491	10.51
211.876	-0.92
212.262	-9.96
212.648	-21.61
213.034	-50.7
213.419	-62.71
213.805	-36.45
214.19	11.75
214.576	-54.98
214.961	-26.17
215.346	-41.94
215.732	-26.01
216.117	-25.91
216.502	-19.95
216.888	-68.04
217.273	-15.02
217.658	-33.27
218.043	-60.63
218.428	10.4
218.813	-10.2
219.198	-5.14
219.583	-23.86
219.968	-4.2
220.353	-18.48
220.738	9.35
221.122	-24.49
221.507	8.94
221.892	-8.7
222.276	4.56
222.661	14.4
223.046	-7.41
223.43	-0.68
223.815	-13.44
224.199	3.32
224.583	-7.24
224.968	4.33
225.352	-4.91
225.736	17.89
226.121	2.57
226.505	-1.09
226.889	8.34
227.273	-3.65
227.657	1.72
228.041	-3.05
228.425	-1.69
228.809	6.91
229.193	1.77
229.577	4.47
229.961	3.38
230.344	5.27
230.728	4.51
231.112	4.89
231.495	4.11
231.879	4.14
232.263	3.6
232.646	3.11
233.03	4.11
233.413	5.09
233.797	1.34
234.18	4.21
234.563	2.22
234.946	4.62
235.33	3.14
235.713	4.89
236.096	2.75
236.479	4.85
236.862	4.97
237.245	3.62
237.628	4.62
238.011	5.19
238.394	6.23
238.777	4.4
239.16	4.36
239.543	6.43
239.925	3.51
240.308	3.16
240.691	2.93
241.073	3.82
241.456	3.3
241.838	3.27
242.221	4.25
242.603	3.73
242.986	3.56
243.368	3.95
243.75	4.34
244.133	4.94
244.515	4.55
244.897	5.39
245.279	4.64
245.661	4.69
246.043	3.81
246.425	4.52
246.807	5.14
247.189	4.06
247.571	3.57
247.953	4.15
248.335	4.57
248.717	4.48
249.098	4.74
249.48	4.48
249.862	4.35
250.243	4.63
250.625	4.55
251.006	4.33
251.388	4.76
251.769	3.66
252.151	4.3
252.532	3.52
252.913	3.68
253.295	3.93
253.676	4.5
254.057	4.01
254.438	3.32
254.819	3.12
255.2	4.3
255.581	3.48
255.962	2.97
256.343	3.65
256.724	2.85
257.105	2.23
257.486	4.03
257.867	4
258.247	4.27
258.628	4.18
259.009	3.36
259.389	4.33
259.77	3.06
260.15	4.16
260.531	4.02
260.911	3.99
261.292	4.03
261.672	4.28
262.052	3.94
262.432	4.07
262.813	4.61
263.193	4.02
263.573	4.09
263.953	4.45
264.333	3.53
264.713	3.09
265.093	3.62
265.473	3.07
265.853	3.81
266.233	3.54
266.612	4.36
266.992	2.68
267.372	3.68
267.752	3.77
268.131	3.6
268.511	4.17
268.89	4.11
269.27	3.94
269.649	3.89
270.029	3.78
270.408	3.97
270.787	3.66
271.167	3.73
271.546	3.85
271.925	4.03
272.304	3.89
272.683	3.62
273.062	3.75
273.441	3.92
273.82	4.02
274.199	3.87
274.578	3.82
274.957	4.17
275.336	3.76
275.715	4.16
276.093	3.4
276.472	3.74
276.851	3.71
277.229	3.7
277.608	4.01
277.986	3.99
278.365	3.34
278.743	3.77
279.122	3.98
279.5	3.92
279.878	3.45
280.257	4.47
280.635	3.71
281.013	3.75
281.391	3.96
281.769	3.94
282.147	3.5
282.525	2.75
282.903	3.87
283.281	3.18
283.659	4.05
284.037	3.64
284.415	4.11
284.792	3.8
285.17	3.75
285.548	3.2
285.925	3.47
286.303	3.88
286.68	3.63
287.058	3.36
287.435	3.73
287.813	4.06
288.19	3.62
288.567	3.43
288.945	3.5
289.322	3.69
289.699	3.41
290.076	3.26
290.453	4.03
290.83	3.93
291.207	3.41
291.584	3.09
291.961	3.34
292.338	3.54
292.715	3.63
293.092	3.58
293.469	3.2
293.845	3.43
294.222	3.36
294.599	2.98
294.975	3.31
295.352	3.4
295.728	3.31
296.105	3.59
296.481	3.21
296.858	3.21
297.234	3.48
297.61	3.84
297.986	3.54
298.363	3.15
298.739	3.11
299.115	3.5
299.491	3.54
299.867	3.23
300.243	3.56
300.619	3.45
300.995	3.36
301.371	3.13
301.746	3.31
302.122	3.78
302.498	3.47
302.874	3.1
303.249	3.83
303.625	3.27
304	3.06
304.376	2.66
304.751	3.2
305.127	3.38
305.502	3.51
305.878	3.24
306.253	3.61
306.628	3.09
307.003	3.34
307.378	3.69
307.754	3.68
308.129	3.8
308.504	3.53
308.879	3.62
309.254	3.21
309.629	2.99
310.003	3.28
310.378	2.88
310.753	3.46
311.128	2.95
311.502	2.9
311.877	3.51
312.252	3.48
312.626	3.17
313.001	3.45
313.375	3.53
313.75	3.59
314.124	3.12
314.498	3.1
314.873	3.34
315.247	2.89
315.621	2.89
315.995	2.95
316.369	3.28
316.743	3.31
317.117	2.81
317.491	3.22
317.865	4
318.239	3.35
318.613	2.99
318.987	2.98
319.361	2.44
319.734	3.46
320.108	3.09
320.482	3.41
320.855	2.93
321.229	3.07
321.602	3.91
321.976	3.28
322.349	3.25
322.723	2.46
323.096	2.46
323.469	3.1
323.843	3.3
324.216	3.43
324.589	3.31
324.962	3.03
325.335	3.79
325.708	3.39
326.081	2.97
326.454	3.42
326.827	3.31
327.2	3.28
327.573	2.88
327.945	3.45
328.318	3.13
328.691	3.3
329.063	2.82
329.436	3.18
329.809	2.92
330.181	3.23
330.553	3.26
330.926	3.15
331.298	3.5
331.671	2.77
332.043	3
332.415	2.88
332.787	3.07
333.159	3.18
333.532	3.31
333.904	3.56
334.276	3.07
334.648	3.55
335.02	3.41
335.391	3.55
335.763	3.07
336.135	2.77
336.507	3.22
336.879	3.31
337.25	2.89
337.622	3.14
337.993	3.52
338.365	3.41
338.736	4.05
339.108	3.09
339.479	3.17
339.851	3.13
340.222	3.17
340.593	3.46
340.964	3.27
341.336	3.19
341.707	3
342.078	3.67
342.449	3.18
342.82	2.72
343.191	3.28
343.562	3.52
343.933	3.54
344.303	3.92
344.674	2.91
345.045	3.67
345.416	3.09
345.786	3.38
346.157	3.33
346.527	3.33
346.898	3.38
347.268	3.47
347.639	3.13
348.009	3.53
348.38	3.43
348.75	2.82
349.12	3.41
349.49	3.42
349.861	3.25
350.231	3.24
350.601	3.67
350.971	3.42
351.341	3.67
351.711	3.19
352.081	3.06
352.45	3.56
352.82	3.77
353.19	3.1
353.56	3.6
353.929	3.77
354.299	3.37
354.669	3.32
355.038	3.53
355.408	3.33
355.777	3.07
356.147	3.34
356.516	3.66
356.885	3.31
357.254	3.63
357.624	3.43
357.993	3.06
358.362	3.46
358.731	3.67
359.1	3.58
359.469	3.42
359.838	3.39
360.207	3.75
360.576	3.46
360.945	3.48
361.314	3.33
361.682	3.27
362.051	3.65
362.42	3.73
362.788	3.77
363.157	3.64
363.525	3.49
363.894	3.56
364.262	3.43
364.631	3.68
364.999	3.61
365.367	3.41
365.735	3.77
366.104	3.52
366.472	4
366.84	3.94
367.208	4.02
367.576	3.46
367.944	3.36
368.312	3.52
368.68	3.64
369.048	3.71
369.416	3.62
369.783	3.68
370.151	3.8
370.519	3.91
370.886	3.61
371.254	3.76
371.621	3.39
371.989	3.7
372.356	3.71
372.724	3.59
373.091	3.34
373.458	3.51
373.826	3.33
374.193	3.82
374.56	3.59
374.927	3.76
375.294	3.52
375.661	3.59
376.028	4.01
376.395	3.52
376.762	3.67
377.129	3.39
377.496	3.87
377.863	3.54
378.229	3.78
378.596	3.36
378.963	3.82
379.329	3.52
379.696	4.18
380.062	3.96
380.429	3.68
380.795	3.69
381.161	3.64
381.528	3.9
381.894	3.81
382.26	3.81
382.626	3.9
382.993	3.68
383.359	3.56
383.725	3.64
384.091	3.46
384.457	3.34
384.823	3.58
385.188	3.53
385.554	3.46
385.92	3.53
386.286	3.67
386.651	3.8
387.017	3.8
387.383	3.49
387.748	3.63
388.114	3.33
388.479	3.91
388.845	3.6
389.21	3.83
389.575	3.84
389.94	3.57
390.306	3.66
390.671	3.79
391.036	3.63
391.401	3.94
391.766	3.47
392.131	3.67
392.496	3.66
392.861	3.74
393.226	3.79
393.591	3.68
393.956	3.87
394.32	4.05
394.685	3.56
395.05	4.16
395.414	3.43
395.779	3.71
396.143	3.84
396.508	3.68
396.872	4.03
397.236	3.81
397.601	3.62
397.965	3.73
398.329	3.78
398.694	3.77
399.058	4.33
399.422	3.62
399.786	3.7
400.15	3.96
400.514	3.72
400.878	3.96
401.242	3.53
401.605	3.73
401.969	3.7
402.333	4.01
402.697	3.8
403.06	4.14
403.424	3.89
403.787	3.79
404.151	3.83
404.514	3.72
404.878	3.87
405.241	3.78
405.604	3.92
405.968	3.89
406.331	3.71
406.694	3.77
407.057	3.84
407.42	3.74
407.783	3.93
408.146	4.1
408.509	4.02
408.872	3.89
409.235	4.09
409.598	3.76
409.961	4
410.323	4.14
410.686	4.08
411.049	3.77
411.411	3.71
411.774	3.76
412.136	3.75
412.499	4
412.861	3.85
413.223	3.74
413.586	3.84
413.948	3.84
414.31	3.82
414.672	3.77
415.035	3.99
415.397	3.86
415.759	3.78
416.121	3.79
416.483	3.87
416.845	4.13
417.206	3.91
417.568	3.98
417.93	3.98
418.292	3.86
418.653	3.82
419.015	3.84
419.377	3.9
419.738	3.78
420.1	3.88
420.461	3.88
420.822	3.8
421.184	3.9
421.545	3.83
421.906	3.91
422.267	3.84
422.629	3.84
422.99	3.81
423.351	3.93
423.712	3.9
424.073	3.86
424.434	3.92
424.795	3.88
425.155	3.88
425.516	3.82
425.877	3.8
426.238	3.94
426.598	3.91
426.959	3.94
427.32	3.91
427.68	3.91
428.041	3.79
428.401	4.02
428.761	4.14
429.122	3.98
429.482	4
429.842	3.81
430.202	3.99
430.563	3.83
430.923	4.02
431.283	4.12
431.643	4.22
432.003	3.99
432.363	4.02
432.722	4.06
433.082	4
433.442	3.96
433.802	4.04
434.161	3.89
434.521	3.86
434.881	3.92
435.24	3.9
435.6	4.13
435.959	4.1
436.319	3.84
436.678	3.9
437.037	3.81
437.396	3.99
437.756	4.18
438.115	3.94
438.474	3.93
438.833	3.77
439.192	3.9
439.551	3.99
439.91	3.94
440.269	3.96
440.628	3.93
440.987	3.92
441.345	3.97
441.704	3.92
442.063	3.99
442.421	3.97
442.78	3.9
443.138	4.02
443.497	3.98
443.855	4.02
444.214	3.93
444.572	3.97
444.93	4.04
445.288	3.91
445.647	4.06
446.005	3.8
446.363	3.99
446.721	3.98
447.079	3.86
447.437	3.91
447.795	3.84
448.153	3.99
448.51	3.9
448.868	3.95
449.226	3.93
449.584	3.97
449.941	3.99
450.299	3.96
450.656	4.01
451.014	4
451.371	4.01
451.729	4
452.086	3.92
452.443	3.96
452.801	3.99
453.158	3.98
453.515	4.01
453.872	3.85
454.229	3.95
454.586	3.94
454.943	3.82
455.3	4.03
455.657	3.86
456.014	3.97
456.371	3.96
456.727	3.88
457.084	4.16
457.441	3.81
457.797	3.97
458.154	4.1
458.51	3.83
458.867	3.84
459.223	3.92
459.58	4.06
459.936	3.9
460.292	4.02
460.648	3.85
461.005	3.87
461.361	3.84
461.717	3.9
462.073	3.9
462.429	4
462.785	4.01
463.141	3.98
463.496	4.05
463.852	4.05
464.208	4.11
464.564	4.05
464.919	4.08
465.275	4.03
465.631	3.98
465.986	4.02
466.342	4.03
466.697	4.07
467.052	4.02
467.408	4.05
467.763	3.98
468.118	3.99
468.473	3.97
468.829	3.96
469.184	3.95
469.539	4.06
469.894	4.03
470.249	4.08
470.603	4.04
470.958	3.97
471.313	4.05
471.668	4.05
472.023	4.01
472.377	4.04
472.732	3.98
473.086	4.05
473.441	3.88
473.795	3.88
474.15	3.86
474.504	4.21
474.859	3.99
475.213	4.03
475.567	3.85
475.921	4.07
476.275	4.02
476.63	4.11
476.984	4.07
477.338	4.04
477.692	4.02
478.045	3.89
478.399	3.95
478.753	3.93
479.107	3.98
479.461	4.01
479.814	3.96
480.168	4
480.521	3.97
480.875	4.1
481.228	4.07
481.582	4.01
481.935	3.98
482.289	3.97
482.642	3.9
482.995	3.93
483.348	3.99
483.701	4
484.055	3.83
484.408	3.92
484.761	3.77
485.114	3.65
485.466	3.62
485.819	3.66
486.172	3.77
486.525	3.87
486.878	3.93
487.23	3.92
487.583	3.9
487.936	3.88
488.288	3.87
488.641	3.79
488.993	3.79
489.345	3.75
489.698	3.74
490.05	3.81
490.402	3.88
490.754	3.97
491.107	3.96
491.459	4.04
491.811	3.91
492.163	3.94
492.515	3.82
492.866	3.67
493.218	3.65
493.57	3.72
493.922	3.85
494.274	3.94
494.625	4
494.977	3.96
495.328	3.92
495.68	4.02
496.031	3.87
496.383	3.96
496.734	3.96
497.086	4.02
497.437	3.98
497.788	3.98
498.139	3.97
498.49	3.92
498.842	3.96
499.193	3.99
499.544	4.04
499.894	3.9
500.245	3.93
500.596	3.98
500.947	4
501.298	3.9
501.648	4.02
501.999	3.87
502.35	4.02
502.7	3.99
503.051	4.03
503.401	3.86
503.752	4.02
504.102	4
504.452	3.88
504.803	4.08
505.153	4.04
505.503	3.98
505.853	3.98
506.203	4.03
506.553	3.94
506.903	3.98
507.253	3.93
507.603	3.96
507.953	3.9
508.303	3.96
508.652	3.76
509.002	4.01
509.352	4
509.701	3.91
510.051	4
510.4	3.98
510.75	3.96
511.099	3.93
511.449	3.79
511.798	3.96
512.147	3.86
512.496	3.96
512.846	3.93
513.195	3.89
513.544	3.91
513.893	3.99
514.242	3.97
514.591	4
514.939	4.07
515.288	4.05
515.637	3.99
515.986	3.96
516.334	3.95
516.683	4.01
517.032	4.02
517.38	4.08
517.729	3.99
518.077	3.93
518.426	3.93
518.774	3.94
519.122	3.95
519.47	3.98
519.819	3.82
520.167	3.84
520.515	3.85
520.863	3.93
521.211	3.95
521.559	3.97
521.907	4.02
522.255	3.93
522.602	4.01
522.95	4.08
523.298	3.96
523.645	4.03
523.993	3.96
524.341	4.04
524.688	4.02
525.036	4
525.383	4.01
525.73	4.06
526.078	4.03
526.425	3.87
526.772	3.92
527.119	3.77
527.466	3.86
527.814	3.85
528.161	3.93
528.508	3.98
528.854	3.94
529.201	3.88
529.548	3.78
529.895	3.73
530.242	3.71
530.588	3.73
530.935	3.84
531.282	3.87
531.628	3.96
531.975	3.99
532.321	3.99
532.667	4.06
533.014	4.04
533.36	3.95
533.706	3.98
534.052	3.86
534.399	3.94
534.745	3.84
535.091	3.76
535.437	3.82
535.783	3.99
536.129	4
536.474	3.99
536.82	3.97
537.166	4.02
537.512	3.95
537.857	3.96
538.203	3.85
538.549	3.82
538.894	3.82
539.239	4.05
539.585	3.89
539.93	3.99
540.276	4.15
540.621	4.16
540.966	3.99
541.311	4.01
541.656	4
542.001	3.92
542.346	3.8
542.691	3.84
543.036	3.75
543.381	3.72
543.726	3.87
544.071	3.91
544.415	3.88
544.76	3.94
545.105	3.95
545.449	3.97
545.794	3.99
546.138	3.99
546.483	4.07
546.827	4.13
547.171	4
547.516	3.82
547.86	3.91
548.204	3.97
548.548	3.84
548.892	3.95
549.236	3.94
549.58	4.1
549.924	4.15
550.268	4.09
550.612	4.01
550.956	3.84
551.3	4.15
551.643	4.17
551.987	4.05
552.33	4.1
552.674	3.96
553.017	4.03
553.361	4
553.704	4.07
554.048	4.12
554.391	4.06
554.734	4.02
555.077	4.01
555.42	4
555.764	4.07
556.107	4.22
556.45	3.87
556.793	4.23
557.135	4.02
557.478	4.07
557.821	4.1
558.164	4.11
558.507	4.07
558.849	3.85
559.192	3.94
559.534	3.98
559.877	3.87
560.219	4.04
560.562	4
560.904	4.03
561.246	3.94
561.589	4.22
561.931	4.12
562.273	4.05
562.615	4.02
562.957	4.05
563.299	3.88
563.641	4.1
563.983	4.12
564.325	4.05
564.667	3.99
565.008	4.1
565.35	3.99
565.692	3.98
566.033	4.13
566.375	3.99
566.716	4.09
567.058	3.85
567.399	4.09
567.741	3.91
568.082	4.12
568.423	3.95
568.764	4.02
569.105	4.03
569.447	4.12
569.788	4.08
570.129	4.13
570.47	3.97
570.811	4.24
571.151	4.09
571.492	4.08
571.833	4.05
572.174	4.06
572.514	3.93
572.855	3.96
573.195	4.1
573.536	3.91
573.876	4.01
574.217	4
574.557	4.02
574.898	3.99
575.238	4.02
575.578	3.96
575.918	4.04
576.258	3.91
576.598	3.99
576.938	3.99
577.278	4.03
577.618	4.04
577.958	4.02
578.298	4.05
578.638	3.99
578.977	3.94
579.317	3.99
579.657	4.01
579.996	4.16
580.336	4.17
580.675	4.01
581.014	4.23
581.354	3.99
581.693	3.82
582.032	4.12
582.372	4.17
582.711	4.06
583.05	4.12
583.389	4.11
583.728	4.1
584.067	4.21
584.406	4.37
584.745	4.05
585.083	4.1
585.422	4.35
585.761	4.1
586.1	3.87
586.438	4.21
586.777	3.9
587.115	4.21
587.454	4.11
587.792	4.13
588.13	4.05
588.469	4.11
588.807	3.95
589.145	3.95
589.483	4.01
589.821	4.06
590.159	4.1
590.497	3.93
590.835	4.18
591.173	4.23
591.511	4.06
591.849	4.18
592.187	3.94
592.524	3.89
592.862	4.12
593.2	3.96
593.537	3.81
593.875	3.98
594.212	3.92
594.55	3.86
594.887	4.17
595.224	3.98
595.561	4.02
595.899	4.01
596.236	4.17
596.573	3.82
596.91	4.04
597.247	4.04
597.584	4.29
597.921	4.16
598.258	4.04
598.594	3.83
598.931	3.85
599.268	3.96
599.604	3.97
599.941	4.07
600.277	4.04
600.614	4.27
600.95	3.97
601.287	3.91
601.623	4.02
601.959	4.07
602.296	4.03
602.632	4.01
602.968	3.91
603.304	4.09
603.64	4
603.976	3.95
604.312	3.92
604.648	4.09
604.984	4.24
605.319	4.03
605.655	4.07
605.991	4.02
606.326	4.05
606.662	4.02
606.998	4.14
607.333	4.09
607.668	4.09
608.004	3.91
608.339	4.09
608.674	4.2
609.01	3.95
609.345	4.11
609.68	4.13
610.015	4.09
610.35	3.98
610.685	4.22
611.02	3.88
611.355	4.17
611.689	4.12
612.024	4.09
612.359	4.08
612.694	4.12
613.028	4.22
613.363	3.82
613.697	4.16
614.032	3.96
614.366	3.86
614.7	4.12
615.035	4.18
615.369	4.01
615.703	3.94
616.037	4.21
616.371	4.13
616.705	4.26
617.039	4.2
617.373	4
617.707	3.94
618.041	3.93
618.375	4.06
618.709	4.23
619.042	3.8
619.376	3.93
619.71	4.21
620.043	4.05
620.377	4.05
620.71	4.31
621.043	4.09
621.377	4.12
621.71	3.98
622.043	3.67
622.376	4.16
622.709	4.03
623.043	4.01
623.376	3.72
623.709	3.76
624.041	4.21
624.374	4.07
624.707	4.13
625.04	4.49
625.373	4.11
625.705	4.33
626.038	4.22
626.37	4.29
626.703	3.79
627.035	3.81
627.368	4.52
627.7	4.27
628.032	4.01
628.365	3.86
628.697	4.01
629.029	3.99
629.361	3.93
629.693	4.03
630.025	4.14
630.357	4.07
630.689	4.09
631.021	4.29
631.353	4.46
631.684	3.95
632.016	3.92
632.348	4.38
632.679	3.82
633.011	4.06
633.342	3.91
633.674	4.16
634.005	4.12
634.336	4.2
634.668	4.33
634.999	3.71
635.33	3.94
635.661	3.91
635.992	4.11
636.323	3.93
636.654	4
636.985	4.23
637.316	4.12
637.647	4.04
637.977	3.83
638.308	4.08
638.639	4.24
638.969	4.12
639.3	4.25
639.63	3.93
639.961	4.44
640.291	4.29
640.622	4.03
640.952	4.3
641.282	4.01
641.612	3.8
641.943	4.17
642.273	3.91
642.603	4.29
642.933	4.16
643.263	3.89
643.592	3.89
643.922	3.89
644.252	4.01
644.582	3.77
644.911	3.98
645.241	4.43
645.571	4
645.9	4.38
646.23	3.98
646.559	3.81
646.888	3.87
647.218	4.65
647.547	4.09
647.876	4.27
648.205	4.07
648.534	3.88
648.863	4.12
649.192	4.11
649.521	4.04
649.85	4.29
650.179	3.63
650.508	4.11
650.837	4.48
651.165	3.85
651.494	4.68
651.822	3.92
652.151	4.42
652.479	4.12
652.808	4.07
653.136	4.15
653.465	3.85
653.793	4.3
654.121	4.09
654.449	3.72
654.777	4.01
655.105	3.76
655.433	3.7
655.761	4.43
656.089	3.64
656.417	4.23
656.745	4.16
657.073	4.05
657.4	3.79
657.728	4.67
658.056	3.49
658.383	3.91
658.711	3.78
659.038	3.5
659.365	4.56
659.693	3.69
660.02	3.73
660.347	3.76
660.674	3.91
661.001	4.25
661.329	3.83
661.656	4.06
661.982	3.95
662.309	4.15
662.636	4.06
662.963	4.48
663.29	4.37
663.616	4.19
663.943	4.34
664.27	4.21
664.596	4.12
664.923	3.88
665.249	4.14
665.576	4.4
665.902	4.31
666.228	3.69
666.554	4.61
666.881	4.49
667.207	4.46
667.533	4.37
667.859	3.88
668.185	3.99
668.511	3.95
668.837	3.77
669.162	4.45
669.488	4.7
669.814	3.99
670.139	3.98
670.465	4.09
670.791	4.22
671.116	3.82
671.442	4.19
671.767	4.68
672.092	4.52
672.418	4.14
672.743	4.16
673.068	4.59
673.393	3.61
673.718	4.45
674.043	3.71
674.368	4.5
674.693	4.68
675.018	4.52
675.343	4.43
675.667	3.96
675.992	4.5
676.317	3.76
676.641	2.73
676.966	3.74
677.29	3.91
677.615	4.45
677.939	3.73
678.264	4.57
678.588	3.42
678.912	3.69
679.236	4.34
679.56	4.09
679.885	4.22
680.209	3.64
680.532	4.74
680.856	3.35
681.18	4.29
681.504	4.17
681.828	3.84
682.152	4.03
682.475	4.55
682.799	3.79
683.122	3.67
683.446	4.41
683.769	4.41
684.093	4.34
684.416	4.12
684.739	4.01
685.062	4.5
685.386	4.06
685.709	3.99
686.032	4
686.355	3.89
686.678	4.48
687.001	4.12
687.324	4.48
687.646	4.56
687.969	4.13
688.292	3.56
688.614	3.78
688.937	4.34
689.26	5.03
689.582	3.67
689.904	4.4
690.227	4.48
690.549	4.09
690.871	4.11
691.194	3.94
691.516	3.52
691.838	4.2
692.16	4.34
692.482	3.6
692.804	4.61
