Data from 815650_forehead_Reflection__2__132.txt Node

Date: Fri Sep 16 15:45:10 CDT 2022
User: ToomeyLab
Spectrometer: FLMS14357
Trigger mode: 0
Integration Time (sec): 1.000000E-2
Scans to average: 100
Electric dark correction enabled: true
Nonlinearity correction enabled: false
Boxcar width: 0
XAxis mode: Wavelengths
Number of Pixels in Spectrum: 2048
>>>>>Begin Spectral Data<<<<<
189.047	-69.69
189.435	-69.69
189.823	-69.69
190.211	630.96
190.599	56.85
190.987	110.13
191.375	56.82
191.763	198
192.151	-23.48
192.538	-218.21
192.926	-1.62
193.314	46.49
193.702	22.71
194.089	-251.84
194.477	86.87
194.864	53.45
195.252	24.63
195.639	25.94
196.027	135.32
196.414	40.16
196.801	36.69
197.189	106.69
197.576	15.74
197.963	309.14
198.351	12.47
198.738	25.44
199.125	15.77
199.512	-108.85
199.899	28.19
200.286	-29.76
200.673	-20.95
201.06	69.83
201.447	21.14
201.833	-10.3
202.22	16.77
202.607	-14.64
202.994	25.9
203.38	-4.84
203.767	14.02
204.154	-18.48
204.54	10.83
204.927	9.29
205.313	47.47
205.699	41.73
206.086	7.49
206.472	17.76
206.858	40.36
207.245	18.73
207.631	28.64
208.017	18.14
208.403	11.78
208.789	-30.17
209.175	8.56
209.561	-10.08
209.947	-36.8
210.333	-1.67
210.719	12.58
211.105	-6.77
211.491	8.68
211.876	31.61
212.262	-17.53
212.648	-4.83
213.034	49.76
213.419	7.14
213.805	12.27
214.19	-0.76
214.576	14.93
214.961	-22.08
215.346	-42.02
215.732	-54.12
216.117	24.24
216.502	-2.66
216.888	-8.45
217.273	20.65
217.658	7.62
218.043	-40.5
218.428	9.51
218.813	18.45
219.198	-4.34
219.583	0.4
219.968	26.51
220.353	-16.12
220.738	-2.33
221.122	-13.28
221.507	39.12
221.892	21.68
222.276	8.14
222.661	8.02
223.046	8.52
223.43	17.05
223.815	-1.38
224.199	7.55
224.583	14.03
224.968	5.98
225.352	4.24
225.736	10.16
226.121	10.24
226.505	5.07
226.889	2.36
227.273	6.01
227.657	6.51
228.041	0.75
228.425	-5.84
228.809	4.94
229.193	3.5
229.577	2.74
229.961	2.56
230.344	2.82
230.728	3.03
231.112	2.88
231.495	1.97
231.879	3.16
232.263	1.65
232.646	1.5
233.03	3.28
233.413	3.13
233.797	1.21
234.18	4.42
234.563	0.56
234.946	1.99
235.33	2.91
235.713	2.17
236.096	2.79
236.479	1.55
236.862	2.06
237.245	3.47
237.628	5.09
238.011	1.84
238.394	1.53
238.777	2.32
239.16	1.47
239.543	3.08
239.925	2.48
240.308	1
240.691	3.87
241.073	2.53
241.456	1.4
241.838	2.29
242.221	2.29
242.603	2.46
242.986	1.58
243.368	2.31
243.75	1.92
244.133	2.72
244.515	2.21
244.897	2.68
245.279	2.04
245.661	2.98
246.043	1.91
246.425	2.96
246.807	2.8
247.189	1.62
247.571	1.85
247.953	2.17
248.335	2.36
248.717	2.21
249.098	2.34
249.48	2.11
249.862	2.55
250.243	2.27
250.625	2.43
251.006	2.94
251.388	2.76
251.769	1.58
252.151	1.91
252.532	2.04
252.913	2.38
253.295	2.23
253.676	2.67
254.057	1.84
254.438	1.77
254.819	1.67
255.2	0.99
255.581	2.66
255.962	1.95
256.343	2.77
256.724	2.59
257.105	1.58
257.486	2.47
257.867	2.04
258.247	4
258.628	2.76
259.009	2.72
259.389	2.47
259.77	2.55
260.15	2.38
260.531	2.14
260.911	2.16
261.292	2.03
261.672	2.26
262.052	2.13
262.432	2.11
262.813	2.6
263.193	2.07
263.573	2.31
263.953	2.44
264.333	2.3
264.713	2.07
265.093	1.4
265.473	1.67
265.853	3.37
266.233	2.42
266.612	2.78
266.992	1.72
267.372	2.91
267.752	2.18
268.131	2
268.511	2.38
268.89	2.64
269.27	2.25
269.649	2.44
270.029	2.65
270.408	2.23
270.787	2.13
271.167	2.01
271.546	2.4
271.925	2.57
272.304	2.29
272.683	1.75
273.062	2.18
273.441	2.79
273.82	2.41
274.199	2.14
274.578	2.41
274.957	2.46
275.336	2.45
275.715	3.03
276.093	1.95
276.472	2.07
276.851	1.91
277.229	2.39
277.608	3.06
277.986	2.28
278.365	1.57
278.743	2.48
279.122	2.11
279.5	1.66
279.878	2.37
280.257	2.96
280.635	2.49
281.013	2.25
281.391	2.83
281.769	2.45
282.147	2.38
282.525	2.17
282.903	2.41
283.281	1.74
283.659	2.71
284.037	2.58
284.415	2.44
284.792	2.68
285.17	2.28
285.548	1.91
285.925	1.82
286.303	2.63
286.68	2.24
287.058	2.03
287.435	2.06
287.813	2.56
288.19	2.41
288.567	1.99
288.945	2.12
289.322	2.48
289.699	2.35
290.076	2.26
290.453	2.32
290.83	2.59
291.207	2.43
291.584	2.06
291.961	2.41
292.338	2.64
292.715	2.3
293.092	2.29
293.469	2.83
293.845	2.38
294.222	2.22
294.599	2.3
294.975	2.03
295.352	2.6
295.728	2.64
296.105	2.74
296.481	2.22
296.858	2.38
297.234	2.34
297.61	2.92
297.986	2.86
298.363	2.58
298.739	2.43
299.115	3.22
299.491	2.97
299.867	2.46
300.243	2.48
300.619	2.86
300.995	2.49
301.371	2.93
301.746	3.08
302.122	3.12
302.498	3.16
302.874	3.12
303.249	3.22
303.625	2.75
304	3.33
304.376	2.21
304.751	3.21
305.127	2.99
305.502	3.36
305.878	3.44
306.253	3.32
306.628	2.97
307.003	3.53
307.378	3.89
307.754	3.45
308.129	3.32
308.504	3.48
308.879	3.59
309.254	3.45
309.629	3.4
310.003	3.63
310.378	3.07
310.753	3.44
311.128	3.2
311.502	2.9
311.877	3.74
312.252	3.68
312.626	3.69
313.001	3.7
313.375	3.98
313.75	3.96
314.124	3.51
314.498	3.69
314.873	4.23
315.247	4.01
315.621	3.84
315.995	3.64
316.369	4.26
316.743	4.34
317.117	4.14
317.491	3.68
317.865	4.48
318.239	4.35
318.613	4.37
318.987	3.84
319.361	3.51
319.734	4.2
320.108	4.39
320.482	4.88
320.855	4.03
321.229	4.42
321.602	4.82
321.976	4.44
322.349	4.86
322.723	4.43
323.096	4.39
323.469	4.56
323.843	5.37
324.216	5.3
324.589	5.44
324.962	4.79
325.335	5
325.708	5.03
326.081	4.85
326.454	5.53
326.827	4.67
327.2	4.77
327.573	4.78
327.945	4.87
328.318	5.49
328.691	4.93
329.063	4.58
329.436	4.93
329.809	4.54
330.181	5.17
330.553	5.15
330.926	5.11
331.298	5.52
331.671	4.99
332.043	5.04
332.415	5.34
332.787	5.26
333.159	5.38
333.532	5.76
333.904	5.61
334.276	5.65
334.648	5.6
335.02	6.01
335.391	6.03
335.763	5.43
336.135	5.25
336.507	5.71
336.879	5.73
337.25	5
337.622	6.01
337.993	6.07
338.365	5.72
338.736	6.34
339.108	5.89
339.479	6.56
339.851	6.26
340.222	6.1
340.593	5.99
340.964	6.58
341.336	6.09
341.707	5.96
342.078	6.51
342.449	6.45
342.82	6.03
343.191	6.08
343.562	6.23
343.933	6.64
344.303	6.92
344.674	6.05
345.045	6.91
345.416	6.74
345.786	6.57
346.157	6.84
346.527	6.85
346.898	6.61
347.268	7
347.639	6.62
348.009	7.06
348.38	7.33
348.75	6.88
349.12	7.04
349.49	7.21
349.861	7.46
350.231	7.1
350.601	7.02
350.971	7.26
351.341	7.52
351.711	7.01
352.081	7.06
352.45	7.9
352.82	7.54
353.19	7.37
353.56	7.73
353.929	7.62
354.299	7.69
354.669	7.87
355.038	7.62
355.408	7.68
355.777	7.47
356.147	7.53
356.516	7.89
356.885	7.81
357.254	8.02
357.624	7.57
357.993	7.64
358.362	7.9
358.731	8.08
359.1	7.91
359.469	8.01
359.838	8.44
360.207	8.31
360.576	8.07
360.945	8.31
361.314	8.11
361.682	7.94
362.051	8.61
362.42	8.54
362.788	8.41
363.157	8.53
363.525	8.34
363.894	8.61
364.262	8.55
364.631	8.86
364.999	8.38
365.367	9.02
365.735	9.06
366.104	8.99
366.472	9.22
366.84	8.93
367.208	9.13
367.576	9.22
367.944	8.83
368.312	9.32
368.68	9.33
369.048	9.22
369.416	9.31
369.783	9.39
370.151	9.51
370.519	9.35
370.886	9.6
371.254	9.47
371.621	9.96
371.989	9.59
372.356	9.95
372.724	10.22
373.091	9.56
373.458	9.87
373.826	9.82
374.193	10.17
374.56	9.96
374.927	9.67
375.294	10.01
375.661	10.32
376.028	10.55
376.395	9.89
376.762	10.51
377.129	10.32
377.496	10.5
377.863	10.53
378.229	10.32
378.596	10.19
378.963	10.26
379.329	10.33
379.696	10.67
380.062	10.48
380.429	10.78
380.795	10.88
381.161	11.07
381.528	11.12
381.894	10.89
382.26	11.14
382.626	10.89
382.993	11.12
383.359	11.12
383.725	11.21
384.091	11.08
384.457	11.07
384.823	11.34
385.188	11.16
385.554	11.29
385.92	11.44
386.286	11.19
386.651	11.59
387.017	11.57
387.383	11.62
387.748	11.59
388.114	11.42
388.479	12.01
388.845	11.57
389.21	11.85
389.575	11.9
389.94	11.98
390.306	11.62
390.671	11.96
391.036	11.77
391.401	12.16
391.766	12.13
392.131	12.28
392.496	12.02
392.861	12.31
393.226	12.4
393.591	12.33
393.956	12.25
394.32	12.49
394.685	12.41
395.05	12.66
395.414	12.36
395.779	12.67
396.143	12.75
396.508	12.47
396.872	12.84
397.236	12.88
397.601	12.87
397.965	12.58
398.329	12.73
398.694	13.14
399.058	13.21
399.422	12.94
399.786	12.98
400.15	13.4
400.514	13.12
400.878	13.33
401.242	13.13
401.605	13.55
401.969	13.36
402.333	13.49
402.697	13.26
403.06	13.6
403.424	13.57
403.787	13.72
404.151	13.58
404.514	13.74
404.878	13.62
405.241	13.69
405.604	13.81
405.968	13.94
406.331	13.93
406.694	13.69
407.057	13.84
407.42	13.86
407.783	13.85
408.146	14.21
408.509	14.41
408.872	14.3
409.235	14.41
409.598	14.19
409.961	14.57
410.323	14.31
410.686	14.82
411.049	14.39
411.411	14.55
411.774	14.55
412.136	14.51
412.499	14.62
412.861	14.99
413.223	14.76
413.586	15
413.948	14.99
414.31	15.06
414.672	14.93
415.035	15.07
415.397	14.92
415.759	15.11
416.121	15.16
416.483	15.12
416.845	15.29
417.206	15.26
417.568	15.29
417.93	15.31
418.292	15.43
418.653	15.18
419.015	15.24
419.377	15.28
419.738	15.2
420.1	15.29
420.461	15.35
420.822	15.42
421.184	15.46
421.545	15.44
421.906	15.58
422.267	15.55
422.629	15.38
422.99	15.47
423.351	15.63
423.712	15.55
424.073	15.9
424.434	15.85
424.795	15.91
425.155	16.01
425.516	15.85
425.877	15.83
426.238	16.07
426.598	16.09
426.959	16.16
427.32	16.24
427.68	16.33
428.041	16.53
428.401	16.62
428.761	16.74
429.122	16.93
429.482	16.95
429.842	16.98
430.202	17.07
430.563	17.07
430.923	17.19
431.283	17.16
431.643	17.31
432.003	17.15
432.363	17.32
432.722	17.45
433.082	17.32
433.442	17.49
433.802	17.43
434.161	17.34
434.521	17.42
434.881	17.39
435.24	17.4
435.6	17.6
435.959	17.68
436.319	17.6
436.678	17.71
437.037	17.79
437.396	17.92
437.756	17.93
438.115	18
438.474	17.96
438.833	18.03
439.192	18.09
439.551	18.16
439.91	18.08
440.269	18.22
440.628	18.26
440.987	18.23
441.345	18.13
441.704	18.17
442.063	18.19
442.421	18.21
442.78	18.31
443.138	18.44
443.497	18.54
443.855	18.68
444.214	18.73
444.572	18.99
444.93	18.97
445.288	18.79
445.647	18.97
446.005	18.75
446.363	19.01
446.721	18.87
447.079	18.81
447.437	18.79
447.795	18.71
448.153	18.79
448.51	18.81
448.868	18.91
449.226	19
449.584	19.27
449.941	19.24
450.299	19.35
450.656	19.48
451.014	19.64
451.371	19.89
451.729	19.81
452.086	19.9
452.443	19.95
452.801	20.25
453.158	20.05
453.515	19.88
453.872	19.94
454.229	20.07
454.586	19.96
454.943	19.95
455.3	20.41
455.657	20.29
456.014	20.32
456.371	20.35
456.727	20.4
457.084	20.44
457.441	20.65
457.797	20.7
458.154	20.66
458.51	20.91
458.867	20.74
459.223	20.85
459.58	20.87
459.936	20.76
460.292	20.85
460.648	20.53
461.005	20.58
461.361	20.37
461.717	20.26
462.073	20.65
462.429	20.92
462.785	21.25
463.141	21.13
463.496	21.5
463.852	21.32
464.208	21.34
464.564	21.76
464.919	21.61
465.275	21.59
465.631	21.76
465.986	21.74
466.342	21.7
466.697	21.86
467.052	21.92
467.408	21.92
467.763	22.04
468.118	21.74
468.473	22.03
468.829	21.99
469.184	21.96
469.539	22.27
469.894	22.29
470.249	22.32
470.603	22.52
470.958	22.53
471.313	22.58
471.668	22.53
472.023	22.55
472.377	22.49
472.732	22.66
473.086	22.56
473.441	22.75
473.795	22.66
474.15	22.75
474.504	22.8
474.859	22.71
475.213	22.97
475.567	22.76
475.921	23.07
476.275	23.17
476.63	23.22
476.984	23.32
477.338	23.18
477.692	23.1
478.045	23.31
478.399	23.15
478.753	23.4
479.107	23.13
479.461	23.23
479.814	23.4
480.168	23.28
480.521	23.52
480.875	23.51
481.228	23.58
481.582	23.65
481.935	23.44
482.289	23.48
482.642	23.54
482.995	23.37
483.348	23.48
483.701	23.46
484.055	23.19
484.408	23.23
484.761	22.79
485.114	22.38
485.466	22.22
485.819	22.44
486.172	22.89
486.525	23.21
486.878	23.48
487.23	23.61
487.583	23.67
487.936	23.66
488.288	23.5
488.641	23.21
488.993	22.98
489.345	23.11
489.698	23.16
490.05	23.44
490.402	23.69
490.754	24.08
491.107	24.17
491.459	24.34
491.811	24.41
492.163	24.24
492.515	24.08
492.866	23.69
493.218	23.46
493.57	23.6
493.922	24.15
494.274	24.36
494.625	24.55
494.977	24.9
495.328	25.04
495.68	25.22
496.031	25.29
496.383	25.26
496.734	25.46
497.086	25.39
497.437	25.45
497.788	25.28
498.139	25.32
498.49	24.99
498.842	25.15
499.193	25.47
499.544	25.5
499.894	25.41
500.245	25.65
500.596	25.62
500.947	25.66
501.298	25.81
501.648	25.95
501.999	25.89
502.35	26.04
502.7	26.28
503.051	26.22
503.401	26.19
503.752	26.28
504.102	26.41
504.452	26.3
504.803	26.43
505.153	26.45
505.503	26.22
505.853	26.41
506.203	26.48
506.553	26.33
506.903	26.53
507.253	26.55
507.603	26.52
507.953	26.82
508.303	26.73
508.652	26.71
509.002	26.65
509.352	26.72
509.701	26.73
510.051	26.69
510.4	26.63
510.75	26.51
511.099	26.59
511.449	26.63
511.798	26.68
512.147	26.8
512.496	27
512.846	27.02
513.195	27.08
513.544	27.01
513.893	26.89
514.242	26.98
514.591	27.06
514.939	27.29
515.288	27.53
515.637	27.58
515.986	27.47
516.334	27.57
516.683	27.69
517.032	27.72
517.38	27.74
517.729	27.94
518.077	27.52
518.426	27.74
518.774	27.54
519.122	27.57
519.47	27.44
519.819	27.39
520.167	27.15
520.515	27.18
520.863	27.22
521.211	27.56
521.559	27.71
521.907	27.77
522.255	27.88
522.602	28.11
522.95	28.25
523.298	28.29
523.645	28.44
523.993	28.38
524.341	28.43
524.688	28.42
525.036	28.44
525.383	28.55
525.73	28.44
526.078	28.34
526.425	28.2
526.772	28.12
527.119	27.79
527.466	27.74
527.814	27.93
528.161	28.09
528.508	28.13
528.854	28.14
529.201	28.03
529.548	27.61
529.895	27.36
530.242	27.1
530.588	27.3
530.935	27.7
531.282	28.12
531.628	28.31
531.975	28.54
532.321	28.66
532.667	28.82
533.014	28.82
533.36	28.73
533.706	28.81
534.052	28.53
534.399	28.51
534.745	28.08
535.091	27.93
535.437	28.29
535.783	28.7
536.129	28.86
536.474	29.16
536.82	29.5
537.166	29.39
537.512	29.4
537.857	29.16
538.203	28.81
538.549	28.81
538.894	29
539.239	29.46
539.585	29.57
539.93	29.71
540.276	29.81
540.621	29.89
540.966	29.82
541.311	29.96
541.656	29.85
542.001	29.52
542.346	29.29
542.691	28.8
543.036	28.42
543.381	28.71
543.726	29.16
544.071	29.52
544.415	29.65
544.76	29.63
545.105	29.64
545.449	29.89
545.794	30.11
546.138	30.17
546.483	30.44
546.827	30.43
547.171	30.37
547.516	30.1
547.86	30.09
548.204	30.37
548.548	30.13
548.892	30.19
549.236	30.45
549.58	30.69
549.924	30.98
550.268	31.05
550.612	31.17
550.956	31.09
551.3	31.21
551.643	31.35
551.987	31.23
552.33	31.25
552.674	31.2
553.017	31.36
553.361	31.39
553.704	31.46
554.048	31.23
554.391	31.19
554.734	31.15
555.077	31.29
555.42	31.52
555.764	31.85
556.107	31.73
556.45	31.67
556.793	32.06
557.135	31.86
557.478	31.78
557.821	32
558.164	32.05
558.507	32.18
558.849	32.03
559.192	32.07
559.534	32.11
559.877	32.24
560.219	32.1
560.562	32.21
560.904	32.22
561.246	32.21
561.589	32.38
561.931	32.3
562.273	32.39
562.615	32.43
562.957	32.24
563.299	32.36
563.641	32.46
563.983	32.42
564.325	32.51
564.667	32.61
565.008	32.57
565.35	32.95
565.692	32.62
566.033	32.69
566.375	32.54
566.716	32.62
567.058	32.5
567.399	32.56
567.741	32.19
568.082	32.33
568.423	32.13
568.764	32.44
569.105	32.71
569.447	32.94
569.788	33.12
570.129	32.96
570.47	32.75
570.811	32.89
571.151	33.12
571.492	32.85
571.833	33.06
572.174	33.16
572.514	33.14
572.855	32.89
573.195	32.94
573.536	32.92
573.876	32.74
574.217	32.9
574.557	33.15
574.898	33.27
575.238	33.32
575.578	33.45
575.918	33.35
576.258	33.31
576.598	33.2
576.938	33.05
577.278	33.26
577.618	33.39
577.958	33.48
578.298	33.48
578.638	33.54
578.977	33.73
579.317	33.76
579.657	33.93
579.996	34.06
580.336	33.98
580.675	33.94
581.014	34.12
581.354	34.29
581.693	33.97
582.032	34.21
582.372	34.24
582.711	34.25
583.05	34.39
583.389	34.35
583.728	34.41
584.067	34.41
584.406	34.75
584.745	34.61
585.083	34.37
585.422	34.55
585.761	34.28
586.1	34.62
586.438	34.56
586.777	34.45
587.115	34.61
587.454	34.69
587.792	34.64
588.13	34.88
588.469	34.7
588.807	34.57
589.145	34.8
589.483	34.92
589.821	34.99
590.159	34.71
590.497	34.82
590.835	34.93
591.173	34.93
591.511	34.88
591.849	34.94
592.187	34.91
592.524	34.44
592.862	34.92
593.2	34.88
593.537	35.1
593.875	35.18
594.212	35.23
594.55	35.17
594.887	35.41
595.224	35.35
595.561	35.2
595.899	35.21
596.236	35.16
596.573	35.21
596.91	35.22
597.247	35.16
597.584	35.13
597.921	35.25
598.258	35.26
598.594	34.82
598.931	34.5
599.268	35
599.604	35.09
599.941	35.42
600.277	35.48
600.614	35.62
600.95	35.85
601.287	35.69
601.623	35.8
601.959	35.95
602.296	35.83
602.632	35.74
602.968	35.97
603.304	36.14
603.64	35.65
603.976	35.97
604.312	35.72
604.648	35.7
604.984	35.46
605.319	35.77
605.655	35.57
605.991	35.68
606.326	35.55
606.662	35.45
606.998	35.55
607.333	35.84
607.668	35.9
608.004	35.95
608.339	36.2
608.674	36.14
609.01	36.45
609.345	36.44
609.68	36.32
610.015	36.17
610.35	36.3
610.685	36.32
611.02	35.95
611.355	35.73
611.689	36.09
612.024	36.4
612.359	36.28
612.694	36.5
613.028	36.26
613.363	36.48
613.697	37.04
614.032	36.49
614.366	36.59
614.7	36.71
615.035	36.79
615.369	36.92
615.703	36.75
616.037	36.94
616.371	36.93
616.705	36.93
617.039	37
617.373	36.66
617.707	37.12
618.041	36.54
618.375	37.43
618.709	37.15
619.042	37.23
619.376	37.03
619.71	37.19
620.043	37.3
620.377	37.06
620.71	37.3
621.043	37.61
621.377	37.59
621.71	37.3
622.043	37.18
622.376	36.9
622.709	37.21
623.043	37.39
623.376	37.04
623.709	37.16
624.041	37.69
624.374	37.13
624.707	37.72
625.04	37.44
625.373	37.6
625.705	37.54
626.038	37.62
626.37	37.61
626.703	37.59
627.035	37.22
627.368	37.67
627.7	37.12
628.032	37.06
628.365	37.07
628.697	37.23
629.029	37.61
629.361	37.42
629.693	37.74
630.025	37.79
630.357	37.67
630.689	37.87
631.021	37.4
631.353	37.73
631.684	37.92
632.016	38.12
632.348	38.02
632.679	38.08
633.011	37.83
633.342	38.29
633.674	38.67
634.005	38.16
634.336	37.73
634.668	38.07
634.999	37.45
635.33	37.73
635.661	37.97
635.992	37.7
636.323	38.15
636.654	37.94
636.985	38.32
637.316	38.22
637.647	38.35
637.977	38.25
638.308	38.51
638.639	38.22
638.969	38.15
639.3	38.52
639.63	38.58
639.961	38.39
640.291	38.53
640.622	38.34
640.952	38.88
641.282	38.23
641.612	38.88
641.943	38.36
642.273	37.94
642.603	39.09
642.933	38.55
643.263	38.67
643.592	38.78
643.922	38.76
644.252	38.85
644.582	38.98
644.911	38.91
645.241	38.88
645.571	39.07
645.9	38.82
646.23	38.54
646.559	38.87
646.888	38.61
647.218	39.22
647.547	38.84
647.876	39.09
648.205	39.17
648.534	38.89
648.863	39.06
649.192	39.03
649.521	38.99
649.85	38.94
650.179	38.56
650.508	39.55
650.837	39.2
651.165	38.74
651.494	39.78
651.822	39.23
652.151	39.2
652.479	39.15
652.808	39.01
653.136	39.01
653.465	39.36
653.793	39.39
654.121	39.8
654.449	39.21
654.777	39.61
655.105	39.36
655.433	38.76
655.761	39.25
656.089	39.49
656.417	39.37
656.745	39.41
657.073	40.18
657.4	39.48
657.728	40.14
658.056	39.12
658.383	39.75
658.711	39.61
659.038	39.34
659.365	39.45
659.693	39.49
660.02	39
660.347	39.54
660.674	39.31
661.001	39.22
661.329	39.36
661.656	39.39
661.982	39.6
662.309	39.29
662.636	39.9
662.963	40.05
663.29	40.08
663.616	39.94
663.943	39.79
664.27	39.69
664.596	39.73
664.923	40.04
665.249	40.27
665.576	39.57
665.902	40.54
666.228	40.11
666.554	40.52
666.881	39.71
667.207	39.88
667.533	40.19
667.859	40.2
668.185	40.36
668.511	40.03
668.837	40.03
669.162	40.19
669.488	40.63
669.814	40.6
670.139	40.05
670.465	40.14
670.791	39.88
671.116	40.05
671.442	40.39
671.767	40.85
672.092	40.1
