Data from 0185_forehead_Reflection_Reflection__1__001.txt Node

Date: Mon Aug 28 18:36:20 CDT 2023
User: ToomeyLab
Spectrometer: FLMS14357
Trigger mode: 0
Integration Time (sec): 1.000000E-2
Scans to average: 100
Electric dark correction enabled: true
Nonlinearity correction enabled: false
Boxcar width: 0
XAxis mode: Wavelengths
Number of Pixels in Spectrum: 2048
>>>>>Begin Spectral Data<<<<<
189.047	-160.05
189.435	-160.05
189.823	-160.05
190.211	-3497.67
190.599	249.74
190.987	-258.73
191.375	-111.46
191.763	67.03
192.151	-93.32
192.538	14.64
192.926	139.88
193.314	502.03
193.702	155.46
194.089	142.98
194.477	1430.59
194.864	-247.73
195.252	159.36
195.639	1476.92
196.027	93.79
196.414	468.41
196.801	99.64
197.189	165.26
197.576	-336.84
197.963	58.59
198.351	30.71
198.738	130.18
199.125	31.15
199.512	118.82
199.899	70.52
200.286	140.8
200.673	58.06
201.06	16.91
201.447	43.9
201.833	-11.95
202.22	49.49
202.607	51.09
202.994	41.73
203.38	40.06
203.767	96.31
204.154	31.99
204.54	-0.14
204.927	19.29
205.313	70.49
205.699	40.36
206.086	75.71
206.472	40.88
206.858	50.06
207.245	50.73
207.631	48.56
208.017	44.32
208.403	35.54
208.789	17.7
209.175	45.43
209.561	70.89
209.947	22.5
210.333	14.02
210.719	52.51
211.105	72.76
211.491	20.29
211.876	61.43
212.262	144.92
212.648	69.57
213.034	42.15
213.419	42.9
213.805	31.78
214.19	41.8
214.576	32.62
214.961	50.35
215.346	46.2
215.732	47.03
216.117	47.27
216.502	28.77
216.888	25.3
217.273	7.79
217.658	30.38
218.043	43.83
218.428	34.74
218.813	27.09
219.198	58.77
219.583	32.35
219.968	36.89
220.353	23.24
220.738	16.35
221.122	32.98
221.507	22.24
221.892	12.56
222.276	30.72
222.661	27.22
223.046	21.4
223.43	24.98
223.815	19.26
224.199	29.78
224.583	18.86
224.968	16.75
225.352	10.16
225.736	18.71
226.121	9.09
226.505	7.09
226.889	13.88
227.273	12.27
227.657	15.48
228.041	14.61
228.425	10.58
228.809	9.16
229.193	11.77
229.577	12.5
229.961	9
230.344	9.1
230.728	7.41
231.112	7.42
231.495	8.2
231.879	7.8
232.263	8.37
232.646	8.86
233.03	10.14
233.413	11.18
233.797	8.15
234.18	8
234.563	10.24
234.946	14.04
235.33	9.7
235.713	6.63
236.096	8.71
236.479	7.32
236.862	9.78
237.245	6.64
237.628	8.16
238.011	11.99
238.394	10.19
238.777	10.74
239.16	8.44
239.543	7.53
239.925	8.12
240.308	9.79
240.691	9.04
241.073	9.37
241.456	8.7
241.838	8.34
242.221	9.38
242.603	9.08
242.986	8.67
243.368	8.65
243.75	6.96
244.133	7.6
244.515	7.25
244.897	7.99
245.279	8.1
245.661	7.63
246.043	8.23
246.425	7.71
246.807	10.08
247.189	6.63
247.571	8.17
247.953	7.51
248.335	7.38
248.717	7.5
249.098	7.51
249.48	7.29
249.862	7.49
250.243	7.55
250.625	8.02
251.006	7.58
251.388	7.88
251.769	8.77
252.151	9.14
252.532	8.1
252.913	10.04
253.295	6.96
253.676	7.97
254.057	8.05
254.438	7.49
254.819	7.4
255.2	8.57
255.581	7.99
255.962	10.41
256.343	9.72
256.724	8.46
257.105	7.57
257.486	9.51
257.867	8.66
258.247	8.02
258.628	9.08
259.009	7.88
259.389	8.14
259.77	8.05
260.15	7.54
260.531	7.68
260.911	7.96
261.292	7.75
261.672	7.3
262.052	7.13
262.432	7.27
262.813	7.35
263.193	7.16
263.573	7.69
263.953	7.3
264.333	7.85
264.713	7.52
265.093	8.43
265.473	7.69
265.853	8.02
266.233	7.5
266.612	8.56
266.992	7.97
267.372	8.36
267.752	8.2
268.131	7.86
268.511	7.47
268.89	7.81
269.27	7.15
269.649	7.45
270.029	8.24
270.408	7.58
270.787	7.46
271.167	7.48
271.546	7.26
271.925	7.26
272.304	7.06
272.683	8.01
273.062	7.48
273.441	7.78
273.82	7.37
274.199	7.23
274.578	7.19
274.957	7.38
275.336	7.51
275.715	7.89
276.093	6.91
276.472	7.69
276.851	7.83
277.229	7.74
277.608	7.26
277.986	7.1
278.365	7.64
278.743	7.22
279.122	7.29
279.5	7.05
279.878	6.98
280.257	7.28
280.635	7.24
281.013	7.57
281.391	7.12
281.769	7.17
282.147	7.55
282.525	7.28
282.903	7.41
283.281	7.2
283.659	7.62
284.037	7.66
284.415	7.39
284.792	7.28
285.17	6.87
285.548	7.01
285.925	7.75
286.303	7.54
286.68	8.12
287.058	7.56
287.435	7.27
287.813	7.24
288.19	7.85
288.567	7.27
288.945	7.41
289.322	7.47
289.699	8
290.076	8
290.453	8.04
290.83	6.91
291.207	7.27
291.584	7.79
291.961	7.96
292.338	7.65
292.715	7.76
293.092	8.49
293.469	8.15
293.845	8
294.222	8.13
294.599	8.48
294.975	8.66
295.352	8.11
295.728	8.75
296.105	8.54
296.481	8.3
296.858	8.96
297.234	8.9
297.61	9.01
297.986	8.24
298.363	8.73
298.739	9.03
299.115	8.74
299.491	9.13
299.867	9.01
300.243	9.29
300.619	9.09
300.995	9.5
301.371	9.23
301.746	9.78
302.122	9.81
302.498	9.55
302.874	10.21
303.249	10.09
303.625	9.66
304	9.85
304.376	9.58
304.751	10.39
305.127	10.65
305.502	10.68
305.878	10.7
306.253	10.49
306.628	10.82
307.003	10.67
307.378	11.34
307.754	11.98
308.129	10.79
308.504	11.64
308.879	11.76
309.254	11.65
309.629	11.91
310.003	12.01
310.378	12.08
310.753	12.4
311.128	12.56
311.502	12.58
311.877	12.56
312.252	12.76
312.626	12.74
313.001	12.69
313.375	12.97
313.75	13.14
314.124	13.14
314.498	13.24
314.873	13.79
315.247	14.33
315.621	13.71
315.995	13.74
316.369	14.64
316.743	14.04
317.117	14.43
317.491	14.22
317.865	14.64
318.239	15.06
318.613	15.26
318.987	15.64
319.361	15.81
319.734	15.29
320.108	16.06
320.482	16.18
320.855	15.99
321.229	15.81
321.602	16.41
321.976	16.08
322.349	16.8
322.723	16.87
323.096	16.67
323.469	17.1
323.843	17
324.216	17.26
324.589	17.3
324.962	17.86
325.335	17.82
325.708	17.47
326.081	17.52
326.454	18.17
326.827	17.97
327.2	17.86
327.573	18.22
327.945	18.66
328.318	18.85
328.691	18.36
329.063	18.22
329.436	18.63
329.809	19.22
330.181	18.16
330.553	19.15
330.926	19.15
331.298	19.49
331.671	19.51
332.043	19.73
332.415	20.43
332.787	19.16
333.159	19.8
333.532	20.93
333.904	20.34
334.276	20.11
334.648	20.75
335.02	20.81
335.391	20.57
335.763	20.5
336.135	20.9
336.507	20.57
336.879	20.56
337.25	21.02
337.622	21.08
337.993	21.51
338.365	21.68
338.736	22.09
339.108	21.28
339.479	21.59
339.851	22.43
340.222	21.84
340.593	22.01
340.964	22.28
341.336	22.01
341.707	22.77
342.078	22.45
342.449	22.64
342.82	23.44
343.191	23.19
343.562	22.6
343.933	23.17
344.303	23.05
344.674	23.94
345.045	23.42
345.416	23.46
345.786	24.22
346.157	23.92
346.527	23.51
346.898	23.68
347.268	23.56
347.639	24.27
348.009	24.01
348.38	24.71
348.75	24.35
349.12	25.29
349.49	24.55
349.861	24.78
350.231	25.38
350.601	25.18
350.971	25.55
351.341	25.37
351.711	25.12
352.081	25.44
352.45	25.57
352.82	25.99
353.19	25.76
353.56	26.16
353.929	26.19
354.299	25.83
354.669	26.33
355.038	26.64
355.408	26.34
355.777	26.87
356.147	26.64
356.516	26.53
356.885	26.62
357.254	26.57
357.624	26.81
357.993	27.29
358.362	27.14
358.731	27.19
359.1	27.81
359.469	27.96
359.838	27.45
360.207	27.5
360.576	28.13
360.945	28.23
361.314	27.87
361.682	27.94
362.051	28.33
362.42	28.41
362.788	28.39
363.157	28.02
363.525	28.55
363.894	28.67
364.262	28.73
364.631	28.58
364.999	28.91
365.367	29.38
365.735	29.66
366.104	28.87
366.472	29.25
366.84	29.57
367.208	29.79
367.576	29.54
367.944	29.85
368.312	29.76
368.68	29.84
369.048	29.62
369.416	30.23
369.783	29.93
370.151	30.7
370.519	30.86
370.886	30.57
371.254	30.68
371.621	31.07
371.989	31.17
372.356	31.06
372.724	31.38
373.091	31.51
373.458	31.36
373.826	31.47
374.193	31.6
374.56	31.3
374.927	31.83
375.294	32.03
375.661	32.06
376.028	32.33
376.395	32.33
376.762	32.83
377.129	32.47
377.496	32.54
377.863	32.83
378.229	32.61
378.596	32.97
378.963	33.23
379.329	32.99
379.696	33.28
380.062	33.24
380.429	33.27
380.795	33.7
381.161	33.74
381.528	34.06
381.894	34.23
382.26	34.09
382.626	34.42
382.993	34.22
383.359	34.23
383.725	34.57
384.091	34.71
384.457	34.34
384.823	35.01
385.188	35.13
385.554	34.47
385.92	35.34
386.286	35.18
386.651	35.08
387.017	35.5
387.383	35.71
387.748	35.64
388.114	35.7
388.479	35.47
388.845	36.12
389.21	35.98
389.575	36.25
389.94	36.11
390.306	36.53
390.671	36.43
391.036	36.44
391.401	36.86
391.766	36.77
392.131	36.54
392.496	36.77
392.861	37.2
393.226	36.95
393.591	37.1
393.956	37.23
394.32	37.44
394.685	37.31
395.05	37.58
395.414	37.62
395.779	37.81
396.143	38.13
396.508	37.8
396.872	38.31
397.236	38.27
397.601	38.44
397.965	38.39
398.329	38.51
398.694	38.25
399.058	39.05
399.422	38.76
399.786	39.34
400.15	39.05
400.514	39.11
400.878	39.6
401.242	39.21
401.605	39.67
401.969	39.44
402.333	39.35
402.697	39.39
403.06	40.03
403.424	40.26
403.787	40.01
404.151	39.87
404.514	40.24
404.878	40.25
405.241	40.63
405.604	40.46
405.968	40.58
406.331	40.67
406.694	40.23
407.057	40.66
407.42	40.6
407.783	40.87
408.146	41.21
408.509	41.28
408.872	40.98
409.235	41.51
409.598	41.67
409.961	41.65
410.323	41.99
410.686	42.03
411.049	41.85
411.411	42.02
411.774	41.9
412.136	41.96
412.499	42.22
412.861	42.42
413.223	42.43
413.586	42.34
413.948	42.89
414.31	42.92
414.672	43.13
415.035	43.01
415.397	42.7
415.759	43.18
416.121	43.42
416.483	43.23
416.845	43.63
417.206	43.64
417.568	43.57
417.93	43.48
418.292	43.43
418.653	43.65
419.015	43.82
419.377	43.75
419.738	44.01
420.1	43.79
420.461	43.62
420.822	43.73
421.184	43.88
421.545	44.02
421.906	44.04
422.267	43.99
422.629	44.03
422.99	43.98
423.351	44.16
423.712	44.04
424.073	44.37
424.434	44.5
424.795	44.68
425.155	44.85
425.516	44.72
425.877	44.8
426.238	44.99
426.598	44.89
426.959	45.13
427.32	44.84
427.68	45.11
428.041	45.38
428.401	45.46
428.761	46.01
429.122	45.97
429.482	46.31
429.842	46.37
430.202	46.56
430.563	46.54
430.923	46.65
431.283	46.6
431.643	46.99
432.003	47.12
432.363	47.19
432.722	47.14
433.082	47.15
433.442	47.49
433.802	47.38
434.161	47.67
434.521	47.49
434.881	47.39
435.24	47.54
435.6	47.62
435.959	47.37
436.319	47.83
436.678	47.95
437.037	48.09
437.396	48.39
437.756	48.26
438.115	48.51
438.474	48.54
438.833	48.69
439.192	48.98
439.551	48.62
439.91	48.8
440.269	48.97
440.628	48.88
440.987	48.85
441.345	48.96
441.704	49.05
442.063	48.83
442.421	48.84
442.78	49.23
443.138	49.32
443.497	49.39
443.855	49.34
444.214	49.51
444.572	49.73
444.93	49.72
445.288	49.91
445.647	50.08
446.005	50.1
446.363	50.09
446.721	50.16
447.079	50.12
447.437	50.23
447.795	50.14
448.153	50.03
448.51	49.96
448.868	50.21
449.226	50.21
449.584	50.41
449.941	50.59
450.299	50.91
450.656	50.87
451.014	51.25
451.371	51.16
451.729	51.38
452.086	51.49
452.443	51.7
452.801	51.96
453.158	52.14
453.515	52.14
453.872	51.91
454.229	52.27
454.586	52.33
454.943	52.26
455.3	52.13
455.657	52.09
456.014	52.32
456.371	52.28
456.727	52.52
457.084	52.36
457.441	52.97
457.797	52.74
458.154	53.07
458.51	53.17
458.867	53.26
459.223	52.92
459.58	53.24
459.936	53.64
460.292	53.48
460.648	53.39
461.005	53.32
461.361	53.01
461.717	52.98
462.073	53.06
462.429	52.93
462.785	53.13
463.141	53.24
463.496	53.51
463.852	53.8
464.208	54.29
464.564	54.37
464.919	54.34
465.275	54.59
465.631	54.39
465.986	55.11
466.342	55.06
466.697	54.55
467.052	54.86
467.408	54.79
467.763	55.19
468.118	54.77
468.473	55.14
468.829	55.21
469.184	55.4
469.539	55.1
469.894	55.22
470.249	55.35
470.603	55.44
470.958	55.64
471.313	55.75
471.668	55.86
472.023	56.17
472.377	55.92
472.732	56.19
473.086	56.19
473.441	56.07
473.795	56.36
474.15	56.08
474.504	56.66
474.859	56.58
475.213	56.57
475.567	56.56
475.921	56.94
476.275	56.71
476.63	57.04
476.984	56.87
477.338	57.07
477.692	56.87
478.045	57.23
478.399	57.06
478.753	57.12
479.107	57.13
479.461	57.21
479.814	57.51
480.168	57.39
480.521	57.51
480.875	57.7
481.228	57.4
481.582	57.42
481.935	57.65
482.289	57.63
482.642	58.03
482.995	58.16
483.348	57.92
483.701	58.12
484.055	57.84
484.408	57.65
484.761	57.52
485.114	57.54
485.466	57.32
485.819	57.66
486.172	57.58
486.525	57.59
486.878	57.35
487.23	57.24
487.583	57.54
487.936	57.79
488.288	58.07
488.641	58.26
488.993	58.39
489.345	58.17
489.698	58.04
490.05	58.14
490.402	58.14
490.754	58.2
491.107	58.24
491.459	58.43
491.811	58.73
492.163	59.04
492.515	59.24
492.866	59.24
493.218	58.99
493.57	58.91
493.922	58.92
494.274	58.89
494.625	58.79
494.977	58.97
495.328	59.25
495.68	59.66
496.031	60.13
496.383	60.2
496.734	60.51
497.086	60.51
497.437	60.54
497.788	60.91
498.139	60.75
498.49	61.08
498.842	60.89
499.193	60.57
499.544	60.47
499.894	60.58
500.245	60.95
500.596	60.84
500.947	60.87
501.298	61.12
501.648	61.39
501.999	61.4
502.35	61.56
502.7	61.59
503.051	61.75
503.401	61.51
503.752	61.73
504.102	61.78
504.452	61.91
504.803	61.8
505.153	62.15
505.503	62.05
505.853	62.13
506.203	62.39
506.553	62.13
506.903	62.32
507.253	62.55
507.603	62.19
507.953	62.45
508.303	62.58
508.652	62.86
509.002	62.73
509.352	62.76
509.701	62.77
510.051	63.03
510.4	62.62
510.75	62.7
511.099	62.7
511.449	62.7
511.798	62.8
512.147	62.96
512.496	63.02
512.846	63.19
513.195	63.41
513.544	63.31
513.893	63.32
514.242	63.37
514.591	63.44
514.939	63.41
515.288	63.68
515.637	63.84
515.986	63.9
516.334	63.9
516.683	63.97
517.032	63.99
517.38	64.18
517.729	64.05
518.077	64.41
518.426	64.27
518.774	64.67
519.122	64.35
519.47	64.23
519.819	64.33
520.167	64.15
520.515	63.9
520.863	63.81
521.211	64.12
521.559	63.9
521.907	64.02
522.255	64.11
522.602	64.64
522.95	64.59
523.298	65.02
523.645	65.04
523.993	65.22
524.341	65.23
524.688	65.4
525.036	65.26
525.383	65.44
525.73	65.47
526.078	65.45
526.425	65.36
526.772	65.57
527.119	65.41
527.466	65.15
527.814	64.95
528.161	65.05
528.508	65.09
528.854	65.21
529.201	65.45
529.548	65.38
529.895	65.37
530.242	65.36
530.588	65.39
530.935	65.52
531.282	65.32
531.628	65.14
531.975	64.91
532.321	65.41
532.667	65.29
533.014	65.52
533.36	65.84
533.706	65.97
534.052	66.16
534.399	66.07
534.745	66.2
535.091	66.03
535.437	66.1
535.783	66.11
536.129	65.97
536.474	66.13
536.82	66.13
537.166	66.43
537.512	66.71
537.857	66.74
538.203	66.8
538.549	66.74
538.894	66.65
539.239	66.76
539.585	66.83
539.93	66.82
540.276	67.06
540.621	67.28
540.966	67.55
541.311	67.64
541.656	67.87
542.001	67.83
542.346	68.04
542.691	67.63
543.036	67.52
543.381	67.2
543.726	67.14
544.071	67.22
544.415	67.19
544.76	67.28
545.105	67.49
545.449	67.64
545.794	67.67
546.138	67.72
546.483	68.01
546.827	68.17
547.171	68.56
547.516	68.35
547.86	68.5
548.204	68.68
548.548	68.34
548.892	68.48
549.236	68.57
549.58	68.6
549.924	68.62
550.268	68.98
550.612	69.17
550.956	69.17
551.3	69.23
551.643	69.58
551.987	69.52
552.33	69.48
552.674	69.65
553.017	69.9
553.361	70.03
553.704	69.78
554.048	69.96
554.391	69.89
554.734	70.09
555.077	69.93
555.42	69.69
555.764	70.05
556.107	69.95
556.45	70.04
556.793	70.28
557.135	70.6
557.478	70.56
557.821	70.53
558.164	70.59
558.507	70.79
558.849	70.6
559.192	70.83
559.534	70.59
559.877	70.78
560.219	70.91
560.562	70.79
560.904	71
561.246	71.08
561.589	71.2
561.931	70.74
562.273	71.17
562.615	71.23
562.957	71.09
563.299	71.3
563.641	71.09
563.983	71.08
564.325	71.22
564.667	71.23
565.008	71.5
565.35	71.72
565.692	71.6
566.033	71.54
566.375	71.37
566.716	71.56
567.058	72.21
567.399	71.67
567.741	71.95
568.082	71.6
568.423	71.52
568.764	71.45
569.105	71.74
569.447	71.57
569.788	71.53
570.129	71.81
570.47	72.38
570.811	72.45
571.151	72.23
571.492	72.3
571.833	72.04
572.174	72.33
572.514	72.44
572.855	72.51
573.195	72.5
573.536	72.17
573.876	72.43
574.217	72.67
574.557	72.33
574.898	72.79
575.238	72.33
575.578	72.88
575.918	72.49
576.258	72.64
576.598	72.99
576.938	72.45
577.278	73.15
577.618	73.37
577.958	73.03
578.298	73.18
578.638	73.34
578.977	73.04
579.317	73.26
579.657	73.42
579.996	73.48
580.336	73.34
580.675	73.77
581.014	74.05
581.354	73.86
581.693	74.37
582.032	74.2
582.372	74.34
582.711	74.1
583.05	74.31
583.389	74.43
583.728	74.44
584.067	74.64
584.406	74.4
584.745	74.14
585.083	74.64
585.422	74.29
585.761	74.46
586.1	74.63
586.438	74.84
586.777	74.7
587.115	74.48
587.454	74.5
587.792	75.09
588.13	75.03
588.469	74.96
588.807	74.93
589.145	75.25
589.483	75.09
589.821	75.28
590.159	75.23
590.497	75.4
590.835	75.07
591.173	75.01
591.511	75.24
591.849	74.8
592.187	74.98
592.524	75.06
592.862	75.16
593.2	74.68
593.537	75.13
593.875	75.75
594.212	75.86
594.55	75.64
594.887	75.77
595.224	75.78
595.561	76.13
595.899	75.81
596.236	75.97
596.573	75.92
596.91	76.18
597.247	75.85
597.584	75.91
597.921	76.08
598.258	75.87
598.594	75.74
598.931	75.64
599.268	75.57
599.604	75.65
599.941	75.5
600.277	75.54
600.614	75.95
600.95	76.17
601.287	75.81
601.623	76.71
601.959	76.33
602.296	76.49
602.632	76.59
602.968	76.45
603.304	76.72
603.64	76.82
603.976	76.38
604.312	76.77
604.648	76.82
604.984	76.78
605.319	76.66
605.655	76.8
605.991	76.97
606.326	76.97
606.662	76.46
606.998	76.36
607.333	76.71
607.668	76.62
608.004	76.2
608.339	76.73
608.674	77.11
609.01	77.06
609.345	77.24
609.68	77.08
610.015	77.21
610.35	77.55
610.685	77.42
611.02	77.46
611.355	77.61
611.689	76.99
612.024	77.35
612.359	77.67
612.694	77.36
613.028	77.53
613.363	77.42
613.697	77.94
614.032	78.12
614.366	77.62
614.7	77.94
615.035	77.94
615.369	78.07
615.703	77.77
616.037	78.27
616.371	78.14
616.705	78.75
617.039	78.41
617.373	78.09
617.707	78.55
618.041	78.25
618.375	78.38
618.709	77.94
619.042	78.33
619.376	79.18
619.71	78.43
620.043	78.81
620.377	78.67
620.71	78.95
621.043	78.91
621.377	78.26
621.71	78.52
622.043	78.6
622.376	78.84
622.709	78.68
623.043	79.05
623.376	79.12
623.709	78.69
624.041	79.79
624.374	78.87
624.707	79.06
625.04	79.45
625.373	78.95
625.705	79.42
626.038	79.26
626.37	79.11
626.703	79.18
627.035	78.94
627.368	79.23
627.7	79.33
628.032	79.63
628.365	79.55
628.697	79.43
629.029	79.38
629.361	79.68
629.693	79.45
630.025	79.37
630.357	79.68
630.689	79.64
631.021	79.78
631.353	79.88
631.684	79.13
632.016	79.83
632.348	80.22
632.679	79.71
633.011	79.72
633.342	79.61
633.674	79.67
634.005	80.6
634.336	79.91
634.668	79.97
634.999	80.4
635.33	80.12
635.661	80.43
635.992	79.68
636.323	80.44
636.654	80.17
636.985	80.3
637.316	80.1
637.647	80.54
637.977	80.7
638.308	80.26
638.639	80.59
638.969	80.21
639.3	80.41
639.63	80.84
639.961	80.54
640.291	80.09
640.622	81.33
640.952	81.17
641.282	80.9
641.612	80.58
641.943	81
642.273	81.73
642.603	80.46
642.933	81.47
643.263	80.79
643.592	80.86
643.922	81.07
644.252	81.31
644.582	81.57
644.911	81.56
645.241	81.23
645.571	81.49
645.9	81.74
646.23	80.63
646.559	81.54
646.888	81.97
647.218	81.38
647.547	81.36
647.876	81.94
648.205	82.49
648.534	82.75
648.863	81.78
649.192	82.15
649.521	81.67
649.85	82.11
650.179	82.25
650.508	82.09
650.837	81.62
651.165	81.35
651.494	82.06
651.822	82.05
652.151	81.93
652.479	81.63
652.808	82.92
653.136	82.07
653.465	82.16
653.793	82.36
654.121	82.55
654.449	82.9
654.777	82.39
655.105	82.86
655.433	82.19
655.761	81.91
656.089	82.45
656.417	82.43
656.745	82.65
657.073	82.62
657.4	82.69
657.728	82.6
658.056	83.61
658.383	83.25
658.711	83.05
659.038	82.64
659.365	83.44
659.693	82.58
660.02	83.14
660.347	82.92
660.674	82.9
661.001	82.49
661.329	82.63
661.656	83.08
661.982	82.86
662.309	82.58
662.636	82.55
662.963	83.03
663.29	83.85
663.616	83.31
663.943	83.29
664.27	83.59
664.596	83.77
664.923	83.09
665.249	83.52
665.576	83.9
665.902	83.17
666.228	83.19
666.554	83.66
666.881	83.84
