Data from 0185_crown_Reflection__5__010.txt Node

Date: Mon Aug 28 18:42:03 CDT 2023
User: ToomeyLab
Spectrometer: FLMS14357
Trigger mode: 0
Integration Time (sec): 1.000000E-2
Scans to average: 100
Electric dark correction enabled: true
Nonlinearity correction enabled: false
Boxcar width: 0
XAxis mode: Wavelengths
Number of Pixels in Spectrum: 2048
>>>>>Begin Spectral Data<<<<<
189.047	-49.01
189.435	-49.01
189.823	-49.01
190.211	5755.81
190.599	209.96
190.987	60.67
191.375	124.38
191.763	66.33
192.151	54.78
192.538	72.06
192.926	30.43
193.314	858.47
193.702	85.48
194.089	94.79
194.477	2227.06
194.864	49.71
195.252	163.32
195.639	-2470.94
196.027	88.77
196.414	-8.74
196.801	65.75
197.189	165.1
197.576	46.6
197.963	16.56
198.351	16.96
198.738	5.36
199.125	-6.95
199.512	-47.17
199.899	-3.61
200.286	-66.4
200.673	-15.08
201.06	3.26
201.447	-98.83
201.833	22.79
202.22	2.83
202.607	23.36
202.994	49.54
203.38	23.17
203.767	-22.29
204.154	-2.12
204.54	-35.97
204.927	-15.6
205.313	10.57
205.699	-24.98
206.086	17.68
206.472	-12.08
206.858	-53.38
207.245	0.55
207.631	17.33
208.017	10.27
208.403	-3.75
208.789	-18.73
209.175	-44.07
209.561	-35.24
209.947	-11.15
210.333	-20.63
210.719	31.01
211.105	26.87
211.491	7.65
211.876	15.87
212.262	-96.42
212.648	16.62
213.034	27.33
213.419	0.9
213.805	17.23
214.19	-15.19
214.576	-13.65
214.961	-2.31
215.346	9.64
215.732	43.45
216.117	-62.66
216.502	-3.6
216.888	-34.11
217.273	-16.42
217.658	-14.2
218.043	-6.38
218.428	-1.66
218.813	-9.94
219.198	8.88
219.583	12.93
219.968	20.02
220.353	-3.84
220.738	27.04
221.122	24.08
221.507	-12.49
221.892	6.34
222.276	-6.72
222.661	3.19
223.046	-3.45
223.43	7.05
223.815	14.39
224.199	11.65
224.583	5.89
224.968	6.86
225.352	10.92
225.736	3.5
226.121	3
226.505	3.8
226.889	4.87
227.273	11.16
227.657	3.31
228.041	6.02
228.425	2.77
228.809	-1.31
229.193	6.8
229.577	6.97
229.961	2.79
230.344	5.75
230.728	4.96
231.112	4.59
231.495	5.6
231.879	4.3
232.263	6.03
232.646	4.69
233.03	6.82
233.413	7.16
233.797	5.74
234.18	6.32
234.563	5.67
234.946	6.25
235.33	4.63
235.713	4.49
236.096	5.78
236.479	4.5
236.862	6.36
237.245	4.29
237.628	5.21
238.011	6.83
238.394	5.49
238.777	6.79
239.16	4.32
239.543	2.92
239.925	6.07
240.308	5.31
240.691	1.91
241.073	5.17
241.456	3.84
241.838	3.62
242.221	6.8
242.603	6.07
242.986	4.63
243.368	5.93
243.75	4.96
244.133	4.74
244.515	4.53
244.897	5.53
245.279	5.18
245.661	4.81
246.043	6.15
246.425	5.06
246.807	5.12
247.189	4.51
247.571	5.53
247.953	4.56
248.335	4.29
248.717	4.52
249.098	4.68
249.48	4.86
249.862	4.86
250.243	4.34
250.625	5.07
251.006	4.85
251.388	4.51
251.769	4.33
252.151	5.06
252.532	4.01
252.913	4.63
253.295	2.1
253.676	4.66
254.057	4.38
254.438	4.35
254.819	4.06
255.2	4.87
255.581	5.06
255.962	5.95
256.343	5.36
256.724	3.27
257.105	3.59
257.486	4.51
257.867	4.46
258.247	4.91
258.628	5.05
259.009	3.64
259.389	3.52
259.77	5.42
260.15	4.09
260.531	4.02
260.911	4.45
261.292	4.33
261.672	4.19
262.052	4.11
262.432	4.33
262.813	4.48
263.193	4.03
263.573	3.73
263.953	4.53
264.333	3.62
264.713	4.16
265.093	4.43
265.473	4.04
265.853	3.74
266.233	3.98
266.612	4.46
266.992	4.27
267.372	4.09
267.752	4.18
268.131	4.46
268.511	3.71
268.89	4.67
269.27	4.39
269.649	4.19
270.029	4.33
270.408	4.41
270.787	4.95
271.167	4.01
271.546	3.95
271.925	4.35
272.304	4.32
272.683	4.13
273.062	4.34
273.441	4.26
273.82	4.18
274.199	3.5
274.578	4.36
274.957	4.22
275.336	4.55
275.715	4.5
276.093	4.04
276.472	3.47
276.851	3.6
277.229	4.09
277.608	3.9
277.986	3.58
278.365	4.28
278.743	4.26
279.122	3.89
279.5	3.33
279.878	3.16
280.257	3.83
280.635	4.02
281.013	4.18
281.391	4.1
281.769	3.81
282.147	3.84
282.525	3.93
282.903	4.14
283.281	3.9
283.659	4.5
284.037	3.88
284.415	3.93
284.792	4.06
285.17	3.84
285.548	3.62
285.925	4.45
286.303	3.87
286.68	4.2
287.058	3.99
287.435	3.54
287.813	4.06
288.19	4.38
288.567	4.5
288.945	3.69
289.322	4.09
289.699	3.68
290.076	3.8
290.453	4.14
290.83	3.58
291.207	4.02
291.584	3.96
291.961	4.59
292.338	4.08
292.715	3.58
293.092	3.84
293.469	4
293.845	4.02
294.222	3.99
294.599	3.68
294.975	4.07
295.352	3.65
295.728	4.09
296.105	4.23
296.481	4.07
296.858	4.13
297.234	4.08
297.61	4.09
297.986	4.28
298.363	4.19
298.739	4.02
299.115	3.78
299.491	4.24
299.867	3.7
300.243	3.84
300.619	3.98
300.995	4.17
301.371	4.13
301.746	4.32
302.122	3.82
302.498	4.06
302.874	4.26
303.249	4.24
303.625	3.97
304	3.65
304.376	4.12
304.751	3.65
305.127	4.07
305.502	4.21
305.878	3.58
306.253	3.73
306.628	3.57
307.003	4.1
307.378	4.16
307.754	4.14
308.129	4.11
308.504	4.16
308.879	4.21
309.254	3.96
309.629	3.65
310.003	4.21
310.378	3.98
310.753	4.13
311.128	4.39
311.502	4.59
311.877	3.88
312.252	4.12
312.626	4.26
313.001	4.09
313.375	4.13
313.75	3.89
314.124	4.2
314.498	4.27
314.873	4.5
315.247	4.46
315.621	3.88
315.995	4.7
316.369	4.3
316.743	3.44
317.117	4.16
317.491	3.48
317.865	3.51
318.239	4.04
318.613	4.05
318.987	3.61
319.361	3.7
319.734	3.79
320.108	4.34
320.482	3.89
320.855	4.22
321.229	3.85
321.602	4.08
321.976	3.74
322.349	4.58
322.723	4.03
323.096	4.32
323.469	4.34
323.843	4.12
324.216	4.56
324.589	4.17
324.962	3.84
325.335	4.19
325.708	4.55
326.081	4.35
326.454	4.26
326.827	3.95
327.2	3.69
327.573	3.81
327.945	4.31
328.318	4.43
328.691	3.61
329.063	3.39
329.436	4.09
329.809	4.27
330.181	3.75
330.553	4.13
330.926	4.17
331.298	4.01
331.671	4
332.043	3.74
332.415	5.1
332.787	3.91
333.159	3.83
333.532	4.36
333.904	3.98
334.276	3.92
334.648	3.99
335.02	3.91
335.391	4.28
335.763	3.62
336.135	4.51
336.507	4.21
336.879	3.25
337.25	4.2
337.622	3.8
337.993	4.38
338.365	4.07
338.736	4.04
339.108	3.91
339.479	3.77
339.851	4.15
340.222	4.42
340.593	3.83
340.964	3.86
341.336	3.73
341.707	4.1
342.078	3.59
342.449	4.44
342.82	4
343.191	4.02
343.562	3.65
343.933	3.91
344.303	3.87
344.674	4.19
345.045	4.15
345.416	4.27
345.786	4.01
346.157	3.97
346.527	3.69
346.898	3.94
347.268	3.55
347.639	3.47
348.009	4.07
348.38	4.4
348.75	4.29
349.12	4.51
349.49	4.12
349.861	3.56
350.231	3.66
350.601	4.17
350.971	4.25
351.341	4
351.711	4.05
352.081	3.97
352.45	4.04
352.82	4.01
353.19	4.65
353.56	3.98
353.929	4.18
354.299	3.83
354.669	3.99
355.038	4.13
355.408	4.45
355.777	4.33
356.147	4.07
356.516	4.39
356.885	4.21
357.254	4.27
357.624	3.98
357.993	4.05
358.362	3.95
358.731	3.92
359.1	4.05
359.469	4.16
359.838	3.89
360.207	4.04
360.576	4.26
360.945	4.25
361.314	4.07
361.682	3.96
362.051	4.32
362.42	4.12
362.788	3.95
363.157	4.29
363.525	3.81
363.894	3.99
364.262	4.21
364.631	3.93
364.999	4.31
365.367	4.15
365.735	4.08
366.104	4.11
366.472	3.94
366.84	3.85
367.208	4.12
367.576	3.81
367.944	4.12
368.312	4.47
368.68	4.1
369.048	4.21
369.416	4.14
369.783	3.93
370.151	4.21
370.519	4.19
370.886	4.16
371.254	3.93
371.621	4.04
371.989	3.83
372.356	4.01
372.724	4.3
373.091	4.6
373.458	3.91
373.826	3.89
374.193	4.34
374.56	4.1
374.927	3.7
375.294	4.26
375.661	4.68
376.028	3.94
376.395	3.81
376.762	4.14
377.129	4.13
377.496	3.87
377.863	4.13
378.229	4.06
378.596	4.2
378.963	4.18
379.329	4.11
379.696	4.15
380.062	4.11
380.429	4.07
380.795	4.33
381.161	4.31
381.528	4.51
381.894	3.91
382.26	4.52
382.626	4.2
382.993	4.09
383.359	4.34
383.725	4.42
384.091	4.28
384.457	4.24
384.823	4.17
385.188	4.23
385.554	4.2
385.92	4.22
386.286	4.12
386.651	4.01
387.017	4.24
387.383	4.16
387.748	4.03
388.114	3.91
388.479	4
388.845	4.01
389.21	4.15
389.575	4.55
389.94	4.3
390.306	4.29
390.671	4.2
391.036	4.14
391.401	4.4
391.766	4.35
392.131	4.37
392.496	3.99
392.861	4.15
393.226	4.48
393.591	4.05
393.956	4.1
394.32	4.11
394.685	4.19
395.05	4.29
395.414	4.35
395.779	4.17
396.143	4.18
396.508	3.86
396.872	4.4
397.236	4.16
397.601	4.12
397.965	4.21
398.329	4.34
398.694	4.22
399.058	4.31
399.422	4.14
399.786	4.12
400.15	4.28
400.514	4.47
400.878	3.98
401.242	4.11
401.605	4.34
401.969	4.19
402.333	4.36
402.697	4.31
403.06	4.44
403.424	4.47
403.787	4.3
404.151	4.37
404.514	4.45
404.878	4.16
405.241	4.36
405.604	4.33
405.968	4.23
406.331	4.49
406.694	4.19
407.057	4.22
407.42	4.32
407.783	4.24
408.146	4.22
408.509	4.24
408.872	4.33
409.235	4.35
409.598	4.15
409.961	4.03
410.323	4.42
410.686	4.22
411.049	4.35
411.411	4.49
411.774	4.2
412.136	4.22
412.499	4.16
412.861	4.15
413.223	4.24
413.586	4.16
413.948	4.34
414.31	4.13
414.672	4.03
415.035	4.48
415.397	4.12
415.759	4.31
416.121	4.23
416.483	4.2
416.845	4.24
417.206	4.55
417.568	4.29
417.93	4.22
418.292	4.17
418.653	4.04
419.015	4.21
419.377	4.03
419.738	4.33
420.1	4.2
420.461	4.32
420.822	4.23
421.184	4.29
421.545	4.21
421.906	4.19
422.267	4.28
422.629	4.14
422.99	4.08
423.351	4.25
423.712	4.19
424.073	4.2
424.434	4.32
424.795	4.15
425.155	4.19
425.516	4.11
425.877	4.07
426.238	4.14
426.598	4.13
426.959	4.28
427.32	4.23
427.68	4.25
428.041	4.14
428.401	4.23
428.761	4.23
429.122	4.28
429.482	4.31
429.842	4.29
430.202	4.32
430.563	4.32
430.923	4.41
431.283	4.33
431.643	4.14
432.003	4.3
432.363	4.31
432.722	4.34
433.082	4.28
433.442	4.12
433.802	4.36
434.161	4.43
434.521	4.32
434.881	4.28
435.24	4.34
435.6	4.24
435.959	4.27
436.319	4.32
436.678	4.26
437.037	4.34
437.396	4.35
437.756	4.36
438.115	4.34
438.474	4.41
438.833	4.21
439.192	4.4
439.551	4.24
439.91	4.3
440.269	4.27
440.628	4.11
440.987	4.39
441.345	4.2
441.704	4.33
442.063	4.17
442.421	4.18
442.78	4.36
443.138	4.18
443.497	4.29
443.855	4.25
444.214	4.32
444.572	4.23
444.93	4.25
445.288	4.23
445.647	4.31
446.005	4.45
446.363	4.37
446.721	4.44
447.079	4.42
447.437	4.2
447.795	4.3
448.153	4.4
448.51	4.33
448.868	4.3
449.226	4.19
449.584	4.16
449.941	4.34
450.299	4.37
450.656	4.36
451.014	4.31
451.371	4.28
451.729	4.24
452.086	4.19
452.443	4.5
452.801	4.48
453.158	4.44
453.515	4.39
453.872	4.17
454.229	4.4
454.586	4.46
454.943	4.36
455.3	4.37
455.657	4.51
456.014	4.35
456.371	4.33
456.727	4.4
457.084	4.35
457.441	4.41
457.797	4.33
458.154	4.6
458.51	4.58
458.867	4.45
459.223	4.51
459.58	4.18
459.936	4.48
460.292	4.44
460.648	4.32
461.005	4.31
461.361	4.39
461.717	4.28
462.073	4.28
462.429	4.28
462.785	4.4
463.141	4.33
463.496	4.42
463.852	4.33
464.208	4.44
464.564	4.37
464.919	4.6
465.275	4.49
465.631	4.43
465.986	4.63
466.342	4.57
466.697	4.47
467.052	4.38
467.408	4.38
467.763	4.51
468.118	4.53
468.473	4.49
468.829	4.43
469.184	4.31
469.539	4.47
469.894	4.35
470.249	4.47
470.603	4.29
470.958	4.4
471.313	4.61
471.668	4.27
472.023	4.42
472.377	4.49
472.732	4.49
473.086	4.44
473.441	4.47
473.795	4.47
474.15	4.54
474.504	4.64
474.859	4.46
475.213	4.6
475.567	4.41
475.921	4.72
476.275	4.45
476.63	4.61
476.984	4.53
477.338	4.45
477.692	4.49
478.045	4.37
478.399	4.58
478.753	4.4
479.107	4.42
479.461	4.49
479.814	4.57
480.168	4.62
480.521	4.52
480.875	4.42
481.228	4.48
481.582	4.51
481.935	4.48
482.289	4.55
482.642	4.47
482.995	4.61
483.348	4.52
483.701	4.46
484.055	4.48
484.408	4.33
484.761	4.43
485.114	4.42
485.466	4.33
485.819	4.25
486.172	4.24
486.525	4.22
486.878	4.22
487.23	4.28
487.583	4.33
487.936	4.42
488.288	4.41
488.641	4.48
488.993	4.37
489.345	4.36
489.698	4.37
490.05	4.34
490.402	4.29
490.754	4.41
491.107	4.36
491.459	4.42
491.811	4.4
492.163	4.53
492.515	4.55
492.866	4.48
493.218	4.42
493.57	4.43
493.922	4.32
494.274	4.41
494.625	4.39
494.977	4.48
495.328	4.6
495.68	4.62
496.031	4.55
496.383	4.62
496.734	4.6
497.086	4.65
497.437	4.77
497.788	4.66
498.139	4.56
498.49	4.61
498.842	4.63
499.193	4.56
499.544	4.46
499.894	4.55
500.245	4.52
500.596	4.59
500.947	4.65
501.298	4.68
501.648	4.59
501.999	4.67
502.35	4.56
502.7	4.67
503.051	4.8
503.401	4.78
503.752	4.68
504.102	4.66
504.452	4.74
504.803	4.87
505.153	4.74
505.503	4.59
505.853	4.67
506.203	4.7
506.553	4.57
506.903	4.87
507.253	4.73
507.603	4.73
507.953	4.86
508.303	4.88
508.652	4.68
509.002	4.83
509.352	4.59
509.701	4.75
510.051	4.66
510.4	4.69
510.75	4.75
511.099	4.69
511.449	4.69
511.798	4.69
512.147	4.72
512.496	4.65
512.846	4.75
513.195	4.9
513.544	4.89
513.893	4.75
514.242	4.87
514.591	4.87
514.939	4.58
515.288	4.77
515.637	4.86
515.986	4.73
516.334	4.93
516.683	4.86
517.032	4.82
517.38	4.96
517.729	4.98
518.077	4.9
518.426	4.82
518.774	4.92
519.122	4.89
519.47	4.78
519.819	4.79
520.167	4.88
520.515	4.93
520.863	4.68
521.211	4.8
521.559	4.81
521.907	4.83
522.255	4.72
522.602	4.91
522.95	5.01
523.298	5.03
523.645	4.96
523.993	4.91
524.341	5.08
524.688	5.04
525.036	4.96
525.383	5.02
525.73	5.09
526.078	5.14
526.425	5.05
526.772	5
527.119	4.95
527.466	4.93
527.814	4.91
528.161	4.95
528.508	4.91
528.854	4.96
529.201	4.95
529.548	4.95
529.895	5
530.242	4.85
530.588	4.84
530.935	4.84
531.282	4.82
531.628	4.79
531.975	4.88
532.321	4.87
532.667	4.92
533.014	5.05
533.36	5.01
533.706	5.04
534.052	5.1
534.399	5.12
534.745	5.14
535.091	5.02
535.437	4.98
535.783	5.01
536.129	5.06
536.474	5.05
536.82	5.11
537.166	5.09
537.512	5.18
537.857	5.33
538.203	5.17
538.549	5.13
538.894	5.12
539.239	5.07
539.585	5.21
539.93	5.26
540.276	5.33
540.621	5.37
540.966	5.25
541.311	5.45
541.656	5.44
542.001	5.32
542.346	5.39
542.691	5.28
543.036	5.23
543.381	5.17
543.726	5.17
544.071	5.28
544.415	5.26
544.76	5.25
545.105	5.34
545.449	5.31
545.794	5.31
546.138	5.33
546.483	5.32
546.827	5.5
547.171	5.46
547.516	5.44
547.86	5.65
548.204	5.64
548.548	5.55
548.892	5.44
549.236	5.42
549.58	5.48
549.924	5.48
550.268	5.53
550.612	5.55
550.956	5.66
551.3	5.74
551.643	5.77
551.987	5.62
552.33	5.86
552.674	5.77
553.017	5.79
553.361	5.68
553.704	5.7
554.048	5.81
554.391	5.79
554.734	5.88
555.077	5.72
555.42	5.78
555.764	5.9
556.107	5.77
556.45	5.97
556.793	5.8
557.135	5.98
557.478	5.82
557.821	5.89
558.164	6.2
558.507	6.09
558.849	6.16
559.192	5.99
559.534	5.99
559.877	6.08
560.219	6.04
560.562	6.02
560.904	6.26
561.246	6.02
561.589	6.11
561.931	6.25
562.273	5.96
562.615	6.22
562.957	6.41
563.299	6.26
563.641	6.14
563.983	6.26
564.325	6.26
564.667	6.23
565.008	6.02
565.35	6.5
565.692	6.44
566.033	6.2
566.375	6.4
566.716	6.22
567.058	6.58
567.399	6.27
567.741	6.47
568.082	6.29
568.423	6.32
568.764	6.3
569.105	6.42
569.447	6.39
569.788	6.49
570.129	6.53
570.47	6.6
570.811	6.6
571.151	6.36
571.492	6.53
571.833	6.34
572.174	6.5
572.514	6.59
572.855	6.58
573.195	6.78
573.536	6.74
573.876	6.53
574.217	6.47
574.557	6.61
574.898	6.84
575.238	6.79
575.578	6.56
575.918	6.76
576.258	6.97
576.598	6.77
576.938	6.77
577.278	6.8
577.618	6.8
577.958	7.03
578.298	6.97
578.638	6.76
578.977	6.98
579.317	6.9
579.657	7.17
579.996	7.08
580.336	6.9
580.675	7.15
581.014	7.5
581.354	7.18
581.693	7.11
582.032	7.28
582.372	7.23
582.711	7.44
583.05	7.33
583.389	7.26
583.728	7.48
584.067	7.27
584.406	7.55
584.745	7.3
585.083	7.17
585.422	7.5
585.761	7.35
586.1	7.81
586.438	7.44
586.777	7.6
587.115	7.77
587.454	7.55
587.792	7.57
588.13	7.75
588.469	7.59
588.807	7.64
589.145	7.88
589.483	7.58
589.821	7.86
590.159	7.73
590.497	7.88
590.835	7.84
591.173	7.89
591.511	7.63
591.849	7.94
592.187	8.04
592.524	7.91
592.862	8.03
593.2	7.89
593.537	7.84
593.875	8.13
594.212	8.08
594.55	8.17
594.887	7.91
595.224	8.1
595.561	7.78
595.899	8.13
596.236	8.28
596.573	8.22
596.91	8.24
597.247	8.44
597.584	8.26
597.921	8.21
598.258	8.42
598.594	8.45
598.931	8.25
599.268	8.29
599.604	8.41
599.941	8.52
600.277	8.19
600.614	8.52
600.95	8.49
601.287	8.5
601.623	8.52
601.959	8.6
602.296	8.51
602.632	8.62
602.968	8.74
603.304	8.64
603.64	8.68
603.976	8.73
604.312	8.99
604.648	8.53
604.984	8.74
605.319	8.96
605.655	8.8
605.991	8.79
606.326	9.07
606.662	8.88
606.998	8.81
607.333	8.92
607.668	8.98
608.004	8.9
608.339	8.96
608.674	8.86
609.01	8.99
609.345	9.26
609.68	9.26
610.015	9.43
610.35	9.32
610.685	9.4
611.02	9.29
611.355	9.73
611.689	9.35
612.024	9.41
612.359	9.25
612.694	9.24
613.028	9.39
613.363	9.24
613.697	9.34
614.032	9.47
614.366	9.64
614.7	9.71
615.035	9.33
615.369	9.36
615.703	9.67
616.037	9.41
616.371	9.49
616.705	9.62
617.039	9.92
617.373	9.63
617.707	9.85
618.041	9.79
618.375	9.91
618.709	10.34
619.042	9.95
619.376	10.5
619.71	9.75
620.043	10.26
620.377	10.18
620.71	10.34
621.043	10.15
621.377	10.18
621.71	10.1
622.043	9.88
622.376	10.35
622.709	10.12
623.043	10.16
623.376	10.51
623.709	10.53
624.041	10.56
624.374	10.38
624.707	10.15
625.04	10.39
625.373	10.66
625.705	10.76
626.038	10.7
626.37	10.68
626.703	11.02
627.035	10.55
627.368	10.76
627.7	10.63
628.032	10.62
628.365	10.57
628.697	10.87
629.029	10.83
629.361	10.79
629.693	10.69
630.025	10.65
630.357	10.81
630.689	10.94
631.021	10.92
631.353	11.06
631.684	11.4
632.016	10.93
632.348	11.23
632.679	11.4
633.011	11.21
633.342	10.98
633.674	11.65
634.005	11.19
634.336	10.93
634.668	11.4
634.999	11.6
635.33	11.43
635.661	11.56
635.992	11.46
636.323	11.83
636.654	11.37
636.985	11.49
637.316	11.4
637.647	11.53
637.977	11.55
638.308	11.66
638.639	11.9
638.969	12.08
639.3	11.13
639.63	11.34
639.961	12.06
640.291	12.28
640.622	12.09
640.952	11.84
641.282	12.17
641.612	12.27
641.943	12
642.273	12.57
642.603	11.72
642.933	11.84
643.263	12.76
643.592	11.93
643.922	12.44
644.252	12.22
644.582	11.85
644.911	12.28
645.241	12.4
645.571	12.03
645.9	12.09
646.23	12.39
646.559	12.43
646.888	12.91
647.218	12.37
647.547	12.39
647.876	13.04
648.205	12.29
648.534	12.95
648.863	12.84
649.192	13.04
649.521	12.86
649.85	12.92
650.179	12.98
650.508	12.75
650.837	12.79
651.165	12.73
651.494	12.88
651.822	12.8
652.151	12.74
652.479	13.64
652.808	12.55
653.136	13.04
653.465	13.19
653.793	13.45
654.121	13.68
654.449	13.03
654.777	13.24
655.105	13.32
655.433	12.86
655.761	12.92
656.089	13.35
656.417	13.4
656.745	13.62
657.073	13.33
657.4	13.69
657.728	14.22
658.056	13.73
658.383	13.58
658.711	14.23
659.038	13.93
659.365	13.94
659.693	13.35
660.02	13.43
660.347	13.82
660.674	13.93
661.001	14.24
661.329	13.67
661.656	13.93
661.982	13.75
662.309	14.01
662.636	14.24
662.963	14.42
663.29	14.06
663.616	13.91
663.943	14.05
664.27	14.34
664.596	14.17
664.923	14.56
665.249	14.17
665.576	14.42
665.902	14.25
666.228	14.52
666.554	14.4
666.881	13.94
667.207	14.54
667.533	14.83
667.859	14.3
668.185	14.52
668.511	14.57
668.837	14.42
669.162	14.57
669.488	14.3
669.814	14.95
670.139	14.92
670.465	14.96
670.791	14.91
671.116	14.21
671.442	14.87
671.767	14.52
672.092	15.08
672.418	14.97
672.743	14.89
673.068	14.94
673.393	14.93
673.718	14.12
674.043	14.71
674.368	15.29
674.693	15.36
675.018	15.71
675.343	15.48
675.667	15.76
675.992	15.31
676.317	15.26
676.641	15.57
676.966	15.38
677.29	14.54
677.615	15.86
677.939	15.68
678.264	15.45
678.588	15.16
678.912	16.42
679.236	15.08
679.56	15.57
679.885	16.29
680.209	15.6
680.532	15.97
680.856	15.57
681.18	15.79
681.504	15.8
681.828	15.92
682.152	16.76
682.475	15.75
682.799	16.08
683.122	15.8
683.446	15.94
683.769	16.82
684.093	16.18
684.416	16.3
684.739	15.89
685.062	16.25
685.386	15.56
685.709	16.45
686.032	15.78
686.355	15.85
686.678	16.13
687.001	16.05
687.324	16.02
687.646	15.85
