Data from 0185_crown_Reflection__9__014.txt Node

Date: Mon Aug 28 18:42:52 CDT 2023
User: ToomeyLab
Spectrometer: FLMS14357
Trigger mode: 0
Integration Time (sec): 1.000000E-2
Scans to average: 100
Electric dark correction enabled: true
Nonlinearity correction enabled: false
Boxcar width: 0
XAxis mode: Wavelengths
Number of Pixels in Spectrum: 2048
>>>>>Begin Spectral Data<<<<<
189.047	94.39
189.435	94.39
189.823	94.39
190.211	-7669.77
190.599	105.42
190.987	-241.91
191.375	30.86
191.763	107.27
192.151	213.28
192.538	-126.32
192.926	148.76
193.314	310.16
193.702	238.41
194.089	7.96
194.477	-430.59
194.864	-130.62
195.252	91
195.639	-353.85
196.027	71
196.414	-57.51
196.801	170.16
197.189	69.55
197.576	122.98
197.963	99.03
198.351	-12.7
198.738	43.61
199.125	-5.01
199.512	29.79
199.899	-58.59
200.286	87.1
200.673	25.85
201.06	7.66
201.447	14.67
201.833	2.57
202.22	79.55
202.607	44.69
202.994	-2.02
203.38	19.83
203.767	-15.24
204.154	-3.37
204.54	15.93
204.927	9.44
205.313	39.9
205.699	-14.21
206.086	38.73
206.472	6.36
206.858	-16.29
207.245	1.59
207.631	21.44
208.017	-1.58
208.403	4.69
208.789	10.53
209.175	-7.31
209.561	-10.84
209.947	2.5
210.333	-17.75
210.719	26.88
211.105	28.8
211.491	-11.52
211.876	0.94
212.262	98.4
212.648	29.69
213.034	-15.23
213.419	-12
213.805	25.24
214.19	20.57
214.576	9.39
214.961	24.01
215.346	8.72
215.732	25.14
216.117	-17.95
216.502	-0.85
216.888	7.77
217.273	19.93
217.658	28.7
218.043	-12.7
218.428	6.66
218.813	20.72
219.198	48.31
219.583	-0.53
219.968	-1.61
220.353	-11.89
220.738	20.29
221.122	-4.45
221.507	-6.34
221.892	23.74
222.276	-12.01
222.661	-1.4
223.046	-4.32
223.43	-10.62
223.815	16.87
224.199	20.88
224.583	7.17
224.968	-1.08
225.352	16.01
225.736	8.8
226.121	4.74
226.505	11.6
226.889	9.52
227.273	2.96
227.657	8.12
228.041	4.66
228.425	7.23
228.809	3.93
229.193	7.27
229.577	5.12
229.961	2.26
230.344	5.09
230.728	4.44
231.112	3.87
231.495	5.16
231.879	4.98
232.263	5.32
232.646	3.93
233.03	6.2
233.413	6.64
233.797	4.45
234.18	3.6
234.563	5.03
234.946	6.73
235.33	3.15
235.713	2.09
236.096	4.5
236.479	5.08
236.862	6.11
237.245	7.49
237.628	6.64
238.011	5.87
238.394	6.74
238.777	6.07
239.16	3.88
239.543	2.95
239.925	6.31
240.308	3.52
240.691	5.18
241.073	2.93
241.456	5.93
241.838	3.67
242.221	5.55
242.603	4.73
242.986	5.28
243.368	4.36
243.75	4.93
244.133	4.27
244.515	4.04
244.897	4.53
245.279	4.86
245.661	4.68
246.043	4.78
246.425	4
246.807	5.89
247.189	4.32
247.571	4.97
247.953	4.7
248.335	4.25
248.717	4.16
249.098	4.04
249.48	3.97
249.862	4.23
250.243	4.24
250.625	4.64
251.006	4.4
251.388	4.65
251.769	5.37
252.151	3.57
252.532	3.27
252.913	4.84
253.295	3.42
253.676	3.74
254.057	4.64
254.438	4.44
254.819	4.11
255.2	4.35
255.581	3.89
255.962	4.81
256.343	5.41
256.724	3.18
257.105	3.78
257.486	4.44
257.867	4.55
258.247	4.61
258.628	4.64
259.009	3.84
259.389	3.86
259.77	3.68
260.15	3.87
260.531	3.78
260.911	3.68
261.292	3.91
261.672	3.56
262.052	3.69
262.432	3.94
262.813	4.06
263.193	3.51
263.573	3.34
263.953	3.49
264.333	3.79
264.713	3.85
265.093	4.71
265.473	3.88
265.853	3.35
266.233	2.78
266.612	3.88
266.992	3.88
267.372	3.85
267.752	4.48
268.131	3.79
268.511	3.61
268.89	3.8
269.27	3.23
269.649	3.87
270.029	3.93
270.408	3.36
270.787	3.57
271.167	4.12
271.546	3.9
271.925	3.86
272.304	3.32
272.683	3.74
273.062	3.4
273.441	3.47
273.82	3.56
274.199	3
274.578	3.63
274.957	3.81
275.336	4.07
275.715	4.35
276.093	3.31
276.472	3.55
276.851	3.58
277.229	4.11
277.608	3.7
277.986	3.84
278.365	3.97
278.743	2.9
279.122	3.26
279.5	3.65
279.878	2.95
280.257	3.45
280.635	3.84
281.013	3.71
281.391	3.39
281.769	3.19
282.147	3.6
282.525	3.64
282.903	3.61
283.281	3.65
283.659	4.11
284.037	3.8
284.415	3.5
284.792	3.59
285.17	3.1
285.548	3.28
285.925	3.88
286.303	3.52
286.68	3.99
287.058	3.85
287.435	3.8
287.813	3.48
288.19	3.79
288.567	3.72
288.945	3.53
289.322	3.41
289.699	3.91
290.076	3.86
290.453	3.07
290.83	2.63
291.207	3.69
291.584	3.77
291.961	3.82
292.338	3.51
292.715	3.49
293.092	3.81
293.469	3.66
293.845	3.75
294.222	3.43
294.599	3.75
294.975	3.47
295.352	3.06
295.728	3.18
296.105	3.59
296.481	3.84
296.858	3.79
297.234	3.88
297.61	3.42
297.986	3.74
298.363	4.16
298.739	3.63
299.115	3.41
299.491	3.86
299.867	3.65
300.243	3.78
300.619	3.57
300.995	4.21
301.371	3.36
301.746	4.01
302.122	3.67
302.498	3.59
302.874	4.07
303.249	4.09
303.625	3.69
304	3.57
304.376	3.59
304.751	3.07
305.127	4.05
305.502	3.84
305.878	3.45
306.253	3.3
306.628	3.67
307.003	3.55
307.378	3.85
307.754	4.08
308.129	3.76
308.504	4.09
308.879	4.08
309.254	4.26
309.629	3.99
310.003	3.9
310.378	3.54
310.753	3.83
311.128	3.87
311.502	3.79
311.877	4.08
312.252	4
312.626	4
313.001	3.93
313.375	3.79
313.75	3.65
314.124	3.69
314.498	3.82
314.873	4.03
315.247	4.26
315.621	3.28
315.995	4.42
316.369	4.42
316.743	3.72
317.117	3.72
317.491	3.31
317.865	3.48
318.239	4.01
318.613	3.68
318.987	3.79
319.361	3.68
319.734	3.97
320.108	4.04
320.482	3.98
320.855	3.75
321.229	3.96
321.602	3.62
321.976	4.01
322.349	4.15
322.723	3.63
323.096	4.4
323.469	3.69
323.843	3.74
324.216	3.72
324.589	3.89
324.962	3.75
325.335	3.91
325.708	3.64
326.081	3.89
326.454	4.19
326.827	3.83
327.2	3.47
327.573	3.57
327.945	3.8
328.318	4.16
328.691	3.61
329.063	3.19
329.436	3.43
329.809	3.88
330.181	3.74
330.553	3.65
330.926	3.98
331.298	3.82
331.671	3.56
332.043	3.36
332.415	4.36
332.787	3.3
333.159	4.06
333.532	4.95
333.904	3.9
334.276	3.67
334.648	4.38
335.02	4.23
335.391	3.85
335.763	3.74
336.135	3.9
336.507	3.71
336.879	3.07
337.25	3.98
337.622	4.06
337.993	4.17
338.365	4.13
338.736	3.76
339.108	3.66
339.479	3.21
339.851	3.73
340.222	4.01
340.593	3.44
340.964	3.93
341.336	3.8
341.707	3.57
342.078	3.48
342.449	3.47
342.82	3.73
343.191	3.87
343.562	3.69
343.933	3.82
344.303	3.73
344.674	4.37
345.045	4.02
345.416	3.88
345.786	3.96
346.157	3.63
346.527	3.73
346.898	3.6
347.268	3.37
347.639	3.42
348.009	3.6
348.38	4.09
348.75	3.71
349.12	3.85
349.49	3.57
349.861	3.09
350.231	3.78
350.601	3.85
350.971	4.14
351.341	3.72
351.711	3.96
352.081	4.07
352.45	3.81
352.82	4.08
353.19	3.83
353.56	4.33
353.929	4.16
354.299	3.51
354.669	3.98
355.038	4.14
355.408	4.23
355.777	3.79
356.147	3.68
356.516	4.12
356.885	3.97
357.254	3.98
357.624	3.69
357.993	3.91
358.362	3.8
358.731	3.88
359.1	4.1
359.469	3.97
359.838	3.6
360.207	3.85
360.576	4
360.945	3.86
361.314	3.65
361.682	3.71
362.051	3.95
362.42	3.84
362.788	3.92
363.157	3.84
363.525	3.56
363.894	3.93
364.262	3.92
364.631	3.47
364.999	3.91
365.367	3.94
365.735	3.97
366.104	3.87
366.472	3.69
366.84	4
367.208	3.93
367.576	3.44
367.944	4.13
368.312	4.1
368.68	3.74
369.048	3.72
369.416	3.91
369.783	3.79
370.151	4.02
370.519	3.69
370.886	3.97
371.254	3.25
371.621	3.59
371.989	3.94
372.356	3.84
372.724	4.35
373.091	3.96
373.458	3.9
373.826	3.87
374.193	3.54
374.56	4.11
374.927	3.38
375.294	3.75
375.661	3.94
376.028	3.83
376.395	3.79
376.762	4.04
377.129	3.69
377.496	3.71
377.863	3.99
378.229	3.91
378.596	4.07
378.963	4.07
379.329	4.24
379.696	3.92
380.062	3.75
380.429	3.55
380.795	3.99
381.161	3.69
381.528	3.89
381.894	4.29
382.26	3.77
382.626	4.06
382.993	3.9
383.359	3.93
383.725	4.11
384.091	3.93
384.457	3.94
384.823	3.95
385.188	3.93
385.554	3.9
385.92	3.64
386.286	4.09
386.651	3.69
387.017	3.94
387.383	4
387.748	3.78
388.114	3.69
388.479	3.63
388.845	3.76
389.21	3.76
389.575	4.06
389.94	3.94
390.306	3.9
390.671	4.02
391.036	3.91
391.401	3.97
391.766	4.11
392.131	3.92
392.496	3.85
392.861	3.76
393.226	3.93
393.591	3.57
393.956	4.16
394.32	3.78
394.685	3.77
395.05	3.81
395.414	3.8
395.779	3.93
396.143	3.82
396.508	3.56
396.872	4.07
397.236	3.76
397.601	3.78
397.965	3.89
398.329	3.82
398.694	4.01
399.058	3.92
399.422	3.81
399.786	4.1
400.15	4.21
400.514	3.91
400.878	3.66
401.242	3.83
401.605	3.87
401.969	3.7
402.333	3.87
402.697	3.91
403.06	3.81
403.424	4.01
403.787	3.89
404.151	3.88
404.514	4
404.878	3.7
405.241	4.04
405.604	3.79
405.968	3.62
406.331	4.07
406.694	4.18
407.057	3.88
407.42	3.9
407.783	3.87
408.146	3.7
408.509	3.97
408.872	3.9
409.235	3.85
409.598	4
409.961	3.76
410.323	4.19
410.686	4.07
411.049	4.16
411.411	3.92
411.774	3.9
412.136	3.8
412.499	3.92
412.861	3.98
413.223	3.83
413.586	3.65
413.948	4.01
414.31	4.05
414.672	3.98
415.035	3.99
415.397	3.83
415.759	3.96
416.121	4.25
416.483	3.81
416.845	4.1
417.206	4.11
417.568	4.03
417.93	3.76
418.292	4.05
418.653	3.77
419.015	3.96
419.377	3.68
419.738	4.08
420.1	3.9
420.461	4.03
420.822	3.96
421.184	3.88
421.545	3.88
421.906	3.94
422.267	3.85
422.629	3.79
422.99	3.8
423.351	3.87
423.712	3.69
424.073	3.88
424.434	3.99
424.795	3.76
425.155	3.77
425.516	3.86
425.877	3.84
426.238	3.82
426.598	3.74
426.959	3.9
427.32	3.89
427.68	3.87
428.041	3.79
428.401	3.94
428.761	3.87
429.122	3.92
429.482	4.06
429.842	4.03
430.202	4.02
430.563	3.99
430.923	4.07
431.283	4.06
431.643	3.87
432.003	4.05
432.363	4.04
432.722	3.87
433.082	3.9
433.442	4.12
433.802	4.12
434.161	4.09
434.521	3.93
434.881	3.85
435.24	3.87
435.6	3.87
435.959	3.94
436.319	4
436.678	3.95
437.037	3.87
437.396	4.03
437.756	3.9
438.115	4.09
438.474	4.18
438.833	3.96
439.192	4.07
439.551	3.76
439.91	3.98
440.269	3.93
440.628	3.98
440.987	3.99
441.345	3.87
441.704	4.03
442.063	3.94
442.421	3.99
442.78	4.02
443.138	3.9
443.497	3.97
443.855	3.98
444.214	3.99
444.572	3.98
444.93	3.94
445.288	3.85
445.647	3.97
446.005	4.12
446.363	3.93
446.721	3.98
447.079	3.99
447.437	3.9
447.795	3.87
448.153	3.96
448.51	3.9
448.868	3.99
449.226	3.84
449.584	3.87
449.941	3.96
450.299	4.06
450.656	4.07
451.014	3.99
451.371	3.89
451.729	3.95
452.086	4.12
452.443	4.19
452.801	4.01
453.158	4.2
453.515	4.13
453.872	3.97
454.229	4.18
454.586	4.04
454.943	3.91
455.3	4.08
455.657	3.99
456.014	4.19
456.371	3.9
456.727	4.11
457.084	3.95
457.441	4.12
457.797	4.07
458.154	4.09
458.51	4.28
458.867	4.08
459.223	4.06
459.58	4.07
459.936	4.16
460.292	4
460.648	4.21
461.005	4.04
461.361	4.08
461.717	4.01
462.073	4
462.429	3.93
462.785	3.91
463.141	4.05
463.496	4.17
463.852	4.01
464.208	3.99
464.564	3.97
464.919	4.12
465.275	4.25
465.631	4.04
465.986	4.13
466.342	4.16
466.697	4.11
467.052	4.13
467.408	4.02
467.763	4.13
468.118	4
468.473	4.07
468.829	4.06
469.184	3.8
469.539	4.02
469.894	3.97
470.249	4.08
470.603	4.1
470.958	4.09
471.313	4.23
471.668	4.05
472.023	4.2
472.377	4.01
472.732	4.13
473.086	4
473.441	4
473.795	4.18
474.15	4.33
474.504	4.22
474.859	4.21
475.213	4.18
475.567	4.16
475.921	4.19
476.275	4.21
476.63	4.29
476.984	4.19
477.338	4.22
477.692	4.04
478.045	4.21
478.399	4.13
478.753	4.03
479.107	3.96
479.461	4.09
479.814	4.21
480.168	4.21
480.521	4.19
480.875	4.16
481.228	4.17
481.582	4.24
481.935	4.24
482.289	4.12
482.642	4.28
482.995	4.31
483.348	4.25
483.701	4.14
484.055	4.15
484.408	4.1
484.761	3.99
485.114	4.06
485.466	3.95
485.819	3.83
486.172	3.82
486.525	3.85
486.878	3.92
487.23	4.01
487.583	4.06
487.936	4.13
488.288	4.13
488.641	4.09
488.993	4.02
489.345	3.98
489.698	4.02
490.05	3.96
490.402	3.96
490.754	4.03
491.107	4.04
491.459	4.06
491.811	4.09
492.163	4.22
492.515	4.24
492.866	4.2
493.218	4.12
493.57	4.1
493.922	3.96
494.274	3.99
494.625	4.05
494.977	4.18
495.328	4.2
495.68	4.32
496.031	4.2
496.383	4.15
496.734	4.26
497.086	4.42
497.437	4.35
497.788	4.16
498.139	4.33
498.49	4.2
498.842	4.3
499.193	4.15
499.544	4.26
499.894	4.21
500.245	4.18
500.596	4.26
500.947	4.24
501.298	4.38
501.648	4.21
501.999	4.36
502.35	4.17
502.7	4.36
503.051	4.28
503.401	4.39
503.752	4.31
504.102	4.37
504.452	4.27
504.803	4.36
505.153	4.31
505.503	4.32
505.853	4.44
506.203	4.33
506.553	4.21
506.903	4.44
507.253	4.46
507.603	4.3
507.953	4.39
508.303	4.47
508.652	4.42
509.002	4.56
509.352	4.33
509.701	4.34
510.051	4.43
510.4	4.32
510.75	4.31
511.099	4.38
511.449	4.44
511.798	4.35
512.147	4.38
512.496	4.47
512.846	4.44
513.195	4.4
513.544	4.44
513.893	4.32
514.242	4.36
514.591	4.53
514.939	4.34
515.288	4.43
515.637	4.6
515.986	4.58
516.334	4.49
516.683	4.54
517.032	4.54
517.38	4.5
517.729	4.56
518.077	4.5
518.426	4.52
518.774	4.61
519.122	4.58
519.47	4.56
519.819	4.55
520.167	4.4
520.515	4.49
520.863	4.42
521.211	4.39
521.559	4.49
521.907	4.5
522.255	4.38
522.602	4.54
522.95	4.52
523.298	4.62
523.645	4.61
523.993	4.48
524.341	4.62
524.688	4.56
525.036	4.65
525.383	4.73
525.73	4.71
526.078	4.8
526.425	4.68
526.772	4.63
527.119	4.62
527.466	4.5
527.814	4.52
528.161	4.51
528.508	4.55
528.854	4.58
529.201	4.67
529.548	4.53
529.895	4.58
530.242	4.53
530.588	4.41
530.935	4.38
531.282	4.47
531.628	4.47
531.975	4.55
532.321	4.58
532.667	4.65
533.014	4.72
533.36	4.74
533.706	4.76
534.052	4.69
534.399	4.76
534.745	4.78
535.091	4.63
535.437	4.6
535.783	4.66
536.129	4.69
536.474	4.74
536.82	4.76
537.166	4.79
537.512	4.91
537.857	4.9
538.203	4.83
538.549	4.74
538.894	4.73
539.239	4.67
539.585	4.8
539.93	4.8
540.276	4.91
540.621	4.87
540.966	5.02
541.311	5.03
541.656	5.11
542.001	4.97
542.346	5.03
542.691	4.9
543.036	4.9
543.381	4.8
543.726	4.76
544.071	4.83
544.415	4.87
544.76	4.94
545.105	4.94
545.449	4.95
545.794	5.01
546.138	5
546.483	4.97
546.827	5.07
547.171	5.06
547.516	5.11
547.86	5.25
548.204	5.24
548.548	5.12
548.892	5.17
549.236	5.06
549.58	5.02
549.924	5.1
550.268	5.21
550.612	5.31
550.956	5.37
551.3	5.43
551.643	5.3
551.987	5.24
552.33	5.42
552.674	5.35
553.017	5.41
553.361	5.56
553.704	5.37
554.048	5.42
554.391	5.45
554.734	5.39
555.077	5.39
555.42	5.29
555.764	5.41
556.107	5.4
556.45	5.43
556.793	5.62
557.135	5.61
557.478	5.49
557.821	5.45
558.164	5.66
558.507	5.54
558.849	5.75
559.192	5.52
559.534	5.61
559.877	5.71
560.219	5.71
560.562	5.74
560.904	5.7
561.246	5.66
561.589	5.67
561.931	5.84
562.273	5.87
562.615	5.82
562.957	5.91
563.299	5.75
563.641	5.67
563.983	5.81
564.325	5.7
564.667	5.91
565.008	5.76
565.35	6
565.692	6.02
566.033	5.84
566.375	5.93
566.716	6.03
567.058	6.12
567.399	5.85
567.741	6.1
568.082	5.98
568.423	6
568.764	5.91
569.105	6.11
569.447	6.12
569.788	6
570.129	5.97
570.47	6.22
570.811	6.17
571.151	6.07
571.492	5.98
571.833	6.05
572.174	6.32
572.514	6.23
572.855	6.12
573.195	6.21
573.536	6.31
573.876	6.15
574.217	6.32
574.557	6.25
574.898	6.38
575.238	6.33
575.578	6.27
575.918	6.42
576.258	6.39
576.598	6.42
576.938	6.35
577.278	6.32
577.618	6.25
577.958	6.43
578.298	6.7
578.638	6.56
578.977	6.62
579.317	6.48
579.657	6.47
579.996	6.45
580.336	6.57
580.675	6.6
581.014	6.88
581.354	6.8
581.693	6.85
582.032	6.73
582.372	6.73
582.711	7
583.05	6.76
583.389	6.87
583.728	6.81
584.067	6.91
584.406	7.01
584.745	6.96
585.083	6.84
585.422	7.03
585.761	7.17
586.1	7.25
586.438	6.96
586.777	6.85
587.115	7.15
587.454	7.02
587.792	7.24
588.13	7.12
588.469	7.2
588.807	7.17
589.145	7.11
589.483	7.07
589.821	7.38
590.159	7.45
590.497	7.16
590.835	7.29
591.173	7.11
591.511	7.24
591.849	7.33
592.187	7.33
592.524	7.49
592.862	7.48
593.2	7.45
593.537	7.35
593.875	7.65
594.212	7.57
594.55	7.55
594.887	7.52
595.224	7.46
595.561	7.65
595.899	7.47
596.236	7.64
596.573	7.92
596.91	7.7
597.247	7.95
597.584	7.68
597.921	7.71
598.258	7.74
598.594	7.81
598.931	7.86
599.268	7.88
599.604	7.61
599.941	7.87
600.277	7.7
600.614	8.2
600.95	7.92
601.287	7.95
601.623	8.55
601.959	8.15
602.296	8.04
602.632	8.07
602.968	8.28
603.304	8.38
603.64	8.24
603.976	8.13
604.312	8.07
604.648	8.3
604.984	8.23
605.319	8.26
605.655	8.41
605.991	8.35
606.326	8.24
606.662	8.42
606.998	8.31
607.333	8.3
607.668	8.19
608.004	8.39
608.339	8.46
608.674	8.3
609.01	8.44
609.345	8.54
609.68	8.67
610.015	8.55
610.35	8.77
610.685	8.64
611.02	8.52
611.355	8.8
611.689	8.55
612.024	8.7
612.359	8.82
612.694	8.84
613.028	8.88
613.363	8.81
613.697	8.88
614.032	8.91
614.366	9.16
614.7	8.91
615.035	8.99
615.369	9.01
615.703	8.72
616.037	8.86
616.371	9.04
616.705	9.13
617.039	9.04
617.373	9.05
617.707	9.32
618.041	9.48
618.375	9.1
618.709	9.39
619.042	9.45
619.376	9.42
619.71	9.1
620.043	9.44
620.377	9.73
620.71	9.32
621.043	9.49
621.377	9.55
621.71	9.27
622.043	9.07
622.376	9.79
622.709	9.66
623.043	9.9
623.376	9.7
623.709	9.72
624.041	10.07
624.374	9.64
624.707	9.39
625.04	9.87
625.373	9.93
625.705	10.12
626.038	9.58
626.37	10.07
626.703	9.83
627.035	10.17
627.368	10.07
627.7	9.92
628.032	10.07
628.365	9.93
628.697	10.15
629.029	10.26
629.361	9.96
629.693	10.26
630.025	10.29
630.357	10.17
630.689	10.09
631.021	10.57
631.353	10.28
631.684	10.41
632.016	10.31
632.348	10.46
632.679	10.19
633.011	10.21
633.342	10.19
633.674	10.53
634.005	10.81
634.336	10.46
634.668	10.6
634.999	10.81
635.33	10.78
635.661	10.71
635.992	10.65
636.323	10.68
636.654	10.56
636.985	10.79
637.316	10.65
637.647	10.97
637.977	10.64
638.308	10.99
638.639	10.5
638.969	11.29
639.3	10.92
639.63	11.06
639.961	10.89
640.291	10.93
640.622	11.34
640.952	10.85
641.282	11.13
641.612	11.32
641.943	11.02
642.273	11.95
642.603	10.86
642.933	11.09
643.263	11.51
643.592	11.61
643.922	11.17
644.252	11.29
644.582	11.39
644.911	11.52
645.241	11.81
645.571	11.69
645.9	11.53
646.23	11.37
646.559	11.54
646.888	11.64
647.218	11.43
647.547	11.73
647.876	12.07
648.205	12.02
648.534	12.09
648.863	11.28
649.192	12.12
649.521	12.37
649.85	12.24
650.179	12.47
650.508	12.41
650.837	11.87
651.165	12.19
651.494	12.06
651.822	11.94
652.151	12.22
652.479	11.98
652.808	12.3
653.136	12.29
653.465	12.62
653.793	12.49
654.121	12.63
654.449	12.6
654.777	12.48
655.105	12.24
655.433	12.23
655.761	12.18
656.089	12.41
656.417	12.52
656.745	12.89
657.073	12.48
657.4	13.08
657.728	12.89
658.056	12.85
658.383	12.38
658.711	12.98
659.038	13.23
659.365	12.71
659.693	12.75
660.02	13
660.347	13.17
660.674	12.66
661.001	13.27
661.329	12.87
661.656	13.17
661.982	13.13
662.309	13.12
662.636	13.33
662.963	13.26
663.29	13.38
663.616	13.16
663.943	13.42
664.27	13.36
664.596	13.65
664.923	13.59
665.249	13.55
665.576	13.28
665.902	13.18
666.228	13.29
666.554	13.35
666.881	13.21
667.207	12.95
667.533	13.6
667.859	13.53
668.185	13.48
668.511	13.43
668.837	12.97
669.162	13.74
669.488	13.4
669.814	13.99
670.139	13.5
670.465	14.04
670.791	14.08
671.116	13.83
671.442	13.77
671.767	13.23
672.092	14.23
672.418	13.76
672.743	13.78
673.068	14.35
673.393	14.19
673.718	13.57
674.043	14.5
674.368	14.17
674.693	14.18
675.018	14.64
675.343	14.68
675.667	14.42
675.992	14.1
676.317	14.04
676.641	14.85
676.966	14.66
677.29	13.84
677.615	14.83
677.939	14.54
678.264	14.53
678.588	14.69
678.912	15.06
679.236	14.44
679.56	14.26
679.885	14.7
680.209	14.44
680.532	14.84
680.856	14.85
681.18	15.05
681.504	14.67
681.828	15.46
682.152	15.59
682.475	15.26
682.799	14.96
683.122	14.91
683.446	15.01
683.769	15.29
684.093	15.28
684.416	15.24
684.739	15.52
685.062	15.51
685.386	14.92
685.709	15.97
686.032	14.94
686.355	15.09
686.678	15.03
687.001	14.77
687.324	14.95
687.646	14.88
687.969	15.22
688.292	15.78
688.614	16.15
688.937	15.71
