Data from 0185_forehead_Reflection_Reflection__0__000.txt Node

Date: Mon Aug 28 18:36:06 CDT 2023
User: ToomeyLab
Spectrometer: FLMS14357
Trigger mode: 0
Integration Time (sec): 1.000000E-2
Scans to average: 100
Electric dark correction enabled: true
Nonlinearity correction enabled: false
Boxcar width: 0
XAxis mode: Wavelengths
Number of Pixels in Spectrum: 2048
>>>>>Begin Spectral Data<<<<<
189.047	-49.92
189.435	-49.92
189.823	-49.92
190.211	-3367.44
190.599	307.05
190.987	336.35
191.375	32.87
191.763	114.07
192.151	-7.54
192.538	35.59
192.926	181.39
193.314	-872.23
193.702	82.57
194.089	98.32
194.477	2475.29
194.864	-311.99
195.252	-35.91
195.639	-2892.31
196.027	127.74
196.414	313.67
196.801	44.89
197.189	88.39
197.576	-163.29
197.963	-47.71
198.351	54.42
198.738	28.76
199.125	35.88
199.512	71.93
199.899	77.98
200.286	-34.05
200.673	40.18
201.06	42.87
201.447	-19.3
201.833	19.3
202.22	51.5
202.607	25.87
202.994	64.15
203.38	43.25
203.767	38.43
204.154	-17.07
204.54	36.52
204.927	28.03
205.313	76.7
205.699	34.8
206.086	94.63
206.472	56.89
206.858	52.97
207.245	26.59
207.631	77.9
208.017	24.99
208.403	46.33
208.789	59.3
209.175	1.1
209.561	40.79
209.947	25.18
210.333	19.04
210.719	33.93
211.105	45.59
211.491	29.8
211.876	68.61
212.262	167.28
212.648	30.25
213.034	103.66
213.419	51.12
213.805	26.24
214.19	71.93
214.576	59.36
214.961	70.14
215.346	33.34
215.732	72.02
216.117	40.46
216.502	44.87
216.888	-17.16
217.273	11.88
217.658	49.98
218.043	29.64
218.428	15.38
218.813	16.47
219.198	73.95
219.583	41.23
219.968	50.18
220.353	33.8
220.738	25.16
221.122	29.81
221.507	26.11
221.892	23.63
222.276	3.15
222.661	41.72
223.046	17.27
223.43	12.98
223.815	34.53
224.199	25.16
224.583	20.85
224.968	13.57
225.352	25.04
225.736	16.12
226.121	12.67
226.505	11.09
226.889	19.37
227.273	23.78
227.657	19.53
228.041	17.14
228.425	10.6
228.809	9.47
229.193	12.24
229.577	13.08
229.961	10.97
230.344	12.09
230.728	10.18
231.112	8.99
231.495	8.57
231.879	9.17
232.263	9.26
232.646	9.14
233.03	9.39
233.413	12.37
233.797	6.36
234.18	9.87
234.563	11.93
234.946	11.7
235.33	8.68
235.713	9.37
236.096	10.53
236.479	9.6
236.862	10.24
237.245	10.68
237.628	11.72
238.011	11.54
238.394	10.54
238.777	12.22
239.16	9.25
239.543	10.58
239.925	13.91
240.308	9.71
240.691	11.58
241.073	7.55
241.456	8.31
241.838	8.99
242.221	10.73
242.603	10.59
242.986	9.42
243.368	8.58
243.75	8.39
244.133	8.67
244.515	8.22
244.897	8.83
245.279	9.39
245.661	8.13
246.043	9.03
246.425	8.91
246.807	10.46
247.189	8.18
247.571	9.2
247.953	9.04
248.335	8.25
248.717	8.56
249.098	8.52
249.48	8.58
249.862	8.78
250.243	8.78
250.625	9.44
251.006	9.49
251.388	8.91
251.769	9.03
252.151	9.78
252.532	9.05
252.913	11.02
253.295	8.1
253.676	8.7
254.057	8.76
254.438	8.29
254.819	8.57
255.2	9.55
255.581	8.47
255.962	9.1
256.343	10.45
256.724	7.77
257.105	9.44
257.486	10.05
257.867	8.94
258.247	8.36
258.628	10.36
259.009	8.53
259.389	8.41
259.77	9.19
260.15	7.81
260.531	8.33
260.911	8.59
261.292	8.4
261.672	8.35
262.052	8.04
262.432	8.2
262.813	8.33
263.193	8.57
263.573	8.62
263.953	8.7
264.333	8.25
264.713	8.1
265.093	9.3
265.473	8.94
265.853	8.18
266.233	8.2
266.612	8.63
266.992	8.24
267.372	7.86
267.752	9.37
268.131	9.14
268.511	8.16
268.89	8.58
269.27	8.23
269.649	8.36
270.029	8.71
270.408	9
270.787	8.72
271.167	8.43
271.546	8.62
271.925	8.55
272.304	8.21
272.683	8.52
273.062	7.99
273.441	8.3
273.82	7.97
274.199	7.7
274.578	8.24
274.957	8.02
275.336	8.3
275.715	8.66
276.093	8.03
276.472	8.37
276.851	8.32
277.229	8.93
277.608	8.59
277.986	7.67
278.365	8.41
278.743	7.99
279.122	8.46
279.5	7.7
279.878	7.82
280.257	7.84
280.635	8.43
281.013	8.62
281.391	8.43
281.769	7.94
282.147	8.19
282.525	8.62
282.903	8.43
283.281	8.2
283.659	8.37
284.037	8.86
284.415	8.08
284.792	8.06
285.17	7.88
285.548	8.28
285.925	9
286.303	8.54
286.68	8.38
287.058	8.47
287.435	8.38
287.813	8.32
288.19	8.31
288.567	8.21
288.945	7.91
289.322	8.47
289.699	8.4
290.076	8.67
290.453	8.22
290.83	7.96
291.207	8.46
291.584	8.97
291.961	8.94
292.338	8.54
292.715	8.9
293.092	9
293.469	8.79
293.845	8.71
294.222	9.16
294.599	8.93
294.975	9.45
295.352	8.96
295.728	9.06
296.105	9.53
296.481	9.72
296.858	10.08
297.234	9.8
297.61	10.05
297.986	9.47
298.363	10
298.739	9.62
299.115	9.71
299.491	9.99
299.867	9.7
300.243	10.06
300.619	9.92
300.995	10.39
301.371	10.35
301.746	10.18
302.122	10.47
302.498	10.58
302.874	10.84
303.249	10.87
303.625	10.78
304	10.65
304.376	11.12
304.751	11.41
305.127	11.69
305.502	11.12
305.878	11.09
306.253	11.66
306.628	11.84
307.003	11.19
307.378	11.76
307.754	11.62
308.129	11.99
308.504	12.84
308.879	12.64
309.254	12.98
309.629	12.53
310.003	13.07
310.378	13.35
310.753	12.89
311.128	13.42
311.502	14.01
311.877	13.38
312.252	13.69
312.626	13.67
313.001	13.8
313.375	14.22
313.75	13.96
314.124	14.05
314.498	14.42
314.873	15.11
315.247	14.91
315.621	14.65
315.995	15.19
316.369	14.96
316.743	14.81
317.117	15.01
317.491	14.8
317.865	15.57
318.239	16.21
318.613	16.11
318.987	16.71
319.361	16.3
319.734	16.31
320.108	16.99
320.482	16.66
320.855	16.55
321.229	16.94
321.602	17.37
321.976	17.27
322.349	17.7
322.723	16.74
323.096	17.9
323.469	17.49
323.843	18.36
324.216	18.22
324.589	17.91
324.962	18.18
325.335	18.75
325.708	18.36
326.081	19.15
326.454	18.73
326.827	18.86
327.2	18.72
327.573	19.19
327.945	19.47
328.318	19.47
328.691	19.17
329.063	18.44
329.436	18.97
329.809	20.31
330.181	19.27
330.553	19.42
330.926	19.96
331.298	20.03
331.671	19.92
332.043	19.79
332.415	21.03
332.787	20.16
333.159	20.63
333.532	20.77
333.904	21.04
334.276	20.52
334.648	21.14
335.02	21.29
335.391	21.29
335.763	21.21
336.135	21.96
336.507	21.5
336.879	21.13
337.25	22.16
337.622	22
337.993	22.2
338.365	21.79
338.736	21.77
339.108	22
339.479	22.05
339.851	22.61
340.222	22.89
340.593	23
340.964	23.42
341.336	22.88
341.707	23.26
342.078	23.28
342.449	23.32
342.82	23.65
343.191	23.5
343.562	23.86
343.933	23.75
344.303	23.59
344.674	24.15
345.045	24.26
345.416	24.46
345.786	24.39
346.157	24.52
346.527	24.16
346.898	24.38
347.268	24.23
347.639	24.32
348.009	24.82
348.38	25.21
348.75	24.86
349.12	25.7
349.49	24.98
349.861	24.7
350.231	25.16
350.601	25.4
350.971	25.69
351.341	25.68
351.711	25.87
352.081	25.86
352.45	26.01
352.82	26.1
353.19	26.72
353.56	26.19
353.929	26.67
354.299	26.45
354.669	26.73
355.038	26.67
355.408	27.15
355.777	26.85
356.147	26.63
356.516	26.8
356.885	27.4
357.254	27.02
357.624	27.22
357.993	27.39
358.362	27.12
358.731	27.78
359.1	27.92
359.469	28.01
359.838	27.75
360.207	27.86
360.576	28.49
360.945	28.26
361.314	28.12
361.682	28.49
362.051	28.67
362.42	28.49
362.788	28.38
363.157	28.63
363.525	28.61
363.894	28.85
364.262	29.01
364.631	28.93
364.999	29.06
365.367	29.3
365.735	29.63
366.104	29.47
366.472	29.72
366.84	29.73
367.208	29.92
367.576	30.04
367.944	30.21
368.312	30.34
368.68	30.05
369.048	30.57
369.416	30.33
369.783	30.6
370.151	30.44
370.519	30.94
370.886	30.72
371.254	30.72
371.621	31.4
371.989	31.12
372.356	31.38
372.724	32.03
373.091	31.94
373.458	31.58
373.826	31.8
374.193	31.63
374.56	31.76
374.927	31.96
375.294	32.1
375.661	32.34
376.028	32.37
376.395	32.29
376.762	32.7
377.129	32.69
377.496	32.81
377.863	32.98
378.229	32.97
378.596	32.95
378.963	33.44
379.329	33.28
379.696	33.44
380.062	33.13
380.429	33.23
380.795	34.02
381.161	34.15
381.528	34.18
381.894	34.07
382.26	34.28
382.626	34.62
382.993	34.58
383.359	34.38
383.725	35.03
384.091	34.43
384.457	35.19
384.823	35.09
385.188	35.18
385.554	34.69
385.92	35.18
386.286	35.29
386.651	35.3
387.017	35.52
387.383	35.56
387.748	35.62
388.114	35.62
388.479	35.79
388.845	35.89
389.21	35.99
389.575	35.96
389.94	36.48
390.306	36.63
390.671	36.61
391.036	36.58
391.401	36.81
391.766	37.03
392.131	36.81
392.496	37.07
392.861	37.03
393.226	37.22
393.591	37.27
393.956	36.98
394.32	37.14
394.685	37.44
395.05	37.49
395.414	38
395.779	37.63
396.143	37.93
396.508	37.87
396.872	38.11
397.236	38.1
397.601	38.36
397.965	38.61
398.329	38.32
398.694	38.37
399.058	38.65
399.422	38.58
399.786	39.13
400.15	38.87
400.514	39.11
400.878	39.09
401.242	39.46
401.605	39.64
401.969	39.66
402.333	39.72
402.697	39.89
403.06	39.81
403.424	40.33
403.787	40
404.151	40.11
404.514	40.21
404.878	40.6
405.241	40.33
405.604	40.23
405.968	40.29
406.331	40.99
406.694	40.45
407.057	40.63
407.42	40.53
407.783	40.75
408.146	40.95
408.509	41.42
408.872	41.05
409.235	41.24
409.598	41.4
409.961	41.46
410.323	41.65
410.686	41.78
411.049	41.86
411.411	41.83
411.774	41.88
412.136	41.77
412.499	41.92
412.861	42.16
413.223	42.06
413.586	42.32
413.948	42.51
414.31	42.57
414.672	42.64
415.035	42.62
415.397	42.59
415.759	42.95
416.121	43.42
416.483	43.01
416.845	43.32
417.206	43.28
417.568	43.55
417.93	43.28
418.292	43.37
418.653	43.26
419.015	43.28
419.377	43.18
419.738	43.65
420.1	43.57
420.461	43.42
420.822	43.54
421.184	43.62
421.545	43.79
421.906	43.83
422.267	43.59
422.629	43.87
422.99	43.6
423.351	43.81
423.712	43.79
424.073	43.96
424.434	44.09
424.795	44.38
425.155	44.44
425.516	44.26
425.877	44.49
426.238	44.33
426.598	44.32
426.959	44.57
427.32	44.66
427.68	44.77
428.041	44.96
428.401	45.15
428.761	45.65
429.122	45.56
429.482	45.66
429.842	45.93
430.202	46.11
430.563	46.2
430.923	46.36
431.283	46.61
431.643	46.14
432.003	46.55
432.363	46.63
432.722	46.89
433.082	46.68
433.442	46.98
433.802	46.99
434.161	47.05
434.521	46.89
434.881	46.99
435.24	46.95
435.6	47.05
435.959	46.9
436.319	47.07
436.678	47.18
437.037	47.51
437.396	47.71
437.756	47.86
438.115	47.82
438.474	48.02
438.833	48.11
439.192	48.37
439.551	48.28
439.91	48.2
440.269	48.24
440.628	48.32
440.987	48.41
441.345	48.27
441.704	48.28
442.063	48.33
442.421	48.45
442.78	48.49
443.138	48.51
443.497	48.59
443.855	48.61
444.214	48.83
444.572	48.96
444.93	49.43
445.288	49.17
445.647	49.57
446.005	49.44
446.363	49.58
446.721	49.54
447.079	49.35
447.437	49.61
447.795	49.34
448.153	49.3
448.51	49.31
448.868	49.49
449.226	49.46
449.584	49.56
449.941	49.82
450.299	50.1
450.656	50.12
451.014	50.44
451.371	50.26
451.729	50.63
452.086	50.6
452.443	50.85
452.801	51.1
453.158	51.17
453.515	51.16
453.872	51.09
454.229	51.63
454.586	51.36
454.943	51.12
455.3	51.33
455.657	51.37
456.014	51.51
456.371	51.49
456.727	51.82
457.084	51.8
457.441	51.97
457.797	51.84
458.154	51.92
458.51	52.34
458.867	52.33
459.223	52.26
459.58	52.45
459.936	52.42
460.292	52.5
460.648	52.52
461.005	52.33
461.361	52.42
461.717	52.23
462.073	52.11
462.429	52.21
462.785	52.39
463.141	52.77
463.496	52.74
463.852	52.98
464.208	53.12
464.564	53.41
464.919	53.44
465.275	53.93
465.631	53.51
465.986	53.93
466.342	53.87
466.697	53.64
467.052	53.61
467.408	53.77
467.763	54.28
468.118	53.98
468.473	53.97
468.829	54.21
469.184	54.13
469.539	54.16
469.894	54.11
470.249	54.52
470.603	54.5
470.958	54.7
471.313	54.67
471.668	54.63
472.023	55.18
472.377	54.88
472.732	54.97
473.086	55.06
473.441	55.28
473.795	55.31
474.15	55.25
474.504	55.71
474.859	55.34
475.213	55.36
475.567	55.31
475.921	55.51
476.275	55.9
476.63	55.71
476.984	55.9
477.338	56.12
477.692	56.13
478.045	56.21
478.399	56.11
478.753	56.01
479.107	56.1
479.461	56.17
479.814	56.25
480.168	56.42
480.521	55.99
480.875	56.48
481.228	56.37
481.582	56.47
481.935	56.37
482.289	56.67
482.642	56.8
482.995	56.77
483.348	56.83
483.701	56.63
484.055	56.62
484.408	56.38
484.761	56.33
485.114	56.46
485.466	56.2
485.819	56.27
486.172	56.29
486.525	56.24
486.878	56.18
487.23	55.92
487.583	56.01
487.936	56.41
488.288	56.66
488.641	56.93
488.993	56.71
489.345	56.84
489.698	56.81
490.05	56.58
490.402	56.64
490.754	56.9
491.107	56.9
491.459	57.02
491.811	57.28
492.163	57.77
492.515	57.9
492.866	57.91
493.218	57.65
493.57	57.56
493.922	57.57
494.274	57.55
494.625	57.36
494.977	57.55
495.328	57.98
495.68	58.33
496.031	58.66
496.383	58.88
496.734	58.8
497.086	59.16
497.437	59.34
497.788	59.4
498.139	59.27
498.49	59.48
498.842	59.25
499.193	59.02
499.544	58.99
499.894	59.25
500.245	59.45
500.596	59.31
500.947	59.19
501.298	59.59
501.648	59.93
501.999	60
502.35	59.94
502.7	60.13
503.051	60.04
503.401	59.85
503.752	60.19
504.102	60.44
504.452	60.38
504.803	60.4
505.153	60.52
505.503	60.52
505.853	60.37
506.203	60.92
506.553	60.61
506.903	60.74
507.253	60.66
507.603	60.58
507.953	60.8
508.303	60.88
508.652	61.25
509.002	61.24
509.352	60.98
509.701	61.34
510.051	61.35
510.4	61.23
510.75	60.91
511.099	61.04
511.449	61.02
511.798	61.05
512.147	61.33
512.496	61.35
512.846	61.57
513.195	61.57
513.544	61.68
513.893	61.71
514.242	61.85
514.591	61.77
514.939	61.71
515.288	61.89
515.637	62.14
515.986	61.82
516.334	62.23
516.683	62.25
517.032	62.14
517.38	62.23
517.729	62.33
518.077	62.58
518.426	62.52
518.774	62.58
519.122	62.61
519.47	62.55
519.819	62.54
520.167	62.24
520.515	62.08
520.863	62.02
521.211	62.18
521.559	62.11
521.907	62.22
522.255	62.46
522.602	62.43
522.95	62.7
523.298	63.06
523.645	62.91
523.993	63.2
524.341	63.55
524.688	63.78
525.036	63.62
525.383	63.4
525.73	63.61
526.078	63.56
526.425	63.74
526.772	63.62
527.119	63.45
527.466	63.28
527.814	62.93
528.161	63.06
528.508	63
528.854	63.13
529.201	63.22
529.548	63.42
529.895	63.49
530.242	63.36
530.588	63.25
530.935	63.42
531.282	63.2
531.628	63.16
531.975	62.78
532.321	63.03
532.667	63.14
533.014	63.46
533.36	63.66
533.706	64.06
534.052	64.04
534.399	64.25
534.745	64.09
535.091	63.91
535.437	64.05
535.783	63.98
536.129	63.91
536.474	63.95
536.82	64.16
537.166	64.36
537.512	64.55
537.857	64.95
538.203	64.63
538.549	64.69
538.894	64.46
539.239	64.51
539.585	64.63
539.93	64.63
540.276	64.75
540.621	65.38
540.966	65.49
541.311	65.52
541.656	65.96
542.001	65.71
542.346	65.73
542.691	65.58
543.036	65.26
543.381	64.93
543.726	64.93
544.071	64.87
544.415	64.79
544.76	65.04
545.105	65.03
545.449	65.28
545.794	65.36
546.138	65.51
546.483	65.89
546.827	65.77
547.171	66.14
547.516	66.06
547.86	66.25
548.204	66.2
548.548	66.45
548.892	66.05
549.236	65.99
549.58	66.29
549.924	66.57
550.268	66.49
550.612	66.64
550.956	67
551.3	66.63
551.643	67.43
551.987	67.13
552.33	67.3
552.674	67.49
553.017	67.47
553.361	67.65
553.704	67.59
554.048	67.65
554.391	67.63
554.734	67.52
555.077	67.35
555.42	67.39
555.764	67.52
556.107	67.75
556.45	67.48
556.793	67.55
557.135	67.9
557.478	67.98
557.821	68.18
558.164	68.05
558.507	68.16
558.849	68.21
559.192	68.4
559.534	68.32
559.877	68.52
560.219	68.57
560.562	68.73
560.904	68.46
561.246	68.71
561.589	68.75
561.931	68.77
562.273	68.47
562.615	68.41
562.957	68.75
563.299	68.84
563.641	68.11
563.983	68.88
564.325	68.6
564.667	68.9
565.008	68.9
565.35	69.5
565.692	69.3
566.033	69.07
566.375	68.91
566.716	69.3
567.058	69.2
567.399	69.11
567.741	69.05
568.082	69.04
568.423	69.08
568.764	69.28
569.105	69.03
569.447	69.11
569.788	69.04
570.129	69.18
570.47	69.49
570.811	69.54
571.151	69.81
571.492	69.19
571.833	69.39
572.174	69.84
572.514	70.13
572.855	69.8
573.195	69.77
573.536	69.47
573.876	69.82
574.217	69.9
574.557	69.79
574.898	70.18
575.238	69.6
575.578	70.1
575.918	69.72
576.258	69.84
576.598	70.24
576.938	69.99
577.278	70.3
577.618	70.53
577.958	70.47
578.298	70.43
578.638	70.54
578.977	70.22
579.317	70.36
579.657	70.5
579.996	70.73
580.336	70.79
580.675	71.07
581.014	71.14
581.354	70.96
581.693	71.34
582.032	71.25
582.372	71.39
582.711	71.4
583.05	71.11
583.389	71.77
583.728	71.4
584.067	71.49
584.406	71.75
584.745	71.67
585.083	71.6
585.422	71.56
585.761	71.96
586.1	71.78
586.438	71.52
586.777	71.77
587.115	71.32
587.454	72.11
587.792	71.97
588.13	71.63
588.469	72.05
588.807	72.13
589.145	72.28
589.483	72.16
589.821	72.02
590.159	72.23
590.497	72.35
590.835	72.05
591.173	71.84
591.511	71.9
591.849	72.15
592.187	72.13
592.524	71.99
592.862	72.01
593.2	72.3
593.537	72.06
593.875	73.1
594.212	71.92
594.55	72.91
594.887	72.57
595.224	72.63
595.561	73.03
595.899	72.9
596.236	72.99
596.573	72.83
596.91	72.74
597.247	72.71
597.584	73.05
597.921	72.95
598.258	73.18
598.594	72.71
598.931	72.87
599.268	72.61
599.604	72.7
599.941	72.41
600.277	72.1
600.614	72.5
600.95	73.04
601.287	73.12
601.623	73.12
601.959	73.18
602.296	73.03
602.632	73.38
602.968	73.97
603.304	73.52
603.64	73.8
603.976	73.84
604.312	73.85
604.648	73.59
604.984	73.73
605.319	73.47
605.655	73.66
605.991	73.43
606.326	73.53
606.662	73.2
606.998	72.64
607.333	73
607.668	73.4
608.004	73.19
608.339	73.63
608.674	73.79
609.01	74
609.345	73.85
609.68	74.01
610.015	74.14
610.35	74.26
610.685	74.3
611.02	74.37
611.355	74.04
611.689	73.76
612.024	73.86
612.359	74.26
612.694	74.14
613.028	74.11
613.363	74.09
613.697	73.95
614.032	74.69
614.366	74.02
614.7	74.65
615.035	74.31
615.369	74.88
615.703	74.64
616.037	74.79
616.371	74.53
616.705	74.77
617.039	74.88
617.373	74.83
617.707	74.81
618.041	74.7
618.375	74.82
618.709	74.2
619.042	74.65
619.376	75.65
619.71	75.2
620.043	75.3
620.377	75.32
620.71	75.39
621.043	75.31
621.377	74.9
621.71	75.03
622.043	75.29
622.376	75.71
622.709	75.37
623.043	75.75
623.376	75.77
623.709	74.96
624.041	75.99
624.374	75.63
624.707	75.45
625.04	75.83
625.373	75.86
625.705	75.45
626.038	75.91
626.37	76.12
626.703	75.78
627.035	76.11
627.368	75.96
627.7	75.9
628.032	76.12
628.365	76.37
628.697	75.66
629.029	75.63
629.361	75.89
629.693	75.7
630.025	75.66
630.357	75.48
630.689	76.09
631.021	75.99
631.353	76.28
631.684	75.94
632.016	76.46
632.348	76.64
632.679	76.26
633.011	76.46
633.342	76.44
633.674	76.2
634.005	76.54
634.336	76.12
634.668	76.9
634.999	76.82
635.33	76.14
635.661	76.37
635.992	75.98
636.323	76.98
636.654	76.38
636.985	76.59
637.316	75.91
637.647	77.25
637.977	76.96
638.308	76.42
638.639	76.57
638.969	77.08
639.3	76.92
639.63	76.51
639.961	76.76
640.291	76.57
640.622	77.4
640.952	76.44
641.282	77.15
641.612	77.29
641.943	77.08
642.273	77.38
642.603	77.32
642.933	77.46
643.263	77.5
643.592	77.71
643.922	77.41
644.252	77.29
644.582	77.47
644.911	78.07
645.241	77.42
645.571	77.67
645.9	77.81
646.23	76.87
646.559	77.92
646.888	78.18
647.218	77.69
647.547	77.64
647.876	78.01
648.205	77.28
648.534	79.09
648.863	78.19
649.192	77.43
649.521	77.58
649.85	77.81
650.179	77.83
650.508	77.78
650.837	77.65
651.165	77.74
651.494	76.94
651.822	78.59
652.151	77.86
652.479	77.98
652.808	78.81
653.136	78.2
653.465	78.32
653.793	79.18
654.121	78.59
654.449	78.76
654.777	78.25
655.105	78.86
655.433	78.82
655.761	78.27
656.089	78.35
656.417	78.32
656.745	78.75
657.073	78.19
657.4	78.52
657.728	78.71
658.056	78.34
658.383	79.31
658.711	79.26
659.038	78.6
659.365	79.06
659.693	78.97
660.02	79.05
660.347	79.27
660.674	78.73
661.001	78.62
661.329	79.09
661.656	79.14
661.982	78.43
662.309	78.76
662.636	79.09
662.963	78.85
663.29	79.8
663.616	79.18
663.943	78.36
664.27	79.44
664.596	79.77
664.923	79.03
665.249	79.07
665.576	78.98
665.902	78.71
666.228	79.08
666.554	79.14
666.881	78.61
667.207	78.81
