Data from 0185_crown_Reflection__4__009.txt Node

Date: Mon Aug 28 18:39:57 CDT 2023
User: ToomeyLab
Spectrometer: FLMS14357
Trigger mode: 0
Integration Time (sec): 1.000000E-2
Scans to average: 100
Electric dark correction enabled: true
Nonlinearity correction enabled: false
Boxcar width: 0
XAxis mode: Wavelengths
Number of Pixels in Spectrum: 2048
>>>>>Begin Spectral Data<<<<<
189.047	64.25
189.435	64.25
189.823	64.25
190.211	-746.51
190.599	219.04
190.987	467.92
191.375	-43.13
191.763	70.32
192.151	-21.49
192.538	-16.59
192.926	111.41
193.314	339.28
193.702	370.85
194.089	134.54
194.477	2316.47
194.864	-65.31
195.252	-2.1
195.639	-2624.79
196.027	128.56
196.414	436.07
196.801	195.62
197.189	4.48
197.576	106.68
197.963	-21.72
198.351	3.65
198.738	33.98
199.125	-3.67
199.512	-9.91
199.899	-14.7
200.286	-34.78
200.673	8.48
201.06	24.29
201.447	24.74
201.833	-50.74
202.22	57.29
202.607	9.7
202.994	17.94
203.38	38.43
203.767	3.28
204.154	-5.12
204.54	22
204.927	-21.41
205.313	56.45
205.699	24.72
206.086	60.03
206.472	-6.34
206.858	-61.12
207.245	4.91
207.631	-3.53
208.017	20.18
208.403	9.36
208.789	9.72
209.175	-19.92
209.561	-1.27
209.947	11.57
210.333	-18.49
210.719	10.77
211.105	29.72
211.491	18.22
211.876	21.41
212.262	97.15
212.648	23.81
213.034	8.79
213.419	8.53
213.805	-3.05
214.19	7.98
214.576	39.8
214.961	-3.82
215.346	-1.66
215.732	11.92
216.117	-11.33
216.502	15.3
216.888	-26.72
217.273	-17.7
217.658	7.23
218.043	-0.3
218.428	14.45
218.813	-19.57
219.198	26.31
219.583	30.97
219.968	7.51
220.353	0.28
220.738	0.53
221.122	-12.27
221.507	3.18
221.892	-12.76
222.276	-0.7
222.661	15.87
223.046	1.08
223.43	3.27
223.815	15.56
224.199	17.52
224.583	1.69
224.968	15.14
225.352	9.02
225.736	-2.2
226.121	1.61
226.505	3.92
226.889	4.92
227.273	9.41
227.657	4.74
228.041	4.35
228.425	4.87
228.809	6.32
229.193	0.12
229.577	6.69
229.961	4.77
230.344	3.63
230.728	4.41
231.112	3.21
231.495	3.97
231.879	3.17
232.263	3.6
232.646	3.42
233.03	3.66
233.413	5.99
233.797	3.59
234.18	2.8
234.563	3.61
234.946	7
235.33	3.15
235.713	1.41
236.096	5.72
236.479	3.12
236.862	6.2
237.245	2.89
237.628	4.51
238.011	4.05
238.394	4.22
238.777	5.04
239.16	3.21
239.543	2.43
239.925	6.05
240.308	4.48
240.691	3.46
241.073	3.15
241.456	3.47
241.838	3.72
242.221	4.95
242.603	5.1
242.986	5.92
243.368	4.37
243.75	3.84
244.133	3.66
244.515	3.45
244.897	4.1
245.279	4.33
245.661	3.38
246.043	3.52
246.425	3.38
246.807	5.05
247.189	3.43
247.571	4.63
247.953	4.31
248.335	4.11
248.717	3.52
249.098	3.8
249.48	3.88
249.862	3.9
250.243	3.99
250.625	4.09
251.006	3.71
251.388	4.08
251.769	5.21
252.151	3.92
252.532	2.66
252.913	4.04
253.295	2.64
253.676	3.56
254.057	3.75
254.438	3.28
254.819	3.72
255.2	3.89
255.581	4.05
255.962	3.65
256.343	5.07
256.724	2.53
257.105	4.13
257.486	4.69
257.867	2.46
258.247	4.26
258.628	4.59
259.009	3.89
259.389	2.43
259.77	3.66
260.15	3.58
260.531	2.93
260.911	3.7
261.292	3.59
261.672	3.39
262.052	3.12
262.432	3.33
262.813	3.77
263.193	3.31
263.573	2.46
263.953	3.08
264.333	3.18
264.713	3.45
265.093	3.9
265.473	3.81
265.853	3.03
266.233	2.64
266.612	3.77
266.992	2.68
267.372	3.48
267.752	4.01
268.131	3.87
268.511	2.91
268.89	3.32
269.27	3.11
269.649	3.66
270.029	3.24
270.408	3.32
270.787	3.84
271.167	3.3
271.546	3.29
271.925	3.37
272.304	3.51
272.683	3.58
273.062	3.16
273.441	3.08
273.82	3.06
274.199	3.07
274.578	3.64
274.957	3.43
275.336	3.91
275.715	3.6
276.093	2.95
276.472	2.78
276.851	2.72
277.229	3.29
277.608	3.34
277.986	3.8
278.365	3.65
278.743	2.46
279.122	2.52
279.5	2.9
279.878	2.56
280.257	2.89
280.635	3.63
281.013	2.81
281.391	2.81
281.769	2.86
282.147	3.4
282.525	3.43
282.903	2.96
283.281	3.3
283.659	3.67
284.037	3.74
284.415	3.05
284.792	3.49
285.17	3.28
285.548	3.01
285.925	3.74
286.303	3.22
286.68	3.28
287.058	3.38
287.435	2.82
287.813	2.92
288.19	3.67
288.567	3.32
288.945	3.29
289.322	3
289.699	3.22
290.076	3.72
290.453	3.36
290.83	2.82
291.207	2.94
291.584	2.92
291.961	3.25
292.338	2.89
292.715	2.95
293.092	3.23
293.469	3.23
293.845	3.07
294.222	2.9
294.599	3.11
294.975	3.42
295.352	3.12
295.728	3.13
296.105	3.11
296.481	3.27
296.858	3.54
297.234	3.45
297.61	3.25
297.986	3.37
298.363	3.7
298.739	3.14
299.115	3.14
299.491	3.42
299.867	3.25
300.243	3.39
300.619	3.6
300.995	3.62
301.371	3.32
301.746	3.46
302.122	3.34
302.498	3.01
302.874	3.31
303.249	3.15
303.625	3.44
304	3.08
304.376	2.81
304.751	2.91
305.127	3.77
305.502	3.11
305.878	2.92
306.253	2.93
306.628	3.26
307.003	3.21
307.378	3.37
307.754	3.92
308.129	3.4
308.504	4.1
308.879	2.94
309.254	3.87
309.629	3.3
310.003	3.32
310.378	3.47
310.753	3.63
311.128	3.64
311.502	3.65
311.877	3.01
312.252	3.66
312.626	3.3
313.001	3.42
313.375	3.5
313.75	3.36
314.124	3.21
314.498	3.59
314.873	3.68
315.247	3.96
315.621	3.08
315.995	3.62
316.369	3.75
316.743	3.59
317.117	3.73
317.491	2.95
317.865	2.74
318.239	3.28
318.613	3.47
318.987	3.42
319.361	3.26
319.734	3.11
320.108	3.2
320.482	3.56
320.855	3.12
321.229	3.63
321.602	3.62
321.976	2.6
322.349	3.31
322.723	3.24
323.096	3.77
323.469	3.59
323.843	3.17
324.216	3.89
324.589	3.54
324.962	3.71
325.335	3.71
325.708	3.27
326.081	3.32
326.454	3.13
326.827	3.72
327.2	3.09
327.573	3.27
327.945	3.27
328.318	3.98
328.691	3.04
329.063	3.24
329.436	3.09
329.809	3.93
330.181	2.97
330.553	3.16
330.926	3.35
331.298	3.93
331.671	3.92
332.043	3.6
332.415	4.59
332.787	2.94
333.159	3.59
333.532	4.09
333.904	3.45
334.276	3.21
334.648	3.42
335.02	3.67
335.391	3.84
335.763	3.68
336.135	3.47
336.507	3.15
336.879	2.65
337.25	3.49
337.622	2.98
337.993	3.8
338.365	3.37
338.736	3.8
339.108	3.05
339.479	3
339.851	3.52
340.222	3.98
340.593	3.51
340.964	3.34
341.336	3.2
341.707	2.62
342.078	2.95
342.449	3.66
342.82	3.73
343.191	3.45
343.562	2.9
343.933	3.49
344.303	3.63
344.674	3.37
345.045	3.7
345.416	3.27
345.786	3.21
346.157	3.39
346.527	3.42
346.898	3.46
347.268	3.12
347.639	2.94
348.009	3.33
348.38	3.7
348.75	3.08
349.12	3.22
349.49	3.2
349.861	2.73
350.231	3.2
350.601	3.77
350.971	3.68
351.341	3.29
351.711	3.01
352.081	3.38
352.45	3.11
352.82	3.38
353.19	3.57
353.56	3.51
353.929	3.1
354.299	2.92
354.669	3.23
355.038	3.35
355.408	3.45
355.777	3.19
356.147	3.53
356.516	3.81
356.885	3.68
357.254	3.55
357.624	3.56
357.993	3.73
358.362	3.49
358.731	3.21
359.1	3.37
359.469	3.29
359.838	3.15
360.207	3.22
360.576	3.56
360.945	3.56
361.314	3.19
361.682	3.02
362.051	3.59
362.42	3.32
362.788	3.45
363.157	3.43
363.525	3.28
363.894	3.33
364.262	3.38
364.631	3.22
364.999	3.49
365.367	3.66
365.735	3.18
366.104	3.09
366.472	3.05
366.84	3.32
367.208	3.42
367.576	3.24
367.944	3.31
368.312	3.78
368.68	3.36
369.048	3.25
369.416	3.5
369.783	3.14
370.151	3.4
370.519	3.51
370.886	3.21
371.254	3.73
371.621	3.31
371.989	3.27
372.356	3.32
372.724	3.81
373.091	3.74
373.458	3.52
373.826	3.63
374.193	3.25
374.56	3.57
374.927	3.12
375.294	3.46
375.661	3.4
376.028	3.45
376.395	3.09
376.762	3.63
377.129	3.36
377.496	3.25
377.863	3.66
378.229	3.31
378.596	3.64
378.963	3.54
379.329	3.54
379.696	3.53
380.062	3.57
380.429	3.36
380.795	3.36
381.161	3.46
381.528	3.5
381.894	3.32
382.26	3.38
382.626	3.58
382.993	3.44
383.359	3.48
383.725	3.64
384.091	3.59
384.457	3.5
384.823	3.31
385.188	3.43
385.554	3.3
385.92	3.34
386.286	3.66
386.651	3.43
387.017	3.68
387.383	3.49
387.748	3.35
388.114	3.08
388.479	3.39
388.845	3.3
389.21	3.49
389.575	3.6
389.94	3.45
390.306	3.51
390.671	3.08
391.036	3.36
391.401	3.73
391.766	3.88
392.131	3.61
392.496	3.44
392.861	3.39
393.226	3.68
393.591	3.26
393.956	3.58
394.32	3.31
394.685	3.49
395.05	3.55
395.414	3.45
395.779	3.35
396.143	3.38
396.508	3.05
396.872	3.47
397.236	3.54
397.601	3.44
397.965	3.46
398.329	3.49
398.694	3.56
399.058	3.5
399.422	3.61
399.786	3.58
400.15	3.66
400.514	3.61
400.878	3.59
401.242	3.38
401.605	3.58
401.969	3.55
402.333	3.61
402.697	3.61
403.06	3.76
403.424	3.71
403.787	3.38
404.151	3.51
404.514	3.48
404.878	3.2
405.241	3.58
405.604	3.58
405.968	3.27
406.331	3.66
406.694	3.52
407.057	3.69
407.42	3.54
407.783	3.36
408.146	3.5
408.509	3.51
408.872	3.41
409.235	3.61
409.598	3.78
409.961	3.35
410.323	3.71
410.686	3.58
411.049	3.72
411.411	3.83
411.774	3.65
412.136	3.5
412.499	3.49
412.861	3.66
413.223	3.52
413.586	3.31
413.948	3.72
414.31	3.5
414.672	3.32
415.035	3.73
415.397	3.45
415.759	3.7
416.121	3.74
416.483	3.5
416.845	3.75
417.206	3.61
417.568	3.54
417.93	3.4
418.292	3.85
418.653	3.56
419.015	3.57
419.377	3.32
419.738	3.6
420.1	3.68
420.461	3.54
420.822	3.59
421.184	3.64
421.545	3.72
421.906	3.44
422.267	3.55
422.629	3.58
422.99	3.46
423.351	3.54
423.712	3.46
424.073	3.53
424.434	3.69
424.795	3.44
425.155	3.49
425.516	3.44
425.877	3.5
426.238	3.43
426.598	3.42
426.959	3.47
427.32	3.53
427.68	3.53
428.041	3.58
428.401	3.63
428.761	3.55
429.122	3.51
429.482	3.62
429.842	3.83
430.202	3.62
430.563	3.63
430.923	3.61
431.283	3.52
431.643	3.5
432.003	3.64
432.363	3.64
432.722	3.7
433.082	3.6
433.442	3.65
433.802	3.65
434.161	3.71
434.521	3.6
434.881	3.63
435.24	3.56
435.6	3.59
435.959	3.65
436.319	3.73
436.678	3.58
437.037	3.75
437.396	3.71
437.756	3.6
438.115	3.76
438.474	3.85
438.833	3.57
439.192	3.75
439.551	3.68
439.91	3.73
440.269	3.67
440.628	3.51
440.987	3.61
441.345	3.57
441.704	3.7
442.063	3.5
442.421	3.67
442.78	3.62
443.138	3.6
443.497	3.64
443.855	3.66
444.214	3.68
444.572	3.72
444.93	3.65
445.288	3.65
445.647	3.78
446.005	3.81
446.363	3.83
446.721	3.72
447.079	3.68
447.437	3.68
447.795	3.64
448.153	3.73
448.51	3.66
448.868	3.61
449.226	3.61
449.584	3.6
449.941	3.56
450.299	3.69
450.656	3.62
451.014	3.59
451.371	3.65
451.729	3.62
452.086	3.67
452.443	3.82
452.801	3.78
453.158	3.82
453.515	3.8
453.872	3.72
454.229	3.87
454.586	3.96
454.943	3.61
455.3	3.69
455.657	3.91
456.014	3.84
456.371	3.77
456.727	3.84
457.084	3.75
457.441	3.89
457.797	3.89
458.154	4
458.51	4.03
458.867	3.73
459.223	3.74
459.58	3.78
459.936	3.87
460.292	3.89
460.648	3.82
461.005	3.68
461.361	3.79
461.717	3.65
462.073	3.68
462.429	3.66
462.785	3.68
463.141	3.74
463.496	3.88
463.852	3.82
464.208	3.88
464.564	3.87
464.919	3.99
465.275	3.82
465.631	3.98
465.986	3.99
466.342	3.96
466.697	3.71
467.052	3.79
467.408	3.78
467.763	3.76
468.118	3.74
468.473	3.86
468.829	4.08
469.184	3.77
469.539	3.86
469.894	3.85
470.249	3.86
470.603	3.9
470.958	3.75
471.313	4.06
471.668	3.95
472.023	3.9
472.377	3.8
472.732	3.92
473.086	3.88
473.441	3.91
473.795	3.99
474.15	4.03
474.504	4
474.859	3.84
475.213	3.86
475.567	4
475.921	4.22
476.275	3.99
476.63	4.06
476.984	3.93
477.338	3.97
477.692	3.95
478.045	4.04
478.399	3.84
478.753	3.88
479.107	3.91
479.461	3.97
479.814	4.09
480.168	4.02
480.521	3.94
480.875	4.03
481.228	3.99
481.582	3.97
481.935	4.06
482.289	4.09
482.642	4.09
482.995	4.02
483.348	3.95
483.701	4
484.055	3.88
484.408	3.91
484.761	3.9
485.114	3.85
485.466	3.75
485.819	3.7
486.172	3.67
486.525	3.72
486.878	3.75
487.23	3.84
487.583	3.86
487.936	3.9
488.288	3.94
488.641	3.96
488.993	3.86
489.345	3.84
489.698	3.78
490.05	3.79
490.402	3.78
490.754	3.83
491.107	3.89
491.459	3.9
491.811	3.95
492.163	4.02
492.515	4.03
492.866	4.03
493.218	3.93
493.57	3.84
493.922	3.8
494.274	3.82
494.625	3.89
494.977	3.97
495.328	4.04
495.68	4.14
496.031	4.08
496.383	3.91
496.734	3.97
497.086	4.16
497.437	4.07
497.788	4.1
498.139	4.13
498.49	4
498.842	4.11
499.193	4.04
499.544	4.08
499.894	4
500.245	4.13
500.596	4.08
500.947	4.18
501.298	4.16
501.648	4
501.999	4.16
502.35	4.17
502.7	4.19
503.051	4.18
503.401	4.21
503.752	4.18
504.102	4.14
504.452	4.22
504.803	4.33
505.153	4.1
505.503	4.11
505.853	4.07
506.203	4.15
506.553	4.06
506.903	4.26
507.253	4.27
507.603	4.19
507.953	4.34
508.303	4.25
508.652	4.22
509.002	4.28
509.352	4.05
509.701	4.11
510.051	4.15
510.4	4.22
510.75	4.2
511.099	4.2
511.449	4.25
511.798	4.12
512.147	4.25
512.496	4.26
512.846	4.25
513.195	4.29
513.544	4.27
513.893	4.22
514.242	4.26
514.591	4.26
514.939	4.08
515.288	4.28
515.637	4.31
515.986	4.27
516.334	4.25
516.683	4.34
517.032	4.33
517.38	4.29
517.729	4.3
518.077	4.35
518.426	4.3
518.774	4.31
519.122	4.38
519.47	4.38
519.819	4.22
520.167	4.15
520.515	4.29
520.863	4.14
521.211	4.21
521.559	4.29
521.907	4.36
522.255	4.18
522.602	4.31
522.95	4.4
523.298	4.42
523.645	4.38
523.993	4.38
524.341	4.35
524.688	4.42
525.036	4.32
525.383	4.37
525.73	4.32
526.078	4.52
526.425	4.41
526.772	4.35
527.119	4.36
527.466	4.24
527.814	4.28
528.161	4.27
528.508	4.24
528.854	4.31
529.201	4.4
529.548	4.26
529.895	4.31
530.242	4.21
530.588	4.13
530.935	4.09
531.282	4.15
531.628	4.15
531.975	4.21
532.321	4.23
532.667	4.27
533.014	4.37
533.36	4.34
533.706	4.42
534.052	4.35
534.399	4.39
534.745	4.4
535.091	4.28
535.437	4.29
535.783	4.29
536.129	4.3
536.474	4.3
536.82	4.38
537.166	4.32
537.512	4.35
537.857	4.5
538.203	4.42
538.549	4.32
538.894	4.38
539.239	4.35
539.585	4.44
539.93	4.41
540.276	4.43
540.621	4.46
540.966	4.51
541.311	4.61
541.656	4.61
542.001	4.37
542.346	4.51
542.691	4.48
543.036	4.41
543.381	4.36
543.726	4.26
544.071	4.4
544.415	4.34
544.76	4.42
545.105	4.43
545.449	4.42
545.794	4.49
546.138	4.53
546.483	4.51
546.827	4.49
547.171	4.7
547.516	4.56
547.86	4.68
548.204	4.63
548.548	4.71
548.892	4.49
549.236	4.58
549.58	4.54
549.924	4.54
550.268	4.69
550.612	4.68
550.956	4.74
551.3	4.76
551.643	4.84
551.987	4.64
552.33	4.8
552.674	4.67
553.017	4.68
553.361	4.78
553.704	4.72
554.048	4.79
554.391	4.82
554.734	4.77
555.077	4.66
555.42	4.62
555.764	4.68
556.107	4.74
556.45	4.76
556.793	4.65
557.135	4.81
557.478	4.71
557.821	4.8
558.164	5.07
558.507	4.68
558.849	4.84
559.192	4.67
559.534	4.82
559.877	4.91
560.219	4.95
560.562	4.78
560.904	4.92
561.246	4.69
561.589	4.9
561.931	4.72
562.273	4.68
562.615	4.63
562.957	4.99
563.299	4.99
563.641	4.72
563.983	4.72
564.325	4.88
564.667	4.78
565.008	4.82
565.35	5.14
565.692	5.16
566.033	4.91
566.375	4.8
566.716	4.79
567.058	4.8
567.399	4.84
567.741	4.81
568.082	4.83
568.423	5.03
568.764	4.8
569.105	4.95
569.447	5
569.788	4.91
570.129	4.99
570.47	4.98
570.811	4.98
571.151	4.84
571.492	4.84
571.833	4.74
572.174	4.99
572.514	4.85
572.855	4.83
573.195	4.91
573.536	4.98
573.876	4.81
574.217	4.9
574.557	4.9
574.898	5.06
575.238	4.95
575.578	4.88
575.918	5.09
576.258	5.06
576.598	4.91
576.938	5.03
577.278	4.95
577.618	4.82
577.958	4.91
578.298	5.1
578.638	5.01
578.977	5.11
579.317	4.98
579.657	4.86
579.996	5.03
580.336	4.99
580.675	5.17
581.014	5.03
581.354	5.07
581.693	5.01
582.032	5.23
582.372	5.08
582.711	5.31
583.05	5.15
583.389	5.22
583.728	5.24
584.067	5.09
584.406	5.29
584.745	5.18
585.083	5.2
585.422	5.15
585.761	5.15
586.1	5.15
586.438	5.03
586.777	5.01
587.115	5.17
587.454	5.19
587.792	5.25
588.13	5.32
588.469	5.08
588.807	5.15
589.145	5.18
589.483	5.11
589.821	5.19
590.159	5.28
590.497	4.97
590.835	5.4
591.173	4.96
591.511	5.2
591.849	5.14
592.187	5.11
592.524	5.28
592.862	5.21
593.2	5.11
593.537	5.16
593.875	5.31
594.212	5.28
594.55	5.26
594.887	4.98
595.224	5.29
595.561	5.28
595.899	5.13
596.236	5.44
596.573	5.47
596.91	5.22
597.247	5.49
597.584	5.26
597.921	5.15
598.258	5.2
598.594	5.23
598.931	5.11
599.268	5.24
599.604	5.22
599.941	5.23
600.277	5.15
600.614	5.45
600.95	5.47
601.287	5.39
601.623	5.48
601.959	5.55
602.296	5.07
602.632	5.42
602.968	5.33
603.304	5.64
603.64	5.13
603.976	5.37
604.312	5.24
604.648	5.37
604.984	5.38
605.319	5.65
605.655	5.5
605.991	5.53
606.326	5.48
606.662	5.41
606.998	5.39
607.333	5.21
607.668	5.32
608.004	5.37
608.339	5.52
608.674	5.39
609.01	5.55
609.345	5.52
609.68	5.7
610.015	5.7
610.35	5.58
610.685	5.4
611.02	5.35
611.355	5.62
611.689	5.32
612.024	5.62
612.359	5.65
612.694	5.49
613.028	5.44
613.363	5.38
613.697	5.19
614.032	5.44
614.366	5.28
614.7	5.7
615.035	5.19
615.369	5.39
615.703	5.49
616.037	5.58
616.371	5.46
616.705	5.47
617.039	5.7
617.373	5.82
617.707	5.52
618.041	5.76
618.375	5.6
618.709	5.7
619.042	5.65
619.376	5.54
619.71	5.57
620.043	5.71
620.377	5.87
620.71	5.33
621.043	5.66
621.377	5.76
621.71	5.74
622.043	5.32
622.376	5.79
622.709	5.57
623.043	5.8
623.376	5.89
623.709	5.77
624.041	5.94
624.374	5.59
624.707	5.47
625.04	5.62
625.373	5.88
625.705	6.36
626.038	5.7
626.37	5.83
626.703	6
627.035	5.9
627.368	5.9
627.7	5.93
628.032	5.9
628.365	5.43
628.697	5.54
629.029	5.94
629.361	5.85
629.693	5.92
630.025	5.58
630.357	5.58
630.689	5.8
631.021	5.78
631.353	6.08
631.684	5.95
632.016	5.82
632.348	5.77
632.679	6.15
633.011	5.77
633.342	5.41
633.674	5.84
634.005	5.86
634.336	5.68
634.668	5.9
634.999	6.19
635.33	6.19
635.661	6.13
635.992	5.99
636.323	6.11
636.654	5.82
636.985	5.99
637.316	5.7
637.647	6.29
637.977	6.03
638.308	5.9
638.639	5.69
638.969	6.18
639.3	5.96
639.63	5.6
639.961	6.5
640.291	5.79
640.622	5.93
640.952	5.49
641.282	5.79
641.612	6.22
641.943	6.24
642.273	6.58
642.603	5.85
642.933	5.85
643.263	6.56
643.592	5.81
643.922	6.29
644.252	6.04
644.582	6.46
644.911	6.29
645.241	6.8
645.571	6.2
645.9	5.96
646.23	5.62
646.559	6.24
646.888	6.47
647.218	5.99
647.547	6.04
647.876	6.48
648.205	6.64
648.534	6.47
648.863	6.07
649.192	6.23
649.521	6.29
649.85	6.37
650.179	6.31
650.508	6.31
650.837	5.75
651.165	6.35
651.494	6.28
651.822	6.2
652.151	5.99
652.479	6.71
652.808	6.26
653.136	5.95
653.465	6.24
653.793	6.5
654.121	6.63
654.449	6.7
654.777	6.3
655.105	6.53
655.433	6.12
655.761	6.03
656.089	6.39
656.417	5.85
656.745	6.58
657.073	6.24
657.4	6.49
657.728	6.92
658.056	6.25
658.383	6.54
658.711	6.33
659.038	6.49
659.365	6.31
659.693	6.01
660.02	5.97
660.347	6.3
660.674	6.1
661.001	6.87
661.329	6.32
661.656	6.7
661.982	6.16
662.309	6.56
662.636	6.33
662.963	6.72
663.29	6.42
663.616	6.29
663.943	7.1
664.27	6.59
664.596	6.51
664.923	6.56
665.249	6.38
665.576	6.41
665.902	6.16
666.228	6.26
666.554	6.2
666.881	6.22
667.207	6.36
667.533	6.2
667.859	6.11
668.185	6.34
668.511	6.67
668.837	6.15
669.162	6.93
669.488	6.15
669.814	6.77
670.139	6.71
670.465	7.13
670.791	6.59
671.116	6.54
671.442	6.27
671.767	5.6
672.092	6.71
672.418	6.49
672.743	6.91
673.068	6.55
673.393	6.22
673.718	6.11
674.043	6.71
674.368	6.3
674.693	6.87
675.018	7.04
675.343	6.57
675.667	6.85
675.992	6.86
676.317	6.65
676.641	6.86
676.966	7.35
677.29	6.66
677.615	7.41
677.939	7.02
678.264	6.41
678.588	6.92
678.912	7.25
679.236	6.17
679.56	6.71
679.885	6.85
680.209	6.24
680.532	7.16
680.856	6.87
681.18	6.44
681.504	6.7
681.828	6.93
682.152	7.33
682.475	7.07
682.799	6.66
683.122	6.7
683.446	6.62
683.769	6.74
684.093	7.33
684.416	7.34
684.739	7.07
685.062	7.06
685.386	7.03
685.709	6.86
686.032	6.16
686.355	6.91
686.678	7.36
687.001	6.3
687.324	6.64
687.646	7.3
687.969	6.7
688.292	7.04
688.614	7.78
688.937	6.64
689.26	7.4
689.582	6.37
689.904	7.11
690.227	7
690.549	6.93
690.871	7.22
691.194	6.8
691.516	7.25
691.838	7.11
692.16	7.1
692.482	7.13
692.804	6.3
693.126	7.09
693.448	7.16
