Data from 0185_forehead_Reflection_Reflection__4__004.txt Node

Date: Mon Aug 28 18:36:59 CDT 2023
User: ToomeyLab
Spectrometer: FLMS14357
Trigger mode: 0
Integration Time (sec): 1.000000E-2
Scans to average: 100
Electric dark correction enabled: true
Nonlinearity correction enabled: false
Boxcar width: 0
XAxis mode: Wavelengths
Number of Pixels in Spectrum: 2048
>>>>>Begin Spectral Data<<<<<
189.047	-63.19
189.435	-63.19
189.823	-63.19
190.211	-13211.63
190.599	278.68
190.987	-45.41
191.375	-24.84
191.763	52.58
192.151	-81.07
192.538	35.97
192.926	332.82
193.314	-599.77
193.702	69
194.089	11.99
194.477	528.24
194.864	-85.8
195.252	79.5
195.639	1600.85
196.027	108.83
196.414	425.32
196.801	119.33
197.189	-23.07
197.576	94.35
197.963	97.23
198.351	47.44
198.738	106.82
199.125	63.42
199.512	78.44
199.899	64.69
200.286	129.57
200.673	29.4
201.06	43.48
201.447	-15.88
201.833	-7.43
202.22	58.5
202.607	28.31
202.994	70.2
203.38	61.05
203.767	26.91
204.154	41.84
204.54	-9.83
204.927	26.74
205.313	48.17
205.699	23.16
206.086	71.18
206.472	27.92
206.858	-14.61
207.245	35.49
207.631	38.64
208.017	28.63
208.403	22
208.789	11.85
209.175	4.26
209.561	15.02
209.947	28.48
210.333	36.15
210.719	45.12
211.105	69.8
211.491	26.76
211.876	39.38
212.262	79.26
212.648	54.63
213.034	42.73
213.419	19.23
213.805	31.35
214.19	54.95
214.576	21.05
214.961	38.43
215.346	19.85
215.732	46.67
216.117	46.79
216.502	54.01
216.888	-24.03
217.273	17.42
217.658	71.82
218.043	49.13
218.428	38.56
218.813	43.44
219.198	17.58
219.583	23.52
219.968	43.1
220.353	42.43
220.738	38.91
221.122	37.44
221.507	30.65
221.892	18.82
222.276	22.65
222.661	18.32
223.046	18.55
223.43	31.37
223.815	19.04
224.199	28.1
224.583	9.4
224.968	15.73
225.352	16.61
225.736	13.94
226.121	18.6
226.505	10.23
226.889	14.95
227.273	14.47
227.657	14.47
228.041	9.9
228.425	15.02
228.809	7.48
229.193	9.96
229.577	12.18
229.961	4.05
230.344	6.94
230.728	6.94
231.112	5.51
231.495	6.22
231.879	5.85
232.263	6.32
232.646	7.92
233.03	7.27
233.413	9.85
233.797	6.26
234.18	7.49
234.563	6.99
234.946	12.78
235.33	6.51
235.713	5.11
236.096	8.82
236.479	6.46
236.862	8.18
237.245	8.01
237.628	7.07
238.011	8.94
238.394	8.78
238.777	7.31
239.16	5.31
239.543	7.01
239.925	9.06
240.308	7.4
240.691	6.8
241.073	3.77
241.456	7.17
241.838	7.09
242.221	6.96
242.603	7.88
242.986	7.73
243.368	6.78
243.75	6.13
244.133	6.59
244.515	5.92
244.897	6.28
245.279	6.21
245.661	5.51
246.043	6.94
246.425	6.89
246.807	8.17
247.189	6.77
247.571	6.39
247.953	6.69
248.335	5.93
248.717	5.87
249.098	5.7
249.48	6.15
249.862	5.79
250.243	5.87
250.625	6.75
251.006	6.09
251.388	6.31
251.769	6.76
252.151	7.51
252.532	7
252.913	7.23
253.295	6.11
253.676	6.24
254.057	6.32
254.438	6.04
254.819	5.84
255.2	6.72
255.581	6.59
255.962	6.75
256.343	8.15
256.724	7.03
257.105	6.56
257.486	7.7
257.867	7.67
258.247	7.45
258.628	8.01
259.009	6.34
259.389	6.39
259.77	6.58
260.15	6.13
260.531	6.78
260.911	6.34
261.292	5.82
261.672	6.08
262.052	5.71
262.432	5.88
262.813	6.05
263.193	6.39
263.573	6.22
263.953	6.61
264.333	6.12
264.713	6.36
265.093	6.34
265.473	5.97
265.853	5.54
266.233	6.32
266.612	6.25
266.992	5.85
267.372	6.47
267.752	6.78
268.131	7.35
268.511	6.08
268.89	6.77
269.27	5.91
269.649	6.2
270.029	6.39
270.408	6.53
270.787	6.52
271.167	5.75
271.546	6.9
271.925	6.52
272.304	6.29
272.683	6.3
273.062	6.07
273.441	6.01
273.82	5.78
274.199	5.45
274.578	5.9
274.957	5.86
275.336	6.06
275.715	6.11
276.093	5.26
276.472	6.15
276.851	5.75
277.229	6.01
277.608	6.58
277.986	5.87
278.365	6.16
278.743	6.15
279.122	6.19
279.5	5.58
279.878	5.02
280.257	5.61
280.635	5.55
281.013	6.08
281.391	6.21
281.769	6.2
282.147	6.01
282.525	6.84
282.903	5.5
283.281	5.84
283.659	6.74
284.037	6.1
284.415	5.65
284.792	6.26
285.17	5.63
285.548	6
285.925	6.11
286.303	6.14
286.68	6.04
287.058	6.28
287.435	5.97
287.813	5.58
288.19	5.83
288.567	5.89
288.945	5.99
289.322	6.16
289.699	6.52
290.076	6.71
290.453	6.33
290.83	5.76
291.207	6.11
291.584	6.49
291.961	6.51
292.338	6.19
292.715	6.3
293.092	6.86
293.469	6.49
293.845	6.75
294.222	6.45
294.599	7.07
294.975	6.95
295.352	6.61
295.728	7.58
296.105	7.68
296.481	7.03
296.858	7.63
297.234	7.21
297.61	7.33
297.986	7.17
298.363	7.58
298.739	7.2
299.115	7.13
299.491	7.65
299.867	7.45
300.243	7.47
300.619	7.75
300.995	8.05
301.371	7.61
301.746	7.98
302.122	8.13
302.498	8.42
302.874	8.38
303.249	8.41
303.625	8.63
304	8.42
304.376	8.59
304.751	8.5
305.127	8.72
305.502	8.77
305.878	8.99
306.253	8.56
306.628	9.12
307.003	9.06
307.378	8.93
307.754	9.97
308.129	8.98
308.504	10.01
308.879	9.9
309.254	9.96
309.629	9.33
310.003	10.05
310.378	9.79
310.753	9.89
311.128	10.23
311.502	10.78
311.877	10.32
312.252	10.46
312.626	10.86
313.001	10.74
313.375	10.7
313.75	10.53
314.124	10.97
314.498	11.17
314.873	11.58
315.247	11.76
315.621	11.52
315.995	11.97
316.369	12.09
316.743	11.67
317.117	11.68
317.491	11.76
317.865	12.68
318.239	12.37
318.613	12.76
318.987	12.96
319.361	13.08
319.734	12.84
320.108	13.13
320.482	13.24
320.855	13.43
321.229	13.57
321.602	13.77
321.976	13.55
322.349	14.06
322.723	14.02
323.096	14.57
323.469	14.09
323.843	13.95
324.216	14.56
324.589	15.08
324.962	14.56
325.335	14.5
325.708	14.77
326.081	14.71
326.454	15.33
326.827	14.89
327.2	15.53
327.573	15.23
327.945	15.6
328.318	15.96
328.691	15.36
329.063	15.38
329.436	15.57
329.809	16.43
330.181	15.29
330.553	16.1
330.926	16.53
331.298	16.49
331.671	16.51
332.043	16.44
332.415	17.23
332.787	16.48
333.159	16.42
333.532	17.11
333.904	16.99
334.276	16.4
334.648	16.89
335.02	17.58
335.391	17.53
335.763	16.88
336.135	17.63
336.507	17.69
336.879	17.58
337.25	17.69
337.622	17.69
337.993	18.66
338.365	18.18
338.736	18.17
339.108	17.65
339.479	17.97
339.851	18.85
340.222	19.05
340.593	18.62
340.964	18.91
341.336	18.12
341.707	19.37
342.078	18.48
342.449	19.39
342.82	19.13
343.191	19.16
343.562	19.29
343.933	19.38
344.303	19.19
344.674	19.21
345.045	19.63
345.416	19.99
345.786	19.77
346.157	19.92
346.527	20.01
346.898	20.35
347.268	20.4
347.639	19.94
348.009	20.14
348.38	20.78
348.75	20.58
349.12	20.67
349.49	20.92
349.861	20.71
350.231	20.82
350.601	21.41
350.971	21.32
351.341	21.42
351.711	21.75
352.081	21.79
352.45	21.58
352.82	21.69
353.19	22.09
353.56	21.73
353.929	22.25
354.299	21.95
354.669	22.06
355.038	22.3
355.408	22.25
355.777	22.5
356.147	22.03
356.516	22.37
356.885	22.53
357.254	22.2
357.624	22.48
357.993	22.71
358.362	22.47
358.731	22.57
359.1	23.26
359.469	23.39
359.838	22.85
360.207	23.39
360.576	23.38
360.945	23.48
361.314	23.24
361.682	23.18
362.051	23.87
362.42	23.71
362.788	23.89
363.157	23.74
363.525	23.65
363.894	23.89
364.262	24.05
364.631	23.67
364.999	24.52
365.367	24.62
365.735	24.53
366.104	24.65
366.472	24.68
366.84	24.91
367.208	25.01
367.576	25.23
367.944	25.27
368.312	25.41
368.68	25.4
369.048	25.28
369.416	25.3
369.783	25.24
370.151	25.73
370.519	26.1
370.886	25.85
371.254	25.62
371.621	25.77
371.989	26.23
372.356	25.97
372.724	26.76
373.091	26.45
373.458	26.46
373.826	26.59
374.193	26.46
374.56	26.52
374.927	26.63
375.294	26.95
375.661	27.12
376.028	27.27
376.395	26.85
376.762	27.35
377.129	27.5
377.496	26.99
377.863	27.36
378.229	27.59
378.596	27.68
378.963	27.72
379.329	27.85
379.696	27.98
380.062	27.88
380.429	27.98
380.795	28.38
381.161	28.35
381.528	28.56
381.894	28.66
382.26	28.78
382.626	28.79
382.993	28.82
383.359	28.85
383.725	29.3
384.091	29.07
384.457	29.27
384.823	29.17
385.188	29.39
385.554	29.11
385.92	29.18
386.286	29.53
386.651	29.71
387.017	29.98
387.383	30
387.748	29.82
388.114	29.76
388.479	29.91
388.845	30.14
389.21	30.22
389.575	30.35
389.94	30.63
390.306	30.71
390.671	30.6
391.036	30.64
391.401	30.92
391.766	31.09
392.131	30.95
392.496	30.96
392.861	30.93
393.226	31.39
393.591	30.91
393.956	31.38
394.32	31.29
394.685	31.66
395.05	31.69
395.414	31.52
395.779	31.82
396.143	31.91
396.508	31.9
396.872	32.26
397.236	32.02
397.601	32.36
397.965	32.16
398.329	32.61
398.694	32.48
399.058	32.34
399.422	32.81
399.786	32.5
400.15	32.91
400.514	33.1
400.878	33.15
401.242	33.25
401.605	33.39
401.969	33.34
402.333	33.15
402.697	33.63
403.06	33.64
403.424	33.65
403.787	33.58
404.151	33.62
404.514	33.77
404.878	33.96
405.241	34.18
405.604	34.02
405.968	34.02
406.331	34.3
406.694	33.97
407.057	34.29
407.42	34.23
407.783	34.31
408.146	34.43
408.509	34.71
408.872	34.61
409.235	34.62
409.598	34.76
409.961	34.9
410.323	34.8
410.686	35.15
411.049	35.46
411.411	35.5
411.774	35.58
412.136	35.29
412.499	35.63
412.861	35.61
413.223	35.78
413.586	35.88
413.948	36.23
414.31	36.09
414.672	36.06
415.035	35.97
415.397	35.93
415.759	36.49
416.121	36.54
416.483	36.63
416.845	36.56
417.206	36.42
417.568	36.52
417.93	36.6
418.292	36.64
418.653	36.54
419.015	36.2
419.377	36.65
419.738	36.95
420.1	36.76
420.461	36.81
420.822	36.82
421.184	36.72
421.545	36.96
421.906	36.96
422.267	36.8
422.629	36.71
422.99	36.76
423.351	36.97
423.712	36.99
424.073	37.1
424.434	37.34
424.795	37.37
425.155	37.5
425.516	37.54
425.877	37.36
426.238	37.46
426.598	37.5
426.959	37.65
427.32	37.68
427.68	37.96
428.041	38.02
428.401	38.21
428.761	38.47
429.122	38.52
429.482	38.61
429.842	38.81
430.202	38.73
430.563	39.14
430.923	39.27
431.283	39.2
431.643	39.17
432.003	39.43
432.363	39.5
432.722	39.37
433.082	39.59
433.442	40.02
433.802	39.59
434.161	39.88
434.521	39.85
434.881	39.75
435.24	39.91
435.6	40.14
435.959	39.88
436.319	40.26
436.678	40.08
437.037	40.55
437.396	40.58
437.756	40.61
438.115	40.55
438.474	40.78
438.833	40.62
439.192	40.97
439.551	40.82
439.91	41.07
440.269	41.07
440.628	41.11
440.987	41.29
441.345	41.01
441.704	41.06
442.063	41.02
442.421	41
442.78	41.1
443.138	41.13
443.497	41.3
443.855	41.22
444.214	41.56
444.572	41.66
444.93	42.12
445.288	41.87
445.647	42.01
446.005	42.13
446.363	42.05
446.721	42.22
447.079	42.21
447.437	42.31
447.795	41.91
448.153	42.06
448.51	41.92
448.868	42.06
449.226	42.14
449.584	42.38
449.941	42.47
450.299	42.59
450.656	42.58
451.014	42.79
451.371	42.92
451.729	43.14
452.086	43.13
452.443	43.58
452.801	43.75
453.158	43.64
453.515	43.62
453.872	43.41
454.229	43.9
454.586	43.97
454.943	43.77
455.3	44.03
455.657	43.81
456.014	44.03
456.371	44.14
456.727	44.26
457.084	44.22
457.441	44.33
457.797	44.49
458.154	44.54
458.51	44.9
458.867	44.74
459.223	44.71
459.58	45.05
459.936	45.16
460.292	44.96
460.648	45.04
461.005	44.82
461.361	44.7
461.717	44.49
462.073	44.47
462.429	44.47
462.785	44.72
463.141	45.05
463.496	45.02
463.852	45.38
464.208	45.63
464.564	45.91
464.919	45.53
465.275	46.12
465.631	46.1
465.986	46.48
466.342	46.28
466.697	46.33
467.052	46.16
467.408	46.31
467.763	46.4
468.118	46.37
468.473	46.51
468.829	46.65
469.184	46.66
469.539	46.73
469.894	46.72
470.249	46.93
470.603	47.09
470.958	47.21
471.313	47.42
471.668	47.24
472.023	47.39
472.377	47.25
472.732	47.28
473.086	47.48
473.441	47.55
473.795	47.77
474.15	47.74
474.504	47.83
474.859	47.89
475.213	47.9
475.567	48.03
475.921	48.42
476.275	48.26
476.63	48.24
476.984	48.15
477.338	48.28
477.692	48.2
478.045	48.41
478.399	48.24
478.753	48.43
479.107	48.28
479.461	48.51
479.814	48.56
480.168	48.75
480.521	48.43
480.875	48.53
481.228	48.7
481.582	48.67
481.935	48.87
482.289	48.89
482.642	49.32
482.995	49.12
483.348	48.84
483.701	48.76
484.055	48.69
484.408	48.52
484.761	48.26
485.114	48.44
485.466	48.03
485.819	48.17
486.172	48.31
486.525	48.25
486.878	48.27
487.23	48.39
487.583	48.51
487.936	48.91
488.288	48.82
488.641	48.9
488.993	48.88
489.345	48.72
489.698	48.81
490.05	48.78
490.402	48.88
490.754	49.16
491.107	49.13
491.459	49.41
491.811	49.77
492.163	49.86
492.515	50.06
492.866	50.06
493.218	49.69
493.57	49.5
493.922	49.58
494.274	49.73
494.625	49.74
494.977	49.99
495.328	50.57
495.68	50.62
496.031	51.04
496.383	51
496.734	51.25
497.086	51.65
497.437	51.64
497.788	51.44
498.139	51.48
498.49	51.48
498.842	51.43
499.193	51.28
499.544	51.4
499.894	51.51
500.245	51.84
500.596	51.68
500.947	51.64
501.298	51.85
501.648	51.98
501.999	52.27
502.35	52.25
502.7	52.37
503.051	52.59
503.401	52.37
503.752	52.69
504.102	52.97
504.452	52.71
504.803	52.71
505.153	52.74
505.503	52.97
505.853	52.96
506.203	53.09
506.553	53.05
506.903	52.92
507.253	53.16
507.603	53.04
507.953	53.25
508.303	53.35
508.652	53.68
509.002	53.68
509.352	53.65
509.701	53.46
510.051	53.29
510.4	53.66
510.75	53.72
511.099	53.53
511.449	53.52
511.798	53.37
512.147	53.77
512.496	53.89
512.846	53.88
513.195	53.88
513.544	54.08
513.893	54
514.242	54.18
514.591	54.13
514.939	54.22
515.288	54.26
515.637	54.42
515.986	54.4
516.334	54.67
516.683	54.54
517.032	54.56
517.38	54.87
517.729	54.68
518.077	54.8
518.426	55.01
518.774	54.93
519.122	55.03
519.47	54.66
519.819	54.84
520.167	54.69
520.515	54.38
520.863	54.41
521.211	54.74
521.559	54.62
521.907	54.74
522.255	54.97
522.602	55.23
522.95	55.48
523.298	55.55
523.645	55.39
523.993	55.63
524.341	55.98
524.688	55.63
525.036	55.95
525.383	56.02
525.73	56
526.078	56.14
526.425	56.03
526.772	55.97
527.119	55.79
527.466	55.51
527.814	55.21
528.161	55.4
528.508	55.53
528.854	55.43
529.201	55.77
529.548	55.59
529.895	55.54
530.242	55.35
530.588	55.4
530.935	55.52
531.282	55.53
531.628	55.53
531.975	55.66
532.321	55.89
532.667	55.96
533.014	56.34
533.36	56.4
533.706	56.47
534.052	56.56
534.399	56.73
534.745	56.53
535.091	56.31
535.437	56.23
535.783	56.41
536.129	56.37
536.474	56.45
536.82	56.74
537.166	56.79
537.512	57.11
537.857	57.49
538.203	57.25
538.549	56.95
538.894	56.9
539.239	57.13
539.585	57.39
539.93	57.31
540.276	57.68
540.621	58.05
540.966	58.22
541.311	58.25
541.656	58.19
542.001	58.15
542.346	58.29
542.691	57.68
543.036	57.46
543.381	57.45
543.726	57.33
544.071	57.49
544.415	57.55
544.76	57.66
545.105	57.73
545.449	58.03
545.794	58.18
546.138	58.4
546.483	58.61
546.827	58.71
547.171	58.93
547.516	58.84
547.86	59.12
548.204	59.07
548.548	59.12
548.892	58.86
549.236	58.71
549.58	58.9
549.924	59.19
550.268	59.52
550.612	59.67
550.956	59.69
551.3	59.65
551.643	60.17
551.987	60.11
552.33	60.39
552.674	60.26
553.017	60.34
553.361	60.4
553.704	60.21
554.048	60.27
554.391	60.21
554.734	60.46
555.077	60.26
555.42	60.08
555.764	60.45
556.107	60.75
556.45	60.65
556.793	60.66
557.135	60.96
557.478	61.12
557.821	61.19
558.164	61.28
558.507	61.28
558.849	61.48
559.192	61.49
559.534	61.6
559.877	61.69
560.219	61.37
560.562	61.88
560.904	61.43
561.246	61.73
561.589	61.69
561.931	61.66
562.273	61.88
562.615	61.77
562.957	62.1
563.299	61.73
563.641	61.8
563.983	62.11
564.325	62.09
564.667	62.04
565.008	62.01
565.35	62.09
565.692	62.32
566.033	62.41
566.375	62.22
566.716	62.37
567.058	62.7
567.399	62.25
567.741	62.42
568.082	61.96
568.423	62.07
568.764	62.1
569.105	61.92
569.447	62.33
569.788	62.22
570.129	62.67
570.47	62.82
570.811	63.07
571.151	62.85
571.492	62.31
571.833	62.63
572.174	62.65
572.514	62.89
572.855	63.11
573.195	63
573.536	62.85
573.876	62.64
574.217	62.7
574.557	62.83
574.898	62.95
575.238	62.77
575.578	63.37
575.918	63.21
576.258	63.25
576.598	63.1
576.938	63.24
577.278	63.72
577.618	63.6
577.958	63.56
578.298	63.55
578.638	63.82
578.977	63.66
579.317	63.93
579.657	64.14
579.996	64.02
580.336	63.75
580.675	64.28
581.014	64.44
581.354	64.61
581.693	64.5
582.032	64.42
582.372	64.96
582.711	64.85
583.05	64.68
583.389	65.18
583.728	64.75
584.067	65.07
584.406	64.86
584.745	64.64
585.083	65.22
585.422	65.25
585.761	65.44
586.1	65.4
586.438	65.54
586.777	65.38
587.115	64.92
587.454	65.34
587.792	65.8
588.13	65.29
588.469	65.33
588.807	65.49
589.145	65.87
589.483	65.38
589.821	65.7
590.159	65.68
590.497	65.78
590.835	65.36
591.173	65.61
591.511	65.48
591.849	65.82
592.187	65.9
592.524	65.4
592.862	65.88
593.2	65.76
593.537	65.88
593.875	66.23
594.212	66.22
594.55	66.25
594.887	66.27
595.224	66.62
595.561	66.29
595.899	66.48
596.236	66.21
596.573	66.5
596.91	66.5
597.247	66.26
597.584	66.5
597.921	66.25
598.258	66.37
598.594	66.18
598.931	66.18
599.268	65.96
599.604	65.79
599.941	66.06
600.277	65.76
600.614	66.59
600.95	66.65
601.287	66.86
601.623	67.14
601.959	67.01
602.296	67.3
602.632	67.05
602.968	67.02
603.304	67.06
603.64	66.73
603.976	67.19
604.312	67.15
604.648	67.2
604.984	67.02
605.319	66.97
605.655	67.1
605.991	66.92
606.326	66.98
606.662	66.85
606.998	66.34
607.333	66.69
607.668	66.73
608.004	66.55
608.339	67.34
608.674	67.5
609.01	67.58
609.345	67.99
609.68	67.53
610.015	68.11
610.35	67.83
610.685	68.02
611.02	67.84
611.355	67.87
611.689	67.17
612.024	67.53
612.359	67.88
612.694	67.87
613.028	67.95
613.363	67.75
613.697	68.37
614.032	68.82
614.366	68.1
614.7	68.48
615.035	68.22
615.369	68.42
615.703	68.45
616.037	68.43
616.371	68.63
616.705	68.19
617.039	69.2
617.373	68.59
617.707	68.96
618.041	68.92
618.375	68.55
618.709	69.01
619.042	69.44
619.376	69.22
619.71	69.44
620.043	69.48
620.377	69.61
620.71	69.43
621.043	69.67
621.377	69.32
621.71	68.87
622.043	69.53
622.376	69.44
622.709	69.21
623.043	69.61
623.376	69.7
623.709	69.64
624.041	70.24
624.374	69.31
624.707	69.65
625.04	69.98
625.373	69.87
625.705	69.39
626.038	69.87
626.37	70.34
626.703	69.84
627.035	69.71
627.368	69.78
627.7	69.88
628.032	70.18
628.365	69.89
628.697	70.12
629.029	69.72
629.361	69.66
629.693	69.59
630.025	69.89
630.357	69.83
630.689	69.98
631.021	70.47
631.353	70.54
631.684	70.33
632.016	70.74
632.348	70.71
632.679	70.64
633.011	70.4
633.342	70.89
633.674	70.08
634.005	70.52
634.336	69.89
634.668	71
634.999	70.83
635.33	70.76
635.661	71.06
635.992	70.52
636.323	70.32
636.654	70.41
636.985	70.92
637.316	70.67
637.647	70.79
637.977	70.97
638.308	71.04
638.639	70.95
638.969	70.93
639.3	71.42
639.63	70.92
639.961	70.84
640.291	71.18
640.622	71.28
640.952	71.61
641.282	71.22
641.612	71.88
641.943	71.58
642.273	71.88
642.603	71.33
642.933	71.66
643.263	71.85
643.592	71.99
643.922	71.69
644.252	72
644.582	71.88
644.911	72.32
645.241	72.43
645.571	72.26
645.9	72.22
646.23	71.69
646.559	72.65
646.888	72.69
647.218	72.02
647.547	71.59
647.876	72.64
648.205	72.06
648.534	72.85
648.863	72.71
649.192	72.77
649.521	71.85
649.85	72.59
650.179	72.51
650.508	72.54
650.837	72.58
651.165	71.83
651.494	71.66
651.822	73.04
652.151	72.7
652.479	72.63
652.808	73.02
653.136	72.53
653.465	72.5
653.793	73.16
654.121	73.21
654.449	73.32
654.777	72.56
655.105	73.23
655.433	72.78
655.761	73.09
656.089	72.9
656.417	73.15
656.745	73.1
657.073	73.14
657.4	72.37
657.728	73.39
658.056	73.04
658.383	72.93
658.711	74.07
659.038	73.08
659.365	73.48
659.693	72.79
660.02	73.06
660.347	73.76
660.674	72.94
661.001	73.45
661.329	73.28
661.656	72.78
661.982	72.82
662.309	73.05
662.636	73.17
662.963	73.63
663.29	73.77
663.616	73.52
663.943	73.31
664.27	73.42
664.596	73.6
664.923	73.83
665.249	73.3
665.576	74.13
665.902	73.36
666.228	73.56
666.554	73.67
666.881	74.05
667.207	73.54
667.533	73.78
667.859	74.28
