Data from 0185_crown_Reflection__2__007.txt Node

Date: Mon Aug 28 18:39:35 CDT 2023
User: ToomeyLab
Spectrometer: FLMS14357
Trigger mode: 0
Integration Time (sec): 1.000000E-2
Scans to average: 100
Electric dark correction enabled: true
Nonlinearity correction enabled: false
Boxcar width: 0
XAxis mode: Wavelengths
Number of Pixels in Spectrum: 2048
>>>>>Begin Spectral Data<<<<<
189.047	-98.97
189.435	-98.97
189.823	-98.97
190.211	4995.35
190.599	124.64
190.987	148.51
191.375	74.56
191.763	38.85
192.151	103.9
192.538	190.77
192.926	149.79
193.314	123.7
193.702	143.82
194.089	70.19
194.477	-983.53
194.864	74.97
195.252	2.87
195.639	-1644.44
196.027	113.48
196.414	140.1
196.801	173.47
197.189	212.46
197.576	-124.78
197.963	3
198.351	-5.5
198.738	7.41
199.125	-3.59
199.512	7.97
199.899	21.58
200.286	-160.9
200.673	7.09
201.06	-39.08
201.447	-13.69
201.833	8.18
202.22	6.78
202.607	-6.58
202.994	0.57
203.38	-38.95
203.767	-17.31
204.154	-18.58
204.54	-54.71
204.927	-48.19
205.313	-0.16
205.699	-39.46
206.086	-3.09
206.472	-8.78
206.858	-47.49
207.245	-2.48
207.631	1.65
208.017	-2.71
208.403	33.55
208.789	-33.04
209.175	-66.43
209.561	23.91
209.947	24.96
210.333	5.41
210.719	6.72
211.105	21.73
211.491	-0.49
211.876	6.83
212.262	-8.09
212.648	34.91
213.034	-3.48
213.419	-30.74
213.805	11.42
214.19	-40.72
214.576	23.99
214.961	-27.12
215.346	-10.78
215.732	23.08
216.117	-44.65
216.502	16.13
216.888	-27.56
217.273	-20.81
217.658	20.69
218.043	-11.01
218.428	-20.58
218.813	-12.87
219.198	7.77
219.583	3.9
219.968	11.37
220.353	9.48
220.738	1.19
221.122	11.28
221.507	-42.53
221.892	-16.9
222.276	17.22
222.661	-7.58
223.046	-8.27
223.43	9.22
223.815	-4.28
224.199	6.92
224.583	1.1
224.968	5.33
225.352	1.81
225.736	4.22
226.121	5.59
226.505	-6.39
226.889	3.6
227.273	8.18
227.657	2.15
228.041	7.33
228.425	-1.1
228.809	0.07
229.193	3.27
229.577	4.7
229.961	1.43
230.344	4.07
230.728	2.72
231.112	2.92
231.495	3.39
231.879	2.52
232.263	4.43
232.646	1.47
233.03	3.19
233.413	4.42
233.797	3.11
234.18	2.28
234.563	-0.88
234.946	5.46
235.33	1.23
235.713	0.77
236.096	2.55
236.479	1.58
236.862	4.58
237.245	3.24
237.628	2.85
238.011	3.75
238.394	4.32
238.777	4.98
239.16	1.62
239.543	-1.21
239.925	6.02
240.308	0.93
240.691	1.28
241.073	3.14
241.456	2.83
241.838	0.34
242.221	3.69
242.603	4.41
242.986	3.11
243.368	3.43
243.75	3.22
244.133	2.48
244.515	2.51
244.897	3.17
245.279	2.9
245.661	2.31
246.043	2.57
246.425	2.05
246.807	3.69
247.189	1.48
247.571	3.05
247.953	3.27
248.335	2.59
248.717	2.81
249.098	2.78
249.48	2.88
249.862	2.93
250.243	2.71
250.625	3.31
251.006	2.95
251.388	2.38
251.769	2.58
252.151	2.15
252.532	2.48
252.913	2.76
253.295	0.79
253.676	2.37
254.057	2.38
254.438	2.41
254.819	2.65
255.2	2.79
255.581	3.24
255.962	2.63
256.343	3.64
256.724	1.08
257.105	1.94
257.486	2.69
257.867	2.33
258.247	2.12
258.628	3.15
259.009	2.67
259.389	1.97
259.77	2.66
260.15	1.77
260.531	2.53
260.911	2.5
261.292	2.38
261.672	2.47
262.052	2.32
262.432	2.71
262.813	2.55
263.193	2.41
263.573	2.25
263.953	2.33
264.333	2.18
264.713	2.21
265.093	2.75
265.473	2.42
265.853	1.65
266.233	1.69
266.612	2.12
266.992	2.99
267.372	2.62
267.752	2.82
268.131	3.63
268.511	2.28
268.89	2.58
269.27	2.13
269.649	2.09
270.029	2.53
270.408	3.02
270.787	2.65
271.167	2.42
271.546	2.74
271.925	2.7
272.304	2.87
272.683	2.2
273.062	2.3
273.441	2.44
273.82	2.04
274.199	1.78
274.578	2.11
274.957	2.41
275.336	2.6
275.715	2.5
276.093	1.65
276.472	1.95
276.851	2.39
277.229	2.45
277.608	1.55
277.986	2
278.365	2.28
278.743	2.22
279.122	2.07
279.5	1.4
279.878	1.82
280.257	2.34
280.635	1.77
281.013	2.12
281.391	2.08
281.769	2.16
282.147	1.89
282.525	1.76
282.903	2.48
283.281	1.91
283.659	3.07
284.037	2.5
284.415	2.02
284.792	2.25
285.17	1.82
285.548	1.48
285.925	2.73
286.303	2.17
286.68	2.11
287.058	2.21
287.435	2.06
287.813	2.13
288.19	2.35
288.567	2.54
288.945	2.16
289.322	2.44
289.699	2.32
290.076	2.55
290.453	2.43
290.83	1.75
291.207	1.9
291.584	2.46
291.961	2.44
292.338	2.08
292.715	1.71
293.092	1.98
293.469	2.21
293.845	1.77
294.222	1.66
294.599	2.39
294.975	2.53
295.352	1.77
295.728	2.11
296.105	2.43
296.481	2.42
296.858	2.57
297.234	2.17
297.61	2.59
297.986	2.05
298.363	2.34
298.739	1.98
299.115	1.7
299.491	2.22
299.867	2.26
300.243	2.24
300.619	2.18
300.995	2.61
301.371	1.94
301.746	2.19
302.122	2.22
302.498	2.21
302.874	1.94
303.249	1.94
303.625	2.46
304	2.35
304.376	1.95
304.751	1.82
305.127	2.07
305.502	2.03
305.878	1.91
306.253	1.62
306.628	2.41
307.003	2.34
307.378	2.49
307.754	2.4
308.129	2.03
308.504	2.67
308.879	1.79
309.254	2.29
309.629	1.95
310.003	2.21
310.378	2.04
310.753	2.24
311.128	2.5
311.502	2.2
311.877	1.98
312.252	2.41
312.626	2.33
313.001	2.23
313.375	2.26
313.75	2.01
314.124	1.79
314.498	2.59
314.873	2.53
315.247	2.36
315.621	1.98
315.995	2.8
316.369	2.22
316.743	1.7
317.117	2.68
317.491	1.54
317.865	1.74
318.239	2.21
318.613	2.7
318.987	1.94
319.361	2.13
319.734	2.28
320.108	1.59
320.482	2.39
320.855	2.17
321.229	1.77
321.602	2.04
321.976	1.31
322.349	2.32
322.723	2.17
323.096	2.76
323.469	2.17
323.843	2.32
324.216	1.79
324.589	2.09
324.962	1.97
325.335	1.79
325.708	2.38
326.081	1.77
326.454	2.28
326.827	2.35
327.2	1.8
327.573	2.32
327.945	2.72
328.318	2.72
328.691	1.74
329.063	2.16
329.436	1.86
329.809	2.21
330.181	1.94
330.553	2.3
330.926	2.59
331.298	2.23
331.671	2.03
332.043	2.62
332.415	2.8
332.787	1.83
333.159	2.11
333.532	2.47
333.904	2.51
334.276	2
334.648	2.24
335.02	2.04
335.391	1.97
335.763	2.09
336.135	2.46
336.507	2.67
336.879	1.47
337.25	2.19
337.622	2.11
337.993	2.77
338.365	2.23
338.736	2.41
339.108	1.54
339.479	1.43
339.851	2.34
340.222	2.44
340.593	1.78
340.964	1.97
341.336	2.06
341.707	1.91
342.078	2.23
342.449	2.19
342.82	2.09
343.191	2.21
343.562	2.06
343.933	1.91
344.303	1.99
344.674	2.52
345.045	2.15
345.416	2.58
345.786	2.34
346.157	2.31
346.527	1.86
346.898	2.17
347.268	2.07
347.639	2.16
348.009	1.91
348.38	2.46
348.75	2.34
349.12	2.26
349.49	1.95
349.861	1.68
350.231	2.18
350.601	2.52
350.971	2.52
351.341	2.39
351.711	2.39
352.081	2.13
352.45	2.07
352.82	1.8
353.19	2.9
353.56	2.53
353.929	2.69
354.299	2.28
354.669	2.18
355.038	2.38
355.408	2.27
355.777	2.18
356.147	2.54
356.516	2.7
356.885	2.55
357.254	2.22
357.624	2.07
357.993	2.51
358.362	2.39
358.731	2.67
359.1	2.42
359.469	2.44
359.838	1.92
360.207	2.26
360.576	2.59
360.945	2.39
361.314	2.12
361.682	2.06
362.051	2.46
362.42	2.25
362.788	2.34
363.157	2.47
363.525	2.18
363.894	2.28
364.262	2.4
364.631	2.29
364.999	2.44
365.367	2.51
365.735	2.42
366.104	2.43
366.472	2.16
366.84	2.18
367.208	2.43
367.576	2.36
367.944	2.5
368.312	2.64
368.68	2.28
369.048	2.33
369.416	2.4
369.783	2.19
370.151	2.76
370.519	2.45
370.886	2.09
371.254	2.33
371.621	2.4
371.989	2.08
372.356	2.37
372.724	2.88
373.091	2.45
373.458	2.32
373.826	2.3
374.193	2.18
374.56	2.55
374.927	2.12
375.294	2.52
375.661	2.66
376.028	2.31
376.395	2.14
376.762	2.77
377.129	2.44
377.496	2.43
377.863	2.69
378.229	2.32
378.596	2.67
378.963	2.47
379.329	2.43
379.696	2.31
380.062	2.33
380.429	2.28
380.795	2.62
381.161	2.46
381.528	2.77
381.894	2.39
382.26	2.58
382.626	2.79
382.993	2.49
383.359	2.47
383.725	2.71
384.091	2.41
384.457	2.67
384.823	2.63
385.188	2.46
385.554	2.3
385.92	2.27
386.286	2.6
386.651	2.51
387.017	2.83
387.383	2.45
387.748	2.26
388.114	2.18
388.479	2.23
388.845	2.22
389.21	2.37
389.575	2.71
389.94	2.48
390.306	2.63
390.671	2.21
391.036	2.39
391.401	2.71
391.766	2.71
392.131	2.53
392.496	2.05
392.861	2.41
393.226	2.41
393.591	2.13
393.956	2.36
394.32	2.4
394.685	2.61
395.05	2.68
395.414	2.63
395.779	2.56
396.143	2.39
396.508	2.26
396.872	2.54
397.236	2.4
397.601	2.44
397.965	2.35
398.329	2.61
398.694	2.49
399.058	2.48
399.422	2.71
399.786	2.7
400.15	2.77
400.514	2.49
400.878	2.52
401.242	2.29
401.605	2.63
401.969	2.41
402.333	2.34
402.697	2.48
403.06	2.58
403.424	2.57
403.787	2.32
404.151	2.43
404.514	2.37
404.878	2.45
405.241	2.52
405.604	2.59
405.968	2.31
406.331	2.61
406.694	2.58
407.057	2.64
407.42	2.45
407.783	2.47
408.146	2.36
408.509	2.72
408.872	2.45
409.235	2.57
409.598	2.79
409.961	2.4
410.323	2.62
410.686	2.66
411.049	2.85
411.411	2.58
411.774	2.59
412.136	2.54
412.499	2.57
412.861	2.51
413.223	2.49
413.586	2.33
413.948	2.56
414.31	2.53
414.672	2.48
415.035	2.85
415.397	2.43
415.759	2.8
416.121	2.96
416.483	2.49
416.845	2.86
417.206	2.77
417.568	2.61
417.93	2.47
418.292	2.6
418.653	2.32
419.015	2.56
419.377	2.28
419.738	2.72
420.1	2.55
420.461	2.49
420.822	2.54
421.184	2.56
421.545	2.57
421.906	2.54
422.267	2.52
422.629	2.41
422.99	2.48
423.351	2.56
423.712	2.46
424.073	2.62
424.434	2.62
424.795	2.53
425.155	2.6
425.516	2.56
425.877	2.48
426.238	2.37
426.598	2.42
426.959	2.57
427.32	2.49
427.68	2.69
428.041	2.49
428.401	2.62
428.761	2.48
429.122	2.56
429.482	2.63
429.842	2.66
430.202	2.58
430.563	2.6
430.923	2.83
431.283	2.55
431.643	2.47
432.003	2.52
432.363	2.67
432.722	2.59
433.082	2.48
433.442	2.67
433.802	2.4
434.161	2.62
434.521	2.45
434.881	2.44
435.24	2.58
435.6	2.55
435.959	2.63
436.319	2.7
436.678	2.43
437.037	2.59
437.396	2.72
437.756	2.47
438.115	2.63
438.474	2.73
438.833	2.53
439.192	2.71
439.551	2.64
439.91	2.6
440.269	2.53
440.628	2.47
440.987	2.55
441.345	2.49
441.704	2.46
442.063	2.47
442.421	2.5
442.78	2.43
443.138	2.48
443.497	2.57
443.855	2.56
444.214	2.63
444.572	2.73
444.93	2.78
445.288	2.63
445.647	2.73
446.005	2.62
446.363	2.52
446.721	2.54
447.079	2.57
447.437	2.49
447.795	2.46
448.153	2.59
448.51	2.48
448.868	2.58
449.226	2.53
449.584	2.55
449.941	2.59
450.299	2.64
450.656	2.62
451.014	2.58
451.371	2.62
451.729	2.53
452.086	2.59
452.443	2.73
452.801	2.73
453.158	2.66
453.515	2.57
453.872	2.46
454.229	2.64
454.586	2.61
454.943	2.51
455.3	2.57
455.657	2.74
456.014	2.63
456.371	2.68
456.727	2.53
457.084	2.57
457.441	2.63
457.797	2.63
458.154	2.73
458.51	2.78
458.867	2.62
459.223	2.64
459.58	2.56
459.936	2.62
460.292	2.59
460.648	2.55
461.005	2.49
461.361	2.56
461.717	2.51
462.073	2.43
462.429	2.49
462.785	2.6
463.141	2.64
463.496	2.72
463.852	2.67
464.208	2.64
464.564	2.63
464.919	2.7
465.275	2.89
465.631	2.74
465.986	2.74
466.342	2.61
466.697	2.56
467.052	2.53
467.408	2.69
467.763	2.61
468.118	2.55
468.473	2.67
468.829	2.62
469.184	2.51
469.539	2.64
469.894	2.56
470.249	2.64
470.603	2.56
470.958	2.64
471.313	2.63
471.668	2.62
472.023	2.7
472.377	2.74
472.732	2.66
473.086	2.72
473.441	2.7
473.795	2.72
474.15	2.77
474.504	2.69
474.859	2.6
475.213	2.59
475.567	2.59
475.921	2.87
476.275	2.66
476.63	2.89
476.984	2.64
477.338	2.66
477.692	2.68
478.045	2.7
478.399	2.64
478.753	2.49
479.107	2.62
479.461	2.63
479.814	2.7
480.168	2.71
480.521	2.5
480.875	2.63
481.228	2.67
481.582	2.58
481.935	2.66
482.289	2.65
482.642	2.62
482.995	2.72
483.348	2.64
483.701	2.61
484.055	2.49
484.408	2.53
484.761	2.51
485.114	2.49
485.466	2.43
485.819	2.31
486.172	2.29
486.525	2.38
486.878	2.46
487.23	2.59
487.583	2.7
487.936	2.74
488.288	2.68
488.641	2.6
488.993	2.6
489.345	2.46
489.698	2.47
490.05	2.43
490.402	2.43
490.754	2.54
491.107	2.58
491.459	2.63
491.811	2.72
492.163	2.61
492.515	2.65
492.866	2.62
493.218	2.53
493.57	2.48
493.922	2.4
494.274	2.47
494.625	2.52
494.977	2.7
495.328	2.79
495.68	2.86
496.031	2.7
496.383	2.66
496.734	2.6
497.086	2.78
497.437	2.8
497.788	2.55
498.139	2.71
498.49	2.56
498.842	2.59
499.193	2.55
499.544	2.56
499.894	2.6
500.245	2.53
500.596	2.68
500.947	2.6
501.298	2.78
501.648	2.6
501.999	2.69
502.35	2.65
502.7	2.62
503.051	2.8
503.401	2.63
503.752	2.77
504.102	2.66
504.452	2.63
504.803	2.69
505.153	2.72
505.503	2.59
505.853	2.76
506.203	2.61
506.553	2.66
506.903	2.77
507.253	2.65
507.603	2.58
507.953	2.58
508.303	2.8
508.652	2.67
509.002	2.8
509.352	2.6
509.701	2.5
510.051	2.61
510.4	2.59
510.75	2.58
511.099	2.65
511.449	2.71
511.798	2.58
512.147	2.66
512.496	2.65
512.846	2.57
513.195	2.74
513.544	2.65
513.893	2.59
514.242	2.66
514.591	2.71
514.939	2.57
515.288	2.64
515.637	2.7
515.986	2.59
516.334	2.78
516.683	2.74
517.032	2.71
517.38	2.77
517.729	2.67
518.077	2.74
518.426	2.48
518.774	2.54
519.122	2.67
519.47	2.6
519.819	2.56
520.167	2.58
520.515	2.64
520.863	2.52
521.211	2.58
521.559	2.57
521.907	2.67
522.255	2.6
522.602	2.63
522.95	2.79
523.298	2.82
523.645	2.74
523.993	2.71
524.341	2.66
524.688	2.61
525.036	2.67
525.383	2.74
525.73	2.69
526.078	2.69
526.425	2.68
526.772	2.56
527.119	2.57
527.466	2.54
527.814	2.49
528.161	2.55
528.508	2.57
528.854	2.6
529.201	2.68
529.548	2.56
529.895	2.62
530.242	2.46
530.588	2.34
530.935	2.33
531.282	2.4
531.628	2.52
531.975	2.62
532.321	2.69
532.667	2.71
533.014	2.77
533.36	2.7
533.706	2.72
534.052	2.65
534.399	2.63
534.745	2.6
535.091	2.5
535.437	2.49
535.783	2.5
536.129	2.56
536.474	2.66
536.82	2.74
537.166	2.76
537.512	2.76
537.857	2.8
538.203	2.63
538.549	2.53
538.894	2.52
539.239	2.48
539.585	2.62
539.93	2.63
540.276	2.67
540.621	2.88
540.966	2.72
541.311	2.86
541.656	2.8
542.001	2.63
542.346	2.7
542.691	2.57
543.036	2.58
543.381	2.5
543.726	2.42
544.071	2.56
544.415	2.57
544.76	2.62
545.105	2.68
545.449	2.71
545.794	2.71
546.138	2.71
546.483	2.67
546.827	2.69
547.171	2.75
547.516	2.7
547.86	2.65
548.204	2.71
548.548	2.68
548.892	2.64
549.236	2.52
549.58	2.67
549.924	2.68
550.268	2.85
550.612	2.75
550.956	2.77
551.3	2.72
551.643	2.92
551.987	2.57
552.33	2.86
552.674	2.79
553.017	2.74
553.361	2.75
553.704	2.73
554.048	2.88
554.391	2.79
554.734	2.81
555.077	2.58
555.42	2.75
555.764	2.82
556.107	2.66
556.45	2.73
556.793	2.71
557.135	2.77
557.478	2.68
557.821	2.65
558.164	2.84
558.507	2.88
558.849	2.97
559.192	2.72
559.534	2.64
559.877	2.74
560.219	2.83
560.562	2.75
560.904	2.86
561.246	2.74
561.589	2.64
561.931	2.82
562.273	2.75
562.615	2.66
562.957	2.71
563.299	2.95
563.641	2.56
563.983	2.94
564.325	2.76
564.667	2.69
565.008	2.83
565.35	2.74
565.692	2.95
566.033	2.65
566.375	2.75
566.716	2.77
567.058	2.74
567.399	2.58
567.741	2.69
568.082	2.67
568.423	2.62
568.764	2.67
569.105	2.81
569.447	2.89
569.788	2.75
570.129	2.74
570.47	2.74
570.811	2.79
571.151	2.69
571.492	2.73
571.833	2.68
572.174	2.87
572.514	2.66
572.855	2.8
573.195	2.92
573.536	2.84
573.876	2.67
574.217	2.68
574.557	2.68
574.898	2.9
575.238	2.74
575.578	2.74
575.918	2.7
576.258	2.74
576.598	2.76
576.938	2.62
577.278	2.67
577.618	2.71
577.958	2.75
578.298	3.05
578.638	2.77
578.977	2.8
579.317	2.77
579.657	2.57
579.996	2.69
580.336	2.8
580.675	2.67
581.014	2.9
581.354	2.88
581.693	2.8
582.032	2.86
582.372	2.88
582.711	3
583.05	2.75
583.389	2.76
583.728	2.84
584.067	2.93
584.406	2.86
584.745	2.86
585.083	2.98
585.422	2.59
585.761	2.78
586.1	3
586.438	2.71
586.777	2.52
587.115	3
587.454	2.81
587.792	3
588.13	2.91
588.469	2.85
588.807	2.77
589.145	2.85
589.483	2.87
589.821	2.63
590.159	2.91
590.497	2.77
590.835	2.9
591.173	2.67
591.511	2.55
591.849	2.81
592.187	3.01
592.524	3.14
592.862	2.89
593.2	2.66
593.537	2.73
593.875	3.04
594.212	2.95
594.55	2.83
594.887	2.91
595.224	2.85
595.561	2.6
595.899	2.86
596.236	2.92
596.573	2.93
596.91	2.59
597.247	2.83
597.584	2.69
597.921	2.61
598.258	2.74
598.594	2.88
598.931	2.47
599.268	2.68
599.604	2.71
599.941	2.81
600.277	2.86
600.614	3.01
600.95	2.97
601.287	3.05
601.623	3.09
601.959	2.93
602.296	2.78
602.632	2.78
602.968	3
603.304	2.76
603.64	2.77
603.976	2.87
604.312	2.92
604.648	2.74
604.984	2.7
605.319	2.68
605.655	2.83
605.991	2.88
606.326	2.83
606.662	2.73
606.998	2.79
607.333	2.71
607.668	2.75
608.004	2.75
608.339	2.88
608.674	2.86
609.01	3.03
609.345	3
609.68	2.6
610.015	3.11
610.35	2.98
610.685	2.84
611.02	2.71
611.355	2.92
611.689	2.66
612.024	2.85
612.359	2.82
612.694	2.79
613.028	2.75
613.363	2.65
613.697	2.81
614.032	3.1
614.366	2.79
614.7	2.86
615.035	2.85
615.369	2.95
615.703	2.74
616.037	2.69
616.371	2.73
616.705	2.69
617.039	2.68
617.373	2.85
617.707	2.61
618.041	2.96
618.375	2.88
618.709	3.16
619.042	2.82
619.376	2.97
619.71	2.59
620.043	3.1
620.377	2.95
620.71	2.84
621.043	2.73
621.377	3.14
621.71	3.08
622.043	2.84
622.376	2.8
622.709	2.72
623.043	3.06
623.376	3.15
623.709	2.87
624.041	3.15
624.374	2.69
624.707	2.8
625.04	2.93
625.373	3.04
625.705	3.13
626.038	2.86
626.37	3.06
626.703	3.32
627.035	2.89
627.368	3.21
627.7	2.93
628.032	2.9
628.365	2.41
628.697	3.01
629.029	2.81
629.361	2.9
629.693	2.77
630.025	2.87
630.357	2.85
630.689	2.87
631.021	3.3
631.353	3.16
631.684	3.09
632.016	2.58
632.348	2.9
632.679	3.12
633.011	2.86
633.342	2.8
633.674	2.75
634.005	2.83
634.336	2.67
634.668	2.96
634.999	2.93
635.33	3.08
635.661	3.03
635.992	2.64
636.323	2.95
636.654	2.91
636.985	2.71
637.316	3.01
637.647	3.01
637.977	3.04
638.308	3.01
638.639	2.99
638.969	3.03
639.3	2.73
639.63	3.09
639.961	3.02
640.291	3.06
640.622	2.76
640.952	2.74
641.282	2.78
641.612	2.8
641.943	2.55
642.273	3.24
642.603	2.52
642.933	2.64
643.263	3.05
643.592	3.04
643.922	3.09
644.252	2.64
644.582	2.69
644.911	2.86
645.241	3.35
645.571	2.86
645.9	2.94
646.23	2.58
646.559	2.7
646.888	3.49
647.218	2.56
647.547	2.95
647.876	3.58
648.205	3.09
648.534	3.01
648.863	2.56
649.192	3.18
649.521	3.14
649.85	2.87
650.179	2.96
650.508	2.91
650.837	2.67
651.165	3.01
651.494	2.97
651.822	2.83
652.151	2.58
652.479	3.12
652.808	2.76
653.136	2.66
653.465	2.96
653.793	3.19
654.121	3.45
654.449	2.88
654.777	3.12
655.105	2.91
655.433	2.8
655.761	2.31
656.089	3.1
656.417	2.8
656.745	3.38
657.073	2.63
657.4	3.18
657.728	3.58
658.056	2.85
658.383	2.58
658.711	3
659.038	2.4
659.365	3.22
659.693	2.93
660.02	3
660.347	2.99
660.674	2.98
661.001	3.08
661.329	2.63
661.656	2.81
661.982	2.77
662.309	3.27
662.636	3.23
662.963	3.19
663.29	3.04
663.616	2.37
663.943	3.24
664.27	3.32
664.596	2.87
664.923	3.25
665.249	3.15
665.576	3.03
665.902	3.01
666.228	2.98
666.554	2.86
666.881	2.95
667.207	3.12
667.533	2.77
667.859	2.47
668.185	2.99
668.511	3.41
668.837	2.22
669.162	3.33
669.488	2.57
669.814	3.38
670.139	2.98
670.465	3.37
670.791	3.47
671.116	2.76
671.442	2.76
671.767	2.59
672.092	2.95
672.418	2.7
672.743	3.3
673.068	2.83
673.393	2.95
673.718	2.89
674.043	3.02
674.368	3.04
674.693	3.13
675.018	2.78
675.343	3.1
675.667	3.14
675.992	3.25
676.317	3.08
676.641	3.42
676.966	3.1
677.29	3
677.615	3.15
677.939	3.46
678.264	2.7
678.588	3.05
678.912	3.87
679.236	2.71
679.56	2.73
679.885	3.3
680.209	2.7
680.532	3.68
680.856	2.96
681.18	3.22
681.504	2.74
681.828	3.31
682.152	3.33
682.475	3.08
682.799	3.22
683.122	2.81
683.446	2.59
683.769	3.59
684.093	3.35
684.416	3.72
684.739	2.72
685.062	3.49
685.386	2.91
685.709	3.63
686.032	2.2
686.355	3.25
686.678	2.64
687.001	3.11
687.324	3.6
687.646	2.73
687.969	3.2
688.292	2.85
688.614	3.91
688.937	3.32
689.26	3.59
689.582	2.12
689.904	3.47
690.227	3.58
690.549	2.77
690.871	3.36
691.194	2.96
691.516	3.99
691.838	3.28
692.16	3.63
692.482	3.3
