Data from 0185_crown_Reflection__0__005.txt Node

Date: Mon Aug 28 18:39:06 CDT 2023
User: ToomeyLab
Spectrometer: FLMS14357
Trigger mode: 0
Integration Time (sec): 1.000000E-2
Scans to average: 100
Electric dark correction enabled: true
Nonlinearity correction enabled: false
Boxcar width: 0
XAxis mode: Wavelengths
Number of Pixels in Spectrum: 2048
>>>>>Begin Spectral Data<<<<<
189.047	-172.84
189.435	-172.84
189.823	-172.84
190.211	-10920.93
190.599	-97.38
190.987	297.02
191.375	72.05
191.763	102.05
192.151	54.19
192.538	57.55
192.926	187.38
193.314	868.62
193.702	34.78
194.089	-26.63
194.477	2701.18
194.864	-51.22
195.252	102.2
195.639	471.79
196.027	127.19
196.414	246.75
196.801	194.88
197.189	26.29
197.576	-288.58
197.963	5.1
198.351	64.05
198.738	62.14
199.125	24.96
199.512	22.8
199.899	-22.17
200.286	-114.94
200.673	25.72
201.06	-2.88
201.447	-51.6
201.833	4.8
202.22	-10.76
202.607	36.62
202.994	55.06
203.38	23.69
203.767	41.52
204.154	15.94
204.54	-31.9
204.927	12.99
205.313	39.95
205.699	-28.55
206.086	35.46
206.472	36.3
206.858	-33.47
207.245	8.81
207.631	44.28
208.017	12.97
208.403	30.16
208.789	25.89
209.175	3
209.561	-0.08
209.947	31.89
210.333	-24.11
210.719	44.51
211.105	8.56
211.491	26.12
211.876	39.24
212.262	72
212.648	35.61
213.034	-12.68
213.419	7.44
213.805	15.85
214.19	13.21
214.576	31.62
214.961	2.58
215.346	34.37
215.732	32.48
216.117	-15.49
216.502	8.94
216.888	-24.12
217.273	-3.03
217.658	47.86
218.043	53.95
218.428	25.75
218.813	22.94
219.198	-3.9
219.583	-5.34
219.968	33.16
220.353	9.82
220.738	0.57
221.122	39.43
221.507	9.39
221.892	4.69
222.276	-9.64
222.661	12.67
223.046	-0.6
223.43	6.64
223.815	19.45
224.199	10.71
224.583	12.06
224.968	13.32
225.352	20.12
225.736	7.97
226.121	0.69
226.505	10.73
226.889	9.37
227.273	17.03
227.657	10.99
228.041	7.81
228.425	7.92
228.809	5.28
229.193	8.61
229.577	11.74
229.961	7.02
230.344	9.15
230.728	7.36
231.112	6.81
231.495	7.79
231.879	8.32
232.263	8.42
232.646	5.9
233.03	6.88
233.413	9.51
233.797	8.35
234.18	6.43
234.563	8.59
234.946	7.02
235.33	8.19
235.713	6.59
236.096	9.02
236.479	6.82
236.862	8.2
237.245	7.59
237.628	10.58
238.011	8.86
238.394	7.91
238.777	8.29
239.16	6.93
239.543	4.85
239.925	7.26
240.308	7.58
240.691	6.38
241.073	4.23
241.456	7.96
241.838	6.71
242.221	7.77
242.603	7.66
242.986	6.93
243.368	7.29
243.75	6.2
244.133	6.25
244.515	6.18
244.897	7.33
245.279	6.73
245.661	7.04
246.043	5.99
246.425	6.43
246.807	7.82
247.189	5.91
247.571	6.37
247.953	6.59
248.335	6.42
248.717	6.29
249.098	6.4
249.48	6.34
249.862	6.25
250.243	6.11
250.625	6.53
251.006	6.42
251.388	6.65
251.769	7.24
252.151	7.33
252.532	6.09
252.913	7.42
253.295	4.22
253.676	5.74
254.057	6.27
254.438	5.71
254.819	5.83
255.2	6.06
255.581	5.72
255.962	7.71
256.343	7
256.724	5.38
257.105	6.38
257.486	6.5
257.867	6.38
258.247	6.53
258.628	6.63
259.009	4.98
259.389	5.85
259.77	6.14
260.15	5.55
260.531	4.62
260.911	5.05
261.292	5.65
261.672	5.43
262.052	5.63
262.432	5.54
262.813	5.69
263.193	5.74
263.573	5.23
263.953	5.76
264.333	5.79
264.713	5.78
265.093	6.36
265.473	5.58
265.853	5.21
266.233	5.56
266.612	6.05
266.992	5.52
267.372	5.45
267.752	6.24
268.131	5.64
268.511	5.23
268.89	5.56
269.27	5.2
269.649	5.15
270.029	6.17
270.408	5.73
270.787	5.52
271.167	5.62
271.546	5.52
271.925	5.87
272.304	5.28
272.683	5.69
273.062	5.33
273.441	5.69
273.82	5.22
274.199	4.65
274.578	5.26
274.957	5.38
275.336	5.44
275.715	5.82
276.093	4.99
276.472	4.94
276.851	5.37
277.229	5.18
277.608	5.3
277.986	5.2
278.365	5.5
278.743	4.76
279.122	5.2
279.5	4.78
279.878	4.88
280.257	5.23
280.635	5.12
281.013	5.83
281.391	5.01
281.769	4.4
282.147	4.82
282.525	4.47
282.903	4.73
283.281	5.01
283.659	5.53
284.037	5.76
284.415	5.06
284.792	5.38
285.17	4.75
285.548	4.82
285.925	5.1
286.303	4.92
286.68	5.13
287.058	5.12
287.435	4.79
287.813	4.72
288.19	5.03
288.567	4.97
288.945	4.93
289.322	5.04
289.699	4.98
290.076	5.48
290.453	4.54
290.83	4.33
291.207	4.38
291.584	4.34
291.961	4.96
292.338	4.93
292.715	4.46
293.092	4.79
293.469	4.34
293.845	4.2
294.222	4.86
294.599	4.68
294.975	4.66
295.352	3.97
295.728	4.96
296.105	4.77
296.481	4.5
296.858	4.85
297.234	4.65
297.61	5
297.986	4.82
298.363	4.99
298.739	4.51
299.115	4.24
299.491	4.71
299.867	4.47
300.243	4.78
300.619	4.61
300.995	5.03
301.371	4.41
301.746	4.71
302.122	4.72
302.498	4.43
302.874	4.33
303.249	4.32
303.625	4.68
304	4.12
304.376	4.6
304.751	4.09
305.127	5.05
305.502	4.62
305.878	4.25
306.253	4.23
306.628	4.39
307.003	4.86
307.378	4.36
307.754	4.76
308.129	4.34
308.504	4.84
308.879	4.53
309.254	4.92
309.629	4.8
310.003	4.09
310.378	4.41
310.753	4.26
311.128	4.41
311.502	4.92
311.877	4.39
312.252	4.65
312.626	4.38
313.001	4.33
313.375	4.47
313.75	4.3
314.124	4.73
314.498	4.99
314.873	4.33
315.247	4.59
315.621	4.35
315.995	4.96
316.369	5.06
316.743	4.13
317.117	4.78
317.491	3.85
317.865	4.26
318.239	4.26
318.613	4.76
318.987	4.43
319.361	4.59
319.734	4.5
320.108	4.46
320.482	4.83
320.855	4.12
321.229	4.55
321.602	4.24
321.976	4.07
322.349	4.46
322.723	4.34
323.096	4.22
323.469	4.72
323.843	4.04
324.216	4.51
324.589	5.02
324.962	4.78
325.335	4.76
325.708	4.27
326.081	4.6
326.454	4.38
326.827	4.34
327.2	4.17
327.573	4.27
327.945	4.79
328.318	4.45
328.691	3.96
329.063	4.71
329.436	4.02
329.809	4.7
330.181	4.28
330.553	4.19
330.926	4.6
331.298	4.8
331.671	4.54
332.043	4.47
332.415	5.19
332.787	4.65
333.159	4.23
333.532	4.79
333.904	4.98
334.276	4.12
334.648	4.74
335.02	5.02
335.391	3.89
335.763	4.41
336.135	4.64
336.507	4.36
336.879	4.31
337.25	4.83
337.622	4.08
337.993	4.4
338.365	4.63
338.736	4.48
339.108	4.18
339.479	4.15
339.851	4.92
340.222	4.62
340.593	4.56
340.964	4.38
341.336	4.29
341.707	4.28
342.078	4.03
342.449	4.51
342.82	4.44
343.191	4.22
343.562	3.87
343.933	4.51
344.303	4.28
344.674	4.87
345.045	4.47
345.416	4.49
345.786	4.44
346.157	4.54
346.527	4.38
346.898	4.58
347.268	4.45
347.639	4.09
348.009	4.25
348.38	4.59
348.75	4.3
349.12	4.72
349.49	4.65
349.861	4.91
350.231	4.05
350.601	5.06
350.971	4.79
351.341	4.55
351.711	4.54
352.081	4.84
352.45	4.7
352.82	4.7
353.19	5.36
353.56	5.2
353.929	4.66
354.299	4.2
354.669	4.69
355.038	4.77
355.408	4.56
355.777	4.7
356.147	4.56
356.516	4.87
356.885	4.88
357.254	4.68
357.624	4.42
357.993	4.68
358.362	4.71
358.731	5.12
359.1	4.79
359.469	5.04
359.838	4.44
360.207	4.7
360.576	5
360.945	4.47
361.314	4.1
361.682	4.28
362.051	5
362.42	4.63
362.788	4.73
363.157	4.82
363.525	4.5
363.894	4.55
364.262	4.79
364.631	4.51
364.999	4.75
365.367	4.86
365.735	4.5
366.104	4.46
366.472	4.78
366.84	4.81
367.208	4.73
367.576	4.35
367.944	5.2
368.312	5.16
368.68	4.65
369.048	4.81
369.416	5.04
369.783	4.82
370.151	4.9
370.519	4.93
370.886	4.56
371.254	4.75
371.621	4.65
371.989	4.72
372.356	4.74
372.724	5.1
373.091	4.83
373.458	4.72
373.826	4.98
374.193	4.87
374.56	4.84
374.927	4.77
375.294	5.11
375.661	5.06
376.028	4.85
376.395	4.72
376.762	5.17
377.129	5.03
377.496	4.8
377.863	4.85
378.229	4.61
378.596	5.06
378.963	5.16
379.329	4.97
379.696	4.74
380.062	4.7
380.429	4.36
380.795	5.11
381.161	5.07
381.528	5.5
381.894	5.21
382.26	5.25
382.626	4.95
382.993	4.99
383.359	5.13
383.725	5.31
384.091	5.25
384.457	4.73
384.823	5.06
385.188	5.05
385.554	4.99
385.92	5
386.286	5.43
386.651	5
387.017	5.3
387.383	5.13
387.748	4.93
388.114	4.81
388.479	4.97
388.845	5.13
389.21	4.83
389.575	5.04
389.94	5.28
390.306	5.13
390.671	5.05
391.036	5.09
391.401	5.44
391.766	5.46
392.131	5.21
392.496	4.93
392.861	5.02
393.226	4.91
393.591	4.75
393.956	5.16
394.32	4.9
394.685	5.09
395.05	5.24
395.414	5.26
395.779	5.04
396.143	5.15
396.508	4.84
396.872	5.41
397.236	5.14
397.601	5.1
397.965	5.12
398.329	5.22
398.694	5.28
399.058	5.33
399.422	5.41
399.786	5.44
400.15	5.39
400.514	5.18
400.878	5.23
401.242	5.27
401.605	5.34
401.969	5.15
402.333	5.38
402.697	5.37
403.06	5.39
403.424	5.56
403.787	5.06
404.151	4.95
404.514	5.1
404.878	5.13
405.241	5.4
405.604	5.39
405.968	5.06
406.331	5.27
406.694	5.16
407.057	5.41
407.42	5.08
407.783	5.13
408.146	5.09
408.509	5.4
408.872	5.09
409.235	5.34
409.598	5.19
409.961	5.27
410.323	5.47
410.686	5.44
411.049	5.46
411.411	5.37
411.774	5.2
412.136	5.15
412.499	5.16
412.861	5.25
413.223	5.32
413.586	5.16
413.948	5.2
414.31	5.43
414.672	5.13
415.035	5.27
415.397	5.31
415.759	5.23
416.121	5.4
416.483	5.21
416.845	5.43
417.206	5.5
417.568	5.38
417.93	5.04
418.292	5.42
418.653	5.16
419.015	5.29
419.377	5.2
419.738	5.34
420.1	5.41
420.461	5.32
420.822	5.19
421.184	5.15
421.545	5.22
421.906	5.14
422.267	5.16
422.629	5.06
422.99	5.06
423.351	5.17
423.712	5.06
424.073	5.14
424.434	5.39
424.795	5.14
425.155	5.11
425.516	5.14
425.877	5.1
426.238	5.06
426.598	5.12
426.959	5.13
427.32	5.2
427.68	5.16
428.041	5.19
428.401	5.24
428.761	5.29
429.122	5.35
429.482	5.33
429.842	5.4
430.202	5.22
430.563	5.42
430.923	5.5
431.283	5.31
431.643	5.28
432.003	5.22
432.363	5.38
432.722	5.29
433.082	5.12
433.442	5.38
433.802	5.33
434.161	5.46
434.521	5.32
434.881	5.17
435.24	5.22
435.6	5.33
435.959	5.42
436.319	5.4
436.678	5.31
437.037	5.39
437.396	5.31
437.756	5.24
438.115	5.56
438.474	5.35
438.833	5.4
439.192	5.38
439.551	5.42
439.91	5.38
440.269	5.42
440.628	5.37
440.987	5.34
441.345	5.22
441.704	5.36
442.063	5.26
442.421	5.24
442.78	5.37
443.138	5.25
443.497	5.17
443.855	5.31
444.214	5.39
444.572	5.33
444.93	5.53
445.288	5.23
445.647	5.31
446.005	5.45
446.363	5.33
446.721	5.33
447.079	5.39
447.437	5.13
447.795	5.17
448.153	5.23
448.51	5.22
448.868	5.28
449.226	5.19
449.584	5.3
449.941	5.31
450.299	5.44
450.656	5.33
451.014	5.31
451.371	5.34
451.729	5.24
452.086	5.27
452.443	5.66
452.801	5.43
453.158	5.53
453.515	5.48
453.872	5.36
454.229	5.52
454.586	5.47
454.943	5.4
455.3	5.43
455.657	5.4
456.014	5.38
456.371	5.45
456.727	5.39
457.084	5.47
457.441	5.51
457.797	5.55
458.154	5.42
458.51	5.58
458.867	5.44
459.223	5.44
459.58	5.4
459.936	5.54
460.292	5.46
460.648	5.33
461.005	5.31
461.361	5.25
461.717	5.19
462.073	5.18
462.429	5.25
462.785	5.44
463.141	5.4
463.496	5.51
463.852	5.36
464.208	5.5
464.564	5.53
464.919	5.62
465.275	5.62
465.631	5.43
465.986	5.7
466.342	5.63
466.697	5.36
467.052	5.43
467.408	5.49
467.763	5.41
468.118	5.42
468.473	5.49
468.829	5.47
469.184	5.36
469.539	5.45
469.894	5.59
470.249	5.5
470.603	5.53
470.958	5.5
471.313	5.4
471.668	5.53
472.023	5.62
472.377	5.4
472.732	5.55
473.086	5.36
473.441	5.4
473.795	5.45
474.15	5.55
474.504	5.59
474.859	5.57
475.213	5.52
475.567	5.61
475.921	5.75
476.275	5.58
476.63	5.7
476.984	5.59
477.338	5.62
477.692	5.49
478.045	5.56
478.399	5.49
478.753	5.34
479.107	5.61
479.461	5.37
479.814	5.59
480.168	5.49
480.521	5.48
480.875	5.35
481.228	5.48
481.582	5.48
481.935	5.33
482.289	5.46
482.642	5.52
482.995	5.46
483.348	5.42
483.701	5.34
484.055	5.32
484.408	5.27
484.761	5.25
485.114	5.18
485.466	5.01
485.819	4.94
486.172	4.86
486.525	4.97
486.878	5.13
487.23	5.3
487.583	5.35
487.936	5.39
488.288	5.34
488.641	5.28
488.993	5.21
489.345	5.06
489.698	5.05
490.05	5
490.402	5.09
490.754	5.21
491.107	5.28
491.459	5.26
491.811	5.33
492.163	5.44
492.515	5.36
492.866	5.34
493.218	5.22
493.57	5.14
493.922	5
494.274	5.11
494.625	5.26
494.977	5.39
495.328	5.48
495.68	5.5
496.031	5.48
496.383	5.34
496.734	5.42
497.086	5.6
497.437	5.59
497.788	5.45
498.139	5.4
498.49	5.25
498.842	5.34
499.193	5.32
499.544	5.36
499.894	5.35
500.245	5.43
500.596	5.37
500.947	5.51
501.298	5.54
501.648	5.4
501.999	5.52
502.35	5.38
502.7	5.51
503.051	5.57
503.401	5.62
503.752	5.42
504.102	5.45
504.452	5.44
504.803	5.71
505.153	5.6
505.503	5.37
505.853	5.58
506.203	5.56
506.553	5.36
506.903	5.6
507.253	5.65
507.603	5.38
507.953	5.52
508.303	5.62
508.652	5.56
509.002	5.54
509.352	5.43
509.701	5.33
510.051	5.43
510.4	5.43
510.75	5.35
511.099	5.44
511.449	5.46
511.798	5.43
512.147	5.44
512.496	5.53
512.846	5.39
513.195	5.52
513.544	5.47
513.893	5.46
514.242	5.5
514.591	5.48
514.939	5.35
515.288	5.5
515.637	5.45
515.986	5.4
516.334	5.58
516.683	5.59
517.032	5.51
517.38	5.55
517.729	5.54
518.077	5.5
518.426	5.39
518.774	5.41
519.122	5.51
519.47	5.45
519.819	5.41
520.167	5.28
520.515	5.3
520.863	5.2
521.211	5.22
521.559	5.28
521.907	5.35
522.255	5.4
522.602	5.41
522.95	5.57
523.298	5.48
523.645	5.52
523.993	5.42
524.341	5.57
524.688	5.55
525.036	5.4
525.383	5.59
525.73	5.54
526.078	5.55
526.425	5.47
526.772	5.45
527.119	5.45
527.466	5.28
527.814	5.2
528.161	5.32
528.508	5.23
528.854	5.3
529.201	5.42
529.548	5.25
529.895	5.21
530.242	5.08
530.588	4.95
530.935	4.91
531.282	5.03
531.628	5.15
531.975	5.29
532.321	5.36
532.667	5.31
533.014	5.42
533.36	5.3
533.706	5.4
534.052	5.32
534.399	5.29
534.745	5.35
535.091	5.16
535.437	5.12
535.783	5.13
536.129	5.25
536.474	5.32
536.82	5.44
537.166	5.46
537.512	5.39
537.857	5.41
538.203	5.31
538.549	5.29
538.894	5.17
539.239	5.2
539.585	5.33
539.93	5.38
540.276	5.42
540.621	5.51
540.966	5.36
541.311	5.55
541.656	5.44
542.001	5.35
542.346	5.39
542.691	5.26
543.036	5.12
543.381	5.04
543.726	5
544.071	5.13
544.415	5.24
544.76	5.38
545.105	5.33
545.449	5.36
545.794	5.27
546.138	5.41
546.483	5.37
546.827	5.47
547.171	5.38
547.516	5.45
547.86	5.39
548.204	5.43
548.548	5.37
548.892	5.33
549.236	5.24
549.58	5.24
549.924	5.35
550.268	5.41
550.612	5.52
550.956	5.62
551.3	5.56
551.643	5.65
551.987	5.33
552.33	5.5
552.674	5.41
553.017	5.48
553.361	5.62
553.704	5.38
554.048	5.49
554.391	5.51
554.734	5.45
555.077	5.45
555.42	5.48
555.764	5.45
556.107	5.47
556.45	5.51
556.793	5.52
557.135	5.56
557.478	5.42
557.821	5.43
558.164	5.83
558.507	5.46
558.849	5.62
559.192	5.45
559.534	5.34
559.877	5.52
560.219	5.76
560.562	5.68
560.904	5.65
561.246	5.47
561.589	5.54
561.931	5.78
562.273	5.48
562.615	5.54
562.957	5.54
563.299	5.56
563.641	5.45
563.983	5.42
564.325	5.5
564.667	5.43
565.008	5.3
565.35	5.64
565.692	5.82
566.033	5.29
566.375	5.41
566.716	5.44
567.058	5.56
567.399	5.23
567.741	5.58
568.082	5.37
568.423	5.35
568.764	5.25
569.105	5.42
569.447	5.33
569.788	5.35
570.129	5.42
570.47	5.55
570.811	5.28
571.151	5.28
571.492	5.38
571.833	5.3
572.174	5.42
572.514	5.49
572.855	5.35
573.195	5.44
573.536	5.38
573.876	5.24
574.217	5.52
574.557	5.34
574.898	5.46
575.238	5.33
575.578	5.31
575.918	5.37
576.258	5.51
576.598	5.42
576.938	5.33
577.278	5.46
577.618	5.31
577.958	5.25
578.298	5.5
578.638	5.4
578.977	5.54
579.317	5.34
579.657	5.43
579.996	5.44
580.336	5.3
580.675	5.3
581.014	5.58
581.354	5.53
581.693	5.47
582.032	5.54
582.372	5.44
582.711	5.57
583.05	5.36
583.389	5.42
583.728	5.39
584.067	5.5
584.406	5.3
584.745	5.32
585.083	5.49
585.422	5.26
585.761	5.39
586.1	5.65
586.438	5.46
586.777	5.15
587.115	5.23
587.454	5.54
587.792	5.48
588.13	5.27
588.469	5.48
588.807	5.36
589.145	5.39
589.483	5.6
589.821	5.48
590.159	5.46
590.497	5.4
590.835	5.26
591.173	5.3
591.511	5.19
591.849	5.36
592.187	5.23
592.524	5.43
592.862	5.44
593.2	5.34
593.537	5.33
593.875	5.68
594.212	5.58
594.55	5.62
594.887	5.41
595.224	5.6
595.561	5.08
595.899	5.11
596.236	5.44
596.573	5.64
596.91	5.25
597.247	5.51
597.584	5.24
597.921	5.3
598.258	5.12
598.594	5.16
598.931	5.18
599.268	5.38
599.604	5.14
599.941	5.19
600.277	5.2
600.614	5.39
600.95	5.42
601.287	5.56
601.623	5.48
601.959	5.41
602.296	5.31
602.632	5.28
602.968	5.4
603.304	5.39
603.64	5.21
603.976	5.4
604.312	5.48
604.648	5.21
604.984	5.2
605.319	5.36
605.655	5.17
605.991	5.19
606.326	5.21
606.662	5.09
606.998	4.99
607.333	5.09
607.668	5.36
608.004	5.19
608.339	5.27
608.674	5.25
609.01	5.4
609.345	5.25
609.68	5.14
610.015	5.55
610.35	5.48
610.685	5.36
611.02	5.26
611.355	5.33
611.689	5.09
612.024	5.28
612.359	5.35
612.694	5.21
613.028	5.08
613.363	5.2
613.697	5.28
614.032	5.47
614.366	5.27
614.7	5.42
615.035	5.35
615.369	5.5
615.703	5.34
616.037	5.21
616.371	4.96
616.705	5.26
617.039	5.25
617.373	5.19
617.707	5.22
618.041	5.42
618.375	5.2
618.709	5.71
619.042	5.26
619.376	5.32
619.71	5.28
620.043	5.44
620.377	5.51
620.71	5.15
621.043	5.49
621.377	5.44
621.71	5.51
622.043	5.08
622.376	5.35
622.709	5.4
623.043	5.24
623.376	5.42
623.709	5.65
624.041	5.8
624.374	5.05
624.707	4.74
625.04	5.02
625.373	5.63
625.705	5.71
626.038	5.44
626.37	5.2
626.703	5.66
627.035	5.57
627.368	5.53
627.7	5.18
628.032	5.39
628.365	4.92
628.697	5.32
629.029	5.31
629.361	5.09
629.693	5.17
630.025	4.97
630.357	5.17
630.689	5.5
631.021	5.33
631.353	5.06
631.684	5.38
632.016	5.06
632.348	5
632.679	5.1
633.011	5.01
633.342	5.2
633.674	5.22
634.005	5.43
634.336	4.92
634.668	5.48
634.999	5.05
635.33	5.21
635.661	5.34
635.992	4.91
636.323	5.33
636.654	5.16
636.985	5.33
637.316	5.22
637.647	5.58
637.977	5.12
638.308	5.34
638.639	5.18
638.969	5.54
639.3	5.02
639.63	4.77
639.961	5.2
640.291	5.12
640.622	5.43
640.952	5.23
641.282	5.16
641.612	5.23
641.943	5.32
642.273	5.73
642.603	4.93
642.933	4.85
643.263	5.69
643.592	5.21
643.922	5.55
644.252	5.1
644.582	5.36
644.911	5.29
645.241	5.51
645.571	4.84
645.9	4.64
646.23	5.04
646.559	5.09
646.888	5.51
647.218	5.02
647.547	5.2
647.876	5.46
648.205	4.76
648.534	5.31
648.863	5.38
649.192	5.25
649.521	5.33
649.85	5.45
650.179	5.29
650.508	5.23
650.837	5.32
651.165	5.2
651.494	5.17
651.822	5.27
652.151	4.95
652.479	5.93
652.808	5.36
653.136	5.21
653.465	4.97
653.793	5.63
654.121	5.55
654.449	5.2
654.777	5.27
655.105	5.31
655.433	5.01
655.761	4.71
656.089	5.15
656.417	5.06
656.745	5.53
657.073	4.91
657.4	5.16
657.728	5.64
658.056	5.33
658.383	4.66
658.711	5.37
659.038	5.37
659.365	5.76
659.693	5.61
660.02	5
660.347	5.19
660.674	5.31
661.001	5.23
661.329	4.77
661.656	5.12
661.982	4.99
662.309	5.37
662.636	5.3
662.963	5.37
663.29	5.36
663.616	5.08
663.943	5.56
664.27	5.76
664.596	5.23
664.923	5.93
665.249	5.55
665.576	5.47
665.902	5.33
666.228	5.12
666.554	5.33
666.881	5.14
667.207	5.08
667.533	5.59
667.859	4.98
668.185	5.47
668.511	5.33
668.837	4.55
669.162	5.64
669.488	4.93
669.814	5.49
670.139	5.43
670.465	5.77
670.791	5.44
671.116	4.87
671.442	5.22
671.767	4.52
672.092	4.97
672.418	5.23
672.743	5.76
673.068	5.46
673.393	5.22
673.718	4.6
674.043	5.44
674.368	5.23
674.693	5.71
675.018	5.7
675.343	5.61
675.667	5.61
675.992	4.94
676.317	4.88
676.641	6.07
676.966	5.52
677.29	5.25
677.615	5.72
677.939	4.88
678.264	5.01
678.588	5.46
678.912	5.25
679.236	5.27
679.56	4.32
679.885	5.43
680.209	4.84
680.532	5.42
680.856	5.29
681.18	5.68
681.504	4.98
681.828	5.49
682.152	5.3
682.475	5.12
682.799	5.32
683.122	5.12
683.446	5.17
683.769	5.77
684.093	5.76
684.416	5.39
684.739	5.26
685.062	5.74
685.386	5.18
685.709	5.59
686.032	5.16
686.355	5.51
686.678	5.41
687.001	4.48
687.324	5.73
687.646	5.6
687.969	5.37
688.292	5.28
688.614	5.82
688.937	5.61
689.26	5.27
689.582	5.42
689.904	5.24
690.227	5.75
690.549	4.79
690.871	5.74
691.194	5.49
691.516	5.73
691.838	5.66
692.16	5.87
692.482	5.7
692.804	5.11
