Data from 0185_crown_Reflection__1__006.txt Node

Date: Mon Aug 28 18:39:19 CDT 2023
User: ToomeyLab
Spectrometer: FLMS14357
Trigger mode: 0
Integration Time (sec): 1.000000E-2
Scans to average: 100
Electric dark correction enabled: true
Nonlinearity correction enabled: false
Boxcar width: 0
XAxis mode: Wavelengths
Number of Pixels in Spectrum: 2048
>>>>>Begin Spectral Data<<<<<
189.047	-53.25
189.435	-53.25
189.823	-53.25
190.211	376.74
190.599	-154.8
190.987	111.51
191.375	24
191.763	103.44
192.151	182.95
192.538	19.88
192.926	205.05
193.314	-505.19
193.702	19.28
194.089	108.19
194.477	2651.76
194.864	-124.56
195.252	13.12
195.639	1543.59
196.027	90.69
196.414	307.24
196.801	84.14
197.189	32.11
197.576	-46.98
197.963	-50.65
198.351	-24.92
198.738	49.45
199.125	11.51
199.512	-24.83
199.899	-33.12
200.286	82.88
200.673	9.28
201.06	14.34
201.447	21.16
201.833	-52.74
202.22	13.85
202.607	9.15
202.994	21.87
203.38	4.45
203.767	-20.56
204.154	0.19
204.54	-54.41
204.927	-43.16
205.313	8.14
205.699	-14.88
206.086	12.72
206.472	18.87
206.858	-86.46
207.245	7.44
207.631	48.55
208.017	1.38
208.403	9.26
208.789	-36.22
209.175	-21.12
209.561	7.64
209.947	-3.75
210.333	13.76
210.719	26.48
211.105	52.2
211.491	-55.59
211.876	24.17
212.262	13.22
212.648	-5.06
213.034	-100.15
213.419	-16.46
213.805	-13.72
214.19	-3.23
214.576	17.02
214.961	-39.03
215.346	-45.84
215.732	-28.38
216.117	-19.79
216.502	-11.96
216.888	-57.27
217.273	-18.49
217.658	-4.05
218.043	-2.15
218.428	17.71
218.813	-8.92
219.198	-3.39
219.583	-3.7
219.968	22.9
220.353	10.87
220.738	15.81
221.122	2.57
221.507	-19.45
221.892	-12.11
222.276	12.33
222.661	-5.62
223.046	-7.23
223.43	4.38
223.815	-1.7
224.199	4.19
224.583	-5.49
224.968	1.64
225.352	6.95
225.736	16.91
226.121	5.66
226.505	-3.34
226.889	0.91
227.273	9.34
227.657	7.6
228.041	6.68
228.425	5.04
228.809	1.18
229.193	2.43
229.577	4.85
229.961	1.74
230.344	3.85
230.728	3.46
231.112	3.63
231.495	4.34
231.879	3.63
232.263	3.81
232.646	4.17
233.03	5.8
233.413	6.17
233.797	1.86
234.18	1.03
234.563	2.64
234.946	6.88
235.33	0.32
235.713	1.59
236.096	5.39
236.479	3.57
236.862	4.38
237.245	4.34
237.628	3.76
238.011	4.64
238.394	4.38
238.777	6.03
239.16	1.8
239.543	1.32
239.925	3.03
240.308	2.12
240.691	2.23
241.073	1.36
241.456	3.27
241.838	2.42
242.221	4.21
242.603	3.61
242.986	4.05
243.368	3.28
243.75	3.25
244.133	3.76
244.515	3.49
244.897	3.88
245.279	4.18
245.661	3.96
246.043	3.89
246.425	3.19
246.807	3.67
247.189	2.44
247.571	3.12
247.953	4.25
248.335	3.38
248.717	3.46
249.098	3.49
249.48	3.62
249.862	3.6
250.243	3.6
250.625	4.1
251.006	3.48
251.388	3.35
251.769	4.36
252.151	2.87
252.532	2.98
252.913	5.06
253.295	2.78
253.676	2.88
254.057	3.33
254.438	3.25
254.819	3.36
255.2	3.97
255.581	3.05
255.962	3.71
256.343	3.51
256.724	2.6
257.105	2.68
257.486	4.29
257.867	1.64
258.247	3.05
258.628	3.81
259.009	2.91
259.389	2.2
259.77	3.09
260.15	2.6
260.531	2.79
260.911	3.07
261.292	3.26
261.672	3.15
262.052	3.01
262.432	3.25
262.813	3.4
263.193	3.12
263.573	3.16
263.953	3.04
264.333	2.59
264.713	2.87
265.093	3.33
265.473	3.01
265.853	2.46
266.233	3.29
266.612	3.15
266.992	2.46
267.372	2.79
267.752	3.37
268.131	2.55
268.511	2.79
268.89	2.96
269.27	2.6
269.649	3.02
270.029	3.15
270.408	3.41
270.787	3.73
271.167	2.97
271.546	2.7
271.925	3.07
272.304	2.61
272.683	3.04
273.062	2.63
273.441	2.75
273.82	2.85
274.199	2.76
274.578	2.79
274.957	3.41
275.336	3.3
275.715	3.28
276.093	2.84
276.472	3.16
276.851	2.95
277.229	3.38
277.608	3.08
277.986	3.02
278.365	3.07
278.743	2.85
279.122	2.84
279.5	2.3
279.878	2.28
280.257	2.91
280.635	3.25
281.013	2.55
281.391	2.52
281.769	2.85
282.147	2.82
282.525	3.36
282.903	3.17
283.281	2.91
283.659	3.63
284.037	3.4
284.415	2.65
284.792	2.77
285.17	2.71
285.548	2.2
285.925	3.22
286.303	2.66
286.68	3.31
287.058	3.15
287.435	2.4
287.813	2.55
288.19	2.96
288.567	2.86
288.945	3.49
289.322	2.99
289.699	2.82
290.076	3.33
290.453	3.21
290.83	2.28
291.207	2.47
291.584	2.58
291.961	3.11
292.338	2.88
292.715	2.87
293.092	3.05
293.469	3.13
293.845	2.55
294.222	2.54
294.599	2.71
294.975	3.05
295.352	2.91
295.728	2.63
296.105	2.89
296.481	3.04
296.858	2.62
297.234	3.44
297.61	2.81
297.986	2.31
298.363	3.05
298.739	2.84
299.115	2.76
299.491	2.97
299.867	3.13
300.243	2.9
300.619	2.94
300.995	3.37
301.371	2.47
301.746	3.09
302.122	3.35
302.498	2.82
302.874	3.11
303.249	3.02
303.625	2.82
304	2.29
304.376	2.83
304.751	2.58
305.127	2.54
305.502	2.94
305.878	2.66
306.253	2.52
306.628	2.81
307.003	2.88
307.378	2.54
307.754	3.23
308.129	2.47
308.504	3.02
308.879	2.82
309.254	3.07
309.629	2.51
310.003	2.83
310.378	2.49
310.753	2.79
311.128	2.91
311.502	3.29
311.877	2.79
312.252	3.2
312.626	2.95
313.001	3.03
313.375	3.13
313.75	2.67
314.124	2.83
314.498	3.16
314.873	3.03
315.247	2.97
315.621	2.09
315.995	3.88
316.369	3.15
316.743	2.63
317.117	2.36
317.491	2.32
317.865	2.48
318.239	3.37
318.613	3.25
318.987	2.95
319.361	2.98
319.734	2.53
320.108	3.19
320.482	3.33
320.855	2.78
321.229	3.06
321.602	3.52
321.976	2.56
322.349	3.36
322.723	2.71
323.096	2.6
323.469	3.13
323.843	2.76
324.216	3.18
324.589	2.84
324.962	2.36
325.335	2.94
325.708	2.48
326.081	3.05
326.454	3.08
326.827	3.49
327.2	2.57
327.573	3.13
327.945	3.14
328.318	3.44
328.691	2.49
329.063	2.53
329.436	2.43
329.809	3.19
330.181	2.9
330.553	2.45
330.926	2.89
331.298	2.84
331.671	2.9
332.043	3.08
332.415	3.06
332.787	2.69
333.159	3
333.532	3.34
333.904	3.03
334.276	2.56
334.648	2.81
335.02	3.2
335.391	2.76
335.763	2.7
336.135	3.28
336.507	3.02
336.879	2.49
337.25	3.32
337.622	2.87
337.993	3.18
338.365	2.52
338.736	3.01
339.108	2.73
339.479	2.33
339.851	3.06
340.222	3.02
340.593	2.84
340.964	3.02
341.336	2.55
341.707	2.68
342.078	2.82
342.449	2.54
342.82	3.2
343.191	2.91
343.562	2.7
343.933	2.79
344.303	2.94
344.674	2.96
345.045	3.02
345.416	3.31
345.786	3.22
346.157	2.94
346.527	2.42
346.898	2.92
347.268	2.79
347.639	2.77
348.009	2.58
348.38	3.03
348.75	3.18
349.12	3.16
349.49	3.18
349.861	2.76
350.231	2.36
350.601	3.34
350.971	2.98
351.341	2.62
351.711	3.05
352.081	3.05
352.45	2.84
352.82	3.29
353.19	3.66
353.56	2.97
353.929	2.66
354.299	2.55
354.669	3.08
355.038	3.08
355.408	3.01
355.777	2.81
356.147	3.06
356.516	3.38
356.885	3.23
357.254	3.03
357.624	2.94
357.993	3.13
358.362	2.67
358.731	2.9
359.1	3.25
359.469	3
359.838	2.73
360.207	2.79
360.576	3.29
360.945	2.95
361.314	2.67
361.682	2.71
362.051	3.12
362.42	2.67
362.788	2.88
363.157	3.04
363.525	2.61
363.894	2.93
364.262	3.13
364.631	2.9
364.999	3.13
365.367	3.39
365.735	2.91
366.104	2.77
366.472	2.88
366.84	2.81
367.208	3.18
367.576	2.98
367.944	3.03
368.312	3.1
368.68	3.2
369.048	2.78
369.416	3.17
369.783	2.74
370.151	2.99
370.519	3.05
370.886	3
371.254	2.88
371.621	3.14
371.989	3.22
372.356	2.67
372.724	3.13
373.091	3.05
373.458	2.77
373.826	3.03
374.193	3.11
374.56	2.97
374.927	2.71
375.294	2.89
375.661	3.36
376.028	2.71
376.395	2.67
376.762	3.34
377.129	3.08
377.496	2.83
377.863	3.09
378.229	2.94
378.596	3.55
378.963	3.3
379.329	3.22
379.696	3.05
380.062	3.08
380.429	2.84
380.795	3.06
381.161	3.03
381.528	3.47
381.894	3.1
382.26	3.4
382.626	3.02
382.993	3.45
383.359	3.31
383.725	3.36
384.091	3.16
384.457	3.2
384.823	3.17
385.188	2.77
385.554	3.12
385.92	3.3
386.286	3.37
386.651	3
387.017	3.19
387.383	3.33
387.748	2.96
388.114	3.1
388.479	3.14
388.845	2.93
389.21	2.96
389.575	3.27
389.94	2.9
390.306	3.29
390.671	2.96
391.036	2.91
391.401	3.36
391.766	3.22
392.131	3.42
392.496	3.28
392.861	2.9
393.226	3.32
393.591	2.93
393.956	3.09
394.32	2.91
394.685	3.35
395.05	3.33
395.414	3.15
395.779	3.18
396.143	3.1
396.508	3.06
396.872	3.4
397.236	3.26
397.601	3.06
397.965	3.39
398.329	3.37
398.694	3.29
399.058	3.01
399.422	3.21
399.786	3.14
400.15	3.3
400.514	3.47
400.878	3.33
401.242	3.26
401.605	3.19
401.969	3.17
402.333	3.09
402.697	3.15
403.06	3.37
403.424	3.08
403.787	3.14
404.151	3.42
404.514	3.25
404.878	3.08
405.241	3.45
405.604	3.53
405.968	2.96
406.331	3.42
406.694	3.34
407.057	3.2
407.42	3.19
407.783	3.02
408.146	3.08
408.509	3.3
408.872	3.24
409.235	3.45
409.598	3.28
409.961	3.07
410.323	3.28
410.686	3.36
411.049	3.38
411.411	3.44
411.774	3.31
412.136	3.37
412.499	3.09
412.861	3.34
413.223	3.22
413.586	3.18
413.948	3.36
414.31	3.38
414.672	3.31
415.035	3.08
415.397	3.19
415.759	3.43
416.121	3.63
416.483	3.24
416.845	3.32
417.206	3.4
417.568	3.27
417.93	3.33
418.292	3.39
418.653	3.19
419.015	3.27
419.377	3.12
419.738	3.37
420.1	3.34
420.461	3.25
420.822	3.32
421.184	3.25
421.545	3.28
421.906	3.31
422.267	3.22
422.629	3.28
422.99	3.21
423.351	3.26
423.712	3.19
424.073	3.31
424.434	3.38
424.795	3.3
425.155	3.29
425.516	3.26
425.877	3.27
426.238	3.21
426.598	3.17
426.959	3.26
427.32	3.24
427.68	3.3
428.041	3.27
428.401	3.3
428.761	3.22
429.122	3.22
429.482	3.48
429.842	3.42
430.202	3.24
430.563	3.25
430.923	3.46
431.283	3.26
431.643	3.22
432.003	3.38
432.363	3.32
432.722	3.45
433.082	3.44
433.442	3.51
433.802	3.26
434.161	3.34
434.521	3.43
434.881	3.32
435.24	3.29
435.6	3.36
435.959	3.29
436.319	3.39
436.678	3.28
437.037	3.27
437.396	3.49
437.756	3.41
438.115	3.51
438.474	3.49
438.833	3.42
439.192	3.43
439.551	3.4
439.91	3.45
440.269	3.46
440.628	3.29
440.987	3.29
441.345	3.29
441.704	3.38
442.063	3.37
442.421	3.41
442.78	3.45
443.138	3.43
443.497	3.41
443.855	3.46
444.214	3.36
444.572	3.37
444.93	3.57
445.288	3.38
445.647	3.53
446.005	3.5
446.363	3.41
446.721	3.41
447.079	3.31
447.437	3.37
447.795	3.39
448.153	3.48
448.51	3.31
448.868	3.41
449.226	3.47
449.584	3.36
449.941	3.39
450.299	3.47
450.656	3.39
451.014	3.4
451.371	3.48
451.729	3.19
452.086	3.42
452.443	3.52
452.801	3.48
453.158	3.51
453.515	3.41
453.872	3.53
454.229	3.55
454.586	3.52
454.943	3.34
455.3	3.53
455.657	3.48
456.014	3.46
456.371	3.47
456.727	3.47
457.084	3.35
457.441	3.57
457.797	3.54
458.154	3.64
458.51	3.6
458.867	3.36
459.223	3.47
459.58	3.53
459.936	3.65
460.292	3.65
460.648	3.51
461.005	3.39
461.361	3.46
461.717	3.37
462.073	3.44
462.429	3.42
462.785	3.56
463.141	3.47
463.496	3.62
463.852	3.47
464.208	3.48
464.564	3.56
464.919	3.62
465.275	3.62
465.631	3.54
465.986	3.66
466.342	3.46
466.697	3.51
467.052	3.55
467.408	3.67
467.763	3.48
468.118	3.54
468.473	3.51
468.829	3.49
469.184	3.53
469.539	3.62
469.894	3.62
470.249	3.53
470.603	3.52
470.958	3.47
471.313	3.55
471.668	3.44
472.023	3.63
472.377	3.66
472.732	3.57
473.086	3.61
473.441	3.52
473.795	3.74
474.15	3.62
474.504	3.66
474.859	3.55
475.213	3.55
475.567	3.67
475.921	3.71
476.275	3.59
476.63	3.73
476.984	3.7
477.338	3.62
477.692	3.59
478.045	3.7
478.399	3.56
478.753	3.6
479.107	3.58
479.461	3.72
479.814	3.77
480.168	3.69
480.521	3.62
480.875	3.54
481.228	3.48
481.582	3.72
481.935	3.44
482.289	3.64
482.642	3.63
482.995	3.8
483.348	3.59
483.701	3.58
484.055	3.56
484.408	3.53
484.761	3.67
485.114	3.5
485.466	3.44
485.819	3.39
486.172	3.31
486.525	3.39
486.878	3.45
487.23	3.48
487.583	3.54
487.936	3.62
488.288	3.58
488.641	3.52
488.993	3.52
489.345	3.45
489.698	3.51
490.05	3.47
490.402	3.44
490.754	3.57
491.107	3.58
491.459	3.59
491.811	3.64
492.163	3.68
492.515	3.64
492.866	3.63
493.218	3.57
493.57	3.5
493.922	3.43
494.274	3.5
494.625	3.53
494.977	3.66
495.328	3.72
495.68	3.74
496.031	3.76
496.383	3.62
496.734	3.64
497.086	3.85
497.437	3.94
497.788	3.67
498.139	3.62
498.49	3.67
498.842	3.74
499.193	3.59
499.544	3.67
499.894	3.69
500.245	3.63
500.596	3.85
500.947	3.75
501.298	3.83
501.648	3.78
501.999	3.77
502.35	3.67
502.7	3.82
503.051	3.8
503.401	3.83
503.752	3.74
504.102	3.68
504.452	3.76
504.803	3.9
505.153	3.85
505.503	3.68
505.853	3.71
506.203	3.71
506.553	3.76
506.903	3.85
507.253	3.82
507.603	3.84
507.953	3.82
508.303	3.94
508.652	3.8
509.002	3.91
509.352	3.59
509.701	3.76
510.051	3.73
510.4	3.7
510.75	3.77
511.099	3.86
511.449	3.89
511.798	3.78
512.147	3.83
512.496	3.81
512.846	3.79
513.195	3.83
513.544	3.87
513.893	3.72
514.242	3.87
514.591	3.85
514.939	3.68
515.288	3.84
515.637	3.94
515.986	3.88
516.334	3.87
516.683	3.88
517.032	3.91
517.38	3.95
517.729	3.93
518.077	3.81
518.426	3.8
518.774	3.78
519.122	3.79
519.47	3.83
519.819	3.86
520.167	3.75
520.515	3.8
520.863	3.77
521.211	3.82
521.559	3.76
521.907	3.87
522.255	3.77
522.602	3.89
522.95	4
523.298	4.01
523.645	3.93
523.993	3.9
524.341	4.04
524.688	3.92
525.036	3.88
525.383	4
525.73	4.01
526.078	4.08
526.425	3.9
526.772	3.91
527.119	3.85
527.466	3.81
527.814	3.79
528.161	3.76
528.508	3.83
528.854	3.83
529.201	3.93
529.548	3.81
529.895	3.84
530.242	3.69
530.588	3.65
530.935	3.62
531.282	3.68
531.628	3.73
531.975	3.79
532.321	3.77
532.667	3.83
533.014	3.92
533.36	3.91
533.706	3.85
534.052	3.84
534.399	3.88
534.745	3.95
535.091	3.77
535.437	3.81
535.783	3.8
536.129	3.77
536.474	3.86
536.82	4.01
537.166	3.95
537.512	3.92
537.857	4.06
538.203	3.97
538.549	3.92
538.894	3.93
539.239	3.81
539.585	3.98
539.93	3.99
540.276	4
540.621	3.99
540.966	4.01
541.311	4.07
541.656	4.06
542.001	4.02
542.346	4.1
542.691	3.91
543.036	3.81
543.381	3.84
543.726	3.86
544.071	3.91
544.415	3.96
544.76	3.99
545.105	3.96
545.449	3.93
545.794	4.01
546.138	4.03
546.483	4.02
546.827	4.04
547.171	3.94
547.516	4.03
547.86	4.11
548.204	4.14
548.548	4.1
548.892	3.9
549.236	3.96
549.58	3.98
549.924	4.08
550.268	4.13
550.612	4.11
550.956	4.21
551.3	4.07
551.643	4.27
551.987	4.14
552.33	4.16
552.674	4.37
553.017	4.15
553.361	4.22
553.704	4.04
554.048	4.34
554.391	4.12
554.734	4.09
555.077	4.04
555.42	4.16
555.764	4.14
556.107	4.17
556.45	4.25
556.793	4.25
557.135	4.34
557.478	4.28
557.821	4.17
558.164	4.39
558.507	4.23
558.849	4.27
559.192	4.07
559.534	4.2
559.877	4.19
560.219	4.3
560.562	4.3
560.904	4.4
561.246	4.22
561.589	4.27
561.931	4.43
562.273	4.08
562.615	4.1
562.957	4.27
563.299	4.35
563.641	4.16
563.983	4.19
564.325	4.29
564.667	4.23
565.008	4.12
565.35	4.45
565.692	4.29
566.033	4.27
566.375	4.27
566.716	4.07
567.058	4.19
567.399	3.96
567.741	4.16
568.082	3.94
568.423	4.22
568.764	4.06
569.105	4.36
569.447	4.2
569.788	4.26
570.129	4.27
570.47	4.34
570.811	4.2
571.151	4.15
571.492	4.18
571.833	4.16
572.174	4.35
572.514	4.26
572.855	4.21
573.195	4.34
573.536	4.31
573.876	4.04
574.217	4.26
574.557	4.25
574.898	4.39
575.238	4.37
575.578	4.23
575.918	4.16
576.258	4.36
576.598	4.32
576.938	4.24
577.278	4.18
577.618	4.36
577.958	4.31
578.298	4.51
578.638	4.41
578.977	4.24
579.317	4.3
579.657	4.21
579.996	4.37
580.336	4.29
580.675	4.46
581.014	4.49
581.354	4.39
581.693	4.37
582.032	4.6
582.372	4.46
582.711	4.58
583.05	4.38
583.389	4.4
583.728	4.36
584.067	4.5
584.406	4.51
584.745	4.38
585.083	4.36
585.422	4.24
585.761	4.4
586.1	4.73
586.438	4.07
586.777	4.43
587.115	4.73
587.454	4.57
587.792	4.61
588.13	4.66
588.469	4.55
588.807	4.24
589.145	4.35
589.483	4.37
589.821	4.5
590.159	4.68
590.497	4.47
590.835	4.64
591.173	4.44
591.511	4.16
591.849	4.46
592.187	4.41
592.524	4.42
592.862	4.47
593.2	4.32
593.537	4.52
593.875	4.59
594.212	4.48
594.55	4.56
594.887	4.38
595.224	4.75
595.561	4.34
595.899	4.25
596.236	4.47
596.573	4.72
596.91	4.56
597.247	4.63
597.584	4.39
597.921	4.54
598.258	4.37
598.594	4.32
598.931	4.39
599.268	4.4
599.604	4.31
599.941	4.43
600.277	4.48
600.614	4.69
600.95	4.56
601.287	4.49
601.623	4.8
601.959	4.57
602.296	4.69
602.632	4.54
602.968	4.71
603.304	4.55
603.64	4.5
603.976	4.63
604.312	4.68
604.648	4.38
604.984	4.55
605.319	4.38
605.655	4.57
605.991	4.59
606.326	4.68
606.662	4.57
606.998	4.45
607.333	4.41
607.668	4.41
608.004	4.5
608.339	4.6
608.674	4.38
609.01	4.7
609.345	4.58
609.68	4.48
610.015	4.64
610.35	4.84
610.685	4.85
611.02	4.51
611.355	4.85
611.689	4.7
612.024	4.59
612.359	4.63
612.694	4.83
613.028	4.42
613.363	4.5
613.697	4.56
614.032	4.67
614.366	4.42
614.7	4.66
615.035	4.44
615.369	4.74
615.703	4.35
616.037	4.55
616.371	4.45
616.705	4.65
617.039	4.67
617.373	4.92
617.707	4.3
618.041	4.73
618.375	4.56
618.709	4.65
619.042	4.87
619.376	4.8
619.71	4.77
620.043	4.76
620.377	4.8
620.71	4.68
621.043	4.76
621.377	4.66
621.71	4.84
622.043	4.62
622.376	4.85
622.709	4.59
623.043	4.76
623.376	4.93
623.709	4.93
624.041	4.7
624.374	4.6
624.707	4.37
625.04	4.44
625.373	4.65
625.705	5.02
626.038	4.91
626.37	4.97
626.703	5.02
627.035	4.53
627.368	5.21
627.7	4.95
628.032	4.73
628.365	4.7
628.697	4.94
629.029	4.85
629.361	4.93
629.693	4.8
630.025	4.81
630.357	4.78
630.689	4.91
631.021	4.88
631.353	4.81
631.684	5.1
632.016	4.56
632.348	4.86
632.679	4.79
633.011	4.68
633.342	4.76
633.674	4.96
634.005	4.49
634.336	4.9
634.668	5
634.999	5.02
635.33	5.06
635.661	4.84
635.992	4.76
636.323	5.29
636.654	4.77
636.985	4.57
637.316	4.81
637.647	4.94
637.977	4.53
638.308	4.95
638.639	5.19
638.969	5.03
639.3	4.59
639.63	5.08
639.961	5.26
640.291	5.16
640.622	4.88
640.952	4.81
641.282	5.02
641.612	4.66
641.943	4.83
642.273	5.03
642.603	4.13
642.933	4.98
643.263	5.1
643.592	4.61
643.922	4.97
644.252	4.89
644.582	4.71
644.911	4.79
645.241	5.15
645.571	4.54
645.9	4.68
646.23	4.88
646.559	4.83
646.888	5.13
647.218	4.53
647.547	4.85
647.876	4.72
648.205	5.14
648.534	5.06
648.863	5.08
649.192	5.1
649.521	4.87
649.85	5.54
650.179	4.8
650.508	5.16
650.837	4.71
651.165	4.88
651.494	5.27
651.822	4.71
652.151	4.91
652.479	5.45
652.808	5.12
653.136	5.07
653.465	5.28
653.793	4.96
654.121	5.24
654.449	5.18
654.777	4.95
655.105	4.87
655.433	4.71
655.761	4.47
656.089	4.91
656.417	4.79
656.745	5.3
657.073	4.72
657.4	4.96
657.728	5.24
658.056	4.8
658.383	5.18
658.711	5.19
659.038	5.46
659.365	4.81
659.693	5.07
660.02	5.08
660.347	5.54
660.674	4.99
661.001	5.3
661.329	4.98
661.656	4.92
661.982	5.14
662.309	5.02
662.636	5.22
662.963	5.41
663.29	5.45
663.616	5.09
663.943	5.38
664.27	5.33
664.596	5.15
664.923	5.68
665.249	5.4
665.576	5.27
665.902	5.21
666.228	5.33
666.554	5.29
666.881	5.36
667.207	5.01
667.533	5.18
667.859	4.79
668.185	5.19
668.511	5.92
668.837	5.17
669.162	5.78
669.488	4.55
669.814	5.54
670.139	5.12
670.465	5.43
670.791	4.99
671.116	4.91
671.442	4.83
671.767	4.12
672.092	5.17
672.418	5.06
672.743	5.51
673.068	5.01
673.393	5.25
673.718	5.32
674.043	5.33
674.368	5.14
674.693	5.76
675.018	5.43
675.343	5.16
675.667	5.2
675.992	5.2
676.317	5.31
676.641	5.39
676.966	5.72
677.29	4.73
677.615	5.52
677.939	5.41
678.264	4.64
678.588	5.33
678.912	5.65
679.236	4.9
679.56	5.54
679.885	5.22
680.209	4.71
680.532	5.47
680.856	5.56
681.18	5.27
681.504	5.11
681.828	5.1
682.152	5.33
682.475	5.71
682.799	5.54
683.122	5.01
683.446	5.24
683.769	5.73
684.093	5.38
684.416	5.48
684.739	5.36
685.062	5.92
685.386	4.81
685.709	5.81
686.032	4.94
686.355	5.57
686.678	5.79
687.001	5.29
687.324	5.5
687.646	5.43
687.969	5.22
688.292	5.68
688.614	6.2
688.937	5.78
689.26	5.7
689.582	5.13
689.904	5.45
690.227	5.86
690.549	5.4
690.871	5.83
691.194	5.49
691.516	5.52
691.838	6.13
692.16	5.5
