Data from 0185_crown_Reflection__6__011.txt Node

Date: Mon Aug 28 18:42:16 CDT 2023
User: ToomeyLab
Spectrometer: FLMS14357
Trigger mode: 0
Integration Time (sec): 1.000000E-2
Scans to average: 100
Electric dark correction enabled: true
Nonlinearity correction enabled: false
Boxcar width: 0
XAxis mode: Wavelengths
Number of Pixels in Spectrum: 2048
>>>>>Begin Spectral Data<<<<<
189.047	-40.36
189.435	-40.36
189.823	-40.36
190.211	-169.77
190.599	341.58
190.987	361.32
191.375	43.29
191.763	87.3
192.151	10.45
192.538	34.3
192.926	149.93
193.314	-836.34
193.702	36.64
194.089	115.12
194.477	-1382.35
194.864	-425.73
195.252	100.53
195.639	-1441.88
196.027	57.68
196.414	-72.37
196.801	166.3
197.189	-106.45
197.576	-348.27
197.963	-37.92
198.351	-17.71
198.738	34.47
199.125	18.83
199.512	-15.22
199.899	27.38
200.286	60.19
200.673	3.92
201.06	6.38
201.447	10.74
201.833	-34.97
202.22	15.03
202.607	-5.82
202.994	28.65
203.38	27
203.767	-13.71
204.154	-4.45
204.54	-26.82
204.927	-3.26
205.313	48.86
205.699	-0.22
206.086	33.51
206.472	1.35
206.858	-0.64
207.245	25.81
207.631	31.22
208.017	-10.18
208.403	2.26
208.789	28.03
209.175	-54
209.561	37.29
209.947	32.02
210.333	10.58
210.719	5.86
211.105	27.17
211.491	-15.62
211.876	42.95
212.262	-45.77
212.648	21.39
213.034	-14.77
213.419	17.97
213.805	17.08
214.19	-8.03
214.576	13.16
214.961	0.67
215.346	7.24
215.732	27.31
216.117	-27.91
216.502	-18.77
216.888	-54.79
217.273	-17.36
217.658	27.68
218.043	1.07
218.428	14.85
218.813	2.15
219.198	16.01
219.583	-1.8
219.968	10.58
220.353	-4.84
220.738	11.09
221.122	8.89
221.507	25.93
221.892	13.53
222.276	13.9
222.661	-4.24
223.046	-5.03
223.43	9.95
223.815	4.82
224.199	7.61
224.583	8.77
224.968	11.59
225.352	10.71
225.736	11.42
226.121	12.88
226.505	1.86
226.889	7.82
227.273	8.52
227.657	-0.06
228.041	3.39
228.425	6.56
228.809	7.64
229.193	5.49
229.577	3.7
229.961	3.68
230.344	4.34
230.728	3.31
231.112	3.06
231.495	3.52
231.879	3.02
232.263	4.02
232.646	3.24
233.03	5.32
233.413	5.83
233.797	3.07
234.18	4.35
234.563	4.1
234.946	6.1
235.33	3.44
235.713	2.28
236.096	5.3
236.479	4.53
236.862	5.55
237.245	4.59
237.628	4.41
238.011	5.01
238.394	5.46
238.777	6.3
239.16	1.78
239.543	2.12
239.925	4.56
240.308	4.2
240.691	1.76
241.073	3.43
241.456	4.84
241.838	3.19
242.221	4.51
242.603	4.27
242.986	4.44
243.368	4.21
243.75	3.75
244.133	3.67
244.515	3.23
244.897	3.67
245.279	3.81
245.661	3.88
246.043	4.58
246.425	3.71
246.807	3.55
247.189	3.28
247.571	3.84
247.953	3.9
248.335	3.67
248.717	3.18
249.098	3.4
249.48	3.66
249.862	3.62
250.243	3.41
250.625	4.28
251.006	4.01
251.388	3.83
251.769	5.09
252.151	3.27
252.532	3.42
252.913	4.49
253.295	2.68
253.676	3.6
254.057	3.7
254.438	3.3
254.819	3.7
255.2	3.71
255.581	4.02
255.962	4.01
256.343	4.08
256.724	2.42
257.105	3.83
257.486	3.88
257.867	3.23
258.247	3.55
258.628	4.1
259.009	3.19
259.389	3.26
259.77	3.93
260.15	3.25
260.531	2.79
260.911	3.38
261.292	3.48
261.672	3.24
262.052	3.22
262.432	3.32
262.813	3.6
263.193	3.16
263.573	2.8
263.953	3.67
264.333	3.17
264.713	3.1
265.093	3.04
265.473	3.63
265.853	3.01
266.233	2.92
266.612	3.95
266.992	3.25
267.372	3.3
267.752	4.28
268.131	3.2
268.511	2.57
268.89	3.9
269.27	3.13
269.649	3.28
270.029	3.41
270.408	3.42
270.787	4.05
271.167	3.42
271.546	2.89
271.925	3.21
272.304	3.75
272.683	3.41
273.062	3.52
273.441	3.61
273.82	3.35
274.199	2.5
274.578	3.09
274.957	3.43
275.336	3.44
275.715	3.35
276.093	2.76
276.472	2.98
276.851	3.2
277.229	3.76
277.608	3.59
277.986	3.58
278.365	3.24
278.743	2.75
279.122	3.38
279.5	3.02
279.878	2.49
280.257	2.29
280.635	3.2
281.013	3.52
281.391	3.08
281.769	3.66
282.147	3.52
282.525	3.15
282.903	3.1
283.281	3.12
283.659	3.74
284.037	3.23
284.415	2.74
284.792	3.52
285.17	3.03
285.548	2.99
285.925	3.41
286.303	3.02
286.68	3.29
287.058	3.38
287.435	3.01
287.813	2.89
288.19	3.07
288.567	3.29
288.945	3.17
289.322	3.27
289.699	3.65
290.076	3.57
290.453	3.42
290.83	2.85
291.207	2.96
291.584	3.13
291.961	3.51
292.338	2.83
292.715	3.04
293.092	3.03
293.469	3.34
293.845	2.87
294.222	2.78
294.599	2.85
294.975	3.82
295.352	3.03
295.728	3.1
296.105	3.04
296.481	3.1
296.858	3.78
297.234	3.7
297.61	3.4
297.986	3.25
298.363	3.2
298.739	3.3
299.115	3.03
299.491	3.5
299.867	3.18
300.243	3.66
300.619	3.57
300.995	3.96
301.371	3.13
301.746	3.14
302.122	3.31
302.498	3.67
302.874	3.62
303.249	3.21
303.625	3.48
304	3.8
304.376	3.64
304.751	3.57
305.127	3.47
305.502	3.89
305.878	3.53
306.253	3.44
306.628	3.67
307.003	3.36
307.378	3.5
307.754	3.69
308.129	3.16
308.504	3.73
308.879	3.59
309.254	3.09
309.629	3.25
310.003	3.23
310.378	2.99
310.753	3.51
311.128	3.2
311.502	3.99
311.877	3.51
312.252	3.58
312.626	3.83
313.001	3.44
313.375	3.38
313.75	3.47
314.124	3.64
314.498	3.73
314.873	3.54
315.247	3.87
315.621	2.67
315.995	4.21
316.369	3.44
316.743	3.42
317.117	3.47
317.491	3.07
317.865	3.21
318.239	3.72
318.613	3.79
318.987	3.48
319.361	3.85
319.734	3.66
320.108	3.7
320.482	4.39
320.855	3.35
321.229	3.99
321.602	3.69
321.976	3.2
322.349	3.6
322.723	3.67
323.096	3.46
323.469	3.35
323.843	3.5
324.216	3.77
324.589	3.31
324.962	3.76
325.335	3.74
325.708	3.72
326.081	3.8
326.454	3.53
326.827	3.58
327.2	3.42
327.573	3.36
327.945	3.81
328.318	4.31
328.691	3.08
329.063	3.2
329.436	3.35
329.809	3.84
330.181	3.36
330.553	3.54
330.926	3.85
331.298	3.73
331.671	3.38
332.043	3.54
332.415	4.4
332.787	3.55
333.159	4
333.532	3.93
333.904	3.82
334.276	3.45
334.648	3.67
335.02	3.92
335.391	3.62
335.763	3.39
336.135	3.25
336.507	3.19
336.879	3.65
337.25	4.08
337.622	3.76
337.993	3.64
338.365	3.86
338.736	3.91
339.108	2.74
339.479	3.51
339.851	3.99
340.222	3.93
340.593	3.58
340.964	3.88
341.336	3.71
341.707	3.53
342.078	3.48
342.449	3.64
342.82	3.56
343.191	4.12
343.562	3.35
343.933	2.98
344.303	3.58
344.674	3.68
345.045	3.62
345.416	3.57
345.786	3.48
346.157	4.06
346.527	3.32
346.898	3.22
347.268	3.45
347.639	3.36
348.009	3.18
348.38	3.82
348.75	3.42
349.12	3.86
349.49	3.29
349.861	3.45
350.231	3.74
350.601	3.78
350.971	3.79
351.341	3.35
351.711	3.74
352.081	3.37
352.45	3.79
352.82	3.69
353.19	4.16
353.56	3.52
353.929	3.68
354.299	3.4
354.669	3.88
355.038	3.63
355.408	3.7
355.777	3.47
356.147	3.31
356.516	4
356.885	3.96
357.254	3.36
357.624	3.47
357.993	3.81
358.362	3.44
358.731	3.67
359.1	3.44
359.469	3.88
359.838	3.33
360.207	3.55
360.576	3.79
360.945	3.68
361.314	3.35
361.682	3.43
362.051	3.9
362.42	3.65
362.788	3.58
363.157	3.56
363.525	3.48
363.894	3.75
364.262	3.57
364.631	3.32
364.999	3.51
365.367	3.68
365.735	3.66
366.104	3.62
366.472	3.47
366.84	3.61
367.208	3.67
367.576	3.49
367.944	3.68
368.312	3.74
368.68	3.73
369.048	3.88
369.416	3.54
369.783	3.77
370.151	3.58
370.519	3.73
370.886	3.39
371.254	3.56
371.621	3.37
371.989	3.74
372.356	3.74
372.724	4.06
373.091	3.94
373.458	3.42
373.826	3.84
374.193	3.72
374.56	3.59
374.927	3.53
375.294	3.34
375.661	3.88
376.028	3.67
376.395	3.49
376.762	3.57
377.129	3.73
377.496	3.37
377.863	3.75
378.229	3.53
378.596	3.81
378.963	3.71
379.329	3.77
379.696	3.73
380.062	3.49
380.429	3.33
380.795	3.63
381.161	3.82
381.528	3.8
381.894	3.63
382.26	3.46
382.626	3.59
382.993	3.35
383.359	3.73
383.725	4.06
384.091	3.62
384.457	3.7
384.823	3.59
385.188	3.95
385.554	3.43
385.92	3.51
386.286	3.95
386.651	3.61
387.017	3.91
387.383	3.8
387.748	3.58
388.114	3.56
388.479	3.54
388.845	3.72
389.21	3.45
389.575	3.99
389.94	3.37
390.306	3.68
390.671	3.62
391.036	3.75
391.401	4
391.766	3.78
392.131	3.68
392.496	3.79
392.861	3.48
393.226	3.86
393.591	3.51
393.956	3.7
394.32	3.6
394.685	3.71
395.05	3.82
395.414	3.58
395.779	3.51
396.143	3.58
396.508	3.54
396.872	3.68
397.236	3.5
397.601	3.64
397.965	3.75
398.329	3.94
398.694	3.97
399.058	3.53
399.422	3.69
399.786	3.68
400.15	3.88
400.514	3.56
400.878	3.64
401.242	3.79
401.605	3.65
401.969	3.55
402.333	3.56
402.697	3.53
403.06	3.91
403.424	3.88
403.787	3.72
404.151	3.49
404.514	3.71
404.878	3.72
405.241	3.8
405.604	3.56
405.968	3.65
406.331	3.92
406.694	3.79
407.057	3.81
407.42	3.58
407.783	3.5
408.146	3.66
408.509	3.81
408.872	3.53
409.235	3.72
409.598	3.74
409.961	3.51
410.323	3.9
410.686	3.84
411.049	3.87
411.411	3.98
411.774	3.72
412.136	3.55
412.499	3.64
412.861	3.68
413.223	3.72
413.586	3.62
413.948	3.77
414.31	4
414.672	3.43
415.035	3.68
415.397	3.63
415.759	3.73
416.121	3.86
416.483	3.58
416.845	3.89
417.206	3.99
417.568	3.57
417.93	3.46
418.292	3.77
418.653	3.6
419.015	3.83
419.377	3.41
419.738	3.91
420.1	3.71
420.461	3.68
420.822	3.62
421.184	3.76
421.545	3.63
421.906	3.63
422.267	3.64
422.629	3.58
422.99	3.61
423.351	3.69
423.712	3.57
424.073	3.62
424.434	3.78
424.795	3.54
425.155	3.69
425.516	3.65
425.877	3.59
426.238	3.6
426.598	3.59
426.959	3.62
427.32	3.64
427.68	3.67
428.041	3.66
428.401	3.83
428.761	3.65
429.122	3.77
429.482	3.73
429.842	3.8
430.202	3.67
430.563	3.81
430.923	3.86
431.283	3.73
431.643	3.78
432.003	3.74
432.363	3.95
432.722	3.89
433.082	3.75
433.442	3.8
433.802	3.79
434.161	3.75
434.521	3.88
434.881	3.64
435.24	3.69
435.6	3.71
435.959	3.65
436.319	3.84
436.678	3.66
437.037	3.75
437.396	3.85
437.756	3.76
438.115	3.81
438.474	3.89
438.833	3.71
439.192	3.73
439.551	3.72
439.91	3.82
440.269	3.76
440.628	3.7
440.987	3.72
441.345	3.65
441.704	3.73
442.063	3.75
442.421	3.78
442.78	3.88
443.138	3.74
443.497	3.79
443.855	3.69
444.214	3.81
444.572	3.77
444.93	3.92
445.288	3.69
445.647	3.93
446.005	3.87
446.363	3.93
446.721	3.96
447.079	3.75
447.437	3.58
447.795	3.67
448.153	3.75
448.51	3.77
448.868	3.75
449.226	3.76
449.584	3.77
449.941	3.73
450.299	3.64
450.656	3.73
451.014	3.76
451.371	3.7
451.729	3.68
452.086	3.69
452.443	3.93
452.801	3.93
453.158	3.94
453.515	3.7
453.872	3.67
454.229	3.89
454.586	3.84
454.943	3.78
455.3	3.85
455.657	3.89
456.014	3.89
456.371	3.78
456.727	3.87
457.084	3.83
457.441	3.79
457.797	3.91
458.154	3.79
458.51	3.98
458.867	3.81
459.223	3.82
459.58	3.83
459.936	3.9
460.292	3.85
460.648	3.77
461.005	3.73
461.361	3.87
461.717	3.73
462.073	3.73
462.429	3.65
462.785	3.81
463.141	3.77
463.496	4.01
463.852	3.91
464.208	3.82
464.564	3.86
464.919	4.01
465.275	3.89
465.631	3.69
465.986	3.88
466.342	3.93
466.697	3.89
467.052	4.01
467.408	3.98
467.763	3.84
468.118	3.75
468.473	3.9
468.829	3.89
469.184	3.74
469.539	3.98
469.894	3.8
470.249	3.9
470.603	3.92
470.958	3.88
471.313	3.99
471.668	3.73
472.023	3.85
472.377	4.01
472.732	4.03
473.086	3.94
473.441	3.94
473.795	4.11
474.15	4.09
474.504	3.9
474.859	3.94
475.213	4.02
475.567	3.93
475.921	4.22
476.275	3.97
476.63	4.1
476.984	3.97
477.338	3.97
477.692	4.06
478.045	4.1
478.399	4.17
478.753	3.95
479.107	3.85
479.461	3.99
479.814	4.13
480.168	3.99
480.521	3.89
480.875	3.99
481.228	3.94
481.582	4.05
481.935	3.91
482.289	4.04
482.642	3.96
482.995	4.02
483.348	4.01
483.701	3.96
484.055	4
484.408	3.88
484.761	3.85
485.114	3.86
485.466	3.77
485.819	3.68
486.172	3.65
486.525	3.68
486.878	3.71
487.23	3.77
487.583	3.81
487.936	3.9
488.288	3.96
488.641	3.89
488.993	3.85
489.345	3.81
489.698	3.81
490.05	3.76
490.402	3.76
490.754	3.83
491.107	3.88
491.459	3.9
491.811	4
492.163	4.01
492.515	3.98
492.866	4.03
493.218	3.92
493.57	3.87
493.922	3.77
494.274	3.88
494.625	3.83
494.977	3.99
495.328	4.07
495.68	4.1
496.031	4.01
496.383	4.09
496.734	3.97
497.086	4.25
497.437	4.16
497.788	3.98
498.139	4.09
498.49	4.02
498.842	4.07
499.193	4
499.544	4.09
499.894	3.97
500.245	4.02
500.596	4.11
500.947	4.15
501.298	4.16
501.648	4.17
501.999	4.21
502.35	4.05
502.7	4.16
503.051	4.28
503.401	4.24
503.752	4.14
504.102	4.15
504.452	4.15
504.803	4.2
505.153	4.16
505.503	4.1
505.853	4.07
506.203	4.05
506.553	4.09
506.903	4.23
507.253	4.28
507.603	4.2
507.953	4.27
508.303	4.35
508.652	4.23
509.002	4.24
509.352	4.1
509.701	4.08
510.051	4.27
510.4	4.24
510.75	4.16
511.099	4.23
511.449	4.19
511.798	4.29
512.147	4.31
512.496	4.19
512.846	4.19
513.195	4.25
513.544	4.31
513.893	4.23
514.242	4.22
514.591	4.29
514.939	4.23
515.288	4.22
515.637	4.31
515.986	4.21
516.334	4.34
516.683	4.26
517.032	4.36
517.38	4.36
517.729	4.3
518.077	4.44
518.426	4.29
518.774	4.29
519.122	4.46
519.47	4.34
519.819	4.27
520.167	4.18
520.515	4.28
520.863	4.22
521.211	4.23
521.559	4.25
521.907	4.26
522.255	4.22
522.602	4.26
522.95	4.43
523.298	4.42
523.645	4.46
523.993	4.3
524.341	4.45
524.688	4.6
525.036	4.47
525.383	4.51
525.73	4.4
526.078	4.57
526.425	4.53
526.772	4.47
527.119	4.48
527.466	4.35
527.814	4.32
528.161	4.34
528.508	4.36
528.854	4.37
529.201	4.39
529.548	4.36
529.895	4.4
530.242	4.27
530.588	4.22
530.935	4.19
531.282	4.24
531.628	4.26
531.975	4.38
532.321	4.38
532.667	4.33
533.014	4.48
533.36	4.51
533.706	4.51
534.052	4.5
534.399	4.48
534.745	4.6
535.091	4.47
535.437	4.45
535.783	4.45
536.129	4.44
536.474	4.43
536.82	4.58
537.166	4.6
537.512	4.74
537.857	4.73
538.203	4.56
538.549	4.65
538.894	4.55
539.239	4.53
539.585	4.6
539.93	4.65
540.276	4.62
540.621	4.72
540.966	4.75
541.311	4.85
541.656	4.76
542.001	4.76
542.346	4.82
542.691	4.68
543.036	4.66
543.381	4.58
543.726	4.56
544.071	4.6
544.415	4.62
544.76	4.74
545.105	4.7
545.449	4.73
545.794	4.79
546.138	4.84
546.483	4.8
546.827	4.81
547.171	4.89
547.516	4.92
547.86	4.95
548.204	5.04
548.548	4.93
548.892	4.82
549.236	4.9
549.58	4.81
549.924	4.92
550.268	5.07
550.612	5.09
550.956	5.22
551.3	5.24
551.643	5.27
551.987	5.05
552.33	5.28
552.674	5.05
553.017	5.11
553.361	5.13
553.704	5.13
554.048	5.16
554.391	5.12
554.734	5.28
555.077	5.24
555.42	5.24
555.764	5.31
556.107	5.11
556.45	5.36
556.793	5.26
557.135	5.28
557.478	5.38
557.821	5.4
558.164	5.57
558.507	5.31
558.849	5.4
559.192	5.38
559.534	5.33
559.877	5.34
560.219	5.52
560.562	5.48
560.904	5.55
561.246	5.46
561.589	5.57
561.931	5.48
562.273	5.44
562.615	5.36
562.957	5.6
563.299	5.56
563.641	5.5
563.983	5.58
564.325	5.64
564.667	5.58
565.008	5.47
565.35	5.7
565.692	5.87
566.033	5.58
566.375	5.63
566.716	5.62
567.058	5.64
567.399	5.55
567.741	5.77
568.082	5.51
568.423	5.62
568.764	5.64
569.105	5.78
569.447	5.75
569.788	5.69
570.129	5.84
570.47	5.77
570.811	5.99
571.151	5.75
571.492	5.86
571.833	5.9
572.174	6.05
572.514	6.03
572.855	5.75
573.195	6.14
573.536	6.23
573.876	5.9
574.217	5.97
574.557	5.97
574.898	6.1
575.238	5.99
575.578	5.92
575.918	5.98
576.258	6.17
576.598	6.16
576.938	6.12
577.278	6.16
577.618	6.11
577.958	6.12
578.298	6.35
578.638	6.29
578.977	6.31
579.317	6.25
579.657	6.27
579.996	6.47
580.336	6.4
580.675	6.5
581.014	6.54
581.354	6.5
581.693	6.58
582.032	6.47
582.372	6.55
582.711	6.96
583.05	6.38
583.389	6.5
583.728	6.41
584.067	6.8
584.406	6.54
584.745	6.59
585.083	6.61
585.422	6.51
585.761	6.79
586.1	6.68
586.438	6.56
586.777	6.69
587.115	6.92
587.454	6.81
587.792	7.04
588.13	6.91
588.469	6.9
588.807	6.93
589.145	6.96
589.483	6.95
589.821	6.97
590.159	7.14
590.497	6.97
590.835	7.16
591.173	7.12
591.511	6.87
591.849	7
592.187	7.14
592.524	7.12
592.862	7.03
593.2	6.93
593.537	7.02
593.875	7.27
594.212	7.21
594.55	7.35
594.887	7.11
595.224	7.38
595.561	7.23
595.899	7.13
596.236	7.54
596.573	7.39
596.91	7.34
597.247	7.48
597.584	7.41
597.921	7.42
598.258	7.31
598.594	7.4
598.931	7.29
599.268	7.32
599.604	7.65
599.941	7.68
600.277	7.2
600.614	7.68
600.95	7.76
601.287	7.5
601.623	7.83
601.959	7.8
602.296	7.77
602.632	7.69
602.968	7.79
603.304	7.69
603.64	7.67
603.976	7.67
604.312	7.87
604.648	7.76
604.984	7.81
605.319	7.97
605.655	7.96
605.991	7.89
606.326	7.86
606.662	7.78
606.998	7.86
607.333	7.77
607.668	7.95
608.004	7.92
608.339	7.97
608.674	8.04
609.01	8.09
609.345	8.17
609.68	8.15
610.015	8.54
610.35	8.27
610.685	8.29
611.02	8.23
611.355	8.56
611.689	7.88
612.024	8.41
612.359	8.35
612.694	8.61
613.028	8.53
613.363	8.22
613.697	8.41
614.032	8.4
614.366	8.22
614.7	8.53
615.035	8.67
615.369	8.56
615.703	8.26
616.037	8.32
616.371	8.64
616.705	8.66
617.039	8.43
617.373	8.72
617.707	8.58
618.041	8.93
618.375	8.54
618.709	9.06
619.042	8.91
619.376	8.93
619.71	8.62
620.043	8.98
620.377	9.3
620.71	8.83
621.043	9.09
621.377	9.26
621.71	8.94
622.043	8.87
622.376	9.21
622.709	9.28
623.043	9.43
623.376	9.28
623.709	9.5
624.041	9.72
624.374	9.39
624.707	9.2
625.04	9.21
625.373	9.64
625.705	9.47
626.038	9.22
626.37	9.49
626.703	9.77
627.035	9.76
627.368	9.71
627.7	9.57
628.032	9.54
628.365	9.45
628.697	9.72
629.029	9.76
629.361	9.65
629.693	9.73
630.025	9.44
630.357	9.72
630.689	9.82
631.021	9.81
631.353	10.06
631.684	10.2
632.016	9.82
632.348	9.87
632.679	10.07
633.011	9.76
633.342	9.81
633.674	10.17
634.005	10.07
634.336	10.29
634.668	10.09
634.999	10.6
635.33	10.32
635.661	10.45
635.992	9.99
636.323	10.39
636.654	10.04
636.985	10.32
637.316	10.44
637.647	10.47
637.977	10.24
638.308	10.49
638.639	10.14
638.969	10.5
639.3	10.64
639.63	10.26
639.961	10.38
640.291	10.71
640.622	10.63
640.952	10.33
641.282	10.51
641.612	10.53
641.943	10.81
642.273	11.06
642.603	10.19
642.933	10.62
643.263	11.23
643.592	10.47
643.922	10.98
644.252	10.44
644.582	11.05
644.911	11.01
645.241	11.27
645.571	10.98
645.9	11.06
646.23	10.97
646.559	11.13
646.888	11.57
647.218	10.85
647.547	10.89
647.876	11.27
648.205	11.2
648.534	11.12
648.863	11.04
649.192	11.58
649.521	11.82
649.85	11.42
650.179	11.29
650.508	11.45
650.837	11.27
651.165	12.18
651.494	11.39
651.822	11.51
652.151	11.16
652.479	12.1
652.808	11.55
653.136	11.58
653.465	11.94
653.793	12.12
654.121	12.33
654.449	11.97
654.777	11.87
655.105	11.68
655.433	11.82
655.761	11.78
656.089	12.13
656.417	11.38
656.745	11.76
657.073	11.93
657.4	12.23
657.728	12.28
658.056	12.31
658.383	12.18
658.711	12.45
659.038	12.36
659.365	12.39
659.693	11.87
660.02	12.06
660.347	12.74
660.674	12.27
661.001	12.75
661.329	12.22
661.656	12.14
661.982	12.16
662.309	12.46
662.636	12.54
662.963	12.86
663.29	12.79
663.616	12.49
663.943	12.77
664.27	12.8
664.596	12.62
664.923	13.23
665.249	12.46
665.576	12.08
665.902	12.54
666.228	12.77
666.554	12.86
666.881	12.68
667.207	13.35
667.533	12.88
667.859	12.53
668.185	12.64
668.511	13.38
668.837	13.32
669.162	13.71
669.488	12.85
669.814	12.96
670.139	13.13
670.465	13.67
670.791	13.76
671.116	13.14
671.442	12.86
671.767	12.92
672.092	13.95
672.418	13.29
672.743	13.91
673.068	13.22
673.393	12.6
673.718	12.99
674.043	13.26
674.368	14
674.693	13.98
675.018	14.09
675.343	13.38
675.667	13.5
675.992	13.81
676.317	13.35
676.641	13.75
676.966	13.61
677.29	13.66
677.615	14.49
677.939	14.13
678.264	13.53
678.588	13.95
678.912	14.73
679.236	13.42
679.56	13.85
679.885	14.45
680.209	13.74
680.532	14.52
680.856	14.02
681.18	14.49
681.504	13.88
681.828	14.2
682.152	14.67
682.475	14.34
682.799	14.15
683.122	14.26
683.446	14.17
683.769	15.08
684.093	14.95
684.416	14.64
684.739	14.29
685.062	14.72
685.386	14.52
685.709	15.29
686.032	14.46
686.355	14.83
686.678	14.16
687.001	14.28
687.324	14.47
687.646	15.01
687.969	15
688.292	15.27
