Data from 0185_crown_Reflection__7__012.txt Node

Date: Mon Aug 28 18:42:28 CDT 2023
User: ToomeyLab
Spectrometer: FLMS14357
Trigger mode: 0
Integration Time (sec): 1.000000E-2
Scans to average: 100
Electric dark correction enabled: true
Nonlinearity correction enabled: false
Boxcar width: 0
XAxis mode: Wavelengths
Number of Pixels in Spectrum: 2048
>>>>>Begin Spectral Data<<<<<
189.047	-51.3
189.435	-51.3
189.823	-51.3
190.211	-8027.91
190.599	24
190.987	268.56
191.375	142.04
191.763	114
192.151	9.15
192.538	232.02
192.926	198.41
193.314	322.35
193.702	148.05
194.089	103.43
194.477	1764.71
194.864	171.83
195.252	116.76
195.639	-1042.74
196.027	100.98
196.414	39.73
196.801	73.82
197.189	109.3
197.576	-172.02
197.963	99.31
198.351	21.58
198.738	24.1
199.125	-13.77
199.512	65.38
199.899	-11.09
200.286	31.62
200.673	17.42
201.06	17.68
201.447	-54.82
201.833	-32.77
202.22	7.39
202.607	31.41
202.994	8.58
203.38	-32.11
203.767	2.5
204.154	8.07
204.54	-5.39
204.927	-43.33
205.313	4.36
205.699	-3.01
206.086	47.26
206.472	9.13
206.858	-24.8
207.245	3.66
207.631	29.37
208.017	29.69
208.403	31.25
208.789	4.36
209.175	-23.19
209.561	-25.91
209.947	16.38
210.333	29.46
210.719	28.25
211.105	29.6
211.491	-1.64
211.876	33.7
212.262	-39.85
212.648	27.8
213.034	-16.83
213.419	16.51
213.805	-3.78
214.19	-12.48
214.576	1.32
214.961	22.19
215.346	-9.25
215.732	42.57
216.117	-5.94
216.502	2.46
216.888	-61.4
217.273	8.54
217.658	1.25
218.043	-1.25
218.428	-4.45
218.813	7.93
219.198	-40.88
219.583	-6.4
219.968	1.08
220.353	-10.08
220.738	4.07
221.122	8.56
221.507	18.2
221.892	7.83
222.276	17.16
222.661	-2.33
223.046	-3.71
223.43	0.41
223.815	9.49
224.199	11.89
224.583	-4.99
224.968	0.27
225.352	8.26
225.736	4.56
226.121	-8.81
226.505	10.13
226.889	5.02
227.273	5.76
227.657	6
228.041	7.69
228.425	4.83
228.809	6.63
229.193	6.72
229.577	5.1
229.961	2.2
230.344	4.58
230.728	4.59
231.112	4.1
231.495	5.4
231.879	4.56
232.263	5.66
232.646	3.68
233.03	5.2
233.413	7.52
233.797	4.33
234.18	3.55
234.563	5.14
234.946	6.77
235.33	2.99
235.713	1.43
236.096	5.05
236.479	4.23
236.862	6.38
237.245	3.95
237.628	4.86
238.011	6.6
238.394	4.41
238.777	5.28
239.16	3.5
239.543	2
239.925	6
240.308	3.72
240.691	5.04
241.073	3.25
241.456	4.41
241.838	2.99
242.221	5.27
242.603	5.62
242.986	5.17
243.368	4.17
243.75	4.18
244.133	4.26
244.515	3.85
244.897	4.93
245.279	4.85
245.661	4.68
246.043	4.83
246.425	2.79
246.807	4.98
247.189	4.16
247.571	3.5
247.953	3.91
248.335	4.27
248.717	4.17
249.098	3.98
249.48	4.19
249.862	4.07
250.243	4.2
250.625	4.41
251.006	4.43
251.388	4.42
251.769	4.96
252.151	3.55
252.532	2.99
252.913	4.55
253.295	3.33
253.676	3.59
254.057	4.12
254.438	3.48
254.819	3.82
255.2	3.85
255.581	4.03
255.962	4.43
256.343	5.55
256.724	3.39
257.105	4.35
257.486	3.51
257.867	4.33
258.247	4.01
258.628	4.86
259.009	2.94
259.389	3.49
259.77	4.11
260.15	4.46
260.531	3.39
260.911	4.28
261.292	4.04
261.672	4.01
262.052	3.69
262.432	3.75
262.813	3.94
263.193	3.58
263.573	4.1
263.953	3.19
264.333	3.3
264.713	3.55
265.093	4.31
265.473	3.97
265.853	4.09
266.233	3.83
266.612	4.9
266.992	4.51
267.372	4.08
267.752	4.36
268.131	4.19
268.511	3.62
268.89	4.32
269.27	3.29
269.649	3.6
270.029	4.63
270.408	4.08
270.787	3.97
271.167	4.01
271.546	3.89
271.925	3.7
272.304	3.67
272.683	4.17
273.062	3.68
273.441	3.84
273.82	3.5
274.199	3.22
274.578	3.48
274.957	3.74
275.336	4.07
275.715	3.89
276.093	3.33
276.472	3.63
276.851	3.77
277.229	4.06
277.608	4.07
277.986	4.13
278.365	3.88
278.743	3.56
279.122	3.48
279.5	3.36
279.878	3.06
280.257	3.3
280.635	3.3
281.013	3.91
281.391	3.76
281.769	3.28
282.147	4.21
282.525	3.73
282.903	3.61
283.281	3.68
283.659	4.03
284.037	3.89
284.415	3.14
284.792	3.68
285.17	3.15
285.548	3.25
285.925	3.79
286.303	3.64
286.68	3.67
287.058	3.92
287.435	3.44
287.813	3.48
288.19	3.76
288.567	3.68
288.945	3.41
289.322	3.81
289.699	3.69
290.076	4.19
290.453	3.96
290.83	3.08
291.207	3.75
291.584	3.84
291.961	3.83
292.338	3.72
292.715	3.3
293.092	3.59
293.469	3.58
293.845	3.37
294.222	3.45
294.599	3.08
294.975	3.65
295.352	3.57
295.728	3.62
296.105	3.67
296.481	3.88
296.858	4.03
297.234	3.89
297.61	3.73
297.986	3.62
298.363	3.88
298.739	3.46
299.115	3.62
299.491	3.95
299.867	3.58
300.243	3.81
300.619	3.54
300.995	4.31
301.371	3.48
301.746	3.89
302.122	3.61
302.498	3.61
302.874	3.5
303.249	3.6
303.625	3.82
304	3.74
304.376	3.6
304.751	3.53
305.127	3.79
305.502	3.5
305.878	3.28
306.253	3.24
306.628	3.65
307.003	4.28
307.378	4.09
307.754	4.08
308.129	3.51
308.504	4.11
308.879	3.74
309.254	3.68
309.629	3.79
310.003	3.43
310.378	3.7
310.753	4.44
311.128	3.96
311.502	3.97
311.877	4.06
312.252	4
312.626	3.93
313.001	3.89
313.375	3.9
313.75	3.9
314.124	3.58
314.498	4.1
314.873	3.97
315.247	3.87
315.621	3.68
315.995	4.13
316.369	3.98
316.743	3.22
317.117	3.88
317.491	3.71
317.865	3.32
318.239	3.63
318.613	3.78
318.987	3.54
319.361	3.88
319.734	3.43
320.108	4.52
320.482	3.73
320.855	3.57
321.229	3.98
321.602	3.54
321.976	3.57
322.349	4.21
322.723	3.89
323.096	3.95
323.469	3.95
323.843	3.31
324.216	3.82
324.589	3.61
324.962	3.91
325.335	4.56
325.708	3.89
326.081	3.89
326.454	3.8
326.827	3.54
327.2	3.59
327.573	3.92
327.945	4.48
328.318	4.48
328.691	3.14
329.063	3.31
329.436	3.61
329.809	4.23
330.181	3.84
330.553	3.92
330.926	4.33
331.298	3.85
331.671	3.67
332.043	3.98
332.415	4.55
332.787	3.49
333.159	4.1
333.532	4.21
333.904	3.91
334.276	3.49
334.648	3.85
335.02	4.17
335.391	3.59
335.763	3.93
336.135	3.64
336.507	3.78
336.879	3.78
337.25	3.95
337.622	3.8
337.993	4.23
338.365	3.84
338.736	3.45
339.108	4.08
339.479	3.2
339.851	3.84
340.222	4.17
340.593	3.8
340.964	4.18
341.336	3.56
341.707	3.66
342.078	3.43
342.449	3.78
342.82	4.09
343.191	3.97
343.562	3.59
343.933	3.7
344.303	3.78
344.674	4.17
345.045	3.54
345.416	3.95
345.786	4.16
346.157	4.03
346.527	3.29
346.898	3.96
347.268	3.66
347.639	3.53
348.009	3.41
348.38	3.99
348.75	4.11
349.12	3.96
349.49	3.77
349.861	3.71
350.231	3.42
350.601	4
350.971	4.03
351.341	3.7
351.711	3.85
352.081	3.81
352.45	3.93
352.82	3.79
353.19	4.26
353.56	3.86
353.929	3.71
354.299	3.66
354.669	4.04
355.038	3.7
355.408	4.04
355.777	3.8
356.147	3.73
356.516	4.01
356.885	3.85
357.254	3.82
357.624	3.74
357.993	3.85
358.362	3.79
358.731	3.86
359.1	3.75
359.469	3.9
359.838	3.77
360.207	4.12
360.576	3.89
360.945	3.82
361.314	3.71
361.682	3.46
362.051	4.1
362.42	3.75
362.788	3.69
363.157	3.67
363.525	3.73
363.894	3.76
364.262	3.93
364.631	3.76
364.999	4.02
365.367	4.16
365.735	3.89
366.104	3.71
366.472	3.72
366.84	3.7
367.208	3.74
367.576	3.9
367.944	3.78
368.312	3.96
368.68	3.62
369.048	4.07
369.416	3.82
369.783	3.83
370.151	3.91
370.519	3.74
370.886	3.91
371.254	3.69
371.621	3.76
371.989	3.78
372.356	3.8
372.724	4.27
373.091	4.1
373.458	3.79
373.826	4.08
374.193	3.85
374.56	3.84
374.927	3.5
375.294	4.08
375.661	4
376.028	3.53
376.395	3.63
376.762	4.32
377.129	3.75
377.496	3.65
377.863	3.92
378.229	3.59
378.596	4.02
378.963	4.09
379.329	4
379.696	3.58
380.062	3.89
380.429	3.52
380.795	3.81
381.161	4.05
381.528	4.11
381.894	3.91
382.26	3.94
382.626	4.18
382.993	3.93
383.359	3.92
383.725	4.08
384.091	3.96
384.457	3.9
384.823	3.61
385.188	4.02
385.554	3.94
385.92	3.65
386.286	3.86
386.651	4.11
387.017	4.06
387.383	3.72
387.748	3.9
388.114	3.71
388.479	3.64
388.845	4.07
389.21	3.59
389.575	4.15
389.94	3.97
390.306	3.97
390.671	3.75
391.036	3.96
391.401	4.03
391.766	4.12
392.131	3.95
392.496	3.48
392.861	3.85
393.226	3.95
393.591	3.74
393.956	3.77
394.32	3.94
394.685	3.82
395.05	4.23
395.414	3.99
395.779	3.96
396.143	3.78
396.508	3.76
396.872	4.11
397.236	3.84
397.601	3.92
397.965	3.73
398.329	4.16
398.694	3.86
399.058	3.76
399.422	4.25
399.786	4.23
400.15	3.84
400.514	4.05
400.878	3.87
401.242	3.85
401.605	3.99
401.969	3.96
402.333	4.02
402.697	3.84
403.06	4.15
403.424	3.65
403.787	3.58
404.151	3.79
404.514	4.04
404.878	3.66
405.241	3.96
405.604	4.09
405.968	3.78
406.331	4.09
406.694	4.06
407.057	4.16
407.42	3.91
407.783	3.9
408.146	4.04
408.509	4.22
408.872	3.85
409.235	3.95
409.598	3.85
409.961	3.9
410.323	4.28
410.686	3.94
411.049	4.2
411.411	3.88
411.774	4.01
412.136	3.99
412.499	3.86
412.861	3.92
413.223	3.76
413.586	3.8
413.948	4.06
414.31	3.94
414.672	3.68
415.035	4.2
415.397	3.74
415.759	3.99
416.121	4
416.483	3.95
416.845	4.12
417.206	4.05
417.568	4.04
417.93	3.98
418.292	4.07
418.653	3.82
419.015	3.9
419.377	3.81
419.738	4.15
420.1	3.94
420.461	3.97
420.822	3.92
421.184	3.98
421.545	3.91
421.906	4.02
422.267	3.93
422.629	3.96
422.99	3.86
423.351	3.92
423.712	3.84
424.073	3.76
424.434	3.97
424.795	3.91
425.155	3.95
425.516	3.95
425.877	3.8
426.238	3.83
426.598	3.91
426.959	3.95
427.32	3.81
427.68	3.95
428.041	3.84
428.401	4.06
428.761	3.82
429.122	3.91
429.482	3.9
429.842	4.21
430.202	4.01
430.563	3.97
430.923	4.03
431.283	3.84
431.643	3.91
432.003	3.91
432.363	4.04
432.722	4.02
433.082	3.8
433.442	4
433.802	4.02
434.161	4.03
434.521	4.11
434.881	3.89
435.24	3.99
435.6	4.03
435.959	4
436.319	3.91
436.678	3.86
437.037	3.91
437.396	4.17
437.756	3.9
438.115	4.2
438.474	4.14
438.833	3.97
439.192	4.16
439.551	3.88
439.91	4.11
440.269	3.93
440.628	3.98
440.987	4.01
441.345	3.92
441.704	4.03
442.063	4
442.421	4
442.78	4.05
443.138	3.93
443.497	3.94
443.855	4.05
444.214	4.03
444.572	4.06
444.93	4.18
445.288	4.08
445.647	4.07
446.005	4.17
446.363	4.1
446.721	4.06
447.079	4.08
447.437	3.93
447.795	3.9
448.153	4.04
448.51	4.03
448.868	4
449.226	3.99
449.584	3.95
449.941	3.92
450.299	4.07
450.656	3.97
451.014	4.07
451.371	3.92
451.729	3.85
452.086	4.03
452.443	4.28
452.801	4.29
453.158	4.27
453.515	4.04
453.872	4.01
454.229	4.03
454.586	4.11
454.943	4.05
455.3	4.11
455.657	3.96
456.014	4.2
456.371	4.1
456.727	4.1
457.084	4.09
457.441	4.22
457.797	4.03
458.154	4.03
458.51	4.28
458.867	4.02
459.223	4.05
459.58	4.05
459.936	4.15
460.292	4.25
460.648	4.04
461.005	3.96
461.361	4.05
461.717	4.01
462.073	4
462.429	3.98
462.785	4.02
463.141	4.07
463.496	4.13
463.852	4.08
464.208	4.13
464.564	4.11
464.919	4.23
465.275	4.26
465.631	4.1
465.986	4.2
466.342	4.16
466.697	4.14
467.052	4.06
467.408	4.18
467.763	4.07
468.118	4.14
468.473	4.12
468.829	4.09
469.184	4.01
469.539	4.16
469.894	4.02
470.249	4.07
470.603	4.03
470.958	4.03
471.313	4.21
471.668	4
472.023	4.19
472.377	4.11
472.732	4.18
473.086	4.27
473.441	4.07
473.795	4.2
474.15	4.34
474.504	4.22
474.859	4.21
475.213	4.15
475.567	4.12
475.921	4.28
476.275	4.21
476.63	4.26
476.984	4.5
477.338	4.37
477.692	4.11
478.045	4.34
478.399	4.21
478.753	4.03
479.107	4.11
479.461	4.31
479.814	4.47
480.168	4.28
480.521	4.24
480.875	4.34
481.228	4.15
481.582	4.23
481.935	4.23
482.289	4.2
482.642	4.33
482.995	4.33
483.348	4.24
483.701	4.23
484.055	4.12
484.408	4.15
484.761	4.15
485.114	4.1
485.466	4.03
485.819	3.93
486.172	3.87
486.525	3.93
486.878	4.01
487.23	4.07
487.583	4.13
487.936	4.11
488.288	4.16
488.641	4.14
488.993	4.15
489.345	4.09
489.698	4.06
490.05	4.03
490.402	3.98
490.754	4.09
491.107	4.14
491.459	4.16
491.811	4.24
492.163	4.18
492.515	4.31
492.866	4.27
493.218	4.17
493.57	4.17
493.922	4.02
494.274	4.12
494.625	4.13
494.977	4.19
495.328	4.21
495.68	4.42
496.031	4.26
496.383	4.32
496.734	4.33
497.086	4.4
497.437	4.4
497.788	4.33
498.139	4.39
498.49	4.24
498.842	4.37
499.193	4.24
499.544	4.34
499.894	4.4
500.245	4.33
500.596	4.33
500.947	4.36
501.298	4.38
501.648	4.36
501.999	4.28
502.35	4.39
502.7	4.4
503.051	4.41
503.401	4.43
503.752	4.37
504.102	4.55
504.452	4.36
504.803	4.48
505.153	4.43
505.503	4.4
505.853	4.33
506.203	4.52
506.553	4.41
506.903	4.48
507.253	4.5
507.603	4.4
507.953	4.42
508.303	4.51
508.652	4.48
509.002	4.64
509.352	4.43
509.701	4.35
510.051	4.39
510.4	4.42
510.75	4.44
511.099	4.49
511.449	4.5
511.798	4.45
512.147	4.45
512.496	4.48
512.846	4.38
513.195	4.57
513.544	4.51
513.893	4.43
514.242	4.54
514.591	4.51
514.939	4.38
515.288	4.51
515.637	4.56
515.986	4.51
516.334	4.58
516.683	4.63
517.032	4.58
517.38	4.63
517.729	4.59
518.077	4.65
518.426	4.57
518.774	4.72
519.122	4.66
519.47	4.6
519.819	4.52
520.167	4.53
520.515	4.58
520.863	4.44
521.211	4.45
521.559	4.59
521.907	4.63
522.255	4.5
522.602	4.63
522.95	4.6
523.298	4.69
523.645	4.64
523.993	4.6
524.341	4.72
524.688	4.73
525.036	4.72
525.383	4.83
525.73	4.76
526.078	4.75
526.425	4.72
526.772	4.68
527.119	4.65
527.466	4.6
527.814	4.54
528.161	4.57
528.508	4.58
528.854	4.66
529.201	4.65
529.548	4.63
529.895	4.65
530.242	4.59
530.588	4.47
530.935	4.44
531.282	4.45
531.628	4.46
531.975	4.56
532.321	4.56
532.667	4.65
533.014	4.74
533.36	4.75
533.706	4.77
534.052	4.74
534.399	4.8
534.745	4.79
535.091	4.68
535.437	4.72
535.783	4.72
536.129	4.77
536.474	4.71
536.82	4.76
537.166	4.78
537.512	4.87
537.857	4.89
538.203	4.81
538.549	4.8
538.894	4.78
539.239	4.7
539.585	4.9
539.93	4.91
540.276	4.98
540.621	5.06
540.966	5.03
541.311	5.06
541.656	5.05
542.001	5.01
542.346	5.07
542.691	4.95
543.036	4.9
543.381	4.79
543.726	4.75
544.071	4.8
544.415	4.87
544.76	4.89
545.105	4.96
545.449	4.9
545.794	5.03
546.138	5.02
546.483	4.98
546.827	5.04
547.171	5.03
547.516	5.12
547.86	5.11
548.204	5.11
548.548	4.99
548.892	5.01
549.236	5.08
549.58	5.11
549.924	5.22
550.268	5.17
550.612	5.19
550.956	5.25
551.3	5.32
551.643	5.38
551.987	5.16
552.33	5.38
552.674	5.34
553.017	5.37
553.361	5.58
553.704	5.27
554.048	5.48
554.391	5.34
554.734	5.56
555.077	5.39
555.42	5.42
555.764	5.42
556.107	5.33
556.45	5.52
556.793	5.46
557.135	5.5
557.478	5.52
557.821	5.51
558.164	5.64
558.507	5.46
558.849	5.68
559.192	5.56
559.534	5.54
559.877	5.61
560.219	5.77
560.562	5.65
560.904	5.73
561.246	5.64
561.589	5.65
561.931	5.55
562.273	5.61
562.615	5.74
562.957	5.63
563.299	5.97
563.641	5.55
563.983	5.66
564.325	5.7
564.667	5.62
565.008	5.7
565.35	5.86
565.692	6.04
566.033	5.86
566.375	5.6
566.716	5.85
567.058	5.9
567.399	5.72
567.741	6.03
568.082	5.73
568.423	5.87
568.764	5.68
569.105	5.9
569.447	5.93
569.788	5.94
570.129	5.83
570.47	5.94
570.811	6.05
571.151	5.98
571.492	6.03
571.833	5.93
572.174	6.11
572.514	6.11
572.855	5.92
573.195	6.09
573.536	6.15
573.876	6.06
574.217	6.16
574.557	6.17
574.898	6.22
575.238	6.13
575.578	6.16
575.918	6.17
576.258	6.21
576.598	6.2
576.938	6.09
577.278	6.25
577.618	6.2
577.958	6.25
578.298	6.43
578.638	6.32
578.977	6.45
579.317	6.29
579.657	6.4
579.996	6.46
580.336	6.41
580.675	6.59
581.014	6.5
581.354	6.66
581.693	6.56
582.032	6.66
582.372	6.6
582.711	6.63
583.05	6.55
583.389	6.57
583.728	6.76
584.067	6.68
584.406	6.72
584.745	6.58
585.083	6.63
585.422	6.67
585.761	6.87
586.1	6.93
586.438	6.66
586.777	6.89
587.115	6.76
587.454	7.04
587.792	6.83
588.13	6.9
588.469	6.71
588.807	6.51
589.145	6.96
589.483	6.92
589.821	6.89
590.159	7.09
590.497	7.13
590.835	7.07
591.173	7.01
591.511	7.07
591.849	6.97
592.187	7.09
592.524	7.15
592.862	7.29
593.2	7.05
593.537	7.13
593.875	7.46
594.212	7.35
594.55	7.4
594.887	7.33
595.224	7.28
595.561	7.01
595.899	7.42
596.236	7.54
596.573	7.59
596.91	7.34
597.247	7.56
597.584	7.42
597.921	7.34
598.258	7.31
598.594	7.27
598.931	7.22
599.268	7.52
599.604	7.4
599.941	7.4
600.277	7.41
600.614	7.79
600.95	7.7
601.287	7.69
601.623	7.79
601.959	7.79
602.296	7.8
602.632	7.75
602.968	7.63
603.304	7.91
603.64	7.73
603.976	7.79
604.312	7.79
604.648	7.84
604.984	7.7
605.319	7.87
605.655	7.78
605.991	7.97
606.326	7.96
606.662	7.79
606.998	7.92
607.333	7.86
607.668	7.98
608.004	7.81
608.339	8.04
608.674	8.08
609.01	8.33
609.345	8.32
609.68	7.92
610.015	8.39
610.35	8.31
610.685	8.22
611.02	8.28
611.355	8.42
611.689	8.13
612.024	8.24
612.359	8.32
612.694	8.25
613.028	8.21
613.363	8.33
613.697	8.34
614.032	8.3
614.366	8.19
614.7	8.58
615.035	8.76
615.369	8.62
615.703	8.89
616.037	8.54
616.371	8.52
616.705	8.53
617.039	8.51
617.373	8.6
617.707	8.78
618.041	8.64
618.375	8.75
618.709	9.06
619.042	8.9
619.376	8.94
619.71	8.93
620.043	9.08
620.377	8.96
620.71	8.73
621.043	9
621.377	9.34
621.71	9
622.043	8.5
622.376	9.04
622.709	9.1
623.043	9.29
623.376	9.34
623.709	9.4
624.041	9.61
624.374	9.08
624.707	9.25
625.04	9.2
625.373	9.3
625.705	9.52
626.038	9.54
626.37	9.54
626.703	9.23
627.035	9.65
627.368	9.6
627.7	9.62
628.032	9.44
628.365	9.37
628.697	9.48
629.029	9.62
629.361	9.6
629.693	9.62
630.025	9.61
630.357	9.63
630.689	9.46
631.021	9.99
631.353	9.86
631.684	10.28
632.016	9.83
632.348	9.42
632.679	9.82
633.011	9.52
633.342	9.73
633.674	9.88
634.005	9.81
634.336	9.75
634.668	10.15
634.999	10.08
635.33	10.19
635.661	10.34
635.992	10.02
636.323	10.41
636.654	10.3
636.985	9.96
637.316	10.25
637.647	10.13
637.977	10.41
638.308	10.32
638.639	10.31
638.969	10.5
639.3	10.23
639.63	10.3
639.961	10.59
640.291	10.7
640.622	10.6
640.952	10.28
641.282	10.85
641.612	10.66
641.943	10.77
642.273	10.97
642.603	10.36
642.933	10.53
643.263	11.57
643.592	10.75
643.922	10.75
644.252	10.56
644.582	10.77
644.911	10.95
645.241	11.19
645.571	10.92
645.9	10.81
646.23	10.61
646.559	11.08
646.888	11.21
647.218	10.91
647.547	11.18
647.876	11.15
648.205	11.02
648.534	11.44
648.863	10.78
649.192	11.29
649.521	11.25
649.85	11.47
650.179	11.75
650.508	11.65
650.837	11.33
651.165	11.47
651.494	11.55
651.822	11.28
652.151	11.34
652.479	12.13
652.808	11.44
653.136	11.84
653.465	11.72
653.793	11.61
654.121	11.81
654.449	11.66
654.777	11.48
655.105	11.42
655.433	11.58
655.761	11.27
656.089	12.03
656.417	11.74
656.745	11.82
657.073	11.79
657.4	12.15
657.728	12.03
658.056	12.05
658.383	11.7
658.711	11.92
659.038	12.41
659.365	12.16
659.693	12.1
660.02	12.34
660.347	12.43
660.674	12.37
661.001	12.47
661.329	12.34
661.656	12.39
661.982	12.28
662.309	12.49
662.636	12.37
662.963	12.67
663.29	12.6
663.616	12.26
663.943	12.7
664.27	12.44
664.596	12.4
664.923	12.66
665.249	12.75
665.576	12.74
665.902	12.54
666.228	12.75
666.554	12.64
666.881	12.66
667.207	12.52
667.533	12.83
667.859	12.17
668.185	12.83
668.511	13.19
668.837	12.66
669.162	13.47
669.488	12.85
669.814	13.76
670.139	13.38
670.465	12.99
670.791	13.43
671.116	12.93
671.442	12.79
671.767	12.78
672.092	13.37
672.418	13.21
672.743	13.52
673.068	12.78
673.393	13.32
673.718	13.38
674.043	13.47
674.368	13.59
674.693	14.18
675.018	13.93
675.343	13.87
675.667	14.38
675.992	13.97
676.317	13.55
676.641	13.92
676.966	13.67
677.29	13.19
677.615	14.07
677.939	13.98
678.264	13.59
678.588	13.69
678.912	14.25
679.236	13.34
679.56	13.71
679.885	13.94
680.209	13.96
680.532	14.19
680.856	14.23
681.18	14.15
681.504	14.09
681.828	14.04
682.152	13.99
682.475	14.03
682.799	14.17
683.122	14.17
683.446	14.2
683.769	14.53
684.093	14.28
684.416	14.83
684.739	14.32
685.062	14.94
685.386	14.24
685.709	15.67
686.032	14.6
686.355	14.71
686.678	14.55
687.001	14.29
687.324	14.62
687.646	14.58
687.969	14.25
688.292	14.98
688.614	15.56
688.937	15.17
689.26	14.95
689.582	14.06
