Data from 21-1_chest_Reflection__5__155.txt Node

Date: Thu Dec 15 17:41:47 CST 2022
User: ToomeyLab
Spectrometer: FLMS14357
Trigger mode: 0
Integration Time (sec): 1.000000E-2
Scans to average: 100
Electric dark correction enabled: true
Nonlinearity correction enabled: false
Boxcar width: 0
XAxis mode: Wavelengths
Number of Pixels in Spectrum: 2048
>>>>>Begin Spectral Data<<<<<
189.047	81.76
189.435	81.76
189.823	81.76
190.211	83.45
190.599	12.74
190.987	48.82
191.375	169.6
191.763	451.69
192.151	505.63
192.538	2.39
192.926	87.46
193.314	86.24
193.702	506.18
194.089	-66.14
194.477	145.39
194.864	126.44
195.252	-49.32
195.639	138.04
196.027	-5503.45
196.414	-26.37
196.801	-247.62
197.189	81.01
197.576	92.4
197.963	716.58
198.351	-20.74
198.738	-88.14
199.125	-80.75
199.512	14.44
199.899	-32.88
200.286	-4.67
200.673	45.5
201.06	3.52
201.447	-17.19
201.833	4.88
202.22	44.36
202.607	-51.08
202.994	-33.44
203.38	-22.31
203.767	-19.73
204.154	-5.42
204.54	8.34
204.927	-0.26
205.313	46.87
205.699	23.36
206.086	6.15
206.472	23.56
206.858	-8.4
207.245	-23.5
207.631	-23.27
208.017	21.05
208.403	-61.38
208.789	23.42
209.175	-9.27
209.561	-0.72
209.947	-25.58
210.333	-15.26
210.719	12.17
211.105	22.3
211.491	11.34
211.876	-31.69
212.262	-16.3
212.648	1.14
213.034	-0.59
213.419	-13.14
213.805	-50.7
214.19	-28.64
214.576	15.55
214.961	16.23
215.346	15.58
215.732	-19.03
216.117	4.73
216.502	-12.72
216.888	-12.96
217.273	1.64
217.658	-19.48
218.043	-14.07
218.428	-21.72
218.813	12.8
219.198	-34.05
219.583	-27.15
219.968	-13.52
220.353	-11.54
220.738	2.7
221.122	-4.56
221.507	-7.2
221.892	-11.2
222.276	-34.79
222.661	-1.26
223.046	-10.83
223.43	14.98
223.815	0.39
224.199	-7.99
224.583	1.83
224.968	-6.38
225.352	-3.63
225.736	9.15
226.121	0.3
226.505	-4.15
226.889	-4.22
227.273	-2.47
227.657	3.69
228.041	0.22
228.425	-1.44
228.809	-0.72
229.193	0.64
229.577	0.77
229.961	1.92
230.344	2.31
230.728	3.01
231.112	2.75
231.495	0.98
231.879	2
232.263	3.22
232.646	1.19
233.03	2.26
233.413	0.82
233.797	0.13
234.18	3.65
234.563	1.93
234.946	-0.13
235.33	2.44
235.713	2.31
236.096	3.67
236.479	2.43
236.862	0.66
237.245	0.31
237.628	2.5
238.011	0.78
238.394	0.9
238.777	2.53
239.16	2.9
239.543	1.22
239.925	1.71
240.308	-0.22
240.691	1.79
241.073	1.16
241.456	2.88
241.838	2.43
242.221	2.77
242.603	2.39
242.986	2.42
243.368	2.45
243.75	2.1
244.133	2.49
244.515	2.38
244.897	1.73
245.279	1.96
245.661	2.55
246.043	2.31
246.425	3.27
246.807	2.34
247.189	2.11
247.571	2.9
247.953	2.23
248.335	2.19
248.717	2.6
249.098	2.33
249.48	2.49
249.862	2.59
250.243	2.53
250.625	2.75
251.006	3.03
251.388	2.28
251.769	2.06
252.151	2.67
252.532	1.67
252.913	2.08
253.295	2.64
253.676	2.41
254.057	2.55
254.438	2.2
254.819	2.17
255.2	2.1
255.581	3.18
255.962	2.7
256.343	2.12
256.724	2.26
257.105	2.55
257.486	1.06
257.867	2.62
258.247	2.51
258.628	2.52
259.009	2.26
259.389	2.16
259.77	2.32
260.15	3.05
260.531	2.34
260.911	2.31
261.292	2.45
261.672	2.39
262.052	2.41
262.432	2.32
262.813	2.49
263.193	2.27
263.573	2.06
263.953	2.36
264.333	2.62
264.713	2.28
265.093	2.09
265.473	1.06
265.853	1.87
266.233	2.27
266.612	2
266.992	1.7
267.372	2.4
267.752	2.46
268.131	2.27
268.511	2.25
268.89	2.94
269.27	1.61
269.649	1.97
270.029	2.25
270.408	1.91
270.787	2.15
271.167	2.31
271.546	3.03
271.925	2.52
272.304	2.18
272.683	2.01
273.062	2.49
273.441	2.09
273.82	2.02
274.199	1.91
274.578	2.17
274.957	2.65
275.336	2.65
275.715	2.58
276.093	1.75
276.472	1.53
276.851	2.33
277.229	2.15
277.608	2.12
277.986	1.83
278.365	2.15
278.743	2.21
279.122	1.97
279.5	2.09
279.878	2.16
280.257	2.2
280.635	2.42
281.013	2.02
281.391	1.88
281.769	2.62
282.147	2.05
282.525	2.04
282.903	1.39
283.281	2.04
283.659	2.28
284.037	2.23
284.415	1.98
284.792	2.34
285.17	1.86
285.548	1.86
285.925	2.22
286.303	2.6
286.68	2.33
287.058	2.5
287.435	2.08
287.813	2.44
288.19	2.17
288.567	2.33
288.945	2.04
289.322	2.34
289.699	2.19
290.076	2.53
290.453	2.28
290.83	2.34
291.207	2.23
291.584	2.67
291.961	2.31
292.338	2.46
292.715	2.01
293.092	2.92
293.469	2.46
293.845	2.34
294.222	2.65
294.599	1.93
294.975	2.03
295.352	2.57
295.728	2.21
296.105	2.63
296.481	2.76
296.858	2.55
297.234	2.35
297.61	2.14
297.986	2.95
298.363	2.74
298.739	2.99
299.115	2.59
299.491	3.05
299.867	2.35
300.243	2.53
300.619	2.68
300.995	2.81
301.371	2.96
301.746	2.73
302.122	1.88
302.498	2.64
302.874	3.08
303.249	3.02
303.625	2.76
304	3.03
304.376	3
304.751	2.91
305.127	2.89
305.502	3.33
305.878	3.24
306.253	2.34
306.628	3.12
307.003	2.49
307.378	2.84
307.754	2.99
308.129	2.98
308.504	3.37
308.879	2.83
309.254	3.33
309.629	2.95
310.003	2.63
310.378	3.18
310.753	3.06
311.128	2.75
311.502	3.08
311.877	3.12
312.252	3.27
312.626	3.66
313.001	3.05
313.375	3.44
313.75	3.28
314.124	3.54
314.498	3.23
314.873	2.88
315.247	3
315.621	3.38
315.995	2.85
316.369	2.89
316.743	3.28
317.117	2.76
317.491	3.08
317.865	2.59
318.239	3.16
318.613	3.33
318.987	2.68
319.361	3
319.734	3.25
320.108	3.55
320.482	3.11
320.855	3.37
321.229	3.44
321.602	3.17
321.976	2.73
322.349	3.57
322.723	3.39
323.096	3.14
323.469	3.04
323.843	2.41
324.216	3.25
324.589	3.48
324.962	2.62
325.335	3.02
325.708	3.05
326.081	3.08
326.454	3.19
326.827	3.21
327.2	3.15
327.573	3.52
327.945	3.28
328.318	3.42
328.691	3.3
329.063	3
329.436	2.97
329.809	3.03
330.181	4.12
330.553	3.69
330.926	3.3
331.298	2.87
331.671	3.66
332.043	3.05
332.415	3.55
332.787	3.35
333.159	2.14
333.532	3.56
333.904	3.39
334.276	3.19
334.648	3.23
335.02	3.16
335.391	3.1
335.763	3.9
336.135	3.42
336.507	3.04
336.879	3.41
337.25	4.01
337.622	3.49
337.993	3.21
338.365	3.09
338.736	3.55
339.108	3.43
339.479	3.67
339.851	3.48
340.222	3.6
340.593	3.26
340.964	2.94
341.336	2.94
341.707	3.24
342.078	3.22
342.449	3.52
342.82	3.4
343.191	3.47
343.562	3.52
343.933	3.27
344.303	3.49
344.674	3.57
345.045	3.39
345.416	3.45
345.786	3.47
346.157	3.67
346.527	3
346.898	3.19
347.268	3.55
347.639	3.25
348.009	3.43
348.38	3.08
348.75	4
349.12	3.7
349.49	3.26
349.861	3.67
350.231	3.38
350.601	3.55
350.971	3.23
351.341	3.38
351.711	3.22
352.081	2.95
352.45	3.44
352.82	3.21
353.19	3.24
353.56	3.21
353.929	3.6
354.299	3.27
354.669	3.87
355.038	3.56
355.408	3.17
355.777	3.8
356.147	3.67
356.516	3.26
356.885	3.36
357.254	3.24
357.624	3.11
357.993	3.79
358.362	3.56
358.731	3.5
359.1	3.4
359.469	3.52
359.838	3.72
360.207	3.45
360.576	3.65
360.945	3.82
361.314	3.38
361.682	3.28
362.051	3.21
362.42	3.45
362.788	3.57
363.157	3.25
363.525	3.54
363.894	3.45
364.262	3.49
364.631	3.88
364.999	3.32
365.367	3.84
365.735	3.29
366.104	3.41
366.472	3.33
366.84	3.58
367.208	3.71
367.576	3.59
367.944	3.73
368.312	3.51
368.68	3.72
369.048	3.27
369.416	3.23
369.783	3.3
370.151	3.88
370.519	3.66
370.886	3.78
371.254	3.69
371.621	3.8
371.989	3.8
372.356	3.59
372.724	3.26
373.091	3.32
373.458	3.45
373.826	3.64
374.193	3.48
374.56	3.55
374.927	3.3
375.294	3.9
375.661	3.67
376.028	3.66
376.395	3.78
376.762	3.03
377.129	3.36
377.496	3.7
377.863	3.71
378.229	3.88
378.596	3.5
378.963	3.6
379.329	3.79
379.696	3.56
380.062	3.61
380.429	3.81
380.795	4
381.161	3.5
381.528	3.38
381.894	3.44
382.26	3.79
382.626	3.67
382.993	4.08
383.359	3.65
383.725	3.46
384.091	3.87
384.457	3.32
384.823	3.49
385.188	3.69
385.554	3.68
385.92	3.51
386.286	3.52
386.651	3.52
387.017	3.98
387.383	3.45
387.748	3.64
388.114	3.8
388.479	3.78
388.845	3.56
389.21	4.08
389.575	4.12
389.94	4
390.306	3.82
390.671	3.81
391.036	3.54
391.401	3.71
391.766	3.9
392.131	4.18
392.496	3.66
392.861	3.64
393.226	3.58
393.591	3.75
393.956	3.81
394.32	4.08
394.685	3.92
395.05	3.58
395.414	3.81
395.779	3.67
396.143	3.71
396.508	3.81
396.872	3.56
397.236	4
397.601	3.9
397.965	3.67
398.329	3.81
398.694	3.57
399.058	3.9
399.422	3.61
399.786	3.64
400.15	3.64
400.514	3.64
400.878	3.72
401.242	3.82
401.605	3.92
401.969	3.57
402.333	3.68
402.697	3.97
403.06	3.71
403.424	3.81
403.787	3.79
404.151	3.71
404.514	3.86
404.878	3.77
405.241	3.71
405.604	3.59
405.968	3.79
406.331	3.84
406.694	4.06
407.057	3.78
407.42	3.88
407.783	3.94
408.146	3.88
408.509	3.92
408.872	3.96
409.235	3.69
409.598	3.81
409.961	3.97
410.323	3.72
410.686	3.83
411.049	3.89
411.411	3.85
411.774	3.9
412.136	3.79
412.499	4.01
412.861	3.54
413.223	3.73
413.586	3.77
413.948	4.19
414.31	3.82
414.672	3.61
415.035	4.26
415.397	3.93
415.759	3.44
416.121	3.97
416.483	3.84
416.845	3.91
417.206	3.9
417.568	3.82
417.93	3.93
418.292	3.72
418.653	3.68
419.015	3.83
419.377	3.71
419.738	3.95
420.1	3.85
420.461	3.83
420.822	3.84
421.184	3.76
421.545	3.91
421.906	3.96
422.267	3.85
422.629	3.81
422.99	3.76
423.351	3.87
423.712	3.96
424.073	3.97
424.434	4.01
424.795	3.88
425.155	3.76
425.516	3.82
425.877	3.85
426.238	3.9
426.598	3.85
426.959	3.96
427.32	3.88
427.68	3.91
428.041	4.04
428.401	3.88
428.761	4.09
429.122	4.07
429.482	4.18
429.842	3.85
430.202	4.12
430.563	4.12
430.923	4.15
431.283	4.04
431.643	4.05
432.003	4.08
432.363	4.19
432.722	4.17
433.082	3.87
433.442	4.16
433.802	4.09
434.161	4.09
434.521	4.07
434.881	4.17
435.24	4.11
435.6	4.07
435.959	4.11
436.319	4.01
436.678	4.22
437.037	4.02
437.396	4.12
437.756	3.91
438.115	3.97
438.474	4.23
438.833	4.14
439.192	4.11
439.551	4.06
439.91	4.13
440.269	4.08
440.628	4.17
440.987	4.15
441.345	4.21
441.704	4.12
442.063	4.04
442.421	4.15
442.78	4.2
443.138	4.24
443.497	4.16
443.855	4.25
444.214	4
444.572	4.37
444.93	4.16
445.288	4.23
445.647	4.11
446.005	4.1
446.363	4.2
446.721	4.29
447.079	4.11
447.437	4.23
447.795	4.22
448.153	4.18
448.51	4.16
448.868	4.13
449.226	4.16
449.584	4.21
449.941	4.3
450.299	4.23
450.656	4.27
451.014	4.29
451.371	4.34
451.729	4.34
452.086	4.32
452.443	4.45
452.801	4.33
453.158	4.56
453.515	4.26
453.872	4.27
454.229	4.18
454.586	4.27
454.943	4.35
455.3	4.19
455.657	4.31
456.014	4.35
456.371	4.42
456.727	4.41
457.084	4.38
457.441	4.45
457.797	4.35
458.154	4.43
458.51	4.25
458.867	4.33
459.223	4.31
459.58	4.46
459.936	4.34
460.292	4.35
460.648	4.18
461.005	4.31
461.361	4.33
461.717	4.32
462.073	4.38
462.429	4.41
462.785	4.51
463.141	4.45
463.496	4.43
463.852	4.63
464.208	4.42
464.564	4.37
464.919	4.35
465.275	4.46
465.631	4.72
465.986	4.59
466.342	4.36
466.697	4.5
467.052	4.58
467.408	4.42
467.763	4.54
468.118	4.32
468.473	4.62
468.829	4.57
469.184	4.61
469.539	4.5
469.894	4.62
470.249	4.5
470.603	4.52
470.958	4.61
471.313	4.7
471.668	4.53
472.023	4.52
472.377	4.55
472.732	4.6
473.086	4.58
473.441	4.55
473.795	4.78
474.15	4.62
474.504	4.52
474.859	4.51
475.213	4.5
475.567	4.52
475.921	4.68
476.275	4.65
476.63	4.66
476.984	4.49
477.338	4.84
477.692	4.61
478.045	4.78
478.399	4.56
478.753	4.59
479.107	4.7
479.461	4.58
479.814	4.62
480.168	4.67
480.521	4.71
480.875	4.73
481.228	4.65
481.582	4.7
481.935	4.77
482.289	4.76
482.642	4.75
482.995	4.64
483.348	4.62
483.701	4.61
484.055	4.55
484.408	4.61
484.761	4.5
485.114	4.45
485.466	4.42
485.819	4.42
486.172	4.47
486.525	4.55
486.878	4.58
487.23	4.61
487.583	4.59
487.936	4.59
488.288	4.56
488.641	4.53
488.993	4.55
489.345	4.52
489.698	4.55
490.05	4.57
490.402	4.6
490.754	4.59
491.107	4.74
491.459	4.78
491.811	4.76
492.163	4.81
492.515	4.72
492.866	4.61
493.218	4.62
493.57	4.7
493.922	4.6
494.274	4.79
494.625	4.84
494.977	4.78
495.328	4.84
495.68	4.86
496.031	4.83
496.383	4.76
496.734	4.83
497.086	5.01
497.437	4.91
497.788	4.95
498.139	4.84
498.49	4.9
498.842	4.93
499.193	4.87
499.544	4.9
499.894	4.88
500.245	4.95
500.596	5.01
500.947	4.96
501.298	4.94
501.648	4.96
501.999	5.19
502.35	4.86
502.7	5.12
503.051	5.01
503.401	4.92
503.752	5.03
504.102	4.86
504.452	5
504.803	5.03
505.153	5.07
505.503	4.97
505.853	5.04
506.203	5.08
506.553	5.08
506.903	5.13
507.253	5.01
507.603	5.17
507.953	5.23
508.303	5.06
508.652	4.96
509.002	5.07
509.352	5.17
509.701	4.95
510.051	5.29
510.4	5.13
510.75	4.99
511.099	5.03
511.449	5.12
511.798	5
512.147	5.14
512.496	5.14
512.846	5.15
513.195	5.12
513.544	5.24
513.893	5.16
514.242	5.07
514.591	5.04
514.939	5.14
515.288	5.17
515.637	5.21
515.986	5.25
516.334	5.24
516.683	5.29
517.032	5.11
517.38	5.15
517.729	5.25
518.077	5.21
518.426	5.38
518.774	5.19
519.122	5.25
519.47	5.11
519.819	5.19
520.167	5.19
520.515	5.22
520.863	5.23
521.211	5.3
521.559	5.23
521.907	5.32
522.255	5.26
522.602	5.35
522.95	5.36
523.298	5.25
523.645	5.28
523.993	5.34
524.341	5.33
524.688	5.38
525.036	5.29
525.383	5.37
525.73	5.24
526.078	5.32
526.425	5.32
526.772	5.26
527.119	5.47
527.466	5.34
527.814	5.3
528.161	5.33
528.508	5.41
528.854	5.34
529.201	5.23
529.548	5.26
529.895	5.19
530.242	5.19
530.588	5.19
530.935	5.23
531.282	5.26
531.628	5.31
531.975	5.37
532.321	5.43
532.667	5.52
533.014	5.47
533.36	5.46
533.706	5.43
534.052	5.48
534.399	5.46
534.745	5.39
535.091	5.38
535.437	5.37
535.783	5.46
536.129	5.47
536.474	5.53
536.82	5.66
537.166	5.46
537.512	5.54
537.857	5.52
538.203	5.5
538.549	5.48
538.894	5.65
539.239	5.64
539.585	5.67
539.93	5.68
540.276	5.61
540.621	5.79
540.966	5.71
541.311	5.76
541.656	5.63
542.001	5.58
542.346	5.56
542.691	5.57
543.036	5.51
543.381	5.5
543.726	5.56
544.071	5.66
544.415	5.66
544.76	5.63
545.105	5.68
545.449	5.68
545.794	5.63
546.138	5.74
546.483	5.89
546.827	5.8
547.171	5.74
547.516	5.87
547.86	5.91
548.204	5.85
548.548	5.75
548.892	5.87
549.236	5.82
549.58	5.86
549.924	5.9
550.268	6.02
550.612	6.09
550.956	6.11
551.3	6.22
551.643	6.26
551.987	6.05
552.33	6.08
552.674	6.14
553.017	6.13
553.361	6.36
553.704	6.06
554.048	5.93
554.391	6.07
554.734	6.01
555.077	6.09
555.42	6.05
555.764	6.14
556.107	6.13
556.45	6.22
556.793	6.35
557.135	6.33
557.478	6.3
557.821	6.22
558.164	6.3
558.507	6.11
558.849	6.35
559.192	6.18
559.534	6.15
559.877	6.23
560.219	6.15
560.562	6.09
560.904	6.36
561.246	6.12
561.589	6.56
561.931	6.33
562.273	6.23
562.615	6.28
562.957	6.13
563.299	6.22
563.641	6.48
563.983	6.13
564.325	6.33
564.667	6.34
565.008	6.24
565.35	6.35
565.692	6.45
566.033	6.48
566.375	6.46
566.716	6.32
567.058	6.46
567.399	6.53
567.741	6.48
568.082	6.53
568.423	6.38
568.764	6.4
569.105	6.53
569.447	6.39
569.788	6.51
570.129	6.51
570.47	6.64
570.811	6.62
571.151	6.43
571.492	6.44
571.833	6.63
572.174	6.56
572.514	6.54
572.855	6.81
573.195	6.6
573.536	6.65
573.876	6.59
574.217	6.62
574.557	6.64
574.898	6.63
575.238	6.71
575.578	6.65
575.918	6.77
576.258	7.03
576.598	6.71
576.938	6.68
577.278	6.61
577.618	6.91
577.958	6.79
578.298	6.76
578.638	6.75
578.977	6.67
579.317	6.93
579.657	6.89
579.996	6.92
580.336	6.88
580.675	6.87
581.014	7.02
581.354	6.74
581.693	7.06
582.032	6.97
582.372	6.84
582.711	7.19
583.05	7.02
583.389	6.86
583.728	7.12
584.067	6.83
584.406	7.14
584.745	6.95
585.083	7.11
585.422	7.24
585.761	7.06
586.1	7.16
586.438	7.08
586.777	7.11
587.115	7.16
587.454	7.22
587.792	7.26
588.13	7.02
588.469	7.1
588.807	7.47
589.145	7.24
589.483	7.14
589.821	7
590.159	7.29
590.497	7.41
590.835	7.46
591.173	7.41
591.511	7.33
591.849	7.27
592.187	7.15
592.524	7.54
592.862	7.14
593.2	7.47
593.537	7.39
593.875	7.33
594.212	7.54
594.55	7.45
594.887	7.73
595.224	7.5
595.561	7.43
595.899	7.49
596.236	7.64
596.573	7.38
596.91	7.44
597.247	7.72
597.584	7.6
597.921	7.38
598.258	7.58
598.594	7.56
598.931	7.37
599.268	7.36
599.604	7.61
599.941	7.61
600.277	7.62
600.614	7.63
600.95	7.5
601.287	7.42
601.623	7.37
601.959	7.98
602.296	7.66
602.632	7.53
602.968	7.53
603.304	7.97
603.64	7.79
603.976	7.54
604.312	7.66
604.648	7.67
604.984	7.84
605.319	7.78
605.655	7.84
605.991	7.72
606.326	7.65
606.662	7.84
606.998	7.86
607.333	7.79
607.668	7.75
608.004	7.87
608.339	7.98
608.674	7.97
609.01	8.17
609.345	8
609.68	7.73
610.015	8.25
610.35	8.13
610.685	7.86
611.02	7.92
611.355	8.06
611.689	7.96
612.024	8.14
612.359	8.24
612.694	8.13
613.028	7.89
613.363	7.84
613.697	7.99
614.032	7.93
614.366	8.1
614.7	8.34
615.035	8.12
615.369	8.4
615.703	8.15
616.037	8.3
616.371	8.09
616.705	8.11
617.039	8.37
617.373	8.41
617.707	8.29
618.041	7.93
618.375	8.09
618.709	8.33
619.042	8.42
619.376	8.66
619.71	8.15
620.043	8.7
620.377	8.33
620.71	8.23
621.043	8.93
621.377	8.8
621.71	8.69
622.043	8.57
622.376	8.46
622.709	9.13
623.043	8.52
623.376	8.78
623.709	8.51
624.041	8.47
624.374	8.58
624.707	8.58
625.04	8.45
625.373	8.7
625.705	8.66
626.038	8.78
626.37	8.45
626.703	8.73
627.035	8.83
627.368	8.89
627.7	8.64
628.032	8.97
628.365	8.91
628.697	8.8
629.029	8.71
629.361	8.94
629.693	8.73
630.025	8.83
630.357	8.91
630.689	8.92
631.021	8.92
631.353	8.97
631.684	8.82
632.016	8.52
632.348	8.73
632.679	8.97
633.011	9.22
633.342	9.08
633.674	8.99
634.005	8.94
634.336	9.4
634.668	9.2
634.999	9.5
635.33	8.97
635.661	8.74
635.992	9.09
636.323	9.27
636.654	9.11
636.985	9.07
637.316	9.04
637.647	9.2
637.977	8.85
638.308	9.29
638.639	9
638.969	8.95
639.3	9.4
639.63	9.34
639.961	9.29
640.291	9.18
640.622	9.42
640.952	9.45
641.282	8.88
641.612	9.14
641.943	9.12
642.273	9.42
642.603	9.45
642.933	9.61
643.263	9.65
643.592	9.81
643.922	9.78
644.252	9.28
644.582	9.63
644.911	9.58
645.241	9.43
645.571	9.36
645.9	9.51
646.23	9.71
646.559	9.47
646.888	9.65
647.218	9.71
647.547	9.65
647.876	9.54
648.205	9.16
648.534	9.64
648.863	9.82
649.192	9.58
649.521	10.03
649.85	10.06
650.179	10.06
650.508	9.33
650.837	9.79
651.165	9.82
651.494	9.63
651.822	9.97
652.151	9.58
652.479	10.33
652.808	9.73
653.136	9.54
653.465	9.82
653.793	10.02
654.121	10.06
654.449	9.81
654.777	9.67
655.105	9.4
655.433	9.87
655.761	10
656.089	10.12
656.417	10.58
656.745	10.28
657.073	10.06
657.4	9.88
657.728	9.92
658.056	10.05
658.383	9.75
658.711	10.47
659.038	10.45
659.365	10.33
659.693	10.01
660.02	9.89
660.347	9.86
660.674	9.79
661.001	9.97
661.329	10.11
661.656	10.15
661.982	9.95
662.309	10.18
662.636	10.35
662.963	10.39
663.29	10.29
663.616	10.07
663.943	10.62
664.27	10.09
664.596	10.33
664.923	10.42
665.249	10.5
665.576	10.25
665.902	10.47
666.228	10.37
666.554	10.64
666.881	10.6
667.207	10.35
667.533	10.55
667.859	10.06
668.185	10.27
668.511	10.83
668.837	10.36
669.162	10.41
669.488	10.26
669.814	10.6
670.139	10.02
670.465	10.85
670.791	10.07
671.116	10.31
671.442	9.87
671.767	10.32
672.092	10.83
672.418	10.78
672.743	10.51
673.068	10.09
673.393	10.84
673.718	9.91
674.043	10.35
674.368	10.6
674.693	10.31
675.018	11.01
675.343	11.41
675.667	10.4
675.992	11.05
676.317	10.15
676.641	10.49
676.966	10.71
677.29	10.28
677.615	10.41
677.939	11.31
678.264	10.58
678.588	10.85
678.912	10.61
679.236	11.05
679.56	10.77
679.885	10.96
680.209	11.64
680.532	11.49
680.856	11.51
681.18	11.68
681.504	11.13
681.828	10.57
682.152	10.96
682.475	11.37
682.799	11.13
683.122	11.06
683.446	10.74
683.769	11.5
684.093	11.5
684.416	11.1
684.739	10.69
685.062	11.26
685.386	11.32
685.709	11.08
686.032	11.12
686.355	11.2
686.678	11.24
687.001	11.12
687.324	11.74
687.646	11.15
687.969	10.72
688.292	11.27
688.614	11.35
688.937	11.57
689.26	11.79
689.582	11.79
689.904	11.47
