Data from 21-1_forehead_Reflection__1__162.txt Node

Date: Thu Dec 15 17:45:13 CST 2022
User: ToomeyLab
Spectrometer: FLMS14357
Trigger mode: 0
Integration Time (sec): 1.000000E-2
Scans to average: 100
Electric dark correction enabled: true
Nonlinearity correction enabled: false
Boxcar width: 0
XAxis mode: Wavelengths
Number of Pixels in Spectrum: 2048
>>>>>Begin Spectral Data<<<<<
189.047	64.3
189.435	64.3
189.823	64.3
190.211	37.86
190.599	1178.66
190.987	100.12
191.375	341.2
191.763	-752.46
192.151	189.03
192.538	42.11
192.926	221.61
193.314	256.28
193.702	168.99
194.089	-99.96
194.477	95.58
194.864	94.08
195.252	-921.69
195.639	120.17
196.027	-1398.28
196.414	43.31
196.801	-92.02
197.189	92.81
197.576	-121.97
197.963	708.82
198.351	5.15
198.738	-0.59
199.125	-56.7
199.512	11.37
199.899	-48.06
200.286	-1.25
200.673	42.03
201.06	-17.93
201.447	16.71
201.833	60.4
202.22	73.01
202.607	24.06
202.994	21.41
203.38	29.54
203.767	33.8
204.154	32.54
204.54	42.68
204.927	26.02
205.313	14.79
205.699	14.15
206.086	19.93
206.472	27.71
206.858	1.84
207.245	-2.98
207.631	14.34
208.017	54.66
208.403	19.18
208.789	35.39
209.175	26.97
209.561	-40.01
209.947	-32.11
210.333	9.18
210.719	-5.55
211.105	25.87
211.491	12.87
211.876	11.48
212.262	24.23
212.648	19.36
213.034	15.9
213.419	16.61
213.805	-7.83
214.19	-18.92
214.576	6.21
214.961	25.01
215.346	7.85
215.732	15.57
216.117	1.76
216.502	19.2
216.888	18.79
217.273	20.56
217.658	-0.13
218.043	3.91
218.428	-24.72
218.813	16.76
219.198	-5.47
219.583	7.35
219.968	4.25
220.353	-16.76
220.738	13.79
221.122	27.65
221.507	-0.42
221.892	-22.32
222.276	-24.37
222.661	-16.22
223.046	-3.83
223.43	9.03
223.815	4.27
224.199	-7.22
224.583	12.38
224.968	-4.27
225.352	-5.58
225.736	9.94
226.121	4.04
226.505	2.04
226.889	-4.85
227.273	4.1
227.657	2.31
228.041	3.51
228.425	-0.64
228.809	1.52
229.193	3.75
229.577	3.05
229.961	1.91
230.344	3.29
230.728	3.87
231.112	3.73
231.495	2.8
231.879	3.76
232.263	3.18
232.646	3.04
233.03	5.65
233.413	3.97
233.797	1.29
234.18	1.64
234.563	4.83
234.946	2.35
235.33	3.32
235.713	2.93
236.096	4.25
236.479	4.8
236.862	2.78
237.245	2.47
237.628	3.99
238.011	2.91
238.394	4.02
238.777	2.99
239.16	6.1
239.543	4.54
239.925	2.74
240.308	0.62
240.691	2.58
241.073	1.87
241.456	3.85
241.838	2.46
242.221	3.34
242.603	3.11
242.986	3.05
243.368	2.61
243.75	3.29
244.133	3.11
244.515	3.08
244.897	3.12
245.279	3.12
245.661	3.33
246.043	3.26
246.425	2.88
246.807	3.31
247.189	3.37
247.571	2.73
247.953	3.09
248.335	3.26
248.717	3.2
249.098	3.33
249.48	3.25
249.862	3.01
250.243	3.3
250.625	3.52
251.006	3.94
251.388	2.86
251.769	1.84
252.151	3.37
252.532	3.44
252.913	2.67
253.295	3.26
253.676	3.28
254.057	3.34
254.438	2.87
254.819	3.34
255.2	3.72
255.581	4.77
255.962	4.48
256.343	4.07
256.724	4.73
257.105	2.82
257.486	2.66
257.867	2.87
258.247	3.34
258.628	3
259.009	3.43
259.389	2.09
259.77	2.61
260.15	3.77
260.531	3.17
260.911	2.98
261.292	3.21
261.672	3.06
262.052	3.11
262.432	2.94
262.813	3.43
263.193	3.21
263.573	3.21
263.953	3.18
264.333	3.26
264.713	3.03
265.093	2.84
265.473	2.5
265.853	3.63
266.233	3.15
266.612	3.29
266.992	2.47
267.372	3.39
267.752	3.79
268.131	3.05
268.511	2.74
268.89	3.65
269.27	2.24
269.649	2.76
270.029	3.14
270.408	2.92
270.787	3.53
271.167	3.25
271.546	3.4
271.925	3.74
272.304	3.36
272.683	2.98
273.062	2.7
273.441	2.68
273.82	3.43
274.199	3.22
274.578	3.73
274.957	2.86
275.336	3.59
275.715	3.32
276.093	2.77
276.472	2.68
276.851	3.03
277.229	2.9
277.608	2.53
277.986	2.94
278.365	3.2
278.743	2.63
279.122	2.8
279.5	2.81
279.878	2.53
280.257	2.89
280.635	2.94
281.013	2.67
281.391	2.73
281.769	3.51
282.147	3.32
282.525	2.89
282.903	2.66
283.281	3.09
283.659	2.99
284.037	3.21
284.415	2.98
284.792	3.18
285.17	3.44
285.548	3.29
285.925	3.56
286.303	3.3
286.68	3.06
287.058	2.96
287.435	3.17
287.813	3.1
288.19	2.94
288.567	2.99
288.945	2.99
289.322	3.55
289.699	3.65
290.076	3.2
290.453	3.34
290.83	3.28
291.207	3.33
291.584	3.61
291.961	3.48
292.338	3.29
292.715	2.94
293.092	4
293.469	3.53
293.845	3.94
294.222	3.48
294.599	3.02
294.975	3.86
295.352	3.98
295.728	3.89
296.105	3.47
296.481	3.39
296.858	4.04
297.234	3.29
297.61	3.76
297.986	4.07
298.363	4.06
298.739	4.09
299.115	4.06
299.491	4.34
299.867	3.78
300.243	3.81
300.619	3.84
300.995	3.73
301.371	4.73
301.746	4.55
302.122	4.1
302.498	4.32
302.874	4.46
303.249	4.34
303.625	4.39
304	4.46
304.376	5.01
304.751	4.41
305.127	4.67
305.502	4.81
305.878	4.93
306.253	4.42
306.628	5.29
307.003	4.93
307.378	5.02
307.754	4.69
308.129	4.9
308.504	5.31
308.879	5.15
309.254	5.32
309.629	5.05
310.003	5.08
310.378	5.29
310.753	4.89
311.128	5.01
311.502	5.3
311.877	5.3
312.252	5.4
312.626	6
313.001	5.6
313.375	5.7
313.75	5.87
314.124	5.54
314.498	6.64
314.873	5.73
315.247	5.61
315.621	5.75
315.995	6.01
316.369	5.62
316.743	6.19
317.117	5.85
317.491	5.97
317.865	5.92
318.239	6.72
318.613	6.21
318.987	5.5
319.361	6.67
319.734	5.91
320.108	6.42
320.482	6.99
320.855	6.65
321.229	6.21
321.602	6.93
321.976	5.96
322.349	7.24
322.723	6.89
323.096	7.03
323.469	7.01
323.843	6.88
324.216	6.69
324.589	7.26
324.962	6.62
325.335	7.08
325.708	7.41
326.081	7.24
326.454	7.23
326.827	7.54
327.2	7.14
327.573	7.78
327.945	6.77
328.318	7.31
328.691	7.75
329.063	7.33
329.436	7.38
329.809	8.21
330.181	7.69
330.553	8.49
330.926	7.89
331.298	7.18
331.671	7.59
332.043	7.61
332.415	7.64
332.787	7.78
333.159	7.62
333.532	7.98
333.904	8.23
334.276	8.01
334.648	7.92
335.02	7.54
335.391	7.74
335.763	8.27
336.135	8.44
336.507	8.15
336.879	7.94
337.25	8.2
337.622	8.11
337.993	8.26
338.365	8.28
338.736	8.01
339.108	8.28
339.479	8.12
339.851	8.68
340.222	8.47
340.593	8
340.964	8.47
341.336	8.44
341.707	8.87
342.078	8.5
342.449	8.62
342.82	8.87
343.191	8.67
343.562	8.85
343.933	8.22
344.303	8.88
344.674	8.64
345.045	8.84
345.416	9.09
345.786	8.78
346.157	9
346.527	8.85
346.898	8.68
347.268	9.08
347.639	8.78
348.009	9.07
348.38	9.15
348.75	9.37
349.12	9.59
349.49	9.33
349.861	9.37
350.231	8.8
350.601	9.36
350.971	8.89
351.341	9.26
351.711	9.14
352.081	9.67
352.45	9.47
352.82	8.89
353.19	9.36
353.56	9.29
353.929	9.37
354.299	9.74
354.669	10.09
355.038	10.3
355.408	9.61
355.777	9.95
356.147	9.55
356.516	9.64
356.885	9.88
357.254	9.9
357.624	9.58
357.993	9.89
358.362	10.03
358.731	10.1
359.1	9.92
359.469	10.17
359.838	10.05
360.207	10.1
360.576	10.44
360.945	10.26
361.314	10.14
361.682	9.64
362.051	10.16
362.42	10.1
362.788	10.5
363.157	10.13
363.525	10.44
363.894	10.21
364.262	10.5
364.631	10.68
364.999	10.43
365.367	10.42
365.735	10.62
366.104	10.42
366.472	10.71
366.84	10.51
367.208	10.64
367.576	10.6
367.944	10.81
368.312	10.62
368.68	10.95
369.048	10.82
369.416	10.55
369.783	10.9
370.151	11.36
370.519	11.51
370.886	10.91
371.254	11.1
371.621	11.5
371.989	11.07
372.356	11.29
372.724	11.11
373.091	11.24
373.458	11.2
373.826	11.62
374.193	11.41
374.56	11.42
374.927	11.19
375.294	11.56
375.661	11.69
376.028	11.4
376.395	11.54
376.762	11.35
377.129	11.29
377.496	11.88
377.863	11.49
378.229	11.76
378.596	11.87
378.963	12.1
379.329	11.83
379.696	11.69
380.062	11.61
380.429	11.75
380.795	11.92
381.161	11.79
381.528	11.47
381.894	11.96
382.26	11.95
382.626	12.03
382.993	12.21
383.359	12.05
383.725	11.9
384.091	12.17
384.457	11.77
384.823	12.09
385.188	12.23
385.554	12.21
385.92	12.23
386.286	12.15
386.651	12.26
387.017	12.19
387.383	12.17
387.748	12.35
388.114	12.47
388.479	12.31
388.845	12.31
389.21	12.54
389.575	12.63
389.94	12.47
390.306	12.64
390.671	12.45
391.036	12.56
391.401	12.58
391.766	12.46
392.131	12.62
392.496	12.5
392.861	12.48
393.226	12.45
393.591	12.41
393.956	12.59
394.32	12.69
394.685	12.51
395.05	12.73
395.414	12.43
395.779	12.73
396.143	12.38
396.508	12.35
396.872	12.65
397.236	12.97
397.601	12.77
397.965	12.86
398.329	12.88
398.694	12.95
399.058	12.54
399.422	12.8
399.786	12.8
400.15	12.68
400.514	12.84
400.878	12.62
401.242	12.97
401.605	12.71
401.969	12.6
402.333	12.74
402.697	12.88
403.06	12.62
403.424	12.69
403.787	12.78
404.151	12.93
404.514	12.82
404.878	12.77
405.241	12.68
405.604	12.52
405.968	12.74
406.331	12.59
406.694	12.43
407.057	12.53
407.42	12.58
407.783	12.55
408.146	12.5
408.509	12.57
408.872	12.76
409.235	12.67
409.598	12.62
409.961	12.82
410.323	12.57
410.686	12.78
411.049	12.87
411.411	12.73
411.774	12.58
412.136	12.68
412.499	13.16
412.861	12.37
413.223	12.44
413.586	13.03
413.948	12.93
414.31	13.1
414.672	12.76
415.035	13.04
415.397	12.87
415.759	12.88
416.121	13.09
416.483	12.96
416.845	12.99
417.206	13.02
417.568	12.93
417.93	13.12
418.292	13.05
418.653	12.95
419.015	13.07
419.377	13.2
419.738	13.18
420.1	13.24
420.461	13.15
420.822	13.32
421.184	13.21
421.545	13.45
421.906	13.55
422.267	13.37
422.629	13.34
422.99	13.51
423.351	13.61
423.712	13.71
424.073	13.83
424.434	13.92
424.795	13.89
425.155	13.96
425.516	13.94
425.877	14.02
426.238	14.11
426.598	14.33
426.959	14.42
427.32	14.44
427.68	14.72
428.041	14.79
428.401	14.81
428.761	14.86
429.122	15.04
429.482	15.23
429.842	15.11
430.202	15.38
430.563	15.51
430.923	15.4
431.283	15.58
431.643	15.69
432.003	16.05
432.363	15.78
432.722	15.76
433.082	15.84
433.442	15.98
433.802	16.16
434.161	16.06
434.521	16.01
434.881	15.97
435.24	16.14
435.6	16.28
435.959	16.3
436.319	16.35
436.678	16.71
437.037	16.53
437.396	16.74
437.756	16.52
438.115	16.67
438.474	16.89
438.833	16.79
439.192	16.8
439.551	16.91
439.91	17.21
440.269	16.93
440.628	17.02
440.987	17.15
441.345	17.17
441.704	17.22
442.063	17.23
442.421	17.32
442.78	17.25
443.138	17.42
443.497	17.52
443.855	17.59
444.214	17.58
444.572	17.87
444.93	17.85
445.288	17.79
445.647	17.73
446.005	17.94
446.363	18.04
446.721	17.85
447.079	17.94
447.437	17.9
447.795	17.91
448.153	17.9
448.51	18.04
448.868	18
449.226	18.22
449.584	18.35
449.941	18.35
450.299	18.49
450.656	18.56
451.014	18.68
451.371	18.86
451.729	18.85
452.086	18.86
452.443	18.9
452.801	19.01
453.158	19.21
453.515	19.06
453.872	19.12
454.229	19.02
454.586	19.1
454.943	19.22
455.3	19.34
455.657	19.26
456.014	19.32
456.371	19.41
456.727	19.71
457.084	19.69
457.441	19.48
457.797	19.67
458.154	19.95
458.51	19.77
458.867	19.79
459.223	19.94
459.58	19.95
459.936	19.82
460.292	19.89
460.648	19.75
461.005	19.68
461.361	19.64
461.717	19.74
462.073	19.9
462.429	20.16
462.785	20.16
463.141	20.13
463.496	20.47
463.852	20.71
464.208	20.61
464.564	20.63
464.919	20.78
465.275	20.73
465.631	20.93
465.986	20.88
466.342	20.82
466.697	21.05
467.052	21.08
467.408	21.28
467.763	20.82
468.118	21.13
468.473	21.2
468.829	21.12
469.184	21.23
469.539	21.38
469.894	21.61
470.249	21.38
470.603	21.57
470.958	21.55
471.313	21.81
471.668	21.69
472.023	21.61
472.377	21.58
472.732	21.92
473.086	21.89
473.441	21.54
473.795	22.28
474.15	21.9
474.504	22.08
474.859	21.85
475.213	22.18
475.567	21.95
475.921	22.23
476.275	22.28
476.63	22.27
476.984	22.18
477.338	22.54
477.692	22.34
478.045	22.41
478.399	22.28
478.753	22.46
479.107	22.63
479.461	22.38
479.814	22.38
480.168	22.35
480.521	22.5
480.875	22.69
481.228	22.72
481.582	22.74
481.935	22.92
482.289	22.7
482.642	22.78
482.995	22.63
483.348	22.53
483.701	22.63
484.055	22.61
484.408	22.38
484.761	22.07
485.114	21.94
485.466	21.93
485.819	22.02
486.172	22.01
486.525	22.13
486.878	22.22
487.23	22.5
487.583	22.64
487.936	22.7
488.288	22.62
488.641	22.41
488.993	22.48
489.345	22.48
489.698	22.5
490.05	22.57
490.402	22.65
490.754	22.89
491.107	23
491.459	23.14
491.811	23.27
492.163	23.46
492.515	23.22
492.866	22.96
493.218	22.99
493.57	23.07
493.922	23.17
494.274	23.36
494.625	23.59
494.977	23.79
495.328	23.92
495.68	23.95
496.031	24.05
496.383	24.31
496.734	24.4
497.086	24.36
497.437	24.53
497.788	24.34
498.139	24.24
498.49	24.44
498.842	24.38
499.193	24.37
499.544	24.4
499.894	24.4
500.245	24.53
500.596	24.81
500.947	24.79
501.298	24.8
501.648	24.83
501.999	24.95
502.35	24.76
502.7	25.11
503.051	25.07
503.401	25.26
503.752	25.31
504.102	25.02
504.452	25.21
504.803	25.16
505.153	25.42
505.503	25.12
505.853	25.35
506.203	25.38
506.553	25.31
506.903	25.2
507.253	25.36
507.603	25.45
507.953	25.46
508.303	25.67
508.652	25.68
509.002	25.61
509.352	25.63
509.701	25.44
510.051	25.66
510.4	25.67
510.75	25.43
511.099	25.5
511.449	25.59
511.798	25.62
512.147	25.83
512.496	25.7
512.846	25.78
513.195	25.67
513.544	25.77
513.893	25.88
514.242	25.69
514.591	25.78
514.939	25.99
515.288	26.18
515.637	25.94
515.986	26.17
516.334	26.22
516.683	26.22
517.032	26.49
517.38	26.38
517.729	26.38
518.077	26.21
518.426	26.35
518.774	26.34
519.122	26.23
519.47	26.12
519.819	26.22
520.167	26
520.515	26.14
520.863	25.98
521.211	26.23
521.559	26.21
521.907	26.41
522.255	26.5
522.602	26.7
522.95	26.76
523.298	26.73
523.645	26.77
523.993	26.63
524.341	26.76
524.688	26.91
525.036	26.82
525.383	27.06
525.73	26.84
526.078	26.85
526.425	26.73
526.772	26.59
527.119	26.64
527.466	26.48
527.814	26.55
528.161	26.67
528.508	26.71
528.854	26.59
529.201	26.6
529.548	26.36
529.895	26.21
530.242	26.22
530.588	26.29
530.935	26.39
531.282	26.37
531.628	26.5
531.975	26.73
532.321	26.89
532.667	27.01
533.014	27.12
533.36	27.09
533.706	27.22
534.052	27.25
534.399	27.05
534.745	26.83
535.091	26.93
535.437	26.84
535.783	26.97
536.129	27.17
536.474	27.37
536.82	27.58
537.166	27.61
537.512	27.67
537.857	27.56
538.203	27.49
538.549	27.55
538.894	27.57
539.239	27.69
539.585	27.94
539.93	28.07
540.276	28.15
540.621	28.22
540.966	28.24
541.311	28.21
541.656	28.35
542.001	28.03
542.346	27.76
542.691	27.58
543.036	27.6
543.381	27.62
543.726	27.71
544.071	27.76
544.415	27.96
544.76	28
545.105	28.09
545.449	28.3
545.794	28.37
546.138	28.32
546.483	28.65
546.827	28.56
547.171	28.83
547.516	28.92
547.86	28.86
548.204	28.74
548.548	28.72
548.892	28.89
549.236	28.84
549.58	29.16
549.924	29.17
550.268	29.43
550.612	29.36
550.956	29.54
551.3	29.69
551.643	29.59
551.987	29.84
552.33	29.98
552.674	29.78
553.017	29.94
553.361	29.77
553.704	29.87
554.048	29.74
554.391	29.96
554.734	29.64
555.077	29.81
555.42	29.84
555.764	29.92
556.107	29.99
556.45	30.02
556.793	30.52
557.135	30.24
557.478	30.25
557.821	30.36
558.164	30.42
558.507	30.28
558.849	30.54
559.192	30.37
559.534	30.69
559.877	30.66
560.219	30.46
560.562	30.75
560.904	30.86
561.246	30.65
561.589	30.84
561.931	30.82
562.273	30.76
562.615	30.81
562.957	30.82
563.299	30.46
563.641	30.78
563.983	30.68
564.325	31.04
564.667	31.01
565.008	30.74
565.35	30.93
565.692	31.01
566.033	31.25
566.375	31.24
566.716	31.21
567.058	31.18
567.399	31.15
567.741	30.94
568.082	31.03
568.423	31.1
568.764	31.14
569.105	31.31
569.447	31.33
569.788	31.24
570.129	31.4
570.47	31.51
570.811	31.58
571.151	31.59
571.492	31.61
571.833	31.45
572.174	31.72
572.514	31.86
572.855	31.68
573.195	31.8
573.536	31.82
573.876	31.58
574.217	31.59
574.557	31.65
574.898	31.85
575.238	32.02
575.578	31.97
575.918	32.1
576.258	32.18
576.598	31.96
576.938	31.95
577.278	32.18
577.618	32.13
577.958	32.03
578.298	32.29
578.638	32.41
578.977	32.46
579.317	32.52
579.657	32.45
579.996	32.88
580.336	32.96
580.675	32.96
581.014	32.94
581.354	32.91
581.693	32.87
582.032	33.37
582.372	33.26
582.711	33.13
583.05	33.38
583.389	33.12
583.728	33.4
584.067	33.16
584.406	33.64
584.745	33.45
585.083	33.25
585.422	33.22
585.761	33.44
586.1	33.57
586.438	33.68
586.777	33.69
587.115	33.45
587.454	33.71
587.792	33.82
588.13	33.66
588.469	33.69
588.807	33.65
589.145	33.77
589.483	33.75
589.821	33.84
590.159	33.9
590.497	34.07
590.835	34.02
591.173	34.23
591.511	34.18
591.849	34.16
592.187	34.05
592.524	34.05
592.862	33.8
593.2	34.19
593.537	34.18
593.875	34.33
594.212	34.43
594.55	34.38
594.887	34.79
595.224	34.59
595.561	34.37
595.899	34.38
596.236	34.8
596.573	34.2
596.91	34.4
597.247	34.61
597.584	34.78
597.921	34.36
598.258	34.64
598.594	34.47
598.931	34.53
599.268	34.44
599.604	34.47
599.941	34.82
600.277	34.92
600.614	34.75
600.95	35.08
601.287	34.94
601.623	34.99
601.959	35.72
602.296	35.58
602.632	35.08
602.968	35.49
603.304	35.09
603.64	35.21
603.976	34.99
604.312	35.22
604.648	35.38
604.984	35.63
605.319	35.2
605.655	35.24
605.991	35.43
606.326	34.99
606.662	35.08
606.998	35.34
607.333	35.32
607.668	35.49
608.004	35.54
608.339	35.61
608.674	35.97
609.01	36.23
609.345	35.87
609.68	35.96
610.015	36.12
610.35	36.27
610.685	35.74
611.02	35.83
611.355	35.82
611.689	35.9
612.024	36
612.359	35.94
612.694	36.2
613.028	36.31
613.363	36.3
613.697	36.56
614.032	36.5
614.366	36.62
614.7	36.75
615.035	36.95
615.369	36.62
615.703	37.04
616.037	36.87
616.371	36.6
616.705	36.77
617.039	37.03
617.373	36.83
617.707	37.12
618.041	36.66
618.375	36.91
618.709	36.82
619.042	37.04
619.376	36.74
619.71	37.03
620.043	37.35
620.377	37.12
620.71	37.1
621.043	37.21
621.377	37.51
621.71	37.47
622.043	37.25
622.376	37.79
622.709	37.57
623.043	37.36
623.376	38.09
623.709	37.69
624.041	37.57
624.374	37.76
624.707	37.94
625.04	38.03
625.373	37.59
625.705	37.86
626.038	37.37
626.37	37.72
626.703	37.8
627.035	37.97
627.368	38.39
627.7	37.96
628.032	38.09
628.365	37.83
628.697	38.1
629.029	38.22
629.361	38.47
629.693	37.85
630.025	38.22
630.357	38.31
630.689	38.21
631.021	38.5
631.353	39
631.684	38.38
632.016	38.63
632.348	38.41
632.679	37.89
633.011	38.23
633.342	38.28
633.674	38.48
634.005	38.71
634.336	37.97
634.668	39.07
634.999	38.62
635.33	39.2
635.661	38.77
635.992	38.39
636.323	38.74
636.654	38.61
636.985	38.8
637.316	39.15
637.647	39.33
637.977	38.56
638.308	39.31
638.639	39.04
638.969	38.96
639.3	39.4
639.63	38.93
639.961	39.36
640.291	38.85
640.622	39.45
640.952	39.76
641.282	39.52
641.612	39.11
641.943	39.41
642.273	39.23
642.603	39.47
642.933	40.35
643.263	39.78
643.592	39.88
643.922	39.87
644.252	39.67
644.582	40
644.911	39.48
645.241	39.87
645.571	39.65
645.9	40.27
646.23	40.14
646.559	40.29
646.888	40.35
647.218	39.81
647.547	39.99
647.876	40.46
648.205	40.2
648.534	40.62
648.863	39.54
649.192	39.55
649.521	40.52
649.85	39.99
650.179	40.44
650.508	40.62
650.837	40.89
651.165	40.71
651.494	40.38
651.822	39.97
652.151	40.68
652.479	40.51
652.808	40.32
653.136	40.29
653.465	40.32
653.793	40.67
654.121	40.59
654.449	40.66
654.777	40.78
655.105	40.66
655.433	40.93
655.761	41.16
656.089	41.06
656.417	41.67
656.745	41.3
657.073	40.74
657.4	41.61
657.728	40.94
658.056	41.22
658.383	40.78
658.711	41.86
659.038	41.71
659.365	41.68
659.693	41.39
660.02	41.52
660.347	40.84
660.674	41.16
661.001	41
661.329	41.55
661.656	41.43
661.982	41.19
662.309	41.7
662.636	41.54
662.963	41.73
663.29	42.12
663.616	41.69
663.943	41.85
664.27	41.71
664.596	41.67
664.923	41.66
665.249	41.74
665.576	42.15
665.902	41.64
666.228	41.78
666.554	42.62
666.881	41.8
667.207	41.82
667.533	41.85
667.859	41.88
668.185	42.09
668.511	42.76
668.837	42.38
669.162	42.65
669.488	42.12
669.814	42.7
670.139	41.88
670.465	43.1
670.791	42.09
671.116	42.01
671.442	42.38
