Data from 21-1_chest_Reflection__1__151.txt Node

Date: Thu Dec 15 17:40:45 CST 2022
User: ToomeyLab
Spectrometer: FLMS14357
Trigger mode: 0
Integration Time (sec): 1.000000E-2
Scans to average: 100
Electric dark correction enabled: true
Nonlinearity correction enabled: false
Boxcar width: 0
XAxis mode: Wavelengths
Number of Pixels in Spectrum: 2048
>>>>>Begin Spectral Data<<<<<
189.047	-163.06
189.435	-163.06
189.823	-163.06
190.211	-44.37
190.599	1224.84
190.987	45.15
191.375	924
191.763	-459.38
192.151	333.4
192.538	63.74
192.926	162.8
193.314	95.02
193.702	-81.69
194.089	-90.8
194.477	130.17
194.864	138.39
195.252	-319.18
195.639	-20.15
196.027	-1396.55
196.414	246.89
196.801	-0.42
197.189	29.28
197.576	14.64
197.963	1902.14
198.351	5.5
198.738	-145.2
199.125	-117.55
199.512	24.58
199.899	-6.06
200.286	28.76
200.673	63.58
201.06	-18.37
201.447	14.53
201.833	1.06
202.22	-16.64
202.607	-30.12
202.994	5.81
203.38	39.78
203.767	-19.41
204.154	19.02
204.54	35.89
204.927	5.81
205.313	25.04
205.699	10.27
206.086	37.89
206.472	30.26
206.858	-1.15
207.245	-10.75
207.631	2.11
208.017	38.18
208.403	-35.14
208.789	40.23
209.175	-11.15
209.561	-36.62
209.947	11.88
210.333	-2.1
210.719	23.97
211.105	28.85
211.491	22.84
211.876	-2.07
212.262	22.48
212.648	13.45
213.034	-0.07
213.419	25.64
213.805	-46.17
214.19	-23.67
214.576	20.25
214.961	-14.41
215.346	4.49
215.732	2.1
216.117	-0.84
216.502	2.34
216.888	11.4
217.273	-0.28
217.658	-26.09
218.043	0.03
218.428	-10.36
218.813	18.65
219.198	1.88
219.583	-18.94
219.968	13.73
220.353	-17.56
220.738	5.29
221.122	3.05
221.507	-6.76
221.892	-23.36
222.276	-31.61
222.661	-9.05
223.046	-19.57
223.43	7.54
223.815	-3.34
224.199	5.96
224.583	1.67
224.968	0.42
225.352	2.12
225.736	3.14
226.121	3.5
226.505	5.51
226.889	5.09
227.273	3.09
227.657	4.74
228.041	4.04
228.425	0.2
228.809	3.81
229.193	3.85
229.577	4.14
229.961	3.26
230.344	4.44
230.728	4.29
231.112	4.23
231.495	3.15
231.879	2.3
232.263	4.47
232.646	1.45
233.03	5.42
233.413	4.77
233.797	2.13
234.18	6.23
234.563	2.37
234.946	3.46
235.33	3.43
235.713	3.54
236.096	4.59
236.479	4.96
236.862	3.11
237.245	3.55
237.628	3.36
238.011	3.54
238.394	2.82
238.777	3.06
239.16	4.33
239.543	4.9
239.925	4.37
240.308	3.85
240.691	3.24
241.073	4.09
241.456	5.24
241.838	3.24
242.221	4.24
242.603	3.96
242.986	4.42
243.368	4.23
243.75	4.08
244.133	4.54
244.515	4
244.897	3.8
245.279	3.76
245.661	4.06
246.043	3.73
246.425	4.64
246.807	4.08
247.189	3.71
247.571	4.02
247.953	4.18
248.335	4.05
248.717	4.02
249.098	4.12
249.48	3.95
249.862	4.13
250.243	3.99
250.625	4.23
251.006	4.89
251.388	4.54
251.769	3.8
252.151	4.12
252.532	3.66
252.913	3.73
253.295	4.09
253.676	4.09
254.057	3.97
254.438	4.08
254.819	3.86
255.2	4.77
255.581	4.39
255.962	3.25
256.343	4.31
256.724	3.79
257.105	4.4
257.486	3.79
257.867	4.22
258.247	4.27
258.628	3.75
259.009	3.73
259.389	3.54
259.77	3.91
260.15	4.4
260.531	3.92
260.911	3.91
261.292	3.98
261.672	3.74
262.052	3.68
262.432	3.77
262.813	3.6
263.193	3.73
263.573	3.54
263.953	3.73
264.333	4.13
264.713	3.93
265.093	3.25
265.473	2.54
265.853	3.69
266.233	3.6
266.612	3.32
266.992	3.43
267.372	4.46
267.752	4.31
268.131	3.56
268.511	3.45
268.89	4.1
269.27	3.13
269.649	3.14
270.029	3.43
270.408	3.49
270.787	4.06
271.167	3.95
271.546	4.09
271.925	3.94
272.304	3.39
272.683	3.67
273.062	3.74
273.441	3.53
273.82	3.75
274.199	3.75
274.578	3.8
274.957	3.78
275.336	4.33
275.715	3.72
276.093	2.91
276.472	3.28
276.851	3.52
277.229	3.23
277.608	3.69
277.986	3.41
278.365	3.74
278.743	4.01
279.122	3.89
279.5	3.78
279.878	3.25
280.257	3.47
280.635	4.03
281.013	2.84
281.391	3.38
281.769	3.54
282.147	3.12
282.525	3.46
282.903	3.36
283.281	3.74
283.659	3.82
284.037	3.26
284.415	3.7
284.792	3.49
285.17	3.79
285.548	3.13
285.925	3.21
286.303	3.88
286.68	3.48
287.058	3.72
287.435	3.53
287.813	3.26
288.19	3.21
288.567	3.41
288.945	3.76
289.322	3.68
289.699	3.91
290.076	3.68
290.453	3.58
290.83	3.93
291.207	3.45
291.584	3.81
291.961	3.59
292.338	3.7
292.715	3.59
293.092	4
293.469	3.88
293.845	3.94
294.222	4.24
294.599	3.54
294.975	3.16
295.352	4.03
295.728	3.52
296.105	3.65
296.481	4.27
296.858	3.64
297.234	3.74
297.61	3.64
297.986	4.32
298.363	4
298.739	3.99
299.115	3.96
299.491	4.36
299.867	4.02
300.243	3.93
300.619	3.79
300.995	3.97
301.371	4
301.746	4.26
302.122	3.68
302.498	4.05
302.874	4.44
303.249	4.28
303.625	3.41
304	4.1
304.376	4.27
304.751	4.11
305.127	3.86
305.502	4.21
305.878	3.83
306.253	4.02
306.628	4.23
307.003	4.13
307.378	3.59
307.754	3.49
308.129	3.99
308.504	4.54
308.879	4.3
309.254	4.48
309.629	4.3
310.003	4.08
310.378	4.51
310.753	4.4
311.128	3.99
311.502	4.15
311.877	3.88
312.252	4
312.626	4.53
313.001	4.36
313.375	4.33
313.75	4.28
314.124	4.5
314.498	4.88
314.873	4.05
315.247	4.14
315.621	3.9
315.995	4.38
316.369	3.89
316.743	3.87
317.117	4.02
317.491	4.27
317.865	3.97
318.239	4.44
318.613	4.46
318.987	3.59
319.361	4.09
319.734	4.03
320.108	4.23
320.482	4.43
320.855	4.45
321.229	4.51
321.602	4.48
321.976	3.38
322.349	4.56
322.723	4.01
323.096	3.98
323.469	4.32
323.843	3.73
324.216	4.11
324.589	4.22
324.962	4.14
325.335	4.27
325.708	4.5
326.081	4.83
326.454	4.02
326.827	4.32
327.2	4.27
327.573	4.77
327.945	3.98
328.318	3.98
328.691	4.35
329.063	4.01
329.436	3.99
329.809	4.39
330.181	5.07
330.553	4.78
330.926	4.94
331.298	4.15
331.671	4.34
332.043	3.92
332.415	4.27
332.787	4.82
333.159	3.86
333.532	4.23
333.904	4.26
334.276	4.57
334.648	4.89
335.02	4.84
335.391	4.09
335.763	4.6
336.135	4.35
336.507	4.35
336.879	4.38
337.25	4.77
337.622	4.5
337.993	4.68
338.365	4.65
338.736	5.02
339.108	4.05
339.479	4.19
339.851	4.85
340.222	4.86
340.593	4.03
340.964	4.44
341.336	4.25
341.707	4.19
342.078	4.14
342.449	4.46
342.82	4.24
343.191	4.16
343.562	4.83
343.933	4.18
344.303	4.29
344.674	4.31
345.045	4.39
345.416	4.67
345.786	4.29
346.157	4.59
346.527	4.53
346.898	4.14
347.268	4.53
347.639	4.26
348.009	4.52
348.38	4.58
348.75	4.49
349.12	4.37
349.49	4.48
349.861	4.74
350.231	4.14
350.601	4.36
350.971	4.36
351.341	4.73
351.711	4.46
352.081	4.35
352.45	4
352.82	4.32
353.19	4.42
353.56	4.42
353.929	4.44
354.299	4.78
354.669	4.61
355.038	4.7
355.408	4.39
355.777	4.83
356.147	4.37
356.516	4.39
356.885	4.21
357.254	4.16
357.624	4.01
357.993	4.66
358.362	4.18
358.731	4.69
359.1	4.27
359.469	4.37
359.838	4.74
360.207	4.34
360.576	4.34
360.945	4.65
361.314	4.26
361.682	4.05
362.051	4.38
362.42	4.55
362.788	4.8
363.157	4.36
363.525	4.7
363.894	4.31
364.262	4.49
364.631	4.77
364.999	4.44
365.367	4.58
365.735	4.08
366.104	4.62
366.472	4.4
366.84	4.69
367.208	4.7
367.576	4.47
367.944	4.66
368.312	4.18
368.68	4.83
369.048	4.56
369.416	4.43
369.783	4.59
370.151	4.88
370.519	4.69
370.886	4.75
371.254	4.62
371.621	4.57
371.989	4.76
372.356	4.58
372.724	4.3
373.091	4.6
373.458	4.46
373.826	4.65
374.193	4.61
374.56	4.65
374.927	4.54
375.294	4.69
375.661	4.61
376.028	4.45
376.395	4.81
376.762	4.46
377.129	4.26
377.496	4.77
377.863	4.48
378.229	4.51
378.596	4.78
378.963	4.71
379.329	4.71
379.696	4.34
380.062	4.53
380.429	4.56
380.795	5.04
381.161	4.35
381.528	4.63
381.894	4.58
382.26	4.68
382.626	4.66
382.993	5.02
383.359	4.69
383.725	4.69
384.091	4.6
384.457	4.53
384.823	4.84
385.188	4.91
385.554	4.61
385.92	4.59
386.286	4.68
386.651	4.41
387.017	4.81
387.383	4.71
387.748	4.62
388.114	4.95
388.479	4.45
388.845	4.56
389.21	4.99
389.575	5.1
389.94	4.77
390.306	4.82
390.671	4.78
391.036	4.51
391.401	4.76
391.766	4.85
392.131	4.94
392.496	4.68
392.861	4.75
393.226	4.73
393.591	4.86
393.956	4.89
394.32	4.95
394.685	4.91
395.05	4.87
395.414	4.83
395.779	4.91
396.143	4.64
396.508	4.69
396.872	4.73
397.236	5.17
397.601	4.89
397.965	4.89
398.329	5.01
398.694	4.76
399.058	4.8
399.422	4.69
399.786	4.71
400.15	4.85
400.514	5
400.878	4.92
401.242	4.98
401.605	4.93
401.969	4.69
402.333	4.9
402.697	4.94
403.06	4.75
403.424	4.96
403.787	4.96
404.151	5.02
404.514	5.04
404.878	4.69
405.241	5
405.604	4.95
405.968	4.87
406.331	4.76
406.694	4.85
407.057	4.93
407.42	4.95
407.783	5.02
408.146	4.84
408.509	4.88
408.872	4.92
409.235	5.06
409.598	4.99
409.961	4.96
410.323	4.92
410.686	4.84
411.049	4.9
411.411	4.88
411.774	5
412.136	4.89
412.499	5.17
412.861	4.67
413.223	4.87
413.586	5.03
413.948	5.15
414.31	4.96
414.672	5.06
415.035	5.09
415.397	4.74
415.759	4.74
416.121	5.26
416.483	4.87
416.845	4.96
417.206	4.97
417.568	4.89
417.93	4.91
418.292	4.87
418.653	4.92
419.015	4.97
419.377	4.87
419.738	5.05
420.1	5
420.461	4.78
420.822	4.96
421.184	4.92
421.545	4.94
421.906	5.04
422.267	4.95
422.629	4.95
422.99	4.9
423.351	4.93
423.712	4.83
424.073	5
424.434	5.15
424.795	4.9
425.155	4.88
425.516	4.95
425.877	5.02
426.238	4.95
426.598	5.04
426.959	5.04
427.32	5.02
427.68	5
428.041	5.12
428.401	5.08
428.761	5.19
429.122	5.09
429.482	5.11
429.842	5.21
430.202	5.28
430.563	5.13
430.923	4.97
431.283	5.35
431.643	5.31
432.003	5.24
432.363	5.32
432.722	5.09
433.082	5.2
433.442	5.11
433.802	5.25
434.161	5.11
434.521	5.29
434.881	5.12
435.24	5.17
435.6	5.2
435.959	5.12
436.319	5.21
436.678	5.17
437.037	5.18
437.396	5.2
437.756	5.12
438.115	5.34
438.474	5.19
438.833	5.25
439.192	5.26
439.551	5.27
439.91	5.25
440.269	5.22
440.628	5.21
440.987	5.34
441.345	5.31
441.704	5.16
442.063	5.23
442.421	5.22
442.78	5.27
443.138	5.21
443.497	5.27
443.855	5.32
444.214	5.05
444.572	5.44
444.93	5.21
445.288	5.22
445.647	5.02
446.005	5.31
446.363	5.27
446.721	5.35
447.079	5.19
447.437	5.28
447.795	5.3
448.153	5.22
448.51	5.32
448.868	5.25
449.226	5.34
449.584	5.29
449.941	5.4
450.299	5.37
450.656	5.35
451.014	5.41
451.371	5.35
451.729	5.32
452.086	5.38
452.443	5.42
452.801	5.39
453.158	5.61
453.515	5.48
453.872	5.57
454.229	5.25
454.586	5.32
454.943	5.44
455.3	5.46
455.657	5.49
456.014	5.52
456.371	5.55
456.727	5.48
457.084	5.5
457.441	5.52
457.797	5.54
458.154	5.44
458.51	5.59
458.867	5.53
459.223	5.41
459.58	5.56
459.936	5.59
460.292	5.48
460.648	5.55
461.005	5.36
461.361	5.32
461.717	5.39
462.073	5.48
462.429	5.52
462.785	5.53
463.141	5.46
463.496	5.58
463.852	5.57
464.208	5.59
464.564	5.46
464.919	5.62
465.275	5.59
465.631	5.64
465.986	5.67
466.342	5.58
466.697	5.54
467.052	5.68
467.408	5.68
467.763	5.61
468.118	5.55
468.473	5.63
468.829	5.67
469.184	5.67
469.539	5.66
469.894	5.68
470.249	5.69
470.603	5.75
470.958	5.78
471.313	5.69
471.668	5.72
472.023	5.8
472.377	5.72
472.732	5.76
473.086	5.65
473.441	5.77
473.795	5.94
474.15	5.79
474.504	5.66
474.859	5.61
475.213	5.7
475.567	5.79
475.921	5.68
476.275	5.91
476.63	5.81
476.984	5.58
477.338	5.69
477.692	5.68
478.045	5.8
478.399	5.94
478.753	5.89
479.107	5.92
479.461	5.72
479.814	5.74
480.168	5.8
480.521	5.84
480.875	5.81
481.228	5.83
481.582	5.87
481.935	5.87
482.289	5.83
482.642	6.02
482.995	5.73
483.348	5.81
483.701	5.76
484.055	5.71
484.408	5.65
484.761	5.66
485.114	5.57
485.466	5.52
485.819	5.58
486.172	5.54
486.525	5.62
486.878	5.65
487.23	5.71
487.583	5.83
487.936	5.67
488.288	5.71
488.641	5.69
488.993	5.6
489.345	5.63
489.698	5.67
490.05	5.65
490.402	5.71
490.754	5.8
491.107	5.78
491.459	5.89
491.811	5.83
492.163	5.84
492.515	5.74
492.866	5.79
493.218	5.73
493.57	5.81
493.922	5.78
494.274	5.87
494.625	5.98
494.977	5.96
495.328	6.01
495.68	6.07
496.031	5.91
496.383	5.95
496.734	5.91
497.086	6.12
497.437	6.11
497.788	6.03
498.139	6.03
498.49	6.03
498.842	6.03
499.193	5.93
499.544	6.06
499.894	6
500.245	6.24
500.596	6.15
500.947	6.15
501.298	6.06
501.648	6.26
501.999	6.19
502.35	6.1
502.7	6.35
503.051	6.27
503.401	6.33
503.752	6.09
504.102	6.17
504.452	6.09
504.803	6.21
505.153	6.3
505.503	6.19
505.853	6.22
506.203	6.4
506.553	6.34
506.903	6.3
507.253	6.19
507.603	6.3
507.953	6.36
508.303	6.35
508.652	6.21
509.002	6.33
509.352	6.41
509.701	6.22
510.051	6.45
510.4	6.41
510.75	6.25
511.099	6.2
511.449	6.39
511.798	6.23
512.147	6.33
512.496	6.35
512.846	6.39
513.195	6.34
513.544	6.53
513.893	6.36
514.242	6.48
514.591	6.38
514.939	6.56
515.288	6.48
515.637	6.49
515.986	6.56
516.334	6.49
516.683	6.46
517.032	6.51
517.38	6.47
517.729	6.48
518.077	6.45
518.426	6.58
518.774	6.49
519.122	6.48
519.47	6.4
519.819	6.49
520.167	6.4
520.515	6.48
520.863	6.41
521.211	6.5
521.559	6.54
521.907	6.54
522.255	6.57
522.602	6.58
522.95	6.68
523.298	6.53
523.645	6.68
523.993	6.62
524.341	6.66
524.688	6.63
525.036	6.6
525.383	6.71
525.73	6.61
526.078	6.78
526.425	6.6
526.772	6.61
527.119	6.63
527.466	6.69
527.814	6.71
528.161	6.7
528.508	6.8
528.854	6.73
529.201	6.59
529.548	6.59
529.895	6.51
530.242	6.53
530.588	6.56
530.935	6.57
531.282	6.6
531.628	6.62
531.975	6.63
532.321	6.71
532.667	6.79
533.014	6.79
533.36	6.76
533.706	6.86
534.052	6.9
534.399	6.81
534.745	6.75
535.091	6.75
535.437	6.76
535.783	6.75
536.129	6.82
536.474	6.93
536.82	7
537.166	6.88
537.512	6.88
537.857	6.92
538.203	6.99
538.549	6.98
538.894	6.92
539.239	7.09
539.585	7.01
539.93	7.23
540.276	7.08
540.621	7.23
540.966	7.12
541.311	7.08
541.656	7.15
542.001	7.11
542.346	7.06
542.691	6.95
543.036	6.97
543.381	7.01
543.726	7.06
544.071	7.04
544.415	7.11
544.76	7.08
545.105	7.08
545.449	7.25
545.794	7.24
546.138	7.17
546.483	7.31
546.827	7.29
547.171	7.44
547.516	7.45
547.86	7.37
548.204	7.41
548.548	7.38
548.892	7.5
549.236	7.4
549.58	7.51
549.924	7.52
550.268	7.61
550.612	7.57
550.956	7.74
551.3	7.7
551.643	7.74
551.987	7.7
552.33	7.84
552.674	7.73
553.017	7.73
553.361	7.8
553.704	7.75
554.048	7.74
554.391	7.79
554.734	7.6
555.077	7.77
555.42	7.73
555.764	7.85
556.107	7.76
556.45	8
556.793	8.03
557.135	7.97
557.478	7.97
557.821	7.96
558.164	8.01
558.507	7.85
558.849	8.1
559.192	7.87
559.534	8.01
559.877	7.99
560.219	8.01
560.562	7.68
560.904	8.1
561.246	8.11
561.589	8.23
561.931	7.97
562.273	8.1
562.615	8.03
562.957	8.05
563.299	8.16
563.641	7.95
563.983	8.09
564.325	8.04
564.667	8.23
565.008	8.06
565.35	8.16
565.692	8.13
566.033	8.21
566.375	8.23
566.716	8.19
567.058	8.17
567.399	8.2
567.741	8.52
568.082	8.42
568.423	8.18
568.764	8.45
569.105	8.42
569.447	8.19
569.788	8.35
570.129	8.28
570.47	8.38
570.811	8.49
571.151	8.34
571.492	8.49
571.833	8.55
572.174	8.49
572.514	8.56
572.855	8.63
573.195	8.48
573.536	8.67
573.876	8.58
574.217	8.58
574.557	8.61
574.898	8.56
575.238	8.65
575.578	8.62
575.918	8.63
576.258	8.92
576.598	8.68
576.938	8.65
577.278	8.73
577.618	8.79
577.958	8.79
578.298	8.74
578.638	8.8
578.977	8.87
579.317	8.98
579.657	8.93
579.996	9.07
580.336	9.04
580.675	8.72
581.014	9.15
581.354	8.87
581.693	9.09
582.032	9.35
582.372	9.16
582.711	9.17
583.05	9.25
583.389	9.2
583.728	9.27
584.067	8.97
584.406	9.28
584.745	9.24
585.083	9.3
585.422	9.41
585.761	9.27
586.1	9.48
586.438	9.3
586.777	9.43
587.115	9.36
587.454	9.18
587.792	9.45
588.13	9.37
588.469	9.32
588.807	9.56
589.145	9.45
589.483	9.16
589.821	9.54
590.159	9.52
590.497	9.68
590.835	9.58
591.173	9.64
591.511	9.61
591.849	9.71
592.187	9.54
592.524	9.57
592.862	9.42
593.2	9.69
593.537	9.64
593.875	9.73
594.212	9.87
594.55	9.78
594.887	10.06
595.224	9.86
595.561	9.89
595.899	9.88
596.236	10.16
596.573	9.7
596.91	9.88
597.247	10
597.584	10.02
597.921	9.94
598.258	10.08
598.594	9.85
598.931	9.75
599.268	9.89
599.604	10.04
599.941	9.87
600.277	9.93
600.614	10.02
600.95	10.3
601.287	9.92
601.623	9.93
601.959	10.5
602.296	10.23
602.632	10.05
602.968	10.22
603.304	10.13
603.64	10.14
603.976	10.21
604.312	10.28
604.648	10.3
604.984	10.54
605.319	10.3
605.655	10.14
605.991	10.19
606.326	10.43
606.662	10.02
606.998	10.43
607.333	10.53
607.668	10.48
608.004	10.55
608.339	10.46
608.674	10.55
609.01	10.79
609.345	10.57
609.68	10.46
610.015	10.86
610.35	10.77
610.685	10.66
611.02	10.82
611.355	10.6
611.689	10.6
612.024	10.66
612.359	10.73
612.694	10.74
613.028	10.95
613.363	10.76
613.697	10.74
614.032	10.73
614.366	10.74
614.7	11.08
615.035	10.94
615.369	11.23
615.703	11.16
616.037	10.96
616.371	10.84
616.705	11.13
617.039	11.13
617.373	11.01
617.707	11.14
618.041	10.76
618.375	10.77
618.709	11.33
619.042	10.9
619.376	11.27
619.71	11.56
620.043	11.32
620.377	11.11
620.71	11.37
621.043	11.66
621.377	11.45
621.71	11.66
622.043	11.41
622.376	11.34
622.709	11.59
623.043	11.4
623.376	11.46
623.709	11.89
624.041	11.32
624.374	11.82
624.707	11.6
625.04	11.55
625.373	11.64
625.705	11.81
626.038	11.8
626.37	11.8
626.703	11.86
627.035	11.72
627.368	12.05
627.7	11.73
628.032	11.97
628.365	11.85
628.697	11.99
629.029	11.68
629.361	12.13
629.693	12.01
630.025	11.83
630.357	12.12
630.689	12.05
631.021	12.02
631.353	11.94
631.684	11.88
632.016	11.5
632.348	12.11
632.679	12.13
633.011	12.11
633.342	12.35
633.674	11.93
634.005	12.36
634.336	12.37
634.668	12.21
634.999	12.38
635.33	12.24
635.661	12.27
635.992	12.45
636.323	12.44
636.654	12.28
636.985	12.37
637.316	12.46
637.647	12.18
637.977	12.46
638.308	12.58
638.639	12.43
638.969	12.26
639.3	12.43
639.63	12.83
639.961	12.77
640.291	12.17
640.622	12.81
640.952	12.53
641.282	12.29
641.612	12.54
641.943	12.46
642.273	12.58
642.603	13.02
642.933	12.95
643.263	13.33
643.592	12.89
643.922	12.99
644.252	12.61
644.582	12.87
644.911	12.69
645.241	12.77
645.571	12.95
645.9	13.05
646.23	12.77
646.559	12.72
646.888	13.28
647.218	13.21
647.547	13.39
647.876	12.99
648.205	12.85
648.534	13.1
648.863	12.86
649.192	13.38
649.521	13.25
649.85	13.51
650.179	12.9
650.508	12.91
650.837	13.55
651.165	13.42
651.494	13.57
651.822	13.57
652.151	13.24
652.479	13.54
652.808	13.33
653.136	13.4
653.465	13.39
653.793	13.47
654.121	13.75
654.449	13.32
654.777	13.2
655.105	13.54
655.433	14.12
655.761	13.17
656.089	13.54
656.417	13.72
656.745	13.91
657.073	13.45
657.4	13.48
657.728	13.12
658.056	13.73
658.383	13.69
658.711	13.97
659.038	14.4
659.365	14.23
659.693	13.95
660.02	13.98
660.347	14.14
660.674	13.74
661.001	13.95
661.329	13.86
661.656	14.01
661.982	13.68
662.309	13.93
662.636	13.77
662.963	13.95
663.29	14.36
663.616	14.15
663.943	13.68
664.27	13.93
664.596	13.85
664.923	14.41
665.249	14.41
665.576	14.34
665.902	14.12
666.228	14.46
666.554	15.05
666.881	14.22
667.207	14.65
667.533	14.41
667.859	14.03
668.185	14.76
668.511	14.73
668.837	14.53
669.162	14.04
669.488	14.06
669.814	14.6
670.139	13.91
670.465	14.96
670.791	14.56
671.116	14.3
671.442	14.06
671.767	14.52
672.092	14.56
672.418	15.03
672.743	14.67
673.068	14.98
673.393	14.66
673.718	14.08
674.043	15.19
674.368	14.44
674.693	14.82
675.018	15.36
675.343	15.1
675.667	14.82
675.992	14.89
676.317	14.35
676.641	14.82
676.966	14.88
677.29	14.84
677.615	14.77
677.939	15.16
678.264	14.78
678.588	14.4
678.912	15.22
679.236	14.98
679.56	14.27
679.885	14.65
680.209	15.48
680.532	15.46
680.856	15.65
681.18	15.6
681.504	14.98
681.828	14.64
682.152	15.47
682.475	15.43
682.799	14.94
683.122	15.23
683.446	14.58
683.769	15.77
684.093	15.98
684.416	15.42
684.739	15.58
685.062	15.36
685.386	15.49
685.709	15.15
686.032	15.56
686.355	16
