Data from 21-1_chest_Reflection__0__150.txt Node

Date: Thu Dec 15 17:40:25 CST 2022
User: ToomeyLab
Spectrometer: FLMS14357
Trigger mode: 0
Integration Time (sec): 1.000000E-2
Scans to average: 100
Electric dark correction enabled: true
Nonlinearity correction enabled: false
Boxcar width: 0
XAxis mode: Wavelengths
Number of Pixels in Spectrum: 2048
>>>>>Begin Spectral Data<<<<<
189.047	-51.97
189.435	-51.97
189.823	-51.97
190.211	-78.45
190.599	789.17
190.987	73.55
191.375	1221.6
191.763	-194.77
192.151	59.22
192.538	75.68
192.926	57.93
193.314	391.87
193.702	387.87
194.089	-124.4
194.477	193.06
194.864	135.28
195.252	-657.08
195.639	98.85
196.027	-5051.72
196.414	14.02
196.801	26.65
197.189	40.61
197.576	65.7
197.963	-226.2
198.351	-27.2
198.738	-36.55
199.125	-46.32
199.512	11.52
199.899	-32.42
200.286	6.01
200.673	40.69
201.06	-40.91
201.447	-2.43
201.833	-7.37
202.22	-33.43
202.607	-37.85
202.994	19.86
203.38	52.9
203.767	35.91
204.154	18.42
204.54	17.23
204.927	-10.43
205.313	45.3
205.699	53.31
206.086	22.81
206.472	33.88
206.858	-3.55
207.245	5.38
207.631	-5.71
208.017	37.32
208.403	-82.58
208.789	16.31
209.175	-8.29
209.561	-45.71
209.947	-54.63
210.333	1.73
210.719	-4.62
211.105	32.09
211.491	21.57
211.876	-2.72
212.262	18.45
212.648	26.5
213.034	1.39
213.419	10.79
213.805	-26.69
214.19	-15.89
214.576	-35.22
214.961	4.06
215.346	9.78
215.732	-6.11
216.117	12.49
216.502	-16.41
216.888	-7.24
217.273	-16.12
217.658	16.91
218.043	-11.8
218.428	-26.1
218.813	11.78
219.198	-5.88
219.583	17.34
219.968	15.37
220.353	-5.14
220.738	-7.81
221.122	-9.14
221.507	-12.95
221.892	-15.53
222.276	-20.81
222.661	-1.52
223.046	-14.04
223.43	11.71
223.815	-2.21
224.199	1.64
224.583	-0.66
224.968	4.69
225.352	-4.67
225.736	17.61
226.121	0.25
226.505	3.7
226.889	2.18
227.273	0.5
227.657	6.91
228.041	1.9
228.425	-0.33
228.809	3.34
229.193	3.24
229.577	1.46
229.961	3.11
230.344	3.24
230.728	3.11
231.112	3.32
231.495	1.63
231.879	1.98
232.263	2.56
232.646	2.72
233.03	4.52
233.413	2.98
233.797	1.55
234.18	3.53
234.563	2.97
234.946	2.08
235.33	1.86
235.713	3.32
236.096	3.46
236.479	3.2
236.862	0.77
237.245	2.11
237.628	3.87
238.011	4.01
238.394	3.22
238.777	4.31
239.16	3.24
239.543	3.16
239.925	2.39
240.308	3.72
240.691	2.16
241.073	2.64
241.456	1.71
241.838	3.34
242.221	3.58
242.603	3.46
242.986	3.25
243.368	3.17
243.75	3.29
244.133	3.66
244.515	2.93
244.897	3.22
245.279	3.08
245.661	3.31
246.043	2.71
246.425	3.27
246.807	3.24
247.189	2.95
247.571	2.75
247.953	2.98
248.335	3.2
248.717	3.17
249.098	3.07
249.48	3.07
249.862	2.8
250.243	3.02
250.625	3.61
251.006	3.41
251.388	3.21
251.769	2.18
252.151	3.22
252.532	2.06
252.913	3.11
253.295	2.96
253.676	3.12
254.057	3.19
254.438	3.05
254.819	2.9
255.2	3.17
255.581	2.55
255.962	4.13
256.343	2.63
256.724	3.75
257.105	3.19
257.486	1.93
257.867	2.36
258.247	3.11
258.628	3.34
259.009	2.42
259.389	1.46
259.77	2.54
260.15	3.27
260.531	2.91
260.911	2.77
261.292	3
261.672	2.88
262.052	2.84
262.432	2.72
262.813	2.85
263.193	3.18
263.573	2.68
263.953	2.76
264.333	3.02
264.713	3.4
265.093	3.32
265.473	2.54
265.853	2.37
266.233	2.51
266.612	2.3
266.992	2.76
267.372	3
267.752	2.93
268.131	2.49
268.511	2.81
268.89	3.29
269.27	2.33
269.649	2.76
270.029	2.55
270.408	3.09
270.787	2.91
271.167	3.02
271.546	3.25
271.925	2.79
272.304	2.64
272.683	2.47
273.062	2.56
273.441	2.51
273.82	2.7
274.199	2.6
274.578	2.69
274.957	2.56
275.336	2.99
275.715	3.32
276.093	2.1
276.472	2.76
276.851	2.78
277.229	2.66
277.608	2.11
277.986	2.87
278.365	3.26
278.743	2.52
279.122	2.12
279.5	2.14
279.878	2.16
280.257	2.54
280.635	3.44
281.013	2.12
281.391	2.24
281.769	2.88
282.147	2.57
282.525	2.37
282.903	2.46
283.281	3.09
283.659	2.99
284.037	2.65
284.415	2.65
284.792	2.89
285.17	2.59
285.548	2.6
285.925	2.35
286.303	2.98
286.68	2.81
287.058	3.22
287.435	2.75
287.813	2.75
288.19	2.53
288.567	2.6
288.945	2.79
289.322	3.08
289.699	3.23
290.076	2.87
290.453	2.73
290.83	3
291.207	2.47
291.584	3.13
291.961	3
292.338	2.7
292.715	2.68
293.092	3.31
293.469	2.92
293.845	3.29
294.222	3.37
294.599	2.79
294.975	1.98
295.352	2.74
295.728	2.99
296.105	2.68
296.481	2.79
296.858	2.81
297.234	2.3
297.61	3.11
297.986	3.11
298.363	3.09
298.739	3.16
299.115	2.89
299.491	3.16
299.867	2.95
300.243	2.78
300.619	2.9
300.995	3.13
301.371	3.04
301.746	3.05
302.122	2.28
302.498	3.15
302.874	3.07
303.249	3.31
303.625	2.75
304	2.79
304.376	3.38
304.751	2.97
305.127	2.53
305.502	2.9
305.878	3.37
306.253	2.91
306.628	2.84
307.003	2.95
307.378	2.79
307.754	2.92
308.129	2.87
308.504	3.1
308.879	2.83
309.254	3.41
309.629	3.21
310.003	2.78
310.378	3.16
310.753	3
311.128	3.11
311.502	3.3
311.877	2.92
312.252	3.56
312.626	3.51
313.001	3.07
313.375	3.26
313.75	3.18
314.124	3.62
314.498	2.96
314.873	2.77
315.247	3.09
315.621	2.92
315.995	3.28
316.369	2.65
316.743	2.97
317.117	3
317.491	3.33
317.865	2.54
318.239	3.28
318.613	3.24
318.987	2.8
319.361	3.46
319.734	3.55
320.108	3.25
320.482	3.46
320.855	2.78
321.229	3.12
321.602	3.54
321.976	2.74
322.349	3.59
322.723	3.49
323.096	3.65
323.469	3.08
323.843	2.9
324.216	3.27
324.589	3.2
324.962	3.38
325.335	3.39
325.708	3.14
326.081	3.12
326.454	3.32
326.827	2.81
327.2	2.75
327.573	3.69
327.945	3.04
328.318	3.29
328.691	3.36
329.063	3.08
329.436	3
329.809	3.27
330.181	3.87
330.553	3.24
330.926	3.59
331.298	2.93
331.671	3.47
332.043	3.08
332.415	3.4
332.787	3.28
333.159	3.32
333.532	3.26
333.904	3.3
334.276	3.42
334.648	3.1
335.02	3.12
335.391	2.85
335.763	3.1
336.135	3.77
336.507	3.05
336.879	2.96
337.25	3.58
337.622	3.24
337.993	3.36
338.365	3.49
338.736	3.69
339.108	3.13
339.479	2.91
339.851	3.31
340.222	3.67
340.593	3.31
340.964	3.25
341.336	3.38
341.707	3.29
342.078	3.18
342.449	3.28
342.82	3.58
343.191	2.89
343.562	3.57
343.933	3.04
344.303	3.46
344.674	3.26
345.045	3.27
345.416	3.99
345.786	3.19
346.157	3.37
346.527	3.09
346.898	2.66
347.268	3.57
347.639	2.76
348.009	3.32
348.38	3.1
348.75	3.27
349.12	3.41
349.49	3.52
349.861	3.83
350.231	3.27
350.601	3.38
350.971	3.16
351.341	3.14
351.711	3.4
352.081	3.22
352.45	3.08
352.82	2.62
353.19	2.7
353.56	2.93
353.929	3.52
354.299	3.52
354.669	3.11
355.038	3.31
355.408	3.31
355.777	3.3
356.147	3.19
356.516	3.09
356.885	3.21
357.254	3.2
357.624	2.8
357.993	3.11
358.362	3.36
358.731	3.78
359.1	3.23
359.469	3.38
359.838	3.35
360.207	3.24
360.576	3.25
360.945	3.38
361.314	3.26
361.682	2.91
362.051	3.34
362.42	3.23
362.788	3.4
363.157	3.21
363.525	3.36
363.894	3.2
364.262	3.24
364.631	3.38
364.999	3.22
365.367	3.25
365.735	3.19
366.104	3.07
366.472	3.22
366.84	3.46
367.208	3.66
367.576	3.5
367.944	3.4
368.312	3
368.68	3.52
369.048	3.15
369.416	2.97
369.783	3.36
370.151	3.3
370.519	3.56
370.886	3.33
371.254	3.39
371.621	3.27
371.989	3.62
372.356	3.06
372.724	3.25
373.091	3.27
373.458	3.31
373.826	3.54
374.193	3.24
374.56	3.19
374.927	3.19
375.294	3.24
375.661	3.6
376.028	3.07
376.395	3.52
376.762	3.22
377.129	3.09
377.496	3.46
377.863	3.44
378.229	3.33
378.596	3.52
378.963	3.31
379.329	3.43
379.696	3.2
380.062	3.3
380.429	3.41
380.795	3.63
381.161	3.12
381.528	3.19
381.894	3.27
382.26	3.19
382.626	3.32
382.993	3.66
383.359	3.33
383.725	3.08
384.091	3.21
384.457	3.26
384.823	3.44
385.188	3.23
385.554	3.32
385.92	3.12
386.286	3.44
386.651	3.31
387.017	3.7
387.383	3.59
387.748	3.64
388.114	3.56
388.479	3.22
388.845	3.4
389.21	3.56
389.575	3.78
389.94	3.53
390.306	3.45
390.671	3.36
391.036	3.33
391.401	3.69
391.766	3.35
392.131	3.53
392.496	3.47
392.861	3.22
393.226	3.4
393.591	3.42
393.956	3.41
394.32	3.39
394.685	3.27
395.05	3.43
395.414	3.5
395.779	3.7
396.143	3.21
396.508	3.47
396.872	3.27
397.236	3.72
397.601	3.45
397.965	3.43
398.329	3.35
398.694	3.21
399.058	3.33
399.422	3.36
399.786	3.22
400.15	3.41
400.514	3.4
400.878	3.46
401.242	3.46
401.605	3.39
401.969	3.24
402.333	3.27
402.697	3.4
403.06	3.5
403.424	3.33
403.787	3.31
404.151	3.63
404.514	3.55
404.878	3.31
405.241	3.41
405.604	3.31
405.968	3.39
406.331	3.42
406.694	3.36
407.057	3.28
407.42	3.44
407.783	3.51
408.146	3.26
408.509	3.48
408.872	3.57
409.235	3.64
409.598	3.27
409.961	3.62
410.323	3.13
410.686	3.31
411.049	3.47
411.411	3.24
411.774	3.36
412.136	3.28
412.499	3.47
412.861	3.12
413.223	3.36
413.586	3.34
413.948	3.68
414.31	3.56
414.672	3.49
415.035	3.56
415.397	3.55
415.759	3.25
416.121	3.55
416.483	3.68
416.845	3.23
417.206	3.38
417.568	3.48
417.93	3.51
418.292	3.36
418.653	3.28
419.015	3.51
419.377	3.32
419.738	3.68
420.1	3.33
420.461	3.38
420.822	3.35
421.184	3.39
421.545	3.53
421.906	3.4
422.267	3.3
422.629	3.37
422.99	3.38
423.351	3.4
423.712	3.44
424.073	3.44
424.434	3.58
424.795	3.32
425.155	3.38
425.516	3.37
425.877	3.46
426.238	3.48
426.598	3.44
426.959	3.43
427.32	3.38
427.68	3.6
428.041	3.55
428.401	3.42
428.761	3.64
429.122	3.54
429.482	3.53
429.842	3.63
430.202	3.62
430.563	3.49
430.923	3.65
431.283	3.58
431.643	3.55
432.003	3.57
432.363	3.78
432.722	3.57
433.082	3.37
433.442	3.66
433.802	3.54
434.161	3.57
434.521	3.62
434.881	3.51
435.24	3.63
435.6	3.66
435.959	3.75
436.319	3.61
436.678	3.66
437.037	3.57
437.396	3.65
437.756	3.49
438.115	3.58
438.474	3.78
438.833	3.71
439.192	3.53
439.551	3.53
439.91	3.71
440.269	3.68
440.628	3.53
440.987	3.65
441.345	3.65
441.704	3.64
442.063	3.64
442.421	3.64
442.78	3.62
443.138	3.59
443.497	3.6
443.855	3.81
444.214	3.47
444.572	3.82
444.93	3.67
445.288	3.72
445.647	3.59
446.005	3.76
446.363	3.64
446.721	3.67
447.079	3.58
447.437	3.63
447.795	3.76
448.153	3.66
448.51	3.73
448.868	3.63
449.226	3.67
449.584	3.65
449.941	3.67
450.299	3.69
450.656	3.81
451.014	3.84
451.371	3.77
451.729	3.75
452.086	3.78
452.443	3.85
452.801	3.67
453.158	3.85
453.515	3.69
453.872	3.8
454.229	3.61
454.586	3.63
454.943	3.65
455.3	3.8
455.657	3.68
456.014	3.81
456.371	3.77
456.727	3.86
457.084	3.98
457.441	3.82
457.797	3.71
458.154	3.69
458.51	3.73
458.867	3.81
459.223	3.76
459.58	3.81
459.936	3.87
460.292	3.75
460.648	3.61
461.005	3.74
461.361	3.71
461.717	3.78
462.073	3.93
462.429	3.92
462.785	3.95
463.141	3.84
463.496	3.87
463.852	3.86
464.208	3.88
464.564	3.7
464.919	3.92
465.275	3.96
465.631	3.98
465.986	3.99
466.342	3.74
466.697	3.75
467.052	3.9
467.408	3.97
467.763	3.77
468.118	3.76
468.473	4.01
468.829	3.95
469.184	3.82
469.539	3.67
469.894	3.98
470.249	3.91
470.603	4.06
470.958	3.94
471.313	3.94
471.668	3.93
472.023	3.89
472.377	3.88
472.732	4.07
473.086	3.88
473.441	3.92
473.795	4.11
474.15	3.87
474.504	3.82
474.859	3.92
475.213	3.95
475.567	3.88
475.921	4.03
476.275	4.08
476.63	3.96
476.984	3.78
477.338	4.11
477.692	3.98
478.045	4.05
478.399	3.92
478.753	3.95
479.107	3.99
479.461	3.94
479.814	4.08
480.168	4.09
480.521	4.09
480.875	4.12
481.228	4.08
481.582	3.97
481.935	4.1
482.289	4.02
482.642	4.14
482.995	4
483.348	3.89
483.701	3.94
484.055	3.99
484.408	3.87
484.761	3.86
485.114	3.78
485.466	3.75
485.819	3.77
486.172	3.74
486.525	3.82
486.878	3.91
487.23	3.93
487.583	3.91
487.936	3.87
488.288	3.92
488.641	3.89
488.993	3.84
489.345	3.82
489.698	3.85
490.05	3.87
490.402	3.87
490.754	3.9
491.107	3.91
491.459	4.03
491.811	4
492.163	4.04
492.515	3.97
492.866	3.91
493.218	3.91
493.57	3.99
493.922	3.96
494.274	4.06
494.625	4.08
494.977	4.07
495.328	4.19
495.68	4.13
496.031	4.07
496.383	4.14
496.734	4.04
497.086	4.18
497.437	4.1
497.788	4.15
498.139	4.14
498.49	4.04
498.842	4.1
499.193	4.11
499.544	4.11
499.894	4.2
500.245	4.21
500.596	4.21
500.947	4.13
501.298	4.21
501.648	4.22
501.999	4.39
502.35	4.07
502.7	4.27
503.051	4.08
503.401	4.34
503.752	4.2
504.102	4.21
504.452	4.21
504.803	4.19
505.153	4.34
505.503	4.29
505.853	4.22
506.203	4.3
506.553	4.26
506.903	4.37
507.253	4.14
507.603	4.34
507.953	4.37
508.303	4.33
508.652	4.09
509.002	4.36
509.352	4.42
509.701	4.31
510.051	4.35
510.4	4.39
510.75	4.23
511.099	4.23
511.449	4.3
511.798	4.33
512.147	4.22
512.496	4.31
512.846	4.31
513.195	4.36
513.544	4.44
513.893	4.24
514.242	4.3
514.591	4.35
514.939	4.33
515.288	4.38
515.637	4.36
515.986	4.43
516.334	4.37
516.683	4.36
517.032	4.39
517.38	4.29
517.729	4.31
518.077	4.43
518.426	4.41
518.774	4.37
519.122	4.47
519.47	4.4
519.819	4.42
520.167	4.4
520.515	4.36
520.863	4.32
521.211	4.36
521.559	4.41
521.907	4.52
522.255	4.37
522.602	4.45
522.95	4.52
523.298	4.5
523.645	4.54
523.993	4.39
524.341	4.51
524.688	4.53
525.036	4.46
525.383	4.57
525.73	4.45
526.078	4.57
526.425	4.55
526.772	4.47
527.119	4.52
527.466	4.51
527.814	4.51
528.161	4.58
528.508	4.55
528.854	4.44
529.201	4.47
529.548	4.42
529.895	4.36
530.242	4.37
530.588	4.39
530.935	4.44
531.282	4.43
531.628	4.44
531.975	4.55
532.321	4.59
532.667	4.6
533.014	4.69
533.36	4.63
533.706	4.72
534.052	4.67
534.399	4.61
534.745	4.51
535.091	4.52
535.437	4.57
535.783	4.64
536.129	4.65
536.474	4.7
536.82	4.85
537.166	4.75
537.512	4.63
537.857	4.7
538.203	4.66
538.549	4.69
538.894	4.68
539.239	4.67
539.585	4.8
539.93	4.87
540.276	4.85
540.621	4.9
540.966	4.82
541.311	4.87
541.656	4.81
542.001	4.78
542.346	4.76
542.691	4.72
543.036	4.65
543.381	4.72
543.726	4.74
544.071	4.81
544.415	4.8
544.76	4.82
545.105	4.83
545.449	4.81
545.794	4.87
546.138	4.89
546.483	5.09
546.827	5
547.171	5.13
547.516	5.01
547.86	5.07
548.204	5.05
548.548	4.96
548.892	5.02
549.236	5.03
549.58	5.09
549.924	5.11
550.268	5.2
550.612	5.16
550.956	5.31
551.3	5.33
551.643	5.24
551.987	5.18
552.33	5.42
552.674	5.15
553.017	5.31
553.361	5.41
553.704	5.34
554.048	5.17
554.391	5.31
554.734	5.07
555.077	5.34
555.42	5.29
555.764	5.2
556.107	5.32
556.45	5.43
556.793	5.43
557.135	5.56
557.478	5.25
557.821	5.52
558.164	5.5
558.507	5.35
558.849	5.5
559.192	5.44
559.534	5.58
559.877	5.44
560.219	5.47
560.562	5.55
560.904	5.58
561.246	5.58
561.589	5.67
561.931	5.49
562.273	5.51
562.615	5.59
562.957	5.54
563.299	5.65
563.641	5.56
563.983	5.45
564.325	5.59
564.667	5.57
565.008	5.69
565.35	5.6
565.692	5.73
566.033	5.75
566.375	5.69
566.716	5.58
567.058	5.85
567.399	5.94
567.741	5.61
568.082	5.69
568.423	5.71
568.764	5.85
569.105	5.92
569.447	5.64
569.788	5.85
570.129	5.85
570.47	5.85
570.811	5.9
571.151	5.93
571.492	5.95
571.833	5.9
572.174	6.07
572.514	5.9
572.855	5.97
573.195	5.82
573.536	6.01
573.876	5.95
574.217	6.01
574.557	6.03
574.898	6.03
575.238	6.18
575.578	6.18
575.918	5.97
576.258	6.23
576.598	6.16
576.938	6.03
577.278	6.27
577.618	6.17
577.958	6.24
578.298	6
578.638	6.17
578.977	6.38
579.317	6.16
579.657	6.23
579.996	6.52
580.336	6.66
580.675	6.15
581.014	6.44
581.354	6.28
581.693	6.54
582.032	6.58
582.372	6.53
582.711	6.59
583.05	6.44
583.389	6.52
583.728	6.45
584.067	6.4
584.406	6.64
584.745	6.53
585.083	6.57
585.422	6.74
585.761	6.73
586.1	6.72
586.438	6.61
586.777	6.44
587.115	6.6
587.454	6.54
587.792	6.71
588.13	6.66
588.469	6.76
588.807	6.74
589.145	6.87
589.483	6.71
589.821	6.87
590.159	6.92
590.497	6.86
590.835	6.8
591.173	6.96
591.511	6.91
591.849	6.78
592.187	6.76
592.524	7
592.862	6.75
593.2	7.08
593.537	7.1
593.875	6.93
594.212	7.07
594.55	7.02
594.887	7.05
595.224	7.36
595.561	7.03
595.899	6.92
596.236	7.14
596.573	6.89
596.91	7.15
597.247	7.27
597.584	7.3
597.921	7.12
598.258	7.32
598.594	7.18
598.931	6.99
599.268	7.13
599.604	7.29
599.941	7.45
600.277	7.38
600.614	7.19
600.95	7.25
601.287	7.35
601.623	7.12
601.959	7.77
602.296	7.41
602.632	7.57
602.968	7.36
603.304	7.63
603.64	7.34
603.976	7.54
604.312	7.56
604.648	7.43
604.984	7.64
605.319	7.67
605.655	7.7
605.991	7.56
606.326	7.65
606.662	7.56
606.998	7.81
607.333	7.75
607.668	7.63
608.004	7.71
608.339	7.7
608.674	7.9
609.01	8.05
609.345	8.01
609.68	7.85
610.015	7.82
610.35	8
610.685	7.76
611.02	7.67
611.355	7.81
611.689	8.06
612.024	8.09
612.359	8
612.694	8.13
613.028	7.9
613.363	8.19
613.697	8.19
614.032	8.19
614.366	8.3
614.7	8.41
615.035	8.18
615.369	8.38
615.703	8.6
616.037	8.32
616.371	8.02
616.705	8.59
617.039	8.44
617.373	8.29
617.707	8.17
618.041	8.02
618.375	8.01
618.709	8.4
619.042	8.36
619.376	8.5
619.71	8.48
620.043	8.95
620.377	8.29
620.71	8.76
621.043	8.8
621.377	8.85
621.71	8.77
622.043	8.93
622.376	8.71
622.709	8.88
623.043	8.77
623.376	8.75
623.709	8.93
624.041	8.4
624.374	8.84
624.707	8.84
625.04	8.5
625.373	9.05
625.705	8.82
626.038	9.09
626.37	8.89
626.703	8.91
627.035	9.14
627.368	8.82
627.7	8.8
628.032	9.22
628.365	9.36
628.697	9.49
629.029	9.21
629.361	9.2
629.693	9.32
630.025	9.24
630.357	9.47
630.689	9.42
631.021	9.39
631.353	9.25
631.684	9.31
632.016	9.13
632.348	9
632.679	9.17
633.011	9.44
633.342	9.19
633.674	9.38
634.005	9.6
634.336	9.7
634.668	9.46
634.999	9.45
635.33	9.76
635.661	9.96
635.992	9.62
636.323	9.76
636.654	9.58
636.985	9.77
637.316	9.87
637.647	9.81
637.977	9.45
638.308	10.09
638.639	9.68
638.969	9.61
639.3	10.04
639.63	10.2
639.961	9.85
640.291	9.99
640.622	10.18
640.952	10.1
641.282	9.67
641.612	10.35
641.943	10.36
642.273	9.89
642.603	10.39
642.933	10.1
643.263	10.37
643.592	10.5
643.922	10.78
644.252	10.16
644.582	10.3
644.911	10.1
645.241	10.15
645.571	10.33
645.9	10.56
646.23	10.88
646.559	10.15
646.888	10.91
647.218	10.75
647.547	10.17
647.876	10.56
648.205	10.07
648.534	9.96
648.863	10.47
649.192	10.73
649.521	10.54
649.85	10.85
650.179	10.62
650.508	10.63
650.837	10.92
651.165	10.97
651.494	10.63
651.822	10.93
652.151	10.68
652.479	10.87
652.808	10.76
653.136	10.51
653.465	10.51
653.793	10.95
654.121	11.13
654.449	10.89
654.777	10.99
655.105	11.15
655.433	11.19
655.761	10.93
656.089	11.12
656.417	11.38
656.745	11.36
657.073	10.92
657.4	11.44
657.728	11.09
658.056	11.07
658.383	11.4
658.711	11.08
659.038	11.64
659.365	11.85
659.693	11.4
660.02	11.32
660.347	11.65
660.674	11.56
661.001	11.49
661.329	11.21
661.656	11.47
661.982	11.4
662.309	11.25
662.636	11.4
662.963	11.46
663.29	11.96
663.616	11.93
663.943	11.76
664.27	12.02
664.596	11.73
664.923	11.96
665.249	12.36
665.576	11.74
665.902	11.85
666.228	11.82
666.554	12.17
666.881	11.33
667.207	11.73
667.533	12.21
667.859	11.96
668.185	11.74
668.511	12.21
668.837	12.38
669.162	12.44
669.488	12.02
669.814	12.39
670.139	11.77
670.465	12.55
670.791	11.95
671.116	12.34
671.442	11.69
671.767	12.01
672.092	12.28
672.418	12.86
672.743	12.33
673.068	12.54
673.393	12.64
673.718	12.53
674.043	12.62
674.368	12.4
674.693	13.3
675.018	13.11
675.343	12.53
675.667	12.81
675.992	12.45
676.317	12.18
676.641	12.81
676.966	12.53
677.29	12.34
677.615	13.02
677.939	13
678.264	12.37
678.588	13.37
678.912	13.49
679.236	12.95
679.56	12.63
679.885	13.04
680.209	13.23
680.532	13.56
680.856	13.54
681.18	13.87
681.504	12.72
681.828	12.39
682.152	13.01
682.475	12.75
682.799	13.43
683.122	13.63
683.446	12.48
683.769	13.2
684.093	13.13
684.416	13.14
684.739	13.24
685.062	13.74
685.386	13.36
685.709	13.46
686.032	13.19
686.355	13.62
686.678	14.05
687.001	13.14
687.324	13.8
687.646	13.55
687.969	13.49
688.292	13.68
688.614	14.42
688.937	14.33
689.26	13.58
