Data from 21-1_forehead_Reflection__2__163.txt Node

Date: Thu Dec 15 17:45:24 CST 2022
User: ToomeyLab
Spectrometer: FLMS14357
Trigger mode: 0
Integration Time (sec): 1.000000E-2
Scans to average: 100
Electric dark correction enabled: true
Nonlinearity correction enabled: false
Boxcar width: 0
XAxis mode: Wavelengths
Number of Pixels in Spectrum: 2048
>>>>>Begin Spectral Data<<<<<
189.047	5.91
189.435	5.91
189.823	5.91
190.211	39.91
190.599	1135.99
190.987	56.08
191.375	-282
191.763	-598.31
192.151	40.49
192.538	9.2
192.926	202.23
193.314	78.93
193.702	-227.12
194.089	72.19
194.477	152.8
194.864	-24.44
195.252	-686.53
195.639	176.26
196.027	853.45
196.414	-99.58
196.801	175.73
197.189	71.65
197.576	68.25
197.963	-145.19
198.351	-2.91
198.738	96.28
199.125	-37.91
199.512	17.04
199.899	12.07
200.286	-2.02
200.673	57.61
201.06	-27.42
201.447	30.01
201.833	-6.73
202.22	27.25
202.607	13.82
202.994	5.74
203.38	-0.45
203.767	48.68
204.154	17.22
204.54	24.04
204.927	25.98
205.313	61.76
205.699	29.89
206.086	23.43
206.472	35.1
206.858	15.7
207.245	6.64
207.631	29.54
208.017	51.58
208.403	1.42
208.789	8.76
209.175	-30.09
209.561	-34.11
209.947	19.52
210.333	17.98
210.719	5.33
211.105	21.57
211.491	49.13
211.876	9.03
212.262	44.87
212.648	34.35
213.034	24.27
213.419	11.56
213.805	-6.77
214.19	0.1
214.576	2.05
214.961	3.48
215.346	-2.97
215.732	34.52
216.117	7.64
216.502	6.38
216.888	22.55
217.273	2.29
217.658	4.89
218.043	-11.05
218.428	-4.94
218.813	30.47
219.198	-9.06
219.583	15.72
219.968	3.35
220.353	-7.33
220.738	6.25
221.122	2.83
221.507	8.3
221.892	-20.01
222.276	-21.54
222.661	-6.05
223.046	-2.13
223.43	21.15
223.815	7.42
224.199	15.27
224.583	7.01
224.968	3.05
225.352	-5.89
225.736	12.59
226.121	-3.73
226.505	7.1
226.889	0.93
227.273	-1.01
227.657	1.05
228.041	5.28
228.425	0.53
228.809	-1.01
229.193	1.87
229.577	2.54
229.961	2.36
230.344	3.4
230.728	2.46
231.112	3.09
231.495	1.99
231.879	3.68
232.263	2.73
232.646	1.64
233.03	3
233.413	2.49
233.797	1.69
234.18	0.92
234.563	2.89
234.946	2.59
235.33	2.41
235.713	3.08
236.096	3.01
236.479	3.56
236.862	2.57
237.245	3.45
237.628	3.21
238.011	3.73
238.394	1.31
238.777	2.43
239.16	3.53
239.543	1.88
239.925	2.16
240.308	1.05
240.691	1.77
241.073	2.31
241.456	3.73
241.838	2.24
242.221	2.34
242.603	2.42
242.986	2.05
243.368	2.31
243.75	2.72
244.133	2.94
244.515	2.77
244.897	1.96
245.279	2.33
245.661	2.11
246.043	2.81
246.425	2.99
246.807	2.77
247.189	2.75
247.571	1.88
247.953	2.21
248.335	2.61
248.717	2.54
249.098	2.41
249.48	2.4
249.862	2.64
250.243	2.83
250.625	2.54
251.006	3.1
251.388	3.32
251.769	2.58
252.151	3.61
252.532	2.16
252.913	2.68
253.295	2.85
253.676	2.52
254.057	2.17
254.438	2.17
254.819	2.72
255.2	3.23
255.581	3.46
255.962	2.78
256.343	2.76
256.724	3.35
257.105	1.9
257.486	2.42
257.867	1.94
258.247	2.63
258.628	3.28
259.009	2.58
259.389	1.97
259.77	2.75
260.15	2.93
260.531	3.12
260.911	2.43
261.292	2.65
261.672	2.4
262.052	2.63
262.432	2.51
262.813	2.59
263.193	2.51
263.573	3.1
263.953	2.6
264.333	2.85
264.713	2.87
265.093	2.75
265.473	1.94
265.853	2.56
266.233	3.22
266.612	1.96
266.992	2.84
267.372	2.77
267.752	3.01
268.131	2.61
268.511	2.51
268.89	2.84
269.27	2.19
269.649	2.7
270.029	2.05
270.408	2.14
270.787	2.65
271.167	2.35
271.546	2.67
271.925	2.72
272.304	2.35
272.683	2.38
273.062	2.28
273.441	2.04
273.82	2.88
274.199	2.25
274.578	2.69
274.957	2.52
275.336	2.96
275.715	3.17
276.093	2.06
276.472	2.07
276.851	2.56
277.229	2.6
277.608	2.46
277.986	2.77
278.365	2.82
278.743	2.44
279.122	2.24
279.5	2.3
279.878	2.57
280.257	2.5
280.635	2.62
281.013	2.17
281.391	2.67
281.769	3
282.147	2.56
282.525	1.85
282.903	1.74
283.281	2.69
283.659	2.8
284.037	2.46
284.415	2.44
284.792	2.46
285.17	2.4
285.548	2.82
285.925	2.21
286.303	2.83
286.68	2.41
287.058	2.41
287.435	2.36
287.813	2.54
288.19	2.53
288.567	2.5
288.945	1.96
289.322	2.76
289.699	2.95
290.076	2.47
290.453	2.32
290.83	2.62
291.207	2.55
291.584	2.86
291.961	2.55
292.338	2.34
292.715	2.73
293.092	3.15
293.469	2.91
293.845	2.77
294.222	3.49
294.599	2.22
294.975	2.39
295.352	2.79
295.728	3
296.105	2.71
296.481	3.17
296.858	2.67
297.234	2.57
297.61	2.84
297.986	3.31
298.363	3.28
298.739	3.28
299.115	3.08
299.491	3.37
299.867	3.39
300.243	3.18
300.619	2.94
300.995	3.21
301.371	3.57
301.746	3.31
302.122	3.05
302.498	3.36
302.874	3.51
303.249	3.12
303.625	3.1
304	3.25
304.376	3.85
304.751	3.71
305.127	3.63
305.502	3.58
305.878	3.9
306.253	3.22
306.628	4.06
307.003	3.85
307.378	3.74
307.754	3.89
308.129	3.85
308.504	4.03
308.879	4.08
309.254	4.16
309.629	3.94
310.003	3.67
310.378	4.79
310.753	4.11
311.128	4.68
311.502	4.22
311.877	4.13
312.252	4.53
312.626	4.58
313.001	4.44
313.375	4.8
313.75	4.55
314.124	4.74
314.498	4.65
314.873	4.52
315.247	4.75
315.621	4.6
315.995	4.64
316.369	4.67
316.743	4.85
317.117	4.7
317.491	5.13
317.865	4.46
318.239	5.65
318.613	4.96
318.987	4.91
319.361	5.17
319.734	5.41
320.108	5.69
320.482	5.4
320.855	5.72
321.229	5.7
321.602	5.76
321.976	5.31
322.349	5.9
322.723	5.33
323.096	5.93
323.469	5.71
323.843	5.68
324.216	5.85
324.589	5.41
324.962	5.84
325.335	5.33
325.708	5.54
326.081	6.08
326.454	6.1
326.827	5.96
327.2	5.5
327.573	6.61
327.945	6.23
328.318	5.78
328.691	6.14
329.063	5.75
329.436	5.99
329.809	6.89
330.181	6.49
330.553	6.69
330.926	6.7
331.298	5.42
331.671	6.7
332.043	6.48
332.415	6.32
332.787	6.35
333.159	5.95
333.532	6.37
333.904	6.15
334.276	6.55
334.648	6.68
335.02	6.45
335.391	6.18
335.763	6.91
336.135	7.2
336.507	6.51
336.879	6.99
337.25	6.82
337.622	6.81
337.993	6.84
338.365	6.67
338.736	6.95
339.108	6.7
339.479	6.76
339.851	7.13
340.222	7.25
340.593	6.91
340.964	7.08
341.336	6.79
341.707	7.17
342.078	7.12
342.449	7.18
342.82	7.44
343.191	7.29
343.562	7.66
343.933	7.26
344.303	7.88
344.674	7.33
345.045	7.37
345.416	7.66
345.786	7.43
346.157	7.53
346.527	7.39
346.898	7.11
347.268	7.51
347.639	7.27
348.009	7.69
348.38	7.35
348.75	7.88
349.12	7.55
349.49	7.86
349.861	7.84
350.231	7.64
350.601	7.54
350.971	7.86
351.341	7.93
351.711	8.01
352.081	7.44
352.45	7.77
352.82	7.6
353.19	7.76
353.56	8.12
353.929	7.99
354.299	8.27
354.669	8.28
355.038	8.43
355.408	7.99
355.777	8.39
356.147	8.46
356.516	8.08
356.885	8.35
357.254	8.17
357.624	7.98
357.993	8.29
358.362	8.37
358.731	8.82
359.1	8.1
359.469	8.38
359.838	8.51
360.207	8.3
360.576	8.63
360.945	8.47
361.314	8.35
361.682	8.59
362.051	8.61
362.42	8.71
362.788	8.73
363.157	8.33
363.525	8.77
363.894	8.45
364.262	8.7
364.631	8.98
364.999	8.74
365.367	8.79
365.735	8.82
366.104	8.76
366.472	8.81
366.84	8.95
367.208	9.1
367.576	9.25
367.944	8.91
368.312	9.03
368.68	9.26
369.048	9.52
369.416	9.07
369.783	9.18
370.151	9.57
370.519	9.61
370.886	9.42
371.254	9.44
371.621	9.48
371.989	9.53
372.356	9.67
372.724	9.37
373.091	9.2
373.458	9.59
373.826	9.69
374.193	9.65
374.56	9.75
374.927	9.6
375.294	9.73
375.661	10.13
376.028	9.73
376.395	9.62
376.762	9.81
377.129	9.45
377.496	10.04
377.863	10.08
378.229	10.38
378.596	10.61
378.963	9.86
379.329	10.24
379.696	10.01
380.062	10.13
380.429	10.1
380.795	10.31
381.161	9.76
381.528	10.01
381.894	10.22
382.26	10.14
382.626	10.17
382.993	10.55
383.359	10.17
383.725	10.22
384.091	10.27
384.457	10.08
384.823	10.35
385.188	10.55
385.554	10.44
385.92	10.53
386.286	10.59
386.651	10.44
387.017	10.72
387.383	10.58
387.748	10.66
388.114	10.96
388.479	10.45
388.845	10.2
389.21	10.77
389.575	10.9
389.94	10.84
390.306	10.75
390.671	10.91
391.036	10.74
391.401	10.99
391.766	10.9
392.131	11.09
392.496	10.99
392.861	10.78
393.226	10.59
393.591	10.87
393.956	11
394.32	11.06
394.685	11.13
395.05	10.95
395.414	10.94
395.779	11.24
396.143	10.96
396.508	10.94
396.872	10.98
397.236	11.32
397.601	11.4
397.965	11.29
398.329	11.28
398.694	11.03
399.058	11.2
399.422	11.24
399.786	10.99
400.15	11.28
400.514	11.19
400.878	11.1
401.242	11.38
401.605	11.3
401.969	11.33
402.333	11.12
402.697	11.58
403.06	11.12
403.424	11.35
403.787	11.23
404.151	11.49
404.514	11.21
404.878	11.33
405.241	11.2
405.604	11.31
405.968	11.4
406.331	11.39
406.694	11.18
407.057	11.34
407.42	11.2
407.783	11.33
408.146	11.37
408.509	11.5
408.872	11.31
409.235	11.32
409.598	11.41
409.961	11.57
410.323	11.3
410.686	11.35
411.049	11.27
411.411	11.36
411.774	11.37
412.136	11.54
412.499	11.67
412.861	11.25
413.223	11.35
413.586	11.73
413.948	11.81
414.31	11.58
414.672	11.35
415.035	11.79
415.397	11.72
415.759	11.75
416.121	11.91
416.483	11.69
416.845	11.61
417.206	11.95
417.568	11.74
417.93	11.82
418.292	11.94
418.653	11.75
419.015	11.92
419.377	11.85
419.738	11.98
420.1	11.88
420.461	11.84
420.822	11.98
421.184	12
421.545	12.26
421.906	12.17
422.267	12.1
422.629	12.08
422.99	12.21
423.351	12.28
423.712	12.37
424.073	12.59
424.434	12.65
424.795	12.6
425.155	12.63
425.516	12.5
425.877	12.85
426.238	12.69
426.598	12.83
426.959	13.03
427.32	12.9
427.68	13.03
428.041	13.25
428.401	13.21
428.761	13.52
429.122	13.56
429.482	13.53
429.842	13.72
430.202	13.79
430.563	13.69
430.923	14.01
431.283	14.02
431.643	13.89
432.003	14.11
432.363	14.06
432.722	14.05
433.082	14.19
433.442	14.31
433.802	14.21
434.161	14.36
434.521	14.35
434.881	14.35
435.24	14.45
435.6	14.48
435.959	14.59
436.319	14.64
436.678	14.72
437.037	14.77
437.396	14.72
437.756	14.73
438.115	15.01
438.474	14.88
438.833	15.06
439.192	14.96
439.551	15.05
439.91	15.12
440.269	15.09
440.628	15.18
440.987	15.2
441.345	15.15
441.704	15.32
442.063	15.19
442.421	15.26
442.78	15.31
443.138	15.46
443.497	15.49
443.855	15.62
444.214	15.41
444.572	15.86
444.93	15.94
445.288	15.81
445.647	15.62
446.005	15.82
446.363	15.8
446.721	15.88
447.079	15.88
447.437	15.85
447.795	15.92
448.153	15.82
448.51	15.89
448.868	15.9
449.226	16.03
449.584	16.26
449.941	16.17
450.299	16.26
450.656	16.42
451.014	16.6
451.371	16.7
451.729	16.47
452.086	16.5
452.443	16.68
452.801	16.68
453.158	17.05
453.515	16.84
453.872	16.71
454.229	16.79
454.586	16.78
454.943	16.98
455.3	17.16
455.657	17.09
456.014	17.21
456.371	17.12
456.727	17.54
457.084	17.43
457.441	17.46
457.797	17.34
458.154	17.61
458.51	17.41
458.867	17.58
459.223	17.53
459.58	17.51
459.936	17.58
460.292	17.55
460.648	17.59
461.005	17.48
461.361	17.56
461.717	17.58
462.073	17.52
462.429	17.83
462.785	17.82
463.141	18.01
463.496	18.12
463.852	18.29
464.208	18.34
464.564	18.03
464.919	18.27
465.275	18.49
465.631	18.47
465.986	18.44
466.342	18.27
466.697	18.49
467.052	18.68
467.408	18.57
467.763	18.64
468.118	18.65
468.473	18.84
468.829	18.75
469.184	18.87
469.539	18.8
469.894	19.11
470.249	19.03
470.603	19.05
470.958	19.19
471.313	19.26
471.668	19.14
472.023	18.98
472.377	19.38
472.732	19.24
473.086	19.36
473.441	19.3
473.795	19.64
474.15	19.55
474.504	19.63
474.859	19.38
475.213	19.58
475.567	19.63
475.921	19.49
476.275	19.76
476.63	19.91
476.984	19.55
477.338	20
477.692	19.67
478.045	19.93
478.399	20
478.753	19.99
479.107	19.94
479.461	19.89
479.814	19.87
480.168	20.13
480.521	20.16
480.875	20.07
481.228	20.15
481.582	20.14
481.935	20.18
482.289	20.1
482.642	20.34
482.995	20.25
483.348	20.1
483.701	20.23
484.055	20.13
484.408	19.88
484.761	19.76
485.114	19.58
485.466	19.52
485.819	19.6
486.172	19.59
486.525	19.74
486.878	19.92
487.23	20
487.583	20.19
487.936	20.23
488.288	20.18
488.641	20.16
488.993	20.01
489.345	20.03
489.698	20.08
490.05	20.06
490.402	20.19
490.754	20.37
491.107	20.62
491.459	20.76
491.811	20.77
492.163	20.92
492.515	20.84
492.866	20.63
493.218	20.61
493.57	20.66
493.922	20.73
494.274	20.87
494.625	21.12
494.977	21.34
495.328	21.49
495.68	21.61
496.031	21.64
496.383	21.45
496.734	21.7
497.086	21.83
497.437	21.89
497.788	21.89
498.139	21.73
498.49	21.76
498.842	21.79
499.193	21.87
499.544	21.92
499.894	22
500.245	22.11
500.596	22.2
500.947	22.24
501.298	22.14
501.648	22.42
501.999	22.46
502.35	22.33
502.7	22.65
503.051	22.53
503.401	22.45
503.752	22.7
504.102	22.67
504.452	22.78
504.803	22.69
505.153	22.72
505.503	22.65
505.853	22.85
506.203	22.89
506.553	22.8
506.903	22.84
507.253	23.01
507.603	22.99
507.953	23.14
508.303	23.16
508.652	23.18
509.002	23.23
509.352	23.15
509.701	23.08
510.051	23.17
510.4	23.18
510.75	23.1
511.099	23.12
511.449	23.31
511.798	23.1
512.147	23.33
512.496	23.44
512.846	23.45
513.195	23.32
513.544	23.51
513.893	23.52
514.242	23.37
514.591	23.48
514.939	23.59
515.288	23.64
515.637	23.66
515.986	23.75
516.334	23.82
516.683	23.85
517.032	23.78
517.38	23.93
517.729	23.96
518.077	23.87
518.426	24
518.774	23.87
519.122	23.94
519.47	23.7
519.819	23.77
520.167	23.65
520.515	23.86
520.863	23.78
521.211	23.98
521.559	23.9
521.907	24.16
522.255	24.16
522.602	24.31
522.95	24.35
523.298	24.45
523.645	24.5
523.993	24.52
524.341	24.54
524.688	24.68
525.036	24.56
525.383	24.79
525.73	24.68
526.078	24.69
526.425	24.48
526.772	24.37
527.119	24.51
527.466	24.45
527.814	24.47
528.161	24.51
528.508	24.47
528.854	24.39
529.201	24.36
529.548	24.25
529.895	24.05
530.242	24.17
530.588	24.17
530.935	24.23
531.282	24.24
531.628	24.39
531.975	24.49
532.321	24.67
532.667	24.87
533.014	24.98
533.36	24.95
533.706	25.04
534.052	25.01
534.399	24.78
534.745	24.73
535.091	24.75
535.437	24.8
535.783	25.02
536.129	25.07
536.474	25.27
536.82	25.44
537.166	25.39
537.512	25.47
537.857	25.49
538.203	25.45
538.549	25.52
538.894	25.74
539.239	25.73
539.585	25.74
539.93	25.98
540.276	25.96
540.621	26.03
540.966	26.21
541.311	26.33
541.656	26.13
542.001	25.92
542.346	25.8
542.691	25.6
543.036	25.54
543.381	25.66
543.726	25.74
544.071	25.7
544.415	25.92
544.76	26.01
545.105	26.03
545.449	26.26
545.794	26.37
546.138	26.37
546.483	26.58
546.827	26.56
547.171	26.54
547.516	26.92
547.86	26.63
548.204	26.71
548.548	26.77
548.892	26.81
549.236	26.9
549.58	27.14
549.924	27.2
550.268	27.46
550.612	27.51
550.956	27.67
551.3	27.71
551.643	27.69
551.987	27.76
552.33	27.91
552.674	27.81
553.017	27.83
553.361	27.9
553.704	28.14
554.048	27.6
554.391	27.86
554.734	27.64
555.077	27.88
555.42	27.93
555.764	28.09
556.107	28.1
556.45	28.18
556.793	28.12
557.135	28.19
557.478	28.29
557.821	28.42
558.164	28.56
558.507	28.46
558.849	28.59
559.192	28.67
559.534	28.8
559.877	28.59
560.219	28.68
560.562	28.88
560.904	28.84
561.246	28.85
561.589	28.92
561.931	29.02
562.273	28.75
562.615	28.94
562.957	29.01
563.299	28.92
563.641	28.9
563.983	28.87
564.325	29.08
564.667	29.1
565.008	29.1
565.35	29.09
565.692	29.14
566.033	29.47
566.375	29.48
566.716	29.19
567.058	29.32
567.399	29.33
567.741	29.31
568.082	29.23
568.423	29.38
568.764	29.32
569.105	29.39
569.447	29.34
569.788	29.75
570.129	29.6
570.47	29.58
570.811	29.76
571.151	29.63
571.492	29.84
571.833	29.76
572.174	29.83
572.514	29.81
572.855	30.01
573.195	29.93
573.536	29.89
573.876	29.69
574.217	29.88
574.557	29.87
574.898	30.13
575.238	30.03
575.578	30.21
575.918	30.3
576.258	30.21
576.598	30.39
576.938	30.29
577.278	30.33
577.618	30.44
577.958	30.47
578.298	30.58
578.638	30.69
578.977	30.64
579.317	30.69
579.657	30.92
579.996	30.78
580.336	31.24
580.675	30.86
581.014	31.15
581.354	31.13
581.693	31.23
582.032	31.45
582.372	31.47
582.711	31.33
583.05	31.51
583.389	31.59
583.728	31.43
584.067	31.44
584.406	31.46
584.745	31.62
585.083	31.6
585.422	31.69
585.761	31.92
586.1	31.82
586.438	31.98
586.777	31.89
587.115	32.08
587.454	31.8
587.792	31.87
588.13	31.93
588.469	31.97
588.807	32
589.145	32.04
589.483	31.82
589.821	31.88
590.159	32.11
590.497	32.22
590.835	32.3
591.173	32.39
591.511	32.52
591.849	32.48
592.187	32.21
592.524	32.58
592.862	32.29
593.2	32.67
593.537	32.32
593.875	32.65
594.212	32.75
594.55	32.67
594.887	33.1
595.224	32.86
595.561	32.81
595.899	32.82
596.236	33.23
596.573	32.7
596.91	32.71
597.247	32.79
597.584	33.03
597.921	32.87
598.258	33.05
598.594	32.97
598.931	32.79
599.268	32.56
599.604	33.06
599.941	32.94
600.277	33.33
600.614	33.41
600.95	33.25
601.287	33.35
601.623	33.41
601.959	33.92
602.296	33.62
602.632	33.63
602.968	33.54
603.304	33.74
603.64	33.52
603.976	33.4
604.312	33.81
604.648	33.66
604.984	33.8
605.319	33.63
605.655	33.58
605.991	33.74
606.326	33.86
606.662	33.64
606.998	33.68
607.333	33.85
607.668	33.82
608.004	33.91
608.339	33.96
608.674	34.11
609.01	34.6
609.345	34.53
609.68	34.22
610.015	34.39
610.35	34.45
610.685	34.21
611.02	34.4
611.355	34.3
611.689	34.54
612.024	34.59
612.359	34.56
612.694	34.8
613.028	34.73
613.363	34.89
613.697	34.98
614.032	35.17
614.366	35.26
614.7	35.26
615.035	35.06
615.369	35.25
615.703	35.42
616.037	34.96
616.371	35.21
616.705	35.15
617.039	35.34
617.373	35.34
617.707	35.34
618.041	35.35
618.375	35.04
618.709	35.7
619.042	35.64
619.376	35.09
619.71	35.7
620.043	35.74
620.377	35.83
620.71	35.85
621.043	35.81
621.377	35.66
621.71	36.06
622.043	35.78
622.376	36.1
622.709	36.08
623.043	36.23
623.376	36.45
623.709	36.12
624.041	36.08
624.374	36.09
624.707	36.43
625.04	36.32
625.373	36.74
625.705	36.33
626.038	36.25
626.37	36.2
626.703	36.69
627.035	36.57
627.368	36.81
627.7	36.55
628.032	36.85
628.365	36.57
628.697	36.79
629.029	36.61
629.361	36.71
629.693	36.59
630.025	36.49
630.357	36.57
630.689	36.96
631.021	37.08
631.353	37.41
631.684	36.93
632.016	37.01
632.348	37.01
632.679	36.82
633.011	37.07
633.342	37.06
633.674	37.31
634.005	37.57
634.336	37.04
634.668	37.62
634.999	37.7
635.33	37.42
635.661	37.36
635.992	37.52
636.323	37.5
636.654	37.24
636.985	37.41
637.316	37.43
637.647	37.54
637.977	37.54
638.308	37.81
638.639	37.95
638.969	37.92
639.3	38.19
639.63	37.62
639.961	37.87
640.291	37.88
640.622	38.14
640.952	38.03
641.282	37.9
641.612	38.33
641.943	37.91
642.273	38.07
642.603	38.35
642.933	38.26
643.263	38.53
643.592	37.94
643.922	38.56
644.252	38.18
644.582	38.67
644.911	38.07
645.241	38.85
645.571	38.83
645.9	38.52
646.23	38.73
646.559	38.62
646.888	38.78
647.218	39.18
647.547	38.86
647.876	39.09
648.205	38.31
648.534	39.44
648.863	38.52
649.192	38.94
649.521	38.96
649.85	39.03
650.179	39.08
650.508	39.34
650.837	39.39
651.165	39.47
651.494	39.03
651.822	39.51
652.151	39.45
652.479	39.69
652.808	38.91
653.136	38.9
653.465	39.65
653.793	39.88
654.121	39.81
654.449	39.03
654.777	39.65
655.105	39.7
655.433	39.62
655.761	39.83
656.089	39.68
656.417	40
656.745	40.47
657.073	39.21
657.4	39.99
657.728	39.58
658.056	39.46
658.383	40.12
658.711	40.18
659.038	40.35
659.365	40.3
659.693	40.48
660.02	40.55
660.347	39.91
660.674	39.95
661.001	40.42
661.329	40.1
661.656	40.33
661.982	40.11
662.309	39.97
662.636	40.3
662.963	40.42
663.29	40.34
663.616	40.43
663.943	40.81
664.27	40.43
664.596	40.44
664.923	41.07
665.249	40.95
665.576	40.7
665.902	41.01
666.228	40.5
666.554	41.05
666.881	40.31
667.207	40.93
667.533	40.71
667.859	40.57
668.185	40.78
668.511	40.63
668.837	40.78
669.162	41.12
669.488	40.48
669.814	42.06
670.139	40.95
670.465	41.26
670.791	40.2
671.116	41.25
671.442	40.91
671.767	41.06
672.092	41.29
672.418	41.23
672.743	41.23
673.068	41.13
