Data from 21-1_chest_Reflection__2__152.txt Node

Date: Thu Dec 15 17:40:56 CST 2022
User: ToomeyLab
Spectrometer: FLMS14357
Trigger mode: 0
Integration Time (sec): 1.000000E-2
Scans to average: 100
Electric dark correction enabled: true
Nonlinearity correction enabled: false
Boxcar width: 0
XAxis mode: Wavelengths
Number of Pixels in Spectrum: 2048
>>>>>Begin Spectral Data<<<<<
189.047	-54.63
189.435	-54.63
189.823	-54.63
190.211	99.9
190.599	247.13
190.987	-23.94
191.375	892.8
191.763	-358.15
192.151	255.53
192.538	2.39
192.926	130.57
193.314	284.72
193.702	114.42
194.089	-100.8
194.477	146.91
194.864	52.77
195.252	-969.86
195.639	154.93
196.027	-11131.03
196.414	42.71
196.801	-123.31
197.189	50.23
197.576	-111.2
197.963	168.98
198.351	8.42
198.738	-14.08
199.125	-91.58
199.512	28.93
199.899	-75.44
200.286	-19.74
200.673	50.13
201.06	-30.18
201.447	2.24
201.833	20.61
202.22	33.96
202.607	-1.5
202.994	47.07
203.38	27.5
203.767	-12.51
204.154	34.04
204.54	32.84
204.927	10.36
205.313	7.66
205.699	-10.03
206.086	15.88
206.472	31.9
206.858	10.76
207.245	11.78
207.631	21.51
208.017	27.15
208.403	-61.2
208.789	-17.78
209.175	-17.43
209.561	-61.37
209.947	-20
210.333	-21.5
210.719	-11.04
211.105	17.88
211.491	10.24
211.876	-35.51
212.262	-6.49
212.648	5.7
213.034	-7.07
213.419	-12.63
213.805	-29.44
214.19	-3.86
214.576	-21.84
214.961	12.66
215.346	-9.65
215.732	-6.64
216.117	-0.3
216.502	-8.5
216.888	16.57
217.273	-0.42
217.658	6.79
218.043	-7.05
218.428	-14.47
218.813	12.08
219.198	-14
219.583	-10.89
219.968	4.05
220.353	-29.35
220.738	11.41
221.122	-22.31
221.507	-14.05
221.892	-31.08
222.276	-27.28
222.661	-22.88
223.046	-22.84
223.43	10.74
223.815	-0.69
224.199	-10.85
224.583	-4.68
224.968	-5.12
225.352	-3.73
225.736	4.91
226.121	-5.85
226.505	-4.48
226.889	2.86
227.273	-2.72
227.657	4.11
228.041	-4.62
228.425	-1.09
228.809	-1.67
229.193	0.04
229.577	-0.7
229.961	-0.03
230.344	1.03
230.728	1.74
231.112	1.65
231.495	0.28
231.879	0.68
232.263	0.4
232.646	-0.24
233.03	0.09
233.413	0.84
233.797	0.83
234.18	0.58
234.563	1.02
234.946	-0.49
235.33	0.13
235.713	1.48
236.096	1.61
236.479	2.24
236.862	-0.07
237.245	-0.13
237.628	1.69
238.011	1.62
238.394	0.44
238.777	1.54
239.16	0.79
239.543	1.55
239.925	1.11
240.308	-0.32
240.691	0.12
241.073	-0.16
241.456	2.08
241.838	0.8
242.221	2.07
242.603	1.21
242.986	1.02
243.368	1.28
243.75	1.33
244.133	1.3
244.515	1.42
244.897	1.58
245.279	0.76
245.661	0.53
246.043	1.39
246.425	1.26
246.807	1.37
247.189	0.66
247.571	0.79
247.953	1.4
248.335	1.43
248.717	1.52
249.098	1.46
249.48	1.53
249.862	1.66
250.243	1.68
250.625	1.27
251.006	1.56
251.388	1.45
251.769	0.56
252.151	2.06
252.532	1.27
252.913	1.25
253.295	1.4
253.676	1.68
254.057	1.68
254.438	1
254.819	1.25
255.2	1.97
255.581	2.37
255.962	1.14
256.343	2.76
256.724	2.42
257.105	1.74
257.486	0.01
257.867	0.83
258.247	1.43
258.628	1.88
259.009	0.48
259.389	0.66
259.77	1.72
260.15	2.12
260.531	1.34
260.911	1.18
261.292	1.62
261.672	1.51
262.052	1.49
262.432	1.09
262.813	0.89
263.193	1.42
263.573	0.55
263.953	0.39
264.333	1.45
264.713	1.43
265.093	1.58
265.473	1.14
265.853	1.24
266.233	1.46
266.612	0.33
266.992	1.43
267.372	1.18
267.752	1.89
268.131	1.01
268.511	1.51
268.89	1.58
269.27	1.02
269.649	1.38
270.029	1.19
270.408	0.93
270.787	1.42
271.167	0.99
271.546	1.99
271.925	1.21
272.304	0.88
272.683	1.31
273.062	1.25
273.441	1.06
273.82	1.31
274.199	1.05
274.578	1.54
274.957	1.13
275.336	1.5
275.715	1.69
276.093	1.05
276.472	0.89
276.851	1.06
277.229	1.22
277.608	0.77
277.986	1.25
278.365	2.1
278.743	1.59
279.122	0.87
279.5	0.87
279.878	0.83
280.257	1.03
280.635	1.63
281.013	0.39
281.391	1.34
281.769	1.44
282.147	1.31
282.525	1.11
282.903	1.09
283.281	1.47
283.659	1.52
284.037	1.19
284.415	1.62
284.792	1.25
285.17	1.21
285.548	1.37
285.925	1.23
286.303	1.99
286.68	1.31
287.058	1.38
287.435	1.23
287.813	1.78
288.19	1.07
288.567	1.12
288.945	1.25
289.322	1.65
289.699	1.61
290.076	1.35
290.453	1.14
290.83	1.61
291.207	1.29
291.584	1.66
291.961	1.73
292.338	1.33
292.715	1.53
293.092	1.85
293.469	1.32
293.845	1.43
294.222	1.72
294.599	1.45
294.975	1.02
295.352	2.28
295.728	1.68
296.105	1.45
296.481	1.81
296.858	1.89
297.234	1.46
297.61	1.8
297.986	2.09
298.363	1.85
298.739	1.89
299.115	1.57
299.491	2.02
299.867	1.69
300.243	1.59
300.619	1.32
300.995	1.87
301.371	1.68
301.746	2.22
302.122	1.73
302.498	1.95
302.874	1.89
303.249	1.75
303.625	1.26
304	1.83
304.376	1.85
304.751	1.96
305.127	1.48
305.502	1.94
305.878	1.96
306.253	1.53
306.628	1.95
307.003	1.64
307.378	1.74
307.754	1.86
308.129	1.58
308.504	1.84
308.879	2.23
309.254	2.37
309.629	2.15
310.003	1.64
310.378	2.18
310.753	1.87
311.128	1.63
311.502	1.92
311.877	1.88
312.252	2.07
312.626	2.41
313.001	2.13
313.375	2.24
313.75	2.1
314.124	2.36
314.498	2.17
314.873	2.18
315.247	2.15
315.621	1.41
315.995	1.93
316.369	2.01
316.743	1.64
317.117	2.27
317.491	2.2
317.865	1.89
318.239	2.19
318.613	2.15
318.987	1.54
319.361	1.97
319.734	1.87
320.108	2.2
320.482	1.91
320.855	2.4
321.229	1.92
321.602	2.53
321.976	1.79
322.349	2.07
322.723	2.48
323.096	2.53
323.469	2.16
323.843	2.21
324.216	2.17
324.589	2.14
324.962	2.2
325.335	1.91
325.708	2.08
326.081	2.53
326.454	2.28
326.827	2.1
327.2	1.85
327.573	2.46
327.945	2.06
328.318	2.21
328.691	1.94
329.063	1.57
329.436	1.58
329.809	2.27
330.181	3.13
330.553	2.46
330.926	2.64
331.298	2.16
331.671	2.37
332.043	2.33
332.415	2.1
332.787	2.36
333.159	2.06
333.532	2.37
333.904	2.12
334.276	2.72
334.648	2.27
335.02	2.15
335.391	2.26
335.763	2.5
336.135	2.53
336.507	2.03
336.879	2.21
337.25	1.97
337.622	2.52
337.993	1.93
338.365	2.17
338.736	2.15
339.108	2.25
339.479	2.33
339.851	2.52
340.222	2.39
340.593	2.12
340.964	2.33
341.336	2.04
341.707	2.22
342.078	2.39
342.449	2.91
342.82	2.61
343.191	2.31
343.562	2.48
343.933	2.07
344.303	2.03
344.674	2.3
345.045	2.16
345.416	2.81
345.786	2.53
346.157	2.57
346.527	2.5
346.898	2.21
347.268	2.41
347.639	1.94
348.009	2.65
348.38	2.02
348.75	2.53
349.12	3
349.49	2.25
349.861	2.66
350.231	2.17
350.601	2.3
350.971	2.2
351.341	2.85
351.711	2.61
352.081	2.35
352.45	1.81
352.82	1.7
353.19	2.22
353.56	2.29
353.929	2.01
354.299	2.47
354.669	2.62
355.038	2.52
355.408	2.31
355.777	2.6
356.147	2.24
356.516	2.53
356.885	2.5
357.254	2.09
357.624	2.21
357.993	2.5
358.362	2.33
358.731	2.85
359.1	2.48
359.469	2.61
359.838	2.36
360.207	2.46
360.576	2.49
360.945	2.54
361.314	2.42
361.682	2.4
362.051	2.41
362.42	2.44
362.788	2.48
363.157	2.39
363.525	2.52
363.894	2.3
364.262	2.43
364.631	2.58
364.999	2.4
365.367	2.13
365.735	2.15
366.104	2.44
366.472	2.64
366.84	2.63
367.208	2.71
367.576	2.64
367.944	2.4
368.312	2.54
368.68	2.84
369.048	2.52
369.416	2.47
369.783	2.75
370.151	3.09
370.519	2.92
370.886	2.72
371.254	2.46
371.621	2.57
371.989	2.58
372.356	2.65
372.724	2.42
373.091	2.53
373.458	2.47
373.826	2.83
374.193	2.77
374.56	2.71
374.927	2.74
375.294	3.07
375.661	2.76
376.028	2.28
376.395	2.71
376.762	2.38
377.129	2.58
377.496	2.53
377.863	2.82
378.229	2.86
378.596	2.78
378.963	2.54
379.329	2.77
379.696	2.44
380.062	2.52
380.429	2.27
380.795	3.02
381.161	2.51
381.528	2.33
381.894	2.53
382.26	2.75
382.626	2.86
382.993	2.78
383.359	2.48
383.725	2.25
384.091	2.83
384.457	2.5
384.823	2.67
385.188	2.71
385.554	2.75
385.92	2.73
386.286	2.48
386.651	2.63
387.017	2.84
387.383	2.6
387.748	2.9
388.114	2.85
388.479	2.54
388.845	2.63
389.21	2.78
389.575	3.16
389.94	2.9
390.306	3.11
390.671	2.89
391.036	2.63
391.401	2.78
391.766	2.78
392.131	2.96
392.496	2.9
392.861	2.65
393.226	2.66
393.591	2.82
393.956	2.94
394.32	2.99
394.685	2.69
395.05	2.85
395.414	2.65
395.779	3
396.143	2.75
396.508	2.82
396.872	2.79
397.236	3.01
397.601	2.97
397.965	2.74
398.329	2.81
398.694	2.79
399.058	2.94
399.422	2.83
399.786	2.66
400.15	2.69
400.514	2.91
400.878	2.85
401.242	2.78
401.605	2.86
401.969	2.75
402.333	2.77
402.697	2.98
403.06	2.79
403.424	3.01
403.787	3.05
404.151	2.95
404.514	3.04
404.878	2.81
405.241	2.68
405.604	2.85
405.968	2.9
406.331	2.88
406.694	2.98
407.057	2.72
407.42	2.89
407.783	2.82
408.146	2.93
408.509	2.99
408.872	2.94
409.235	3
409.598	2.89
409.961	2.99
410.323	2.74
410.686	2.92
411.049	2.9
411.411	2.8
411.774	2.85
412.136	2.94
412.499	3.06
412.861	2.66
413.223	3.01
413.586	3
413.948	3.27
414.31	2.99
414.672	2.96
415.035	3.06
415.397	2.69
415.759	2.78
416.121	3.1
416.483	3
416.845	2.81
417.206	2.99
417.568	2.79
417.93	3
418.292	2.88
418.653	2.91
419.015	2.86
419.377	2.97
419.738	2.97
420.1	3
420.461	2.87
420.822	2.89
421.184	3
421.545	2.97
421.906	2.9
422.267	2.88
422.629	2.89
422.99	2.9
423.351	2.95
423.712	2.9
424.073	2.94
424.434	3.03
424.795	2.84
425.155	2.94
425.516	2.96
425.877	2.91
426.238	2.86
426.598	2.96
426.959	2.93
427.32	2.84
427.68	3.02
428.041	3.14
428.401	2.88
428.761	3.16
429.122	3.04
429.482	2.97
429.842	3.11
430.202	3.16
430.563	3.05
430.923	2.96
431.283	3.2
431.643	3.26
432.003	3.15
432.363	3.12
432.722	3.25
433.082	3.1
433.442	3.04
433.802	3.06
434.161	2.97
434.521	3.06
434.881	3.19
435.24	3.11
435.6	3.17
435.959	3.18
436.319	3.07
436.678	3.09
437.037	3.15
437.396	3.21
437.756	3.14
438.115	3.17
438.474	3.23
438.833	3.2
439.192	3.18
439.551	3.11
439.91	3.2
440.269	3.12
440.628	3.09
440.987	3.15
441.345	3.13
441.704	3.07
442.063	3.2
442.421	3.17
442.78	3.15
443.138	3.2
443.497	3.15
443.855	3.25
444.214	2.93
444.572	3.24
444.93	3.26
445.288	3.12
445.647	3.11
446.005	3.17
446.363	3.14
446.721	3.23
447.079	3.05
447.437	3.12
447.795	3.19
448.153	3.15
448.51	3.14
448.868	3.13
449.226	3.11
449.584	3.24
449.941	3.3
450.299	3.26
450.656	3.29
451.014	3.31
451.371	3.24
451.729	3.26
452.086	3.28
452.443	3.29
452.801	3.26
453.158	3.36
453.515	3.17
453.872	3.22
454.229	3.12
454.586	3.21
454.943	3.37
455.3	3.36
455.657	3.31
456.014	3.34
456.371	3.28
456.727	3.52
457.084	3.38
457.441	3.36
457.797	3.34
458.154	3.34
458.51	3.34
458.867	3.37
459.223	3.28
459.58	3.26
459.936	3.33
460.292	3.16
460.648	3.19
461.005	3.35
461.361	3.26
461.717	3.22
462.073	3.29
462.429	3.34
462.785	3.48
463.141	3.32
463.496	3.52
463.852	3.45
464.208	3.38
464.564	3.34
464.919	3.33
465.275	3.37
465.631	3.59
465.986	3.64
466.342	3.48
466.697	3.46
467.052	3.53
467.408	3.55
467.763	3.47
468.118	3.34
468.473	3.5
468.829	3.38
469.184	3.5
469.539	3.54
469.894	3.7
470.249	3.6
470.603	3.67
470.958	3.54
471.313	3.63
471.668	3.6
472.023	3.55
472.377	3.45
472.732	3.7
473.086	3.53
473.441	3.32
473.795	3.68
474.15	3.45
474.504	3.52
474.859	3.39
475.213	3.74
475.567	3.62
475.921	3.47
476.275	3.52
476.63	3.62
476.984	3.37
477.338	3.56
477.692	3.56
478.045	3.61
478.399	3.6
478.753	3.46
479.107	3.53
479.461	3.51
479.814	3.57
480.168	3.49
480.521	3.63
480.875	3.64
481.228	3.6
481.582	3.53
481.935	3.82
482.289	3.64
482.642	3.58
482.995	3.6
483.348	3.49
483.701	3.64
484.055	3.44
484.408	3.55
484.761	3.39
485.114	3.36
485.466	3.34
485.819	3.36
486.172	3.4
486.525	3.41
486.878	3.45
487.23	3.47
487.583	3.56
487.936	3.46
488.288	3.51
488.641	3.47
488.993	3.47
489.345	3.45
489.698	3.44
490.05	3.47
490.402	3.48
490.754	3.5
491.107	3.53
491.459	3.66
491.811	3.65
492.163	3.53
492.515	3.56
492.866	3.53
493.218	3.51
493.57	3.58
493.922	3.57
494.274	3.7
494.625	3.74
494.977	3.71
495.328	3.71
495.68	3.74
496.031	3.69
496.383	3.81
496.734	3.59
497.086	3.82
497.437	3.86
497.788	3.87
498.139	3.8
498.49	3.81
498.842	3.82
499.193	3.68
499.544	3.78
499.894	3.79
500.245	3.81
500.596	3.86
500.947	3.75
501.298	3.87
501.648	3.89
501.999	3.89
502.35	3.77
502.7	3.91
503.051	3.85
503.401	3.94
503.752	3.85
504.102	3.82
504.452	3.69
504.803	3.77
505.153	3.94
505.503	3.88
505.853	3.92
506.203	3.99
506.553	3.89
506.903	3.95
507.253	3.88
507.603	4.01
507.953	3.95
508.303	4.03
508.652	3.78
509.002	4.07
509.352	3.97
509.701	3.85
510.051	3.9
510.4	3.99
510.75	3.9
511.099	3.86
511.449	3.97
511.798	3.95
512.147	4
512.496	3.99
512.846	3.93
513.195	4.02
513.544	4.09
513.893	4.01
514.242	4.04
514.591	3.95
514.939	4.08
515.288	4.04
515.637	4.07
515.986	4.06
516.334	4.3
516.683	4.07
517.032	4.04
517.38	4.09
517.729	4.08
518.077	4.11
518.426	4.06
518.774	4.12
519.122	4.1
519.47	4.02
519.819	4.07
520.167	4.03
520.515	4.07
520.863	4.14
521.211	4.08
521.559	4.12
521.907	4.14
522.255	4.06
522.602	4.14
522.95	4.22
523.298	4.25
523.645	4.17
523.993	4.13
524.341	4.17
524.688	4.15
525.036	4.33
525.383	4.31
525.73	4.18
526.078	4.31
526.425	4.16
526.772	4.16
527.119	4.18
527.466	4.23
527.814	4.16
528.161	4.17
528.508	4.26
528.854	4.21
529.201	4.16
529.548	4.18
529.895	4.11
530.242	4.05
530.588	4.07
530.935	4.1
531.282	4.16
531.628	4.15
531.975	4.19
532.321	4.28
532.667	4.29
533.014	4.35
533.36	4.28
533.706	4.32
534.052	4.39
534.399	4.31
534.745	4.28
535.091	4.26
535.437	4.26
535.783	4.29
536.129	4.25
536.474	4.48
536.82	4.48
537.166	4.33
537.512	4.42
537.857	4.37
538.203	4.44
538.549	4.43
538.894	4.4
539.239	4.53
539.585	4.55
539.93	4.58
540.276	4.63
540.621	4.54
540.966	4.56
541.311	4.68
541.656	4.55
542.001	4.44
542.346	4.52
542.691	4.42
543.036	4.48
543.381	4.47
543.726	4.56
544.071	4.54
544.415	4.64
544.76	4.56
545.105	4.59
545.449	4.64
545.794	4.62
546.138	4.59
546.483	4.84
546.827	4.65
547.171	4.68
547.516	4.82
547.86	4.82
548.204	4.73
548.548	4.75
548.892	4.74
549.236	4.86
549.58	4.87
549.924	4.93
550.268	4.89
550.612	4.91
550.956	5.05
551.3	5.16
551.643	4.99
551.987	5.15
552.33	5.13
552.674	4.91
553.017	5.05
553.361	5.14
553.704	5.07
554.048	5.01
554.391	5.18
554.734	5.04
555.077	5.07
555.42	5.04
555.764	5.1
556.107	5.35
556.45	5.14
556.793	5.25
557.135	5.23
557.478	5.22
557.821	5.17
558.164	5.32
558.507	5.24
558.849	5.33
559.192	5.14
559.534	5.22
559.877	5.2
560.219	5.25
560.562	5.15
560.904	5.52
561.246	5.2
561.589	5.54
561.931	5.32
562.273	5.21
562.615	5.34
562.957	5.23
563.299	5.39
563.641	5.38
563.983	5.44
564.325	5.39
564.667	5.41
565.008	5.49
565.35	5.33
565.692	5.36
566.033	5.53
566.375	5.64
566.716	5.43
567.058	5.59
567.399	5.53
567.741	5.53
568.082	5.62
568.423	5.48
568.764	5.6
569.105	5.66
569.447	5.63
569.788	5.65
570.129	5.66
570.47	5.59
570.811	5.53
571.151	5.78
571.492	5.89
571.833	5.63
572.174	5.83
572.514	5.77
572.855	5.84
573.195	5.69
573.536	6.01
573.876	5.79
574.217	5.83
574.557	5.73
574.898	5.8
575.238	5.94
575.578	5.96
575.918	5.9
576.258	6.12
576.598	5.88
576.938	5.9
577.278	5.98
577.618	5.87
577.958	6.1
578.298	5.89
578.638	6
578.977	6.19
579.317	6.05
579.657	6.11
579.996	6.3
580.336	6.23
580.675	6.13
581.014	6.49
581.354	6.25
581.693	6.36
582.032	6.47
582.372	6.21
582.711	6.45
583.05	6.49
583.389	6.4
583.728	6.59
584.067	6.24
584.406	6.44
584.745	6.52
585.083	6.42
585.422	6.64
585.761	6.57
586.1	6.79
586.438	6.5
586.777	6.5
587.115	6.61
587.454	6.59
587.792	6.6
588.13	6.49
588.469	6.8
588.807	6.72
589.145	6.76
589.483	6.64
589.821	6.66
590.159	6.83
590.497	6.84
590.835	6.83
591.173	6.88
591.511	6.96
591.849	6.75
592.187	6.61
592.524	7.05
592.862	6.81
593.2	6.74
593.537	6.87
593.875	6.92
594.212	6.99
594.55	6.92
594.887	7.19
595.224	7.25
595.561	7.05
595.899	7.04
596.236	7.05
596.573	6.86
596.91	6.98
597.247	7.23
597.584	7.03
597.921	7.15
598.258	7.09
598.594	7.01
598.931	6.95
599.268	7.02
599.604	7.13
599.941	7.15
600.277	7.29
600.614	7.28
600.95	7.21
601.287	7.04
601.623	7.01
601.959	7.63
602.296	7.47
602.632	7.24
602.968	7.35
603.304	7.65
603.64	7.34
603.976	7.19
604.312	7.43
604.648	7.35
604.984	7.4
605.319	7.43
605.655	7.33
605.991	7.58
606.326	7.4
606.662	7.33
606.998	7.55
607.333	7.55
607.668	7.63
608.004	7.7
608.339	7.62
608.674	7.85
609.01	8.05
609.345	7.77
609.68	7.77
610.015	7.87
610.35	7.78
610.685	7.56
611.02	7.88
611.355	7.75
611.689	7.87
612.024	7.74
612.359	7.91
612.694	7.71
613.028	8
613.363	7.95
613.697	8.09
614.032	8.07
614.366	7.77
614.7	8.22
615.035	8.29
615.369	8.24
615.703	8.23
616.037	8.47
616.371	8.25
616.705	8.24
617.039	8.46
617.373	8.05
617.707	8.25
618.041	8.37
618.375	7.79
618.709	8.53
619.042	8.33
619.376	8.52
619.71	8.43
620.043	8.76
620.377	8.54
620.71	8.66
621.043	8.71
621.377	8.75
621.71	8.8
622.043	8.63
622.376	8.46
622.709	8.92
623.043	8.53
623.376	8.78
623.709	9.02
624.041	8.71
624.374	8.89
624.707	8.8
625.04	8.63
625.373	8.88
625.705	8.92
626.038	9.11
626.37	8.78
626.703	9.2
627.035	8.95
627.368	9.05
627.7	9.11
628.032	9.16
628.365	9.22
628.697	9.26
629.029	8.88
629.361	9.36
629.693	9.12
630.025	9.2
630.357	9.32
630.689	9.31
631.021	9.23
631.353	9.61
631.684	9.28
632.016	8.78
632.348	9.45
632.679	9.35
633.011	9.26
633.342	9.44
633.674	9.23
634.005	9.53
634.336	9.46
634.668	9.37
634.999	9.56
635.33	9.61
635.661	9.45
635.992	9.56
636.323	9.66
636.654	9.74
636.985	9.38
637.316	9.32
637.647	9.79
637.977	9.82
638.308	9.86
638.639	9.8
638.969	9.57
639.3	9.86
639.63	9.73
639.961	9.89
640.291	9.37
640.622	10.27
640.952	10.11
641.282	9.45
641.612	9.76
641.943	9.83
642.273	10.14
642.603	10.48
642.933	10.25
643.263	10.17
643.592	10.36
643.922	10.41
644.252	10.24
644.582	10.42
644.911	10.23
645.241	10.13
645.571	10.14
645.9	10.5
646.23	10.71
646.559	10.45
646.888	10.44
647.218	10.25
647.547	10.29
647.876	10.47
648.205	10.72
648.534	10.59
648.863	10.3
649.192	10.54
649.521	10.61
649.85	10.81
650.179	10.51
650.508	10.33
650.837	10.86
651.165	10.49
651.494	10.81
651.822	10.96
652.151	10.75
652.479	10.72
652.808	10.62
653.136	10.61
653.465	10.97
653.793	10.88
654.121	10.67
654.449	10.8
654.777	10.71
655.105	10.38
655.433	11.14
655.761	10.94
656.089	10.8
656.417	11.37
656.745	11.6
657.073	10.77
657.4	11.17
657.728	10.75
658.056	10.91
658.383	11.3
658.711	11.4
659.038	11.57
659.365	11.48
659.693	11.45
660.02	11.49
660.347	11.45
660.674	11.06
661.001	11.11
661.329	11.21
661.656	11.19
661.982	11.18
662.309	11.37
662.636	11.75
662.963	11.43
663.29	11.75
663.616	11.36
663.943	11.37
664.27	11.36
664.596	11.34
664.923	12.18
665.249	11.71
665.576	11.64
665.902	11.5
666.228	11.79
666.554	12.36
666.881	11.25
667.207	11.65
667.533	11.68
667.859	11.85
668.185	12.36
668.511	12.26
668.837	11.74
669.162	12.42
669.488	11.38
669.814	12.33
670.139	11.62
670.465	12.13
670.791	12.11
671.116	12.2
671.442	11.47
671.767	11.92
672.092	11.78
672.418	12.09
672.743	12.46
673.068	11.66
673.393	12.25
673.718	11.6
674.043	12.22
674.368	11.72
674.693	12.45
675.018	12.43
675.343	12.51
675.667	12.79
675.992	12.13
676.317	11.97
676.641	12.23
676.966	12.64
677.29	12.35
677.615	12.57
677.939	12.93
678.264	12.11
678.588	12.78
678.912	13.14
679.236	12.31
679.56	12.02
679.885	12.35
680.209	12.58
680.532	13.16
680.856	12.99
681.18	13.38
681.504	12.67
681.828	12.24
682.152	12.61
682.475	12.66
682.799	12.85
683.122	12.45
683.446	12.72
683.769	13.48
684.093	13.26
684.416	12.74
684.739	13.28
685.062	13.01
685.386	13.49
685.709	12.79
686.032	12.99
686.355	12.84
686.678	13.39
687.001	13.02
687.324	13.07
687.646	13.39
687.969	13.15
688.292	13.18
