Data from 21-1_crown_Reflection__4__160.txt Node

Date: Thu Dec 15 17:44:26 CST 2022
User: ToomeyLab
Spectrometer: FLMS14357
Trigger mode: 0
Integration Time (sec): 1.000000E-2
Scans to average: 100
Electric dark correction enabled: true
Nonlinearity correction enabled: false
Boxcar width: 0
XAxis mode: Wavelengths
Number of Pixels in Spectrum: 2048
>>>>>Begin Spectral Data<<<<<
189.047	-0.87
189.435	-0.87
189.823	-0.87
190.211	85.55
190.599	551.27
190.987	63.78
191.375	1268.4
191.763	-962
192.151	-62.43
192.538	47.66
192.926	292.8
193.314	-23.56
193.702	284.1
194.089	55.04
194.477	125.68
194.864	-12.75
195.252	-650.91
195.639	0.06
196.027	-5760.34
196.414	93.73
196.801	119.09
197.189	79.98
197.576	-81.32
197.963	465.51
198.351	-8.23
198.738	-34.7
199.125	-52.99
199.512	25.25
199.899	10.2
200.286	-1.55
200.673	46.33
201.06	16.2
201.447	44.41
201.833	-30.03
202.22	-14.31
202.607	-11.26
202.994	-9.5
203.38	-1.16
203.767	-34.89
204.154	18.08
204.54	25.88
204.927	19.2
205.313	-0.92
205.699	33.81
206.086	35.57
206.472	-0.9
206.858	11.36
207.245	-6
207.631	-22.89
208.017	37.01
208.403	-22.66
208.789	12.21
209.175	4.22
209.561	-49.68
209.947	9.72
210.333	10.66
210.719	14.17
211.105	23.73
211.491	-10.94
211.876	-20.17
212.262	10.89
212.648	5
213.034	-0.2
213.419	-1.52
213.805	-8.46
214.19	-23.8
214.576	-41.35
214.961	9.4
215.346	-26.1
215.732	-30.08
216.117	-1.55
216.502	-4.32
216.888	14.74
217.273	13.45
217.658	-6.15
218.043	-17.45
218.428	-11.2
218.813	-3.96
219.198	-33.4
219.583	-6.31
219.968	8.47
220.353	-17.43
220.738	-7.85
221.122	-23.4
221.507	4.9
221.892	-17.2
222.276	-25.11
222.661	-3.18
223.046	-11.63
223.43	12.56
223.815	-0.7
224.199	0.21
224.583	8.68
224.968	2.97
225.352	-3.71
225.736	6.8
226.121	2.81
226.505	-2.3
226.889	1.25
227.273	-2.99
227.657	-0.18
228.041	-0.08
228.425	2.18
228.809	-0.17
229.193	4.35
229.577	1.22
229.961	1.15
230.344	3.28
230.728	3.38
231.112	2.42
231.495	1.36
231.879	2.29
232.263	3.18
232.646	1.94
233.03	2.86
233.413	2.85
233.797	1.23
234.18	3.43
234.563	3.68
234.946	1.02
235.33	2.46
235.713	3.21
236.096	1.78
236.479	4.21
236.862	0.83
237.245	1.13
237.628	2.76
238.011	1.9
238.394	0.75
238.777	2.99
239.16	2.96
239.543	3.38
239.925	1.85
240.308	1.45
240.691	1.93
241.073	1.66
241.456	1.67
241.838	1.91
242.221	2.14
242.603	2.83
242.986	2.93
243.368	3.14
243.75	2.55
244.133	2.6
244.515	2.59
244.897	2.75
245.279	2.33
245.661	2.11
246.043	2.84
246.425	2.6
246.807	2.73
247.189	2.21
247.571	2.04
247.953	2.42
248.335	2.65
248.717	2.72
249.098	2.77
249.48	2.52
249.862	2.74
250.243	2.74
250.625	2.66
251.006	3.25
251.388	1.64
251.769	2.24
252.151	3.29
252.532	1.67
252.913	2.3
253.295	3.26
253.676	2.58
254.057	2.34
254.438	2.68
254.819	2.34
255.2	2.76
255.581	3.74
255.962	2.78
256.343	3.03
256.724	2.94
257.105	2.81
257.486	1
257.867	1.75
258.247	2.42
258.628	2.39
259.009	1.8
259.389	2.15
259.77	2.07
260.15	2.96
260.531	2.57
260.911	2.5
261.292	2.44
261.672	2.39
262.052	2.62
262.432	2.34
262.813	2.32
263.193	2.52
263.573	3.07
263.953	1.94
264.333	3.29
264.713	2.75
265.093	2.54
265.473	2.32
265.853	2.78
266.233	2.7
266.612	2.15
266.992	2.67
267.372	2.85
267.752	2.8
268.131	2.39
268.511	2.17
268.89	2.87
269.27	1.92
269.649	2.3
270.029	1.89
270.408	1.65
270.787	2.55
271.167	2.73
271.546	2.93
271.925	3.22
272.304	2.61
272.683	2.13
273.062	2.32
273.441	2.1
273.82	2.46
274.199	2.1
274.578	2.5
274.957	2.45
275.336	2.42
275.715	3.12
276.093	2.64
276.472	1.78
276.851	2.1
277.229	2.33
277.608	2.01
277.986	2.57
278.365	2.78
278.743	2.45
279.122	1.85
279.5	2.18
279.878	1.94
280.257	2.41
280.635	2.95
281.013	1.82
281.391	2.32
281.769	2.93
282.147	2.26
282.525	1.95
282.903	2.33
283.281	2.6
283.659	2.66
284.037	2.38
284.415	2.31
284.792	2.4
285.17	2.35
285.548	2.36
285.925	2.3
286.303	2.9
286.68	2.66
287.058	2.59
287.435	2.18
287.813	2.68
288.19	2.13
288.567	2.64
288.945	2.26
289.322	2.85
289.699	2.47
290.076	2.47
290.453	2.3
290.83	2.9
291.207	2.24
291.584	2.83
291.961	2.31
292.338	2.13
292.715	2.33
293.092	3.2
293.469	2.51
293.845	3.06
294.222	3.03
294.599	2.41
294.975	1.92
295.352	2.83
295.728	2.61
296.105	2.68
296.481	2.86
296.858	2.76
297.234	2.39
297.61	2.99
297.986	2.9
298.363	2.68
298.739	2.89
299.115	2.98
299.491	3.11
299.867	2.63
300.243	2.7
300.619	2.68
300.995	3.09
301.371	2.85
301.746	2.44
302.122	2.48
302.498	2.62
302.874	2.81
303.249	2.75
303.625	2.37
304	2.92
304.376	3.34
304.751	2.82
305.127	2.51
305.502	2.93
305.878	2.94
306.253	2.74
306.628	2.89
307.003	2.44
307.378	2.49
307.754	2.94
308.129	2.61
308.504	3.17
308.879	2.55
309.254	3.33
309.629	2.97
310.003	2.66
310.378	3.08
310.753	3.09
311.128	2.93
311.502	3.22
311.877	2.86
312.252	3.18
312.626	3.15
313.001	3.26
313.375	2.82
313.75	3.2
314.124	3.27
314.498	3.42
314.873	2.64
315.247	2.87
315.621	3.1
315.995	3.11
316.369	2.48
316.743	3.09
317.117	2.88
317.491	3.39
317.865	2.71
318.239	3.7
318.613	3.43
318.987	2.89
319.361	2.85
319.734	3.15
320.108	3.38
320.482	3.49
320.855	2.99
321.229	3.08
321.602	3.4
321.976	3.02
322.349	3.96
322.723	3.31
323.096	3.42
323.469	3.22
323.843	2.58
324.216	3.28
324.589	3.5
324.962	3.45
325.335	2.44
325.708	2.86
326.081	3.19
326.454	2.99
326.827	3.14
327.2	3.06
327.573	3.58
327.945	3.1
328.318	3.31
328.691	3.33
329.063	2.85
329.436	2.71
329.809	3.33
330.181	3.54
330.553	3.46
330.926	3.51
331.298	3.16
331.671	3.22
332.043	3.05
332.415	3.87
332.787	3.22
333.159	3.17
333.532	3.32
333.904	3.89
334.276	3.2
334.648	3.49
335.02	2.89
335.391	3.07
335.763	3.37
336.135	3.34
336.507	3.11
336.879	2.93
337.25	3.29
337.622	3.5
337.993	3.05
338.365	3.36
338.736	3.46
339.108	3.39
339.479	2.97
339.851	3.42
340.222	3.49
340.593	2.97
340.964	3.28
341.336	3.59
341.707	3.21
342.078	3.13
342.449	3.16
342.82	3.36
343.191	3.11
343.562	3.48
343.933	3.35
344.303	3.61
344.674	3.12
345.045	3.76
345.416	3.27
345.786	3.06
346.157	3.56
346.527	3.34
346.898	2.96
347.268	3.18
347.639	3.27
348.009	3.63
348.38	3.52
348.75	3.26
349.12	3.85
349.49	3.48
349.861	3.16
350.231	3.36
350.601	3.47
350.971	2.88
351.341	3.45
351.711	3.44
352.081	2.91
352.45	3.26
352.82	2.8
353.19	3.16
353.56	3.42
353.929	3.2
354.299	3.41
354.669	3.55
355.038	3.74
355.408	3.55
355.777	3.43
356.147	3.1
356.516	3.13
356.885	3.28
357.254	3.13
357.624	3.28
357.993	3.61
358.362	3.49
358.731	3.43
359.1	3.34
359.469	3.48
359.838	3.49
360.207	3.23
360.576	3.56
360.945	3.61
361.314	3.51
361.682	3.3
362.051	3.41
362.42	3.42
362.788	3.47
363.157	3.44
363.525	3.52
363.894	3.27
364.262	3.42
364.631	3.57
364.999	3.47
365.367	3.35
365.735	3.36
366.104	3.49
366.472	3.39
366.84	3.5
367.208	3.58
367.576	3.03
367.944	3.35
368.312	3.28
368.68	3.94
369.048	3.56
369.416	3.5
369.783	3.29
370.151	3.67
370.519	3.97
370.886	3.61
371.254	3.74
371.621	3.48
371.989	3.34
372.356	3.36
372.724	3.3
373.091	3.22
373.458	3.45
373.826	3.51
374.193	3.69
374.56	3.63
374.927	3.44
375.294	3.71
375.661	3.75
376.028	3.25
376.395	3.8
376.762	3.44
377.129	3.36
377.496	3.71
377.863	3.83
378.229	3.78
378.596	3.76
378.963	3.65
379.329	3.61
379.696	3.57
380.062	3.4
380.429	3.4
380.795	3.72
381.161	3.46
381.528	3.29
381.894	3.14
382.26	3.47
382.626	3.72
382.993	3.99
383.359	3.55
383.725	3.1
384.091	3.65
384.457	3.36
384.823	3.72
385.188	3.67
385.554	3.58
385.92	3.47
386.286	3.66
386.651	3.41
387.017	3.69
387.383	3.63
387.748	3.76
388.114	3.86
388.479	3.74
388.845	3.37
389.21	3.83
389.575	4.05
389.94	3.94
390.306	3.79
390.671	3.73
391.036	3.52
391.401	3.59
391.766	3.64
392.131	3.64
392.496	3.61
392.861	3.42
393.226	3.68
393.591	3.83
393.956	3.56
394.32	3.93
394.685	3.79
395.05	3.72
395.414	3.64
395.779	3.75
396.143	3.41
396.508	3.67
396.872	3.59
397.236	3.96
397.601	3.73
397.965	3.62
398.329	3.76
398.694	3.5
399.058	3.66
399.422	3.47
399.786	3.57
400.15	3.86
400.514	3.99
400.878	3.62
401.242	3.89
401.605	3.68
401.969	3.67
402.333	3.55
402.697	3.81
403.06	3.67
403.424	3.91
403.787	3.61
404.151	3.75
404.514	3.69
404.878	3.66
405.241	3.68
405.604	3.8
405.968	3.76
406.331	3.71
406.694	3.63
407.057	3.79
407.42	3.53
407.783	3.88
408.146	3.61
408.509	3.76
408.872	3.69
409.235	3.74
409.598	3.64
409.961	3.82
410.323	3.68
410.686	3.8
411.049	3.87
411.411	3.63
411.774	3.83
412.136	3.68
412.499	3.85
412.861	3.51
413.223	3.49
413.586	3.83
413.948	4.04
414.31	3.73
414.672	4.01
415.035	4
415.397	3.69
415.759	3.62
416.121	3.89
416.483	3.67
416.845	3.85
417.206	3.78
417.568	3.74
417.93	3.82
418.292	3.58
418.653	3.44
419.015	3.76
419.377	3.71
419.738	3.72
420.1	3.66
420.461	3.62
420.822	3.78
421.184	3.68
421.545	3.81
421.906	3.75
422.267	3.53
422.629	3.67
422.99	3.69
423.351	3.7
423.712	3.79
424.073	3.92
424.434	3.86
424.795	3.66
425.155	3.71
425.516	3.75
425.877	3.85
426.238	3.76
426.598	3.75
426.959	3.8
427.32	3.7
427.68	3.87
428.041	3.93
428.401	3.84
428.761	3.91
429.122	4
429.482	3.79
429.842	3.82
430.202	4.02
430.563	3.85
430.923	3.86
431.283	4.13
431.643	4.12
432.003	3.99
432.363	4.07
432.722	3.98
433.082	3.9
433.442	3.93
433.802	3.89
434.161	3.94
434.521	3.98
434.881	3.99
435.24	3.89
435.6	3.96
435.959	4.09
436.319	3.81
436.678	4.17
437.037	4.04
437.396	4.03
437.756	3.86
438.115	3.87
438.474	3.97
438.833	4.02
439.192	3.92
439.551	3.98
439.91	4.04
440.269	4.04
440.628	4.03
440.987	3.98
441.345	3.95
441.704	3.99
442.063	4.01
442.421	3.95
442.78	3.96
443.138	4.04
443.497	3.96
443.855	4.04
444.214	3.88
444.572	4.17
444.93	4.02
445.288	4.01
445.647	3.87
446.005	4.03
446.363	4.11
446.721	4.01
447.079	3.98
447.437	4.03
447.795	4.03
448.153	4.04
448.51	4.07
448.868	4.03
449.226	4.04
449.584	4.03
449.941	4.07
450.299	4.11
450.656	4.08
451.014	4.2
451.371	4.17
451.729	4.14
452.086	4.16
452.443	4.21
452.801	4.19
453.158	4.28
453.515	4.03
453.872	4.23
454.229	4.08
454.586	4.11
454.943	4.16
455.3	4.1
455.657	4.25
456.014	4.12
456.371	4.31
456.727	4.28
457.084	4.27
457.441	4.23
457.797	4.18
458.154	4.2
458.51	4.21
458.867	4.26
459.223	4.16
459.58	4.23
459.936	4.3
460.292	4.08
460.648	4.1
461.005	4.11
461.361	4.13
461.717	4.1
462.073	4.25
462.429	4.29
462.785	4.43
463.141	4.27
463.496	4.28
463.852	4.37
464.208	4.26
464.564	4.12
464.919	4.32
465.275	4.35
465.631	4.5
465.986	4.45
466.342	4.12
466.697	4.42
467.052	4.59
467.408	4.28
467.763	4.16
468.118	4.27
468.473	4.4
468.829	4.34
469.184	4.31
469.539	4.13
469.894	4.42
470.249	4.17
470.603	4.52
470.958	4.49
471.313	4.46
471.668	4.3
472.023	4.51
472.377	4.38
472.732	4.53
473.086	4.18
473.441	4.25
473.795	4.67
474.15	4.57
474.504	4.4
474.859	4.15
475.213	4.43
475.567	4.32
475.921	4.41
476.275	4.66
476.63	4.43
476.984	4.37
477.338	4.6
477.692	4.38
478.045	4.47
478.399	4.52
478.753	4.4
479.107	4.45
479.461	4.31
479.814	4.37
480.168	4.52
480.521	4.5
480.875	4.44
481.228	4.34
481.582	4.41
481.935	4.52
482.289	4.46
482.642	4.46
482.995	4.49
483.348	4.42
483.701	4.44
484.055	4.4
484.408	4.31
484.761	4.23
485.114	4.13
485.466	4.07
485.819	4.09
486.172	4.22
486.525	4.29
486.878	4.42
487.23	4.42
487.583	4.38
487.936	4.33
488.288	4.34
488.641	4.29
488.993	4.18
489.345	4.24
489.698	4.23
490.05	4.26
490.402	4.35
490.754	4.38
491.107	4.39
491.459	4.57
491.811	4.47
492.163	4.49
492.515	4.37
492.866	4.29
493.218	4.27
493.57	4.32
493.922	4.42
494.274	4.5
494.625	4.66
494.977	4.55
495.328	4.62
495.68	4.57
496.031	4.52
496.383	4.51
496.734	4.62
497.086	4.57
497.437	4.6
497.788	4.67
498.139	4.56
498.49	4.5
498.842	4.61
499.193	4.55
499.544	4.61
499.894	4.54
500.245	4.75
500.596	4.69
500.947	4.65
501.298	4.66
501.648	4.61
501.999	4.72
502.35	4.58
502.7	4.74
503.051	4.68
503.401	4.69
503.752	4.61
504.102	4.73
504.452	4.65
504.803	4.64
505.153	4.62
505.503	4.74
505.853	4.79
506.203	4.76
506.553	4.66
506.903	4.78
507.253	4.6
507.603	4.77
507.953	4.7
508.303	4.83
508.652	4.66
509.002	4.82
509.352	4.84
509.701	4.6
510.051	4.78
510.4	4.72
510.75	4.6
511.099	4.58
511.449	4.73
511.798	4.64
512.147	4.66
512.496	4.71
512.846	4.74
513.195	4.73
513.544	4.73
513.893	4.68
514.242	4.66
514.591	4.66
514.939	4.82
515.288	4.86
515.637	4.84
515.986	4.78
516.334	4.84
516.683	4.76
517.032	4.72
517.38	4.8
517.729	4.73
518.077	4.75
518.426	4.81
518.774	4.79
519.122	4.7
519.47	4.73
519.819	4.78
520.167	4.62
520.515	4.7
520.863	4.71
521.211	4.76
521.559	4.73
521.907	4.8
522.255	4.83
522.602	4.82
522.95	4.85
523.298	4.91
523.645	4.98
523.993	4.86
524.341	4.94
524.688	4.83
525.036	4.83
525.383	4.89
525.73	4.88
526.078	4.91
526.425	4.74
526.772	4.76
527.119	4.72
527.466	4.74
527.814	4.81
528.161	4.82
528.508	4.84
528.854	4.78
529.201	4.72
529.548	4.66
529.895	4.58
530.242	4.51
530.588	4.57
530.935	4.7
531.282	4.71
531.628	4.8
531.975	4.83
532.321	4.84
532.667	4.87
533.014	4.89
533.36	4.9
533.706	4.82
534.052	4.87
534.399	4.84
534.745	4.68
535.091	4.66
535.437	4.77
535.783	4.88
536.129	4.94
536.474	5.03
536.82	5.04
537.166	4.92
537.512	4.92
537.857	4.85
538.203	4.85
538.549	4.76
538.894	4.88
539.239	4.96
539.585	5.07
539.93	5.1
540.276	5.06
540.621	5.22
540.966	5.01
541.311	5.09
541.656	4.92
542.001	4.88
542.346	4.83
542.691	4.73
543.036	4.72
543.381	4.78
543.726	4.92
544.071	4.99
544.415	5.03
544.76	4.95
545.105	4.94
545.449	4.98
545.794	5.05
546.138	5.04
546.483	5.27
546.827	5
547.171	5.1
547.516	5.03
547.86	5.1
548.204	5.02
548.548	4.98
548.892	5.07
549.236	5.05
549.58	5.14
549.924	5.34
550.268	5.21
550.612	5.29
550.956	5.34
551.3	5.42
551.643	5.3
551.987	5.41
552.33	5.46
552.674	5.2
553.017	5.27
553.361	5.26
553.704	5.27
554.048	5.14
554.391	5.27
554.734	5.18
555.077	5.22
555.42	5.23
555.764	5.2
556.107	5.3
556.45	5.32
556.793	5.3
557.135	5.23
557.478	5.38
557.821	5.38
558.164	5.38
558.507	5.28
558.849	5.46
559.192	5.32
559.534	5.31
559.877	5.33
560.219	5.32
560.562	5.36
560.904	5.47
561.246	5.29
561.589	5.53
561.931	5.4
562.273	5.26
562.615	5.29
562.957	5.2
563.299	5.37
563.641	5.36
563.983	5.36
564.325	5.37
564.667	5.3
565.008	5.23
565.35	5.4
565.692	5.31
566.033	5.49
566.375	5.38
566.716	5.24
567.058	5.38
567.399	5.38
567.741	5.3
568.082	5.4
568.423	5.27
568.764	5.41
569.105	5.48
569.447	5.27
569.788	5.3
570.129	5.46
570.47	5.5
570.811	5.39
571.151	5.47
571.492	5.56
571.833	5.62
572.174	5.49
572.514	5.56
572.855	5.57
573.195	5.32
573.536	5.5
573.876	5.38
574.217	5.4
574.557	5.37
574.898	5.37
575.238	5.61
575.578	5.55
575.918	5.59
576.258	5.53
576.598	5.4
576.938	5.36
577.278	5.46
577.618	5.47
577.958	5.65
578.298	5.58
578.638	5.52
578.977	5.52
579.317	5.66
579.657	5.54
579.996	5.57
580.336	5.77
580.675	5.51
581.014	5.5
581.354	5.48
581.693	5.85
582.032	5.71
582.372	5.68
582.711	5.64
583.05	5.66
583.389	5.85
583.728	5.67
584.067	5.39
584.406	5.6
584.745	5.48
585.083	5.7
585.422	5.74
585.761	5.75
586.1	5.74
586.438	5.59
586.777	5.64
587.115	5.67
587.454	5.81
587.792	5.46
588.13	5.68
588.469	5.71
588.807	6.03
589.145	5.85
589.483	5.65
589.821	5.72
590.159	5.87
590.497	5.71
590.835	5.84
591.173	5.92
591.511	5.84
591.849	5.66
592.187	5.52
592.524	5.94
592.862	5.7
593.2	5.72
593.537	5.93
593.875	5.73
594.212	5.82
594.55	5.78
594.887	5.81
595.224	5.88
595.561	5.88
595.899	5.84
596.236	5.87
596.573	5.6
596.91	5.68
597.247	5.93
597.584	5.84
597.921	5.67
598.258	5.73
598.594	5.68
598.931	5.4
599.268	5.73
599.604	6.03
599.941	5.97
600.277	5.97
600.614	5.95
600.95	5.95
601.287	5.62
601.623	5.7
601.959	6.44
602.296	6
602.632	5.89
602.968	6.03
603.304	5.97
603.64	5.78
603.976	5.63
604.312	5.67
604.648	5.82
604.984	5.83
605.319	5.8
605.655	5.7
605.991	5.89
606.326	5.8
606.662	5.58
606.998	5.92
607.333	5.82
607.668	5.9
608.004	5.91
608.339	5.93
608.674	5.9
609.01	6.37
609.345	5.99
609.68	5.86
610.015	6.18
610.35	6.08
610.685	5.94
611.02	5.89
611.355	5.77
611.689	5.85
612.024	6.1
612.359	6.11
612.694	6.2
613.028	5.76
613.363	5.97
613.697	6.03
614.032	6.04
614.366	6.09
614.7	6.14
615.035	6.24
615.369	6.21
615.703	6.2
616.037	6.01
616.371	5.95
616.705	6.02
617.039	6
617.373	6.17
617.707	5.85
618.041	5.96
618.375	5.79
618.709	5.98
619.042	6
619.376	6.42
619.71	6.41
620.043	6.23
620.377	5.9
620.71	5.97
621.043	6.36
621.377	6.58
621.71	6.48
622.043	6.33
622.376	6.19
622.709	6.27
623.043	6.26
623.376	6.27
623.709	6.51
624.041	6.09
624.374	6.37
624.707	6.22
625.04	6.28
625.373	6.38
625.705	6.34
626.038	6.55
626.37	6.01
626.703	5.96
627.035	6.54
627.368	6.58
627.7	6.36
628.032	6.11
628.365	6.25
628.697	6.64
629.029	6.13
629.361	6.5
629.693	6.27
630.025	6.39
630.357	6.37
630.689	6.36
631.021	6.49
631.353	6.38
631.684	6.03
632.016	6.12
632.348	6.17
632.679	6.38
633.011	6.46
633.342	6.26
633.674	6.19
634.005	6.33
634.336	6.84
634.668	6.35
634.999	6.04
635.33	6.41
635.661	6.36
635.992	6.34
636.323	6.4
636.654	6.44
636.985	6.09
637.316	6.46
637.647	6.62
637.977	6.35
638.308	6.82
638.639	6.12
638.969	6.28
639.3	6.39
639.63	6.62
639.961	6.44
640.291	6.11
640.622	6.8
640.952	6.7
641.282	6.17
641.612	6.21
641.943	6.52
642.273	6.72
642.603	6.56
642.933	6.67
643.263	6.78
643.592	6.91
643.922	6.63
644.252	6.19
644.582	6.68
644.911	6.5
645.241	6.47
645.571	6.47
645.9	6.45
646.23	6.49
646.559	6.18
646.888	6.68
647.218	6.69
647.547	6.61
647.876	6.79
648.205	6.11
648.534	6.88
648.863	6.32
649.192	6.74
649.521	6.42
649.85	6.51
650.179	6.78
650.508	6.74
650.837	6.77
651.165	6.48
651.494	6.75
651.822	6.63
652.151	6.76
652.479	6.77
652.808	6.67
653.136	6.35
653.465	6.57
653.793	6.67
654.121	6.88
654.449	6.56
654.777	6.2
655.105	6.1
655.433	6.93
655.761	6.95
656.089	6.81
656.417	7.33
656.745	6.99
657.073	6.58
657.4	6.62
657.728	6.21
658.056	6.56
658.383	6.88
658.711	7.05
659.038	7.24
659.365	6.75
659.693	6.7
660.02	6.38
660.347	6.85
660.674	6.65
661.001	6.8
661.329	6.6
661.656	6.08
661.982	6.22
662.309	6.79
662.636	6.87
662.963	6.7
663.29	6.79
663.616	6.68
663.943	6.77
664.27	6.7
664.596	6.45
664.923	6.67
665.249	7.02
665.576	6.16
665.902	6.59
666.228	7.62
666.554	6.91
666.881	6.52
667.207	7.12
667.533	6.42
667.859	7.18
668.185	6.77
668.511	7.22
668.837	7.06
669.162	6.83
669.488	6.22
669.814	6.94
670.139	6.72
670.465	7.36
670.791	6.55
671.116	6.53
671.442	6.42
671.767	6.61
672.092	7.02
672.418	6.8
672.743	6.64
673.068	6.15
673.393	7.14
673.718	6.39
674.043	7.31
674.368	6.97
674.693	7.1
675.018	7.22
675.343	6.7
675.667	6.92
675.992	6.68
676.317	6.34
676.641	7.65
676.966	7.51
677.29	6.84
677.615	6.89
677.939	7.33
678.264	6.68
678.588	6.57
678.912	6.48
679.236	6.57
679.56	6.56
679.885	6.56
680.209	7.05
680.532	7.66
680.856	7.59
681.18	8.07
681.504	6.97
681.828	6.57
682.152	7.06
682.475	6.92
682.799	6.72
683.122	7.09
683.446	6.32
683.769	7.32
684.093	7.39
684.416	7.19
684.739	6.76
685.062	7.38
685.386	7.02
685.709	7.05
686.032	6.93
686.355	6.97
686.678	7.46
687.001	6.86
687.324	7.81
687.646	7.58
687.969	7.54
688.292	7.15
688.614	7.51
688.937	7.51
689.26	7.28
689.582	7.35
689.904	6.84
690.227	7.03
690.549	7.19
690.871	7.19
691.194	6.63
691.516	6.92
691.838	7.61
692.16	6.81
692.482	6.76
692.804	7.29
