Data from 21-1_chest_Reflection__4__154.txt Node

Date: Thu Dec 15 17:41:35 CST 2022
User: ToomeyLab
Spectrometer: FLMS14357
Trigger mode: 0
Integration Time (sec): 1.000000E-2
Scans to average: 100
Electric dark correction enabled: true
Nonlinearity correction enabled: false
Boxcar width: 0
XAxis mode: Wavelengths
Number of Pixels in Spectrum: 2048
>>>>>Begin Spectral Data<<<<<
189.047	-84.19
189.435	-84.19
189.823	-84.19
190.211	188.69
190.599	1486.94
190.987	30.14
191.375	523.6
191.763	-793.08
192.151	-35.44
192.538	95.53
192.926	118.39
193.314	27.03
193.702	-243.82
194.089	97.75
194.477	74.95
194.864	178.3
195.252	281.96
195.639	117.56
196.027	4408.62
196.414	-35.05
196.801	11.24
197.189	39.23
197.576	-52.74
197.963	1018.98
198.351	-6.53
198.738	-51.87
199.125	24.8
199.512	50.94
199.899	16.83
200.286	-36.92
200.673	63.19
201.06	-32.53
201.447	25.97
201.833	3.4
202.22	6.59
202.607	-42.94
202.994	2.76
203.38	-3.73
203.767	50.67
204.154	43.61
204.54	36.5
204.927	25.25
205.313	21.14
205.699	15.64
206.086	38.9
206.472	47.4
206.858	-4.1
207.245	26.96
207.631	-6.24
208.017	56.02
208.403	-42.92
208.789	42.6
209.175	21.32
209.561	-30.6
209.947	18.31
210.333	0.38
210.719	5
211.105	9.52
211.491	43.69
211.876	14.24
212.262	20.9
212.648	22.02
213.034	-15.78
213.419	1.86
213.805	-45.13
214.19	-6.58
214.576	-13.81
214.961	8.12
215.346	-28.42
215.732	19.56
216.117	8.93
216.502	-2.92
216.888	12.29
217.273	8.23
217.658	-0.31
218.043	7.82
218.428	-16.01
218.813	7.87
219.198	-13.45
219.583	-12.49
219.968	11.72
220.353	-4.19
220.738	20.85
221.122	4.08
221.507	9.18
221.892	-8.59
222.276	-13.37
222.661	-11.27
223.046	-8.48
223.43	15.87
223.815	2.68
224.199	-1.28
224.583	-4.4
224.968	2.14
225.352	-2.41
225.736	15.53
226.121	4.95
226.505	3.22
226.889	5.28
227.273	-1.24
227.657	4.72
228.041	6.57
228.425	-0.52
228.809	-0.23
229.193	3.28
229.577	3.9
229.961	3.01
230.344	5.23
230.728	4.85
231.112	4.82
231.495	3.04
231.879	3.71
232.263	4.98
232.646	3.5
233.03	5.35
233.413	5.65
233.797	4.28
234.18	6.18
234.563	3.55
234.946	1.59
235.33	3.15
235.713	5.48
236.096	5.44
236.479	6.11
236.862	5.58
237.245	3.8
237.628	4.41
238.011	5.85
238.394	3.89
238.777	4.79
239.16	3.51
239.543	6.59
239.925	4.3
240.308	2.87
240.691	4.01
241.073	3.95
241.456	5.93
241.838	5.2
242.221	4.26
242.603	4.69
242.986	5.14
243.368	4.65
243.75	4.65
244.133	4.7
244.515	4.45
244.897	4.24
245.279	4.39
245.661	4.84
246.043	3.89
246.425	4.93
246.807	4.19
247.189	3.89
247.571	4.19
247.953	4.61
248.335	4.43
248.717	4.48
249.098	4.63
249.48	4.38
249.862	4.78
250.243	4.66
250.625	4.98
251.006	5.29
251.388	4.53
251.769	4.1
252.151	4.49
252.532	4.21
252.913	4.32
253.295	4.42
253.676	4.54
254.057	4.52
254.438	4.06
254.819	4.79
255.2	5.06
255.581	5.2
255.962	5.04
256.343	4.88
256.724	5.47
257.105	4.93
257.486	4.05
257.867	4.25
258.247	4.3
258.628	4.74
259.009	4.17
259.389	3.75
259.77	3.9
260.15	4.56
260.531	4.7
260.911	4.21
261.292	4.43
261.672	4.29
262.052	4.27
262.432	4.2
262.813	4.44
263.193	5.01
263.573	3.89
263.953	3.91
264.333	4.28
264.713	4.72
265.093	3.75
265.473	3.39
265.853	4.3
266.233	4.5
266.612	4.1
266.992	3.75
267.372	4.66
267.752	4.9
268.131	3.82
268.511	4.09
268.89	4.66
269.27	3.94
269.649	3.93
270.029	4.05
270.408	4.09
270.787	4.21
271.167	4.21
271.546	5.03
271.925	4.26
272.304	4.27
272.683	3.99
273.062	4.1
273.441	3.87
273.82	4.46
274.199	3.88
274.578	4.54
274.957	4.47
275.336	4.14
275.715	4.47
276.093	3.64
276.472	3.82
276.851	3.81
277.229	4.07
277.608	3.96
277.986	4.34
278.365	4.25
278.743	4.33
279.122	4.3
279.5	3.92
279.878	3.69
280.257	4.25
280.635	4.54
281.013	3.85
281.391	4.09
281.769	5.02
282.147	4.55
282.525	3.86
282.903	4.27
283.281	4.56
283.659	4.42
284.037	4.2
284.415	4.07
284.792	4.06
285.17	4.15
285.548	4.03
285.925	4.18
286.303	4.45
286.68	4.05
287.058	4.31
287.435	3.97
287.813	4.25
288.19	4.11
288.567	3.89
288.945	3.76
289.322	4.21
289.699	4.3
290.076	4.02
290.453	3.91
290.83	4.4
291.207	4.13
291.584	4.43
291.961	4.46
292.338	4.09
292.715	3.99
293.092	4.95
293.469	4.17
293.845	4.38
294.222	4.78
294.599	4.3
294.975	3.59
295.352	4.49
295.728	4.15
296.105	4.51
296.481	4.39
296.858	4.58
297.234	4.08
297.61	4.54
297.986	5.15
298.363	4.7
298.739	4.6
299.115	4.42
299.491	4.63
299.867	4.4
300.243	4.54
300.619	3.92
300.995	4.71
301.371	4.48
301.746	4.74
302.122	4.14
302.498	4.74
302.874	4.71
303.249	4.82
303.625	4.56
304	4.97
304.376	4.91
304.751	5.35
305.127	4.66
305.502	5.11
305.878	4.98
306.253	4.3
306.628	5.02
307.003	4.71
307.378	4.77
307.754	4.78
308.129	4.54
308.504	5.4
308.879	4.97
309.254	5.09
309.629	5.02
310.003	4.63
310.378	5.07
310.753	4.89
311.128	4.55
311.502	4.85
311.877	4.44
312.252	4.78
312.626	5.2
313.001	4.77
313.375	4.84
313.75	5.26
314.124	5.06
314.498	5.4
314.873	4.49
315.247	4.91
315.621	4.65
315.995	4.22
316.369	4.48
316.743	4.52
317.117	4.73
317.491	5.06
317.865	4.34
318.239	5.12
318.613	4.89
318.987	4.52
319.361	4.5
319.734	4.66
320.108	5.32
320.482	5.13
320.855	4.97
321.229	4.69
321.602	5.2
321.976	4.51
322.349	5.13
322.723	4.64
323.096	5.02
323.469	4.78
323.843	4.89
324.216	4.77
324.589	4.72
324.962	4.63
325.335	4.64
325.708	4.83
326.081	4.91
326.454	5.12
326.827	5.1
327.2	4.63
327.573	5.34
327.945	4.73
328.318	4.8
328.691	4.83
329.063	4.77
329.436	4.79
329.809	5.21
330.181	5.67
330.553	4.8
330.926	5.33
331.298	4.92
331.671	4.97
332.043	4.74
332.415	4.76
332.787	5.1
333.159	4.83
333.532	5.02
333.904	4.76
334.276	5.06
334.648	5.14
335.02	4.44
335.391	4.75
335.763	4.96
336.135	4.92
336.507	4.93
336.879	5.09
337.25	5.07
337.622	5.06
337.993	4.71
338.365	5.26
338.736	4.85
339.108	4.82
339.479	4.91
339.851	5.2
340.222	4.99
340.593	4.76
340.964	4.61
341.336	5.13
341.707	5.02
342.078	4.94
342.449	5.16
342.82	5
343.191	5.06
343.562	5.08
343.933	4.64
344.303	5.07
344.674	4.9
345.045	5.19
345.416	5.49
345.786	5.33
346.157	5.06
346.527	4.74
346.898	4.8
347.268	4.78
347.639	5.03
348.009	4.88
348.38	4.98
348.75	5.22
349.12	5.35
349.49	5
349.861	4.93
350.231	5.01
350.601	5.27
350.971	4.7
351.341	4.91
351.711	4.78
352.081	4.86
352.45	4.62
352.82	4.43
353.19	4.69
353.56	4.53
353.929	5.17
354.299	5.26
354.669	5.04
355.038	5.36
355.408	5.04
355.777	5.15
356.147	4.79
356.516	4.91
356.885	4.92
357.254	4.98
357.624	4.58
357.993	5.1
358.362	5.16
358.731	5.12
359.1	5.04
359.469	4.78
359.838	5.04
360.207	4.92
360.576	5.24
360.945	5.24
361.314	4.59
361.682	4.91
362.051	5.11
362.42	5.07
362.788	5.01
363.157	4.89
363.525	4.91
363.894	5
364.262	4.93
364.631	5.19
364.999	4.97
365.367	5
365.735	5.03
366.104	4.88
366.472	5.23
366.84	4.86
367.208	5.47
367.576	4.72
367.944	5
368.312	4.8
368.68	5.23
369.048	4.98
369.416	4.9
369.783	4.93
370.151	5.24
370.519	5.27
370.886	5.17
371.254	5.17
371.621	4.96
371.989	5.13
372.356	4.99
372.724	5
373.091	4.94
373.458	4.96
373.826	5.14
374.193	5
374.56	5.13
374.927	4.7
375.294	5.12
375.661	4.91
376.028	4.82
376.395	5.06
376.762	5.15
377.129	4.83
377.496	4.88
377.863	5.32
378.229	5.25
378.596	5.2
378.963	5.29
379.329	5.31
379.696	4.92
380.062	5.05
380.429	4.94
380.795	5.23
381.161	5.01
381.528	5.02
381.894	5.18
382.26	5.17
382.626	5.24
382.993	5.52
383.359	4.89
383.725	4.94
384.091	5.13
384.457	4.8
384.823	5.06
385.188	5.02
385.554	5.07
385.92	4.97
386.286	5.13
386.651	5.12
387.017	5.36
387.383	5.05
387.748	5.14
388.114	5.17
388.479	5.13
388.845	4.98
389.21	5.28
389.575	5.18
389.94	5.29
390.306	5.22
390.671	5.27
391.036	5.22
391.401	5.08
391.766	5.3
392.131	5.19
392.496	5.1
392.861	5.01
393.226	4.99
393.591	5.28
393.956	5.03
394.32	4.82
394.685	4.99
395.05	5.05
395.414	5.18
395.779	5.27
396.143	5.07
396.508	4.98
396.872	5.02
397.236	5.31
397.601	5.19
397.965	5.33
398.329	5.14
398.694	5.04
399.058	5.11
399.422	5.24
399.786	4.93
400.15	4.9
400.514	5.16
400.878	5.07
401.242	5.32
401.605	5.24
401.969	5.04
402.333	5.03
402.697	5.23
403.06	5.32
403.424	5.25
403.787	5.36
404.151	5.04
404.514	5.21
404.878	5.02
405.241	5.09
405.604	4.93
405.968	5.18
406.331	5.26
406.694	5.06
407.057	5.07
407.42	5.09
407.783	5.19
408.146	5.13
408.509	5.17
408.872	5.06
409.235	5.2
409.598	5.09
409.961	5.13
410.323	4.89
410.686	5.02
411.049	5.32
411.411	4.95
411.774	5.08
412.136	5.07
412.499	5.36
412.861	4.91
413.223	5.04
413.586	5.12
413.948	5.13
414.31	5.26
414.672	5.16
415.035	5.12
415.397	5.01
415.759	4.88
416.121	4.98
416.483	5.23
416.845	5.14
417.206	5.3
417.568	5.05
417.93	5.02
418.292	5.07
418.653	4.99
419.015	5.1
419.377	5.07
419.738	5.09
420.1	5.07
420.461	4.9
420.822	5.03
421.184	4.97
421.545	5.08
421.906	5.05
422.267	4.98
422.629	4.96
422.99	5.03
423.351	4.98
423.712	5.2
424.073	5.15
424.434	5.12
424.795	5.09
425.155	5.07
425.516	5
425.877	5.07
426.238	4.99
426.598	5.07
426.959	5.19
427.32	5.08
427.68	5.18
428.041	5.18
428.401	5.19
428.761	5.44
429.122	5.35
429.482	5.41
429.842	5.28
430.202	5.41
430.563	5.42
430.923	5.42
431.283	5.57
431.643	5.33
432.003	5.34
432.363	5.51
432.722	5.49
433.082	5.44
433.442	5.44
433.802	5.42
434.161	5.26
434.521	5.3
434.881	5.27
435.24	5.35
435.6	5.32
435.959	5.35
436.319	5.42
436.678	5.57
437.037	5.45
437.396	5.3
437.756	5.44
438.115	5.3
438.474	5.41
438.833	5.4
439.192	5.46
439.551	5.29
439.91	5.35
440.269	5.39
440.628	5.51
440.987	5.4
441.345	5.38
441.704	5.37
442.063	5.39
442.421	5.42
442.78	5.38
443.138	5.44
443.497	5.43
443.855	5.45
444.214	5.3
444.572	5.52
444.93	5.46
445.288	5.52
445.647	5.38
446.005	5.43
446.363	5.48
446.721	5.35
447.079	5.4
447.437	5.42
447.795	5.55
448.153	5.39
448.51	5.45
448.868	5.28
449.226	5.58
449.584	5.46
449.941	5.47
450.299	5.42
450.656	5.55
451.014	5.63
451.371	5.66
451.729	5.61
452.086	5.62
452.443	5.62
452.801	5.52
453.158	5.8
453.515	5.57
453.872	5.57
454.229	5.5
454.586	5.45
454.943	5.56
455.3	5.67
455.657	5.57
456.014	5.66
456.371	5.68
456.727	5.66
457.084	5.69
457.441	5.75
457.797	5.59
458.154	5.82
458.51	5.59
458.867	5.72
459.223	5.53
459.58	5.65
459.936	5.61
460.292	5.59
460.648	5.59
461.005	5.56
461.361	5.51
461.717	5.54
462.073	5.64
462.429	5.68
462.785	5.6
463.141	5.75
463.496	5.79
463.852	5.78
464.208	5.7
464.564	5.71
464.919	5.76
465.275	5.78
465.631	6
465.986	5.84
466.342	5.78
466.697	5.73
467.052	5.9
467.408	5.72
467.763	5.63
468.118	5.67
468.473	5.86
468.829	5.69
469.184	5.74
469.539	5.7
469.894	5.8
470.249	5.84
470.603	5.88
470.958	5.87
471.313	5.99
471.668	5.93
472.023	5.9
472.377	5.72
472.732	5.98
473.086	5.91
473.441	5.79
473.795	6.16
474.15	5.74
474.504	5.82
474.859	5.69
475.213	5.97
475.567	5.73
475.921	5.93
476.275	5.93
476.63	5.97
476.984	5.7
477.338	6.07
477.692	5.96
478.045	5.89
478.399	5.98
478.753	5.92
479.107	5.89
479.461	5.81
479.814	5.87
480.168	5.86
480.521	6.02
480.875	5.95
481.228	5.91
481.582	5.84
481.935	5.98
482.289	5.9
482.642	6.03
482.995	5.88
483.348	5.82
483.701	5.86
484.055	5.89
484.408	5.84
484.761	5.68
485.114	5.65
485.466	5.59
485.819	5.57
486.172	5.65
486.525	5.7
486.878	5.7
487.23	5.76
487.583	5.85
487.936	5.78
488.288	5.75
488.641	5.7
488.993	5.73
489.345	5.71
489.698	5.71
490.05	5.76
490.402	5.82
490.754	5.87
491.107	5.79
491.459	5.97
491.811	5.95
492.163	5.98
492.515	5.81
492.866	5.83
493.218	5.81
493.57	5.83
493.922	5.84
494.274	6
494.625	6.07
494.977	5.93
495.328	6.12
495.68	6.12
496.031	6.01
496.383	6
496.734	6.05
497.086	6.24
497.437	6.18
497.788	6.16
498.139	6.09
498.49	6.09
498.842	6.12
499.193	6.1
499.544	6.18
499.894	6.18
500.245	6.32
500.596	6.28
500.947	6.13
501.298	6.1
501.648	6.21
501.999	6.31
502.35	6.05
502.7	6.28
503.051	6.22
503.401	6.34
503.752	6.17
504.102	6.08
504.452	6.24
504.803	6.16
505.153	6.29
505.503	6.26
505.853	6.36
506.203	6.23
506.553	6.21
506.903	6.35
507.253	6.36
507.603	6.3
507.953	6.32
508.303	6.39
508.652	6.3
509.002	6.38
509.352	6.32
509.701	6.14
510.051	6.36
510.4	6.41
510.75	6.22
511.099	6.13
511.449	6.44
511.798	6.28
512.147	6.36
512.496	6.39
512.846	6.4
513.195	6.37
513.544	6.59
513.893	6.41
514.242	6.44
514.591	6.39
514.939	6.43
515.288	6.55
515.637	6.47
515.986	6.37
516.334	6.41
516.683	6.49
517.032	6.43
517.38	6.43
517.729	6.46
518.077	6.43
518.426	6.66
518.774	6.42
519.122	6.48
519.47	6.38
519.819	6.5
520.167	6.39
520.515	6.4
520.863	6.42
521.211	6.37
521.559	6.45
521.907	6.53
522.255	6.49
522.602	6.61
522.95	6.66
523.298	6.59
523.645	6.64
523.993	6.7
524.341	6.68
524.688	6.64
525.036	6.56
525.383	6.72
525.73	6.56
526.078	6.74
526.425	6.64
526.772	6.62
527.119	6.63
527.466	6.61
527.814	6.55
528.161	6.67
528.508	6.68
528.854	6.66
529.201	6.6
529.548	6.58
529.895	6.42
530.242	6.42
530.588	6.47
530.935	6.49
531.282	6.54
531.628	6.6
531.975	6.64
532.321	6.61
532.667	6.71
533.014	6.78
533.36	6.79
533.706	6.89
534.052	6.76
534.399	6.69
534.745	6.71
535.091	6.66
535.437	6.7
535.783	6.75
536.129	6.78
536.474	6.9
536.82	6.85
537.166	6.85
537.512	6.91
537.857	6.93
538.203	6.89
538.549	6.79
538.894	6.93
539.239	6.94
539.585	7.06
539.93	7.08
540.276	7.06
540.621	7.07
540.966	7.13
541.311	7.21
541.656	6.96
542.001	7.03
542.346	7.04
542.691	6.86
543.036	6.91
543.381	6.91
543.726	7
544.071	6.99
544.415	7.08
544.76	7.08
545.105	7.11
545.449	7.16
545.794	7.19
546.138	7.19
546.483	7.41
546.827	7.2
547.171	7.25
547.516	7.39
547.86	7.26
548.204	7.33
548.548	7.25
548.892	7.26
549.236	7.34
549.58	7.47
549.924	7.48
550.268	7.67
550.612	7.56
550.956	7.55
551.3	7.81
551.643	7.62
551.987	7.63
552.33	7.83
552.674	7.67
553.017	7.69
553.361	7.66
553.704	7.67
554.048	7.81
554.391	7.72
554.734	7.65
555.077	7.67
555.42	7.7
555.764	7.72
556.107	7.8
556.45	7.82
556.793	7.88
557.135	7.87
557.478	7.99
557.821	7.77
558.164	8.06
558.507	7.8
558.849	8.02
559.192	7.95
559.534	8.09
559.877	7.98
560.219	7.98
560.562	7.91
560.904	8.14
561.246	8
561.589	8.2
561.931	8.19
562.273	8.06
562.615	8.2
562.957	8.21
563.299	8.07
563.641	8.15
563.983	7.98
564.325	8.14
564.667	8.12
565.008	8.32
565.35	8.07
565.692	8.17
566.033	8.24
566.375	8.29
566.716	8.27
567.058	8.29
567.399	8.35
567.741	8.38
568.082	8.35
568.423	8.27
568.764	8.31
569.105	8.42
569.447	8.33
569.788	8.35
570.129	8.44
570.47	8.46
570.811	8.37
571.151	8.43
571.492	8.63
571.833	8.52
572.174	8.54
572.514	8.59
572.855	8.58
573.195	8.61
573.536	8.69
573.876	8.5
574.217	8.6
574.557	8.6
574.898	8.56
575.238	8.84
575.578	8.74
575.918	8.75
576.258	8.94
576.598	8.7
576.938	8.6
577.278	8.84
577.618	8.84
577.958	9
578.298	8.87
578.638	8.92
578.977	9.09
579.317	9.14
579.657	9.02
579.996	9.19
580.336	9.11
580.675	9.13
581.014	9.12
581.354	8.88
581.693	9.36
582.032	9.31
582.372	9.26
582.711	9.35
583.05	9.34
583.389	9.63
583.728	9.57
584.067	9.34
584.406	9.23
584.745	9.28
585.083	9.39
585.422	9.56
585.761	9.68
586.1	9.73
586.438	9.38
586.777	9.61
587.115	9.55
587.454	9.3
587.792	9.7
588.13	9.6
588.469	9.6
588.807	9.83
589.145	9.64
589.483	9.42
589.821	9.63
590.159	9.8
590.497	9.93
590.835	9.88
591.173	9.79
591.511	9.95
591.849	9.94
592.187	9.87
592.524	10.04
592.862	9.8
593.2	9.88
593.537	9.87
593.875	10.05
594.212	10.25
594.55	9.93
594.887	10.07
595.224	10.25
595.561	10.22
595.899	10.08
596.236	10.2
596.573	9.94
596.91	10.26
597.247	10.33
597.584	10.29
597.921	10.2
598.258	10.3
598.594	10.12
598.931	10.17
599.268	10.19
599.604	10.41
599.941	10.52
600.277	10.4
600.614	10.65
600.95	10.36
601.287	10.21
601.623	10.23
601.959	10.95
602.296	10.61
602.632	10.52
602.968	10.74
603.304	10.67
603.64	10.69
603.976	10.53
604.312	10.81
604.648	10.68
604.984	10.72
605.319	10.76
605.655	10.63
605.991	10.81
606.326	10.75
606.662	10.7
606.998	10.78
607.333	10.76
607.668	10.84
608.004	10.78
608.339	11.03
608.674	11.14
609.01	11.44
609.345	11.16
609.68	10.97
610.015	11.21
610.35	11.27
610.685	10.98
611.02	10.95
611.355	11.09
611.689	11.17
612.024	11.32
612.359	11.44
612.694	11.21
613.028	11.26
613.363	11.25
613.697	11.4
614.032	11.57
614.366	11.29
614.7	11.57
615.035	11.58
615.369	11.57
615.703	11.65
616.037	11.67
616.371	11.57
616.705	11.66
617.039	11.64
617.373	11.83
617.707	11.58
618.041	11.73
618.375	11.37
618.709	11.8
619.042	11.78
619.376	11.86
619.71	12
620.043	11.9
620.377	12.05
620.71	12.06
621.043	12.04
621.377	12.13
621.71	12.3
622.043	12.21
622.376	12.21
622.709	12.53
623.043	11.97
623.376	12.12
623.709	12.63
624.041	12.26
624.374	12.45
624.707	12.1
625.04	12.29
625.373	12.27
625.705	12.65
626.038	12.5
626.37	12.01
626.703	12.46
627.035	12.35
627.368	12.69
627.7	12.52
628.032	12.72
628.365	12.67
628.697	12.91
629.029	12.75
629.361	12.88
629.693	12.78
630.025	12.59
630.357	12.78
630.689	12.61
631.021	12.93
631.353	12.71
631.684	12.73
632.016	12.74
632.348	12.82
632.679	13.37
633.011	13.16
633.342	12.74
633.674	12.98
634.005	13.12
634.336	13.31
634.668	13.29
634.999	13.18
635.33	13.27
635.661	13.3
635.992	13.35
636.323	13.59
636.654	13.51
636.985	13.14
637.316	13.23
637.647	13.29
637.977	13.39
638.308	13.89
638.639	13.59
638.969	13.86
639.3	13.65
639.63	13.14
639.961	13.72
640.291	13.25
640.622	13.79
640.952	13.6
641.282	13.52
641.612	13.89
641.943	13.8
642.273	14.13
642.603	13.98
642.933	14
643.263	14.51
643.592	14.22
643.922	14.39
644.252	14.1
644.582	14.19
644.911	13.87
645.241	13.7
645.571	14.19
645.9	14.08
646.23	13.99
646.559	14.2
646.888	14.53
647.218	14.09
647.547	14.11
647.876	14.2
648.205	13.9
648.534	14.5
648.863	14.09
649.192	14.08
649.521	14.55
649.85	14.52
650.179	14.38
650.508	14.45
650.837	15.11
651.165	14.6
651.494	14.43
651.822	14.68
652.151	14.57
652.479	14.86
652.808	14.72
653.136	14.06
653.465	14.78
653.793	14.74
654.121	14.83
654.449	15.04
654.777	14.57
655.105	14.8
655.433	15.21
655.761	15.01
656.089	15.08
656.417	15.75
656.745	15.54
657.073	15.26
657.4	14.6
657.728	15.07
658.056	15.37
658.383	15.02
658.711	15.32
659.038	15.4
659.365	15.55
659.693	15.23
660.02	15.3
660.347	15.5
660.674	15.17
661.001	15.43
661.329	15.5
661.656	15.16
661.982	15.24
662.309	15.32
662.636	15.43
662.963	15.48
663.29	15.94
663.616	15.6
663.943	15.99
664.27	15.24
664.596	15.56
664.923	15.7
665.249	16.36
665.576	15.9
665.902	15.76
666.228	16.18
666.554	16.15
666.881	16.02
667.207	16.22
667.533	15.91
667.859	15.65
668.185	15.58
668.511	16.42
668.837	15.69
669.162	16.03
669.488	15.83
669.814	16.15
670.139	15.44
670.465	16.46
670.791	15.7
671.116	15.78
671.442	15.8
671.767	16.73
672.092	16.5
672.418	17.2
672.743	16.51
673.068	16.12
673.393	17.06
673.718	16.12
674.043	16.76
674.368	16.68
674.693	16.51
675.018	16.82
675.343	17.17
675.667	16.77
675.992	16.96
676.317	16.6
676.641	16.72
676.966	16.95
677.29	16.57
677.615	16.88
677.939	16.97
678.264	17.16
678.588	17.63
678.912	17.56
679.236	17.2
679.56	16.51
679.885	16.7
680.209	17.74
680.532	17.46
680.856	17.3
681.18	18.25
681.504	17.3
681.828	17.1
682.152	17.07
682.475	17.54
682.799	17.36
683.122	17.76
683.446	17.37
683.769	17.94
684.093	17.4
684.416	17.17
684.739	17.46
685.062	18.35
685.386	18.14
685.709	17.74
686.032	17.77
686.355	17.25
686.678	17.95
687.001	17.65
