Data from 0202_crown_Reflection__3__333.txt Node

Date: Fri Dec 15 19:41:20 CST 2023
User: ToomeyLab
Spectrometer: FLMS14357
Trigger mode: 0
Integration Time (sec): 1.000000E-2
Scans to average: 100
Electric dark correction enabled: true
Nonlinearity correction enabled: false
Boxcar width: 0
XAxis mode: Wavelengths
Number of Pixels in Spectrum: 2048
>>>>>Begin Spectral Data<<<<<
189.047	-70.84
189.435	-70.84
189.823	-70.84
190.211	14.27
190.599	-155.66
190.987	61.44
191.375	48.85
191.763	-1021.48
192.151	229.34
192.538	81.59
192.926	-166.25
193.314	98.53
193.702	-45.44
194.089	106.83
194.477	-279.23
194.864	-180.9
195.252	221.22
195.639	182.19
196.027	-59.92
196.414	-13.01
196.801	96.38
197.189	176.31
197.576	-452.56
197.963	-12.3
198.351	-12.39
198.738	-3.48
199.125	-7.17
199.512	-73.34
199.899	41.28
200.286	36.64
200.673	-18.86
201.06	2
201.447	152.53
201.833	21.16
202.22	33.36
202.607	51.1
202.994	-29.39
203.38	7.83
203.767	100.08
204.154	-5.98
204.54	50.33
204.927	-158.36
205.313	-25.82
205.699	44.31
206.086	54.65
206.472	29.6
206.858	-20.81
207.245	-83.35
207.631	26.34
208.017	11.5
208.403	-11.08
208.789	23.76
209.175	54.13
209.561	-41.85
209.947	-30.96
210.333	-60.75
210.719	28.13
211.105	43.13
211.491	-14.31
211.876	24.87
212.262	-7.95
212.648	-0.3
213.034	16.26
213.419	-1.28
213.805	-20.54
214.19	-26.06
214.576	7.69
214.961	-19.54
215.346	-62.18
215.732	-27.28
216.117	-6.67
216.502	-22.04
216.888	18.63
217.273	7.58
217.658	-44.43
218.043	16.64
218.428	-41.66
218.813	-55.81
219.198	-92.76
219.583	-23.19
219.968	-7.09
220.353	-24.71
220.738	25.97
221.122	0.98
221.507	-82.02
221.892	-60.26
222.276	-3.96
222.661	10
223.046	19.19
223.43	6.55
223.815	12.62
224.199	-7.41
224.583	-1.89
224.968	4.95
225.352	8.01
225.736	-5.89
226.121	-12.28
226.505	2.13
226.889	5.98
227.273	4.32
227.657	6.71
228.041	2.43
228.425	-1.37
228.809	6.06
229.193	6.7
229.577	6.07
229.961	5.29
230.344	5.33
230.728	5.34
231.112	5.29
231.495	4.12
231.879	4.21
232.263	6.27
232.646	2.87
233.03	5.25
233.413	4.51
233.797	4.44
234.18	7.06
234.563	3.51
234.946	4.56
235.33	5.38
235.713	5.04
236.096	5.43
236.479	7.05
236.862	3.2
237.245	6.28
237.628	3.15
238.011	5.99
238.394	5.51
238.777	7.04
239.16	3.34
239.543	3.57
239.925	7.56
240.308	6.79
240.691	5.26
241.073	6.27
241.456	6.18
241.838	5.23
242.221	4.7
242.603	6.47
242.986	5.03
243.368	6.12
243.75	6.4
244.133	5.75
244.515	6.5
244.897	5.89
245.279	5.28
245.661	5.79
246.043	5.58
246.425	5.14
246.807	6.89
247.189	6.41
247.571	6.17
247.953	6.22
248.335	5.51
248.717	6.04
249.098	5.68
249.48	5.81
249.862	5.68
250.243	5.48
250.625	5.58
251.006	5.53
251.388	4.72
251.769	6.41
252.151	6.21
252.532	5.75
252.913	4.81
253.295	4.93
253.676	5.91
254.057	5.88
254.438	5.28
254.819	5.73
255.2	5.92
255.581	5.18
255.962	4.78
256.343	5.88
256.724	4.57
257.105	6.8
257.486	4.83
257.867	5.42
258.247	6.04
258.628	4.98
259.009	5.34
259.389	5.42
259.77	4.74
260.15	4.32
260.531	5.07
260.911	6.12
261.292	5.65
261.672	5.73
262.052	5.51
262.432	5.48
262.813	5.67
263.193	5.29
263.573	5.12
263.953	5.52
264.333	5.3
264.713	5.5
265.093	4.53
265.473	5.06
265.853	4.15
266.233	4.97
266.612	3.71
266.992	3.84
267.372	5.58
267.752	5.16
268.131	4.61
268.511	6.03
268.89	5.34
269.27	5.19
269.649	4.21
270.029	4.32
270.408	5.73
270.787	5.47
271.167	5.21
271.546	5.46
271.925	4.96
272.304	5.23
272.683	4.59
273.062	4.89
273.441	5.16
273.82	4.52
274.199	5.22
274.578	4.7
274.957	5.28
275.336	4.88
275.715	4.78
276.093	4.4
276.472	5.01
276.851	4.53
277.229	4.42
277.608	3.89
277.986	4.78
278.365	4.68
278.743	4.13
279.122	4.9
279.5	5.49
279.878	5.09
280.257	4.82
280.635	4.81
281.013	4.94
281.391	5.09
281.769	5.05
282.147	4.94
282.525	5.36
282.903	4.91
283.281	5.07
283.659	5.57
284.037	5.37
284.415	5.05
284.792	4.86
285.17	4.39
285.548	4.15
285.925	5.22
286.303	4.97
286.68	4.65
287.058	4.74
287.435	4.46
287.813	4.72
288.19	4.68
288.567	4.82
288.945	5.16
289.322	5.5
289.699	5.05
290.076	4.5
290.453	4.82
290.83	4.95
291.207	4.5
291.584	4.95
291.961	5.56
292.338	4.88
292.715	5.33
293.092	5.25
293.469	5.08
293.845	5.02
294.222	4.08
294.599	5.65
294.975	5.29
295.352	5.49
295.728	4.96
296.105	5.29
296.481	5.7
296.858	5.63
297.234	4.98
297.61	5.49
297.986	5.54
298.363	5.75
298.739	5.53
299.115	5.24
299.491	4.92
299.867	5.55
300.243	5.66
300.619	5.07
300.995	5.11
301.371	5.75
301.746	5.06
302.122	5.99
302.498	5.4
302.874	5.75
303.249	5.32
303.625	5.66
304	5.7
304.376	5.54
304.751	4.42
305.127	6.6
305.502	5.22
305.878	5.48
306.253	5.34
306.628	6.11
307.003	5.6
307.378	5.94
307.754	5
308.129	5.06
308.504	5.44
308.879	5.62
309.254	6.8
309.629	5.37
310.003	5.57
310.378	6.57
310.753	6.36
311.128	5.81
311.502	5.35
311.877	6.58
312.252	5.59
312.626	5.56
313.001	5.34
313.375	5.92
313.75	5.38
314.124	5.75
314.498	5.57
314.873	5.73
315.247	5.48
315.621	5.87
315.995	5.22
316.369	5.38
316.743	5.45
317.117	6.04
317.491	5.94
317.865	5.17
318.239	6.23
318.613	5.68
318.987	5.63
319.361	5.33
319.734	6.34
320.108	5.62
320.482	5.43
320.855	6.06
321.229	5.04
321.602	5.46
321.976	5.81
322.349	5.06
322.723	5.4
323.096	6.04
323.469	5.56
323.843	5.57
324.216	5.85
324.589	5.45
324.962	5.59
325.335	5.63
325.708	5.56
326.081	5.74
326.454	5.89
326.827	6.01
327.2	5.91
327.573	5.59
327.945	5.49
328.318	6.01
328.691	4.8
329.063	6.11
329.436	5.79
329.809	6.6
330.181	5.46
330.553	5.69
330.926	6.32
331.298	6.71
331.671	5.76
332.043	6.09
332.415	6.06
332.787	5.96
333.159	6.32
333.532	5.96
333.904	5.34
334.276	5.41
334.648	5.9
335.02	5.98
335.391	6.19
335.763	5.4
336.135	6.23
336.507	6.6
336.879	6.26
337.25	5.52
337.622	6.41
337.993	6.3
338.365	5.71
338.736	6.43
339.108	6.45
339.479	5.83
339.851	5.69
340.222	5.95
340.593	6.15
340.964	5.52
341.336	6.91
341.707	5.4
342.078	6.42
342.449	6.13
342.82	6.15
343.191	6
343.562	5.91
343.933	6.27
344.303	5.76
344.674	5.97
345.045	5.81
345.416	6.53
345.786	5.38
346.157	5.98
346.527	5.61
346.898	6.05
347.268	6.39
347.639	5.72
348.009	5.79
348.38	5.36
348.75	6.28
349.12	6.14
349.49	6.24
349.861	6.31
350.231	5.94
350.601	6.39
350.971	6.06
351.341	6.11
351.711	5.8
352.081	6.05
352.45	5.84
352.82	6.36
353.19	6.02
353.56	5.75
353.929	5.96
354.299	6.29
354.669	5.56
355.038	6.78
355.408	5.9
355.777	6.25
356.147	5.87
356.516	6.11
356.885	6.09
357.254	5.81
357.624	6.41
357.993	6.68
358.362	5.98
358.731	5.77
359.1	6
359.469	6.29
359.838	6.24
360.207	6.03
360.576	5.81
360.945	6.3
361.314	6.39
361.682	5.94
362.051	5.79
362.42	6.36
362.788	6.01
363.157	5.95
363.525	6.42
363.894	6.31
364.262	6.09
364.631	6.2
364.999	6.26
365.367	5.57
365.735	6.58
366.104	6.45
366.472	6.36
366.84	5.92
367.208	5.94
367.576	6.17
367.944	6.23
368.312	5.54
368.68	5.84
369.048	6.32
369.416	6.13
369.783	5.69
370.151	6.25
370.519	6.63
370.886	6.77
371.254	5.86
371.621	6.21
371.989	6.21
372.356	5.49
372.724	6.39
373.091	5.92
373.458	6.19
373.826	6.01
374.193	6.09
374.56	6.13
374.927	6.06
375.294	6.1
375.661	5.93
376.028	6.21
376.395	6.37
376.762	6.51
377.129	6.11
377.496	6.04
377.863	6.34
378.229	5.68
378.596	6.34
378.963	6.18
379.329	6.15
379.696	6.5
380.062	6.17
380.429	6.29
380.795	6.26
381.161	6.35
381.528	6.54
381.894	6.33
382.26	6.08
382.626	6.52
382.993	5.89
383.359	6.69
383.725	5.78
384.091	5.98
384.457	6.58
384.823	6.47
385.188	6.41
385.554	6.23
385.92	6.58
386.286	6.43
386.651	6.65
387.017	6.63
387.383	6.71
387.748	6.12
388.114	6.37
388.479	6.2
388.845	6.4
389.21	6.41
389.575	6.32
389.94	6.28
390.306	6.4
390.671	6.68
391.036	6.02
391.401	6
391.766	6.5
392.131	6.32
392.496	6.66
392.861	6.34
393.226	6.52
393.591	6.25
393.956	6.31
394.32	6.45
394.685	6.19
395.05	6.37
395.414	6.39
395.779	6.27
396.143	6.23
396.508	6.27
396.872	6.37
397.236	6.48
397.601	6.15
397.965	6.49
398.329	6.5
398.694	6.3
399.058	6.4
399.422	6.41
399.786	6.49
400.15	6.35
400.514	6.36
400.878	6.54
401.242	6.59
401.605	6.68
401.969	6.38
402.333	6.69
402.697	6.2
403.06	6.42
403.424	6.45
403.787	6.47
404.151	6.36
404.514	6.53
404.878	6.41
405.241	6.57
405.604	6.39
405.968	6.54
406.331	6.33
406.694	6.41
407.057	6.58
407.42	6.83
407.783	6.29
408.146	6.48
408.509	6.49
408.872	6.21
409.235	6.48
409.598	6.67
409.961	6.32
410.323	6.63
410.686	6.78
411.049	6.36
411.411	6.46
411.774	6.25
412.136	6.41
412.499	6.3
412.861	6.63
413.223	6.45
413.586	6.55
413.948	6.69
414.31	6.41
414.672	6.18
415.035	6.4
415.397	6.99
415.759	6.42
416.121	6.66
416.483	6.32
416.845	6.51
417.206	6.36
417.568	6.46
417.93	6.49
418.292	6.58
418.653	6.43
419.015	6.75
419.377	6.37
419.738	6.57
420.1	6.55
420.461	6.61
420.822	6.58
421.184	6.44
421.545	6.44
421.906	6.41
422.267	6.4
422.629	6.43
422.99	6.38
423.351	6.38
423.712	6.36
424.073	6.43
424.434	6.39
424.795	6.48
425.155	6.54
425.516	6.4
425.877	6.53
426.238	6.4
426.598	6.59
426.959	6.36
427.32	6.49
427.68	6.51
428.041	6.5
428.401	6.67
428.761	6.46
429.122	6.7
429.482	6.5
429.842	6.67
430.202	6.55
430.563	6.58
430.923	6.5
431.283	6.64
431.643	6.61
432.003	6.5
432.363	6.82
432.722	6.56
433.082	6.62
433.442	6.65
433.802	6.5
434.161	6.49
434.521	6.98
434.881	6.74
435.24	6.45
435.6	6.5
435.959	6.57
436.319	6.41
436.678	6.58
437.037	6.55
437.396	6.76
437.756	6.75
438.115	6.55
438.474	6.84
438.833	6.38
439.192	6.42
439.551	6.63
439.91	6.68
440.269	6.78
440.628	6.36
440.987	6.75
441.345	6.37
441.704	6.58
442.063	6.55
442.421	6.61
442.78	6.46
443.138	6.51
443.497	6.58
443.855	6.48
444.214	6.55
444.572	6.56
444.93	6.67
445.288	6.75
445.647	6.82
446.005	6.5
446.363	6.59
446.721	6.69
447.079	6.54
447.437	6.65
447.795	6.6
448.153	6.48
448.51	6.48
448.868	6.59
449.226	6.49
449.584	6.47
449.941	6.7
450.299	6.72
450.656	6.66
451.014	6.65
451.371	6.46
451.729	6.47
452.086	6.83
452.443	6.58
452.801	6.76
453.158	6.86
453.515	6.73
453.872	6.83
454.229	6.51
454.586	6.7
454.943	6.68
455.3	6.71
455.657	6.49
456.014	6.76
456.371	6.8
456.727	6.72
457.084	6.92
457.441	6.63
457.797	6.69
458.154	6.97
458.51	6.71
458.867	6.97
459.223	6.8
459.58	6.7
459.936	6.86
460.292	6.82
460.648	6.77
461.005	6.61
461.361	6.79
461.717	6.64
462.073	6.47
462.429	6.59
462.785	6.77
463.141	6.65
463.496	6.73
463.852	6.9
464.208	6.74
464.564	6.86
464.919	6.66
465.275	6.75
465.631	6.96
465.986	6.84
466.342	6.94
466.697	6.54
467.052	6.89
467.408	6.99
467.763	6.75
468.118	6.77
468.473	6.64
468.829	6.78
469.184	6.84
469.539	6.83
469.894	6.59
470.249	7.12
470.603	6.94
470.958	6.86
471.313	7.1
471.668	6.88
472.023	6.92
472.377	6.77
472.732	6.8
473.086	6.84
473.441	6.82
473.795	7.1
474.15	6.88
474.504	6.78
474.859	6.95
475.213	6.77
475.567	6.77
475.921	6.73
476.275	6.93
476.63	6.84
476.984	6.93
477.338	6.88
477.692	6.74
478.045	6.82
478.399	6.81
478.753	6.9
479.107	6.83
479.461	6.67
479.814	7.03
480.168	6.78
480.521	6.79
480.875	6.77
481.228	6.84
481.582	6.87
481.935	7.03
482.289	6.78
482.642	6.86
482.995	6.8
483.348	6.77
483.701	6.89
484.055	6.8
484.408	6.81
484.761	6.76
485.114	6.69
485.466	6.49
485.819	6.49
486.172	6.44
486.525	6.48
486.878	6.54
487.23	6.61
487.583	6.7
487.936	6.74
488.288	6.71
488.641	6.69
488.993	6.69
489.345	6.56
489.698	6.58
490.05	6.57
490.402	6.7
490.754	6.67
491.107	6.69
491.459	6.73
491.811	6.87
492.163	6.72
492.515	6.81
492.866	6.87
493.218	6.68
493.57	6.66
493.922	6.66
494.274	6.66
494.625	6.74
494.977	6.82
495.328	6.95
495.68	6.93
496.031	7.05
496.383	6.9
496.734	7.08
497.086	7.1
497.437	7
497.788	6.95
498.139	6.94
498.49	7.04
498.842	6.7
499.193	6.86
499.544	6.94
499.894	6.88
500.245	6.92
500.596	6.93
500.947	7.11
501.298	6.9
501.648	6.93
501.999	7.09
502.35	6.97
502.7	6.86
503.051	6.86
503.401	7
503.752	7.26
504.102	7.14
504.452	7.03
504.803	7.1
505.153	6.95
505.503	7.08
505.853	6.99
506.203	7.07
506.553	7.02
506.903	6.97
507.253	7.02
507.603	7.03
507.953	7.06
508.303	7.12
508.652	7.05
509.002	7.25
509.352	7.26
509.701	7.03
510.051	7.03
510.4	6.89
510.75	7.04
511.099	7.08
511.449	6.94
511.798	7.05
512.147	6.98
512.496	6.92
512.846	7.11
513.195	7.01
513.544	6.99
513.893	7.08
514.242	7.07
514.591	7.29
514.939	7.02
515.288	7.07
515.637	7.18
515.986	7.08
516.334	7.19
516.683	7.26
517.032	7
517.38	7.22
517.729	7.18
518.077	6.99
518.426	7.19
518.774	7.13
519.122	7.01
519.47	7.11
519.819	6.98
520.167	7.11
520.515	6.97
520.863	7.08
521.211	7.09
521.559	7.18
521.907	7.11
522.255	7.02
522.602	7.12
522.95	7.21
523.298	7.14
523.645	7.14
523.993	7.23
524.341	7.29
524.688	7.29
525.036	7.2
525.383	7.19
525.73	7.12
526.078	7.1
526.425	7.18
526.772	7.15
527.119	7.08
527.466	7.09
527.814	7.13
528.161	7.01
528.508	7.1
528.854	7.04
529.201	6.92
529.548	6.92
529.895	6.98
530.242	6.84
530.588	6.85
530.935	6.89
531.282	6.89
531.628	6.89
531.975	6.96
532.321	7.02
532.667	7.06
533.014	7.1
533.36	7.19
533.706	7.16
534.052	7.11
534.399	7.02
534.745	7.1
535.091	6.97
535.437	7.03
535.783	7.03
536.129	7.02
536.474	7.17
536.82	7.1
537.166	7.21
537.512	7.15
537.857	7.24
538.203	7.22
538.549	7.08
538.894	7.15
539.239	7.2
539.585	7.16
539.93	7.15
540.276	7.32
540.621	7.24
540.966	7.24
541.311	7.12
541.656	7.25
542.001	7.24
542.346	7.4
542.691	7.07
543.036	7.07
543.381	7
543.726	7.02
544.071	7.13
544.415	7.16
544.76	7.08
545.105	7.19
545.449	7.16
545.794	7.23
546.138	7.23
546.483	7.31
546.827	7.24
547.171	7.23
547.516	7.41
547.86	7.28
548.204	7.14
548.548	7.28
548.892	7.24
549.236	7.34
549.58	7.37
549.924	7.27
550.268	7.54
550.612	7.25
550.956	7.48
551.3	7.44
551.643	7.48
551.987	7.45
552.33	7.42
552.674	7.56
553.017	7.42
553.361	7.24
553.704	7.47
554.048	7.36
554.391	7.36
554.734	7.41
555.077	7.54
555.42	7.18
555.764	7.41
556.107	7.38
556.45	7.28
556.793	7.28
557.135	7.39
557.478	7.73
557.821	7.36
558.164	7.19
558.507	7.64
558.849	7.45
559.192	7.51
559.534	7.54
559.877	7.51
560.219	7.45
560.562	7.61
560.904	7.39
561.246	7.44
561.589	7.5
561.931	7.65
562.273	7.4
562.615	7.52
562.957	7.58
563.299	7.41
563.641	7.37
563.983	7.47
564.325	7.44
564.667	7.5
565.008	7.5
565.35	7.53
565.692	7.25
566.033	7.51
566.375	7.73
566.716	7.61
567.058	7.6
567.399	7.43
567.741	7.28
568.082	7.58
568.423	7.49
568.764	7.44
569.105	7.66
569.447	7.66
569.788	7.52
570.129	7.68
570.47	7.33
570.811	7.58
571.151	7.49
571.492	7.75
571.833	7.67
572.174	7.58
572.514	7.64
572.855	7.41
573.195	7.58
573.536	7.52
573.876	7.25
574.217	7.38
574.557	7.57
574.898	7.59
575.238	7.59
575.578	7.52
575.918	7.81
576.258	7.7
576.598	7.71
576.938	7.56
577.278	7.48
577.618	7.56
577.958	7.31
578.298	7.5
578.638	7.39
578.977	7.47
579.317	7.46
579.657	7.43
579.996	7.69
580.336	7.6
580.675	7.6
581.014	7.61
581.354	7.68
581.693	7.63
582.032	7.54
582.372	7.41
582.711	7.87
583.05	7.44
583.389	7.86
583.728	7.51
584.067	7.91
584.406	7.92
584.745	7.72
585.083	7.89
585.422	7.65
585.761	7.97
586.1	7.87
586.438	7.54
586.777	7.85
587.115	7.79
587.454	7.77
587.792	7.84
588.13	7.86
588.469	7.59
588.807	7.72
589.145	7.68
589.483	7.66
589.821	7.65
590.159	7.65
590.497	7.91
590.835	7.94
591.173	7.75
591.511	7.99
591.849	7.89
592.187	7.94
592.524	7.71
592.862	7.81
593.2	7.93
593.537	7.79
593.875	7.8
594.212	7.69
594.55	7.56
594.887	7.9
595.224	7.82
595.561	7.77
595.899	7.46
596.236	7.74
596.573	7.54
596.91	7.55
597.247	7.72
597.584	7.99
597.921	7.66
598.258	7.61
598.594	7.59
598.931	7.61
599.268	7.76
599.604	7.66
599.941	7.93
600.277	7.78
600.614	7.74
600.95	7.69
601.287	7.69
601.623	7.59
601.959	7.72
602.296	7.59
602.632	7.67
602.968	7.74
603.304	8.03
603.64	7.86
603.976	7.84
604.312	7.59
604.648	7.77
604.984	7.79
605.319	7.89
605.655	7.63
605.991	7.67
606.326	7.9
606.662	7.62
606.998	7.59
607.333	7.78
607.668	7.77
608.004	7.83
608.339	8.22
608.674	7.79
609.01	7.43
609.345	7.88
609.68	7.97
610.015	7.83
610.35	7.82
610.685	7.74
611.02	7.79
611.355	7.87
611.689	7.72
612.024	7.62
612.359	7.63
612.694	7.75
613.028	7.57
613.363	7.98
613.697	8.2
614.032	7.99
614.366	7.84
614.7	8.08
615.035	7.98
615.369	7.95
615.703	8.01
616.037	7.92
616.371	7.52
616.705	7.9
617.039	7.86
617.373	7.93
617.707	7.91
618.041	8.02
618.375	8.12
618.709	7.96
619.042	7.48
619.376	8.41
619.71	8.18
620.043	8.43
620.377	8.12
620.71	8.13
621.043	7.8
621.377	7.86
621.71	7.8
622.043	7.65
622.376	7.97
622.709	7.98
623.043	8.24
623.376	8.34
623.709	7.76
624.041	8.55
624.374	8.16
624.707	7.93
625.04	8.05
625.373	7.16
625.705	7.84
626.038	7.84
626.37	8.36
626.703	8.1
627.035	8.36
627.368	8.42
627.7	8.22
628.032	7.99
628.365	8.35
628.697	7.96
629.029	7.79
629.361	8.05
629.693	8.21
630.025	7.81
630.357	8.08
630.689	8.27
631.021	8
631.353	8.27
631.684	7.81
632.016	7.83
632.348	8.17
632.679	8.2
633.011	8.34
633.342	8.46
633.674	8.13
634.005	8.12
634.336	7.91
634.668	8.66
634.999	8.22
635.33	8.11
635.661	8.44
635.992	8.08
636.323	8.4
636.654	8.17
636.985	8.53
637.316	8.18
637.647	7.67
637.977	8.57
638.308	8.41
638.639	7.91
638.969	7.85
639.3	7.94
639.63	7.74
639.961	8.07
640.291	8.16
640.622	8.4
640.952	8.41
641.282	8.95
641.612	8.54
641.943	7.69
642.273	8.18
642.603	8
642.933	8.08
643.263	8.44
643.592	7.8
643.922	8.07
644.252	8.31
644.582	8.23
644.911	7.91
645.241	8.08
645.571	8.18
645.9	7.74
646.23	8.38
646.559	7.95
646.888	8.18
647.218	7.76
647.547	8.53
647.876	8.12
648.205	8.03
648.534	8.12
648.863	7.86
649.192	9.01
649.521	8.13
649.85	8.31
650.179	8.53
650.508	7.97
650.837	8.03
651.165	8.34
651.494	7.86
651.822	8.14
652.151	8.08
652.479	8.26
652.808	8.11
653.136	8.41
653.465	7.7
653.793	8.06
654.121	8.21
654.449	8.12
654.777	8.74
655.105	8.44
655.433	7.99
655.761	8.46
656.089	8.95
656.417	8.87
656.745	8.24
657.073	8.23
657.4	8.85
657.728	8.82
658.056	8.22
658.383	8.64
658.711	8.83
659.038	8.24
659.365	8.92
659.693	8.36
660.02	8.3
660.347	8.28
660.674	8.68
661.001	8.73
661.329	7.99
661.656	8.14
661.982	8.66
662.309	8.39
662.636	7.91
662.963	9.1
663.29	9.21
663.616	8.43
663.943	8.06
664.27	8.31
664.596	8.57
664.923	8.52
665.249	8.64
665.576	8.67
665.902	9.36
666.228	8.63
666.554	8.81
666.881	9.03
667.207	8.89
667.533	8.22
667.859	8.85
668.185	8.6
668.511	7.96
668.837	7.39
669.162	8.53
669.488	8.18
669.814	9.34
670.139	8.77
670.465	9.2
670.791	8.76
671.116	9.33
671.442	8.64
671.767	8.61
672.092	8.77
672.418	8.54
672.743	8.73
673.068	9.06
673.393	8.65
673.718	8.77
674.043	9.3
674.368	8.35
674.693	8.93
675.018	8.31
675.343	8.55
675.667	8.53
675.992	8.89
676.317	9.22
676.641	8.61
676.966	9.21
677.29	8.87
677.615	8.46
677.939	9.01
678.264	9.09
678.588	9.34
678.912	8.99
679.236	8.84
679.56	7.86
679.885	8.91
680.209	8.15
680.532	9.01
680.856	9.12
681.18	8.06
681.504	9.37
681.828	9.11
682.152	8.57
682.475	8.52
682.799	8.69
683.122	8.74
683.446	8.06
683.769	9.18
684.093	8.26
684.416	9.43
684.739	8.36
685.062	8.36
685.386	9.55
685.709	8.62
686.032	8.84
686.355	9.88
686.678	9.28
687.001	9.46
687.324	8.8
687.646	8.27
687.969	8.7
688.292	9.52
688.614	9.27
688.937	9.25
689.26	9.26
689.582	8.68
689.904	8.75
690.227	9.34
690.549	8.88
690.871	9.54
691.194	8.4
691.516	8.08
691.838	9.08
