Data from 0202_forehead_Reflection__0__335.txt Node

Date: Fri Dec 15 19:42:03 CST 2023
User: ToomeyLab
Spectrometer: FLMS14357
Trigger mode: 0
Integration Time (sec): 1.000000E-2
Scans to average: 100
Electric dark correction enabled: true
Nonlinearity correction enabled: false
Boxcar width: 0
XAxis mode: Wavelengths
Number of Pixels in Spectrum: 2048
>>>>>Begin Spectral Data<<<<<
189.047	4.35
189.435	4.35
189.823	4.35
190.211	128.97
190.599	79.62
190.987	61.24
191.375	-169.9
191.763	846.48
192.151	-26.29
192.538	60.2
192.926	159.58
193.314	52.12
193.702	-166.27
194.089	-21.3
194.477	34.07
194.864	-85.76
195.252	150.68
195.639	247.46
196.027	-49.08
196.414	84.37
196.801	39.63
197.189	284.45
197.576	-329.26
197.963	-160.82
198.351	9.14
198.738	-17.31
199.125	33.82
199.512	-24.68
199.899	35.27
200.286	55.85
200.673	24.73
201.06	12.15
201.447	85.93
201.833	23.71
202.22	143.89
202.607	31.03
202.994	11.87
203.38	21.27
203.767	64.69
204.154	56.28
204.54	40.48
204.927	-18.88
205.313	-0.56
205.699	46.88
206.086	68.79
206.472	38.85
206.858	15.34
207.245	6.52
207.631	20.95
208.017	40.86
208.403	-27.46
208.789	18.94
209.175	-3.48
209.561	-33.85
209.947	17.25
210.333	-60.13
210.719	9.29
211.105	61.11
211.491	-53.06
211.876	9.85
212.262	23.01
212.648	11.79
213.034	19.29
213.419	81.62
213.805	-22.51
214.19	21.89
214.576	48.65
214.961	-10.67
215.346	19.93
215.732	10.19
216.117	23.36
216.502	-29.66
216.888	6.63
217.273	22.97
217.658	-0.56
218.043	8.18
218.428	-66.05
218.813	-60.25
219.198	-42.96
219.583	17.56
219.968	21.62
220.353	-24.39
220.738	35.77
221.122	20.89
221.507	-26.56
221.892	-54.71
222.276	-20.27
222.661	30.89
223.046	23.5
223.43	12.22
223.815	19.59
224.199	-5.25
224.583	3.52
224.968	3.63
225.352	17.27
225.736	-1.31
226.121	-3.03
226.505	5.78
226.889	11.44
227.273	-0.51
227.657	10.8
228.041	4.05
228.425	2.68
228.809	10.12
229.193	6.29
229.577	5.55
229.961	5.32
230.344	5.99
230.728	4.29
231.112	5.47
231.495	4.79
231.879	3.93
232.263	5.63
232.646	2.55
233.03	4.7
233.413	3.12
233.797	5.12
234.18	3.89
234.563	6.12
234.946	6.25
235.33	4.78
235.713	4.61
236.096	5.4
236.479	7.69
236.862	3.65
237.245	4.4
237.628	4.54
238.011	5.77
238.394	6.52
238.777	7.07
239.16	3.29
239.543	5.58
239.925	6.61
240.308	4.47
240.691	5.67
241.073	5.76
241.456	5.95
241.838	4.18
242.221	4.85
242.603	5.55
242.986	5.76
243.368	5.28
243.75	4.93
244.133	4.88
244.515	5.27
244.897	5.21
245.279	5.16
245.661	4.54
246.043	4.19
246.425	2.88
246.807	5.19
247.189	5.79
247.571	5.41
247.953	5.34
248.335	5.39
248.717	5.04
249.098	4.82
249.48	5.06
249.862	5.06
250.243	5.23
250.625	4.57
251.006	5.54
251.388	4.04
251.769	5.36
252.151	6.08
252.532	4.47
252.913	4.22
253.295	4.75
253.676	5.07
254.057	5.18
254.438	4.69
254.819	5.01
255.2	4.52
255.581	5.52
255.962	4.5
256.343	5.35
256.724	4.42
257.105	4.88
257.486	3.78
257.867	4.95
258.247	5.45
258.628	4.29
259.009	3.96
259.389	4.27
259.77	4.17
260.15	4.07
260.531	3.58
260.911	5.61
261.292	4.72
261.672	5.13
262.052	4.77
262.432	5.19
262.813	5.08
263.193	5
263.573	4.54
263.953	4.21
264.333	5.86
264.713	5.33
265.093	4.7
265.473	4.03
265.853	3.5
266.233	4.91
266.612	4.18
266.992	4.12
267.372	5.44
267.752	5.18
268.131	4.81
268.511	4.95
268.89	5.43
269.27	4.78
269.649	3.88
270.029	4.16
270.408	5.8
270.787	5.22
271.167	5.14
271.546	4.93
271.925	4.44
272.304	5.24
272.683	4.43
273.062	4.55
273.441	5.1
273.82	4.27
274.199	4.74
274.578	4.64
274.957	4.58
275.336	4.56
275.715	4.17
276.093	4.58
276.472	5.43
276.851	5.05
277.229	4.42
277.608	4.26
277.986	4.76
278.365	5.03
278.743	4.6
279.122	4.4
279.5	4.63
279.878	5.28
280.257	4.65
280.635	4.11
281.013	4.97
281.391	4.88
281.769	4.91
282.147	5.02
282.525	5.56
282.903	5.08
283.281	5.15
283.659	5.13
284.037	4.8
284.415	4.59
284.792	4.74
285.17	4.13
285.548	4.35
285.925	5.19
286.303	4.34
286.68	4.78
287.058	4.65
287.435	5.16
287.813	4.6
288.19	4.83
288.567	4.35
288.945	5.17
289.322	4.99
289.699	4.97
290.076	4.89
290.453	4.56
290.83	4.39
291.207	4.71
291.584	4.96
291.961	5.55
292.338	5.06
292.715	5.33
293.092	4.73
293.469	5.1
293.845	5.21
294.222	4.69
294.599	5.3
294.975	4.83
295.352	5.62
295.728	4.77
296.105	4.76
296.481	5.68
296.858	5.15
297.234	5.05
297.61	5.27
297.986	5.8
298.363	5.52
298.739	5.61
299.115	5.21
299.491	5.18
299.867	5.32
300.243	5.26
300.619	4.93
300.995	5.33
301.371	5.54
301.746	5.7
302.122	6
302.498	5.65
302.874	5.59
303.249	5.57
303.625	5.95
304	5.91
304.376	5.7
304.751	5.98
305.127	6.68
305.502	5.28
305.878	5.73
306.253	6.23
306.628	6.16
307.003	6.53
307.378	6.38
307.754	5.63
308.129	5.17
308.504	6.16
308.879	5.64
309.254	7.07
309.629	6.12
310.003	6.26
310.378	6.66
310.753	6.67
311.128	6.42
311.502	6.21
311.877	7.41
312.252	6.47
312.626	6.3
313.001	6.78
313.375	7.04
313.75	6.53
314.124	6.52
314.498	6.96
314.873	6.23
315.247	6.32
315.621	6.67
315.995	6.55
316.369	6.82
316.743	6.43
317.117	7.16
317.491	6.48
317.865	7.04
318.239	7.09
318.613	6.78
318.987	7.12
319.361	6.88
319.734	7.82
320.108	7.15
320.482	7.84
320.855	7.49
321.229	7.51
321.602	7.04
321.976	7.49
322.349	6.76
322.723	7.29
323.096	8.58
323.469	6.35
323.843	7.44
324.216	7.71
324.589	7.55
324.962	7.75
325.335	7.17
325.708	7.66
326.081	6.97
326.454	7.46
326.827	7.39
327.2	7.68
327.573	7.68
327.945	7.96
328.318	7.75
328.691	7.29
329.063	7.52
329.436	7.68
329.809	8.14
330.181	7.59
330.553	7.56
330.926	8.79
331.298	7.76
331.671	7.63
332.043	8.79
332.415	8.61
332.787	8.25
333.159	8.53
333.532	8.27
333.904	8.74
334.276	8.55
334.648	7.47
335.02	7.93
335.391	8.56
335.763	8.13
336.135	8.22
336.507	8.72
336.879	8.37
337.25	8.04
337.622	8.74
337.993	8.26
338.365	8.65
338.736	8.25
339.108	7.93
339.479	8.04
339.851	8.86
340.222	8.71
340.593	8.72
340.964	8.2
341.336	8.93
341.707	8.41
342.078	9.57
342.449	9.18
342.82	8.49
343.191	8.98
343.562	9.03
343.933	8.76
344.303	9.16
344.674	9.11
345.045	9.46
345.416	9.38
345.786	9
346.157	9.43
346.527	8.55
346.898	9.05
347.268	9.05
347.639	9.07
348.009	9.18
348.38	8.98
348.75	9.19
349.12	9.5
349.49	9.69
349.861	9.51
350.231	9.63
350.601	9.39
350.971	10.01
351.341	10.02
351.711	8.85
352.081	10.1
352.45	9.38
352.82	10.1
353.19	9.9
353.56	9.29
353.929	9.71
354.299	9.64
354.669	9.26
355.038	9.79
355.408	10.26
355.777	9.77
356.147	9.51
356.516	10.09
356.885	10.35
357.254	9.89
357.624	10.58
357.993	10.63
358.362	9.94
358.731	9.85
359.1	10.01
359.469	10.43
359.838	10.35
360.207	10.1
360.576	10.27
360.945	10.44
361.314	10.29
361.682	10.28
362.051	10.3
362.42	10.38
362.788	10.3
363.157	10.56
363.525	10.57
363.894	10.44
364.262	10.6
364.631	10.68
364.999	10.65
365.367	10.06
365.735	11.34
366.104	11.07
366.472	10.84
366.84	10.23
367.208	11.03
367.576	11.41
367.944	10.82
368.312	11
368.68	10.64
369.048	11.22
369.416	10.66
369.783	11.12
370.151	11.06
370.519	11.42
370.886	11.47
371.254	11.07
371.621	11.29
371.989	11.4
372.356	11.17
372.724	11.03
373.091	11.19
373.458	11.59
373.826	11.23
374.193	11.46
374.56	11.57
374.927	11.7
375.294	11.62
375.661	11.51
376.028	11.71
376.395	11.07
376.762	11.68
377.129	11.39
377.496	11.63
377.863	11.71
378.229	11.36
378.596	11.78
378.963	11.76
379.329	11.68
379.696	12.12
380.062	11.83
380.429	12.04
380.795	11.65
381.161	12.2
381.528	12.14
381.894	12.02
382.26	11.91
382.626	12.29
382.993	11.94
383.359	12.26
383.725	11.92
384.091	12.01
384.457	12.78
384.823	12.55
385.188	12.68
385.554	12.37
385.92	12.82
386.286	13.12
386.651	12.84
387.017	12.63
387.383	12.88
387.748	12.51
388.114	13.19
388.479	12.64
388.845	12.93
389.21	12.84
389.575	12.91
389.94	12.76
390.306	12.84
390.671	13.29
391.036	12.88
391.401	12.95
391.766	12.83
392.131	13.29
392.496	13.29
392.861	13.32
393.226	13.52
393.591	13.23
393.956	13.17
394.32	13.23
394.685	13.01
395.05	13.23
395.414	13.22
395.779	12.87
396.143	13.44
396.508	13.36
396.872	13.3
397.236	13.85
397.601	13.36
397.965	13.33
398.329	13.59
398.694	13.63
399.058	13.4
399.422	13.62
399.786	13.99
400.15	13.85
400.514	13.79
400.878	14.11
401.242	14.27
401.605	13.7
401.969	14.01
402.333	14.14
402.697	13.85
403.06	14.15
403.424	14.1
403.787	14.22
404.151	14.21
404.514	14.18
404.878	14.34
405.241	14.49
405.604	14.15
405.968	14.28
406.331	14.41
406.694	14.34
407.057	14.27
407.42	14.36
407.783	14.42
408.146	14.7
408.509	14.51
408.872	14.25
409.235	14.44
409.598	14.92
409.961	14.62
410.323	14.85
410.686	14.9
411.049	14.76
411.411	14.68
411.774	14.96
412.136	15.03
412.499	14.9
412.861	14.8
413.223	14.99
413.586	15.16
413.948	15.21
414.31	15.18
414.672	15.04
415.035	15
415.397	15.47
415.759	15.25
416.121	15.53
416.483	14.95
416.845	15.4
417.206	15.41
417.568	15.3
417.93	15.04
418.292	15.5
418.653	15.42
419.015	15.41
419.377	15.44
419.738	15.66
420.1	15.51
420.461	15.49
420.822	15.72
421.184	15.53
421.545	15.59
421.906	15.4
422.267	15.68
422.629	15.7
422.99	15.66
423.351	15.62
423.712	15.48
424.073	15.44
424.434	15.69
424.795	15.74
425.155	15.83
425.516	15.79
425.877	15.77
426.238	15.77
426.598	15.95
426.959	15.95
427.32	15.8
427.68	16.03
428.041	16.2
428.401	16.21
428.761	16.33
429.122	16.31
429.482	16.5
429.842	16.54
430.202	16.57
430.563	16.55
430.923	16.5
431.283	16.68
431.643	16.53
432.003	16.8
432.363	16.7
432.722	16.73
433.082	16.65
433.442	16.91
433.802	16.8
434.161	16.93
434.521	17.14
434.881	17.21
435.24	16.78
435.6	17.09
435.959	16.83
436.319	16.87
436.678	17.11
437.037	17.22
437.396	17.1
437.756	17.16
438.115	17.27
438.474	17.66
438.833	17.22
439.192	17.38
439.551	17.69
439.91	17.55
440.269	17.44
440.628	17.39
440.987	17.48
441.345	17.27
441.704	17.61
442.063	17.52
442.421	17.54
442.78	17.39
443.138	17.61
443.497	17.51
443.855	17.54
444.214	17.7
444.572	17.84
444.93	17.92
445.288	17.95
445.647	17.81
446.005	17.89
446.363	18.09
446.721	18.35
447.079	18.02
447.437	18.13
447.795	18.06
448.153	17.97
448.51	18.04
448.868	18.1
449.226	18.04
449.584	18.2
449.941	18.19
450.299	18.33
450.656	18.21
451.014	18.5
451.371	18.51
451.729	18.44
452.086	18.77
452.443	18.42
452.801	18.63
453.158	18.71
453.515	18.73
453.872	18.97
454.229	18.81
454.586	18.58
454.943	18.79
455.3	18.77
455.657	18.89
456.014	18.96
456.371	19.07
456.727	19.24
457.084	19.18
457.441	19.13
457.797	19.23
458.154	19.26
458.51	19.37
458.867	19.65
459.223	19.56
459.58	19.45
459.936	19.46
460.292	19.6
460.648	19.59
461.005	19.54
461.361	19.63
461.717	19.59
462.073	19.37
462.429	19.4
462.785	19.4
463.141	19.68
463.496	19.76
463.852	20.03
464.208	19.84
464.564	19.97
464.919	20.1
465.275	20.01
465.631	20.13
465.986	20.04
466.342	20.24
466.697	20.07
467.052	20.17
467.408	20.17
467.763	20.26
468.118	20.46
468.473	20.51
468.829	20.63
469.184	20.41
469.539	20.46
469.894	20.23
470.249	20.61
470.603	20.46
470.958	20.73
471.313	20.91
471.668	20.78
472.023	20.96
472.377	21.01
472.732	20.72
473.086	20.76
473.441	20.95
473.795	21.19
474.15	20.93
474.504	21.01
474.859	21.07
475.213	20.95
475.567	21.05
475.921	21.14
476.275	21.35
476.63	21.17
476.984	21.36
477.338	21.61
477.692	21.39
478.045	21.52
478.399	21.41
478.753	21.49
479.107	21.57
479.461	21.42
479.814	21.57
480.168	21.61
480.521	21.67
480.875	21.55
481.228	21.79
481.582	21.74
481.935	21.74
482.289	21.79
482.642	21.84
482.995	21.85
483.348	21.86
483.701	21.83
484.055	21.88
484.408	21.96
484.761	21.77
485.114	21.76
485.466	21.48
485.819	21.49
486.172	21.35
486.525	21.17
486.878	21.12
487.23	21.29
487.583	21.56
487.936	21.66
488.288	21.86
488.641	21.99
488.993	21.91
489.345	21.95
489.698	21.87
490.05	21.84
490.402	21.99
490.754	21.93
491.107	22.04
491.459	22.14
491.811	22.29
492.163	22.6
492.515	22.71
492.866	22.68
493.218	22.64
493.57	22.71
493.922	22.39
494.274	22.5
494.625	22.48
494.977	22.83
495.328	22.89
495.68	23.06
496.031	23.17
496.383	23.32
496.734	23.48
497.086	23.52
497.437	23.52
497.788	23.72
498.139	23.55
498.49	23.66
498.842	23.55
499.193	23.48
499.544	23.7
499.894	23.63
500.245	23.94
500.596	23.77
500.947	23.84
501.298	23.81
501.648	23.95
501.999	24.15
502.35	24
502.7	24.08
503.051	24.05
503.401	24.35
503.752	24.75
504.102	24.36
504.452	24.57
504.803	24.46
505.153	24.36
505.503	24.57
505.853	24.69
506.203	24.59
506.553	24.65
506.903	24.69
507.253	24.88
507.603	24.73
507.953	24.84
508.303	25
508.652	25.13
509.002	25.16
509.352	25.01
509.701	25.04
510.051	25
510.4	25.15
510.75	25.26
511.099	25.2
511.449	25.15
511.798	25.1
512.147	25.15
512.496	25.2
512.846	25.28
513.195	25.32
513.544	25.44
513.893	25.57
514.242	25.67
514.591	25.66
514.939	25.48
515.288	25.5
515.637	25.82
515.986	25.67
516.334	25.82
516.683	25.97
517.032	25.85
517.38	25.99
517.729	26.14
518.077	25.81
518.426	26.18
518.774	26.25
519.122	26.1
519.47	26.22
519.819	26.03
520.167	26.14
520.515	26.24
520.863	26.08
521.211	26.07
521.559	26.16
521.907	26.14
522.255	26.28
522.602	26.53
522.95	26.4
523.298	26.76
523.645	26.71
523.993	26.65
524.341	26.73
524.688	26.94
525.036	27.02
525.383	26.86
525.73	27.11
526.078	27.04
526.425	27.1
526.772	27.18
527.119	27.16
527.466	27.1
527.814	27.05
528.161	26.85
528.508	26.98
528.854	26.92
529.201	26.92
529.548	27.11
529.895	27.12
530.242	26.92
530.588	26.88
530.935	26.8
531.282	26.69
531.628	26.55
531.975	26.67
532.321	26.85
532.667	27.25
533.014	27.43
533.36	27.68
533.706	27.6
534.052	27.71
534.399	27.85
534.745	27.75
535.091	27.64
535.437	27.6
535.783	27.54
536.129	27.54
536.474	27.56
536.82	27.63
537.166	27.98
537.512	28.08
537.857	28.33
538.203	28.42
538.549	28.36
538.894	28.22
539.239	28.49
539.585	28.34
539.93	28.25
540.276	28.5
540.621	28.51
540.966	28.8
541.311	28.65
541.656	29.05
542.001	29.06
542.346	29.17
542.691	28.83
543.036	28.77
543.381	28.68
543.726	28.66
544.071	28.61
544.415	28.59
544.76	28.77
545.105	28.89
545.449	29.01
545.794	29.15
546.138	29.16
546.483	29.28
546.827	29.54
547.171	29.58
547.516	29.87
547.86	29.6
548.204	29.57
548.548	29.87
548.892	29.91
549.236	29.88
549.58	29.77
549.924	29.84
550.268	30.15
550.612	30.24
550.956	30.33
551.3	30.3
551.643	30.36
551.987	30.51
552.33	30.41
552.674	30.74
553.017	30.59
553.361	30.65
553.704	31.05
554.048	30.95
554.391	30.86
554.734	30.89
555.077	30.87
555.42	30.85
555.764	30.91
556.107	30.81
556.45	31.04
556.793	31.11
557.135	31.34
557.478	31.66
557.821	31.41
558.164	31.55
558.507	31.49
558.849	31.47
559.192	31.78
559.534	31.53
559.877	31.82
560.219	31.79
560.562	31.86
560.904	31.79
561.246	31.9
561.589	31.91
561.931	31.78
562.273	31.83
562.615	32.32
562.957	32.41
563.299	32.14
563.641	32.11
563.983	32.14
564.325	32.07
564.667	32.12
565.008	32.28
565.35	32.47
565.692	32.24
566.033	32.43
566.375	32.68
566.716	32.78
567.058	32.46
567.399	32.76
567.741	32.53
568.082	32.82
568.423	32.8
568.764	32.57
569.105	32.34
569.447	32.92
569.788	32.65
570.129	33.05
570.47	32.63
570.811	32.93
571.151	33.02
571.492	33.11
571.833	33.2
572.174	33.13
572.514	33.38
572.855	33.35
573.195	33.18
573.536	33.53
573.876	33.3
574.217	33.41
574.557	33.48
574.898	33.42
575.238	33.53
575.578	33.52
575.918	33.74
576.258	33.62
576.598	33.79
576.938	33.79
577.278	34.05
577.618	33.9
577.958	33.62
578.298	33.91
578.638	33.89
578.977	34.05
579.317	33.95
579.657	33.91
579.996	34.18
580.336	34.56
580.675	34.23
581.014	34.42
581.354	34.66
581.693	34.48
582.032	34.55
582.372	35.08
582.711	34.83
583.05	34.69
583.389	34.67
583.728	34.77
584.067	34.96
584.406	35.1
584.745	34.83
585.083	35.28
585.422	35.18
585.761	35.03
586.1	35.21
586.438	34.82
586.777	35.59
587.115	35.59
587.454	35.37
587.792	35.43
588.13	35.67
588.469	35.66
588.807	35.59
589.145	35.4
589.483	35.64
589.821	35.94
590.159	35.92
590.497	36.22
590.835	35.9
591.173	35.67
591.511	36.49
591.849	36.28
592.187	36.38
592.524	35.93
592.862	35.83
593.2	36.01
593.537	36.4
593.875	36.29
594.212	36.2
594.55	36.59
594.887	36.49
595.224	36.51
595.561	36.76
595.899	36.58
596.236	36.63
596.573	36.47
596.91	36.67
597.247	36.61
597.584	36.89
597.921	36.83
598.258	36.81
598.594	37.24
598.931	36.96
599.268	36.94
599.604	36.96
599.941	36.82
600.277	36.72
600.614	36.81
600.95	37.02
601.287	37.23
601.623	37.23
601.959	37.51
602.296	37.21
602.632	37.44
602.968	37.63
603.304	37.55
603.64	37.42
603.976	37.34
604.312	37.55
604.648	37.55
604.984	37.67
605.319	37.85
605.655	38.06
605.991	37.75
606.326	37.84
606.662	37.7
606.998	37.6
607.333	37.96
607.668	37.7
608.004	38.04
608.339	38.04
608.674	37.8
609.01	38
609.345	38.23
609.68	38.19
610.015	38.36
610.35	38.33
610.685	38.76
611.02	38.61
611.355	38.84
611.689	38.85
612.024	38.44
612.359	38.44
612.694	38.61
613.028	38.48
613.363	38.85
613.697	39.07
614.032	39.24
614.366	38.65
614.7	38.91
615.035	39.26
615.369	39.03
615.703	39.01
616.037	39.43
616.371	39.54
616.705	39.02
617.039	39.54
617.373	39.44
617.707	39.35
618.041	39.93
618.375	39.79
618.709	39.57
619.042	39.68
619.376	39.88
619.71	40.06
620.043	40.13
620.377	40.07
620.71	39.81
621.043	40.11
621.377	40.03
621.71	39.72
622.043	39.36
622.376	40.03
622.709	40.03
623.043	40.3
623.376	40.34
623.709	40.46
624.041	40.09
624.374	40.25
624.707	40.02
625.04	40.28
625.373	40.03
625.705	40.73
626.038	40.18
626.37	40.67
626.703	40.31
627.035	40.59
627.368	41.13
627.7	40.79
628.032	40.52
628.365	41.27
628.697	40.95
629.029	41.05
629.361	40.67
629.693	41.17
630.025	41.13
630.357	40.91
630.689	40.99
631.021	40.95
631.353	41.31
631.684	41.22
632.016	41.19
632.348	41.41
632.679	41.15
633.011	40.96
633.342	41.38
633.674	41.69
634.005	41.87
634.336	41.04
634.668	42.27
634.999	41.58
635.33	41.9
635.661	41.98
635.992	42.05
636.323	41.97
636.654	41.77
636.985	41.78
637.316	41.95
637.647	41.94
637.977	42.15
638.308	42.91
638.639	42.07
638.969	42.43
639.3	41.76
639.63	42
639.961	42.37
640.291	42.57
640.622	42.65
640.952	42.07
641.282	42.73
641.612	42.61
641.943	42.21
642.273	42.96
642.603	42.61
642.933	42.55
643.263	42.91
643.592	42.31
643.922	42.4
644.252	42.84
644.582	42.37
644.911	42.52
645.241	43.14
645.571	43.16
645.9	43.28
646.23	43.3
646.559	43.34
646.888	42.86
647.218	43.06
647.547	43.7
647.876	43.03
648.205	43.44
648.534	42.74
648.863	42.72
649.192	43.33
649.521	43.02
649.85	42.92
650.179	43.33
650.508	43.09
650.837	43.46
651.165	43.42
651.494	43.49
651.822	43.89
652.151	43.5
652.479	43.89
652.808	43.64
653.136	44.21
653.465	43.51
653.793	44.04
654.121	43.88
654.449	43.91
654.777	44.05
655.105	44.1
655.433	43.66
655.761	44.47
656.089	44.84
656.417	44.81
656.745	44.21
657.073	43.96
657.4	44.26
657.728	44.22
658.056	43.12
658.383	44.13
658.711	44.86
659.038	44.65
659.365	44.7
659.693	45.02
660.02	45.34
660.347	44.94
660.674	44.66
661.001	45.13
661.329	44.66
661.656	45.54
661.982	45.22
662.309	45.03
662.636	44.7
662.963	44.94
663.29	44.51
663.616	45.15
663.943	45.53
664.27	45.49
664.596	45.97
664.923	44.8
665.249	45.64
665.576	44.4
665.902	45.38
666.228	45.49
666.554	45.41
666.881	45.38
667.207	45.62
667.533	46.12
667.859	45.48
668.185	46.89
668.511	45.49
668.837	45.13
669.162	45.69
669.488	45.47
669.814	46.28
670.139	46.48
670.465	45.86
670.791	46.38
