Data from 0202_forehead_Reflection__2__337.txt Node

Date: Fri Dec 15 19:42:23 CST 2023
User: ToomeyLab
Spectrometer: FLMS14357
Trigger mode: 0
Integration Time (sec): 1.000000E-2
Scans to average: 100
Electric dark correction enabled: true
Nonlinearity correction enabled: false
Boxcar width: 0
XAxis mode: Wavelengths
Number of Pixels in Spectrum: 2048
>>>>>Begin Spectral Data<<<<<
189.047	-58.91
189.435	-58.91
189.823	-58.91
190.211	-248.56
190.599	-129.1
190.987	-0.01
191.375	37.01
191.763	1269.14
192.151	112.93
192.538	96.24
192.926	242.8
193.314	150.95
193.702	-146.79
194.089	-26.29
194.477	183.67
194.864	982.99
195.252	248.13
195.639	241.74
196.027	164.01
196.414	51.31
196.801	40.25
197.189	102.57
197.576	-1118.47
197.963	238.78
198.351	-29.27
198.738	-5.16
199.125	55.05
199.512	51.36
199.899	28
200.286	5.42
200.673	74.03
201.06	72.07
201.447	10.22
201.833	3.09
202.22	14.48
202.607	53.16
202.994	73.18
203.38	-1.19
203.767	45.25
204.154	-8.27
204.54	18.04
204.927	-41.9
205.313	-53.72
205.699	6.64
206.086	41.47
206.472	63.92
206.858	11.57
207.245	-42.1
207.631	29.93
208.017	36.47
208.403	15.21
208.789	43.45
209.175	20.77
209.561	-10.22
209.947	-15.22
210.333	-55.9
210.719	-1.61
211.105	57.11
211.491	-10.71
211.876	23.46
212.262	-3.11
212.648	16.99
213.034	48.36
213.419	-84.29
213.805	7.68
214.19	-20.15
214.576	-24.11
214.961	9.19
215.346	-104.27
215.732	3.75
216.117	31.29
216.502	-19.2
216.888	9.39
217.273	60.19
217.658	-0.39
218.043	25.52
218.428	-35.6
218.813	-49.61
219.198	-9.23
219.583	-19.11
219.968	11.42
220.353	-6.47
220.738	25.11
221.122	16.05
221.507	-9.04
221.892	-83.68
222.276	-49.88
222.661	7.84
223.046	19.1
223.43	10.82
223.815	1.29
224.199	-20.1
224.583	21.42
224.968	7.06
225.352	14.77
225.736	1.7
226.121	2.65
226.505	6.6
226.889	13.22
227.273	9.23
227.657	5.51
228.041	6.1
228.425	6.85
228.809	6.96
229.193	5.91
229.577	5.15
229.961	7.29
230.344	5.71
230.728	6.37
231.112	5.76
231.495	5.76
231.879	6.64
232.263	7.2
232.646	5.71
233.03	6.51
233.413	4.51
233.797	5.18
234.18	5.11
234.563	8.88
234.946	5.33
235.33	7.89
235.713	5.83
236.096	8.03
236.479	5.94
236.862	5.42
237.245	7.73
237.628	3.61
238.011	6.35
238.394	7.38
238.777	6.48
239.16	4.54
239.543	5.99
239.925	6.13
240.308	8.13
240.691	6.02
241.073	8.34
241.456	7.21
241.838	5.68
242.221	5.75
242.603	7.18
242.986	5.8
243.368	5.94
243.75	6.24
244.133	6.19
244.515	6.52
244.897	6.54
245.279	6.37
245.661	5.18
246.043	5.99
246.425	5.21
246.807	7.73
247.189	7.93
247.571	7.07
247.953	6.87
248.335	6.21
248.717	6.2
249.098	6.17
249.48	6.31
249.862	6.56
250.243	6.56
250.625	6.74
251.006	6.69
251.388	5.48
251.769	6.65
252.151	5.66
252.532	5.84
252.913	6.41
253.295	5.82
253.676	5.9
254.057	6.26
254.438	6.49
254.819	6.77
255.2	5.52
255.581	6.29
255.962	5.38
256.343	6.82
256.724	6.01
257.105	5.88
257.486	6.69
257.867	7.18
258.247	6.38
258.628	6.49
259.009	5.62
259.389	6.77
259.77	5.5
260.15	6.12
260.531	5.19
260.911	6.67
261.292	6.11
261.672	6.63
262.052	6.17
262.432	6.42
262.813	6.32
263.193	5.87
263.573	5.85
263.953	5.79
264.333	6.44
264.713	6.45
265.093	4.98
265.473	5.88
265.853	5.02
266.233	7.37
266.612	4.73
266.992	4.69
267.372	6.94
267.752	6.11
268.131	6.44
268.511	6.64
268.89	6.27
269.27	5.81
269.649	5.33
270.029	5.61
270.408	7.07
270.787	5.93
271.167	7.17
271.546	6.25
271.925	5.98
272.304	6.15
272.683	6.45
273.062	6.34
273.441	5.95
273.82	5.59
274.199	5.96
274.578	6.19
274.957	5.86
275.336	5.98
275.715	4.99
276.093	6.19
276.472	5.45
276.851	5.88
277.229	6.02
277.608	4.96
277.986	6.17
278.365	5.47
278.743	5.74
279.122	5.97
279.5	6.12
279.878	6.07
280.257	6.51
280.635	5.53
281.013	5.13
281.391	5.78
281.769	6.44
282.147	5.9
282.525	6.64
282.903	6.06
283.281	6.37
283.659	6.73
284.037	6.04
284.415	6.68
284.792	6.02
285.17	5.28
285.548	5.22
285.925	5.79
286.303	6.27
286.68	5.8
287.058	5.74
287.435	5.74
287.813	5.68
288.19	5.34
288.567	6.12
288.945	6.18
289.322	5.68
289.699	6.05
290.076	6.33
290.453	6.23
290.83	6.21
291.207	5.82
291.584	6.55
291.961	6.28
292.338	6.07
292.715	6.45
293.092	6.25
293.469	6.04
293.845	6.79
294.222	6.13
294.599	6.2
294.975	6.39
295.352	6.73
295.728	6.04
296.105	5.88
296.481	6.53
296.858	7.27
297.234	6.72
297.61	6.4
297.986	6.38
298.363	7.09
298.739	6.8
299.115	6.7
299.491	6.81
299.867	6.84
300.243	7.13
300.619	6.02
300.995	6.33
301.371	7
301.746	6.59
302.122	7.29
302.498	6.5
302.874	6.68
303.249	7.19
303.625	7.44
304	7.32
304.376	7.14
304.751	6.74
305.127	7.99
305.502	6.26
305.878	6.55
306.253	7.01
306.628	7.78
307.003	7.42
307.378	7.69
307.754	7.07
308.129	7.16
308.504	7.71
308.879	7.58
309.254	8.76
309.629	7.8
310.003	8.23
310.378	7.97
310.753	8.2
311.128	7.51
311.502	7.83
311.877	8.24
312.252	7.58
312.626	8.17
313.001	7.84
313.375	8.33
313.75	7.79
314.124	8.18
314.498	7.9
314.873	8.18
315.247	8.27
315.621	8.3
315.995	7.37
316.369	8.11
316.743	8.28
317.117	8.4
317.491	7.92
317.865	8.61
318.239	8.35
318.613	8.71
318.987	9.23
319.361	8.03
319.734	9.05
320.108	8.81
320.482	9.17
320.855	9.56
321.229	8.87
321.602	8.84
321.976	9.27
322.349	8.58
322.723	8.96
323.096	10.35
323.469	8.17
323.843	8.71
324.216	9.11
324.589	8.57
324.962	8.83
325.335	9.22
325.708	8.77
326.081	9.06
326.454	9.01
326.827	9.13
327.2	9.91
327.573	9.56
327.945	9.85
328.318	9.16
328.691	9.04
329.063	9.33
329.436	9.2
329.809	10.18
330.181	9.13
330.553	9.6
330.926	9.48
331.298	10.28
331.671	9.12
332.043	9.96
332.415	10.2
332.787	10.26
333.159	10.43
333.532	10.61
333.904	10
334.276	10.3
334.648	10.74
335.02	10.55
335.391	10.62
335.763	9.38
336.135	10.1
336.507	10.62
336.879	10.3
337.25	9.86
337.622	10.31
337.993	10.02
338.365	10.16
338.736	10.62
339.108	10.43
339.479	10.24
339.851	10.14
340.222	10.53
340.593	10.78
340.964	10.65
341.336	11.24
341.707	11.24
342.078	11.35
342.449	10.73
342.82	10.83
343.191	10.84
343.562	11.13
343.933	11.09
344.303	10.41
344.674	11.15
345.045	11.23
345.416	11.19
345.786	10.37
346.157	10.67
346.527	9.92
346.898	10.72
347.268	11.24
347.639	10.95
348.009	11.07
348.38	10.75
348.75	11.42
349.12	11.12
349.49	11.92
349.861	11.2
350.231	11.22
350.601	12.06
350.971	11.5
351.341	11.44
351.711	11.48
352.081	11.43
352.45	10.7
352.82	11.56
353.19	11.51
353.56	11.92
353.929	11.59
354.299	11.73
354.669	11.42
355.038	12.01
355.408	11.41
355.777	11.85
356.147	11.77
356.516	11.31
356.885	11.92
357.254	11.92
357.624	12.18
357.993	12.08
358.362	11.66
358.731	11.51
359.1	11.94
359.469	12.04
359.838	12.02
360.207	11.9
360.576	12.23
360.945	12.02
361.314	12.82
361.682	11.76
362.051	12.16
362.42	11.9
362.788	12.2
363.157	12.2
363.525	12.24
363.894	12.51
364.262	12.38
364.631	12.25
364.999	12.5
365.367	12.01
365.735	13.22
366.104	12.5
366.472	12.68
366.84	12.31
367.208	12.55
367.576	12.7
367.944	13.16
368.312	12.23
368.68	12.72
369.048	12.82
369.416	12.71
369.783	12.81
370.151	13.17
370.519	12.82
370.886	13.09
371.254	12.83
371.621	13.58
371.989	12.92
372.356	12.84
372.724	13.15
373.091	13.2
373.458	13.24
373.826	13.1
374.193	12.93
374.56	13.11
374.927	13.24
375.294	13.86
375.661	12.82
376.028	13.42
376.395	13.42
376.762	12.96
377.129	13.34
377.496	13.69
377.863	13.51
378.229	12.97
378.596	13.24
378.963	13.57
379.329	13.31
379.696	13.82
380.062	13.76
380.429	13.52
380.795	13.4
381.161	14.01
381.528	13.82
381.894	13.71
382.26	13.66
382.626	13.74
382.993	13.44
383.359	13.97
383.725	13.82
384.091	13.79
384.457	14.07
384.823	14.14
385.188	14.32
385.554	14.24
385.92	14.4
386.286	14.51
386.651	14.19
387.017	14.25
387.383	14.37
387.748	13.67
388.114	14.42
388.479	14.44
388.845	14.54
389.21	14.46
389.575	14.42
389.94	14.63
390.306	14.37
390.671	14.89
391.036	14.07
391.401	14.25
391.766	14.74
392.131	14.01
392.496	14.85
392.861	14.51
393.226	14.96
393.591	14.95
393.956	14.53
394.32	14.88
394.685	14.62
395.05	14.94
395.414	14.99
395.779	14.8
396.143	15.01
396.508	14.97
396.872	14.78
397.236	15.25
397.601	14.73
397.965	15.27
398.329	14.93
398.694	15.17
399.058	15.48
399.422	15.24
399.786	15.35
400.15	15.25
400.514	15.34
400.878	15.24
401.242	15.59
401.605	15.41
401.969	15.37
402.333	15.61
402.697	15.42
403.06	15.27
403.424	15.83
403.787	15.27
404.151	15.78
404.514	15.54
404.878	15.62
405.241	15.82
405.604	15.79
405.968	15.73
406.331	15.75
406.694	15.71
407.057	15.72
407.42	15.81
407.783	15.68
408.146	16.06
408.509	15.76
408.872	15.73
409.235	15.7
409.598	16.16
409.961	16.15
410.323	16.35
410.686	16.16
411.049	16.15
411.411	16.14
411.774	16.4
412.136	16.24
412.499	16.15
412.861	16.01
413.223	16.37
413.586	16.57
413.948	16.39
414.31	16.59
414.672	16.61
415.035	16.31
415.397	16.78
415.759	16.36
416.121	16.72
416.483	16.59
416.845	16.78
417.206	16.8
417.568	16.81
417.93	16.73
418.292	16.73
418.653	16.64
419.015	16.84
419.377	16.84
419.738	16.84
420.1	16.73
420.461	16.85
420.822	17.05
421.184	16.8
421.545	16.99
421.906	16.87
422.267	16.91
422.629	16.84
422.99	16.81
423.351	16.87
423.712	16.99
424.073	17.13
424.434	17.02
424.795	17.03
425.155	17.33
425.516	17.04
425.877	17.23
426.238	17.14
426.598	17.3
426.959	17.4
427.32	17.25
427.68	17.38
428.041	17.35
428.401	17.55
428.761	17.49
429.122	17.78
429.482	17.72
429.842	18.04
430.202	18.1
430.563	17.83
430.923	17.77
431.283	18
431.643	17.88
432.003	17.86
432.363	17.88
432.722	18.21
433.082	18.02
433.442	18.16
433.802	18.21
434.161	18.39
434.521	18.38
434.881	18.3
435.24	18.19
435.6	18.23
435.959	18.11
436.319	18.29
436.678	18.46
437.037	18.26
437.396	18.48
437.756	18.62
438.115	18.46
438.474	18.75
438.833	18.53
439.192	18.77
439.551	18.78
439.91	18.61
440.269	18.69
440.628	18.76
440.987	18.71
441.345	18.56
441.704	18.86
442.063	18.73
442.421	18.84
442.78	18.69
443.138	18.91
443.497	18.92
443.855	19.14
444.214	19.07
444.572	19.23
444.93	19.18
445.288	19.19
445.647	19.2
446.005	19.11
446.363	19.21
446.721	19.33
447.079	19.07
447.437	19.21
447.795	19.22
448.153	19.16
448.51	19.19
448.868	19.31
449.226	19.12
449.584	19.43
449.941	19.67
450.299	19.6
450.656	19.45
451.014	19.85
451.371	19.63
451.729	19.8
452.086	20.02
452.443	19.84
452.801	20.17
453.158	20.09
453.515	19.91
453.872	20.07
454.229	20.12
454.586	20.08
454.943	20.13
455.3	20.24
455.657	20.34
456.014	20.33
456.371	20.42
456.727	20.04
457.084	20.56
457.441	20.51
457.797	20.31
458.154	20.74
458.51	20.66
458.867	20.62
459.223	20.76
459.58	20.61
459.936	20.67
460.292	20.43
460.648	20.77
461.005	20.41
461.361	20.62
461.717	20.46
462.073	20.29
462.429	20.58
462.785	20.78
463.141	20.91
463.496	20.9
463.852	21.31
464.208	21
464.564	21.22
464.919	21.16
465.275	21.12
465.631	21.27
465.986	21.47
466.342	21.42
466.697	21.47
467.052	21.51
467.408	21.4
467.763	21.57
468.118	21.47
468.473	21.45
468.829	21.65
469.184	21.43
469.539	21.65
469.894	21.64
470.249	22.02
470.603	21.83
470.958	22.05
471.313	22.02
471.668	22.06
472.023	22
472.377	21.89
472.732	22.18
473.086	22.09
473.441	22.12
473.795	22.58
474.15	22.34
474.504	22.24
474.859	22.14
475.213	22.22
475.567	22.24
475.921	22.5
476.275	22.52
476.63	22.69
476.984	22.74
477.338	22.81
477.692	22.52
478.045	22.63
478.399	22.41
478.753	22.85
479.107	22.88
479.461	22.67
479.814	22.87
480.168	22.86
480.521	22.75
480.875	22.82
481.228	22.93
481.582	23.11
481.935	22.87
482.289	23.08
482.642	23.02
482.995	23.06
483.348	23.1
483.701	23.08
484.055	23
484.408	22.9
484.761	22.64
485.114	22.48
485.466	22.11
485.819	22.09
486.172	22.22
486.525	22.5
486.878	22.69
487.23	22.88
487.583	22.99
487.936	23.15
488.288	23.1
488.641	23.04
488.993	22.76
489.345	22.71
489.698	22.93
490.05	22.95
490.402	23.12
490.754	23.25
491.107	23.52
491.459	23.6
491.811	23.92
492.163	23.89
492.515	23.84
492.866	23.72
493.218	23.44
493.57	23.38
493.922	23.4
494.274	23.66
494.625	24.01
494.977	24.24
495.328	24.52
495.68	24.61
496.031	24.68
496.383	24.68
496.734	24.84
497.086	24.96
497.437	24.77
497.788	24.82
498.139	24.92
498.49	24.8
498.842	24.73
499.193	24.85
499.544	24.97
499.894	24.96
500.245	25.19
500.596	25.01
500.947	25.12
501.298	25.17
501.648	25.36
501.999	25.58
502.35	25.63
502.7	25.49
503.051	25.49
503.401	25.58
503.752	25.91
504.102	25.76
504.452	26.05
504.803	25.83
505.153	25.85
505.503	25.98
505.853	26.01
506.203	25.9
506.553	26.03
506.903	26.08
507.253	26.19
507.603	26.01
507.953	26.26
508.303	26.37
508.652	26.22
509.002	26.53
509.352	26.39
509.701	26.45
510.051	26.48
510.4	26.38
510.75	26.51
511.099	26.41
511.449	26.53
511.798	26.66
512.147	26.6
512.496	26.53
512.846	26.73
513.195	26.77
513.544	26.83
513.893	26.99
514.242	26.82
514.591	26.99
514.939	26.98
515.288	27.03
515.637	27.15
515.986	27.2
516.334	27.41
516.683	27.54
517.032	27.4
517.38	27.53
517.729	27.61
518.077	27.45
518.426	27.59
518.774	27.57
519.122	27.57
519.47	27.58
519.819	27.25
520.167	27.38
520.515	27.37
520.863	27.41
521.211	27.54
521.559	27.68
521.907	27.72
522.255	27.86
522.602	28.03
522.95	27.89
523.298	28.13
523.645	28.23
523.993	28.06
524.341	28.38
524.688	28.45
525.036	28.46
525.383	28.32
525.73	28.52
526.078	28.5
526.425	28.55
526.772	28.58
527.119	28.35
527.466	28.26
527.814	28.13
528.161	28.24
528.508	28.39
528.854	28.47
529.201	28.27
529.548	28.15
529.895	28.28
530.242	27.79
530.588	27.73
530.935	27.91
531.282	28.11
531.628	28.39
531.975	28.64
532.321	28.75
532.667	28.97
533.014	29.18
533.36	29.29
533.706	29.12
534.052	29.15
534.399	28.96
534.745	28.98
535.091	28.76
535.437	28.79
535.783	29.05
536.129	29.32
536.474	29.5
536.82	29.71
537.166	29.88
537.512	30.07
537.857	29.95
538.203	29.85
538.549	29.68
538.894	29.78
539.239	29.94
539.585	30.1
539.93	30.33
540.276	30.33
540.621	30.7
540.966	30.63
541.311	30.45
541.656	30.48
542.001	30.59
542.346	30.32
542.691	30.24
543.036	29.82
543.381	29.75
543.726	29.93
544.071	30.34
544.415	30.5
544.76	30.56
545.105	30.54
545.449	30.65
545.794	30.87
546.138	31.24
546.483	31.13
546.827	31.44
547.171	31.4
547.516	31.34
547.86	31.31
548.204	31.32
548.548	31.39
548.892	31.43
549.236	31.49
549.58	31.69
549.924	31.93
550.268	31.85
550.612	32.08
550.956	32.04
551.3	32.2
551.643	32.49
551.987	32.4
552.33	32.39
552.674	32.49
553.017	32.24
553.361	32.63
553.704	32.95
554.048	32.58
554.391	32.68
554.734	32.6
555.077	32.66
555.42	32.71
555.764	32.75
556.107	32.83
556.45	32.83
556.793	33.2
557.135	33.2
557.478	33.57
557.821	33.34
558.164	33.41
558.507	33.39
558.849	33.48
559.192	33.63
559.534	33.77
559.877	33.92
560.219	33.47
560.562	33.77
560.904	33.83
561.246	34.02
561.589	33.76
561.931	34.14
562.273	33.8
562.615	34.22
562.957	33.99
563.299	33.84
563.641	34.14
563.983	34.11
564.325	34.27
564.667	34.33
565.008	34.22
565.35	34.36
565.692	34.24
566.033	34.59
566.375	34.83
566.716	34.79
567.058	34.45
567.399	34.33
567.741	34.32
568.082	34.65
568.423	34.71
568.764	34.61
569.105	34.66
569.447	34.83
569.788	34.84
570.129	34.98
570.47	35.03
570.811	35.29
571.151	35.3
571.492	35.46
571.833	35.26
572.174	35.5
572.514	35.45
572.855	35.44
573.195	35.23
573.536	35.58
573.876	35.48
574.217	35.53
574.557	35.72
574.898	35.59
575.238	35.93
575.578	35.85
575.918	36.05
576.258	35.71
576.598	36.21
576.938	36.09
577.278	36.22
577.618	36.26
577.958	36.16
578.298	36.38
578.638	36.37
578.977	36.31
579.317	36.59
579.657	36.91
579.996	36.89
580.336	37.27
580.675	36.91
581.014	37.07
581.354	36.86
581.693	36.93
582.032	36.91
582.372	37.25
582.711	37.6
583.05	37.15
583.389	37.11
583.728	37.11
584.067	37.68
584.406	37.57
584.745	37.5
585.083	37.58
585.422	37.55
585.761	37.67
586.1	37.99
586.438	37.97
586.777	37.91
587.115	38.14
587.454	38.03
587.792	37.97
588.13	38.32
588.469	38.01
588.807	37.98
589.145	38.31
589.483	38.53
589.821	37.9
590.159	38.28
590.497	38.81
590.835	38.43
591.173	38.17
591.511	38.61
591.849	38.76
592.187	38.59
592.524	38.89
592.862	38.83
593.2	38.69
593.537	38.88
593.875	38.68
594.212	38.92
594.55	39.02
594.887	39.11
595.224	38.88
595.561	39.13
595.899	39.36
596.236	39.15
596.573	39.17
596.91	39.34
597.247	39.35
597.584	39.54
597.921	39.51
598.258	39.35
598.594	39.52
598.931	39.18
599.268	39.46
599.604	39.57
599.941	39.48
600.277	39.69
600.614	39.95
600.95	40.07
601.287	40.26
601.623	39.79
601.959	39.83
602.296	40.11
602.632	39.94
602.968	40.19
603.304	40.22
603.64	40.53
603.976	40.27
604.312	40.39
604.648	40.5
604.984	40.34
605.319	40.41
605.655	40.44
605.991	40.5
606.326	40.37
606.662	40.31
606.998	40.15
607.333	40.94
607.668	40.69
608.004	40.81
608.339	40.97
608.674	40.9
609.01	40.7
609.345	40.85
609.68	41.21
610.015	41.24
610.35	41.27
610.685	41.2
611.02	41.45
611.355	41.25
611.689	41.36
612.024	41.4
612.359	41.27
612.694	41.56
613.028	41.59
613.363	41.98
613.697	41.85
614.032	42.11
614.366	42.16
614.7	41.2
615.035	42.14
615.369	41.73
615.703	42
616.037	42.14
616.371	41.98
616.705	42.26
617.039	42.21
617.373	42.57
617.707	41.94
618.041	42.37
618.375	42.43
618.709	42.59
619.042	42.25
619.376	43.1
619.71	43
620.043	42.84
620.377	43.16
620.71	42.86
621.043	43.03
621.377	43.03
621.71	43.14
622.043	42.93
622.376	42.83
622.709	42.95
623.043	43.72
623.376	43.63
623.709	44.06
624.041	43.73
624.374	43.97
624.707	43.38
625.04	43.4
625.373	43.18
625.705	43.76
626.038	43.05
626.37	43.65
626.703	43.25
627.035	43.71
627.368	43.74
627.7	44.04
628.032	43.61
628.365	44.06
628.697	43.86
629.029	43.92
629.361	43.48
629.693	44.04
630.025	44.28
630.357	44
630.689	44.35
631.021	44.46
631.353	44.37
631.684	43.86
632.016	43.8
632.348	44.49
632.679	44.48
633.011	44.64
633.342	45.13
633.674	44.56
634.005	45.12
634.336	44.52
634.668	45.22
634.999	44.86
635.33	44.67
635.661	45.25
635.992	44.52
636.323	45.12
636.654	44.89
636.985	45.06
637.316	45.09
637.647	44.79
637.977	45.2
638.308	45.32
638.639	45.5
638.969	45.38
639.3	45.03
639.63	45
639.961	45.97
640.291	45.44
640.622	46.11
640.952	45.61
641.282	45.88
641.612	45.41
641.943	45.38
642.273	46.25
642.603	45.81
642.933	45.89
643.263	46.15
643.592	45.81
643.922	46.12
644.252	46.23
644.582	46.68
644.911	46.1
645.241	46.16
645.571	47.03
645.9	46.11
646.23	46.56
646.559	46.72
646.888	46.57
647.218	46.28
647.547	47.31
647.876	46.17
648.205	46.26
648.534	46.66
648.863	46.8
649.192	46.86
649.521	46.73
649.85	46.7
650.179	46.94
650.508	46.81
650.837	46.25
651.165	46.78
651.494	47.37
651.822	47.21
652.151	46.13
652.479	46.58
652.808	47.49
653.136	47.43
653.465	47.28
653.793	46.67
654.121	47.34
654.449	47.46
654.777	47.57
655.105	47.72
655.433	47.35
655.761	47.97
656.089	47.19
656.417	48.05
656.745	48.1
657.073	47.93
657.4	48.18
657.728	47.79
658.056	47.17
658.383	47.88
658.711	47.57
659.038	48.68
659.365	48.35
659.693	48.37
660.02	48.61
660.347	48.2
660.674	48.19
661.001	48.76
661.329	47.74
661.656	47.83
661.982	48.28
662.309	48.28
662.636	47.98
662.963	48.28
663.29	49.13
663.616	48.78
663.943	48.34
664.27	49.11
664.596	49.03
664.923	47.61
665.249	49.27
665.576	48.55
665.902	49.56
666.228	48.88
666.554	49.57
666.881	48.68
667.207	50.04
667.533	49.23
667.859	49.12
668.185	48.91
668.511	49.44
668.837	48.85
669.162	48.93
669.488	48.23
