Data from 0202_forehead_Reflection__4__339.txt Node

Date: Fri Dec 15 19:42:43 CST 2023
User: ToomeyLab
Spectrometer: FLMS14357
Trigger mode: 0
Integration Time (sec): 1.000000E-2
Scans to average: 100
Electric dark correction enabled: true
Nonlinearity correction enabled: false
Boxcar width: 0
XAxis mode: Wavelengths
Number of Pixels in Spectrum: 2048
>>>>>Begin Spectral Data<<<<<
189.047	-26.65
189.435	-26.65
189.823	-26.65
190.211	46.62
190.599	-146.35
190.987	54.98
191.375	206.58
191.763	78.12
192.151	222.52
192.538	94.07
192.926	-108.1
193.314	133.06
193.702	-244.59
194.089	-32.68
194.477	124.19
194.864	536.11
195.252	340.71
195.639	179.65
196.027	82.23
196.414	144.23
196.801	33.14
197.189	122.47
197.576	-884.09
197.963	144.62
198.351	17.88
198.738	47.62
199.125	45.04
199.512	-16.01
199.899	36.89
200.286	43.91
200.673	-20.65
201.06	79.45
201.447	-7.44
201.833	41.28
202.22	111.88
202.607	27.58
202.994	-0.31
203.38	33.16
203.767	67.52
204.154	69.69
204.54	47.01
204.927	-36.38
205.313	-14.93
205.699	78.77
206.086	56.89
206.472	41.02
206.858	53.88
207.245	-52.6
207.631	46.98
208.017	22.14
208.403	0.83
208.789	20.98
209.175	91.48
209.561	-51.3
209.947	3.53
210.333	-29.56
210.719	14.94
211.105	32.8
211.491	16.75
211.876	22.23
212.262	15.11
212.648	18.35
213.034	26.82
213.419	23.17
213.805	-33.06
214.19	35.3
214.576	33.24
214.961	-1.48
215.346	-81
215.732	-14.98
216.117	0.88
216.502	-8.54
216.888	21.24
217.273	36.63
217.658	18.69
218.043	23.47
218.428	-35.98
218.813	-64.94
219.198	-35.6
219.583	19.28
219.968	6.26
220.353	31.01
220.738	23.35
221.122	32.38
221.507	36.68
221.892	-6.68
222.276	-3.37
222.661	14.4
223.046	15.94
223.43	19.61
223.815	18.29
224.199	-6.87
224.583	7.47
224.968	-0.55
225.352	12.47
225.736	2.49
226.121	0.56
226.505	9.87
226.889	10.4
227.273	7.94
227.657	11.88
228.041	4.92
228.425	4.6
228.809	5.64
229.193	10.52
229.577	5.61
229.961	3.48
230.344	5.92
230.728	4.9
231.112	5.29
231.495	5.82
231.879	5.48
232.263	7.56
232.646	6.18
233.03	6.08
233.413	4.61
233.797	3.81
234.18	5.75
234.563	4.33
234.946	5.96
235.33	6.13
235.713	5.75
236.096	5.48
236.479	5.99
236.862	4.66
237.245	5.59
237.628	5.44
238.011	6.86
238.394	6.4
238.777	6.97
239.16	5.45
239.543	6.78
239.925	6.65
240.308	6.07
240.691	4.01
241.073	5.2
241.456	5.53
241.838	5.71
242.221	4.07
242.603	6.02
242.986	5.6
243.368	6.41
243.75	5.38
244.133	6
244.515	5.47
244.897	6.06
245.279	6.1
245.661	5.78
246.043	4.51
246.425	4.47
246.807	7.36
247.189	6.19
247.571	6.39
247.953	5.88
248.335	5.87
248.717	5.86
249.098	5.35
249.48	5.29
249.862	5.16
250.243	5.23
250.625	4.83
251.006	6.1
251.388	4.73
251.769	5.82
252.151	6.85
252.532	5.84
252.913	4.6
253.295	5.08
253.676	6.36
254.057	5.85
254.438	5.83
254.819	5.67
255.2	4.91
255.581	5.46
255.962	4.07
256.343	4.63
256.724	5.86
257.105	5.83
257.486	6.65
257.867	6.87
258.247	5.96
258.628	4.41
259.009	5.39
259.389	6.13
259.77	5.69
260.15	5.66
260.531	5.32
260.911	5.99
261.292	5.42
261.672	5.74
262.052	5.54
262.432	5.65
262.813	5.85
263.193	5.41
263.573	5.46
263.953	5.3
264.333	5.87
264.713	6.23
265.093	5.23
265.473	5.54
265.853	5.61
266.233	5.82
266.612	4.26
266.992	4.23
267.372	5.5
267.752	5.12
268.131	5.63
268.511	6.12
268.89	6.25
269.27	4.67
269.649	4.92
270.029	5.16
270.408	5.88
270.787	5.58
271.167	6.21
271.546	5.92
271.925	4.99
272.304	5.1
272.683	5.35
273.062	5.54
273.441	5.71
273.82	4.71
274.199	5.64
274.578	5.42
274.957	5.76
275.336	4.85
275.715	5.15
276.093	4.8
276.472	5.35
276.851	5.65
277.229	5.68
277.608	4.85
277.986	5.71
278.365	6.2
278.743	4.92
279.122	5.34
279.5	5.78
279.878	6.06
280.257	5.4
280.635	4.86
281.013	5.22
281.391	6.33
281.769	5.16
282.147	6.28
282.525	6.48
282.903	5.51
283.281	6.09
283.659	5.5
284.037	5.51
284.415	5.6
284.792	5.56
285.17	4.43
285.548	5.41
285.925	5.57
286.303	5.68
286.68	5.87
287.058	5.65
287.435	5.6
287.813	5.88
288.19	5.46
288.567	5.86
288.945	6.01
289.322	5.69
289.699	5.49
290.076	5.85
290.453	5.91
290.83	5.39
291.207	5.52
291.584	6.11
291.961	6.63
292.338	5.67
292.715	6.62
293.092	6.24
293.469	5.84
293.845	5.72
294.222	5.64
294.599	6.1
294.975	5.32
295.352	6.81
295.728	5.79
296.105	6.41
296.481	6.6
296.858	6.74
297.234	6.12
297.61	6.5
297.986	6.16
298.363	7.1
298.739	7.01
299.115	6.19
299.491	6.28
299.867	6.73
300.243	6.58
300.619	6.46
300.995	6.27
301.371	6.63
301.746	6.8
302.122	7.57
302.498	6.83
302.874	7.23
303.249	6.92
303.625	7.36
304	7.54
304.376	7.26
304.751	6.71
305.127	8.01
305.502	6.45
305.878	7.25
306.253	7.53
306.628	7.97
307.003	7.37
307.378	7.26
307.754	7.56
308.129	6.87
308.504	7.78
308.879	7.36
309.254	8.55
309.629	8.48
310.003	7.83
310.378	8.77
310.753	8.23
311.128	8.18
311.502	8.08
311.877	8.65
312.252	7.8
312.626	8.27
313.001	8.04
313.375	9.07
313.75	7.96
314.124	8.69
314.498	8.25
314.873	8.42
315.247	8.6
315.621	9.26
315.995	7.94
316.369	8.74
316.743	8.58
317.117	9.18
317.491	8.84
317.865	9.19
318.239	8.49
318.613	9.17
318.987	9.6
319.361	9.09
319.734	9.38
320.108	9.39
320.482	9.76
320.855	9.7
321.229	9.59
321.602	9.79
321.976	9.95
322.349	9.56
322.723	9.16
323.096	10.06
323.469	9.17
323.843	8.91
324.216	10.03
324.589	9.72
324.962	10.29
325.335	10.17
325.708	10
326.081	9.97
326.454	10.58
326.827	10.27
327.2	9.87
327.573	10.4
327.945	10.12
328.318	10.49
328.691	9.87
329.063	10.19
329.436	10.17
329.809	10.88
330.181	10.3
330.553	10.38
330.926	10.7
331.298	11.15
331.671	10.3
332.043	11.02
332.415	10.93
332.787	11.4
333.159	11.43
333.532	11.47
333.904	11.64
334.276	11.06
334.648	11.57
335.02	11.15
335.391	11.29
335.763	11.07
336.135	11.53
336.507	11.18
336.879	11.14
337.25	10.67
337.622	11.56
337.993	11.84
338.365	11.54
338.736	11.33
339.108	11.55
339.479	12.06
339.851	11.27
340.222	11.41
340.593	11.83
340.964	11.67
341.336	12.28
341.707	11.47
342.078	12.15
342.449	12.35
342.82	11.89
343.191	12.08
343.562	11.67
343.933	12.26
344.303	12.24
344.674	12.04
345.045	12.69
345.416	12.6
345.786	11.97
346.157	12.78
346.527	12.3
346.898	11.88
347.268	13.13
347.639	12.87
348.009	12.92
348.38	12.66
348.75	13.15
349.12	12.87
349.49	12.65
349.861	12.7
350.231	12.74
350.601	13.27
350.971	13.25
351.341	13.46
351.711	12.87
352.081	13.86
352.45	13.03
352.82	13.5
353.19	13.44
353.56	13.37
353.929	13.07
354.299	13.27
354.669	12.91
355.038	13.6
355.408	13.39
355.777	13.89
356.147	13.99
356.516	13.91
356.885	13.57
357.254	13.88
357.624	14.56
357.993	14.19
358.362	13.67
358.731	13.89
359.1	13.75
359.469	13.99
359.838	14.29
360.207	14.31
360.576	14.02
360.945	14.4
361.314	14.69
361.682	13.85
362.051	14.31
362.42	14.4
362.788	14.37
363.157	14.29
363.525	14.63
363.894	14.82
364.262	14.6
364.631	14.46
364.999	15.01
365.367	14.51
365.735	15.57
366.104	15.37
366.472	15.22
366.84	14.55
367.208	14.89
367.576	15.35
367.944	15.59
368.312	15.01
368.68	14.69
369.048	15.47
369.416	15.23
369.783	15.36
370.151	15.39
370.519	16.02
370.886	15.68
371.254	15.4
371.621	15.45
371.989	15.86
372.356	15.49
372.724	15.66
373.091	15.54
373.458	15.73
373.826	15.75
374.193	15.76
374.56	15.74
374.927	15.6
375.294	16.02
375.661	16.13
376.028	15.97
376.395	16.18
376.762	16.2
377.129	16.33
377.496	16.2
377.863	16.05
378.229	16.03
378.596	16.64
378.963	16.51
379.329	16.22
379.696	16.67
380.062	16.57
380.429	16.77
380.795	16.24
381.161	16.91
381.528	17.53
381.894	17.02
382.26	16.92
382.626	17.25
382.993	16.63
383.359	17.14
383.725	17.32
384.091	17.22
384.457	17.52
384.823	17.34
385.188	17.65
385.554	17.41
385.92	17.87
386.286	17.67
386.651	17.53
387.017	17.84
387.383	17.66
387.748	17.67
388.114	17.97
388.479	17.8
388.845	17.99
389.21	17.93
389.575	17.79
389.94	17.95
390.306	17.96
390.671	18.11
391.036	18.23
391.401	17.92
391.766	18.27
392.131	18.07
392.496	18.31
392.861	18.5
393.226	18.51
393.591	18.63
393.956	18.66
394.32	18.69
394.685	18.23
395.05	18.41
395.414	18.54
395.779	18.47
396.143	19.01
396.508	18.85
396.872	18.86
397.236	19.29
397.601	18.93
397.965	19.17
398.329	18.96
398.694	19.14
399.058	19.03
399.422	18.95
399.786	19.26
400.15	19.39
400.514	19.24
400.878	19.6
401.242	19.87
401.605	19.86
401.969	19.74
402.333	19.73
402.697	19.77
403.06	19.78
403.424	19.7
403.787	19.81
404.151	19.65
404.514	19.82
404.878	19.94
405.241	20.27
405.604	20
405.968	20.15
406.331	20.19
406.694	20.35
407.057	20.06
407.42	20.57
407.783	20.09
408.146	20.41
408.509	20.25
408.872	20.35
409.235	20.56
409.598	20.9
409.961	20.68
410.323	20.99
410.686	20.81
411.049	20.68
411.411	20.91
411.774	21
412.136	21
412.499	20.8
412.861	20.75
413.223	21.16
413.586	21.28
413.948	20.91
414.31	21.38
414.672	21.15
415.035	21.03
415.397	21.8
415.759	21.15
416.121	21.56
416.483	21.7
416.845	21.34
417.206	21.7
417.568	21.64
417.93	21.42
418.292	21.44
418.653	21.68
419.015	21.83
419.377	21.63
419.738	21.75
420.1	21.72
420.461	21.6
420.822	21.96
421.184	21.72
421.545	21.87
421.906	21.75
422.267	21.91
422.629	21.79
422.99	21.87
423.351	21.93
423.712	21.9
424.073	21.98
424.434	22.21
424.795	22.2
425.155	22.23
425.516	22.12
425.877	22.17
426.238	22.33
426.598	22.35
426.959	22.39
427.32	22.27
427.68	22.33
428.041	22.55
428.401	22.73
428.761	22.91
429.122	22.91
429.482	23.02
429.842	23.13
430.202	23.1
430.563	23.5
430.923	23.07
431.283	23.3
431.643	23.32
432.003	23.48
432.363	23.42
432.722	23.61
433.082	23.68
433.442	23.68
433.802	23.48
434.161	23.78
434.521	24.04
434.881	24.04
435.24	23.81
435.6	23.66
435.959	23.65
436.319	23.71
436.678	24
437.037	23.91
437.396	23.97
437.756	24.39
438.115	24.09
438.474	24.25
438.833	23.94
439.192	24.18
439.551	24.59
439.91	24.48
440.269	24.24
440.628	24.42
440.987	24.41
441.345	24.23
441.704	24.65
442.063	24.56
442.421	24.54
442.78	24.46
443.138	24.49
443.497	24.81
443.855	24.6
444.214	24.81
444.572	25.06
444.93	24.89
445.288	25.05
445.647	24.91
446.005	24.96
446.363	25.22
446.721	25.34
447.079	24.98
447.437	25.15
447.795	25.05
448.153	25.12
448.51	25.11
448.868	25.12
449.226	25.22
449.584	25.05
449.941	25.38
450.299	25.33
450.656	25.39
451.014	25.59
451.371	25.62
451.729	25.67
452.086	26.05
452.443	25.81
452.801	26.13
453.158	25.94
453.515	25.81
453.872	26.2
454.229	26.25
454.586	26.06
454.943	26.2
455.3	26.19
455.657	26.18
456.014	26.28
456.371	26.62
456.727	26.48
457.084	26.66
457.441	26.59
457.797	26.4
458.154	26.86
458.51	26.92
458.867	27.1
459.223	27.03
459.58	26.98
459.936	26.96
460.292	26.95
460.648	27.01
461.005	26.95
461.361	26.9
461.717	26.9
462.073	26.74
462.429	26.88
462.785	26.86
463.141	27
463.496	27.31
463.852	27.47
464.208	27.59
464.564	27.61
464.919	27.6
465.275	27.52
465.631	27.66
465.986	27.75
466.342	27.89
466.697	27.98
467.052	28.05
467.408	28.28
467.763	28.12
468.118	28.08
468.473	28.13
468.829	28.1
469.184	28.18
469.539	28.25
469.894	28.37
470.249	28.43
470.603	28.5
470.958	28.47
471.313	28.48
471.668	28.7
472.023	28.37
472.377	28.72
472.732	28.73
473.086	28.83
473.441	28.69
473.795	29.07
474.15	29.03
474.504	29.01
474.859	28.91
475.213	28.78
475.567	28.87
475.921	29.12
476.275	29.11
476.63	29.48
476.984	29.48
477.338	29.58
477.692	29.38
478.045	29.22
478.399	29.25
478.753	29.46
479.107	29.46
479.461	29.47
479.814	29.61
480.168	29.49
480.521	29.41
480.875	29.64
481.228	29.81
481.582	29.52
481.935	29.75
482.289	29.86
482.642	29.88
482.995	29.89
483.348	29.92
483.701	30.02
484.055	29.91
484.408	30
484.761	29.7
485.114	29.53
485.466	29.25
485.819	29.18
486.172	29.09
486.525	28.98
486.878	29
487.23	29.26
487.583	29.5
487.936	29.71
488.288	29.83
488.641	30
488.993	29.68
489.345	29.78
489.698	29.67
490.05	29.71
490.402	29.87
490.754	29.78
491.107	30.1
491.459	30.21
491.811	30.5
492.163	30.57
492.515	30.72
492.866	30.66
493.218	30.57
493.57	30.46
493.922	30.33
494.274	30.42
494.625	30.61
494.977	30.77
495.328	31.21
495.68	31.29
496.031	31.45
496.383	31.7
496.734	31.62
497.086	31.9
497.437	31.91
497.788	31.74
498.139	31.91
498.49	31.77
498.842	31.62
499.193	31.72
499.544	31.97
499.894	31.99
500.245	32.02
500.596	32.13
500.947	32.04
501.298	32.35
501.648	32.3
501.999	32.39
502.35	32.51
502.7	32.51
503.051	32.87
503.401	32.63
503.752	32.84
504.102	33.09
504.452	32.96
504.803	32.81
505.153	33.1
505.503	32.76
505.853	33.29
506.203	32.98
506.553	32.98
506.903	33.09
507.253	33.27
507.603	33.09
507.953	33.58
508.303	33.39
508.652	33.42
509.002	33.59
509.352	33.67
509.701	33.63
510.051	33.63
510.4	33.82
510.75	33.7
511.099	33.65
511.449	33.47
511.798	33.57
512.147	33.63
512.496	33.72
512.846	33.85
513.195	33.93
513.544	33.81
513.893	34.21
514.242	34
514.591	34.25
514.939	34.16
515.288	34.14
515.637	34.21
515.986	34.41
516.334	34.53
516.683	34.65
517.032	34.37
517.38	34.65
517.729	34.74
518.077	34.46
518.426	34.73
518.774	34.69
519.122	34.71
519.47	34.82
519.819	34.67
520.167	34.68
520.515	34.57
520.863	34.51
521.211	34.64
521.559	34.67
521.907	34.85
522.255	34.99
522.602	35.18
522.95	35.03
523.298	35.4
523.645	35.47
523.993	35.4
524.341	35.68
524.688	35.57
525.036	35.6
525.383	35.77
525.73	35.79
526.078	35.86
526.425	35.55
526.772	35.78
527.119	35.74
527.466	35.72
527.814	35.64
528.161	35.61
528.508	35.58
528.854	35.54
529.201	35.4
529.548	35.62
529.895	35.53
530.242	35.35
530.588	35.28
530.935	35.18
531.282	35.22
531.628	35.23
531.975	35.37
532.321	35.7
532.667	35.83
533.014	36.14
533.36	36.3
533.706	36.28
534.052	36.46
534.399	36.39
534.745	36.31
535.091	36.28
535.437	36.11
535.783	36.27
536.129	36.42
536.474	36.38
536.82	36.45
537.166	36.91
537.512	37.04
537.857	37.35
538.203	37.28
538.549	37.01
538.894	36.95
539.239	37.05
539.585	37.17
539.93	37.24
540.276	37.37
540.621	37.66
540.966	37.76
541.311	37.71
541.656	37.88
542.001	37.88
542.346	38
542.691	37.51
543.036	37.36
543.381	37.21
543.726	37.17
544.071	37.42
544.415	37.32
544.76	37.57
545.105	37.63
545.449	37.7
545.794	38.04
546.138	38.14
546.483	38.33
546.827	38.41
547.171	38.6
547.516	38.56
547.86	38.66
548.204	38.6
548.548	38.76
548.892	38.73
549.236	38.79
549.58	38.87
549.924	39.15
550.268	39.12
550.612	39.05
550.956	39.4
551.3	39.4
551.643	39.58
551.987	39.67
552.33	39.59
552.674	39.85
553.017	39.89
553.361	39.65
553.704	40.04
554.048	39.92
554.391	39.93
554.734	39.78
555.077	40.09
555.42	39.96
555.764	39.92
556.107	39.87
556.45	40.19
556.793	40.1
557.135	40.47
557.478	40.65
557.821	40.52
558.164	40.82
558.507	40.51
558.849	40.47
559.192	40.82
559.534	40.93
559.877	41.02
560.219	40.92
560.562	41.17
560.904	41
561.246	41.25
561.589	41.19
561.931	41.23
562.273	41.24
562.615	41.28
562.957	41.54
563.299	41.11
563.641	41.16
563.983	41.18
564.325	41.58
564.667	41.51
565.008	41.49
565.35	41.67
565.692	41.61
566.033	41.39
566.375	41.82
566.716	41.95
567.058	41.72
567.399	41.68
567.741	41.73
568.082	41.86
568.423	41.72
568.764	41.81
569.105	42.12
569.447	41.94
569.788	41.85
570.129	42.61
570.47	41.7
570.811	42.08
571.151	42.1
571.492	42.64
571.833	42.63
572.174	42.58
572.514	42.57
572.855	42.62
573.195	42.52
573.536	43.04
573.876	42.64
574.217	42.61
574.557	42.66
574.898	42.69
575.238	42.79
575.578	42.59
575.918	43.04
576.258	42.93
576.598	42.98
576.938	43.01
577.278	43.22
577.618	43.19
577.958	42.92
578.298	43.26
578.638	43.29
578.977	43.53
579.317	43.34
579.657	43.65
579.996	43.92
580.336	44.13
580.675	44.08
581.014	43.58
581.354	43.78
581.693	43.95
582.032	44.07
582.372	44.15
582.711	44.73
583.05	44.4
583.389	44.19
583.728	43.98
584.067	44.32
584.406	44.63
584.745	44.31
585.083	44.65
585.422	44.56
585.761	44.74
586.1	44.51
586.438	44.85
586.777	45.18
587.115	45.2
587.454	45.19
587.792	45.16
588.13	45.01
588.469	45.24
588.807	45.09
589.145	45.52
589.483	45.24
589.821	45.08
590.159	45.66
590.497	45.67
590.835	45.78
591.173	45.24
591.511	45.59
591.849	45.89
592.187	45.55
592.524	45.78
592.862	45.77
593.2	45.68
593.537	45.47
593.875	45.41
594.212	45.66
594.55	46.01
594.887	46.11
595.224	45.88
595.561	46.09
595.899	46.41
596.236	46.28
596.573	46.07
596.91	46.04
597.247	46.24
597.584	46.54
597.921	46.29
598.258	46.13
598.594	46.58
598.931	46.73
599.268	46.49
599.604	46.51
599.941	46.34
600.277	46.4
600.614	46.58
600.95	47
601.287	46.87
601.623	46.87
601.959	46.93
602.296	46.75
602.632	47
602.968	47.08
603.304	47.13
603.64	47.32
603.976	47.25
604.312	47.54
604.648	47.14
604.984	47.62
605.319	47.52
605.655	47.37
605.991	47.1
606.326	47.09
606.662	47.27
606.998	47.27
607.333	47.13
607.668	46.91
608.004	47.76
608.339	47.78
608.674	47.73
609.01	47.55
609.345	47.5
609.68	47.79
610.015	47.93
610.35	48.06
610.685	48.18
611.02	47.88
611.355	48.25
611.689	48.22
612.024	48.21
612.359	47.8
612.694	48.28
613.028	48.3
613.363	48.43
613.697	49.02
614.032	48.79
614.366	48.76
614.7	48.6
615.035	48.87
615.369	48.75
615.703	48.98
616.037	49.36
616.371	48.76
616.705	49.15
617.039	49.66
617.373	48.93
617.707	49.36
618.041	49.2
618.375	49.55
618.709	49.57
619.042	49.6
619.376	50.02
619.71	49.79
620.043	49.69
620.377	49.65
620.71	49.48
621.043	50.08
621.377	49.65
621.71	49.61
622.043	49.41
622.376	49.94
622.709	50.36
623.043	50.68
623.376	50.04
623.709	50.42
624.041	50.33
624.374	50.19
624.707	50.32
625.04	50.21
625.373	50.12
625.705	50.46
626.038	50.39
626.37	50.66
626.703	50.24
627.035	50.8
627.368	50.71
627.7	50.89
628.032	50.51
628.365	50.65
628.697	50.51
629.029	50.97
629.361	50.48
629.693	51.15
630.025	51.3
630.357	51.36
630.689	51.42
631.021	51.12
631.353	51.12
631.684	51.24
632.016	50.63
632.348	51.41
632.679	51.56
633.011	51.27
633.342	51.56
633.674	51.3
634.005	51.77
634.336	51.98
634.668	51.6
634.999	51.73
635.33	51.93
635.661	51.99
635.992	51.8
636.323	52.05
636.654	51.79
636.985	51.88
637.316	52.14
637.647	52.1
637.977	52.09
638.308	51.98
638.639	52.35
638.969	52.18
639.3	52.46
639.63	51.83
639.961	51.77
640.291	52.15
640.622	51.84
640.952	52.66
641.282	52.7
641.612	52.6
641.943	52.56
642.273	52.61
642.603	52.36
642.933	52.46
643.263	52.75
643.592	52.82
643.922	52.89
644.252	52.45
644.582	52.8
644.911	52.35
645.241	52.58
645.571	52.99
645.9	53.15
646.23	53.24
646.559	53.31
646.888	53.68
647.218	53.69
647.547	53.61
647.876	52.95
648.205	53.76
648.534	53.42
648.863	53.34
649.192	53.64
649.521	53.76
649.85	53.05
650.179	53.1
650.508	53.42
650.837	53.22
651.165	53.67
651.494	53.47
651.822	53.84
652.151	52.95
652.479	53.69
652.808	54.19
653.136	54.21
653.465	53.81
653.793	54.16
654.121	54.04
654.449	54.52
654.777	54.3
655.105	54.07
655.433	54.28
655.761	55.38
656.089	54.53
656.417	54.49
656.745	54.11
657.073	53.98
657.4	55.57
657.728	54.28
658.056	53.57
658.383	54.94
658.711	54.75
659.038	54.88
659.365	54.87
659.693	54.75
660.02	55.15
660.347	54.62
660.674	55
661.001	54.99
661.329	54.55
661.656	55.11
661.982	54.75
662.309	55.26
662.636	55.06
662.963	54.77
663.29	54.79
663.616	55.84
663.943	54.72
664.27	55.73
664.596	55.37
664.923	55.57
665.249	55.63
665.576	54.98
665.902	56.57
666.228	55.74
666.554	55.43
666.881	55.07
667.207	56.62
667.533	56.05
667.859	56.46
668.185	55.94
668.511	55.35
668.837	55.28
669.162	55.48
669.488	56.17
669.814	56.76
