Data from 0202_crown_Reflection__0__330.txt Node

Date: Fri Dec 15 19:40:49 CST 2023
User: ToomeyLab
Spectrometer: FLMS14357
Trigger mode: 0
Integration Time (sec): 1.000000E-2
Scans to average: 100
Electric dark correction enabled: true
Nonlinearity correction enabled: false
Boxcar width: 0
XAxis mode: Wavelengths
Number of Pixels in Spectrum: 2048
>>>>>Begin Spectral Data<<<<<
189.047	-126.65
189.435	-126.65
189.823	-126.65
190.211	96.62
190.599	-250.52
190.987	78.36
191.375	151.32
191.763	-628.13
192.151	127.1
192.538	61.23
192.926	157.62
193.314	78.87
193.702	-31.08
194.089	2.41
194.477	650
194.864	58.33
195.252	129.76
195.639	329.4
196.027	86.02
196.414	122.44
196.801	37.36
197.189	212.34
197.576	-1497.73
197.963	196.24
198.351	-39.87
198.738	7.03
199.125	-21.48
199.512	-27.47
199.899	33.47
200.286	-2.72
200.673	-48.42
201.06	33.56
201.447	-137.18
201.833	7.81
202.22	-12.62
202.607	39.35
202.994	-44.02
203.38	-3.36
203.767	9.56
204.154	8.63
204.54	22.98
204.927	-102.64
205.313	-18.17
205.699	42.95
206.086	61.94
206.472	-33.47
206.858	-8.46
207.245	-60.4
207.631	28.74
208.017	21.74
208.403	5.22
208.789	49.2
209.175	25.73
209.561	-16.05
209.947	54.5
210.333	-16.03
210.719	21.63
211.105	-15
211.491	-10.79
211.876	17.77
212.262	31.96
212.648	-22.1
213.034	-4.08
213.419	-4.35
213.805	-22.52
214.19	-33.91
214.576	-28.53
214.961	-52.34
215.346	-102.28
215.732	-31.03
216.117	29.78
216.502	-27.72
216.888	10.07
217.273	33.92
217.658	-37.45
218.043	20.41
218.428	-75.98
218.813	-17.78
219.198	-94.12
219.583	36.42
219.968	13.03
220.353	-1.58
220.738	8.48
221.122	-11.92
221.507	-84.61
221.892	-45.28
222.276	-44.92
222.661	-6.48
223.046	19.13
223.43	0.84
223.815	8.64
224.199	-25.64
224.583	-19.5
224.968	-8.74
225.352	1.69
225.736	-2.45
226.121	-16.23
226.505	7.82
226.889	7.18
227.273	-0.61
227.657	9.24
228.041	4.49
228.425	4.54
228.809	4.69
229.193	1.9
229.577	1.02
229.961	3.8
230.344	3.94
230.728	3.44
231.112	4.33
231.495	4.37
231.879	3.51
232.263	5.88
232.646	5.26
233.03	3.59
233.413	2.27
233.797	3.19
234.18	4.86
234.563	4.83
234.946	4.41
235.33	4.64
235.713	3.48
236.096	4.96
236.479	5.08
236.862	3.44
237.245	4.58
237.628	3.41
238.011	4.5
238.394	4.9
238.777	4.11
239.16	1.6
239.543	3.92
239.925	5.32
240.308	5.51
240.691	4.4
241.073	4.41
241.456	4.2
241.838	1.59
242.221	2.51
242.603	3.89
242.986	3.82
243.368	4.19
243.75	4.72
244.133	3.94
244.515	4.44
244.897	4.02
245.279	4.19
245.661	3.73
246.043	2.66
246.425	2.79
246.807	5.16
247.189	3.92
247.571	4.54
247.953	3.88
248.335	3.42
248.717	3.96
249.098	3.72
249.48	4.12
249.862	3.46
250.243	3.81
250.625	3.93
251.006	4.62
251.388	2.53
251.769	3.26
252.151	3.62
252.532	5.26
252.913	3.04
253.295	2.4
253.676	3.61
254.057	3.61
254.438	3.98
254.819	3.49
255.2	2.89
255.581	3.8
255.962	3.32
256.343	4.31
256.724	3.55
257.105	4.3
257.486	2.94
257.867	3.42
258.247	3.28
258.628	3.01
259.009	4.04
259.389	3.03
259.77	2.88
260.15	2.45
260.531	2.88
260.911	3.54
261.292	3.92
261.672	3.54
262.052	3.61
262.432	3.51
262.813	3.6
263.193	3.28
263.573	2.85
263.953	2.8
264.333	4.09
264.713	3.34
265.093	3.15
265.473	3.1
265.853	2.75
266.233	3.45
266.612	1.99
266.992	1.47
267.372	4.85
267.752	3
268.131	2.71
268.511	3.53
268.89	3.72
269.27	2.51
269.649	2.93
270.029	2.84
270.408	3.81
270.787	3.46
271.167	4.27
271.546	3.39
271.925	3.2
272.304	2.81
272.683	3.41
273.062	2.97
273.441	3.14
273.82	2.75
274.199	2.85
274.578	3.61
274.957	3
275.336	3.22
275.715	3.08
276.093	3.16
276.472	2.86
276.851	2.62
277.229	2.37
277.608	2.42
277.986	2.89
278.365	2.79
278.743	2.25
279.122	2.65
279.5	2.02
279.878	3.02
280.257	3.21
280.635	2.27
281.013	3.06
281.391	3.93
281.769	3.33
282.147	2.8
282.525	3.89
282.903	2.38
283.281	3.43
283.659	3.05
284.037	3.39
284.415	2.91
284.792	3.72
285.17	1.7
285.548	2.82
285.925	2.82
286.303	3.34
286.68	2.83
287.058	2.81
287.435	3.06
287.813	3.17
288.19	2.54
288.567	3.17
288.945	3.57
289.322	2.87
289.699	2.33
290.076	2.74
290.453	2.67
290.83	2.5
291.207	2.79
291.584	3.07
291.961	3.26
292.338	2.92
292.715	3.38
293.092	2.82
293.469	3.25
293.845	3.27
294.222	2.12
294.599	2.74
294.975	2.11
295.352	3.42
295.728	2.67
296.105	2.92
296.481	3.44
296.858	3.02
297.234	2.89
297.61	2.58
297.986	3.02
298.363	3.02
298.739	2.99
299.115	2.49
299.491	2.55
299.867	3.17
300.243	2.99
300.619	2.71
300.995	2.44
301.371	2.99
301.746	2.78
302.122	3.05
302.498	2.68
302.874	3.32
303.249	3.33
303.625	3.18
304	3.04
304.376	3.06
304.751	2.1
305.127	3.2
305.502	2.63
305.878	2.69
306.253	2.43
306.628	3.15
307.003	3.04
307.378	3.31
307.754	3.06
308.129	1.81
308.504	2.64
308.879	2.45
309.254	3.95
309.629	3.17
310.003	3.13
310.378	2.97
310.753	2.68
311.128	3.11
311.502	3.16
311.877	3.18
312.252	2.5
312.626	3.04
313.001	2.51
313.375	3.07
313.75	2.26
314.124	2.97
314.498	3.19
314.873	2.84
315.247	2.62
315.621	2.87
315.995	2.54
316.369	2.58
316.743	3
317.117	2.71
317.491	2.4
317.865	2.53
318.239	2.53
318.613	2.71
318.987	3.4
319.361	2.21
319.734	2.97
320.108	2.67
320.482	2.9
320.855	2.96
321.229	2.66
321.602	2.8
321.976	3.35
322.349	2.62
322.723	2.56
323.096	3.01
323.469	2.34
323.843	3.01
324.216	3.01
324.589	2.26
324.962	2.79
325.335	2.28
325.708	2.97
326.081	2.89
326.454	3.31
326.827	2.8
327.2	2.78
327.573	3.3
327.945	2.96
328.318	2.79
328.691	1.79
329.063	2.77
329.436	2.48
329.809	2.78
330.181	2.9
330.553	2.67
330.926	2.75
331.298	3.16
331.671	2
332.043	2.98
332.415	3.41
332.787	2.93
333.159	3.79
333.532	3.02
333.904	2.76
334.276	3.16
334.648	3.06
335.02	3.17
335.391	2.93
335.763	2.72
336.135	3.17
336.507	3.67
336.879	3.26
337.25	1.87
337.622	2.72
337.993	2.78
338.365	3.28
338.736	2.86
339.108	3.05
339.479	3.26
339.851	3.34
340.222	2.97
340.593	3.43
340.964	2.84
341.336	3.56
341.707	2.63
342.078	3.36
342.449	3.03
342.82	2.64
343.191	3.02
343.562	2.58
343.933	3.37
344.303	2.95
344.674	2.64
345.045	3.76
345.416	3.33
345.786	2.94
346.157	3.34
346.527	2.96
346.898	2.65
347.268	3.37
347.639	3.04
348.009	3.53
348.38	2.96
348.75	2.93
349.12	3.13
349.49	3.22
349.861	2.72
350.231	2.86
350.601	3.45
350.971	2.99
351.341	3.28
351.711	2.84
352.081	3.32
352.45	2.79
352.82	3.4
353.19	3.21
353.56	3.19
353.929	3.15
354.299	3.14
354.669	3.11
355.038	3.48
355.408	2.88
355.777	3.16
356.147	3.05
356.516	3.23
356.885	3.21
357.254	3.08
357.624	3.84
357.993	3.35
358.362	3.19
358.731	2.95
359.1	2.84
359.469	3.38
359.838	3.69
360.207	3.1
360.576	2.72
360.945	3.4
361.314	3.85
361.682	3.39
362.051	2.95
362.42	3.56
362.788	3.07
363.157	3.37
363.525	3.28
363.894	3.49
364.262	3.3
364.631	3.33
364.999	3.25
365.367	3.1
365.735	4.05
366.104	3.41
366.472	3.16
366.84	3.54
367.208	3.17
367.576	3.47
367.944	3.38
368.312	3.08
368.68	3.1
369.048	3.37
369.416	3.41
369.783	3.1
370.151	3.28
370.519	3.47
370.886	3.63
371.254	2.98
371.621	3.37
371.989	3.47
372.356	3.25
372.724	3.28
373.091	3.09
373.458	3.28
373.826	3.41
374.193	3.2
374.56	3.63
374.927	3.32
375.294	3.64
375.661	3.11
376.028	3.04
376.395	3.21
376.762	3.43
377.129	3.4
377.496	2.87
377.863	3.54
378.229	2.66
378.596	3.36
378.963	3.21
379.329	3
379.696	3.5
380.062	3.47
380.429	3.35
380.795	3.08
381.161	3.61
381.528	3.37
381.894	3.01
382.26	3.36
382.626	3.54
382.993	3.04
383.359	3.69
383.725	3.19
384.091	3.71
384.457	3.56
384.823	3.4
385.188	3.83
385.554	3.33
385.92	3.61
386.286	3.61
386.651	3.73
387.017	3.6
387.383	3.65
387.748	3.64
388.114	3.87
388.479	3.65
388.845	3.58
389.21	3.34
389.575	3.58
389.94	3.38
390.306	3.36
390.671	3.51
391.036	3.08
391.401	3.39
391.766	3.42
392.131	3.28
392.496	3.4
392.861	3.24
393.226	3.61
393.591	3.54
393.956	3.41
394.32	3.45
394.685	3.25
395.05	3.56
395.414	3.53
395.779	3.31
396.143	3.59
396.508	3.55
396.872	3.85
397.236	3.44
397.601	3.32
397.965	3.62
398.329	3.5
398.694	3.58
399.058	3.6
399.422	3.25
399.786	3.68
400.15	3.6
400.514	3.59
400.878	3.59
401.242	4.06
401.605	3.75
401.969	3.72
402.333	3.4
402.697	3.72
403.06	3.61
403.424	3.43
403.787	3.33
404.151	3.62
404.514	3.48
404.878	3.58
405.241	3.75
405.604	3.51
405.968	3.46
406.331	3.54
406.694	3.72
407.057	3.59
407.42	3.61
407.783	3.38
408.146	3.84
408.509	3.41
408.872	3.34
409.235	3.46
409.598	3.87
409.961	3.71
410.323	3.82
410.686	3.69
411.049	3.56
411.411	3.5
411.774	3.52
412.136	3.65
412.499	3.6
412.861	3.48
413.223	3.44
413.586	3.57
413.948	3.49
414.31	3.43
414.672	3.67
415.035	3.41
415.397	3.74
415.759	3.33
416.121	3.58
416.483	3.42
416.845	3.6
417.206	3.57
417.568	3.72
417.93	3.42
418.292	3.58
418.653	3.81
419.015	3.64
419.377	3.68
419.738	3.67
420.1	3.54
420.461	3.57
420.822	3.59
421.184	3.61
421.545	3.61
421.906	3.51
422.267	3.57
422.629	3.59
422.99	3.54
423.351	3.54
423.712	3.57
424.073	3.56
424.434	3.52
424.795	3.47
425.155	3.57
425.516	3.47
425.877	3.48
426.238	3.52
426.598	3.65
426.959	3.62
427.32	3.56
427.68	3.48
428.041	3.65
428.401	3.71
428.761	3.55
429.122	3.71
429.482	3.54
429.842	3.66
430.202	3.78
430.563	3.75
430.923	3.7
431.283	3.68
431.643	3.51
432.003	3.71
432.363	3.7
432.722	3.58
433.082	3.56
433.442	3.63
433.802	3.43
434.161	3.59
434.521	3.82
434.881	3.75
435.24	3.37
435.6	3.58
435.959	3.56
436.319	3.65
436.678	3.77
437.037	3.5
437.396	3.6
437.756	3.81
438.115	3.61
438.474	3.72
438.833	3.52
439.192	3.46
439.551	3.77
439.91	3.67
440.269	3.54
440.628	3.56
440.987	3.71
441.345	3.53
441.704	3.6
442.063	3.58
442.421	3.54
442.78	3.61
443.138	3.62
443.497	3.58
443.855	3.54
444.214	3.58
444.572	3.72
444.93	3.7
445.288	3.79
445.647	3.73
446.005	3.58
446.363	3.68
446.721	3.59
447.079	3.49
447.437	3.54
447.795	3.76
448.153	3.54
448.51	3.52
448.868	3.6
449.226	3.56
449.584	3.61
449.941	3.7
450.299	3.66
450.656	3.72
451.014	3.65
451.371	3.54
451.729	3.59
452.086	3.93
452.443	3.59
452.801	3.56
453.158	3.66
453.515	3.46
453.872	3.71
454.229	3.56
454.586	3.69
454.943	3.61
455.3	3.77
455.657	3.61
456.014	3.61
456.371	3.75
456.727	3.52
457.084	3.85
457.441	3.76
457.797	3.71
458.154	3.83
458.51	3.71
458.867	3.91
459.223	3.61
459.58	3.7
459.936	3.64
460.292	3.58
460.648	3.6
461.005	3.61
461.361	3.71
461.717	3.54
462.073	3.49
462.429	3.66
462.785	3.73
463.141	3.62
463.496	3.71
463.852	3.69
464.208	3.64
464.564	3.81
464.919	3.73
465.275	3.59
465.631	3.69
465.986	3.65
466.342	3.44
466.697	3.54
467.052	3.57
467.408	3.72
467.763	3.72
468.118	3.49
468.473	3.49
468.829	3.8
469.184	3.66
469.539	3.78
469.894	3.56
470.249	3.77
470.603	3.6
470.958	3.85
471.313	3.79
471.668	3.87
472.023	3.61
472.377	3.67
472.732	3.49
473.086	3.56
473.441	3.53
473.795	3.82
474.15	3.76
474.504	3.69
474.859	3.82
475.213	3.49
475.567	3.58
475.921	3.43
476.275	3.88
476.63	3.62
476.984	3.87
477.338	3.75
477.692	3.55
478.045	3.56
478.399	3.54
478.753	3.63
479.107	3.72
479.461	3.61
479.814	3.67
480.168	3.61
480.521	3.54
480.875	3.63
481.228	3.77
481.582	3.67
481.935	3.68
482.289	3.58
482.642	3.71
482.995	3.52
483.348	3.62
483.701	3.56
484.055	3.59
484.408	3.65
484.761	3.45
485.114	3.38
485.466	3.29
485.819	3.24
486.172	3.35
486.525	3.49
486.878	3.57
487.23	3.57
487.583	3.58
487.936	3.52
488.288	3.5
488.641	3.55
488.993	3.35
489.345	3.38
489.698	3.38
490.05	3.38
490.402	3.5
490.754	3.58
491.107	3.58
491.459	3.66
491.811	3.69
492.163	3.65
492.515	3.49
492.866	3.6
493.218	3.44
493.57	3.32
493.922	3.44
494.274	3.6
494.625	3.68
494.977	3.7
495.328	3.7
495.68	3.65
496.031	3.72
496.383	3.73
496.734	3.8
497.086	3.72
497.437	3.56
497.788	3.57
498.139	3.56
498.49	3.66
498.842	3.51
499.193	3.54
499.544	3.55
499.894	3.62
500.245	3.6
500.596	3.67
500.947	3.58
501.298	3.54
501.648	3.64
501.999	3.69
502.35	3.65
502.7	3.68
503.051	3.55
503.401	3.63
503.752	3.75
504.102	3.67
504.452	3.79
504.803	3.53
505.153	3.61
505.503	3.55
505.853	3.52
506.203	3.55
506.553	3.66
506.903	3.53
507.253	3.61
507.603	3.5
507.953	3.72
508.303	3.84
508.652	3.49
509.002	3.79
509.352	3.7
509.701	3.57
510.051	3.56
510.4	3.64
510.75	3.65
511.099	3.63
511.449	3.69
511.798	3.62
512.147	3.63
512.496	3.56
512.846	3.59
513.195	3.57
513.544	3.68
513.893	3.8
514.242	3.59
514.591	3.81
514.939	3.63
515.288	3.46
515.637	3.67
515.986	3.72
516.334	3.62
516.683	3.68
517.032	3.68
517.38	3.68
517.729	3.69
518.077	3.55
518.426	3.65
518.774	3.67
519.122	3.68
519.47	3.53
519.819	3.36
520.167	3.52
520.515	3.51
520.863	3.59
521.211	3.61
521.559	3.71
521.907	3.55
522.255	3.59
522.602	3.57
522.95	3.53
523.298	3.66
523.645	3.7
523.993	3.64
524.341	3.65
524.688	3.63
525.036	3.65
525.383	3.56
525.73	3.82
526.078	3.62
526.425	3.74
526.772	3.63
527.119	3.39
527.466	3.52
527.814	3.59
528.161	3.56
528.508	3.53
528.854	3.58
529.201	3.43
529.548	3.45
529.895	3.49
530.242	3.29
530.588	3.32
530.935	3.35
531.282	3.52
531.628	3.49
531.975	3.57
532.321	3.59
532.667	3.65
533.014	3.65
533.36	3.65
533.706	3.57
534.052	3.5
534.399	3.42
534.745	3.39
535.091	3.44
535.437	3.51
535.783	3.53
536.129	3.59
536.474	3.6
536.82	3.76
537.166	3.66
537.512	3.67
537.857	3.48
538.203	3.61
538.549	3.46
538.894	3.48
539.239	3.53
539.585	3.68
539.93	3.58
540.276	3.69
540.621	3.67
540.966	3.57
541.311	3.57
541.656	3.51
542.001	3.59
542.346	3.71
542.691	3.43
543.036	3.38
543.381	3.31
543.726	3.42
544.071	3.53
544.415	3.55
544.76	3.4
545.105	3.55
545.449	3.48
545.794	3.56
546.138	3.57
546.483	3.64
546.827	3.68
547.171	3.6
547.516	3.75
547.86	3.48
548.204	3.48
548.548	3.45
548.892	3.5
549.236	3.47
549.58	3.43
549.924	3.59
550.268	3.69
550.612	3.71
550.956	3.81
551.3	3.65
551.643	3.66
551.987	3.77
552.33	3.57
552.674	3.65
553.017	3.64
553.361	3.51
553.704	3.81
554.048	3.54
554.391	3.37
554.734	3.62
555.077	3.73
555.42	3.52
555.764	3.49
556.107	3.53
556.45	3.66
556.793	3.58
557.135	3.53
557.478	3.78
557.821	3.63
558.164	3.64
558.507	3.51
558.849	3.49
559.192	3.78
559.534	3.59
559.877	3.74
560.219	3.46
560.562	3.97
560.904	3.56
561.246	3.74
561.589	3.56
561.931	3.54
562.273	3.45
562.615	3.5
562.957	3.5
563.299	3.33
563.641	3.61
563.983	3.69
564.325	3.31
564.667	3.44
565.008	3.46
565.35	3.37
565.692	3.41
566.033	3.44
566.375	3.77
566.716	3.83
567.058	3.62
567.399	3.39
567.741	3.43
568.082	3.55
568.423	3.58
568.764	3.55
569.105	3.66
569.447	3.72
569.788	3.57
570.129	3.62
570.47	3.55
570.811	3.5
571.151	3.53
571.492	3.67
571.833	3.56
572.174	3.69
572.514	3.59
572.855	3.49
573.195	3.34
573.536	3.42
573.876	3.29
574.217	3.41
574.557	3.57
574.898	3.64
575.238	3.65
575.578	3.43
575.918	3.83
576.258	3.72
576.598	3.46
576.938	3.5
577.278	3.56
577.618	3.64
577.958	3.46
578.298	3.54
578.638	3.56
578.977	3.54
579.317	3.44
579.657	3.58
579.996	3.49
580.336	3.61
580.675	3.32
581.014	3.61
581.354	3.58
581.693	3.84
582.032	3.51
582.372	3.19
582.711	3.54
583.05	3.23
583.389	3.59
583.728	3.42
584.067	3.64
584.406	3.37
584.745	3.29
585.083	3.66
585.422	3.48
585.761	3.61
586.1	3.45
586.438	3.6
586.777	3.74
587.115	3.47
587.454	3.25
587.792	3.41
588.13	3.62
588.469	3.66
588.807	3.38
589.145	3.34
589.483	3.69
589.821	3.63
590.159	3.43
590.497	3.76
590.835	3.78
591.173	3.57
591.511	3.81
591.849	3.59
592.187	3.62
592.524	3.63
592.862	3.48
593.2	3.71
593.537	3.38
593.875	3.45
594.212	3.34
594.55	3.37
594.887	3.52
595.224	3.3
595.561	3.65
595.899	3.46
596.236	3.25
596.573	3.53
596.91	3.04
597.247	3.15
597.584	3.6
597.921	3.52
598.258	3.45
598.594	3.36
598.931	3.37
599.268	3.47
599.604	3.31
599.941	3.64
600.277	3.48
600.614	3.55
600.95	3.34
601.287	3.45
601.623	3.49
601.959	3.12
602.296	3.42
602.632	3.48
602.968	3.66
603.304	3.67
603.64	3.62
603.976	3.59
604.312	3.29
604.648	3.26
604.984	3.44
605.319	3.57
605.655	3.5
605.991	3.31
606.326	3.48
606.662	3.38
606.998	3.25
607.333	3.54
607.668	3.61
608.004	3.45
608.339	3.7
608.674	3.45
609.01	3.37
609.345	3.24
609.68	3.5
610.015	3.41
610.35	3.46
610.685	3.24
611.02	3.48
611.355	3.36
611.689	3.25
612.024	3.39
612.359	3.26
612.694	3.29
613.028	3.19
613.363	3.6
613.697	3.49
614.032	3.56
614.366	3.68
614.7	3.67
615.035	3.48
615.369	3.51
615.703	3.42
616.037	3.22
616.371	3.01
616.705	3.46
617.039	3.62
617.373	3.88
617.707	3.21
618.041	3.52
618.375	3.47
618.709	3.66
619.042	3.39
619.376	3.67
619.71	3.76
620.043	3.55
620.377	3.34
620.71	3.28
621.043	3.14
621.377	3.74
621.71	3.61
622.043	3.04
622.376	3.09
622.709	3.3
623.043	3.39
623.376	3.57
623.709	3.04
624.041	3.56
624.374	3.39
624.707	3.44
625.04	3.58
625.373	3.07
625.705	3.2
626.038	3.34
626.37	3.25
626.703	3.49
627.035	3.33
627.368	3.9
627.7	3.13
628.032	3.13
628.365	3.58
628.697	3.43
629.029	3.07
629.361	3.5
629.693	3.58
630.025	3.38
630.357	3.62
630.689	3.08
631.021	3.5
631.353	3.32
631.684	3.26
632.016	3.12
632.348	3.63
632.679	3.46
633.011	3.72
633.342	3.55
633.674	3.25
634.005	3.75
634.336	3.52
634.668	3.65
634.999	3.39
635.33	3.43
635.661	3.47
635.992	3.16
636.323	3.32
636.654	3.56
636.985	3.3
637.316	3.3
637.647	3.05
637.977	3.53
638.308	3.6
638.639	2.98
638.969	3.01
639.3	3.38
639.63	3.11
639.961	3.48
640.291	3.58
640.622	3.57
640.952	3.28
641.282	3.45
641.612	3.58
641.943	3.34
642.273	3.55
642.603	3.82
642.933	3.55
643.263	3.36
643.592	3.7
643.922	3.23
644.252	3.27
644.582	3.58
644.911	3.23
645.241	3.64
645.571	3.3
645.9	2.77
646.23	3.44
646.559	3.85
646.888	3.04
647.218	3.57
647.547	4
647.876	3.16
648.205	3.5
648.534	3.23
648.863	2.94
649.192	3.64
649.521	3.33
649.85	3.13
650.179	3.32
650.508	2.89
650.837	2.96
651.165	2.98
651.494	3.28
651.822	3.23
652.151	3.13
652.479	3.64
652.808	2.93
653.136	3.78
653.465	2.73
653.793	2.74
654.121	3.19
654.449	3.45
654.777	3.67
655.105	3.55
655.433	2.94
655.761	2.95
656.089	3.14
656.417	3.57
656.745	3.03
657.073	3.17
657.4	4.11
657.728	3.21
658.056	3.06
658.383	3.65
658.711	3.53
659.038	3.39
659.365	3.83
659.693	3
660.02	2.75
660.347	3.64
660.674	3.27
661.001	3.71
661.329	2.83
661.656	3.4
661.982	3.6
662.309	3.27
662.636	2.77
662.963	3.78
663.29	3.59
663.616	3.5
663.943	3.12
664.27	3.54
664.596	3.47
664.923	3.45
665.249	3.24
665.576	3.31
665.902	4
666.228	3.42
666.554	3.38
666.881	2.83
667.207	3.24
667.533	3.47
667.859	3.92
668.185	3.76
668.511	2.79
668.837	2.49
669.162	3.58
669.488	3.65
669.814	3.73
670.139	3.47
670.465	3.59
670.791	3.39
671.116	4
671.442	3.13
671.767	3.77
672.092	4.04
672.418	3.82
672.743	3.95
673.068	3.31
673.393	3.09
673.718	3.91
674.043	3.65
674.368	3.45
674.693	4.45
675.018	3.15
675.343	3.68
675.667	2.91
675.992	3.63
676.317	3.48
676.641	3.16
676.966	4.15
677.29	3.32
677.615	3.36
677.939	3.81
678.264	4.22
678.588	3.76
678.912	2.85
679.236	4.27
679.56	2.75
679.885	3.42
680.209	3.65
680.532	3.94
680.856	3.63
681.18	2.96
681.504	3.57
681.828	3.68
682.152	3.02
682.475	3.39
682.799	3.42
683.122	3.56
683.446	3.17
683.769	3.94
684.093	3.48
684.416	4.4
684.739	3.28
685.062	2.94
685.386	3.63
685.709	3.29
686.032	3.15
686.355	3.61
686.678	3.07
687.001	4.21
687.324	3.76
687.646	2.8
687.969	2.36
688.292	3.25
688.614	3.36
688.937	4.87
689.26	3.09
689.582	4.2
689.904	3.21
690.227	4.06
690.549	3.25
690.871	4.1
691.194	3.12
691.516	3.39
