Data from 0202_chest_Reflection__1__325.txt Node

Date: Fri Dec 15 19:39:02 CST 2023
User: ToomeyLab
Spectrometer: FLMS14357
Trigger mode: 0
Integration Time (sec): 1.000000E-2
Scans to average: 100
Electric dark correction enabled: true
Nonlinearity correction enabled: false
Boxcar width: 0
XAxis mode: Wavelengths
Number of Pixels in Spectrum: 2048
>>>>>Begin Spectral Data<<<<<
189.047	-47.02
189.435	-47.02
189.823	-47.02
190.211	-250.51
190.599	-13.93
190.987	70.92
191.375	-411.51
191.763	-696.09
192.151	98
192.538	110.68
192.926	4.17
193.314	120.77
193.702	-72.41
194.089	134.92
194.477	517.34
194.864	218.75
195.252	257.44
195.639	148.56
196.027	84.18
196.414	164.8
196.801	71.5
197.189	80.78
197.576	-1002.84
197.963	-68.15
198.351	-12.41
198.738	-18.54
199.125	33.34
199.512	-76.93
199.899	34.75
200.286	33.78
200.673	30.78
201.06	-31.67
201.447	4.81
201.833	9.34
202.22	12.59
202.607	54.65
202.994	-47.76
203.38	23.95
203.767	8.97
204.154	31.91
204.54	39.58
204.927	70.48
205.313	-58.48
205.699	99.49
206.086	62.26
206.472	24.9
206.858	-12.42
207.245	-52.63
207.631	-2.72
208.017	-20
208.403	14.38
208.789	18.6
209.175	28.47
209.561	-94.74
209.947	43.98
210.333	-29.89
210.719	-9.39
211.105	-6.21
211.491	-14.67
211.876	42.54
212.262	9.96
212.648	10.59
213.034	61.1
213.419	6.29
213.805	39.87
214.19	29.02
214.576	-5.37
214.961	-72.33
215.346	-4.75
215.732	3.79
216.117	-11.82
216.502	-36.52
216.888	9.85
217.273	31.29
217.658	-18.71
218.043	37.69
218.428	-56.63
218.813	21.01
219.198	-66.5
219.583	18.22
219.968	3.87
220.353	-13.31
220.738	27.96
221.122	13.4
221.507	-23.68
221.892	0.73
222.276	-27.36
222.661	-4.29
223.046	25.45
223.43	20.15
223.815	4.45
224.199	-18.45
224.583	2.42
224.968	3
225.352	16.38
225.736	-2.37
226.121	-20.76
226.505	4.54
226.889	15.57
227.273	-3.18
227.657	8.89
228.041	2.66
228.425	8.05
228.809	7.55
229.193	6.15
229.577	5.27
229.961	7.4
230.344	6.18
230.728	5.53
231.112	6.22
231.495	5.09
231.879	4.15
232.263	6.84
232.646	7.4
233.03	5.82
233.413	4.64
233.797	6.13
234.18	5.04
234.563	4.04
234.946	3.77
235.33	6.07
235.713	5.89
236.096	6.32
236.479	5.75
236.862	4.31
237.245	5.66
237.628	2.58
238.011	6.23
238.394	7.41
238.777	5.66
239.16	5.13
239.543	6.56
239.925	6.14
240.308	4.69
240.691	6.32
241.073	7.5
241.456	4.85
241.838	5.19
242.221	4.15
242.603	5.28
242.986	6.19
243.368	5.39
243.75	5.87
244.133	5.11
244.515	5.58
244.897	5.7
245.279	5.8
245.661	4.37
246.043	4.47
246.425	4.53
246.807	5.8
247.189	6.2
247.571	5.25
247.953	5.42
248.335	5.19
248.717	5.14
249.098	5.33
249.48	5.19
249.862	5.31
250.243	5.25
250.625	5.18
251.006	4.61
251.388	4.76
251.769	5.53
252.151	5.25
252.532	5.54
252.913	5.94
253.295	5.54
253.676	5.02
254.057	5.13
254.438	5.05
254.819	4.19
255.2	4.57
255.581	4.65
255.962	4.25
256.343	5.21
256.724	5.52
257.105	4.77
257.486	4.12
257.867	5.83
258.247	4.77
258.628	4.82
259.009	4.8
259.389	5.2
259.77	4.69
260.15	3.4
260.531	4.72
260.911	5.32
261.292	4.64
261.672	5.26
262.052	4.84
262.432	5.28
262.813	4.5
263.193	4.86
263.573	4.2
263.953	4.71
264.333	5.6
264.713	4.58
265.093	4.55
265.473	5.66
265.853	3.88
266.233	4.99
266.612	3.79
266.992	4.15
267.372	4.38
267.752	5.22
268.131	5.16
268.511	5.62
268.89	5.21
269.27	5.24
269.649	4.18
270.029	4.8
270.408	5.55
270.787	4.85
271.167	5.24
271.546	5.09
271.925	3.86
272.304	4.76
272.683	5.44
273.062	4.28
273.441	4.54
273.82	4.34
274.199	4.85
274.578	4.36
274.957	4.53
275.336	4.44
275.715	3.96
276.093	4.25
276.472	5.07
276.851	4.58
277.229	4.52
277.608	4.17
277.986	4.73
278.365	4.61
278.743	4.68
279.122	4.12
279.5	4.17
279.878	4.64
280.257	4.43
280.635	5.05
281.013	3.85
281.391	4.64
281.769	4.69
282.147	5.13
282.525	5.29
282.903	4.74
283.281	4.7
283.659	4.32
284.037	4.74
284.415	5.13
284.792	5.1
285.17	4.01
285.548	4.5
285.925	5.03
286.303	4.93
286.68	4.08
287.058	4
287.435	4.32
287.813	4.2
288.19	4.11
288.567	4.4
288.945	4.57
289.322	4.39
289.699	3.9
290.076	4.38
290.453	4.61
290.83	4.42
291.207	4.55
291.584	5.03
291.961	4.9
292.338	4.5
292.715	4.62
293.092	4.68
293.469	4.3
293.845	4.74
294.222	4.18
294.599	4.67
294.975	4.32
295.352	5.27
295.728	4.45
296.105	4.69
296.481	4.81
296.858	4.82
297.234	4.97
297.61	4.48
297.986	4.66
298.363	4.6
298.739	4.91
299.115	4.4
299.491	4.01
299.867	4.7
300.243	4.72
300.619	3.93
300.995	4.47
301.371	4.72
301.746	4.71
302.122	5.16
302.498	4.44
302.874	4.39
303.249	4.27
303.625	4.37
304	4.84
304.376	4.69
304.751	4.49
305.127	5.3
305.502	4.43
305.878	3.95
306.253	4.8
306.628	4.94
307.003	4.49
307.378	5.1
307.754	5.05
308.129	4.23
308.504	4.33
308.879	4.15
309.254	6.1
309.629	5.24
310.003	4.87
310.378	5.14
310.753	5.14
311.128	5
311.502	5.32
311.877	5.05
312.252	3.9
312.626	4.89
313.001	4.86
313.375	5.24
313.75	4.66
314.124	5.09
314.498	4.69
314.873	4.82
315.247	4.49
315.621	4.69
315.995	4.5
316.369	4.99
316.743	4.58
317.117	4.91
317.491	4.31
317.865	4.56
318.239	4.31
318.613	5.14
318.987	4.59
319.361	4.29
319.734	4.92
320.108	5.03
320.482	4.15
320.855	5.01
321.229	5.21
321.602	4.48
321.976	5.16
322.349	5
322.723	4.85
323.096	5.25
323.469	4.43
323.843	4.44
324.216	4.98
324.589	4.76
324.962	4.29
325.335	4.34
325.708	5.2
326.081	5.34
326.454	4.85
326.827	4.8
327.2	4.94
327.573	4.99
327.945	5.16
328.318	4.58
328.691	3.85
329.063	4.62
329.436	4.41
329.809	5.08
330.181	4.29
330.553	4.86
330.926	4.57
331.298	4.98
331.671	4.94
332.043	5.34
332.415	4.78
332.787	4.97
333.159	4.97
333.532	5.22
333.904	4.76
334.276	5.13
334.648	5.12
335.02	4.6
335.391	4.99
335.763	4.33
336.135	5
336.507	4.76
336.879	4.71
337.25	4.69
337.622	5.13
337.993	4.98
338.365	4.71
338.736	4.75
339.108	4.74
339.479	4.29
339.851	4.39
340.222	4.64
340.593	4.96
340.964	5.07
341.336	5.79
341.707	4.84
342.078	5.19
342.449	5.03
342.82	4.43
343.191	5.07
343.562	4.89
343.933	5.09
344.303	4.52
344.674	4.5
345.045	4.46
345.416	5.22
345.786	4.36
346.157	5.14
346.527	4.37
346.898	4.5
347.268	5.16
347.639	4.82
348.009	5.14
348.38	4.59
348.75	4.51
349.12	4.21
349.49	5.05
349.861	4.82
350.231	4.35
350.601	4.65
350.971	5
351.341	5.15
351.711	4.77
352.081	5.11
352.45	4.98
352.82	5.11
353.19	4.99
353.56	4.97
353.929	4.86
354.299	4.94
354.669	4.64
355.038	5.23
355.408	4.88
355.777	4.96
356.147	4.65
356.516	4.59
356.885	4.81
357.254	4.91
357.624	5.13
357.993	5.07
358.362	5.03
358.731	4.83
359.1	5.07
359.469	4.95
359.838	4.97
360.207	4.83
360.576	4.81
360.945	5.09
361.314	5.22
361.682	4.6
362.051	5.08
362.42	5.28
362.788	5
363.157	5.03
363.525	5.14
363.894	5.29
364.262	5.15
364.631	5.1
364.999	5.08
365.367	4.59
365.735	5.6
366.104	5.27
366.472	5.27
366.84	4.74
367.208	4.89
367.576	5.24
367.944	5.3
368.312	5.39
368.68	4.52
369.048	5.14
369.416	4.86
369.783	4.59
370.151	5.13
370.519	5.36
370.886	5.36
371.254	5.15
371.621	5.27
371.989	4.98
372.356	4.56
372.724	5.13
373.091	4.77
373.458	4.99
373.826	4.9
374.193	4.62
374.56	5.21
374.927	5.3
375.294	5.16
375.661	4.77
376.028	4.79
376.395	5.25
376.762	5.14
377.129	5.3
377.496	5.3
377.863	5.1
378.229	4.67
378.596	4.99
378.963	4.98
379.329	5.03
379.696	5.15
380.062	5.38
380.429	4.9
380.795	5.36
381.161	4.9
381.528	5.35
381.894	5.19
382.26	4.72
382.626	5.42
382.993	4.62
383.359	5.46
383.725	4.72
384.091	5.08
384.457	5.46
384.823	5.01
385.188	5.58
385.554	5.1
385.92	5.32
386.286	5.13
386.651	5.01
387.017	5.44
387.383	5.39
387.748	4.86
388.114	5.61
388.479	5.02
388.845	5.23
389.21	5.24
389.575	5.02
389.94	5.13
390.306	5.29
390.671	5.44
391.036	4.85
391.401	4.78
391.766	5.29
392.131	4.93
392.496	5.1
392.861	5.22
393.226	5.27
393.591	5.13
393.956	5.06
394.32	4.93
394.685	5.03
395.05	5
395.414	5.2
395.779	5.06
396.143	5.22
396.508	4.92
396.872	5.3
397.236	5.24
397.601	4.99
397.965	5.15
398.329	5.2
398.694	5.55
399.058	5.25
399.422	4.99
399.786	5.3
400.15	5.32
400.514	5.3
400.878	5.63
401.242	5.4
401.605	5.27
401.969	5.33
402.333	5.11
402.697	5.25
403.06	5.43
403.424	5.18
403.787	5.05
404.151	5.54
404.514	5.24
404.878	5.04
405.241	5.68
405.604	5.18
405.968	5.41
406.331	5.37
406.694	5.46
407.057	5.34
407.42	5.55
407.783	5.07
408.146	5.35
408.509	5.19
408.872	5.19
409.235	5.29
409.598	5.59
409.961	5.23
410.323	5.5
410.686	5.2
411.049	5.06
411.411	5.18
411.774	5.12
412.136	5.36
412.499	5.28
412.861	5.28
413.223	5.11
413.586	5.25
413.948	5.56
414.31	5.3
414.672	5.38
415.035	5.1
415.397	5.67
415.759	5.46
416.121	5.54
416.483	5.43
416.845	5.5
417.206	5.45
417.568	5.37
417.93	5.1
418.292	5.41
418.653	5.33
419.015	5.34
419.377	5.38
419.738	5.32
420.1	5.4
420.461	5.49
420.822	5.28
421.184	5.41
421.545	5.43
421.906	5.15
422.267	5.34
422.629	5.35
422.99	5.22
423.351	5.24
423.712	5.25
424.073	5.27
424.434	5.27
424.795	5.3
425.155	5.19
425.516	5.15
425.877	5.32
426.238	5.27
426.598	5.43
426.959	5.28
427.32	5.33
427.68	5.38
428.041	5.22
428.401	5.38
428.761	5.26
429.122	5.5
429.482	5.13
429.842	5.42
430.202	5.38
430.563	5.22
430.923	5.29
431.283	5.42
431.643	5.34
432.003	5.61
432.363	5.46
432.722	5.35
433.082	5.45
433.442	5.32
433.802	5.3
434.161	5.39
434.521	5.67
434.881	5.64
435.24	5.29
435.6	5.28
435.959	5.38
436.319	5.51
436.678	5.56
437.037	5.38
437.396	5.33
437.756	5.48
438.115	5.35
438.474	5.57
438.833	5.38
439.192	5.44
439.551	5.35
439.91	5.33
440.269	5.56
440.628	5.28
440.987	5.41
441.345	5.34
441.704	5.51
442.063	5.4
442.421	5.53
442.78	5.42
443.138	5.52
443.497	5.52
443.855	5.44
444.214	5.44
444.572	5.44
444.93	5.49
445.288	5.52
445.647	5.54
446.005	5.32
446.363	5.62
446.721	5.54
447.079	5.31
447.437	5.44
447.795	5.54
448.153	5.35
448.51	5.41
448.868	5.5
449.226	5.44
449.584	5.46
449.941	5.54
450.299	5.44
450.656	5.4
451.014	5.58
451.371	5.43
451.729	5.4
452.086	5.58
452.443	5.61
452.801	5.51
453.158	5.51
453.515	5.4
453.872	5.7
454.229	5.49
454.586	5.58
454.943	5.55
455.3	5.61
455.657	5.45
456.014	5.57
456.371	5.54
456.727	5.56
457.084	5.82
457.441	5.58
457.797	5.5
458.154	5.52
458.51	5.67
458.867	5.8
459.223	5.59
459.58	5.76
459.936	5.81
460.292	5.56
460.648	5.71
461.005	5.61
461.361	5.55
461.717	5.61
462.073	5.49
462.429	5.49
462.785	5.52
463.141	5.51
463.496	5.64
463.852	5.5
464.208	5.5
464.564	5.7
464.919	5.7
465.275	5.66
465.631	5.72
465.986	5.47
466.342	5.79
466.697	5.62
467.052	5.54
467.408	5.84
467.763	5.81
468.118	5.6
468.473	5.49
468.829	5.7
469.184	5.46
469.539	5.61
469.894	5.51
470.249	5.93
470.603	5.81
470.958	5.98
471.313	5.85
471.668	5.67
472.023	5.85
472.377	5.82
472.732	5.61
473.086	5.64
473.441	5.66
473.795	5.93
474.15	5.82
474.504	5.76
474.859	5.91
475.213	5.59
475.567	5.57
475.921	5.69
476.275	5.85
476.63	5.82
476.984	5.99
477.338	5.86
477.692	5.71
478.045	5.73
478.399	5.73
478.753	5.83
479.107	5.82
479.461	5.73
479.814	5.77
480.168	5.8
480.521	5.77
480.875	5.85
481.228	5.87
481.582	5.81
481.935	5.68
482.289	5.91
482.642	5.87
482.995	5.78
483.348	5.78
483.701	5.8
484.055	5.82
484.408	5.78
484.761	5.73
485.114	5.72
485.466	5.62
485.819	5.53
486.172	5.5
486.525	5.49
486.878	5.48
487.23	5.49
487.583	5.57
487.936	5.6
488.288	5.68
488.641	5.72
488.993	5.64
489.345	5.63
489.698	5.59
490.05	5.57
490.402	5.65
490.754	5.57
491.107	5.65
491.459	5.73
491.811	5.77
492.163	5.66
492.515	5.79
492.866	5.79
493.218	5.84
493.57	5.71
493.922	5.7
494.274	5.74
494.625	5.72
494.977	5.77
495.328	5.95
495.68	5.79
496.031	5.9
496.383	5.89
496.734	6.09
497.086	6.02
497.437	5.95
497.788	6.06
498.139	5.92
498.49	6.05
498.842	5.92
499.193	5.88
499.544	5.87
499.894	5.91
500.245	5.92
500.596	5.99
500.947	6.04
501.298	5.9
501.648	5.98
501.999	6.14
502.35	5.98
502.7	6.02
503.051	6
503.401	6.06
503.752	6.11
504.102	5.98
504.452	6.06
504.803	6
505.153	6.15
505.503	6
505.853	5.99
506.203	6.08
506.553	6.03
506.903	6.08
507.253	6.15
507.603	6.06
507.953	6.12
508.303	6.2
508.652	5.95
509.002	6.22
509.352	6.16
509.701	6.12
510.051	6.1
510.4	6.24
510.75	6.03
511.099	6.14
511.449	6.16
511.798	6.34
512.147	6.22
512.496	6.26
512.846	6.31
513.195	6.15
513.544	6.2
513.893	6.27
514.242	6.19
514.591	6.32
514.939	6.21
515.288	6.15
515.637	6.31
515.986	6.2
516.334	6.23
516.683	6.35
517.032	6.33
517.38	6.34
517.729	6.32
518.077	6.27
518.426	6.32
518.774	6.3
519.122	6.24
519.47	6.33
519.819	6.22
520.167	6.25
520.515	6.34
520.863	6.26
521.211	6.35
521.559	6.34
521.907	6.2
522.255	6.33
522.602	6.33
522.95	6.26
523.298	6.49
523.645	6.54
523.993	6.44
524.341	6.45
524.688	6.65
525.036	6.35
525.383	6.51
525.73	6.67
526.078	6.52
526.425	6.45
526.772	6.63
527.119	6.54
527.466	6.55
527.814	6.51
528.161	6.52
528.508	6.48
528.854	6.57
529.201	6.39
529.548	6.49
529.895	6.46
530.242	6.32
530.588	6.39
530.935	6.35
531.282	6.39
531.628	6.35
531.975	6.44
532.321	6.49
532.667	6.58
533.014	6.62
533.36	6.68
533.706	6.65
534.052	6.64
534.399	6.56
534.745	6.64
535.091	6.66
535.437	6.66
535.783	6.64
536.129	6.68
536.474	6.63
536.82	6.7
537.166	6.79
537.512	6.74
537.857	6.89
538.203	6.95
538.549	6.9
538.894	6.81
539.239	6.83
539.585	6.76
539.93	6.77
540.276	7.04
540.621	7.15
540.966	6.96
541.311	6.89
541.656	6.9
542.001	6.99
542.346	7.18
542.691	7
543.036	6.96
543.381	6.86
543.726	6.9
544.071	6.93
544.415	6.91
544.76	6.87
545.105	7.04
545.449	7.03
545.794	7.03
546.138	7.13
546.483	7.11
546.827	7.23
547.171	7.17
547.516	7.29
547.86	7.23
548.204	7.15
548.548	7.28
548.892	7.34
549.236	7.29
549.58	7.28
549.924	7.44
550.268	7.49
550.612	7.44
550.956	7.7
551.3	7.44
551.643	7.6
551.987	7.57
552.33	7.55
552.674	7.62
553.017	7.49
553.361	7.48
553.704	7.83
554.048	7.55
554.391	7.55
554.734	7.7
555.077	7.67
555.42	7.56
555.764	7.61
556.107	7.47
556.45	7.61
556.793	7.71
557.135	7.92
557.478	8.06
557.821	7.91
558.164	7.91
558.507	7.82
558.849	7.75
559.192	8.08
559.534	7.99
559.877	8.04
560.219	7.81
560.562	8.22
560.904	8.1
561.246	8.13
561.589	8.02
561.931	8.18
562.273	8.15
562.615	8.21
562.957	8.35
563.299	7.86
563.641	8.09
563.983	8.16
564.325	8.16
564.667	8.14
565.008	8.3
565.35	8.32
565.692	8.18
566.033	8.47
566.375	8.5
566.716	8.56
567.058	8.25
567.399	8.41
567.741	8.33
568.082	8.51
568.423	8.49
568.764	8.28
569.105	8.41
569.447	8.51
569.788	8.39
570.129	8.74
570.47	8.65
570.811	8.79
571.151	8.74
571.492	8.68
571.833	8.69
572.174	8.66
572.514	8.59
572.855	8.76
573.195	8.79
573.536	8.81
573.876	8.51
574.217	8.73
574.557	8.96
574.898	8.88
575.238	9.05
575.578	8.61
575.918	9
576.258	8.92
576.598	8.93
576.938	8.96
577.278	9.23
577.618	9.1
577.958	8.91
578.298	9
578.638	8.97
578.977	9.06
579.317	9.07
579.657	9.16
579.996	9.18
580.336	9.17
580.675	9.07
581.014	9.2
581.354	9.14
581.693	9.42
582.032	9.4
582.372	9.46
582.711	9.59
583.05	9.41
583.389	9.4
583.728	9.5
584.067	9.61
584.406	9.79
584.745	9.62
585.083	9.76
585.422	9.99
585.761	10.04
586.1	9.95
586.438	9.78
586.777	10.11
587.115	10.02
587.454	9.79
587.792	9.97
588.13	10.11
588.469	9.97
588.807	10.01
589.145	9.97
589.483	10.09
589.821	10.2
590.159	10.1
590.497	10.59
590.835	10.55
591.173	10.3
591.511	10.67
591.849	10.55
592.187	10.39
592.524	10.22
592.862	10.39
593.2	10.29
593.537	10.58
593.875	10.08
594.212	10.15
594.55	10.41
594.887	10.63
595.224	10.57
595.561	10.56
595.899	10.65
596.236	10.46
596.573	10.71
596.91	10.57
597.247	10.67
597.584	11.02
597.921	11.02
598.258	10.74
598.594	11.18
598.931	10.94
599.268	10.85
599.604	10.82
599.941	10.93
600.277	10.71
600.614	10.75
600.95	10.6
601.287	11.11
601.623	11.15
601.959	10.88
602.296	11.15
602.632	10.83
602.968	11.37
603.304	11.32
603.64	11.37
603.976	11.5
604.312	11.18
604.648	11.36
604.984	11.61
605.319	11.32
605.655	11.37
605.991	11.42
606.326	11.56
606.662	11.58
606.998	11.33
607.333	11.35
607.668	11.34
608.004	11.58
608.339	11.96
608.674	11.59
609.01	11.38
609.345	11.64
609.68	12.12
610.015	11.53
610.35	11.76
610.685	11.91
611.02	11.75
611.355	12.08
611.689	12.23
612.024	11.83
612.359	11.94
612.694	11.96
613.028	12.03
613.363	12.03
613.697	12.21
614.032	12.35
614.366	12.2
614.7	12.19
615.035	12.56
615.369	12.4
615.703	12.49
616.037	12.49
616.371	12.58
616.705	12.5
617.039	12.54
617.373	12.16
617.707	12.75
618.041	12.53
618.375	12.77
618.709	12.5
619.042	12.82
619.376	13.16
619.71	12.85
620.043	12.91
620.377	12.8
620.71	13.12
621.043	13
621.377	12.94
621.71	13.21
622.043	13.21
622.376	12.67
622.709	13.02
623.043	13.48
623.376	13.21
623.709	13.07
624.041	13.72
624.374	13.26
624.707	13.15
625.04	13.44
625.373	13.21
625.705	13.43
626.038	13.44
626.37	13.46
626.703	13.19
627.035	13.91
627.368	13.69
627.7	13.54
628.032	13.74
628.365	13.97
628.697	13.68
629.029	13.52
629.361	13.69
629.693	13.98
630.025	13.66
630.357	13.89
630.689	14.16
631.021	13.78
631.353	14.16
631.684	13.73
632.016	13.78
632.348	14.24
632.679	14.7
633.011	14.18
633.342	14.48
633.674	13.86
634.005	14.4
634.336	14.4
634.668	14.9
634.999	14.11
635.33	14.97
635.661	14.62
635.992	14.7
636.323	14.73
636.654	14.47
636.985	14.36
637.316	14.36
637.647	14.57
637.977	14.87
638.308	14.62
638.639	14.43
638.969	14.9
639.3	14.67
639.63	14.52
639.961	14.54
640.291	14.84
640.622	15.05
640.952	15.37
641.282	15.36
641.612	15.26
641.943	14.78
642.273	15.3
642.603	15.5
642.933	14.98
643.263	15.24
643.592	15.4
643.922	15.11
644.252	15.2
644.582	15.37
644.911	14.76
645.241	15.27
645.571	15.16
645.9	15.69
646.23	15.72
646.559	15.84
646.888	15.25
647.218	15.15
647.547	16.4
647.876	15.26
648.205	15.6
648.534	15.34
648.863	15.52
649.192	15.62
649.521	15.87
649.85	15.52
650.179	15.8
650.508	15.3
650.837	15.79
651.165	15.75
651.494	16.26
651.822	16.37
652.151	15.76
652.479	16.12
652.808	16.16
653.136	16.26
653.465	16.4
653.793	15.71
654.121	16.36
654.449	16.59
654.777	16.45
655.105	16.3
655.433	15.8
655.761	16.19
656.089	16.49
656.417	17.01
656.745	16.12
657.073	16.48
657.4	17.2
657.728	16.95
658.056	16.53
658.383	16.92
658.711	17.13
659.038	17.11
659.365	17.54
659.693	17.07
660.02	17.11
660.347	16.67
660.674	17.12
661.001	17.64
661.329	16.26
661.656	17.29
661.982	17.71
662.309	17.03
662.636	16.97
662.963	17.04
663.29	17.36
663.616	17.11
663.943	17.06
664.27	16.86
664.596	17.99
664.923	17.8
665.249	17.17
665.576	17.4
665.902	18.47
666.228	17.09
666.554	17.62
666.881	17.97
667.207	17.9
667.533	17.46
667.859	17.52
668.185	18.11
668.511	17
668.837	17.44
669.162	18.29
669.488	17.04
669.814	18.29
670.139	17.85
670.465	18.51
670.791	18.1
671.116	18.21
671.442	17.71
671.767	18.9
672.092	18.6
672.418	18.43
672.743	19.15
673.068	18.1
673.393	18.04
673.718	18.23
674.043	17.98
674.368	18.77
674.693	19.15
675.018	18.79
675.343	18.39
675.667	18.96
675.992	18.88
676.317	19.42
676.641	19.32
676.966	19.04
677.29	18.92
677.615	19.29
677.939	19.11
678.264	19.73
678.588	19
678.912	18.79
679.236	19.93
679.56	18.24
679.885	19.66
680.209	19.53
680.532	19.35
680.856	20.51
681.18	19.03
681.504	19.09
681.828	19.48
682.152	19.33
682.475	20.07
682.799	19.59
683.122	20.36
683.446	19.37
683.769	20.33
684.093	19.36
684.416	20.31
684.739	19.11
685.062	19.38
685.386	20.45
685.709	20.03
686.032	19.39
686.355	20.11
