Data from 0202_crown_Reflection__4__334.txt Node

Date: Fri Dec 15 19:41:29 CST 2023
User: ToomeyLab
Spectrometer: FLMS14357
Trigger mode: 0
Integration Time (sec): 1.000000E-2
Scans to average: 100
Electric dark correction enabled: true
Nonlinearity correction enabled: false
Boxcar width: 0
XAxis mode: Wavelengths
Number of Pixels in Spectrum: 2048
>>>>>Begin Spectral Data<<<<<
189.047	-90.07
189.435	-90.07
189.823	-90.07
190.211	74.92
190.599	43.16
190.987	93.88
191.375	-359.37
191.763	-1609.77
192.151	157.68
192.538	71.43
192.926	-20.42
193.314	67.28
193.702	-175.28
194.089	60.28
194.477	-649.8
194.864	58.68
195.252	187.35
195.639	196.2
196.027	90.25
196.414	9.59
196.801	155.72
197.189	211.04
197.576	-1179.26
197.963	304.77
198.351	-102.86
198.738	-65.43
199.125	67.97
199.512	-1.75
199.899	-1.05
200.286	39.01
200.673	14.12
201.06	-7.54
201.447	44.39
201.833	-17.78
202.22	79.64
202.607	35.02
202.994	-43.8
203.38	20.44
203.767	46.13
204.154	22.5
204.54	36.16
204.927	38.44
205.313	-104.73
205.699	49.43
206.086	52.08
206.472	52.11
206.858	18.52
207.245	-11.69
207.631	25.35
208.017	-10.96
208.403	19.47
208.789	23.77
209.175	60.81
209.561	-57.04
209.947	-2.24
210.333	-18.07
210.719	18.43
211.105	12.64
211.491	-64.29
211.876	-9.82
212.262	21.69
212.648	3.58
213.034	24.69
213.419	-18.38
213.805	-10.6
214.19	22.58
214.576	2.09
214.961	-65.18
215.346	-84.94
215.732	-1.17
216.117	18.71
216.502	-26.25
216.888	1.94
217.273	19.86
217.658	-4.36
218.043	39.12
218.428	-39.75
218.813	-4.56
219.198	-58.4
219.583	9.96
219.968	21.62
220.353	0.99
220.738	16.91
221.122	5.71
221.507	-19.36
221.892	-25.57
222.276	-25.35
222.661	-27.11
223.046	11.83
223.43	29.9
223.815	8.29
224.199	-12.74
224.583	-2.02
224.968	-1.92
225.352	12.74
225.736	10.78
226.121	-18.74
226.505	6.04
226.889	13.5
227.273	-5.4
227.657	6.12
228.041	6.15
228.425	7.1
228.809	8.38
229.193	7.03
229.577	5.45
229.961	8.17
230.344	7.37
230.728	7.77
231.112	8.31
231.495	6.91
231.879	8.1
232.263	8.92
232.646	7.87
233.03	7.99
233.413	7.3
233.797	6.26
234.18	5.27
234.563	7.34
234.946	4.63
235.33	7.9
235.713	7.88
236.096	7.28
236.479	7.69
236.862	5.97
237.245	10
237.628	6.25
238.011	7.49
238.394	6.36
238.777	4.62
239.16	5.69
239.543	7.45
239.925	7.17
240.308	8.23
240.691	8.17
241.073	7.72
241.456	6.99
241.838	7.36
242.221	6.22
242.603	7.76
242.986	7.39
243.368	7.73
243.75	7.54
244.133	7.42
244.515	7.87
244.897	7.58
245.279	6.96
245.661	7.5
246.043	6.28
246.425	5.88
246.807	8.15
247.189	6.85
247.571	7.41
247.953	7.14
248.335	7.58
248.717	7.64
249.098	6.94
249.48	6.95
249.862	7.32
250.243	7.36
250.625	6.9
251.006	7.08
251.388	6.55
251.769	6.92
252.151	7.55
252.532	7.08
252.913	5.89
253.295	6.21
253.676	6.19
254.057	6.74
254.438	6.93
254.819	6.62
255.2	7.29
255.581	6.88
255.962	5.68
256.343	6.41
256.724	6.94
257.105	5.77
257.486	5.54
257.867	6.24
258.247	6.93
258.628	6.64
259.009	6.77
259.389	6.5
259.77	6.34
260.15	5.24
260.531	6.53
260.911	7.07
261.292	6.75
261.672	7.02
262.052	6.47
262.432	6.79
262.813	6.55
263.193	6.01
263.573	6.36
263.953	5.62
264.333	6.11
264.713	6.35
265.093	5.92
265.473	6.49
265.853	5.77
266.233	6.43
266.612	4.86
266.992	4.84
267.372	6.33
267.752	6.3
268.131	6.59
268.511	7.01
268.89	5.94
269.27	5.86
269.649	6.08
270.029	5.32
270.408	7.03
270.787	6.35
271.167	7.24
271.546	6.73
271.925	5.26
272.304	6.24
272.683	5.74
273.062	6.25
273.441	6.42
273.82	5.22
274.199	6.24
274.578	6.29
274.957	5.95
275.336	5.9
275.715	6.04
276.093	5.81
276.472	6.37
276.851	6.01
277.229	5.34
277.608	5.95
277.986	6.32
278.365	6.04
278.743	5.25
279.122	5.82
279.5	5.93
279.878	6.97
280.257	5.93
280.635	5.82
281.013	5.87
281.391	6.7
281.769	5.9
282.147	6.05
282.525	6.73
282.903	6.02
283.281	6.54
283.659	5.75
284.037	5.78
284.415	5.87
284.792	6.16
285.17	5.32
285.548	5.46
285.925	5.93
286.303	5.7
286.68	5.55
287.058	5.75
287.435	5.74
287.813	5.91
288.19	5.43
288.567	5.7
288.945	6.11
289.322	5.99
289.699	5.14
290.076	5.55
290.453	5.28
290.83	5.38
291.207	4.75
291.584	6.03
291.961	5.63
292.338	5.53
292.715	5.98
293.092	6.02
293.469	5.45
293.845	5.76
294.222	5.11
294.599	5.01
294.975	5.81
295.352	5.13
295.728	5.23
296.105	5.35
296.481	5.43
296.858	5.26
297.234	5.45
297.61	5.41
297.986	5.54
298.363	5.7
298.739	5.37
299.115	5
299.491	5.38
299.867	5.39
300.243	5.51
300.619	5.13
300.995	5.56
301.371	5.49
301.746	4.87
302.122	5.76
302.498	5.71
302.874	5.77
303.249	5.33
303.625	5.19
304	5.46
304.376	4.91
304.751	4.96
305.127	5.55
305.502	5.16
305.878	4.72
306.253	5.42
306.628	5.79
307.003	5.04
307.378	5.29
307.754	5.08
308.129	4.15
308.504	5.57
308.879	5.23
309.254	6.28
309.629	5.54
310.003	5.28
310.378	5.89
310.753	5.35
311.128	5.11
311.502	5.32
311.877	5.76
312.252	4.98
312.626	5.45
313.001	5.1
313.375	5.73
313.75	4.65
314.124	5.74
314.498	5.23
314.873	4.55
315.247	4.85
315.621	5.61
315.995	4.51
316.369	4.73
316.743	5.37
317.117	5.41
317.491	4.92
317.865	4.77
318.239	4.56
318.613	4.73
318.987	5.5
319.361	4.55
319.734	5.29
320.108	5.78
320.482	5.18
320.855	5.38
321.229	5.36
321.602	5.12
321.976	5.79
322.349	5.31
322.723	4.77
323.096	5.5
323.469	4.28
323.843	5.51
324.216	5.55
324.589	5.02
324.962	5.34
325.335	4.78
325.708	5.06
326.081	4.77
326.454	5.47
326.827	4.84
327.2	5.12
327.573	5.39
327.945	5.07
328.318	4.4
328.691	4.89
329.063	5.17
329.436	4.56
329.809	5.4
330.181	4.61
330.553	4.52
330.926	5.09
331.298	5.2
331.671	5.56
332.043	5.57
332.415	5.24
332.787	5.79
333.159	5.73
333.532	5.84
333.904	5.24
334.276	4.9
334.648	5.7
335.02	5.4
335.391	4.86
335.763	5.32
336.135	5.05
336.507	5.32
336.879	5.1
337.25	4.63
337.622	4.96
337.993	4.74
338.365	5.32
338.736	5.36
339.108	4.97
339.479	4.61
339.851	4.93
340.222	4.78
340.593	5.32
340.964	4.67
341.336	5.86
341.707	4.87
342.078	5.68
342.449	5.28
342.82	5.23
343.191	5.6
343.562	5.15
343.933	5.15
344.303	5.13
344.674	5.67
345.045	5.33
345.416	5.21
345.786	4.85
346.157	5.6
346.527	4.7
346.898	4.65
347.268	5.81
347.639	4.48
348.009	5.23
348.38	4.81
348.75	5.59
349.12	5.01
349.49	5.5
349.861	5.12
350.231	5.3
350.601	5.35
350.971	5.76
351.341	5.12
351.711	5.03
352.081	5.5
352.45	5.26
352.82	5.58
353.19	5.48
353.56	4.62
353.929	5.43
354.299	4.99
354.669	4.88
355.038	5.4
355.408	5.28
355.777	5.08
356.147	5.07
356.516	5.25
356.885	5.62
357.254	5.63
357.624	5.67
357.993	5.59
358.362	5.15
358.731	4.84
359.1	5.52
359.469	5.51
359.838	5.72
360.207	5.03
360.576	5.08
360.945	5.29
361.314	5.83
361.682	4.93
362.051	5.19
362.42	5.4
362.788	5.42
363.157	5.56
363.525	5.57
363.894	5.69
364.262	5.5
364.631	5.45
364.999	5.49
365.367	5.24
365.735	5.89
366.104	5.44
366.472	5.79
366.84	5.28
367.208	5.34
367.576	5.64
367.944	5.89
368.312	5.74
368.68	4.98
369.048	5.95
369.416	5.51
369.783	5.62
370.151	5.82
370.519	6.1
370.886	5.89
371.254	5.28
371.621	5.89
371.989	5.8
372.356	5.21
372.724	5.67
373.091	5.34
373.458	5.67
373.826	5.61
374.193	5.47
374.56	5.56
374.927	5.78
375.294	5.71
375.661	5.37
376.028	5.48
376.395	5.6
376.762	5.79
377.129	5.53
377.496	5.78
377.863	5.6
378.229	5.29
378.596	6.01
378.963	5.69
379.329	5.77
379.696	5.69
380.062	5.77
380.429	5.36
380.795	5.63
381.161	5.83
381.528	5.82
381.894	5.58
382.26	5.44
382.626	6.12
382.993	5.32
383.359	5.93
383.725	5.81
384.091	5.9
384.457	6.2
384.823	5.8
385.188	6.12
385.554	5.78
385.92	5.7
386.286	5.89
386.651	6
387.017	6.03
387.383	5.87
387.748	5.94
388.114	5.93
388.479	5.94
388.845	6.31
389.21	6.26
389.575	6.15
389.94	6.2
390.306	5.92
390.671	6.34
391.036	5.47
391.401	5.56
391.766	5.88
392.131	6.09
392.496	6.04
392.861	5.84
393.226	6.08
393.591	6.11
393.956	5.72
394.32	6.01
394.685	5.83
395.05	5.86
395.414	6.03
395.779	5.89
396.143	5.87
396.508	6.09
396.872	5.91
397.236	6.25
397.601	5.9
397.965	6.14
398.329	6.23
398.694	6.1
399.058	5.92
399.422	6.02
399.786	5.99
400.15	6.28
400.514	6.15
400.878	6.15
401.242	6.42
401.605	6.35
401.969	6.16
402.333	6.32
402.697	5.94
403.06	6.35
403.424	5.99
403.787	6.31
404.151	6.33
404.514	6.26
404.878	6.13
405.241	6.2
405.604	6.2
405.968	6.32
406.331	6.07
406.694	6.34
407.057	6.01
407.42	6.39
407.783	5.9
408.146	6.31
408.509	6.21
408.872	6.21
409.235	6.42
409.598	6.43
409.961	6.06
410.323	6.46
410.686	6.12
411.049	6.05
411.411	6.23
411.774	6.49
412.136	6.24
412.499	6.03
412.861	6.1
413.223	6.22
413.586	5.99
413.948	6.29
414.31	6.22
414.672	6.15
415.035	5.86
415.397	6.57
415.759	6.25
416.121	6.43
416.483	6.13
416.845	6.46
417.206	6.13
417.568	6.37
417.93	6.15
418.292	6.21
418.653	6.27
419.015	6.16
419.377	6.13
419.738	6.33
420.1	6.22
420.461	6.1
420.822	6.27
421.184	6.18
421.545	6.24
421.906	6.09
422.267	6.11
422.629	6.27
422.99	6.22
423.351	6.15
423.712	6.21
424.073	6.16
424.434	6.09
424.795	6.13
425.155	6.28
425.516	6.18
425.877	6.21
426.238	6.08
426.598	6.25
426.959	6.15
427.32	6.11
427.68	6.21
428.041	6.24
428.401	6.39
428.761	6.45
429.122	6.3
429.482	6.02
429.842	6.49
430.202	6.37
430.563	6.5
430.923	6.25
431.283	6.52
431.643	6.41
432.003	6.31
432.363	6.55
432.722	6.22
433.082	6.33
433.442	6.23
433.802	6.18
434.161	6.52
434.521	6.5
434.881	6.38
435.24	6.29
435.6	6.37
435.959	6.1
436.319	6.27
436.678	6.26
437.037	6.34
437.396	6.4
437.756	6.54
438.115	6.6
438.474	6.51
438.833	6.16
439.192	6.42
439.551	6.55
439.91	6.39
440.269	6.3
440.628	6.37
440.987	6.34
441.345	6.38
441.704	6.46
442.063	6.32
442.421	6.38
442.78	6.26
443.138	6.32
443.497	6.38
443.855	6.34
444.214	6.26
444.572	6.45
444.93	6.43
445.288	6.31
445.647	6.44
446.005	6.31
446.363	6.34
446.721	6.44
447.079	6.19
447.437	6.43
447.795	6.39
448.153	6.15
448.51	6.28
448.868	6.42
449.226	6.35
449.584	6.23
449.941	6.4
450.299	6.38
450.656	6.38
451.014	6.4
451.371	6.26
451.729	6.14
452.086	6.55
452.443	6.51
452.801	6.46
453.158	6.49
453.515	6.13
453.872	6.47
454.229	6.46
454.586	6.41
454.943	6.46
455.3	6.31
455.657	6.31
456.014	6.41
456.371	6.39
456.727	6.31
457.084	6.65
457.441	6.36
457.797	6.36
458.154	6.66
458.51	6.58
458.867	6.47
459.223	6.45
459.58	6.47
459.936	6.41
460.292	6.38
460.648	6.27
461.005	6.28
461.361	6.39
461.717	6.35
462.073	6.27
462.429	6.34
462.785	6.26
463.141	6.42
463.496	6.45
463.852	6.6
464.208	6.52
464.564	6.35
464.919	6.56
465.275	6.43
465.631	6.66
465.986	6.41
466.342	6.34
466.697	6.43
467.052	6.64
467.408	6.61
467.763	6.57
468.118	6.57
468.473	6.48
468.829	6.57
469.184	6.3
469.539	6.52
469.894	6.46
470.249	6.66
470.603	6.57
470.958	6.58
471.313	6.63
471.668	6.68
472.023	6.4
472.377	6.34
472.732	6.52
473.086	6.43
473.441	6.32
473.795	6.5
474.15	6.41
474.504	6.53
474.859	6.71
475.213	6.47
475.567	6.53
475.921	6.36
476.275	6.51
476.63	6.58
476.984	6.54
477.338	6.61
477.692	6.42
478.045	6.4
478.399	6.48
478.753	6.6
479.107	6.55
479.461	6.42
479.814	6.61
480.168	6.57
480.521	6.31
480.875	6.4
481.228	6.51
481.582	6.44
481.935	6.43
482.289	6.48
482.642	6.51
482.995	6.34
483.348	6.36
483.701	6.49
484.055	6.35
484.408	6.39
484.761	6.26
485.114	6.21
485.466	6.06
485.819	6.04
486.172	6.07
486.525	6.11
486.878	6.2
487.23	6.21
487.583	6.31
487.936	6.24
488.288	6.22
488.641	6.37
488.993	6.16
489.345	6.11
489.698	6.16
490.05	6.15
490.402	6.25
490.754	6.19
491.107	6.31
491.459	6.33
491.811	6.39
492.163	6.25
492.515	6.4
492.866	6.39
493.218	6.35
493.57	6.24
493.922	6.14
494.274	6.3
494.625	6.33
494.977	6.44
495.328	6.44
495.68	6.49
496.031	6.62
496.383	6.66
496.734	6.6
497.086	6.54
497.437	6.52
497.788	6.48
498.139	6.41
498.49	6.6
498.842	6.29
499.193	6.46
499.544	6.46
499.894	6.46
500.245	6.49
500.596	6.37
500.947	6.51
501.298	6.33
501.648	6.64
501.999	6.51
502.35	6.62
502.7	6.59
503.051	6.25
503.401	6.5
503.752	6.58
504.102	6.43
504.452	6.54
504.803	6.46
505.153	6.64
505.503	6.42
505.853	6.56
506.203	6.42
506.553	6.44
506.903	6.52
507.253	6.43
507.603	6.39
507.953	6.48
508.303	6.62
508.652	6.39
509.002	6.64
509.352	6.45
509.701	6.42
510.051	6.46
510.4	6.61
510.75	6.42
511.099	6.53
511.449	6.36
511.798	6.42
512.147	6.47
512.496	6.47
512.846	6.57
513.195	6.47
513.544	6.41
513.893	6.53
514.242	6.55
514.591	6.54
514.939	6.42
515.288	6.37
515.637	6.59
515.986	6.48
516.334	6.52
516.683	6.49
517.032	6.55
517.38	6.43
517.729	6.62
518.077	6.51
518.426	6.57
518.774	6.57
519.122	6.54
519.47	6.51
519.819	6.08
520.167	6.44
520.515	6.36
520.863	6.4
521.211	6.45
521.559	6.45
521.907	6.4
522.255	6.45
522.602	6.48
522.95	6.46
523.298	6.47
523.645	6.57
523.993	6.51
524.341	6.57
524.688	6.56
525.036	6.34
525.383	6.49
525.73	6.72
526.078	6.51
526.425	6.37
526.772	6.41
527.119	6.48
527.466	6.42
527.814	6.41
528.161	6.28
528.508	6.4
528.854	6.41
529.201	6.34
529.548	6.28
529.895	6.41
530.242	6.14
530.588	6.08
530.935	6.23
531.282	6.17
531.628	6.19
531.975	6.28
532.321	6.37
532.667	6.37
533.014	6.39
533.36	6.51
533.706	6.38
534.052	6.47
534.399	6.36
534.745	6.31
535.091	6.3
535.437	6.24
535.783	6.32
536.129	6.36
536.474	6.43
536.82	6.37
537.166	6.48
537.512	6.5
537.857	6.38
538.203	6.41
538.549	6.35
538.894	6.4
539.239	6.48
539.585	6.44
539.93	6.38
540.276	6.64
540.621	6.61
540.966	6.61
541.311	6.37
541.656	6.42
542.001	6.55
542.346	6.52
542.691	6.45
543.036	6.27
543.381	6.18
543.726	6.28
544.071	6.31
544.415	6.26
544.76	6.38
545.105	6.41
545.449	6.39
545.794	6.42
546.138	6.42
546.483	6.44
546.827	6.46
547.171	6.5
547.516	6.64
547.86	6.45
548.204	6.5
548.548	6.42
548.892	6.62
549.236	6.44
549.58	6.52
549.924	6.54
550.268	6.57
550.612	6.55
550.956	6.77
551.3	6.54
551.643	6.73
551.987	6.62
552.33	6.38
552.674	6.65
553.017	6.63
553.361	6.44
553.704	6.57
554.048	6.43
554.391	6.44
554.734	6.49
555.077	6.45
555.42	6.51
555.764	6.44
556.107	6.42
556.45	6.39
556.793	6.48
557.135	6.53
557.478	6.71
557.821	6.47
558.164	6.49
558.507	6.5
558.849	6.38
559.192	6.63
559.534	6.36
559.877	6.47
560.219	6.33
560.562	6.65
560.904	6.46
561.246	6.81
561.589	6.63
561.931	6.56
562.273	6.52
562.615	6.44
562.957	6.54
563.299	6.33
563.641	6.59
563.983	6.54
564.325	6.4
564.667	6.52
565.008	6.52
565.35	6.36
565.692	6.41
566.033	6.43
566.375	6.74
566.716	6.68
567.058	6.42
567.399	6.32
567.741	6.28
568.082	6.59
568.423	6.39
568.764	6.44
569.105	6.54
569.447	6.74
569.788	6.58
570.129	6.77
570.47	6.35
570.811	6.44
571.151	6.71
571.492	6.58
571.833	6.39
572.174	6.4
572.514	6.48
572.855	6.28
573.195	6.38
573.536	6.45
573.876	6.45
574.217	6.32
574.557	6.49
574.898	6.54
575.238	6.42
575.578	6.33
575.918	6.57
576.258	6.56
576.598	6.58
576.938	6.38
577.278	6.44
577.618	6.45
577.958	6.4
578.298	6.39
578.638	6.37
578.977	6.51
579.317	6.41
579.657	6.5
579.996	6.44
580.336	6.49
580.675	6.4
581.014	6.51
581.354	6.44
581.693	6.48
582.032	6.17
582.372	6.63
582.711	6.76
583.05	6.25
583.389	6.3
583.728	6.3
584.067	6.68
584.406	6.41
584.745	6.4
585.083	6.46
585.422	6.47
585.761	6.38
586.1	6.3
586.438	6.39
586.777	6.52
587.115	6.7
587.454	6.32
587.792	6.43
588.13	6.49
588.469	6.53
588.807	6.44
589.145	6.54
589.483	6.45
589.821	6.43
590.159	6.41
590.497	6.86
590.835	6.72
591.173	6.35
591.511	6.69
591.849	6.53
592.187	6.46
592.524	6.58
592.862	6.31
593.2	6.36
593.537	6.2
593.875	6.23
594.212	6.31
594.55	6.29
594.887	6.59
595.224	6.3
595.561	6.44
595.899	6.31
596.236	6.42
596.573	6.73
596.91	6.15
597.247	6.13
597.584	6.88
597.921	6.47
598.258	6.2
598.594	6.5
598.931	6.23
599.268	6.4
599.604	6.37
599.941	6.42
600.277	6.25
600.614	6.21
600.95	6.28
601.287	6.45
601.623	6.44
601.959	6.14
602.296	6.59
602.632	6.16
602.968	6.61
603.304	6.23
603.64	6.26
603.976	6.67
604.312	6.48
604.648	6.5
604.984	6.48
605.319	6.23
605.655	6.28
605.991	6.21
606.326	6.34
606.662	6.37
606.998	6.1
607.333	6.25
607.668	6.43
608.004	6.36
608.339	6.38
608.674	6.37
609.01	6.39
609.345	6.31
609.68	6.39
610.015	5.92
610.35	6.25
610.685	6.5
611.02	6.35
611.355	6.42
611.689	6.34
612.024	6.31
612.359	6.38
612.694	6.2
613.028	6.12
613.363	6.58
613.697	6.44
614.032	6.38
614.366	5.97
614.7	6.38
615.035	6.38
615.369	6.32
615.703	6.26
616.037	6.53
616.371	5.83
616.705	6.24
617.039	6.13
617.373	6.2
617.707	5.95
618.041	6.09
618.375	6.52
618.709	6.37
619.042	6.06
619.376	6.6
619.71	6.51
620.043	6.41
620.377	6.44
620.71	6.32
621.043	6.25
621.377	6.51
621.71	6.24
622.043	6.04
622.376	5.83
622.709	6.35
623.043	6.89
623.376	6.23
623.709	6.43
624.041	6.49
624.374	6.24
624.707	6.27
625.04	6.35
625.373	6.05
625.705	6.42
626.038	6.05
626.37	5.94
626.703	6.23
627.035	6.26
627.368	6.52
627.7	6.14
628.032	6.09
628.365	6.59
628.697	6.19
629.029	5.91
629.361	6.12
629.693	6.67
630.025	6.24
630.357	6.55
630.689	6.33
631.021	6.37
631.353	6.04
631.684	6.46
632.016	5.84
632.348	6.58
632.679	6.42
633.011	6.63
633.342	6.54
633.674	6.45
634.005	6.32
634.336	6.45
634.668	6.95
634.999	6.18
635.33	6.55
635.661	6.34
635.992	6.09
636.323	6.23
636.654	6.12
636.985	6.4
637.316	6.15
637.647	6.27
637.977	6.62
638.308	6.46
638.639	6.01
638.969	6.33
639.3	5.89
639.63	5.7
639.961	6.59
640.291	6.04
640.622	6.33
640.952	6.1
641.282	6.28
641.612	6.01
641.943	6.07
642.273	6.45
642.603	6.34
642.933	6.28
643.263	6.55
643.592	6.19
643.922	5.72
644.252	5.76
644.582	6.21
644.911	5.42
645.241	5.97
645.571	6.02
645.9	5.87
646.23	5.98
646.559	6.45
646.888	5.76
647.218	6.31
647.547	6.4
647.876	5.98
648.205	5.87
648.534	5.87
648.863	5.65
649.192	6.48
649.521	6.21
649.85	6.43
650.179	6.44
650.508	5.9
650.837	5.92
651.165	5.72
651.494	6.32
651.822	6.03
652.151	5.6
652.479	6.71
652.808	6.02
653.136	6.35
653.465	6.06
653.793	5.77
654.121	6.08
654.449	6.54
654.777	6.14
655.105	6.47
655.433	5.75
655.761	5.66
656.089	6.01
656.417	6.36
656.745	6.26
657.073	6.17
657.4	6.66
657.728	6.06
658.056	5.64
658.383	6.1
658.711	6.06
659.038	6.09
659.365	7.02
659.693	6.13
660.02	5.49
660.347	6.3
660.674	5.81
661.001	6.11
661.329	5.41
661.656	6.08
661.982	6.21
662.309	5.72
662.636	5.84
662.963	6.46
663.29	6.32
663.616	6.29
663.943	5.87
664.27	6.12
664.596	6.1
664.923	5.79
665.249	6.38
665.576	6.08
665.902	7.2
666.228	5.73
666.554	6.54
666.881	6.13
667.207	6.44
667.533	6.25
667.859	6.4
668.185	6.18
668.511	5.89
668.837	5.34
669.162	6.16
669.488	6.53
669.814	6.75
670.139	6.15
670.465	6.65
670.791	5.54
671.116	6.76
671.442	5.96
671.767	6.78
672.092	6.33
672.418	6.57
672.743	5.95
673.068	5.97
673.393	6.13
673.718	6.33
674.043	6
674.368	5.96
674.693	6.58
675.018	6.27
675.343	5.48
675.667	5.44
675.992	6.63
676.317	6.75
676.641	6.38
676.966	6.68
677.29	5.96
677.615	5.88
677.939	6.89
678.264	6.11
678.588	7.04
678.912	5.81
679.236	6.48
679.56	5.53
679.885	6.71
680.209	6.53
680.532	6.18
680.856	7.57
681.18	6.38
681.504	5.7
681.828	6.56
682.152	6.14
682.475	6.13
682.799	6.67
683.122	6.68
683.446	6.03
683.769	6.56
684.093	6.47
684.416	7.35
684.739	5.64
685.062	5.96
685.386	6.61
685.709	5.65
686.032	5.77
686.355	6.72
686.678	5.94
687.001	6.55
687.324	7.27
687.646	5.6
687.969	5.5
688.292	6.33
688.614	5.84
688.937	6.65
689.26	5.94
689.582	6.51
689.904	6.13
690.227	6.41
690.549	6.82
690.871	6.34
691.194	6.55
691.516	5.81
