Data from 0202_crown_Reflection__2__332.txt Node

Date: Fri Dec 15 19:41:11 CST 2023
User: ToomeyLab
Spectrometer: FLMS14357
Trigger mode: 0
Integration Time (sec): 1.000000E-2
Scans to average: 100
Electric dark correction enabled: true
Nonlinearity correction enabled: false
Boxcar width: 0
XAxis mode: Wavelengths
Number of Pixels in Spectrum: 2048
>>>>>Begin Spectral Data<<<<<
189.047	66.24
189.435	66.24
189.823	66.24
190.211	79.05
190.599	183.85
190.987	34.61
191.375	-127.63
191.763	-1090.63
192.151	91.98
192.538	26.51
192.926	85.24
193.314	120.16
193.702	-236.49
194.089	12.06
194.477	37.1
194.864	391.67
195.252	223.1
195.639	178.14
196.027	8.77
196.414	183.97
196.801	48.85
197.189	94.62
197.576	-561.36
197.963	117.74
198.351	-11.62
198.738	20.69
199.125	76.76
199.512	-40.91
199.899	-26.63
200.286	2.2
200.673	-22.91
201.06	20.36
201.447	-126.92
201.833	10.9
202.22	90.63
202.607	59.99
202.994	-79.07
203.38	10.07
203.767	35.32
204.154	18.81
204.54	16.22
204.927	-42.48
205.313	-1.74
205.699	-13.99
206.086	68.89
206.472	29.78
206.858	21.44
207.245	-2.48
207.631	1.7
208.017	-4.51
208.403	-24.05
208.789	2.52
209.175	11.61
209.561	-59.83
209.947	33.73
210.333	-167.5
210.719	-7.59
211.105	-33.31
211.491	-32.89
211.876	16.61
212.262	-19.18
212.648	-9.32
213.034	60.87
213.419	-44.8
213.805	-31.95
214.19	-11.23
214.576	-24.55
214.961	-48.87
215.346	-89.51
215.732	28.4
216.117	8.59
216.502	-61.22
216.888	-5.48
217.273	21.06
217.658	36.31
218.043	33.35
218.428	-69.06
218.813	-41.36
219.198	-101.5
219.583	13.75
219.968	24.09
220.353	8.48
220.738	27.7
221.122	1.38
221.507	-51.23
221.892	-50.94
222.276	-24.02
222.661	-10.79
223.046	1.69
223.43	32.29
223.815	16.6
224.199	-1.35
224.583	1.11
224.968	-4.48
225.352	2.38
225.736	6.37
226.121	-20.26
226.505	-0.16
226.889	15.83
227.273	3.6
227.657	17.59
228.041	3.4
228.425	3.74
228.809	8.5
229.193	10.06
229.577	5.78
229.961	5.88
230.344	6.43
230.728	7.27
231.112	7.61
231.495	7.78
231.879	7.15
232.263	7.89
232.646	7.61
233.03	6.43
233.413	4.35
233.797	7.28
234.18	4.57
234.563	5.55
234.946	8.76
235.33	8.62
235.713	8.69
236.096	7.06
236.479	7.08
236.862	8.17
237.245	8.96
237.628	4.99
238.011	7.21
238.394	7.85
238.777	6.16
239.16	5.78
239.543	6.79
239.925	8.73
240.308	7.78
240.691	9.22
241.073	7.84
241.456	8.73
241.838	5.02
242.221	6.28
242.603	7.41
242.986	7.5
243.368	6.96
243.75	7.97
244.133	7.46
244.515	6.84
244.897	7.53
245.279	7.51
245.661	7.08
246.043	6.01
246.425	7.52
246.807	6.76
247.189	7.87
247.571	7.55
247.953	7.48
248.335	6.83
248.717	7.27
249.098	7
249.48	6.83
249.862	6.64
250.243	7.22
250.625	6.66
251.006	7.39
251.388	5.7
251.769	6.83
252.151	6.65
252.532	5.87
252.913	5.8
253.295	6.06
253.676	6.99
254.057	6.58
254.438	6.59
254.819	6.13
255.2	6.19
255.581	6.57
255.962	3.88
256.343	5.59
256.724	5.76
257.105	6.48
257.486	5.41
257.867	6.33
258.247	4.9
258.628	5.23
259.009	6.46
259.389	6.35
259.77	5.55
260.15	5.18
260.531	5.55
260.911	6.89
261.292	6.54
261.672	6.64
262.052	6.39
262.432	6.65
262.813	5.78
263.193	5.84
263.573	5.85
263.953	5.93
264.333	7.11
264.713	6.79
265.093	5.4
265.473	5.43
265.853	5.88
266.233	5.83
266.612	3.39
266.992	4.25
267.372	5.63
267.752	6.5
268.131	6.01
268.511	6.67
268.89	6.32
269.27	6.01
269.649	5.3
270.029	5.62
270.408	6.48
270.787	5.99
271.167	5.99
271.546	6.48
271.925	5.38
272.304	5.56
272.683	6.02
273.062	5.43
273.441	6.3
273.82	5.93
274.199	5.7
274.578	6.23
274.957	6.07
275.336	5.46
275.715	5.56
276.093	6.09
276.472	6.22
276.851	5.45
277.229	5.15
277.608	5.25
277.986	5.76
278.365	5.54
278.743	6.23
279.122	5.94
279.5	5.84
279.878	5.83
280.257	5.3
280.635	4.88
281.013	6
281.391	5.66
281.769	5.4
282.147	5.53
282.525	6.25
282.903	4.98
283.281	6.47
283.659	5.62
284.037	6.14
284.415	5.49
284.792	6.37
285.17	4.57
285.548	5.76
285.925	5.51
286.303	5.33
286.68	5.47
287.058	5.44
287.435	5.42
287.813	5.42
288.19	5.26
288.567	5.53
288.945	5.53
289.322	5.29
289.699	5.69
290.076	5.22
290.453	5.49
290.83	4.96
291.207	5.33
291.584	5.68
291.961	5.58
292.338	5.49
292.715	5.93
293.092	5.24
293.469	5.11
293.845	5.93
294.222	5.42
294.599	5.65
294.975	4.97
295.352	5.53
295.728	5.13
296.105	5.06
296.481	5.53
296.858	5.56
297.234	4.76
297.61	5.3
297.986	5.12
298.363	5.21
298.739	5.68
299.115	4.79
299.491	4.99
299.867	5.2
300.243	5.15
300.619	4.92
300.995	5.4
301.371	5.48
301.746	4.83
302.122	5.15
302.498	5.35
302.874	4.87
303.249	4.72
303.625	5.2
304	5.84
304.376	5.35
304.751	4.23
305.127	6.12
305.502	4.18
305.878	4.49
306.253	4.65
306.628	5.45
307.003	5.26
307.378	4.93
307.754	5.6
308.129	4.56
308.504	5.16
308.879	5.27
309.254	5.82
309.629	5.46
310.003	4.51
310.378	5.23
310.753	5.24
311.128	5.11
311.502	4.9
311.877	5.51
312.252	4.65
312.626	4.79
313.001	4.43
313.375	5.14
313.75	4.41
314.124	5.33
314.498	4.34
314.873	4.74
315.247	4.38
315.621	4.78
315.995	4.03
316.369	4.8
316.743	5.05
317.117	5.12
317.491	4.93
317.865	5.06
318.239	4.79
318.613	4.69
318.987	5.27
319.361	3.84
319.734	5.3
320.108	5.05
320.482	5.14
320.855	4.64
321.229	4.75
321.602	4.72
321.976	4.94
322.349	5.5
322.723	4.77
323.096	4.95
323.469	4.33
323.843	5.04
324.216	5.02
324.589	5.01
324.962	4.3
325.335	4.27
325.708	5.16
326.081	4.88
326.454	5.05
326.827	4.54
327.2	4.04
327.573	5.1
327.945	5.04
328.318	4.9
328.691	4.61
329.063	4.47
329.436	4.88
329.809	5.32
330.181	5.14
330.553	4.67
330.926	4.81
331.298	4.94
331.671	4.41
332.043	5.57
332.415	5.03
332.787	4.64
333.159	5.38
333.532	4.72
333.904	4.57
334.276	4.69
334.648	5.26
335.02	4.3
335.391	4.5
335.763	4.47
336.135	4.99
336.507	4.91
336.879	4.82
337.25	4.6
337.622	4.72
337.993	4.62
338.365	4.43
338.736	4.69
339.108	4.99
339.479	4.75
339.851	5.05
340.222	4.81
340.593	4.86
340.964	4.8
341.336	5.45
341.707	4.68
342.078	4.75
342.449	4.84
342.82	4.61
343.191	4.76
343.562	4.93
343.933	4.82
344.303	4.73
344.674	4.87
345.045	4.23
345.416	5.27
345.786	4.64
346.157	5.12
346.527	4.84
346.898	4.23
347.268	5.38
347.639	4.61
348.009	5.14
348.38	4.46
348.75	4.74
349.12	4.73
349.49	5.02
349.861	5.4
350.231	4.39
350.601	4.9
350.971	5
351.341	4.79
351.711	5.23
352.081	5.2
352.45	4.23
352.82	5.4
353.19	5.07
353.56	5.25
353.929	5.25
354.299	5.35
354.669	4.5
355.038	5.44
355.408	4.89
355.777	4.89
356.147	5.02
356.516	5.26
356.885	5.32
357.254	4.84
357.624	5.56
357.993	5.13
358.362	4.48
358.731	4.6
359.1	5.02
359.469	5.21
359.838	5.35
360.207	4.65
360.576	4.5
360.945	5.28
361.314	5.43
361.682	4.89
362.051	4.98
362.42	5.01
362.788	5.01
363.157	5.18
363.525	5.41
363.894	5.13
364.262	4.98
364.631	5.2
364.999	5.31
365.367	4.67
365.735	5.62
366.104	5.33
366.472	5.26
366.84	4.99
367.208	4.83
367.576	5.37
367.944	5.31
368.312	5.39
368.68	4.87
369.048	5.51
369.416	5.44
369.783	4.92
370.151	5.61
370.519	5.6
370.886	5.77
371.254	4.94
371.621	5.22
371.989	5.47
372.356	4.93
372.724	5.23
373.091	5.3
373.458	5.4
373.826	5.48
374.193	5.26
374.56	5.61
374.927	5.5
375.294	5.34
375.661	4.9
376.028	4.99
376.395	5.18
376.762	4.91
377.129	5.21
377.496	5.28
377.863	5.34
378.229	5.1
378.596	5.25
378.963	5.31
379.329	5.07
379.696	5.47
380.062	5.63
380.429	5.46
380.795	5.21
381.161	5.44
381.528	5.78
381.894	5.46
382.26	5.15
382.626	5.44
382.993	5.06
383.359	5.73
383.725	5.24
384.091	5.56
384.457	6.01
384.823	5.52
385.188	5.73
385.554	5.5
385.92	5.94
386.286	5.66
386.651	5.69
387.017	5.97
387.383	5.53
387.748	5.66
388.114	5.63
388.479	5.38
388.845	5.68
389.21	5.66
389.575	5.55
389.94	5.27
390.306	5.54
390.671	5.7
391.036	5.18
391.401	5.31
391.766	5.53
392.131	5.37
392.496	5.46
392.861	5.31
393.226	6.09
393.591	5.49
393.956	5.47
394.32	5.64
394.685	5.42
395.05	5.73
395.414	5.44
395.779	5.51
396.143	5.56
396.508	5.71
396.872	6
397.236	5.65
397.601	5.58
397.965	5.56
398.329	5.72
398.694	5.69
399.058	5.63
399.422	5.46
399.786	5.53
400.15	5.84
400.514	5.86
400.878	5.84
401.242	6.11
401.605	5.72
401.969	5.92
402.333	5.86
402.697	5.84
403.06	5.71
403.424	5.76
403.787	5.75
404.151	5.73
404.514	5.98
404.878	5.98
405.241	5.93
405.604	5.85
405.968	5.91
406.331	5.83
406.694	5.92
407.057	5.78
407.42	5.99
407.783	5.62
408.146	5.82
408.509	5.69
408.872	5.49
409.235	6.19
409.598	6.21
409.961	5.87
410.323	5.88
410.686	5.39
411.049	5.57
411.411	6.06
411.774	5.95
412.136	5.82
412.499	5.6
412.861	5.88
413.223	5.74
413.586	5.72
413.948	5.7
414.31	6.2
414.672	5.59
415.035	5.83
415.397	6.07
415.759	5.58
416.121	6.08
416.483	5.98
416.845	5.96
417.206	5.61
417.568	5.85
417.93	5.63
418.292	5.84
418.653	5.89
419.015	5.82
419.377	5.98
419.738	5.85
420.1	5.77
420.461	5.98
420.822	5.87
421.184	5.85
421.545	5.92
421.906	5.81
422.267	5.86
422.629	5.94
422.99	5.81
423.351	5.82
423.712	5.92
424.073	5.83
424.434	5.83
424.795	5.76
425.155	5.87
425.516	5.83
425.877	5.88
426.238	5.77
426.598	5.94
426.959	5.92
427.32	5.86
427.68	5.8
428.041	5.84
428.401	6.12
428.761	5.7
429.122	5.98
429.482	5.88
429.842	6.03
430.202	6.17
430.563	6.05
430.923	6
431.283	5.95
431.643	5.82
432.003	5.98
432.363	5.97
432.722	5.97
433.082	6.11
433.442	6.08
433.802	5.98
434.161	6.05
434.521	6.37
434.881	6.19
435.24	5.97
435.6	6.11
435.959	5.9
436.319	6.02
436.678	6.12
437.037	5.95
437.396	6.1
437.756	6.05
438.115	6.16
438.474	6.23
438.833	5.91
439.192	6.05
439.551	6.28
439.91	6.13
440.269	6.17
440.628	6.04
440.987	6.05
441.345	5.94
441.704	6.07
442.063	5.98
442.421	6.05
442.78	6
443.138	6.02
443.497	6.09
443.855	5.97
444.214	6.14
444.572	6.07
444.93	6.05
445.288	6.25
445.647	6.18
446.005	6.08
446.363	6.18
446.721	6.33
447.079	5.99
447.437	5.95
447.795	6.08
448.153	5.89
448.51	5.95
448.868	6.11
449.226	6.09
449.584	6
449.941	6.08
450.299	6.03
450.656	6.11
451.014	6.15
451.371	5.96
451.729	6.11
452.086	6.37
452.443	6.2
452.801	6.13
453.158	5.96
453.515	6
453.872	6.34
454.229	6.1
454.586	6.08
454.943	6.21
455.3	6.1
455.657	5.89
456.014	6.14
456.371	6.09
456.727	6.15
457.084	6.34
457.441	6.17
457.797	6.07
458.154	6.35
458.51	6.29
458.867	6.45
459.223	6.26
459.58	6.13
459.936	6.4
460.292	6.17
460.648	6.16
461.005	6.04
461.361	6.32
461.717	6.15
462.073	6.08
462.429	6.08
462.785	6.01
463.141	6.1
463.496	6.2
463.852	6.24
464.208	6.13
464.564	6.33
464.919	6.12
465.275	6.26
465.631	6.4
465.986	6.09
466.342	6.31
466.697	6.17
467.052	6.36
467.408	6.28
467.763	6.37
468.118	6.26
468.473	6.32
468.829	6.23
469.184	6.08
469.539	6.28
469.894	6.23
470.249	6.37
470.603	6.57
470.958	6.44
471.313	6.5
471.668	6.28
472.023	6.31
472.377	6.19
472.732	6.06
473.086	6.18
473.441	6.17
473.795	6.45
474.15	6.22
474.504	6.32
474.859	6.28
475.213	6.19
475.567	6.19
475.921	6.24
476.275	6.23
476.63	6.3
476.984	6.39
477.338	6.4
477.692	6.02
478.045	6.13
478.399	6.24
478.753	6.34
479.107	6.2
479.461	6.15
479.814	6.36
480.168	6.34
480.521	6.14
480.875	6.31
481.228	6.26
481.582	6.28
481.935	6.24
482.289	6.36
482.642	6.38
482.995	6.25
483.348	6.2
483.701	6.21
484.055	6.18
484.408	6.29
484.761	6.21
485.114	6.11
485.466	6
485.819	5.94
486.172	5.93
486.525	5.91
486.878	5.9
487.23	5.96
487.583	6.04
487.936	6.09
488.288	6.1
488.641	6.18
488.993	5.98
489.345	6.02
489.698	6
490.05	6.02
490.402	6.01
490.754	5.95
491.107	6.08
491.459	6.05
491.811	6.18
492.163	6.21
492.515	6.21
492.866	6.24
493.218	6.27
493.57	6.12
493.922	6.04
494.274	6.07
494.625	6.22
494.977	6.21
495.328	6.31
495.68	6.2
496.031	6.26
496.383	6.27
496.734	6.41
497.086	6.4
497.437	6.45
497.788	6.32
498.139	6.29
498.49	6.42
498.842	6.28
499.193	6.25
499.544	6.3
499.894	6.3
500.245	6.41
500.596	6.3
500.947	6.52
501.298	6.18
501.648	6.49
501.999	6.45
502.35	6.29
502.7	6.24
503.051	6.12
503.401	6.25
503.752	6.48
504.102	6.37
504.452	6.47
504.803	6.38
505.153	6.36
505.503	6.4
505.853	6.45
506.203	6.41
506.553	6.41
506.903	6.39
507.253	6.4
507.603	6.32
507.953	6.43
508.303	6.65
508.652	6.29
509.002	6.58
509.352	6.56
509.701	6.43
510.051	6.36
510.4	6.51
510.75	6.32
511.099	6.26
511.449	6.44
511.798	6.46
512.147	6.43
512.496	6.35
512.846	6.43
513.195	6.41
513.544	6.45
513.893	6.51
514.242	6.33
514.591	6.61
514.939	6.32
515.288	6.26
515.637	6.39
515.986	6.42
516.334	6.36
516.683	6.52
517.032	6.5
517.38	6.64
517.729	6.49
518.077	6.35
518.426	6.48
518.774	6.43
519.122	6.38
519.47	6.44
519.819	6.34
520.167	6.4
520.515	6.47
520.863	6.33
521.211	6.27
521.559	6.39
521.907	6.25
522.255	6.37
522.602	6.44
522.95	6.37
523.298	6.34
523.645	6.52
523.993	6.45
524.341	6.57
524.688	6.57
525.036	6.3
525.383	6.46
525.73	6.64
526.078	6.55
526.425	6.47
526.772	6.49
527.119	6.39
527.466	6.39
527.814	6.39
528.161	6.29
528.508	6.44
528.854	6.33
529.201	6.38
529.548	6.34
529.895	6.39
530.242	6.26
530.588	6.19
530.935	6.22
531.282	6.17
531.628	6.17
531.975	6.22
532.321	6.3
532.667	6.32
533.014	6.43
533.36	6.39
533.706	6.38
534.052	6.41
534.399	6.31
534.745	6.4
535.091	6.41
535.437	6.34
535.783	6.26
536.129	6.36
536.474	6.29
536.82	6.42
537.166	6.46
537.512	6.42
537.857	6.39
538.203	6.47
538.549	6.37
538.894	6.42
539.239	6.39
539.585	6.4
539.93	6.37
540.276	6.62
540.621	6.61
540.966	6.55
541.311	6.45
541.656	6.48
542.001	6.49
542.346	6.58
542.691	6.4
543.036	6.32
543.381	6.25
543.726	6.32
544.071	6.39
544.415	6.32
544.76	6.35
545.105	6.44
545.449	6.34
545.794	6.54
546.138	6.43
546.483	6.59
546.827	6.6
547.171	6.47
547.516	6.63
547.86	6.47
548.204	6.47
548.548	6.49
548.892	6.61
549.236	6.33
549.58	6.38
549.924	6.56
550.268	6.54
550.612	6.64
550.956	6.8
551.3	6.46
551.643	6.54
551.987	6.64
552.33	6.57
552.674	6.54
553.017	6.52
553.361	6.45
553.704	6.79
554.048	6.52
554.391	6.68
554.734	6.55
555.077	6.68
555.42	6.54
555.764	6.46
556.107	6.41
556.45	6.4
556.793	6.43
557.135	6.71
557.478	6.87
557.821	6.56
558.164	6.5
558.507	6.66
558.849	6.58
559.192	6.71
559.534	6.56
559.877	6.72
560.219	6.62
560.562	6.8
560.904	6.64
561.246	6.56
561.589	6.71
561.931	6.67
562.273	6.52
562.615	6.69
562.957	6.61
563.299	6.49
563.641	6.39
563.983	6.57
564.325	6.59
564.667	6.36
565.008	6.63
565.35	6.55
565.692	6.45
566.033	6.42
566.375	6.78
566.716	6.78
567.058	6.51
567.399	6.61
567.741	6.56
568.082	6.57
568.423	6.6
568.764	6.54
569.105	6.7
569.447	6.6
569.788	6.43
570.129	6.77
570.47	6.44
570.811	6.7
571.151	6.62
571.492	6.74
571.833	6.53
572.174	6.8
572.514	6.61
572.855	6.64
573.195	6.63
573.536	6.7
573.876	6.65
574.217	6.57
574.557	6.59
574.898	6.74
575.238	6.67
575.578	6.5
575.918	6.78
576.258	6.75
576.598	6.76
576.938	6.71
577.278	6.64
577.618	6.58
577.958	6.69
578.298	6.63
578.638	6.57
578.977	6.71
579.317	6.47
579.657	6.6
579.996	6.76
580.336	6.59
580.675	6.57
581.014	6.6
581.354	6.77
581.693	6.81
582.032	6.49
582.372	6.41
582.711	6.48
583.05	6.67
583.389	6.71
583.728	6.41
584.067	6.71
584.406	7.06
584.745	6.5
585.083	6.7
585.422	6.88
585.761	6.6
586.1	6.71
586.438	6.76
586.777	7
587.115	6.71
587.454	6.46
587.792	6.56
588.13	6.94
588.469	6.63
588.807	6.87
589.145	6.54
589.483	6.67
589.821	6.67
590.159	6.56
590.497	6.72
590.835	7.16
591.173	6.64
591.511	7.09
591.849	6.79
592.187	6.69
592.524	6.58
592.862	6.69
593.2	6.78
593.537	6.62
593.875	6.38
594.212	6.61
594.55	6.63
594.887	6.85
595.224	6.83
595.561	6.94
595.899	6.94
596.236	6.52
596.573	6.9
596.91	6.21
597.247	6.57
597.584	7
597.921	6.9
598.258	6.48
598.594	6.66
598.931	6.62
599.268	6.71
599.604	6.49
599.941	6.78
600.277	6.66
600.614	6.66
600.95	6.29
601.287	6.92
601.623	6.81
601.959	6.56
602.296	6.91
602.632	6.42
602.968	6.81
603.304	6.95
603.64	6.6
603.976	6.78
604.312	6.64
604.648	6.75
604.984	6.71
605.319	6.74
605.655	6.62
605.991	6.62
606.326	6.54
606.662	6.81
606.998	6.55
607.333	6.64
607.668	6.62
608.004	6.51
608.339	6.88
608.674	6.94
609.01	6.5
609.345	6.44
609.68	6.68
610.015	6.68
610.35	6.49
610.685	6.42
611.02	6.56
611.355	6.91
611.689	6.77
612.024	6.6
612.359	6.4
612.694	6.52
613.028	6.57
613.363	6.68
613.697	6.83
614.032	6.82
614.366	6.57
614.7	7.03
615.035	6.71
615.369	6.66
615.703	6.75
616.037	6.74
616.371	6.6
616.705	6.71
617.039	6.64
617.373	6.55
617.707	6.42
618.041	6.27
618.375	6.85
618.709	6.9
619.042	6.46
619.376	6.82
619.71	6.83
620.043	6.54
620.377	6.6
620.71	6.83
621.043	6.49
621.377	6.29
621.71	6.78
622.043	6.74
622.376	6.52
622.709	6.5
623.043	6.62
623.376	6.58
623.709	6.68
624.041	6.68
624.374	6.55
624.707	6.33
625.04	6.63
625.373	6.42
625.705	6.76
626.038	7.03
626.37	6.76
626.703	6.25
627.035	6.67
627.368	7.01
627.7	6.58
628.032	6.51
628.365	6.98
628.697	6.71
629.029	6.45
629.361	6.49
629.693	6.43
630.025	6.59
630.357	6.75
630.689	6.84
631.021	6.69
631.353	6.64
631.684	6.7
632.016	6.28
632.348	6.9
632.679	6.85
633.011	6.81
633.342	7.32
633.674	6.55
634.005	6.99
634.336	6.79
634.668	7.11
634.999	6.55
635.33	6.83
635.661	6.89
635.992	6.61
636.323	6.96
636.654	6.63
636.985	6.55
637.316	6.22
637.647	6.67
637.977	6.91
638.308	7.02
638.639	6.21
638.969	6.52
639.3	6.37
639.63	6.36
639.961	6.75
640.291	6.88
640.622	6.7
640.952	6.59
641.282	7.23
641.612	6.47
641.943	6.53
642.273	6.99
642.603	6.91
642.933	6.94
643.263	6.59
643.592	6.56
643.922	6.43
644.252	6.35
644.582	6.61
644.911	6.06
645.241	6.47
645.571	6.46
645.9	6.52
646.23	6.64
646.559	6.67
646.888	6.35
647.218	6.17
647.547	6.76
647.876	6.48
648.205	6.67
648.534	6.4
648.863	6.26
649.192	7.01
649.521	6.14
649.85	6.38
650.179	6.8
650.508	6.31
650.837	6.16
651.165	7
651.494	6.52
651.822	6.8
652.151	6.64
652.479	6.26
652.808	6.37
653.136	7.31
653.465	5.59
653.793	6.25
654.121	6.19
654.449	6.73
654.777	6.53
655.105	6.7
655.433	6.37
655.761	6.43
656.089	6.54
656.417	7.01
656.745	6.76
657.073	6.45
657.4	6.81
657.728	6.81
658.056	5.86
658.383	7.28
658.711	6.83
659.038	6.52
659.365	7.05
659.693	6.88
660.02	6.5
660.347	6.38
660.674	6.57
661.001	7.28
661.329	6.02
661.656	6.78
661.982	6.81
662.309	6.86
662.636	6.82
662.963	6.82
663.29	6.94
663.616	6.82
663.943	6.3
664.27	6.48
664.596	6.96
664.923	7.23
665.249	6.9
665.576	6.2
665.902	7.15
666.228	6.86
666.554	6.35
666.881	6.73
667.207	6.9
667.533	6.68
667.859	6.81
668.185	7.08
668.511	6.5
668.837	5.57
669.162	6.64
669.488	5.99
669.814	7.18
670.139	7.16
670.465	6.78
670.791	6.69
671.116	7.51
671.442	6.64
671.767	7.08
672.092	6.86
672.418	6.42
672.743	7.61
673.068	5.88
673.393	6.41
673.718	7.03
674.043	6.49
674.368	5.83
674.693	7.23
675.018	6.88
675.343	7.2
675.667	6.79
675.992	6.95
676.317	7.21
676.641	6.37
676.966	7.12
677.29	7.43
677.615	7.18
677.939	6.71
678.264	7.79
678.588	7.06
678.912	6.6
679.236	7.97
679.56	6.07
679.885	7.33
680.209	6.83
680.532	6.54
680.856	7.38
681.18	6.96
681.504	6.7
681.828	7.48
682.152	6.24
682.475	7.17
682.799	6.83
683.122	6.94
683.446	6.6
683.769	7.62
684.093	6.22
684.416	7.14
684.739	7.5
685.062	7.13
685.386	7.14
685.709	6.33
686.032	6.25
686.355	6.89
686.678	6.61
687.001	7.06
687.324	7.07
687.646	6.27
687.969	6.36
688.292	6.38
688.614	6.94
688.937	8.22
689.26	6.63
689.582	6.49
689.904	6.65
690.227	7.2
690.549	7.02
690.871	6.75
691.194	6.91
691.516	6.69
691.838	6.9
692.16	6.54
692.482	6.96
