Data from 0202_chest_Reflection__0__324.txt Node

Date: Fri Dec 15 19:38:53 CST 2023
User: ToomeyLab
Spectrometer: FLMS14357
Trigger mode: 0
Integration Time (sec): 1.000000E-2
Scans to average: 100
Electric dark correction enabled: true
Nonlinearity correction enabled: false
Boxcar width: 0
XAxis mode: Wavelengths
Number of Pixels in Spectrum: 2048
>>>>>Begin Spectral Data<<<<<
189.047	12.82
189.435	12.82
189.823	12.82
190.211	-162.5
190.599	107.03
190.987	58.85
191.375	346.71
191.763	-1776.56
192.151	55.92
192.538	116.68
192.926	224.05
193.314	150.08
193.702	0.68
194.089	95.94
194.477	45.97
194.864	468.06
195.252	255.6
195.639	219.97
196.027	98.93
196.414	157.16
196.801	26.72
197.189	130.22
197.576	223.86
197.963	215.86
198.351	-32.19
198.738	-25.69
199.125	109.97
199.512	-30.73
199.899	23
200.286	95.4
200.673	-27.48
201.06	14.2
201.447	100.64
201.833	-4.32
202.22	56.81
202.607	25.22
202.994	16.55
203.38	40.08
203.767	57.05
204.154	4.9
204.54	29.26
204.927	-113.72
205.313	-8.97
205.699	50.54
206.086	56.75
206.472	48.7
206.858	49.9
207.245	-92.61
207.631	37.39
208.017	28.84
208.403	-10.32
208.789	32.86
209.175	4.1
209.561	29.36
209.947	33.24
210.333	-93.46
210.719	1.53
211.105	14.96
211.491	10.22
211.876	66.82
212.262	10.9
212.648	0.03
213.034	50.91
213.419	-7.23
213.805	28.69
214.19	-2.95
214.576	-6.3
214.961	23.65
215.346	-112.69
215.732	3.31
216.117	-12.8
216.502	9.96
216.888	17.88
217.273	19.72
217.658	18.54
218.043	-2.91
218.428	-50.04
218.813	-53.2
219.198	-101.09
219.583	7.39
219.968	1.21
220.353	-12.73
220.738	22.51
221.122	6.39
221.507	-32.12
221.892	-44.23
222.276	-18.13
222.661	-5.71
223.046	19.92
223.43	19.93
223.815	10.02
224.199	-13.6
224.583	4.87
224.968	7.36
225.352	8.65
225.736	2.15
226.121	-12.38
226.505	2.67
226.889	11.78
227.273	-10.21
227.657	9.23
228.041	-0.89
228.425	-2.27
228.809	1.36
229.193	6.25
229.577	1.62
229.961	4.84
230.344	4.4
230.728	4.04
231.112	4.54
231.495	3.63
231.879	4.98
232.263	5.29
232.646	3.5
233.03	3.58
233.413	5.35
233.797	5.83
234.18	3.21
234.563	4.1
234.946	4.55
235.33	8.49
235.713	3.22
236.096	4.9
236.479	3.98
236.862	3.71
237.245	5.78
237.628	4.13
238.011	6.78
238.394	5.43
238.777	4.02
239.16	1.97
239.543	4.15
239.925	7.81
240.308	4.51
240.691	6.29
241.073	6.69
241.456	6.48
241.838	4.39
242.221	4.11
242.603	5.26
242.986	5.21
243.368	5.56
243.75	4.73
244.133	4.79
244.515	5.16
244.897	4.82
245.279	5.02
245.661	4.72
246.043	4.64
246.425	4.24
246.807	6.45
247.189	5.63
247.571	4.84
247.953	5.17
248.335	5.1
248.717	4.84
249.098	4.66
249.48	5.16
249.862	4.72
250.243	4.99
250.625	4.73
251.006	5.05
251.388	4.27
251.769	5.54
252.151	5.21
252.532	4.61
252.913	3.76
253.295	4.05
253.676	4.46
254.057	5.12
254.438	4.73
254.819	4.11
255.2	4.91
255.581	4.87
255.962	4.52
256.343	5.48
256.724	4.37
257.105	4.97
257.486	3.81
257.867	5.27
258.247	5.13
258.628	3.65
259.009	5.09
259.389	4.87
259.77	4.04
260.15	4.09
260.531	4.17
260.911	4.56
261.292	4.35
261.672	4.78
262.052	4.67
262.432	4.89
262.813	4.67
263.193	5.02
263.573	4.03
263.953	4.01
264.333	4.89
264.713	5.21
265.093	4.48
265.473	5.03
265.853	3.37
266.233	4.71
266.612	3.28
266.992	3.08
267.372	4.04
267.752	4.95
268.131	4.51
268.511	4.63
268.89	5.29
269.27	4
269.649	3.56
270.029	3.56
270.408	5.47
270.787	4.48
271.167	5.17
271.546	5.24
271.925	3.37
272.304	4.38
272.683	4.98
273.062	4.13
273.441	4.32
273.82	3.85
274.199	4.06
274.578	4.25
274.957	3.94
275.336	4.23
275.715	4.18
276.093	4.02
276.472	3.98
276.851	3.68
277.229	3.94
277.608	3.43
277.986	4.74
278.365	4.5
278.743	4.4
279.122	4.11
279.5	4.27
279.878	4.17
280.257	4.83
280.635	4.59
281.013	4.27
281.391	4.25
281.769	4.49
282.147	4.05
282.525	4.77
282.903	4.13
283.281	4.7
283.659	4.01
284.037	4.33
284.415	4.49
284.792	4.85
285.17	3.55
285.548	4.71
285.925	4.19
286.303	4.33
286.68	4.19
287.058	4.02
287.435	4.52
287.813	4.19
288.19	3.77
288.567	4.3
288.945	4.52
289.322	4.1
289.699	4.31
290.076	4.42
290.453	3.72
290.83	3.98
291.207	3.76
291.584	4.54
291.961	4.63
292.338	4.71
292.715	4.56
293.092	4.51
293.469	4.48
293.845	4.78
294.222	3.86
294.599	4.35
294.975	4.06
295.352	4.53
295.728	4.02
296.105	4.24
296.481	4.98
296.858	4.74
297.234	5.11
297.61	4.78
297.986	4.67
298.363	4.99
298.739	4.96
299.115	4.69
299.491	4.54
299.867	4.66
300.243	5.09
300.619	4.08
300.995	4.37
301.371	5.04
301.746	4.97
302.122	5.28
302.498	5.09
302.874	4.79
303.249	4.95
303.625	4.79
304	5.15
304.376	5.22
304.751	4.56
305.127	5.27
305.502	4.14
305.878	4.37
306.253	4.95
306.628	4.88
307.003	4.48
307.378	4.92
307.754	5.38
308.129	4.79
308.504	4.86
308.879	3.95
309.254	6.23
309.629	5.18
310.003	5.08
310.378	5.93
310.753	5.18
311.128	5.39
311.502	4.99
311.877	5.42
312.252	4.67
312.626	5.13
313.001	5.2
313.375	5.24
313.75	5.32
314.124	5.21
314.498	4.84
314.873	4.85
315.247	4.62
315.621	5.49
315.995	4.4
316.369	5.12
316.743	4.81
317.117	5.36
317.491	4.68
317.865	5.29
318.239	4.85
318.613	5.08
318.987	5.43
319.361	5.02
319.734	5.79
320.108	5.48
320.482	5.55
320.855	5.58
321.229	6.07
321.602	4.95
321.976	5.34
322.349	5.54
322.723	5.15
323.096	5.71
323.469	4.71
323.843	5.81
324.216	6.11
324.589	4.91
324.962	5.7
325.335	5.44
325.708	5.38
326.081	5.35
326.454	5.87
326.827	5.14
327.2	5.39
327.573	6.05
327.945	5.65
328.318	5.27
328.691	5.41
329.063	5.21
329.436	4.96
329.809	5.81
330.181	4.83
330.553	5.15
330.926	5.81
331.298	5.56
331.671	5.61
332.043	6.37
332.415	5.48
332.787	5.44
333.159	6
333.532	6
333.904	5.28
334.276	4.98
334.648	5.31
335.02	5.21
335.391	5.29
335.763	5.36
336.135	5.09
336.507	6.8
336.879	5.32
337.25	5.47
337.622	5.55
337.993	5.54
338.365	5.55
338.736	5.27
339.108	5.82
339.479	5.37
339.851	5.23
340.222	5.46
340.593	5.91
340.964	5.75
341.336	6.22
341.707	4.77
342.078	6.32
342.449	5.69
342.82	5.66
343.191	6.07
343.562	5.51
343.933	5.7
344.303	5.44
344.674	5.33
345.045	5.63
345.416	5.64
345.786	5.26
346.157	6.02
346.527	5.55
346.898	5.15
347.268	5.72
347.639	5.63
348.009	5.37
348.38	5.31
348.75	5.78
349.12	5.76
349.49	6.25
349.861	5.88
350.231	5.66
350.601	5.82
350.971	5.78
351.341	5.89
351.711	5.6
352.081	5.7
352.45	5.6
352.82	5.97
353.19	5.59
353.56	5.36
353.929	5.67
354.299	5.7
354.669	5.38
355.038	5.84
355.408	5.6
355.777	5.54
356.147	6.08
356.516	6.04
356.885	6.07
357.254	5.83
357.624	6.2
357.993	6.13
358.362	5.55
358.731	5.28
359.1	5.84
359.469	5.97
359.838	5.94
360.207	5.69
360.576	5.09
360.945	6.03
361.314	6.29
361.682	5.65
362.051	5.67
362.42	6.09
362.788	5.75
363.157	5.83
363.525	5.96
363.894	5.99
364.262	6.11
364.631	5.67
364.999	6.2
365.367	5.69
365.735	6.76
366.104	6.18
366.472	5.99
366.84	6.04
367.208	5.97
367.576	6.07
367.944	6.27
368.312	5.6
368.68	5.85
369.048	6.22
369.416	6.12
369.783	5.69
370.151	6.63
370.519	6.4
370.886	5.79
371.254	5.63
371.621	6.14
371.989	6.16
372.356	5.8
372.724	6.53
373.091	5.82
373.458	6.03
373.826	6.38
374.193	6.01
374.56	6.07
374.927	6.08
375.294	6.29
375.661	6
376.028	5.78
376.395	5.86
376.762	6.14
377.129	6.17
377.496	5.76
377.863	5.98
378.229	5.78
378.596	6.15
378.963	6.06
379.329	6.14
379.696	6.2
380.062	5.82
380.429	5.97
380.795	5.71
381.161	6.24
381.528	6.23
381.894	5.97
382.26	5.89
382.626	6.12
382.993	5.84
383.359	6.28
383.725	6.02
384.091	6.06
384.457	6.5
384.823	6.34
385.188	6.41
385.554	6.38
385.92	6.1
386.286	6.51
386.651	6.44
387.017	6.5
387.383	6.25
387.748	6.16
388.114	6.62
388.479	6.18
388.845	6.59
389.21	6.61
389.575	6.26
389.94	6.5
390.306	6.51
390.671	6.39
391.036	6.17
391.401	5.85
391.766	6.49
392.131	6.25
392.496	6.19
392.861	6.39
393.226	6.68
393.591	6.51
393.956	6.24
394.32	6.36
394.685	6.15
395.05	6.04
395.414	6.56
395.779	6.2
396.143	6.42
396.508	6.39
396.872	6.47
397.236	6.56
397.601	6.33
397.965	6.4
398.329	6.2
398.694	6.54
399.058	6.49
399.422	5.97
399.786	6.39
400.15	6.19
400.514	6.36
400.878	6.57
401.242	6.61
401.605	6.71
401.969	6.42
402.333	6.61
402.697	6.39
403.06	6.57
403.424	6.55
403.787	6.4
404.151	6.38
404.514	6.55
404.878	6.45
405.241	6.45
405.604	6.48
405.968	6.63
406.331	6.36
406.694	6.81
407.057	6.46
407.42	6.78
407.783	6.56
408.146	6.55
408.509	6.4
408.872	6.49
409.235	6.43
409.598	6.75
409.961	6.56
410.323	6.92
410.686	6.87
411.049	6.19
411.411	6.56
411.774	6.58
412.136	6.61
412.499	6.69
412.861	6.63
413.223	6.38
413.586	6.49
413.948	6.53
414.31	6.83
414.672	6.84
415.035	6.57
415.397	6.83
415.759	6.44
416.121	6.87
416.483	6.66
416.845	6.77
417.206	6.79
417.568	6.8
417.93	6.46
418.292	6.57
418.653	6.66
419.015	6.68
419.377	6.54
419.738	6.59
420.1	6.7
420.461	6.71
420.822	6.58
421.184	6.52
421.545	6.67
421.906	6.56
422.267	6.52
422.629	6.56
422.99	6.59
423.351	6.56
423.712	6.61
424.073	6.58
424.434	6.64
424.795	6.48
425.155	6.75
425.516	6.59
425.877	6.65
426.238	6.57
426.598	6.63
426.959	6.67
427.32	6.62
427.68	6.59
428.041	6.58
428.401	6.88
428.761	6.72
429.122	6.74
429.482	6.56
429.842	6.91
430.202	6.92
430.563	6.98
430.923	6.58
431.283	6.86
431.643	6.95
432.003	6.94
432.363	6.93
432.722	6.77
433.082	6.77
433.442	6.74
433.802	6.6
434.161	6.85
434.521	6.91
434.881	6.94
435.24	6.63
435.6	6.86
435.959	6.83
436.319	6.69
436.678	6.75
437.037	6.89
437.396	7.1
437.756	6.9
438.115	6.82
438.474	7.07
438.833	6.75
439.192	6.61
439.551	7.16
439.91	7.03
440.269	6.96
440.628	6.79
440.987	6.89
441.345	6.87
441.704	6.94
442.063	6.92
442.421	6.9
442.78	6.9
443.138	6.76
443.497	6.97
443.855	6.89
444.214	6.83
444.572	7.13
444.93	7.01
445.288	7.17
445.647	7.24
446.005	6.89
446.363	7.08
446.721	7.2
447.079	6.86
447.437	6.92
447.795	7.06
448.153	6.86
448.51	6.82
448.868	6.91
449.226	6.96
449.584	6.92
449.941	7.1
450.299	7.07
450.656	7.05
451.014	7.07
451.371	6.98
451.729	6.93
452.086	7.19
452.443	7.13
452.801	7.13
453.158	7.23
453.515	7.01
453.872	7.19
454.229	7.05
454.586	7.08
454.943	7.2
455.3	7.17
455.657	7.07
456.014	6.95
456.371	7.18
456.727	7.17
457.084	7.27
457.441	7.1
457.797	7.22
458.154	7.36
458.51	7.16
458.867	7.55
459.223	7.23
459.58	7.3
459.936	7.36
460.292	7.2
460.648	7.22
461.005	7.21
461.361	7.35
461.717	7.18
462.073	7.07
462.429	7.22
462.785	7.3
463.141	7.36
463.496	7.32
463.852	7.44
464.208	7.32
464.564	7.24
464.919	7.44
465.275	7.38
465.631	7.46
465.986	7.53
466.342	7.28
466.697	7.39
467.052	7.24
467.408	7.41
467.763	7.44
468.118	7.36
468.473	7.25
468.829	7.43
469.184	7.37
469.539	7.28
469.894	7.24
470.249	7.56
470.603	7.59
470.958	7.55
471.313	7.41
471.668	7.57
472.023	7.64
472.377	7.44
472.732	7.61
473.086	7.38
473.441	7.48
473.795	7.61
474.15	7.59
474.504	7.27
474.859	7.65
475.213	7.47
475.567	7.53
475.921	7.34
476.275	7.53
476.63	7.63
476.984	7.73
477.338	7.88
477.692	7.42
478.045	7.54
478.399	7.69
478.753	7.72
479.107	7.69
479.461	7.57
479.814	7.83
480.168	7.7
480.521	7.75
480.875	7.52
481.228	7.68
481.582	7.69
481.935	7.43
482.289	7.75
482.642	7.74
482.995	7.53
483.348	7.53
483.701	7.62
484.055	7.64
484.408	7.66
484.761	7.53
485.114	7.45
485.466	7.25
485.819	7.25
486.172	7.27
486.525	7.31
486.878	7.4
487.23	7.42
487.583	7.51
487.936	7.51
488.288	7.51
488.641	7.63
488.993	7.48
489.345	7.51
489.698	7.5
490.05	7.39
490.402	7.51
490.754	7.56
491.107	7.62
491.459	7.67
491.811	7.77
492.163	7.78
492.515	7.82
492.866	7.69
493.218	7.62
493.57	7.61
493.922	7.6
494.274	7.77
494.625	7.76
494.977	7.77
495.328	7.91
495.68	8.01
496.031	8.15
496.383	7.85
496.734	8.11
497.086	8.2
497.437	8.01
497.788	7.99
498.139	7.95
498.49	7.87
498.842	7.87
499.193	7.86
499.544	8.17
499.894	8.14
500.245	8.07
500.596	8.02
500.947	7.96
501.298	8.09
501.648	8.15
501.999	8.22
502.35	8.21
502.7	8.18
503.051	8.16
503.401	8.06
503.752	8.23
504.102	8.28
504.452	8.25
504.803	8.29
505.153	8.28
505.503	8.17
505.853	8.17
506.203	8.25
506.553	8.14
506.903	8.2
507.253	8.24
507.603	8.18
507.953	8.5
508.303	8.43
508.652	8.2
509.002	8.33
509.352	8.36
509.701	8.29
510.051	8.33
510.4	8.26
510.75	8.27
511.099	8.44
511.449	8.29
511.798	8.42
512.147	8.23
512.496	8.33
512.846	8.56
513.195	8.38
513.544	8.42
513.893	8.55
514.242	8.47
514.591	8.56
514.939	8.48
515.288	8.36
515.637	8.66
515.986	8.6
516.334	8.54
516.683	8.56
517.032	8.54
517.38	8.65
517.729	8.64
518.077	8.67
518.426	8.61
518.774	8.7
519.122	8.57
519.47	8.66
519.819	8.56
520.167	8.58
520.515	8.6
520.863	8.65
521.211	8.78
521.559	8.65
521.907	8.78
522.255	8.78
522.602	8.84
522.95	8.77
523.298	8.87
523.645	8.78
523.993	8.82
524.341	8.82
524.688	8.99
525.036	8.78
525.383	8.92
525.73	9.01
526.078	8.92
526.425	8.95
526.772	9.02
527.119	8.96
527.466	8.95
527.814	8.89
528.161	8.9
528.508	8.98
528.854	8.96
529.201	8.85
529.548	8.93
529.895	8.93
530.242	8.78
530.588	8.77
530.935	8.78
531.282	8.84
531.628	8.84
531.975	8.96
532.321	9.04
532.667	9.01
533.014	9.21
533.36	9.34
533.706	9.09
534.052	9.26
534.399	9.1
534.745	9.18
535.091	9.12
535.437	9.18
535.783	9.16
536.129	9.32
536.474	9.27
536.82	9.31
537.166	9.45
537.512	9.54
537.857	9.56
538.203	9.46
538.549	9.4
538.894	9.44
539.239	9.51
539.585	9.53
539.93	9.42
540.276	9.63
540.621	9.79
540.966	9.8
541.311	9.62
541.656	9.68
542.001	9.65
542.346	9.87
542.691	9.63
543.036	9.52
543.381	9.48
543.726	9.54
544.071	9.59
544.415	9.68
544.76	9.76
545.105	9.81
545.449	9.86
545.794	9.84
546.138	9.89
546.483	9.98
546.827	10.05
547.171	10
547.516	10.1
547.86	10.05
548.204	10.03
548.548	10.11
548.892	10.18
549.236	10.08
549.58	10.28
549.924	10.31
550.268	10.29
550.612	10.31
550.956	10.44
551.3	10.26
551.643	10.43
551.987	10.63
552.33	10.42
552.674	10.48
553.017	10.45
553.361	10.55
553.704	10.75
554.048	10.46
554.391	10.67
554.734	10.6
555.077	10.58
555.42	10.42
555.764	10.7
556.107	10.59
556.45	10.66
556.793	10.95
557.135	10.82
557.478	11.15
557.821	10.91
558.164	10.87
558.507	11.19
558.849	11
559.192	11.06
559.534	11.13
559.877	11.03
560.219	11
560.562	11.32
560.904	11.04
561.246	11.13
561.589	11.23
561.931	11.07
562.273	11.01
562.615	11.45
562.957	11.35
563.299	11.28
563.641	11.24
563.983	11.4
564.325	11.32
564.667	11.4
565.008	11.17
565.35	11.43
565.692	11.28
566.033	11.47
566.375	11.57
566.716	11.79
567.058	11.69
567.399	11.44
567.741	11.46
568.082	11.56
568.423	11.73
568.764	11.48
569.105	11.75
569.447	11.64
569.788	11.75
570.129	12.01
570.47	11.71
570.811	11.98
571.151	11.95
571.492	12.13
571.833	12.01
572.174	11.85
572.514	12.14
572.855	12.09
573.195	11.88
573.536	12.14
573.876	12.02
574.217	12.09
574.557	12.26
574.898	12.33
575.238	12.34
575.578	12.07
575.918	12.62
576.258	12.3
576.598	12.33
576.938	12.4
577.278	12.43
577.618	12.41
577.958	12.33
578.298	12.53
578.638	12.55
578.977	12.48
579.317	12.37
579.657	12.52
579.996	12.49
580.336	12.83
580.675	12.48
581.014	12.91
581.354	12.93
581.693	12.93
582.032	12.74
582.372	12.85
582.711	12.79
583.05	12.88
583.389	12.86
583.728	12.81
584.067	12.82
584.406	13.19
584.745	13.04
585.083	13.35
585.422	12.96
585.761	13.19
586.1	13.29
586.438	13.47
586.777	13.64
587.115	13.81
587.454	13.28
587.792	13.56
588.13	13.95
588.469	13.47
588.807	13.23
589.145	13.37
589.483	13.78
589.821	13.61
590.159	13.72
590.497	14.01
590.835	14.16
591.173	13.76
591.511	14.05
591.849	13.82
592.187	13.92
592.524	13.97
592.862	13.93
593.2	13.96
593.537	14.23
593.875	13.96
594.212	14.13
594.55	14.2
594.887	14.13
595.224	14.17
595.561	14.31
595.899	14.25
596.236	14.16
596.573	14.24
596.91	14.05
597.247	14.11
597.584	14.62
597.921	14.57
598.258	14.21
598.594	14.42
598.931	14.6
599.268	14.64
599.604	14.5
599.941	14.55
600.277	14.45
600.614	14.51
600.95	14.61
601.287	14.97
601.623	14.71
601.959	14.56
602.296	15.12
602.632	14.98
602.968	15.03
603.304	15.1
603.64	14.66
603.976	15.31
604.312	15.03
604.648	15.41
604.984	15.29
605.319	15.39
605.655	15.16
605.991	15.33
606.326	15.54
606.662	15.39
606.998	15.07
607.333	15.59
607.668	15.31
608.004	15.52
608.339	15.85
608.674	15.45
609.01	15.63
609.345	15.24
609.68	15.92
610.015	15.61
610.35	15.88
610.685	15.84
611.02	15.87
611.355	15.85
611.689	15.86
612.024	15.85
612.359	15.84
612.694	15.91
613.028	15.87
613.363	16.11
613.697	16.48
614.032	16.33
614.366	15.99
614.7	16.17
615.035	16.47
615.369	16.38
615.703	16.62
616.037	16.74
616.371	16.4
616.705	16.25
617.039	16.72
617.373	16.51
617.707	16.53
618.041	16.39
618.375	16.77
618.709	16.62
619.042	16.56
619.376	16.93
619.71	16.71
620.043	17.03
620.377	17.12
620.71	16.84
621.043	17.04
621.377	16.75
621.71	17.32
622.043	17.01
622.376	16.72
622.709	16.98
623.043	17.44
623.376	17.29
623.709	17.51
624.041	17.59
624.374	17.02
624.707	17.33
625.04	17.29
625.373	17.17
625.705	17.53
626.038	17.32
626.37	17.76
626.703	17.77
627.035	17.62
627.368	18.01
627.7	17.68
628.032	17.62
628.365	18.11
628.697	18.16
629.029	17.56
629.361	17.67
629.693	17.81
630.025	17.81
630.357	18.37
630.689	18.18
631.021	18.14
631.353	18.08
631.684	18.13
632.016	17.95
632.348	18.46
632.679	18.5
633.011	18.34
633.342	18.21
633.674	18.24
634.005	18.66
634.336	18.24
634.668	18.57
634.999	18.42
635.33	18.54
635.661	19.07
635.992	18.45
636.323	18.79
636.654	18.86
636.985	18.94
637.316	18.71
637.647	18.52
637.977	19.02
638.308	18.84
638.639	18.42
638.969	18.46
639.3	18.76
639.63	18.85
639.961	19.02
640.291	19
640.622	19.74
640.952	19.06
641.282	19.4
641.612	19.52
641.943	19.45
642.273	19.49
642.603	19.19
642.933	19.2
643.263	19.46
643.592	19.72
643.922	19.26
644.252	19.66
644.582	19.65
644.911	19.09
645.241	19.88
645.571	19.87
645.9	19.85
646.23	19.91
646.559	20.35
646.888	19.51
647.218	19.74
647.547	20.89
647.876	19.76
648.205	19.85
648.534	19.85
648.863	20.14
649.192	20.12
649.521	20.02
649.85	19.83
650.179	20.16
650.508	20.09
650.837	19.83
651.165	20.4
651.494	20.2
651.822	20.69
652.151	20.51
652.479	21.05
652.808	20.36
653.136	20.43
653.465	20.12
653.793	20.29
654.121	20.82
654.449	20.8
654.777	20.99
655.105	21.39
655.433	20.28
655.761	20.79
656.089	20.92
656.417	21.37
656.745	21.29
657.073	20.93
657.4	21.38
657.728	20.99
658.056	20.81
658.383	20.75
658.711	21.05
659.038	20.92
659.365	22.06
659.693	21.35
660.02	21.1
660.347	21.31
660.674	21.87
661.001	21.89
661.329	20.94
661.656	21.93
661.982	21.81
662.309	21.46
662.636	20.91
662.963	21.65
663.29	21.94
663.616	21.84
663.943	21.35
664.27	22.13
664.596	22.23
664.923	21.75
665.249	21.38
665.576	21.4
665.902	22.63
666.228	22.2
666.554	22.22
666.881	21.95
667.207	22.2
667.533	21.79
667.859	22.81
668.185	22.51
668.511	21.7
668.837	21.55
669.162	22.32
669.488	22.11
669.814	22.82
670.139	23.06
670.465	22.64
670.791	22.86
671.116	23.1
671.442	22.45
671.767	22.49
672.092	22.46
672.418	23.22
672.743	23.12
673.068	22.74
673.393	22.87
673.718	23.65
674.043	22.99
674.368	23.54
674.693	23.93
675.018	22.91
675.343	22.54
675.667	22.55
675.992	23.34
676.317	23.57
676.641	22.9
676.966	23.74
677.29	23.4
677.615	23.77
677.939	23.97
678.264	23.73
678.588	23.78
678.912	23.95
679.236	23.41
679.56	22.67
679.885	24.13
680.209	23.46
680.532	23.38
680.856	24.91
681.18	23.94
681.504	24.13
681.828	24.44
682.152	23.89
