Data from 0202_chest_Reflection__3__327.txt Node

Date: Fri Dec 15 19:39:21 CST 2023
User: ToomeyLab
Spectrometer: FLMS14357
Trigger mode: 0
Integration Time (sec): 1.000000E-2
Scans to average: 100
Electric dark correction enabled: true
Nonlinearity correction enabled: false
Boxcar width: 0
XAxis mode: Wavelengths
Number of Pixels in Spectrum: 2048
>>>>>Begin Spectral Data<<<<<
189.047	-96.67
189.435	-96.67
189.823	-96.67
190.211	191.13
190.599	120.25
190.987	22.12
191.375	-483.06
191.763	-641.02
192.151	18.75
192.538	129.22
192.926	327.2
193.314	107.28
193.702	-218.52
194.089	5.46
194.477	-604.64
194.864	808.68
195.252	223.07
195.639	373.59
196.027	140.49
196.414	74.97
196.801	79.86
197.189	187.62
197.576	-1142.9
197.963	430.58
198.351	-35.86
198.738	-66.82
199.125	39.33
199.512	-100.96
199.899	52.86
200.286	33.57
200.673	-72.11
201.06	3.36
201.447	-25.35
201.833	-9.06
202.22	73.64
202.607	-1.82
202.994	0.32
203.38	9.25
203.767	-11.07
204.154	9.96
204.54	37.38
204.927	-172.94
205.313	-118.39
205.699	17.92
206.086	25.96
206.472	18.05
206.858	-12.4
207.245	-23.27
207.631	-1.69
208.017	21.74
208.403	-13.51
208.789	14.87
209.175	12.92
209.561	-14.74
209.947	10.83
210.333	-156.31
210.719	-1.08
211.105	6.88
211.491	-3.94
211.876	6.87
212.262	-1.72
212.648	-9.66
213.034	10.37
213.419	-35.8
213.805	-20.53
214.19	-46.4
214.576	10.61
214.961	-41.22
215.346	-145.73
215.732	-16.57
216.117	-26.23
216.502	-40.56
216.888	-11.95
217.273	26.29
217.658	-17.8
218.043	17.71
218.428	-59.91
218.813	-109.24
219.198	-17.15
219.583	-26.06
219.968	15.23
220.353	-30.55
220.738	13.65
221.122	-5.54
221.507	-47.39
221.892	-101.14
222.276	-28.93
222.661	-33.55
223.046	15.08
223.43	15.75
223.815	-2.86
224.199	-19.76
224.583	-9.1
224.968	-1.06
225.352	6.99
225.736	4.07
226.121	-16.49
226.505	-1.22
226.889	3.84
227.273	-7.47
227.657	7.58
228.041	0.07
228.425	-0.79
228.809	0.75
229.193	2.65
229.577	1.07
229.961	3.93
230.344	2.36
230.728	2.97
231.112	3.6
231.495	2.28
231.879	2.62
232.263	2.06
232.646	4.31
233.03	1.11
233.413	2.89
233.797	2.88
234.18	1.27
234.563	1.25
234.946	3.57
235.33	5.65
235.713	2.84
236.096	3.3
236.479	6.28
236.862	1.75
237.245	5.36
237.628	1.42
238.011	4.06
238.394	5.81
238.777	0.54
239.16	1.99
239.543	3.86
239.925	3.11
240.308	2.35
240.691	3.88
241.073	4.89
241.456	3.25
241.838	3.12
242.221	1.74
242.603	3.05
242.986	2.25
243.368	3.47
243.75	3.58
244.133	3.84
244.515	4.22
244.897	4.21
245.279	3.54
245.661	3.82
246.043	2.85
246.425	2.96
246.807	4.3
247.189	3.54
247.571	3.83
247.953	3.7
248.335	3.33
248.717	3.78
249.098	3.16
249.48	3.6
249.862	3.54
250.243	3.49
250.625	3.25
251.006	3.41
251.388	1.93
251.769	2.15
252.151	3
252.532	2.67
252.913	2.59
253.295	1.82
253.676	2.87
254.057	3.56
254.438	3.49
254.819	2.77
255.2	2.16
255.581	3.9
255.962	2.36
256.343	3.23
256.724	2.46
257.105	1.95
257.486	3.95
257.867	3.92
258.247	3.23
258.628	2.48
259.009	2.86
259.389	3.05
259.77	2.19
260.15	2.5
260.531	2.37
260.911	3.53
261.292	3.23
261.672	3.42
262.052	3.37
262.432	3.48
262.813	3.36
263.193	3.19
263.573	2.64
263.953	2.71
264.333	3.54
264.713	3.51
265.093	2.5
265.473	2.93
265.853	2.27
266.233	2.59
266.612	0.95
266.992	1.58
267.372	3.29
267.752	2.38
268.131	2.87
268.511	3.38
268.89	3.3
269.27	3.1
269.649	2.47
270.029	2.29
270.408	3.86
270.787	3.52
271.167	3.13
271.546	3.35
271.925	2.53
272.304	2.51
272.683	3.49
273.062	2.47
273.441	3.37
273.82	2.96
274.199	3.18
274.578	3.23
274.957	3.11
275.336	3.1
275.715	2.64
276.093	2.42
276.472	3.44
276.851	2.96
277.229	3.17
277.608	1.98
277.986	2.97
278.365	2.9
278.743	2.26
279.122	2.53
279.5	3.33
279.878	3.22
280.257	2.66
280.635	2.42
281.013	3.09
281.391	3.36
281.769	3.34
282.147	3.28
282.525	3.61
282.903	2.89
283.281	3.8
283.659	3.61
284.037	3.42
284.415	3.05
284.792	3.08
285.17	2.92
285.548	2.55
285.925	2.71
286.303	3.2
286.68	2.72
287.058	3.22
287.435	2.77
287.813	2.98
288.19	2.97
288.567	2.89
288.945	3.52
289.322	2.62
289.699	2.56
290.076	3
290.453	3.39
290.83	3
291.207	2.58
291.584	3.08
291.961	3.45
292.338	3.22
292.715	3.42
293.092	2.97
293.469	2.58
293.845	3.19
294.222	2.2
294.599	3.05
294.975	2.82
295.352	2.69
295.728	3.18
296.105	2.98
296.481	3.46
296.858	3.14
297.234	2.78
297.61	3.17
297.986	2.8
298.363	3.53
298.739	3.58
299.115	2.94
299.491	3.38
299.867	3.28
300.243	3.59
300.619	3.18
300.995	3.06
301.371	3.39
301.746	2.87
302.122	3.85
302.498	3.77
302.874	2.88
303.249	3.61
303.625	3.3
304	3.75
304.376	3.27
304.751	2.57
305.127	3.45
305.502	2.82
305.878	2.81
306.253	3.3
306.628	3.81
307.003	3.72
307.378	3.32
307.754	2.96
308.129	2.15
308.504	3.32
308.879	3.23
309.254	4.24
309.629	4.38
310.003	3.43
310.378	3.66
310.753	3.54
311.128	3.78
311.502	3.47
311.877	3.7
312.252	3.05
312.626	3.17
313.001	3.44
313.375	4.22
313.75	3.43
314.124	3.69
314.498	3.5
314.873	3.28
315.247	2.87
315.621	3.75
315.995	2.96
316.369	4.13
316.743	3.31
317.117	3.39
317.491	3.41
317.865	3.24
318.239	3.37
318.613	3.36
318.987	4.2
319.361	3.18
319.734	3.73
320.108	3.99
320.482	3.93
320.855	3.71
321.229	3.3
321.602	2.69
321.976	3.93
322.349	2.9
322.723	3.08
323.096	3.91
323.469	2.87
323.843	3.48
324.216	3.89
324.589	3.55
324.962	2.87
325.335	3.7
325.708	3.57
326.081	3.41
326.454	3.52
326.827	3.41
327.2	3.59
327.573	3.85
327.945	3.74
328.318	3.02
328.691	3.18
329.063	3.68
329.436	3.32
329.809	3.72
330.181	3.21
330.553	3.36
330.926	2.99
331.298	3.28
331.671	2.75
332.043	3.8
332.415	3.77
332.787	3.63
333.159	4.32
333.532	3.83
333.904	3.25
334.276	3.47
334.648	3.98
335.02	3.36
335.391	3.14
335.763	3.15
336.135	3.54
336.507	4.13
336.879	3.12
337.25	3.32
337.622	3.72
337.993	3.76
338.365	3.63
338.736	3.64
339.108	3.71
339.479	3.32
339.851	3.65
340.222	3.59
340.593	3.68
340.964	3.18
341.336	4.41
341.707	3.11
342.078	4.22
342.449	3.55
342.82	3.52
343.191	3.29
343.562	3.68
343.933	3.76
344.303	3.47
344.674	3.24
345.045	3.75
345.416	3.99
345.786	3.33
346.157	3.85
346.527	3.34
346.898	3.35
347.268	3.75
347.639	3.66
348.009	3.56
348.38	3.31
348.75	3.93
349.12	3.66
349.49	4.18
349.861	3.96
350.231	3.63
350.601	3.13
350.971	4.06
351.341	3.96
351.711	3.72
352.081	3.92
352.45	3.36
352.82	3.92
353.19	3.22
353.56	3.12
353.929	3.73
354.299	3.54
354.669	3.8
355.038	3.63
355.408	3.64
355.777	4.07
356.147	3.9
356.516	4.02
356.885	3.89
357.254	4.07
357.624	4.28
357.993	3.97
358.362	3.81
358.731	3.65
359.1	3.71
359.469	3.97
359.838	3.87
360.207	3.46
360.576	3.55
360.945	3.8
361.314	3.67
361.682	3.69
362.051	3.56
362.42	3.89
362.788	3.69
363.157	4.04
363.525	4.1
363.894	3.94
364.262	3.76
364.631	3.7
364.999	3.8
365.367	3.39
365.735	4.6
366.104	4.15
366.472	3.91
366.84	3.53
367.208	3.66
367.576	3.89
367.944	4.16
368.312	3.76
368.68	3.55
369.048	3.92
369.416	3.87
369.783	3.8
370.151	4.04
370.519	4.33
370.886	4.07
371.254	3.73
371.621	4.03
371.989	4.38
372.356	3.74
372.724	4.03
373.091	3.79
373.458	3.77
373.826	4.04
374.193	3.66
374.56	4.02
374.927	3.87
375.294	4.26
375.661	3.52
376.028	3.66
376.395	4.03
376.762	4.33
377.129	4.25
377.496	3.72
377.863	3.77
378.229	3.53
378.596	4
378.963	4.04
379.329	4.09
379.696	4.09
380.062	4.1
380.429	3.93
380.795	4.25
381.161	4.16
381.528	4.35
381.894	4.34
382.26	4.26
382.626	4.28
382.993	3.78
383.359	4.44
383.725	4.12
384.091	3.75
384.457	4.05
384.823	3.48
385.188	3.91
385.554	3.82
385.92	4.2
386.286	4.06
386.651	4.09
387.017	4.49
387.383	4.02
387.748	3.98
388.114	4.18
388.479	4.06
388.845	4.13
389.21	4.14
389.575	4.01
389.94	4.23
390.306	4.12
390.671	4.2
391.036	3.65
391.401	3.75
391.766	4.29
392.131	3.75
392.496	4.29
392.861	3.99
393.226	4.48
393.591	4.22
393.956	4.16
394.32	4.1
394.685	3.99
395.05	3.76
395.414	4.32
395.779	4.12
396.143	4.15
396.508	4.23
396.872	4.23
397.236	4.43
397.601	3.93
397.965	4.02
398.329	4.22
398.694	4.33
399.058	4.44
399.422	4.04
399.786	4.48
400.15	4.19
400.514	4.08
400.878	4.61
401.242	4.44
401.605	4.38
401.969	4.41
402.333	4.4
402.697	4.41
403.06	4.41
403.424	4.34
403.787	4.12
404.151	4.52
404.514	3.85
404.878	4.02
405.241	4.33
405.604	4.35
405.968	4.47
406.331	4.4
406.694	4.55
407.057	4.3
407.42	4.44
407.783	4.26
408.146	4.59
408.509	4.42
408.872	4.28
409.235	4.28
409.598	4.38
409.961	4.15
410.323	4.71
410.686	4.06
411.049	3.95
411.411	4.29
411.774	4.12
412.136	4.33
412.499	4.29
412.861	4.24
413.223	4.29
413.586	4.38
413.948	4.25
414.31	4.4
414.672	4.38
415.035	4.34
415.397	4.4
415.759	4.22
416.121	4.51
416.483	4.4
416.845	4.36
417.206	4.42
417.568	4.33
417.93	4.19
418.292	4.31
418.653	4.44
419.015	4.46
419.377	4.43
419.738	4.43
420.1	4.37
420.461	4.52
420.822	4.42
421.184	4.39
421.545	4.38
421.906	4.28
422.267	4.33
422.629	4.46
422.99	4.41
423.351	4.35
423.712	4.41
424.073	4.29
424.434	4.41
424.795	4.33
425.155	4.33
425.516	4.18
425.877	4.4
426.238	4.35
426.598	4.55
426.959	4.38
427.32	4.28
427.68	4.44
428.041	4.38
428.401	4.58
428.761	4.43
429.122	4.59
429.482	4.12
429.842	4.45
430.202	4.24
430.563	4.66
430.923	4.45
431.283	4.59
431.643	4.4
432.003	4.55
432.363	4.61
432.722	4.55
433.082	4.59
433.442	4.33
433.802	4.33
434.161	4.36
434.521	4.77
434.881	4.64
435.24	4.39
435.6	4.51
435.959	4.45
436.319	4.6
436.678	4.59
437.037	4.45
437.396	4.5
437.756	4.64
438.115	4.59
438.474	4.84
438.833	4.43
439.192	4.52
439.551	4.69
439.91	4.53
440.269	4.49
440.628	4.64
440.987	4.7
441.345	4.45
441.704	4.65
442.063	4.46
442.421	4.49
442.78	4.52
443.138	4.51
443.497	4.56
443.855	4.41
444.214	4.56
444.572	4.62
444.93	4.65
445.288	4.65
445.647	4.59
446.005	4.46
446.363	4.68
446.721	4.68
447.079	4.48
447.437	4.56
447.795	4.59
448.153	4.49
448.51	4.54
448.868	4.59
449.226	4.61
449.584	4.58
449.941	4.6
450.299	4.67
450.656	4.65
451.014	4.61
451.371	4.56
451.729	4.59
452.086	4.84
452.443	4.61
452.801	4.71
453.158	4.56
453.515	4.68
453.872	4.59
454.229	4.59
454.586	4.51
454.943	4.71
455.3	4.76
455.657	4.53
456.014	4.72
456.371	4.77
456.727	4.68
457.084	4.82
457.441	4.69
457.797	4.59
458.154	4.99
458.51	4.85
458.867	4.73
459.223	4.72
459.58	4.86
459.936	4.76
460.292	4.9
460.648	4.63
461.005	4.73
461.361	4.87
461.717	4.7
462.073	4.57
462.429	4.65
462.785	4.74
463.141	4.73
463.496	4.82
463.852	4.96
464.208	4.76
464.564	4.94
464.919	4.99
465.275	4.81
465.631	4.96
465.986	4.83
466.342	4.79
466.697	4.74
467.052	4.84
467.408	4.85
467.763	4.76
468.118	4.92
468.473	4.94
468.829	4.79
469.184	4.7
469.539	4.9
469.894	4.65
470.249	4.94
470.603	5.02
470.958	4.89
471.313	5.01
471.668	4.83
472.023	5.08
472.377	4.81
472.732	4.81
473.086	4.84
473.441	4.71
473.795	5.01
474.15	5.06
474.504	4.88
474.859	4.92
475.213	4.87
475.567	4.74
475.921	4.94
476.275	4.8
476.63	4.85
476.984	5.07
477.338	5.06
477.692	4.81
478.045	4.91
478.399	4.98
478.753	5.15
479.107	4.96
479.461	5.01
479.814	4.98
480.168	4.89
480.521	5
480.875	4.87
481.228	4.92
481.582	4.93
481.935	5
482.289	5.07
482.642	4.98
482.995	4.94
483.348	4.9
483.701	4.81
484.055	5.13
484.408	5
484.761	4.86
485.114	4.83
485.466	4.75
485.819	4.71
486.172	4.68
486.525	4.7
486.878	4.77
487.23	4.77
487.583	4.87
487.936	4.9
488.288	4.83
488.641	4.92
488.993	4.83
489.345	4.82
489.698	4.76
490.05	4.76
490.402	4.84
490.754	4.88
491.107	4.98
491.459	5.01
491.811	5.04
492.163	4.97
492.515	5.01
492.866	5.06
493.218	5.02
493.57	4.92
493.922	4.87
494.274	5.04
494.625	4.99
494.977	5.12
495.328	5.1
495.68	5.15
496.031	5.31
496.383	5.25
496.734	5.31
497.086	5.26
497.437	5.11
497.788	5.17
498.139	5.14
498.49	5.33
498.842	5.05
499.193	5.23
499.544	5.13
499.894	5.16
500.245	5.23
500.596	5.24
500.947	5.36
501.298	4.99
501.648	5.31
501.999	5.42
502.35	5.31
502.7	5.14
503.051	5.02
503.401	5.34
503.752	5.52
504.102	5.2
504.452	5.35
504.803	5.41
505.153	5.29
505.503	5.35
505.853	5.3
506.203	5.25
506.553	5.22
506.903	5.22
507.253	5.28
507.603	5.22
507.953	5.65
508.303	5.51
508.652	5.31
509.002	5.56
509.352	5.42
509.701	5.3
510.051	5.28
510.4	5.41
510.75	5.41
511.099	5.48
511.449	5.52
511.798	5.24
512.147	5.47
512.496	5.33
512.846	5.45
513.195	5.4
513.544	5.37
513.893	5.47
514.242	5.45
514.591	5.66
514.939	5.56
515.288	5.45
515.637	5.65
515.986	5.55
516.334	5.54
516.683	5.76
517.032	5.59
517.38	5.62
517.729	5.48
518.077	5.48
518.426	5.57
518.774	5.64
519.122	5.6
519.47	5.55
519.819	5.38
520.167	5.53
520.515	5.6
520.863	5.58
521.211	5.51
521.559	5.64
521.907	5.54
522.255	5.5
522.602	5.68
522.95	5.57
523.298	5.69
523.645	5.67
523.993	5.69
524.341	5.9
524.688	5.86
525.036	5.59
525.383	5.75
525.73	5.9
526.078	5.7
526.425	5.73
526.772	5.88
527.119	5.72
527.466	5.69
527.814	5.76
528.161	5.73
528.508	5.75
528.854	5.74
529.201	5.63
529.548	5.68
529.895	5.75
530.242	5.61
530.588	5.57
530.935	5.65
531.282	5.67
531.628	5.64
531.975	5.73
532.321	5.77
532.667	5.83
533.014	5.89
533.36	5.93
533.706	5.85
534.052	5.93
534.399	5.88
534.745	5.87
535.091	5.85
535.437	5.79
535.783	5.81
536.129	5.98
536.474	5.93
536.82	6
537.166	6.08
537.512	6.12
537.857	6.06
538.203	6.16
538.549	6.03
538.894	6.06
539.239	6.02
539.585	6.15
539.93	6.07
540.276	6.18
540.621	6.29
540.966	6.21
541.311	6.23
541.656	6.17
542.001	6.21
542.346	6.26
542.691	6.15
543.036	6.17
543.381	6
543.726	6.11
544.071	6.12
544.415	6.2
544.76	6.17
545.105	6.22
545.449	6.3
545.794	6.33
546.138	6.38
546.483	6.45
546.827	6.45
547.171	6.43
547.516	6.53
547.86	6.49
548.204	6.38
548.548	6.47
548.892	6.4
549.236	6.44
549.58	6.4
549.924	6.42
550.268	6.66
550.612	6.63
550.956	6.86
551.3	6.68
551.643	6.7
551.987	6.7
552.33	6.75
552.674	6.86
553.017	6.8
553.361	6.69
553.704	6.99
554.048	6.73
554.391	6.77
554.734	6.76
555.077	6.77
555.42	6.68
555.764	6.8
556.107	6.73
556.45	6.77
556.793	7.01
557.135	6.88
557.478	7.25
557.821	6.89
558.164	7.02
558.507	6.9
558.849	6.9
559.192	7.3
559.534	7.04
559.877	7.33
560.219	7.17
560.562	7.35
560.904	6.99
561.246	7.27
561.589	7.18
561.931	7.2
562.273	7.1
562.615	7.3
562.957	7.35
563.299	7.23
563.641	7.14
563.983	7.34
564.325	7.13
564.667	7.34
565.008	7.15
565.35	7.19
565.692	7.12
566.033	7.39
566.375	7.51
566.716	7.61
567.058	7.55
567.399	7.42
567.741	7.22
568.082	7.33
568.423	7.51
568.764	7.48
569.105	7.69
569.447	7.56
569.788	7.47
570.129	7.54
570.47	7.72
570.811	7.89
571.151	7.55
571.492	7.7
571.833	7.85
572.174	7.69
572.514	7.79
572.855	7.94
573.195	7.9
573.536	7.98
573.876	7.91
574.217	7.79
574.557	7.92
574.898	7.93
575.238	8.14
575.578	7.87
575.918	8.17
576.258	8.05
576.598	8.14
576.938	7.93
577.278	8.21
577.618	7.99
577.958	7.91
578.298	8.24
578.638	7.93
578.977	8.03
579.317	8.22
579.657	8.34
579.996	8.31
580.336	8.55
580.675	8.02
581.014	8.25
581.354	8.4
581.693	8.25
582.032	8.29
582.372	8.4
582.711	8.64
583.05	8.48
583.389	8.36
583.728	8.66
584.067	8.53
584.406	8.66
584.745	8.71
585.083	8.52
585.422	8.55
585.761	8.75
586.1	8.47
586.438	8.65
586.777	8.98
587.115	8.72
587.454	8.51
587.792	8.91
588.13	8.87
588.469	8.93
588.807	9.07
589.145	8.65
589.483	9.05
589.821	9.04
590.159	8.97
590.497	9.5
590.835	9.28
591.173	8.86
591.511	9.34
591.849	9.12
592.187	9.32
592.524	9.21
592.862	9.27
593.2	9.33
593.537	9.28
593.875	9.17
594.212	9.18
594.55	9.27
594.887	9.55
595.224	9.16
595.561	9.16
595.899	9.59
596.236	9.62
596.573	9.65
596.91	9.33
597.247	9.37
597.584	9.84
597.921	9.76
598.258	9.55
598.594	9.57
598.931	9.71
599.268	9.7
599.604	9.77
599.941	9.86
600.277	9.58
600.614	9.53
600.95	9.59
601.287	9.83
601.623	9.8
601.959	9.64
602.296	10.08
602.632	9.99
602.968	10.4
603.304	10.18
603.64	10.16
603.976	10.19
604.312	10.17
604.648	9.98
604.984	10.22
605.319	10.39
605.655	10.17
605.991	10.41
606.326	10.13
606.662	10.17
606.998	10.02
607.333	10.28
607.668	10.32
608.004	10.22
608.339	10.59
608.674	10.27
609.01	10.26
609.345	10.34
609.68	10.45
610.015	10.57
610.35	10.27
610.685	10.72
611.02	10.65
611.355	10.62
611.689	10.78
612.024	10.59
612.359	10.82
612.694	10.75
613.028	10.55
613.363	10.7
613.697	11.04
614.032	11.14
614.366	10.79
614.7	11.19
615.035	10.97
615.369	10.97
615.703	11.02
616.037	11.22
616.371	10.83
616.705	11.23
617.039	10.93
617.373	11
617.707	11.37
618.041	11.23
618.375	11.19
618.709	11.2
619.042	11.26
619.376	11.26
619.71	11.74
620.043	11.29
620.377	11.19
620.71	11.27
621.043	11.38
621.377	11.13
621.71	11.42
622.043	11.61
622.376	11.37
622.709	11.75
623.043	11.86
623.376	11.55
623.709	11.53
624.041	12.04
624.374	12.14
624.707	11.68
625.04	11.92
625.373	11.55
625.705	12.16
626.038	11.98
626.37	12.18
626.703	11.83
627.035	12.2
627.368	12.16
627.7	11.91
628.032	12
628.365	12.16
628.697	12.38
629.029	12.04
629.361	12.28
629.693	12.26
630.025	12.05
630.357	12.64
630.689	12.38
631.021	12.27
631.353	12.69
631.684	12.15
632.016	12.44
632.348	12.71
632.679	12.37
633.011	12.49
633.342	12.67
633.674	12.48
634.005	12.95
634.336	12.87
634.668	13.19
634.999	12.52
635.33	12.91
635.661	13.13
635.992	12.58
636.323	12.88
636.654	12.66
636.985	12.85
637.316	12.63
637.647	12.62
637.977	13.1
638.308	13.18
638.639	12.67
638.969	13.11
639.3	12.91
639.63	12.54
639.961	12.83
640.291	13.03
640.622	13.36
640.952	13.05
641.282	14.06
641.612	13.13
641.943	13.4
642.273	13.54
642.603	13.68
642.933	13.39
643.263	13.89
643.592	13.07
643.922	13.54
644.252	13.78
644.582	13.48
644.911	13.12
645.241	13.51
645.571	13.29
645.9	13.58
646.23	13.72
646.559	14.03
646.888	13.16
647.218	13.65
647.547	13.96
647.876	13.74
648.205	13.5
648.534	13.86
648.863	13.63
649.192	14.35
649.521	13.83
649.85	13.64
650.179	13.92
650.508	13.91
650.837	13.98
651.165	13.62
651.494	14.5
651.822	14.26
652.151	13.65
652.479	14.1
652.808	14.03
653.136	14.41
653.465	14.16
653.793	14.11
654.121	14.22
654.449	15.07
654.777	15.06
655.105	14.6
655.433	14.1
655.761	14.68
656.089	14.5
656.417	15.3
656.745	14.42
657.073	14.16
657.4	14.93
657.728	14.93
658.056	14.63
658.383	14.82
658.711	15.23
659.038	14.88
659.365	15.45
659.693	14.85
660.02	15.06
660.347	15.09
660.674	15.45
661.001	15.19
661.329	14.3
661.656	15.25
661.982	15.18
662.309	15.08
662.636	14.85
662.963	15.5
663.29	15.05
663.616	15.7
663.943	15.15
664.27	15.31
664.596	15.74
664.923	14.91
665.249	15.34
665.576	15.09
665.902	16.33
666.228	15.7
666.554	15.37
666.881	14.72
667.207	15.51
667.533	16.21
667.859	16.33
668.185	16.05
668.511	15.24
668.837	14.52
669.162	15.88
669.488	15.08
669.814	16.34
670.139	16.07
670.465	16.31
670.791	16.28
671.116	16.83
671.442	15.49
671.767	15.75
672.092	16.44
672.418	15.83
672.743	16.44
673.068	15.89
673.393	16.19
673.718	16.52
674.043	15.64
674.368	15.65
674.693	17.24
675.018	16.85
675.343	15.97
675.667	16.55
675.992	16.55
676.317	16.95
676.641	17.13
676.966	17.18
677.29	16.65
677.615	17.2
677.939	18.21
678.264	17.27
678.588	16.4
678.912	17.04
679.236	17.17
679.56	15.95
679.885	17.02
680.209	17.44
680.532	16.65
680.856	17.15
681.18	16.89
681.504	16.65
681.828	17.78
682.152	16.7
682.475	16.84
682.799	17.03
683.122	16.82
683.446	16.99
683.769	17.06
684.093	16.77
684.416	17.31
684.739	17.54
685.062	17.26
685.386	18.31
685.709	16.33
