Data from 0202_forehead_Reflection__3__338.txt Node

Date: Fri Dec 15 19:42:33 CST 2023
User: ToomeyLab
Spectrometer: FLMS14357
Trigger mode: 0
Integration Time (sec): 1.000000E-2
Scans to average: 100
Electric dark correction enabled: true
Nonlinearity correction enabled: false
Boxcar width: 0
XAxis mode: Wavelengths
Number of Pixels in Spectrum: 2048
>>>>>Begin Spectral Data<<<<<
189.047	39.53
189.435	39.53
189.823	39.53
190.211	-225.51
190.599	67.84
190.987	102.29
191.375	-94.41
191.763	925.78
192.151	78.53
192.538	80.02
192.926	25.6
193.314	89.64
193.702	-89.08
194.089	-71
194.477	22.18
194.864	1304.86
195.252	277.2
195.639	127.2
196.027	143.19
196.414	110.31
196.801	87.79
197.189	177.93
197.576	-1232.39
197.963	154.97
198.351	-83.53
198.738	-52.9
199.125	49.09
199.512	45.8
199.899	6.98
200.286	12.66
200.673	15.1
201.06	-12.83
201.447	8.65
201.833	-19.29
202.22	40.47
202.607	33.84
202.994	-24.15
203.38	11.29
203.767	6.42
204.154	16.21
204.54	49.93
204.927	-39.89
205.313	-47.25
205.699	31.48
206.086	25.43
206.472	33.7
206.858	25.56
207.245	-9.96
207.631	29.54
208.017	33.9
208.403	-5.67
208.789	7.5
209.175	41.38
209.561	2.95
209.947	-10.73
210.333	-31.21
210.719	33.64
211.105	38.62
211.491	-5.99
211.876	15.19
212.262	19.22
212.648	13.7
213.034	5.39
213.419	8.39
213.805	-2.25
214.19	-58.36
214.576	5.23
214.961	-40.13
215.346	-177.55
215.732	5.15
216.117	16.03
216.502	-8.31
216.888	-0.43
217.273	13.35
217.658	2.14
218.043	3.28
218.428	-40.02
218.813	-16.9
219.198	-64.78
219.583	-1.17
219.968	13.52
220.353	2.53
220.738	34.17
221.122	22.26
221.507	-25.9
221.892	-17.43
222.276	-7.09
222.661	-4.01
223.046	15.41
223.43	16.48
223.815	11.24
224.199	-5.53
224.583	4.94
224.968	-14.46
225.352	17.7
225.736	-0.45
226.121	9.15
226.505	2.18
226.889	5.01
227.273	5.85
227.657	11.1
228.041	1.35
228.425	-1.89
228.809	1.93
229.193	1.82
229.577	3.48
229.961	4.2
230.344	2.24
230.728	3.37
231.112	4.85
231.495	3.08
231.879	2.43
232.263	6.31
232.646	5.23
233.03	3.6
233.413	3.01
233.797	3.8
234.18	2.5
234.563	6.32
234.946	3.02
235.33	3.26
235.713	2.85
236.096	4.52
236.479	3.81
236.862	1.9
237.245	4.37
237.628	2.83
238.011	5.7
238.394	6.53
238.777	4.92
239.16	2.05
239.543	4.39
239.925	3.58
240.308	5.64
240.691	4.8
241.073	4.59
241.456	3.76
241.838	4.04
242.221	2.39
242.603	4.74
242.986	4.94
243.368	4.15
243.75	4.1
244.133	3.94
244.515	4.31
244.897	4.18
245.279	4.2
245.661	3.72
246.043	3.06
246.425	2.79
246.807	4.55
247.189	4.5
247.571	4.32
247.953	4.28
248.335	3.77
248.717	3.86
249.098	3.94
249.48	4.16
249.862	4.09
250.243	4.14
250.625	3.71
251.006	4.26
251.388	2.78
251.769	3.43
252.151	4.47
252.532	3.62
252.913	2.85
253.295	4.82
253.676	4.24
254.057	3.64
254.438	4.17
254.819	3.99
255.2	4.42
255.581	3.56
255.962	3.94
256.343	4.76
256.724	4.44
257.105	4.27
257.486	3.27
257.867	5.12
258.247	3.87
258.628	3.87
259.009	2.94
259.389	5.09
259.77	4.61
260.15	3.35
260.531	4.06
260.911	4.69
261.292	4.05
261.672	4.02
262.052	4
262.432	4.18
262.813	4.08
263.193	3.91
263.573	3.38
263.953	3.77
264.333	4.32
264.713	4.19
265.093	3.48
265.473	3.72
265.853	2.54
266.233	4.96
266.612	3.02
266.992	2.85
267.372	3.75
267.752	4.07
268.131	3.74
268.511	3.92
268.89	4.08
269.27	3.6
269.649	3.37
270.029	4.52
270.408	4.99
270.787	4.68
271.167	4.57
271.546	4.06
271.925	3.66
272.304	3.52
272.683	4.07
273.062	3.22
273.441	4.12
273.82	3.44
274.199	4.48
274.578	3.71
274.957	4.15
275.336	4.13
275.715	3.66
276.093	4.01
276.472	3.87
276.851	3.46
277.229	3.24
277.608	3.76
277.986	3.68
278.365	4.18
278.743	4.35
279.122	3.5
279.5	4.21
279.878	4.19
280.257	4.11
280.635	3.26
281.013	3.62
281.391	4.52
281.769	4.28
282.147	4.5
282.525	5.11
282.903	3.58
283.281	4.38
283.659	4.43
284.037	3.93
284.415	4.3
284.792	4.28
285.17	3.48
285.548	3.42
285.925	4.06
286.303	4.06
286.68	3.81
287.058	3.78
287.435	4
287.813	4.18
288.19	4.02
288.567	4.14
288.945	4.17
289.322	4.42
289.699	4.59
290.076	4.54
290.453	3.73
290.83	3.63
291.207	4.12
291.584	4.32
291.961	4.54
292.338	4.29
292.715	4.7
293.092	4.6
293.469	4.65
293.845	4.88
294.222	4.18
294.599	4.63
294.975	3.96
295.352	5.11
295.728	4.03
296.105	4.51
296.481	4.84
296.858	5.06
297.234	4.75
297.61	4.51
297.986	4.29
298.363	4.88
298.739	5.39
299.115	4.7
299.491	4.71
299.867	4.87
300.243	4.93
300.619	4.83
300.995	4.82
301.371	4.96
301.746	4.84
302.122	5.64
302.498	4.66
302.874	4.89
303.249	5.54
303.625	5.44
304	5.08
304.376	4.7
304.751	5.23
305.127	5.99
305.502	4.9
305.878	4.53
306.253	5.22
306.628	6.17
307.003	5.47
307.378	5.86
307.754	5.84
308.129	4.57
308.504	5.11
308.879	5.91
309.254	6.87
309.629	5.73
310.003	5.94
310.378	6.17
310.753	5.76
311.128	6.19
311.502	5.78
311.877	6.39
312.252	5.47
312.626	6.05
313.001	5.73
313.375	6.27
313.75	6.23
314.124	6.91
314.498	6.51
314.873	5.41
315.247	6.44
315.621	6.02
315.995	5.7
316.369	6.39
316.743	6.44
317.117	6.45
317.491	6.51
317.865	6.17
318.239	7.01
318.613	6.03
318.987	6.57
319.361	6.79
319.734	7.51
320.108	6.95
320.482	6.37
320.855	6.96
321.229	6.22
321.602	6.63
321.976	7.19
322.349	6.84
322.723	7.06
323.096	7.52
323.469	6.07
323.843	7.06
324.216	7.34
324.589	7.2
324.962	7.27
325.335	6.96
325.708	6.86
326.081	7.23
326.454	7.83
326.827	6.64
327.2	7.5
327.573	7.43
327.945	7.55
328.318	7.22
328.691	7.47
329.063	7.08
329.436	6.77
329.809	8.43
330.181	7.91
330.553	7.25
330.926	7.81
331.298	7.36
331.671	7.68
332.043	8.44
332.415	7.56
332.787	7.6
333.159	8.46
333.532	7.79
333.904	7.51
334.276	7.55
334.648	8.25
335.02	8.23
335.391	8.25
335.763	8.12
336.135	8.04
336.507	8.68
336.879	8.05
337.25	7.71
337.622	8.05
337.993	8.05
338.365	8.18
338.736	9.04
339.108	8.02
339.479	8.02
339.851	8.21
340.222	8.38
340.593	8.02
340.964	8.34
341.336	9.1
341.707	8.05
342.078	8.91
342.449	8.54
342.82	8.46
343.191	8.72
343.562	8.91
343.933	8.26
344.303	8.34
344.674	8.69
345.045	8.56
345.416	8.77
345.786	8.92
346.157	8.61
346.527	8.62
346.898	8.71
347.268	8.77
347.639	9.27
348.009	9.38
348.38	8.64
348.75	8.99
349.12	9.11
349.49	9.27
349.861	8.99
350.231	9.36
350.601	9.34
350.971	9.11
351.341	8.68
351.711	9.36
352.081	9.09
352.45	9.53
352.82	9.74
353.19	9.43
353.56	9.41
353.929	9.21
354.299	9.23
354.669	8.93
355.038	9.95
355.408	9.76
355.777	9.62
356.147	9.17
356.516	9.66
356.885	9.56
357.254	9.24
357.624	9.65
357.993	9.69
358.362	9.68
358.731	9.33
359.1	9.72
359.469	9.87
359.838	9.94
360.207	9.55
360.576	9.82
360.945	10.3
361.314	9.91
361.682	9.84
362.051	9.78
362.42	10.21
362.788	9.7
363.157	10.29
363.525	10.25
363.894	10.24
364.262	10.1
364.631	10.12
364.999	10.13
365.367	10.16
365.735	10.85
366.104	10.32
366.472	10.53
366.84	10.56
367.208	10.41
367.576	10.58
367.944	10.43
368.312	10.04
368.68	10.21
369.048	10.3
369.416	10.38
369.783	10.05
370.151	10.63
370.519	11.18
370.886	10.78
371.254	10.84
371.621	10.94
371.989	11.27
372.356	10.46
372.724	11.24
373.091	10.36
373.458	11.06
373.826	10.85
374.193	11.13
374.56	11.26
374.927	11.17
375.294	11.06
375.661	10.89
376.028	11.04
376.395	11.24
376.762	11.32
377.129	11.41
377.496	11.08
377.863	11.52
378.229	11.38
378.596	11.4
378.963	11.29
379.329	11.21
379.696	11.48
380.062	11.52
380.429	11.22
380.795	11.05
381.161	11.67
381.528	12.04
381.894	11.68
382.26	11.37
382.626	12.01
382.993	11.66
383.359	12.01
383.725	11.71
384.091	11.81
384.457	12.18
384.823	12.16
385.188	12.14
385.554	12.01
385.92	12.15
386.286	12.27
386.651	12.49
387.017	12.52
387.383	12.18
387.748	12.08
388.114	12.09
388.479	12.25
388.845	12.25
389.21	12.14
389.575	12.2
389.94	12.28
390.306	12.42
390.671	12.43
391.036	12.22
391.401	12.14
391.766	12.47
392.131	12.53
392.496	12.88
392.861	12.61
393.226	12.7
393.591	12.55
393.956	12.18
394.32	12.72
394.685	12.62
395.05	12.59
395.414	12.62
395.779	12.42
396.143	12.82
396.508	12.78
396.872	13.01
397.236	12.89
397.601	13
397.965	13.1
398.329	13.06
398.694	12.8
399.058	12.96
399.422	13.08
399.786	12.95
400.15	13.07
400.514	13.12
400.878	13.38
401.242	13.52
401.605	13.37
401.969	13.35
402.333	13.03
402.697	13.17
403.06	13.3
403.424	13.56
403.787	13.43
404.151	13.68
404.514	13.53
404.878	13.6
405.241	13.79
405.604	13.48
405.968	13.67
406.331	13.54
406.694	13.72
407.057	13.8
407.42	13.89
407.783	13.74
408.146	13.86
408.509	13.91
408.872	13.53
409.235	14.01
409.598	13.99
409.961	14.03
410.323	14.06
410.686	14.09
411.049	13.97
411.411	13.97
411.774	13.84
412.136	14.14
412.499	14.17
412.861	14.21
413.223	14.22
413.586	14.44
413.948	14.3
414.31	14.39
414.672	14.27
415.035	14.1
415.397	14.84
415.759	14.1
416.121	14.76
416.483	14.44
416.845	14.67
417.206	14.35
417.568	14.69
417.93	14.45
418.292	14.57
418.653	14.48
419.015	14.38
419.377	14.68
419.738	14.63
420.1	14.56
420.461	14.67
420.822	14.61
421.184	14.6
421.545	14.61
421.906	14.71
422.267	14.64
422.629	14.7
422.99	14.71
423.351	14.62
423.712	14.85
424.073	14.78
424.434	14.8
424.795	14.87
425.155	14.95
425.516	14.81
425.877	14.93
426.238	14.93
426.598	15.15
426.959	15.13
427.32	15.03
427.68	15.25
428.041	15.24
428.401	15.31
428.761	15.42
429.122	15.59
429.482	15.17
429.842	15.75
430.202	15.47
430.563	15.71
430.923	15.65
431.283	15.72
431.643	15.6
432.003	15.63
432.363	15.94
432.722	15.94
433.082	15.82
433.442	15.87
433.802	15.7
434.161	15.81
434.521	16.24
434.881	16.04
435.24	16.04
435.6	15.88
435.959	15.76
436.319	15.99
436.678	16.07
437.037	16.29
437.396	16.12
437.756	16.23
438.115	16.24
438.474	16.61
438.833	15.98
439.192	16.29
439.551	16.37
439.91	16.5
440.269	16.53
440.628	16.29
440.987	16.47
441.345	16.22
441.704	16.58
442.063	16.26
442.421	16.5
442.78	16.34
443.138	16.54
443.497	16.57
443.855	16.34
444.214	16.77
444.572	16.72
444.93	16.61
445.288	16.79
445.647	17.18
446.005	16.79
446.363	16.89
446.721	17.16
447.079	16.85
447.437	16.94
447.795	16.88
448.153	16.84
448.51	16.9
448.868	16.95
449.226	17.04
449.584	16.94
449.941	17.1
450.299	17.2
450.656	17.31
451.014	17.43
451.371	17.44
451.729	17.34
452.086	17.46
452.443	17.48
452.801	17.59
453.158	17.5
453.515	17.53
453.872	17.65
454.229	17.57
454.586	17.57
454.943	17.81
455.3	17.89
455.657	17.66
456.014	17.77
456.371	17.84
456.727	17.71
457.084	18.2
457.441	18.14
457.797	17.99
458.154	18.39
458.51	18.24
458.867	18.24
459.223	18.31
459.58	18.29
459.936	18.23
460.292	18.02
460.648	18.23
461.005	18.16
461.361	18.03
461.717	17.98
462.073	18.02
462.429	18.32
462.785	18.29
463.141	18.46
463.496	18.54
463.852	18.57
464.208	18.5
464.564	18.79
464.919	18.87
465.275	18.82
465.631	18.84
465.986	18.91
466.342	18.84
466.697	18.82
467.052	19.04
467.408	19.16
467.763	19.1
468.118	18.97
468.473	18.95
468.829	18.88
469.184	19.06
469.539	19.06
469.894	19.11
470.249	19.51
470.603	19.47
470.958	19.48
471.313	19.35
471.668	19.72
472.023	19.38
472.377	19.41
472.732	19.27
473.086	19.28
473.441	19.33
473.795	19.73
474.15	19.76
474.504	19.53
474.859	19.58
475.213	19.44
475.567	19.55
475.921	19.73
476.275	20.03
476.63	20.03
476.984	20.19
477.338	20.19
477.692	19.79
478.045	19.98
478.399	19.87
478.753	20.08
479.107	20.04
479.461	19.85
479.814	20.19
480.168	20.11
480.521	20
480.875	20.01
481.228	20.24
481.582	20.42
481.935	20.18
482.289	20.39
482.642	20.4
482.995	20.37
483.348	20.19
483.701	20.36
484.055	20.39
484.408	20.35
484.761	19.89
485.114	19.78
485.466	19.43
485.819	19.49
486.172	19.57
486.525	19.82
486.878	19.91
487.23	20.09
487.583	20.27
487.936	20.39
488.288	20.45
488.641	20.37
488.993	20.12
489.345	20.13
489.698	20.15
490.05	20.25
490.402	20.35
490.754	20.49
491.107	20.69
491.459	20.84
491.811	20.99
492.163	20.97
492.515	20.92
492.866	21.06
493.218	20.76
493.57	20.62
493.922	20.79
494.274	20.94
494.625	21.25
494.977	21.35
495.328	21.56
495.68	21.75
496.031	21.71
496.383	21.79
496.734	22.18
497.086	21.93
497.437	21.94
497.788	22.05
498.139	21.76
498.49	21.88
498.842	21.79
499.193	21.84
499.544	22.23
499.894	22.09
500.245	22.19
500.596	22.13
500.947	22.16
501.298	22.32
501.648	22.56
501.999	22.36
502.35	22.54
502.7	22.43
503.051	22.31
503.401	22.65
503.752	22.77
504.102	22.61
504.452	23.06
504.803	22.67
505.153	22.97
505.503	22.97
505.853	22.83
506.203	22.76
506.553	22.99
506.903	22.86
507.253	22.97
507.603	22.77
507.953	23.22
508.303	23.14
508.652	23.32
509.002	23.3
509.352	23.24
509.701	23.4
510.051	23.25
510.4	23.19
510.75	23.2
511.099	23.45
511.449	23.35
511.798	23.36
512.147	23.57
512.496	23.44
512.846	23.57
513.195	23.59
513.544	23.68
513.893	23.5
514.242	23.72
514.591	23.73
514.939	23.7
515.288	23.97
515.637	24.05
515.986	23.94
516.334	23.99
516.683	24.26
517.032	24.24
517.38	24.22
517.729	24.25
518.077	24.24
518.426	24.3
518.774	24.48
519.122	24.12
519.47	24.39
519.819	24.19
520.167	24.09
520.515	23.98
520.863	24.15
521.211	24.34
521.559	24.36
521.907	24.42
522.255	24.75
522.602	24.68
522.95	24.68
523.298	24.89
523.645	24.99
523.993	25
524.341	24.91
524.688	25
525.036	25.09
525.383	25.06
525.73	25.2
526.078	25.04
526.425	25.25
526.772	25.15
527.119	25.01
527.466	24.89
527.814	24.86
528.161	24.89
528.508	25.09
528.854	25.12
529.201	25.07
529.548	24.89
529.895	24.82
530.242	24.48
530.588	24.43
530.935	24.6
531.282	24.8
531.628	24.92
531.975	25.11
532.321	25.24
532.667	25.45
533.014	25.69
533.36	25.92
533.706	25.85
534.052	25.84
534.399	25.62
534.745	25.47
535.091	25.45
535.437	25.46
535.783	25.58
536.129	25.92
536.474	25.92
536.82	26.21
537.166	26.36
537.512	26.33
537.857	26.28
538.203	26.38
538.549	26.11
538.894	26.3
539.239	26.46
539.585	26.65
539.93	26.71
540.276	26.9
540.621	27.14
540.966	27
541.311	26.9
541.656	27.01
542.001	26.94
542.346	26.99
542.691	26.58
543.036	26.38
543.381	26.34
543.726	26.43
544.071	26.76
544.415	26.85
544.76	27.07
545.105	27.06
545.449	27.13
545.794	27.41
546.138	27.4
546.483	27.6
546.827	27.79
547.171	27.64
547.516	27.75
547.86	27.73
548.204	27.68
548.548	27.97
548.892	27.81
549.236	27.7
549.58	28.11
549.924	28.19
550.268	28.13
550.612	28.2
550.956	28.44
551.3	28.49
551.643	28.75
551.987	28.85
552.33	28.65
552.674	28.82
553.017	28.67
553.361	28.78
553.704	29.09
554.048	28.76
554.391	29.06
554.734	28.96
555.077	28.94
555.42	28.97
555.764	29.08
556.107	29.08
556.45	29.22
556.793	29.16
557.135	29.25
557.478	29.76
557.821	29.5
558.164	29.71
558.507	29.68
558.849	29.59
559.192	29.99
559.534	29.83
559.877	29.83
560.219	29.73
560.562	30.22
560.904	30.27
561.246	30.37
561.589	29.94
561.931	30.42
562.273	30.27
562.615	30.41
562.957	30.46
563.299	30.16
563.641	30.11
563.983	30.28
564.325	30.52
564.667	30.3
565.008	30.42
565.35	30.84
565.692	30.48
566.033	30.67
566.375	30.7
566.716	30.88
567.058	30.68
567.399	30.78
567.741	30.67
568.082	30.85
568.423	30.59
568.764	30.66
569.105	31.17
569.447	31.22
569.788	30.97
570.129	31.29
570.47	31.16
570.811	31.45
571.151	31.17
571.492	31.32
571.833	31.44
572.174	31.3
572.514	31.56
572.855	31.38
573.195	31.45
573.536	31.7
573.876	31.55
574.217	31.72
574.557	31.61
574.898	31.85
575.238	31.96
575.578	31.89
575.918	32.28
576.258	32.05
576.598	32.16
576.938	31.96
577.278	32.12
577.618	32.15
577.958	32.1
578.298	32.27
578.638	32.37
578.977	32.44
579.317	32.6
579.657	32.46
579.996	32.58
580.336	32.88
580.675	32.67
581.014	32.99
581.354	32.93
581.693	33.1
582.032	32.75
582.372	32.93
582.711	33.17
583.05	33.12
583.389	33.02
583.728	33.05
584.067	33.46
584.406	33.28
584.745	33.52
585.083	33.45
585.422	33.84
585.761	33.93
586.1	33.64
586.438	33.59
586.777	33.88
587.115	34.03
587.454	33.78
587.792	33.97
588.13	33.94
588.469	34.09
588.807	34.11
589.145	34.08
589.483	34.25
589.821	33.97
590.159	34.31
590.497	34.41
590.835	34.54
591.173	34.18
591.511	34.57
591.849	34.52
592.187	34.55
592.524	34.38
592.862	34.4
593.2	34.47
593.537	34.62
593.875	34.55
594.212	34.64
594.55	34.83
594.887	34.73
595.224	34.58
595.561	35.05
595.899	35.04
596.236	35.04
596.573	34.88
596.91	35.18
597.247	35.2
597.584	35.26
597.921	35.3
598.258	35.31
598.594	35.24
598.931	35.41
599.268	35.2
599.604	35.28
599.941	35.48
600.277	35.49
600.614	35.59
600.95	35.73
601.287	35.7
601.623	35.49
601.959	35.75
602.296	35.82
602.632	35.81
602.968	36.15
603.304	36
603.64	36.25
603.976	36.03
604.312	36.09
604.648	36.05
604.984	36.08
605.319	36.03
605.655	36.22
605.991	36.13
606.326	36.17
606.662	36.05
606.998	35.81
607.333	36.31
607.668	36.35
608.004	36.67
608.339	36.91
608.674	36.55
609.01	36.43
609.345	36.52
609.68	37.05
610.015	36.78
610.35	36.9
610.685	36.95
611.02	36.9
611.355	37.04
611.689	36.88
612.024	36.96
612.359	37.07
612.694	37.48
613.028	37.25
613.363	37.54
613.697	37.52
614.032	37.91
614.366	37.71
614.7	37.76
615.035	37.58
615.369	37.96
615.703	37.88
616.037	38
616.371	38.05
616.705	38
617.039	37.94
617.373	37.89
617.707	37.96
618.041	38.16
618.375	38.18
618.709	38.39
619.042	38.31
619.376	38.42
619.71	38.35
620.043	38.91
620.377	38.71
620.71	38.31
621.043	38.67
621.377	38.94
621.71	39
622.043	38.28
622.376	38.66
622.709	39.32
623.043	38.8
623.376	38.79
623.709	38.91
624.041	39.52
624.374	38.8
624.707	39.19
625.04	38.69
625.373	38.99
625.705	39.32
626.038	38.55
626.37	38.86
626.703	38.89
627.035	39.39
627.368	39.59
627.7	39.55
628.032	39.47
628.365	39.62
628.697	39.71
629.029	39.38
629.361	39.27
629.693	39.66
630.025	40.15
630.357	40.14
630.689	40.26
631.021	39.91
631.353	39.95
631.684	39.91
632.016	39.47
632.348	40.25
632.679	39.94
633.011	39.79
633.342	40.36
633.674	39.95
634.005	40.36
634.336	40.37
634.668	40.73
634.999	40.53
635.33	40.78
635.661	40.33
635.992	40.61
636.323	40.91
636.654	40.68
636.985	40.7
637.316	40.86
637.647	40.43
637.977	41.03
638.308	40.63
638.639	40.89
638.969	40.64
639.3	40.79
639.63	40.74
639.961	40.95
640.291	41.46
640.622	41.45
640.952	41.56
641.282	41.38
641.612	41.01
641.943	41.25
642.273	41.64
642.603	41.32
642.933	41.28
643.263	41.9
643.592	41.27
643.922	41.49
644.252	42.13
644.582	41.65
644.911	41.86
645.241	41.59
645.571	41.81
645.9	42.22
646.23	42
646.559	42.16
646.888	42.21
647.218	42.32
647.547	42.84
647.876	42.06
648.205	42.14
648.534	42.31
648.863	41.89
649.192	41.94
649.521	42.09
649.85	41.88
650.179	42.32
650.508	41.61
650.837	41.91
651.165	42.1
651.494	42.65
651.822	42.59
652.151	41.82
652.479	42.9
652.808	42.52
653.136	42.65
653.465	42.54
653.793	42.8
654.121	43.01
654.449	42.65
654.777	43.06
655.105	42.99
655.433	42.5
655.761	43.24
656.089	43.64
656.417	43.33
656.745	43.68
657.073	42.86
657.4	43.61
657.728	42.92
658.056	42.61
658.383	43.48
658.711	43.66
659.038	43.13
659.365	43.43
659.693	43.32
660.02	43.62
660.347	43.96
660.674	43.49
661.001	44.42
661.329	43.32
661.656	43.76
661.982	44.37
662.309	44.04
662.636	43.54
662.963	44.11
663.29	43.59
663.616	44.17
663.943	43.78
664.27	43.93
664.596	44.12
664.923	44.03
665.249	45.2
665.576	43.83
665.902	45.06
666.228	43.93
666.554	44.93
666.881	44.29
667.207	44.3
667.533	44.7
667.859	44.79
668.185	45.4
668.511	44.56
668.837	44.43
669.162	44.51
669.488	44.43
669.814	45.73
670.139	45.43
670.465	45.65
670.791	44.75
671.116	44.87
671.442	45.7
