Data from 0202_forehead_Reflection__1__336.txt Node

Date: Fri Dec 15 19:42:13 CST 2023
User: ToomeyLab
Spectrometer: FLMS14357
Trigger mode: 0
Integration Time (sec): 1.000000E-2
Scans to average: 100
Electric dark correction enabled: true
Nonlinearity correction enabled: false
Boxcar width: 0
XAxis mode: Wavelengths
Number of Pixels in Spectrum: 2048
>>>>>Begin Spectral Data<<<<<
189.047	-20.37
189.435	-20.37
189.823	-20.37
190.211	-168.75
190.599	-233.2
190.987	41.41
191.375	-386.51
191.763	-724.22
192.151	143.42
192.538	115.57
192.926	-42.98
193.314	51.25
193.702	-162.05
194.089	-10.91
194.477	25.4
194.864	-134.03
195.252	285.3
195.639	179.96
196.027	140.82
196.414	50.05
196.801	44.49
197.189	101.98
197.576	-141.48
197.963	81.85
198.351	-27.53
198.738	-28.34
199.125	94.91
199.512	105.09
199.899	98.68
200.286	69.4
200.673	-5.22
201.06	50.26
201.447	83.53
201.833	-0.44
202.22	24.47
202.607	41.05
202.994	75.64
203.38	27.78
203.767	40.89
204.154	52.49
204.54	42.84
204.927	-155.34
205.313	-10.68
205.699	41.46
206.086	66.13
206.472	13.07
206.858	13.6
207.245	-47.78
207.631	9.92
208.017	18.83
208.403	3.6
208.789	33.57
209.175	68.97
209.561	-14.68
209.947	21.6
210.333	18.79
210.719	27.79
211.105	25.91
211.491	-11.6
211.876	55.85
212.262	49.21
212.648	29.41
213.034	23.48
213.419	-0.04
213.805	25.29
214.19	10.85
214.576	5.05
214.961	-19.12
215.346	-69.03
215.732	12.95
216.117	35.77
216.502	4.37
216.888	35.58
217.273	36.57
217.658	-17.38
218.043	38.81
218.428	-24.9
218.813	10.34
219.198	-56.25
219.583	45.09
219.968	21.38
220.353	34.67
220.738	36.89
221.122	17.38
221.507	-22.53
221.892	0.52
222.276	-12.92
222.661	-5.82
223.046	22.72
223.43	18.93
223.815	15.92
224.199	-14.04
224.583	15.56
224.968	11.46
225.352	19.98
225.736	6.27
226.121	-3.51
226.505	11.19
226.889	10.73
227.273	3.22
227.657	9.79
228.041	11.93
228.425	4.76
228.809	11.84
229.193	5.1
229.577	3.83
229.961	2.56
230.344	4.97
230.728	4.21
231.112	3.75
231.495	3.9
231.879	1.97
232.263	4.58
232.646	3.36
233.03	5.88
233.413	3.48
233.797	4.69
234.18	5.81
234.563	4.56
234.946	3.97
235.33	6.1
235.713	2.91
236.096	4.83
236.479	5.91
236.862	2.82
237.245	6.68
237.628	4.29
238.011	5.09
238.394	7.31
238.777	4.04
239.16	5.21
239.543	3.99
239.925	3.49
240.308	3.58
240.691	5.18
241.073	5.49
241.456	3.75
241.838	3.53
242.221	3.46
242.603	4.09
242.986	4.21
243.368	4.69
243.75	4.6
244.133	4
244.515	4.26
244.897	4.48
245.279	4.69
245.661	3.63
246.043	3.36
246.425	2.82
246.807	5.16
247.189	4.43
247.571	4.64
247.953	4.37
248.335	4.09
248.717	3.99
249.098	3.68
249.48	4.01
249.862	4.19
250.243	3.88
250.625	3.89
251.006	4.62
251.388	3.29
251.769	4.34
252.151	4.76
252.532	3.63
252.913	3.52
253.295	3.97
253.676	4.34
254.057	4.87
254.438	4.36
254.819	4.06
255.2	4.74
255.581	4.89
255.962	4.2
256.343	4.13
256.724	4.07
257.105	5.81
257.486	4.7
257.867	5.37
258.247	4.47
258.628	4.37
259.009	4.15
259.389	4.49
259.77	4.1
260.15	4.04
260.531	3.63
260.911	4.73
261.292	3.83
261.672	4.04
262.052	3.85
262.432	4.11
262.813	3.89
263.193	4.23
263.573	4.57
263.953	3.49
264.333	4.43
264.713	4.74
265.093	3.95
265.473	4.35
265.853	3.12
266.233	4.89
266.612	2.99
266.992	3.27
267.372	5.13
267.752	3.86
268.131	4.38
268.511	4.91
268.89	4.23
269.27	4.32
269.649	4.03
270.029	3.84
270.408	4.79
270.787	4.65
271.167	4.04
271.546	4.83
271.925	3.51
272.304	3.95
272.683	4.68
273.062	3.68
273.441	4.33
273.82	3.31
274.199	4
274.578	3.81
274.957	3.94
275.336	3.51
275.715	3.21
276.093	3.53
276.472	3.9
276.851	3.97
277.229	3.25
277.608	3.68
277.986	3.8
278.365	4.03
278.743	3.95
279.122	3.67
279.5	3.94
279.878	4.01
280.257	4.24
280.635	3.71
281.013	3.53
281.391	4.11
281.769	4.26
282.147	4.36
282.525	4.66
282.903	3.68
283.281	4.58
283.659	4.82
284.037	4.27
284.415	4.3
284.792	4.09
285.17	3.3
285.548	4.03
285.925	4.19
286.303	4.14
286.68	3.57
287.058	4.02
287.435	3.64
287.813	4.2
288.19	3.85
288.567	4.09
288.945	4.26
289.322	4.51
289.699	3.37
290.076	4.2
290.453	4.14
290.83	4.42
291.207	3.98
291.584	4.42
291.961	4.52
292.338	4.43
292.715	4.77
293.092	4.5
293.469	4.99
293.845	4.81
294.222	3.93
294.599	3.91
294.975	4.63
295.352	4.25
295.728	4.34
296.105	4.57
296.481	4.99
296.858	4.93
297.234	4.84
297.61	4.47
297.986	4.94
298.363	4.64
298.739	4.92
299.115	4.68
299.491	4.43
299.867	4.44
300.243	4.85
300.619	4.81
300.995	5.04
301.371	4.74
301.746	4.67
302.122	5.58
302.498	5.17
302.874	5
303.249	5.31
303.625	5.31
304	5.23
304.376	5.33
304.751	4.18
305.127	5.89
305.502	4.43
305.878	4.43
306.253	5.36
306.628	5.97
307.003	5.46
307.378	6.04
307.754	5.39
308.129	5.44
308.504	5.69
308.879	5.09
309.254	6.77
309.629	6.25
310.003	5.71
310.378	6.38
310.753	6.19
311.128	6.53
311.502	6.23
311.877	6.62
312.252	5.8
312.626	5.99
313.001	6.11
313.375	6.26
313.75	5.24
314.124	6.27
314.498	6.4
314.873	6.57
315.247	6.65
315.621	6.5
315.995	6.2
316.369	6.57
316.743	6.35
317.117	6.42
317.491	6.21
317.865	6.58
318.239	7.03
318.613	6.81
318.987	6.81
319.361	6.43
319.734	7.43
320.108	6.78
320.482	6.68
320.855	6.94
321.229	6.31
321.602	6.62
321.976	7.68
322.349	7.04
322.723	6.74
323.096	7.66
323.469	7.58
323.843	6.81
324.216	7.67
324.589	7.36
324.962	7.63
325.335	6.96
325.708	7.21
326.081	7.4
326.454	7.27
326.827	7.02
327.2	7.4
327.573	7.47
327.945	7.27
328.318	7.46
328.691	7.35
329.063	7.47
329.436	7.64
329.809	8.09
330.181	7.78
330.553	8.16
330.926	8.34
331.298	7.79
331.671	7.8
332.043	8.34
332.415	8.64
332.787	8.12
333.159	8.89
333.532	8.46
333.904	7.88
334.276	8.08
334.648	8.13
335.02	8.59
335.391	8.02
335.763	7.87
336.135	8.14
336.507	8.67
336.879	8.46
337.25	8.14
337.622	8.22
337.993	8.22
338.365	8.88
338.736	8.71
339.108	8.2
339.479	7.78
339.851	8.4
340.222	8.77
340.593	8.51
340.964	8.59
341.336	9.32
341.707	8.24
342.078	9.49
342.449	9.42
342.82	8.64
343.191	8.75
343.562	9.2
343.933	9.31
344.303	9.21
344.674	9.26
345.045	9.2
345.416	9.4
345.786	8.8
346.157	9.53
346.527	8.35
346.898	8.79
347.268	9.35
347.639	9.22
348.009	9.15
348.38	9.07
348.75	9.14
349.12	9.31
349.49	9.96
349.861	9.52
350.231	9.88
350.601	9.5
350.971	9.9
351.341	9.98
351.711	9.69
352.081	9.75
352.45	9.56
352.82	9.99
353.19	9.84
353.56	9.85
353.929	10.1
354.299	9.71
354.669	10.04
355.038	10.05
355.408	10.1
355.777	10.36
356.147	9.85
356.516	10.1
356.885	10.2
357.254	10.03
357.624	10.63
357.993	10.41
358.362	9.79
358.731	10.14
359.1	9.97
359.469	10.56
359.838	10.42
360.207	10.12
360.576	9.82
360.945	10.42
361.314	10.36
361.682	10.26
362.051	10.48
362.42	10.61
362.788	10.46
363.157	10.54
363.525	10.83
363.894	10.7
364.262	10.55
364.631	10.53
364.999	11.02
365.367	10.61
365.735	11.72
366.104	10.75
366.472	11.04
366.84	10.94
367.208	10.91
367.576	11.28
367.944	11.12
368.312	10.71
368.68	10.75
369.048	11.41
369.416	11.1
369.783	11.18
370.151	11.74
370.519	12.06
370.886	11.72
371.254	11.49
371.621	11.51
371.989	11.63
372.356	10.97
372.724	11.37
373.091	11.72
373.458	11.64
373.826	11.53
374.193	11.71
374.56	11.95
374.927	11.97
375.294	12.01
375.661	12.13
376.028	11.94
376.395	11.81
376.762	11.93
377.129	11.86
377.496	11.88
377.863	12.16
378.229	11.58
378.596	12.22
378.963	12.31
379.329	12.25
379.696	12.72
380.062	12.26
380.429	12.46
380.795	12.01
381.161	12.33
381.528	12.73
381.894	12.42
382.26	12.19
382.626	12.48
382.993	12.17
383.359	12.99
383.725	12.88
384.091	12.65
384.457	12.72
384.823	12.58
385.188	13.04
385.554	12.83
385.92	12.99
386.286	13.33
386.651	13.21
387.017	12.95
387.383	13.15
387.748	13.12
388.114	13.35
388.479	13.09
388.845	13.5
389.21	13.15
389.575	13.07
389.94	13.43
390.306	13.58
390.671	13.59
391.036	13.28
391.401	13.34
391.766	13.65
392.131	13.42
392.496	13.92
392.861	13.65
393.226	13.87
393.591	13.65
393.956	13.52
394.32	13.86
394.685	13.65
395.05	13.57
395.414	13.91
395.779	13.65
396.143	14.39
396.508	13.82
396.872	14.28
397.236	14.17
397.601	13.9
397.965	14.32
398.329	14.09
398.694	14.2
399.058	14.46
399.422	14.37
399.786	14.63
400.15	14.38
400.514	14.3
400.878	14.55
401.242	15.01
401.605	14.81
401.969	14.74
402.333	14.44
402.697	14.71
403.06	14.92
403.424	14.61
403.787	14.92
404.151	14.98
404.514	14.95
404.878	14.95
405.241	15.02
405.604	15.08
405.968	14.75
406.331	14.82
406.694	15.09
407.057	14.99
407.42	14.94
407.783	14.85
408.146	15.17
408.509	15.41
408.872	14.95
409.235	15.25
409.598	15.48
409.961	15.53
410.323	15.49
410.686	15.44
411.049	15.53
411.411	15.69
411.774	15.77
412.136	15.82
412.499	15.74
412.861	15.63
413.223	15.77
413.586	15.73
413.948	15.88
414.31	16.01
414.672	15.75
415.035	15.87
415.397	16.28
415.759	15.93
416.121	16.38
416.483	15.87
416.845	16.06
417.206	16.32
417.568	16.33
417.93	15.89
418.292	16.32
418.653	16.21
419.015	16.33
419.377	16.28
419.738	16.31
420.1	16.25
420.461	16.15
420.822	16.5
421.184	16.23
421.545	16.41
421.906	16.29
422.267	16.44
422.629	16.32
422.99	16.32
423.351	16.34
423.712	16.58
424.073	16.44
424.434	16.5
424.795	16.56
425.155	16.67
425.516	16.71
425.877	16.65
426.238	16.6
426.598	16.89
426.959	16.76
427.32	16.81
427.68	16.9
428.041	16.81
428.401	17.18
428.761	17.28
429.122	17.3
429.482	17.33
429.842	17.51
430.202	17.36
430.563	17.66
430.923	17.36
431.283	17.82
431.643	17.58
432.003	17.68
432.363	17.87
432.722	17.79
433.082	18.11
433.442	17.9
433.802	17.76
434.161	18.02
434.521	18.18
434.881	18.05
435.24	17.83
435.6	17.77
435.959	17.77
436.319	17.92
436.678	18.12
437.037	18.17
437.396	18.18
437.756	18.35
438.115	18.16
438.474	18.49
438.833	18.19
439.192	18.47
439.551	18.59
439.91	18.39
440.269	18.58
440.628	18.57
440.987	18.47
441.345	18.43
441.704	18.63
442.063	18.46
442.421	18.66
442.78	18.51
443.138	18.48
443.497	18.75
443.855	18.57
444.214	18.79
444.572	18.94
444.93	18.94
445.288	18.99
445.647	19.26
446.005	18.84
446.363	19.08
446.721	19.22
447.079	19
447.437	19.09
447.795	19.21
448.153	18.92
448.51	19
448.868	19.05
449.226	19.1
449.584	19.18
449.941	19.51
450.299	19.32
450.656	19.42
451.014	19.64
451.371	19.44
451.729	19.67
452.086	20.03
452.443	19.85
452.801	20.13
453.158	19.86
453.515	19.82
453.872	20.26
454.229	19.88
454.586	19.92
454.943	20.13
455.3	20.18
455.657	20.25
456.014	20.2
456.371	20.39
456.727	20.27
457.084	20.51
457.441	20.46
457.797	20.5
458.154	20.65
458.51	20.69
458.867	20.64
459.223	20.79
459.58	20.86
459.936	20.8
460.292	20.82
460.648	20.68
461.005	20.78
461.361	20.75
461.717	20.54
462.073	20.56
462.429	20.59
462.785	20.79
463.141	20.92
463.496	20.98
463.852	21.05
464.208	21.18
464.564	21.26
464.919	21.28
465.275	21.2
465.631	21.4
465.986	21.6
466.342	21.58
466.697	21.65
467.052	21.67
467.408	21.73
467.763	21.91
468.118	21.6
468.473	21.79
468.829	21.87
469.184	21.84
469.539	21.94
469.894	21.98
470.249	22.06
470.603	22.21
470.958	22.12
471.313	22.17
471.668	22.28
472.023	22.21
472.377	22.56
472.732	22.32
473.086	22.24
473.441	22.32
473.795	22.56
474.15	22.54
474.504	22.72
474.859	22.37
475.213	22.5
475.567	22.64
475.921	22.68
476.275	22.76
476.63	22.84
476.984	22.99
477.338	23.14
477.692	22.86
478.045	22.83
478.399	22.94
478.753	22.97
479.107	23.09
479.461	22.84
479.814	23.07
480.168	22.97
480.521	22.86
480.875	23.09
481.228	23
481.582	23.29
481.935	23.31
482.289	23.3
482.642	23.34
482.995	23.36
483.348	23.25
483.701	23.4
484.055	23.2
484.408	23.26
484.761	23.16
485.114	22.94
485.466	22.52
485.819	22.45
486.172	22.47
486.525	22.54
486.878	22.65
487.23	22.88
487.583	23.15
487.936	23.3
488.288	23.3
488.641	23.36
488.993	23.1
489.345	23.02
489.698	22.99
490.05	23.13
490.402	23.35
490.754	23.37
491.107	23.59
491.459	23.81
491.811	23.9
492.163	24.13
492.515	24.08
492.866	24.07
493.218	23.95
493.57	23.69
493.922	23.8
494.274	23.87
494.625	24.08
494.977	24.31
495.328	24.53
495.68	24.73
496.031	24.9
496.383	24.81
496.734	25.1
497.086	25.25
497.437	25.44
497.788	25.43
498.139	25.1
498.49	25.12
498.842	25.02
499.193	25.19
499.544	25.22
499.894	25.46
500.245	25.51
500.596	25.37
500.947	25.47
501.298	25.55
501.648	25.65
501.999	25.69
502.35	25.89
502.7	25.69
503.051	25.74
503.401	25.98
503.752	26.25
504.102	26.09
504.452	26.33
504.803	26.25
505.153	26.51
505.503	26.3
505.853	26.49
506.203	26.32
506.553	26.44
506.903	26.33
507.253	26.68
507.603	26.53
507.953	26.81
508.303	26.79
508.652	26.66
509.002	26.85
509.352	26.85
509.701	26.66
510.051	26.79
510.4	26.86
510.75	26.79
511.099	26.78
511.449	26.78
511.798	26.94
512.147	26.83
512.496	26.9
512.846	26.97
513.195	27.32
513.544	27.12
513.893	27.27
514.242	27.27
514.591	27.45
514.939	27.41
515.288	27.14
515.637	27.45
515.986	27.47
516.334	27.73
516.683	27.8
517.032	27.76
517.38	27.94
517.729	27.76
518.077	27.83
518.426	28.07
518.774	27.95
519.122	27.84
519.47	27.87
519.819	27.61
520.167	27.75
520.515	27.79
520.863	27.71
521.211	27.91
521.559	27.99
521.907	27.97
522.255	28.29
522.602	28.46
522.95	28.3
523.298	28.41
523.645	28.73
523.993	28.55
524.341	28.83
524.688	28.88
525.036	28.71
525.383	28.74
525.73	28.98
526.078	28.91
526.425	28.89
526.772	28.99
527.119	28.79
527.466	28.92
527.814	28.61
528.161	28.57
528.508	28.71
528.854	28.73
529.201	28.63
529.548	28.66
529.895	28.68
530.242	28.36
530.588	28.29
530.935	28.36
531.282	28.48
531.628	28.54
531.975	28.58
532.321	28.91
532.667	29.12
533.014	29.35
533.36	29.64
533.706	29.51
534.052	29.5
534.399	29.4
534.745	29.48
535.091	29.25
535.437	29.26
535.783	29.32
536.129	29.54
536.474	29.56
536.82	29.9
537.166	30.06
537.512	30.2
537.857	30.33
538.203	30.31
538.549	30.08
538.894	30.2
539.239	30.19
539.585	30.59
539.93	30.41
540.276	30.54
540.621	30.77
540.966	30.91
541.311	30.94
541.656	30.93
542.001	31.24
542.346	31.05
542.691	30.65
543.036	30.48
543.381	30.29
543.726	30.21
544.071	30.49
544.415	30.6
544.76	30.72
545.105	30.85
545.449	30.86
545.794	31.2
546.138	31.26
546.483	31.46
546.827	31.57
547.171	31.76
547.516	31.87
547.86	31.6
548.204	31.75
548.548	31.77
548.892	31.81
549.236	31.83
549.58	31.89
549.924	32.27
550.268	32.18
550.612	32.33
550.956	32.54
551.3	32.62
551.643	32.97
551.987	32.82
552.33	32.93
552.674	32.97
553.017	32.9
553.361	32.93
553.704	33.23
554.048	33.03
554.391	33.12
554.734	32.96
555.077	33.11
555.42	33.08
555.764	33.11
556.107	33.19
556.45	33.16
556.793	33.45
557.135	33.56
557.478	33.76
557.821	33.63
558.164	33.81
558.507	33.97
558.849	33.85
559.192	33.94
559.534	33.97
559.877	34.1
560.219	33.96
560.562	34.26
560.904	34.36
561.246	34.49
561.589	34.3
561.931	34.56
562.273	34.48
562.615	34.53
562.957	34.6
563.299	34.31
563.641	34.32
563.983	34.37
564.325	34.57
564.667	34.48
565.008	34.57
565.35	34.82
565.692	34.85
566.033	34.73
566.375	35.19
566.716	35.14
567.058	35.01
567.399	35.05
567.741	34.95
568.082	34.87
568.423	34.92
568.764	34.79
569.105	35.12
569.447	35.25
569.788	35.13
570.129	35.38
570.47	35.36
570.811	35.39
571.151	35.43
571.492	35.91
571.833	35.79
572.174	35.73
572.514	35.94
572.855	35.81
573.195	35.67
573.536	35.91
573.876	35.66
574.217	35.45
574.557	36
574.898	35.91
575.238	36.03
575.578	35.92
575.918	36.19
576.258	36.21
576.598	36.42
576.938	36.35
577.278	36.31
577.618	36.46
577.958	36.26
578.298	36.61
578.638	36.75
578.977	36.75
579.317	36.69
579.657	36.87
579.996	36.88
580.336	37.13
580.675	36.8
581.014	37.14
581.354	37.25
581.693	37.08
582.032	37.31
582.372	37.47
582.711	37.7
583.05	37.37
583.389	37.35
583.728	37.22
584.067	37.87
584.406	37.91
584.745	37.69
585.083	37.98
585.422	37.9
585.761	37.98
586.1	37.96
586.438	38.17
586.777	38.23
587.115	38.23
587.454	37.89
587.792	38.2
588.13	38.54
588.469	38.32
588.807	38.51
589.145	38.64
589.483	38.61
589.821	38.66
590.159	38.66
590.497	38.75
590.835	38.7
591.173	38.54
591.511	38.86
591.849	38.91
592.187	39.27
592.524	39.2
592.862	38.94
593.2	39.22
593.537	38.71
593.875	38.79
594.212	39.2
594.55	39.32
594.887	39.25
595.224	39.18
595.561	39.09
595.899	39.38
596.236	39.51
596.573	39.44
596.91	39.31
597.247	39.65
597.584	39.77
597.921	39.45
598.258	39.45
598.594	39.64
598.931	39.73
599.268	39.62
599.604	39.67
599.941	39.69
600.277	39.87
600.614	39.73
600.95	40.04
601.287	40.11
601.623	40.05
601.959	40.34
602.296	40.17
602.632	39.96
602.968	40.53
603.304	40.74
603.64	40.18
603.976	40.74
604.312	40.67
604.648	40.43
604.984	40.68
605.319	40.4
605.655	40.58
605.991	40.75
606.326	40.47
606.662	40.83
606.998	40.66
607.333	40.79
607.668	40.68
608.004	40.93
608.339	41.11
608.674	41
609.01	40.93
609.345	41.11
609.68	41.46
610.015	41.69
610.35	41.58
610.685	41.58
611.02	41.49
611.355	41.69
611.689	41.57
612.024	41.05
612.359	41.62
612.694	41.62
613.028	41.88
613.363	41.87
613.697	41.99
614.032	42.2
614.366	41.9
614.7	41.92
615.035	42.25
615.369	42.18
615.703	42.57
616.037	42.98
616.371	42.35
616.705	42.39
617.039	42.79
617.373	42.32
617.707	42.46
618.041	42.49
618.375	42.81
618.709	43.4
619.042	42.72
619.376	43.18
619.71	43.07
620.043	43.09
620.377	43.05
620.71	43.28
621.043	43.11
621.377	43.23
621.71	43.16
622.043	43.54
622.376	43.12
622.709	43.47
623.043	43.72
623.376	43.23
623.709	43.24
624.041	43.89
624.374	43.9
624.707	43.78
625.04	43.31
625.373	43.76
625.705	44.36
626.038	43.52
626.37	43.79
626.703	43.66
627.035	44.19
627.368	44.19
627.7	44.25
628.032	44.04
628.365	44.17
628.697	44.2
629.029	44.3
629.361	43.89
629.693	44.37
630.025	44.65
630.357	44.11
630.689	43.9
631.021	44.52
631.353	44.65
631.684	44.36
632.016	43.95
632.348	45.14
632.679	44.8
633.011	44.73
633.342	44.9
633.674	44.72
634.005	45.09
634.336	45.53
634.668	45.26
634.999	45.16
635.33	45.5
635.661	45.89
635.992	45.09
636.323	45.59
636.654	45.39
636.985	44.84
637.316	45.35
637.647	45.78
637.977	46.34
638.308	45.89
638.639	45.47
638.969	46.07
639.3	45.4
639.63	45.79
639.961	46.16
640.291	45.79
640.622	46.41
640.952	46.09
641.282	46.45
641.612	46.07
641.943	46.08
642.273	46.08
642.603	46.56
642.933	46.28
643.263	46.68
643.592	46.61
643.922	46.62
644.252	46.69
644.582	46.45
644.911	45.84
645.241	46.11
645.571	46.87
645.9	46.91
646.23	46.68
646.559	47.45
646.888	46.65
647.218	47.06
647.547	47.46
647.876	46.88
648.205	47.15
648.534	46.97
648.863	47.13
649.192	47.29
649.521	47.15
649.85	47.32
650.179	47.14
650.508	47.15
650.837	47.09
651.165	46.51
651.494	47.63
651.822	47.38
652.151	46.7
652.479	48.25
652.808	47.37
653.136	47.71
653.465	47.56
653.793	47.66
654.121	48.29
654.449	47.84
654.777	47.92
655.105	47.94
655.433	46.94
655.761	48.55
656.089	48.42
656.417	48.45
656.745	48.13
657.073	48.15
657.4	48.67
657.728	48.04
658.056	48.3
658.383	48.06
658.711	48.42
659.038	48.71
659.365	48.67
659.693	49.33
660.02	49.46
660.347	49.51
660.674	49.05
661.001	49.15
661.329	48.29
661.656	49.09
661.982	49.14
662.309	48.97
662.636	48.87
662.963	48.54
663.29	48.92
663.616	49.3
663.943	48.81
664.27	49.3
664.596	49.65
664.923	48.83
665.249	49.47
665.576	49.9
665.902	50.04
666.228	49.53
666.554	49.61
666.881	49.31
667.207	49.94
667.533	49.63
667.859	49.91
668.185	50.27
668.511	50.2
668.837	49.65
669.162	49.35
669.488	50.62
669.814	50.87
670.139	50.28
670.465	50.59
