Data from 0050_forehead_Reflection__4__29.txt Node

Date: Fri Dec 16 14:00:19 CST 2022
User: ToomeyLab
Spectrometer: FLMS14357
Trigger mode: 0
Integration Time (sec): 1.000000E-2
Scans to average: 100
Electric dark correction enabled: true
Nonlinearity correction enabled: false
Boxcar width: 0
XAxis mode: Wavelengths
Number of Pixels in Spectrum: 2048
>>>>>Begin Spectral Data<<<<<
189.047	36.97
189.435	36.97
189.823	36.97
190.211	-8.9
190.599	-61.87
190.987	-373.54
191.375	64.08
191.763	74.14
192.151	256.88
192.538	23.29
192.926	-67.33
193.314	53.1
193.702	-219.45
194.089	-0.92
194.477	23.91
194.864	60.82
195.252	56.07
195.639	159.32
196.027	-214.02
196.414	188.96
196.801	60.26
197.189	116.37
197.576	886.99
197.963	-51.61
198.351	39.77
198.738	35.91
199.125	59.5
199.512	20.29
199.899	-26.12
200.286	45.35
200.673	46.06
201.06	63.38
201.447	22.97
201.833	18.09
202.22	40.81
202.607	30.52
202.994	102.47
203.38	0.35
203.767	5.32
204.154	-23.41
204.54	52.36
204.927	35.25
205.313	12.83
205.699	34.65
206.086	2.59
206.472	37.55
206.858	18.15
207.245	41.74
207.631	4.3
208.017	48.57
208.403	56.53
208.789	1.4
209.175	52.65
209.561	12.57
209.947	9.5
210.333	11.96
210.719	44.8
211.105	3.76
211.491	0.99
211.876	54.9
212.262	8.25
212.648	6.19
213.034	43.31
213.419	22.25
213.805	10.07
214.19	1.54
214.576	22.11
214.961	39.27
215.346	-4.19
215.732	20.6
216.117	15.15
216.502	49.16
216.888	-4.31
217.273	28.44
217.658	-4.08
218.043	38.77
218.428	26.47
218.813	7.72
219.198	5.58
219.583	23.38
219.968	24.49
220.353	14.59
220.738	25.39
221.122	18.56
221.507	10.88
221.892	23.41
222.276	22.4
222.661	6.33
223.046	20.68
223.43	6.9
223.815	11.84
224.199	12.07
224.583	12.78
224.968	14.42
225.352	14.42
225.736	13.55
226.121	3.36
226.505	13.49
226.889	16.12
227.273	9.37
227.657	5.36
228.041	9.68
228.425	13.96
228.809	7.89
229.193	6.14
229.577	6.3
229.961	5.12
230.344	5.72
230.728	5.09
231.112	4.82
231.495	5.02
231.879	5.66
232.263	4.52
232.646	5.84
233.03	3.72
233.413	7.24
233.797	7.39
234.18	4.75
234.563	4.45
234.946	4.12
235.33	4.15
235.713	5.61
236.096	5.06
236.479	6.21
236.862	7.7
237.245	6.33
237.628	6.28
238.011	6.71
238.394	8.4
238.777	5.64
239.16	5.49
239.543	5.77
239.925	7.26
240.308	7.24
240.691	6.92
241.073	4.82
241.456	5.13
241.838	5.96
242.221	5.96
242.603	5.38
242.986	6.21
243.368	5.02
243.75	5.23
244.133	4.89
244.515	5.44
244.897	5.02
245.279	4.41
245.661	5.98
246.043	6.95
246.425	4.94
246.807	5.12
247.189	5.69
247.571	5.27
247.953	5.43
248.335	5.21
248.717	5.04
249.098	5.24
249.48	4.92
249.862	5.51
250.243	4.89
250.625	5.35
251.006	5.69
251.388	6.66
251.769	5.71
252.151	6.02
252.532	4.7
252.913	5.12
253.295	5.09
253.676	5.67
254.057	5
254.438	5.62
254.819	6.26
255.2	5.29
255.581	5.55
255.962	6.42
256.343	5.93
256.724	4.87
257.105	5.74
257.486	6.53
257.867	4.42
258.247	5.71
258.628	6.54
259.009	5.32
259.389	5.87
259.77	5.15
260.15	6.01
260.531	5.1
260.911	4.92
261.292	5.1
261.672	4.98
262.052	5.06
262.432	5.31
262.813	5.31
263.193	5.53
263.573	5.21
263.953	4.75
264.333	5.51
264.713	5.13
265.093	4.82
265.473	6.06
265.853	5.34
266.233	5.17
266.612	4.98
266.992	4.4
267.372	5.5
267.752	4.64
268.131	4.98
268.511	5.76
268.89	5.45
269.27	5.46
269.649	5.68
270.029	5.35
270.408	5.38
270.787	4.91
271.167	5.42
271.546	5.02
271.925	5.23
272.304	5.42
272.683	5.05
273.062	5.27
273.441	5.06
273.82	4.96
274.199	5.14
274.578	4.97
274.957	5.13
275.336	4.74
275.715	5.38
276.093	5.43
276.472	5.3
276.851	5.2
277.229	5.84
277.608	4.72
277.986	5.53
278.365	5.3
278.743	5.39
279.122	4.84
279.5	4.91
279.878	4.66
280.257	4.71
280.635	4.77
281.013	5.64
281.391	5.25
281.769	5.06
282.147	4.8
282.525	5.03
282.903	5.22
283.281	5.5
283.659	4.92
284.037	5.14
284.415	5.33
284.792	5.41
285.17	5.09
285.548	4.84
285.925	5.14
286.303	4.97
286.68	5.18
287.058	5.1
287.435	4.95
287.813	4.98
288.19	5.53
288.567	5.31
288.945	4.91
289.322	5.36
289.699	5.01
290.076	5.8
290.453	5.15
290.83	5.54
291.207	5.3
291.584	5.46
291.961	5.3
292.338	5.48
292.715	6.19
293.092	5.35
293.469	5.94
293.845	5.76
294.222	5.49
294.599	6.35
294.975	5.97
295.352	5.56
295.728	6.22
296.105	5.53
296.481	6.45
296.858	6.04
297.234	5.99
297.61	6.07
297.986	5.83
298.363	5.65
298.739	6.19
299.115	5.71
299.491	6.16
299.867	6.5
300.243	6.58
300.619	6.03
300.995	6.49
301.371	6.26
301.746	6.6
302.122	6.18
302.498	6.54
302.874	6.73
303.249	6.66
303.625	6.25
304	6.51
304.376	6.41
304.751	7.19
305.127	6.94
305.502	7
305.878	6.54
306.253	6.36
306.628	6.82
307.003	7.01
307.378	6.99
307.754	7.36
308.129	6.33
308.504	7.19
308.879	7.25
309.254	7.31
309.629	7.03
310.003	7.75
310.378	7.88
310.753	7.48
311.128	7.29
311.502	7.2
311.877	7.38
312.252	7.4
312.626	7.41
313.001	7.26
313.375	7.45
313.75	8.02
314.124	8.19
314.498	7.73
314.873	7.63
315.247	7.63
315.621	8.05
315.995	7.96
316.369	8.34
316.743	8.24
317.117	7.85
317.491	8.07
317.865	7.75
318.239	8.63
318.613	8.35
318.987	8.92
319.361	8.42
319.734	8.58
320.108	8.17
320.482	9.06
320.855	8.62
321.229	9.23
321.602	9.02
321.976	8.65
322.349	7.68
322.723	8.41
323.096	8.93
323.469	8.99
323.843	9.29
324.216	8.82
324.589	9.8
324.962	9.23
325.335	8.97
325.708	9.31
326.081	9.34
326.454	9.41
326.827	9.62
327.2	9.56
327.573	9.75
327.945	9.57
328.318	9.76
328.691	9.81
329.063	9.4
329.436	9.44
329.809	9.33
330.181	9.47
330.553	9.74
330.926	9.93
331.298	9.7
331.671	9.88
332.043	10.01
332.415	10.24
332.787	10.67
333.159	9.77
333.532	10.3
333.904	10.27
334.276	10.26
334.648	10.16
335.02	9.89
335.391	10.06
335.763	10.49
336.135	10.57
336.507	9.99
336.879	10.02
337.25	10.52
337.622	10.65
337.993	11.01
338.365	10.42
338.736	10.82
339.108	10.44
339.479	10.34
339.851	10.96
340.222	10.6
340.593	10.66
340.964	10.69
341.336	10.17
341.707	10.38
342.078	10.31
342.449	11.25
342.82	11.02
343.191	10.46
343.562	11.14
343.933	11.36
344.303	10.96
344.674	11.5
345.045	11.59
345.416	11.14
345.786	10.8
346.157	11.19
346.527	11.09
346.898	11.35
347.268	11.3
347.639	11.43
348.009	11.44
348.38	11.75
348.75	11.73
349.12	11.4
349.49	11.64
349.861	11.68
350.231	11.86
350.601	11.67
350.971	11.79
351.341	11.87
351.711	11.88
352.081	12.03
352.45	12.22
352.82	12.09
353.19	12
353.56	11.98
353.929	12.54
354.299	12.05
354.669	12.09
355.038	12.33
355.408	12.19
355.777	12.04
356.147	12.45
356.516	12.57
356.885	12.5
357.254	12.77
357.624	12.48
357.993	12.36
358.362	12.76
358.731	12.53
359.1	12.75
359.469	12.61
359.838	12.51
360.207	12.71
360.576	12.81
360.945	12.7
361.314	12.77
361.682	12.48
362.051	12.75
362.42	12.83
362.788	12.86
363.157	12.84
363.525	12.72
363.894	12.79
364.262	13.26
364.631	13.7
364.999	12.9
365.367	13.29
365.735	13.06
366.104	13.21
366.472	13.08
366.84	13.39
367.208	13.16
367.576	13.31
367.944	13.59
368.312	13.11
368.68	13.29
369.048	13.75
369.416	13.28
369.783	13.22
370.151	13.6
370.519	13.76
370.886	13.74
371.254	13.76
371.621	13.85
371.989	14.03
372.356	13.87
372.724	13.96
373.091	13.88
373.458	14.16
373.826	14.03
374.193	14.3
374.56	13.99
374.927	14.16
375.294	14.36
375.661	14.77
376.028	14.38
376.395	14.29
376.762	14.49
377.129	14.57
377.496	14.46
377.863	14.51
378.229	14.27
378.596	14.52
378.963	14.49
379.329	14.69
379.696	14.7
380.062	14.86
380.429	14.71
380.795	14.71
381.161	14.87
381.528	14.67
381.894	14.94
382.26	14.83
382.626	14.67
382.993	14.45
383.359	14.71
383.725	15.14
384.091	15.11
384.457	15.17
384.823	15.27
385.188	15.37
385.554	15.3
385.92	15.2
386.286	15.45
386.651	15.19
387.017	15.36
387.383	15.5
387.748	15.37
388.114	15.46
388.479	15.85
388.845	15.61
389.21	15.44
389.575	15.78
389.94	15.77
390.306	15.75
390.671	15.75
391.036	15.7
391.401	16.19
391.766	15.95
392.131	15.63
392.496	15.97
392.861	15.66
393.226	15.91
393.591	15.91
393.956	16
394.32	16.14
394.685	16.19
395.05	16.11
395.414	16.26
395.779	16.22
396.143	16.22
396.508	16.28
396.872	16.48
397.236	16
397.601	16.67
397.965	16.13
398.329	16.56
398.694	16.47
399.058	16.46
399.422	16.4
399.786	16.51
400.15	16.42
400.514	16.53
400.878	16.61
401.242	16.76
401.605	16.82
401.969	17.16
402.333	16.92
402.697	17.17
403.06	17.14
403.424	16.72
403.787	17.12
404.151	16.97
404.514	16.89
404.878	17.1
405.241	16.9
405.604	17.19
405.968	17
406.331	17.33
406.694	16.92
407.057	17.33
407.42	17.19
407.783	17.25
408.146	17.15
408.509	17.16
408.872	17.29
409.235	17.41
409.598	17.6
409.961	17.66
410.323	17.45
410.686	17.49
411.049	17.59
411.411	17.48
411.774	17.4
412.136	17.58
412.499	17.66
412.861	17.69
413.223	17.64
413.586	17.65
413.948	17.79
414.31	18.05
414.672	17.88
415.035	17.95
415.397	18.11
415.759	17.93
416.121	18.17
416.483	18.11
416.845	17.84
417.206	18.15
417.568	18.12
417.93	17.99
418.292	18.13
418.653	18.11
419.015	18.01
419.377	18.14
419.738	17.91
420.1	18.02
420.461	17.89
420.822	18.09
421.184	17.9
421.545	18.09
421.906	18.16
422.267	17.86
422.629	17.87
422.99	18.1
423.351	18.04
423.712	18.16
424.073	18.38
424.434	18.31
424.795	18.15
425.155	18.22
425.516	18.12
425.877	18.19
426.238	18.25
426.598	18.43
426.959	18.43
427.32	18.68
427.68	18.73
428.041	18.8
428.401	18.74
428.761	18.97
429.122	18.87
429.482	18.97
429.842	19.02
430.202	19.02
430.563	19.14
430.923	19.15
431.283	19.15
431.643	19.27
432.003	19.41
432.363	19.27
432.722	19.07
433.082	19.32
433.442	19.48
433.802	19.4
434.161	19.26
434.521	19.39
434.881	19.32
435.24	19.26
435.6	19.59
435.959	19.46
436.319	19.55
436.678	19.66
437.037	19.66
437.396	19.48
437.756	19.57
438.115	19.69
438.474	19.77
438.833	19.99
439.192	19.74
439.551	19.8
439.91	19.93
440.269	19.95
440.628	19.81
440.987	19.64
441.345	19.74
441.704	19.79
442.063	19.8
442.421	19.84
442.78	19.75
443.138	19.92
443.497	20.08
443.855	20.09
444.214	20.17
444.572	20.16
444.93	20.11
445.288	20.25
445.647	20.16
446.005	19.92
446.363	20.07
446.721	20.02
447.079	20.22
447.437	19.95
447.795	20.1
448.153	20.08
448.51	20.21
448.868	20.25
449.226	20.18
449.584	20.24
449.941	20.37
450.299	20.54
450.656	20.58
451.014	20.66
451.371	20.71
451.729	20.81
452.086	20.87
452.443	20.83
452.801	20.83
453.158	20.88
453.515	20.87
453.872	20.9
454.229	20.73
454.586	21
454.943	21.09
455.3	21.19
455.657	21.04
456.014	21.05
456.371	21.3
456.727	21.28
457.084	21.31
457.441	21.15
457.797	21.31
458.154	21.52
458.51	21.31
458.867	21.53
459.223	21.59
459.58	21.39
459.936	21.23
460.292	21.45
460.648	21.21
461.005	21.11
461.361	21.06
461.717	21.16
462.073	21.39
462.429	21.49
462.785	21.61
463.141	21.62
463.496	21.6
463.852	21.91
464.208	21.75
464.564	21.99
464.919	21.81
465.275	22.19
465.631	22.08
465.986	21.99
466.342	22.2
466.697	22.01
467.052	22.11
467.408	21.89
467.763	22.42
468.118	22.14
468.473	22.12
468.829	22.27
469.184	22.49
469.539	22.16
469.894	22.44
470.249	22.58
470.603	22.44
470.958	22.5
471.313	22.28
471.668	22.49
472.023	22.6
472.377	22.5
472.732	22.54
473.086	22.62
473.441	22.71
473.795	22.66
474.15	22.73
474.504	22.57
474.859	22.59
475.213	22.7
475.567	22.6
475.921	23.04
476.275	22.94
476.63	22.9
476.984	23.08
477.338	23.05
477.692	23.01
478.045	22.79
478.399	22.98
478.753	22.78
479.107	22.91
479.461	23.08
479.814	23.04
480.168	22.92
480.521	23.11
480.875	23.19
481.228	23.16
481.582	23.06
481.935	22.98
482.289	23.03
482.642	23.07
482.995	22.99
483.348	22.88
483.701	22.82
484.055	22.73
484.408	22.51
484.761	22.19
485.114	22.12
485.466	22.22
485.819	22.33
486.172	22.57
486.525	22.73
486.878	22.77
487.23	22.88
487.583	22.73
487.936	22.81
488.288	22.64
488.641	22.71
488.993	22.57
489.345	22.75
489.698	22.71
490.05	22.93
490.402	23.06
490.754	23.28
491.107	23.36
491.459	23.47
491.811	23.6
492.163	23.54
492.515	23.15
492.866	22.95
493.218	22.96
493.57	23.23
493.922	23.3
494.274	23.62
494.625	23.74
494.977	23.98
495.328	24.1
495.68	24.25
496.031	24.17
496.383	24.26
496.734	24.42
497.086	24.28
497.437	24.19
497.788	24.09
498.139	23.98
498.49	24.11
498.842	24.2
499.193	24.16
499.544	24.27
499.894	24.37
500.245	24.53
500.596	24.37
500.947	24.53
501.298	24.74
501.648	24.66
501.999	24.73
502.35	24.85
502.7	24.85
503.051	24.96
503.401	24.96
503.752	24.88
504.102	25.04
504.452	25
504.803	24.94
505.153	25.03
505.503	24.86
505.853	25.11
506.203	25.02
506.553	25.08
506.903	25.09
507.253	25.07
507.603	24.95
507.953	25.37
508.303	25.36
508.652	25.27
509.002	25.26
509.352	25.22
509.701	25.24
510.051	25.17
510.4	25.07
510.75	25.21
511.099	25.33
511.449	25.15
511.798	25.26
512.147	25.35
512.496	25.41
512.846	25.29
513.195	25.34
513.544	25.4
513.893	25.18
514.242	25.58
514.591	25.57
514.939	25.67
515.288	25.78
515.637	25.74
515.986	25.68
516.334	25.99
516.683	25.8
517.032	25.77
517.38	25.84
517.729	25.89
518.077	25.92
518.426	25.86
518.774	25.8
519.122	25.67
519.47	25.53
519.819	25.62
520.167	25.52
520.515	25.59
520.863	25.7
521.211	25.75
521.559	26
521.907	25.91
522.255	26.07
522.602	26.27
522.95	26.35
523.298	26.3
523.645	26.28
523.993	26.38
524.341	26.42
524.688	26.32
525.036	26.42
525.383	26.4
525.73	26.56
526.078	26.35
526.425	26.2
526.772	26.04
527.119	25.92
527.466	25.96
527.814	26.11
528.161	26.21
528.508	26.18
528.854	25.93
529.201	25.8
529.548	25.61
529.895	25.58
530.242	25.7
530.588	25.84
530.935	25.95
531.282	26.01
531.628	26.11
531.975	26.24
532.321	26.5
532.667	26.49
533.014	26.59
533.36	26.58
533.706	26.53
534.052	26.4
534.399	26.2
534.745	26.07
535.091	26.21
535.437	26.31
535.783	26.55
536.129	26.7
536.474	26.73
536.82	26.84
537.166	26.92
537.512	27
537.857	26.73
538.203	26.77
538.549	26.92
538.894	27.14
539.239	27.22
539.585	27.13
539.93	27.27
540.276	27.45
540.621	27.47
540.966	27.41
541.311	27.42
541.656	27.2
542.001	27.14
542.346	26.74
542.691	26.77
543.036	26.76
543.381	26.95
543.726	26.94
544.071	27.2
544.415	27.25
544.76	27.28
545.105	27.34
545.449	27.38
545.794	27.54
546.138	27.84
546.483	27.6
546.827	27.73
547.171	27.68
547.516	28
547.86	27.82
548.204	27.78
548.548	27.98
548.892	27.95
549.236	27.93
549.58	28.14
549.924	28.32
550.268	28.46
550.612	28.48
550.956	28.46
551.3	28.66
551.643	28.58
551.987	28.58
552.33	28.58
552.674	28.79
553.017	28.57
553.361	28.6
553.704	28.65
554.048	28.79
554.391	28.3
554.734	28.52
555.077	28.66
555.42	28.72
555.764	28.81
556.107	28.86
556.45	28.93
556.793	29.15
557.135	29.02
557.478	29.21
557.821	29.1
558.164	29.06
558.507	29.01
558.849	28.94
559.192	29.35
559.534	29.15
559.877	29.43
560.219	29.35
560.562	29.44
560.904	29.45
561.246	29.64
561.589	29.61
561.931	29.66
562.273	29.28
562.615	29.4
562.957	29.54
563.299	29.57
563.641	29.56
563.983	29.6
564.325	29.43
564.667	29.56
565.008	29.57
565.35	29.63
565.692	29.82
566.033	29.8
566.375	29.72
566.716	30.03
567.058	29.78
567.399	29.64
567.741	29.52
568.082	29.56
568.423	29.71
568.764	29.9
569.105	29.9
569.447	30.1
569.788	29.97
570.129	30.03
570.47	30.01
570.811	30.1
571.151	30.01
571.492	30.09
571.833	30.13
572.174	30.1
572.514	29.95
572.855	30.04
573.195	29.87
573.536	29.94
573.876	29.95
574.217	30.19
574.557	30.33
574.898	30.21
575.238	30
575.578	30.38
575.918	30.37
576.258	30.24
576.598	30.28
576.938	30.4
577.278	30.17
577.618	30.4
577.958	30.4
578.298	30.6
578.638	30.71
578.977	30.64
579.317	30.8
579.657	30.6
579.996	30.84
580.336	30.68
580.675	30.92
581.014	30.91
581.354	31.03
581.693	31.06
582.032	30.82
582.372	31.25
582.711	31.16
583.05	31.46
583.389	31.41
583.728	31.38
584.067	31.39
584.406	31.54
584.745	31.12
585.083	31.66
585.422	31.25
585.761	31.51
586.1	31.35
586.438	31.55
586.777	31.43
587.115	31.34
587.454	31.55
587.792	31.37
588.13	31.43
588.469	31.92
588.807	31.89
589.145	31.82
589.483	31.77
589.821	31.4
590.159	31.64
590.497	31.63
590.835	31.83
591.173	31.81
591.511	31.78
591.849	31.58
592.187	31.87
592.524	31.47
592.862	31.98
593.2	32.15
593.537	31.98
593.875	32.01
594.212	32.04
594.55	32.17
594.887	32.12
595.224	32.19
595.561	32.08
595.899	32.05
596.236	31.96
596.573	31.97
596.91	31.91
597.247	31.87
597.584	32.06
597.921	32.06
598.258	31.91
598.594	31.9
598.931	31.77
599.268	32.1
599.604	32.32
599.941	32.42
600.277	32.1
600.614	32.22
600.95	32.62
601.287	32.51
601.623	32.9
601.959	32.47
602.296	32.75
602.632	32.7
602.968	32.46
603.304	32.31
603.64	32.75
603.976	32.46
604.312	32.53
604.648	32.55
604.984	32.6
605.319	32.39
605.655	32.37
605.991	32.45
606.326	32.46
606.662	32.44
606.998	32.56
607.333	32.44
607.668	32.58
608.004	32.78
608.339	32.75
608.674	33.12
609.01	33.1
609.345	33.07
609.68	32.98
610.015	33.09
610.35	33.17
610.685	32.92
611.02	32.82
611.355	33.01
611.689	32.88
612.024	32.91
612.359	32.83
612.694	33.36
613.028	33.58
613.363	33.52
613.697	33.21
614.032	33.6
614.366	33.78
614.7	33.5
615.035	33.5
615.369	33.55
615.703	33.74
616.037	33.54
616.371	33.67
616.705	33.63
617.039	33.56
617.373	33.78
617.707	33.76
618.041	33.77
618.375	33.8
618.709	33.89
619.042	33.66
619.376	33.83
619.71	34.02
620.043	33.89
620.377	34.01
620.71	34
621.043	33.92
621.377	34.06
621.71	33.94
622.043	34.31
622.376	33.75
622.709	34.16
623.043	33.61
623.376	34.05
623.709	33.69
624.041	33.77
624.374	33.81
624.707	33.86
625.04	34.09
625.373	34.33
625.705	34.18
626.038	34.67
626.37	34.02
626.703	34.23
627.035	34.31
627.368	34.39
627.7	34.13
628.032	34.35
628.365	34.51
628.697	34.28
629.029	34.26
629.361	34.16
629.693	34.52
630.025	34.5
630.357	34.14
630.689	34.46
631.021	34.43
631.353	34.76
631.684	34.85
632.016	34.63
632.348	35.36
632.679	34.67
633.011	34.77
633.342	34.79
633.674	34.87
634.005	34.8
634.336	34.67
634.668	34.95
634.999	34.76
635.33	34.77
635.661	35.03
635.992	34.51
636.323	34.83
636.654	35.17
636.985	34.84
637.316	34.99
637.647	35.03
637.977	35.06
638.308	34.83
638.639	34.78
638.969	35.04
639.3	34.98
639.63	35.34
639.961	35.1
640.291	35.81
640.622	35.46
640.952	35.37
641.282	34.77
641.612	35.31
641.943	35.5
642.273	35.28
642.603	35.28
642.933	35.65
643.263	35.7
643.592	35.73
643.922	35.78
644.252	35.61
644.582	35.73
644.911	35.36
645.241	35.48
645.571	35.82
645.9	35.64
646.23	35.83
646.559	35.62
646.888	35.71
647.218	35.73
647.547	35.92
647.876	35.49
648.205	35.82
648.534	35.81
648.863	36.11
649.192	35.98
649.521	36.18
649.85	36.2
650.179	35.58
650.508	36.11
650.837	36.16
651.165	36.04
651.494	35.77
651.822	35.8
652.151	36.07
652.479	36.11
652.808	36.06
653.136	35.94
653.465	36.5
653.793	36.19
654.121	36.66
654.449	35.83
654.777	35.62
655.105	36.55
655.433	36.52
655.761	36.03
656.089	36.49
656.417	36.28
656.745	36.51
657.073	36.65
657.4	37.24
657.728	36.63
658.056	36.1
658.383	36.88
658.711	36.29
659.038	36.7
659.365	36.56
659.693	36.26
660.02	36.72
660.347	36.37
660.674	36.39
661.001	36.02
661.329	36.41
661.656	36.75
661.982	36.77
662.309	36.84
662.636	36.78
662.963	36.57
663.29	36.37
663.616	36.51
663.943	37.25
664.27	36.8
664.596	36.81
664.923	37.37
665.249	36.91
665.576	36.48
665.902	37.14
666.228	36.72
666.554	36.69
666.881	37.21
667.207	37.5
667.533	37.39
667.859	37.79
668.185	36.86
668.511	36.55
668.837	37.13
669.162	37.37
669.488	36.64
669.814	38.22
670.139	37.49
670.465	37.87
670.791	37.22
