Data from 0050_forehead_Reflection__3__28.txt Node

Date: Fri Dec 16 14:00:06 CST 2022
User: ToomeyLab
Spectrometer: FLMS14357
Trigger mode: 0
Integration Time (sec): 1.000000E-2
Scans to average: 100
Electric dark correction enabled: true
Nonlinearity correction enabled: false
Boxcar width: 0
XAxis mode: Wavelengths
Number of Pixels in Spectrum: 2048
>>>>>Begin Spectral Data<<<<<
189.047	140.48
189.435	140.48
189.823	140.48
190.211	46.31
190.599	-68.48
190.987	-407.99
191.375	116.96
191.763	93.03
192.151	-5.43
192.538	-2.37
192.926	108.58
193.314	49.21
193.702	-1269.6
194.089	-5.92
194.477	246.5
194.864	34.41
195.252	-63.58
195.639	174.91
196.027	68.88
196.414	125.66
196.801	71.29
197.189	158.42
197.576	-166.23
197.963	119.74
198.351	25.43
198.738	13.03
199.125	21.87
199.512	72.11
199.899	41.03
200.286	-26.89
200.673	36.7
201.06	61.22
201.447	19.37
201.833	13.72
202.22	38.64
202.607	13.4
202.994	77.16
203.38	-14.04
203.767	0.57
204.154	-11.01
204.54	64.23
204.927	38.08
205.313	38.52
205.699	42.56
206.086	23.65
206.472	45.65
206.858	20.87
207.245	46.27
207.631	34.26
208.017	37.44
208.403	22.19
208.789	9.7
209.175	58.72
209.561	45.72
209.947	6.41
210.333	22.06
210.719	41.02
211.105	16.64
211.491	23.65
211.876	36.6
212.262	23.35
212.648	-5.66
213.034	27.33
213.419	32.2
213.805	54.82
214.19	11.96
214.576	22.03
214.961	30.18
215.346	29.44
215.732	24.6
216.117	11.05
216.502	6.02
216.888	20.74
217.273	16.41
217.658	20.45
218.043	27.53
218.428	32.63
218.813	21.28
219.198	7.35
219.583	38.59
219.968	23.12
220.353	19.28
220.738	-4.47
221.122	7.78
221.507	12.38
221.892	24.58
222.276	26.25
222.661	13.86
223.046	20.45
223.43	12.83
223.815	20.02
224.199	16.49
224.583	15.03
224.968	17.4
225.352	15.37
225.736	15.05
226.121	6.33
226.505	12.14
226.889	18.16
227.273	10.18
227.657	6.94
228.041	12.15
228.425	8.87
228.809	8.89
229.193	5.35
229.577	6.76
229.961	7.47
230.344	6.92
230.728	6.69
231.112	6.58
231.495	6.56
231.879	8.11
232.263	7.09
232.646	6.67
233.03	6.78
233.413	7.61
233.797	9.26
234.18	4.64
234.563	7.8
234.946	6.97
235.33	7.59
235.713	7.03
236.096	5.91
236.479	7.35
236.862	9.06
237.245	8.83
237.628	7.46
238.011	8.23
238.394	8.65
238.777	7.38
239.16	5.86
239.543	6.68
239.925	7.11
240.308	7.54
240.691	6.65
241.073	6.06
241.456	6.6
241.838	6.92
242.221	7.06
242.603	6.92
242.986	7.5
243.368	6.18
243.75	6.38
244.133	6.48
244.515	6.47
244.897	6.79
245.279	7.17
245.661	7.09
246.043	7.29
246.425	7.27
246.807	6.55
247.189	5.97
247.571	6.57
247.953	6.63
248.335	6.52
248.717	6.17
249.098	6.28
249.48	6.34
249.862	6.47
250.243	6.45
250.625	6.26
251.006	7.11
251.388	6.87
251.769	7.01
252.151	7.06
252.532	7.37
252.913	6.92
253.295	6.76
253.676	6.8
254.057	6.4
254.438	6.2
254.819	6.98
255.2	7.13
255.581	5.9
255.962	5.85
256.343	7.84
256.724	6.58
257.105	7.16
257.486	7.98
257.867	6.32
258.247	6.68
258.628	7.73
259.009	6.42
259.389	6.85
259.77	6.64
260.15	6.94
260.531	6.33
260.911	6.17
261.292	6.26
261.672	6.22
262.052	6.29
262.432	5.9
262.813	6.66
263.193	6.19
263.573	6.55
263.953	6.3
264.333	6.33
264.713	6.31
265.093	6.01
265.473	8.04
265.853	6.84
266.233	6.16
266.612	6.56
266.992	6.44
267.372	6.5
267.752	6.52
268.131	6.72
268.511	6.33
268.89	6.38
269.27	6.69
269.649	6.79
270.029	6.24
270.408	6.23
270.787	5.83
271.167	6.67
271.546	5.77
271.925	6.13
272.304	6.4
272.683	6.28
273.062	6.07
273.441	6.46
273.82	6.46
274.199	6.09
274.578	6.14
274.957	6.15
275.336	6.04
275.715	7.07
276.093	6.9
276.472	5.87
276.851	6.4
277.229	6.79
277.608	6.2
277.986	6.5
278.365	6.2
278.743	6.02
279.122	5.73
279.5	5.85
279.878	6
280.257	6.4
280.635	5.64
281.013	6.74
281.391	6.04
281.769	6
282.147	6
282.525	6.13
282.903	5.96
283.281	6.13
283.659	6.36
284.037	5.96
284.415	6.51
284.792	6.13
285.17	6.23
285.548	6.35
285.925	6.28
286.303	6.09
286.68	6.48
287.058	6.41
287.435	6.11
287.813	6.14
288.19	6.19
288.567	6.21
288.945	6.12
289.322	6.2
289.699	6.7
290.076	6.73
290.453	6.46
290.83	6.74
291.207	6.74
291.584	6.24
291.961	6.71
292.338	6.93
292.715	6.55
293.092	6.84
293.469	7.33
293.845	7.28
294.222	7.56
294.599	7.5
294.975	7.75
295.352	7.02
295.728	7.44
296.105	7.3
296.481	8.02
296.858	7.86
297.234	7.27
297.61	7.35
297.986	7.3
298.363	7.11
298.739	7.48
299.115	7.15
299.491	7.44
299.867	7.36
300.243	7.85
300.619	7.49
300.995	7.74
301.371	8.24
301.746	7.61
302.122	8.2
302.498	8.63
302.874	8.01
303.249	8.57
303.625	8.35
304	7.97
304.376	7.97
304.751	8.16
305.127	8.44
305.502	8.33
305.878	8.43
306.253	8.5
306.628	8.55
307.003	8.73
307.378	8.22
307.754	9.17
308.129	8.19
308.504	8.56
308.879	8.74
309.254	9.14
309.629	8.65
310.003	9.36
310.378	8.99
310.753	8.84
311.128	9.09
311.502	9.29
311.877	9.36
312.252	9.24
312.626	9.23
313.001	9.15
313.375	9.53
313.75	9.4
314.124	10.16
314.498	9.69
314.873	10.05
315.247	9.83
315.621	10.08
315.995	9.63
316.369	9.79
316.743	10.45
317.117	10.3
317.491	10.11
317.865	9.71
318.239	10.38
318.613	10.24
318.987	10.38
319.361	10.48
319.734	10.84
320.108	11.07
320.482	10.45
320.855	10.89
321.229	11.53
321.602	10.86
321.976	10.89
322.349	10.53
322.723	11.19
323.096	11
323.469	10.78
323.843	11.58
324.216	11.3
324.589	11.76
324.962	11.64
325.335	11.17
325.708	12.03
326.081	11.85
326.454	11.59
326.827	11.72
327.2	11.84
327.573	11.26
327.945	11.58
328.318	12.11
328.691	12.25
329.063	11.6
329.436	11.8
329.809	10.85
330.181	12.03
330.553	12.66
330.926	12.39
331.298	12.44
331.671	12.25
332.043	12.83
332.415	13.01
332.787	13.03
333.159	12.64
333.532	12.28
333.904	12.83
334.276	12.64
334.648	12.62
335.02	12.62
335.391	12.9
335.763	13.08
336.135	12.78
336.507	12.97
336.879	12.84
337.25	13.1
337.622	13.26
337.993	13.19
338.365	13.42
338.736	12.82
339.108	13.12
339.479	13.46
339.851	13.49
340.222	13.51
340.593	13.25
340.964	13.39
341.336	13.1
341.707	13.87
342.078	13.65
342.449	14.09
342.82	13.59
343.191	13.75
343.562	13.62
343.933	13.95
344.303	14.26
344.674	14.1
345.045	14.43
345.416	14.13
345.786	13.87
346.157	14.06
346.527	14.08
346.898	14.15
347.268	14.37
347.639	14.46
348.009	14.43
348.38	14.34
348.75	14.59
349.12	14.78
349.49	14.62
349.861	14.8
350.231	15.15
350.601	14.66
350.971	14.93
351.341	14.88
351.711	15.09
352.081	14.73
352.45	14.87
352.82	15.07
353.19	15.49
353.56	15.26
353.929	15.58
354.299	15.07
354.669	15.67
355.038	15.21
355.408	15.85
355.777	15.41
356.147	15.8
356.516	16.04
356.885	15.74
357.254	16.16
357.624	15.8
357.993	15.39
358.362	16
358.731	15.73
359.1	15.9
359.469	15.74
359.838	15.71
360.207	16.01
360.576	15.99
360.945	15.94
361.314	16.25
361.682	16.16
362.051	16.05
362.42	16.53
362.788	16.36
363.157	16.44
363.525	16.29
363.894	16.13
364.262	16.16
364.631	16.81
364.999	16.36
365.367	17.12
365.735	16.43
366.104	16.85
366.472	16.69
366.84	17.31
367.208	16.76
367.576	16.85
367.944	17.46
368.312	16.82
368.68	17.24
369.048	17.11
369.416	16.84
369.783	17.34
370.151	17.48
370.519	17.74
370.886	17.41
371.254	17.49
371.621	17.45
371.989	17.89
372.356	17.67
372.724	17.99
373.091	17.76
373.458	17.85
373.826	17.87
374.193	18.01
374.56	17.61
374.927	17.92
375.294	18.27
375.661	18.3
376.028	18.02
376.395	18.31
376.762	18.63
377.129	18.54
377.496	18.55
377.863	18.41
378.229	18.28
378.596	18.2
378.963	18.25
379.329	18.33
379.696	18.71
380.062	18.79
380.429	18.81
380.795	18.77
381.161	18.73
381.528	18.38
381.894	18.82
382.26	18.75
382.626	18.82
382.993	19.1
383.359	19.04
383.725	19.25
384.091	19.02
384.457	19.32
384.823	19.41
385.188	19.28
385.554	19.17
385.92	19.77
386.286	19.53
386.651	19.58
387.017	19.33
387.383	19.67
387.748	19.49
388.114	19.47
388.479	19.95
388.845	19.65
389.21	19.74
389.575	19.68
389.94	19.99
390.306	20.18
390.671	19.98
391.036	20.1
391.401	20.34
391.766	20.35
392.131	20.14
392.496	20.04
392.861	20.04
393.226	20.14
393.591	20.28
393.956	20.32
394.32	20.28
394.685	20.64
395.05	20.3
395.414	20.62
395.779	20.5
396.143	20.63
396.508	20.64
396.872	20.77
397.236	20.43
397.601	21.01
397.965	20.68
398.329	21.15
398.694	20.74
399.058	20.68
399.422	20.84
399.786	21.01
400.15	21.11
400.514	20.85
400.878	20.94
401.242	21.07
401.605	21.15
401.969	21.22
402.333	21.35
402.697	21.19
403.06	21.56
403.424	21.33
403.787	21.66
404.151	21.39
404.514	21.51
404.878	21.76
405.241	21.7
405.604	21.62
405.968	21.62
406.331	21.92
406.694	21.61
407.057	21.81
407.42	21.99
407.783	21.79
408.146	22
408.509	21.75
408.872	21.91
409.235	22.12
409.598	22.41
409.961	22.29
410.323	22.22
410.686	22.26
411.049	22.29
411.411	22.18
411.774	22.3
412.136	22.29
412.499	22.72
412.861	22.16
413.223	22.55
413.586	22.51
413.948	22.84
414.31	22.84
414.672	22.68
415.035	22.7
415.397	22.94
415.759	22.94
416.121	22.89
416.483	23.13
416.845	22.97
417.206	22.98
417.568	23.08
417.93	22.97
418.292	22.91
418.653	23.22
419.015	23.11
419.377	23.05
419.738	22.99
420.1	23.13
420.461	22.85
420.822	23.01
421.184	22.87
421.545	23.12
421.906	23.16
422.267	22.92
422.629	22.93
422.99	23.05
423.351	22.98
423.712	23.11
424.073	23.19
424.434	23.26
424.795	23.34
425.155	23.19
425.516	23.24
425.877	23.29
426.238	23.28
426.598	23.34
426.959	23.38
427.32	23.46
427.68	23.57
428.041	23.82
428.401	23.74
428.761	23.57
429.122	23.91
429.482	24.04
429.842	24.22
430.202	24.18
430.563	24.32
430.923	24.23
431.283	24.23
431.643	24.2
432.003	24.41
432.363	24.3
432.722	24.34
433.082	24.4
433.442	24.34
433.802	24.62
434.161	24.35
434.521	24.61
434.881	24.77
435.24	24.6
435.6	24.45
435.959	24.51
436.319	24.56
436.678	24.68
437.037	24.82
437.396	24.68
437.756	25.03
438.115	24.92
438.474	24.96
438.833	25.3
439.192	25.14
439.551	25.16
439.91	25.11
440.269	25.21
440.628	25.02
440.987	24.98
441.345	25.07
441.704	25.14
442.063	25.22
442.421	25.04
442.78	25.23
443.138	24.95
443.497	25.1
443.855	25.33
444.214	25.39
444.572	25.48
444.93	25.54
445.288	25.48
445.647	25.73
446.005	25.72
446.363	25.56
446.721	25.56
447.079	25.42
447.437	25.64
447.795	25.39
448.153	25.34
448.51	25.5
448.868	25.53
449.226	25.6
449.584	25.61
449.941	25.7
450.299	25.9
450.656	25.91
451.014	25.97
451.371	26.09
451.729	26.16
452.086	26.09
452.443	26.28
452.801	26.3
453.158	26.22
453.515	26.35
453.872	26.45
454.229	26.28
454.586	26.51
454.943	26.39
455.3	26.85
455.657	26.45
456.014	26.62
456.371	26.69
456.727	26.58
457.084	26.68
457.441	26.72
457.797	26.89
458.154	26.75
458.51	26.82
458.867	26.77
459.223	26.93
459.58	26.95
459.936	27.1
460.292	26.92
460.648	27.03
461.005	26.79
461.361	26.78
461.717	26.7
462.073	26.67
462.429	26.92
462.785	26.9
463.141	27.13
463.496	27.14
463.852	27.52
464.208	27.48
464.564	27.31
464.919	27.5
465.275	27.64
465.631	27.74
465.986	27.58
466.342	27.63
466.697	27.68
467.052	27.83
467.408	27.64
467.763	27.79
468.118	27.77
468.473	27.89
468.829	27.66
469.184	28.02
469.539	27.84
469.894	27.9
470.249	28.01
470.603	28.07
470.958	28.1
471.313	28.18
471.668	28.11
472.023	28.03
472.377	28.04
472.732	28.2
473.086	28.12
473.441	28.35
473.795	28.59
474.15	28.48
474.504	28.46
474.859	28.36
475.213	28.35
475.567	28.27
475.921	28.54
476.275	28.52
476.63	28.55
476.984	28.69
477.338	28.87
477.692	28.81
478.045	28.48
478.399	28.73
478.753	28.44
479.107	28.69
479.461	28.77
479.814	28.76
480.168	28.67
480.521	28.63
480.875	28.86
481.228	29.01
481.582	28.88
481.935	28.93
482.289	29
482.642	29.1
482.995	28.75
483.348	28.7
483.701	28.73
484.055	28.79
484.408	28.51
484.761	28.37
485.114	28.42
485.466	28.52
485.819	28.17
486.172	27.98
486.525	27.98
486.878	28.14
487.23	28.48
487.583	28.62
487.936	28.73
488.288	28.84
488.641	28.81
488.993	28.65
489.345	28.55
489.698	28.57
490.05	28.56
490.402	28.7
490.754	28.86
491.107	28.86
491.459	29.21
491.811	29.39
492.163	29.4
492.515	29.42
492.866	29.26
493.218	29.04
493.57	29.07
493.922	28.96
494.274	29.11
494.625	29.22
494.977	29.58
495.328	29.8
495.68	30.04
496.031	30.07
496.383	30.11
496.734	30.13
497.086	30.33
497.437	30.26
497.788	30.31
498.139	30.09
498.49	30.17
498.842	29.98
499.193	30.1
499.544	30.22
499.894	30.11
500.245	30.37
500.596	30.41
500.947	30.36
501.298	30.39
501.648	30.55
501.999	30.85
502.35	30.74
502.7	30.92
503.051	30.77
503.401	31.01
503.752	30.92
504.102	30.89
504.452	30.71
504.803	30.86
505.153	31.06
505.503	30.99
505.853	30.97
506.203	30.99
506.553	30.97
506.903	31.21
507.253	31.13
507.603	31.1
507.953	31.09
508.303	31.23
508.652	31.26
509.002	31.41
509.352	31.19
509.701	31.38
510.051	31.07
510.4	31.16
510.75	31.24
511.099	31.16
511.449	31.07
511.798	31.35
512.147	31.33
512.496	31.42
512.846	31.35
513.195	31.37
513.544	31.48
513.893	31.42
514.242	31.48
514.591	31.52
514.939	31.39
515.288	31.82
515.637	31.93
515.986	31.81
516.334	31.82
516.683	31.8
517.032	31.84
517.38	31.96
517.729	32.04
518.077	32.07
518.426	32.09
518.774	32.06
519.122	31.85
519.47	31.9
519.819	31.82
520.167	31.79
520.515	31.69
520.863	31.78
521.211	31.8
521.559	31.94
521.907	32.05
522.255	32.15
522.602	32.21
522.95	32.36
523.298	32.45
523.645	32.29
523.993	32.4
524.341	32.41
524.688	32.38
525.036	32.6
525.383	32.46
525.73	32.59
526.078	32.3
526.425	32.55
526.772	32.32
527.119	32.26
527.466	32.17
527.814	32.38
528.161	32.02
528.508	32.24
528.854	32.14
529.201	32.23
529.548	32.2
529.895	32.19
530.242	32.24
530.588	32.04
530.935	31.72
531.282	31.8
531.628	31.91
531.975	32.21
532.321	32.43
532.667	32.51
533.014	32.66
533.36	32.75
533.706	32.7
534.052	32.83
534.399	32.73
534.745	32.57
535.091	32.64
535.437	32.38
535.783	32.46
536.129	32.56
536.474	32.78
536.82	32.83
537.166	33.11
537.512	33.14
537.857	33.11
538.203	33.19
538.549	32.95
538.894	33.07
539.239	33.09
539.585	33.01
539.93	33.41
540.276	33.58
540.621	33.68
540.966	33.73
541.311	33.64
541.656	33.51
542.001	33.57
542.346	33.46
542.691	33.45
543.036	33.17
543.381	33.12
543.726	32.96
544.071	33.1
544.415	33.34
544.76	33.38
545.105	33.51
545.449	33.63
545.794	33.62
546.138	33.82
546.483	33.62
546.827	33.89
547.171	33.95
547.516	34.14
547.86	33.95
548.204	33.97
548.548	34.14
548.892	34.17
549.236	34.03
549.58	34.13
549.924	34.33
550.268	34.5
550.612	34.33
550.956	34.56
551.3	34.72
551.643	34.62
551.987	34.7
552.33	34.76
552.674	34.8
553.017	34.94
553.361	34.83
553.704	34.92
554.048	34.88
554.391	35.08
554.734	34.88
555.077	34.81
555.42	35.02
555.764	34.98
556.107	35.01
556.45	35.12
556.793	35.2
557.135	35.25
557.478	35.36
557.821	35.18
558.164	35.39
558.507	35.21
558.849	35.43
559.192	35.69
559.534	35.4
559.877	35.48
560.219	35.3
560.562	35.67
560.904	35.65
561.246	35.66
561.589	35.79
561.931	35.67
562.273	35.28
562.615	35.9
562.957	35.71
563.299	35.64
563.641	35.75
563.983	35.72
564.325	35.73
564.667	35.7
565.008	35.91
565.35	36.11
565.692	35.91
566.033	36.12
566.375	35.88
566.716	36
567.058	35.92
567.399	36.04
567.741	36.04
568.082	35.75
568.423	35.86
568.764	35.92
569.105	35.81
569.447	36.18
569.788	36.01
570.129	36.04
570.47	36.25
570.811	36.28
571.151	36.32
571.492	36.34
571.833	36.22
572.174	36.25
572.514	36.08
572.855	36.31
573.195	36.33
573.536	36.29
573.876	36.35
574.217	36.39
574.557	36.25
574.898	36.09
575.238	36.23
575.578	36.4
575.918	36.62
576.258	36.47
576.598	36.51
576.938	36.71
577.278	36.53
577.618	36.74
577.958	36.59
578.298	36.66
578.638	36.62
578.977	36.66
579.317	36.67
579.657	36.86
579.996	36.84
580.336	36.85
580.675	36.65
581.014	37
581.354	37.07
581.693	37.24
582.032	37.22
582.372	37.45
582.711	37.42
583.05	37.46
583.389	37.68
583.728	37.69
584.067	37.55
584.406	37.52
584.745	37.35
585.083	37.8
585.422	37.64
585.761	37.74
586.1	38.02
586.438	37.53
586.777	37.61
587.115	37.88
587.454	37.74
587.792	37.62
588.13	37.73
588.469	38.15
588.807	37.88
589.145	38.21
589.483	38.05
589.821	38.02
590.159	37.95
590.497	37.86
590.835	37.92
591.173	37.81
591.511	37.79
591.849	37.74
592.187	37.97
592.524	38.17
592.862	38.28
593.2	37.97
593.537	38.51
593.875	37.85
594.212	38.23
594.55	38.22
594.887	38.44
595.224	38.22
595.561	38.1
595.899	38.29
596.236	38.53
596.573	37.85
596.91	38.02
597.247	38.17
597.584	38.2
597.921	38.51
598.258	38.38
598.594	38.25
598.931	38.05
599.268	37.9
599.604	38.25
599.941	38.27
600.277	38.24
600.614	38.68
600.95	38.38
601.287	38.71
601.623	38.83
601.959	38.74
602.296	38.67
602.632	38.95
602.968	38.79
603.304	38.71
603.64	38.69
603.976	38.91
604.312	38.54
604.648	38.96
604.984	39.02
605.319	38.83
605.655	38.55
605.991	38.8
606.326	38.72
606.662	38.83
606.998	38.68
607.333	38.37
607.668	38.52
608.004	38.49
608.339	38.91
608.674	38.86
609.01	38.92
609.345	39.01
609.68	39.15
610.015	39.32
610.35	39.61
610.685	39.19
611.02	39.33
611.355	39.2
611.689	39.04
612.024	39.13
612.359	39.05
612.694	39.25
613.028	39.43
613.363	39.72
613.697	39.26
614.032	39.61
614.366	39.59
614.7	39.39
615.035	39.67
615.369	39.57
615.703	39.94
616.037	39.78
616.371	39.89
616.705	40.05
617.039	39.95
617.373	39.77
617.707	39.85
618.041	39.78
618.375	39.68
618.709	40.01
619.042	39.97
619.376	39.73
619.71	40.47
620.043	39.77
620.377	40.31
620.71	40.42
621.043	39.8
621.377	40.72
621.71	40.59
622.043	40.32
622.376	40.07
622.709	40.14
623.043	40.27
623.376	40.52
623.709	40.28
624.041	40.54
624.374	40.39
624.707	39.8
625.04	40.38
625.373	40.21
625.705	40.79
626.038	40.82
626.37	40.42
626.703	40.34
627.035	40.5
627.368	40.47
627.7	40.51
628.032	40.39
628.365	40.55
628.697	40.46
629.029	40.88
629.361	40.37
629.693	40.63
630.025	40.65
630.357	40.36
630.689	40.76
631.021	41.04
631.353	40.62
631.684	40.67
632.016	40.65
632.348	41.29
632.679	40.71
633.011	40.55
633.342	41.07
633.674	41.13
634.005	40.96
634.336	40.76
634.668	41.1
634.999	41.08
635.33	40.91
635.661	41.01
635.992	41.01
636.323	41.26
636.654	41.25
636.985	41.16
637.316	41.1
637.647	40.94
637.977	41.33
638.308	41.07
638.639	41.44
638.969	41.04
639.3	41.2
639.63	41.28
639.961	41.25
640.291	41.81
640.622	41.22
640.952	41.14
641.282	41.17
641.612	40.96
641.943	41.57
642.273	41.3
642.603	41.5
642.933	41.05
643.263	41.75
643.592	41.53
643.922	41.93
644.252	41.8
644.582	41.62
644.911	41.5
645.241	41.48
645.571	41.83
645.9	42.07
646.23	41.62
646.559	41.7
646.888	41.57
647.218	41.68
647.547	42.07
647.876	41.86
648.205	41.72
648.534	42.03
648.863	42.27
649.192	41.93
649.521	41.56
649.85	42.25
650.179	42
650.508	42.28
650.837	41.93
651.165	41.81
651.494	41.52
651.822	41.87
652.151	42.38
652.479	42.25
652.808	41.61
653.136	42
653.465	42.34
653.793	42.25
654.121	42.55
654.449	42.09
654.777	41.81
655.105	42.4
655.433	42.71
655.761	42.19
656.089	42.38
656.417	41.99
656.745	43.07
657.073	42.82
657.4	42.59
657.728	42.53
658.056	42.51
658.383	42.49
658.711	42.65
659.038	42.7
659.365	42.4
659.693	42.6
660.02	43.03
660.347	42.93
660.674	42.45
661.001	43.01
661.329	42.53
661.656	42.79
661.982	42.58
662.309	42.64
662.636	42.41
662.963	42.59
663.29	42.81
663.616	42.57
663.943	43.18
664.27	42.6
664.596	43.23
664.923	43.33
665.249	43.12
665.576	43.07
665.902	43.05
666.228	43.07
666.554	42.62
666.881	43.19
667.207	43.41
667.533	42.77
667.859	42.84
668.185	42.91
668.511	43.02
668.837	43.02
669.162	42.84
