Data from 0050_chest_Reflection__2__17.txt Node

Date: Fri Dec 16 13:56:50 CST 2022
User: ToomeyLab
Spectrometer: FLMS14357
Trigger mode: 0
Integration Time (sec): 1.000000E-2
Scans to average: 100
Electric dark correction enabled: true
Nonlinearity correction enabled: false
Boxcar width: 0
XAxis mode: Wavelengths
Number of Pixels in Spectrum: 2048
>>>>>Begin Spectral Data<<<<<
189.047	70.1
189.435	70.1
189.823	70.1
190.211	70.09
190.599	-61.25
190.987	128.25
191.375	321.81
191.763	71.16
192.151	62.36
192.538	91.89
192.926	0.1
193.314	108.24
193.702	387.84
194.089	-0.42
194.477	-232.77
194.864	-169.32
195.252	-8.93
195.639	136.37
196.027	19.58
196.414	209.85
196.801	276.53
197.189	146.95
197.576	403.15
197.963	-354.34
198.351	30.05
198.738	-35.29
199.125	44.35
199.512	-18.12
199.899	-29.04
200.286	0.43
200.673	37.47
201.06	41.27
201.447	43.87
201.833	14.2
202.22	-3.18
202.607	4.31
202.994	49.59
203.38	18.29
203.767	-14.45
204.154	-32.11
204.54	41.34
204.927	23.3
205.313	33.54
205.699	-47.9
206.086	-8.6
206.472	-19.8
206.858	0.88
207.245	42.1
207.631	-14.29
208.017	26.57
208.403	29.24
208.789	16.03
209.175	19.53
209.561	22.52
209.947	9.71
210.333	36.41
210.719	26.33
211.105	-34.04
211.491	4.12
211.876	1.07
212.262	-11.07
212.648	-24.51
213.034	33.49
213.419	24.13
213.805	-9.32
214.19	19.6
214.576	-6.11
214.961	0.27
215.346	-5.48
215.732	24.5
216.117	-3.71
216.502	-6.79
216.888	-22.33
217.273	17.51
217.658	7.01
218.043	19.28
218.428	12.93
218.813	-23.79
219.198	-23.61
219.583	6.92
219.968	18.54
220.353	15.64
220.738	10.28
221.122	-28.08
221.507	-7.58
221.892	10.65
222.276	10.74
222.661	-4.48
223.046	7.37
223.43	-9.68
223.815	13.29
224.199	0.23
224.583	-5.48
224.968	16.15
225.352	-7.05
225.736	7.96
226.121	5.11
226.505	7.56
226.889	11.15
227.273	4.21
227.657	3.69
228.041	5.88
228.425	4.51
228.809	2.58
229.193	3.32
229.577	3.74
229.961	4.4
230.344	3.33
230.728	2.6
231.112	3.62
231.495	2.94
231.879	3.91
232.263	1.75
232.646	1.4
233.03	1.06
233.413	2.18
233.797	5.39
234.18	1.49
234.563	4.13
234.946	2.45
235.33	5.07
235.713	4.39
236.096	3.12
236.479	4.05
236.862	2.77
237.245	4.34
237.628	3.94
238.011	3.01
238.394	6.2
238.777	3.4
239.16	2.75
239.543	3.7
239.925	3.85
240.308	3.78
240.691	4.74
241.073	4.42
241.456	4.04
241.838	4.28
242.221	3.14
242.603	3.04
242.986	3.93
243.368	3.14
243.75	3
244.133	3.35
244.515	3.5
244.897	2.82
245.279	3.54
245.661	3.69
246.043	4.42
246.425	3.77
246.807	3.52
247.189	3.56
247.571	3.44
247.953	3.21
248.335	3.22
248.717	3.06
249.098	3.14
249.48	2.93
249.862	3.12
250.243	2.87
250.625	3.18
251.006	3.52
251.388	3.48
251.769	3.46
252.151	4.49
252.532	3.63
252.913	3.17
253.295	3.1
253.676	3.69
254.057	3.12
254.438	2.13
254.819	2.91
255.2	3.88
255.581	3.12
255.962	3.84
256.343	4.53
256.724	2.19
257.105	3.36
257.486	3.7
257.867	2.15
258.247	3.14
258.628	2.86
259.009	3.55
259.389	3.58
259.77	3.17
260.15	3.52
260.531	3.19
260.911	3.09
261.292	3.02
261.672	2.99
262.052	3.03
262.432	2.93
262.813	2.92
263.193	2.9
263.573	3.34
263.953	3.06
264.333	3.42
264.713	2.91
265.093	2.3
265.473	3.84
265.853	3.06
266.233	2.67
266.612	3.82
266.992	2.85
267.372	3.86
267.752	2.3
268.131	2.69
268.511	2.89
268.89	3.26
269.27	3.43
269.649	3.47
270.029	3.19
270.408	3.01
270.787	2.64
271.167	3.27
271.546	2.33
271.925	3.7
272.304	3.31
272.683	2.69
273.062	2.96
273.441	3.14
273.82	3.53
274.199	3.4
274.578	2.79
274.957	3.29
275.336	2.89
275.715	3.8
276.093	3.62
276.472	3.37
276.851	2.68
277.229	3.68
277.608	2.94
277.986	3.38
278.365	3.01
278.743	3.55
279.122	2.82
279.5	3.31
279.878	2.1
280.257	3.67
280.635	2.9
281.013	3.23
281.391	2.81
281.769	2.28
282.147	3.23
282.525	2.61
282.903	2.81
283.281	2.76
283.659	2.94
284.037	2.95
284.415	3.29
284.792	2.95
285.17	2.94
285.548	2.97
285.925	2.79
286.303	2.87
286.68	3.01
287.058	2.99
287.435	2.61
287.813	2.77
288.19	3.11
288.567	2.71
288.945	2.96
289.322	3.16
289.699	3
290.076	3.26
290.453	2.83
290.83	3.31
291.207	3.08
291.584	2.75
291.961	3.2
292.338	2.77
292.715	2.89
293.092	3.02
293.469	2.9
293.845	3.59
294.222	2.81
294.599	3.28
294.975	2.91
295.352	2.59
295.728	2.9
296.105	2.96
296.481	3.56
296.858	3
297.234	2.72
297.61	3.34
297.986	3.44
298.363	2.85
298.739	3.1
299.115	2.71
299.491	2.88
299.867	3.09
300.243	2.89
300.619	3.17
300.995	3.19
301.371	2.96
301.746	2.66
302.122	3.23
302.498	3.01
302.874	3.2
303.249	3.13
303.625	2.7
304	2.65
304.376	2.92
304.751	3.2
305.127	3.18
305.502	2.71
305.878	3.49
306.253	3.32
306.628	3.24
307.003	3.15
307.378	2.6
307.754	2.85
308.129	2.89
308.504	2.85
308.879	3.57
309.254	3.29
309.629	2.88
310.003	3.3
310.378	3.43
310.753	3.64
311.128	2.98
311.502	2.91
311.877	3.04
312.252	2.81
312.626	3.11
313.001	2.92
313.375	3
313.75	2.97
314.124	3.46
314.498	2.95
314.873	3.16
315.247	2.5
315.621	3.33
315.995	2.92
316.369	3.41
316.743	3.64
317.117	3.4
317.491	3.09
317.865	2.3
318.239	3.38
318.613	3.12
318.987	3.24
319.361	3.04
319.734	3.14
320.108	3.07
320.482	2.67
320.855	3.34
321.229	3.37
321.602	3.04
321.976	3.46
322.349	2.79
322.723	2.56
323.096	3.5
323.469	2.68
323.843	3.15
324.216	2.68
324.589	3.27
324.962	3.13
325.335	2.91
325.708	3.12
326.081	3.6
326.454	3.26
326.827	3.19
327.2	3.49
327.573	3.21
327.945	2.98
328.318	3.03
328.691	3.16
329.063	3.23
329.436	2.82
329.809	2.98
330.181	2.9
330.553	3.17
330.926	3.07
331.298	2.69
331.671	2.87
332.043	2.85
332.415	3.22
332.787	3.57
333.159	2.83
333.532	3.49
333.904	2.9
334.276	3.4
334.648	3.25
335.02	3.03
335.391	2.99
335.763	2.29
336.135	3.23
336.507	3.13
336.879	2.9
337.25	2.95
337.622	3.11
337.993	3.35
338.365	3.59
338.736	3.55
339.108	3.05
339.479	3.01
339.851	3.53
340.222	3.54
340.593	2.95
340.964	2.98
341.336	2.59
341.707	3.26
342.078	2.74
342.449	3.57
342.82	2.94
343.191	3.16
343.562	2.74
343.933	2.95
344.303	3.01
344.674	3.59
345.045	3.32
345.416	2.98
345.786	2.92
346.157	3.32
346.527	2.92
346.898	3
347.268	3.08
347.639	3.15
348.009	3.26
348.38	2.97
348.75	3.01
349.12	3.25
349.49	3.16
349.861	3.29
350.231	3.53
350.601	2.88
350.971	3.26
351.341	3.15
351.711	2.93
352.081	2.98
352.45	3.4
352.82	3.67
353.19	3.19
353.56	3.07
353.929	3.14
354.299	2.85
354.669	3.38
355.038	3.03
355.408	3.66
355.777	2.83
356.147	3.34
356.516	3.44
356.885	3.01
357.254	3.32
357.624	3.24
357.993	3.21
358.362	3.3
358.731	3.03
359.1	3.4
359.469	3.43
359.838	3.05
360.207	3.27
360.576	3.5
360.945	2.86
361.314	3.39
361.682	2.9
362.051	3.08
362.42	3.38
362.788	3.31
363.157	2.95
363.525	3.17
363.894	2.94
364.262	3.02
364.631	3.7
364.999	2.86
365.367	3.19
365.735	2.88
366.104	2.96
366.472	3.18
366.84	3.17
367.208	2.91
367.576	3.29
367.944	3.63
368.312	3.09
368.68	3.2
369.048	3.44
369.416	3.46
369.783	3.6
370.151	3.45
370.519	2.93
370.886	3.14
371.254	3.23
371.621	3.37
371.989	3.14
372.356	3.35
372.724	3.41
373.091	3.28
373.458	3.13
373.826	3.25
374.193	3.54
374.56	3.04
374.927	3.36
375.294	3.36
375.661	3.19
376.028	3.23
376.395	3.14
376.762	3.58
377.129	3.49
377.496	3.24
377.863	3.24
378.229	3.01
378.596	3.09
378.963	3.21
379.329	3.46
379.696	3.17
380.062	3.54
380.429	3.34
380.795	3.06
381.161	3.37
381.528	2.86
381.894	3.42
382.26	3.21
382.626	3.32
382.993	2.98
383.359	3.2
383.725	3.47
384.091	3.33
384.457	3.49
384.823	3.28
385.188	3.51
385.554	3.28
385.92	3.5
386.286	3.3
386.651	3.32
387.017	3.38
387.383	3.25
387.748	3.14
388.114	3.43
388.479	3.48
388.845	3.41
389.21	3.4
389.575	3.54
389.94	3.51
390.306	3.35
390.671	3.31
391.036	3.41
391.401	3.56
391.766	3.25
392.131	3.27
392.496	3.5
392.861	3.32
393.226	3.31
393.591	3.5
393.956	3.42
394.32	3.29
394.685	3.46
395.05	3.41
395.414	3.43
395.779	3.51
396.143	3.29
396.508	3.37
396.872	3.44
397.236	3.12
397.601	3.38
397.965	3.32
398.329	3.54
398.694	3.35
399.058	3.29
399.422	3.51
399.786	3.51
400.15	3.37
400.514	3.43
400.878	3.43
401.242	3.45
401.605	3.51
401.969	3.25
402.333	3.61
402.697	3.63
403.06	3.44
403.424	3.16
403.787	3.5
404.151	3.29
404.514	3.37
404.878	3.38
405.241	3.38
405.604	3.53
405.968	3.35
406.331	3.53
406.694	3.44
407.057	3.77
407.42	3.49
407.783	3.38
408.146	3.49
408.509	3.24
408.872	3.42
409.235	3.43
409.598	3.46
409.961	3.42
410.323	3.4
410.686	3.49
411.049	3.24
411.411	3.48
411.774	3.4
412.136	3.42
412.499	3.31
412.861	3.23
413.223	3.61
413.586	3.48
413.948	3.52
414.31	3.59
414.672	3.39
415.035	3.53
415.397	3.37
415.759	3.48
416.121	3.56
416.483	3.64
416.845	3.6
417.206	3.48
417.568	3.49
417.93	3.49
418.292	3.5
418.653	3.56
419.015	3.5
419.377	3.39
419.738	3.43
420.1	3.47
420.461	3.22
420.822	3.57
421.184	3.41
421.545	3.48
421.906	3.58
422.267	3.4
422.629	3.41
422.99	3.38
423.351	3.38
423.712	3.46
424.073	3.55
424.434	3.37
424.795	3.34
425.155	3.44
425.516	3.37
425.877	3.48
426.238	3.3
426.598	3.42
426.959	3.42
427.32	3.62
427.68	3.58
428.041	3.51
428.401	3.5
428.761	3.46
429.122	3.45
429.482	3.57
429.842	3.55
430.202	3.56
430.563	3.54
430.923	3.78
431.283	3.6
431.643	3.68
432.003	3.7
432.363	3.69
432.722	3.52
433.082	3.53
433.442	3.53
433.802	3.58
434.161	3.57
434.521	3.6
434.881	3.62
435.24	3.46
435.6	3.6
435.959	3.48
436.319	3.55
436.678	3.62
437.037	3.59
437.396	3.75
437.756	3.61
438.115	3.58
438.474	3.65
438.833	3.79
439.192	3.62
439.551	3.65
439.91	3.72
440.269	3.72
440.628	3.67
440.987	3.48
441.345	3.66
441.704	3.54
442.063	3.57
442.421	3.68
442.78	3.54
443.138	3.65
443.497	3.54
443.855	3.62
444.214	3.7
444.572	3.55
444.93	3.8
445.288	3.68
445.647	3.69
446.005	3.61
446.363	3.59
446.721	3.49
447.079	3.71
447.437	3.56
447.795	3.52
448.153	3.56
448.51	3.51
448.868	3.76
449.226	3.63
449.584	3.68
449.941	3.78
450.299	3.63
450.656	3.85
451.014	3.62
451.371	3.74
451.729	3.64
452.086	3.56
452.443	3.59
452.801	3.81
453.158	3.75
453.515	3.69
453.872	3.79
454.229	3.73
454.586	3.65
454.943	3.74
455.3	3.96
455.657	3.66
456.014	3.81
456.371	3.81
456.727	3.63
457.084	3.67
457.441	3.78
457.797	3.82
458.154	3.9
458.51	3.79
458.867	3.7
459.223	3.86
459.58	3.73
459.936	3.7
460.292	3.8
460.648	3.68
461.005	3.62
461.361	3.63
461.717	3.66
462.073	3.74
462.429	3.78
462.785	3.79
463.141	3.79
463.496	3.77
463.852	3.89
464.208	3.82
464.564	3.92
464.919	3.81
465.275	3.82
465.631	3.83
465.986	3.85
466.342	3.9
466.697	3.89
467.052	3.84
467.408	3.86
467.763	3.67
468.118	3.86
468.473	3.91
468.829	3.69
469.184	3.95
469.539	3.78
469.894	3.95
470.249	3.85
470.603	3.96
470.958	3.96
471.313	3.88
471.668	4.12
472.023	4.11
472.377	3.89
472.732	3.84
473.086	3.87
473.441	4.04
473.795	3.91
474.15	3.8
474.504	3.97
474.859	3.91
475.213	3.91
475.567	3.92
475.921	3.97
476.275	3.89
476.63	4.02
476.984	3.87
477.338	4.09
477.692	3.82
478.045	3.98
478.399	4.02
478.753	3.88
479.107	3.98
479.461	3.98
479.814	3.81
480.168	4.03
480.521	3.91
480.875	4.19
481.228	4.07
481.582	3.85
481.935	3.77
482.289	3.84
482.642	4.04
482.995	3.9
483.348	3.82
483.701	3.9
484.055	3.84
484.408	3.84
484.761	3.7
485.114	3.63
485.466	3.68
485.819	3.75
486.172	3.84
486.525	3.87
486.878	3.88
487.23	3.93
487.583	3.87
487.936	3.85
488.288	3.85
488.641	3.79
488.993	3.71
489.345	3.77
489.698	3.84
490.05	3.82
490.402	3.95
490.754	4.02
491.107	3.98
491.459	4.07
491.811	4
492.163	4.03
492.515	3.95
492.866	3.81
493.218	3.84
493.57	3.98
493.922	3.95
494.274	4.02
494.625	4.05
494.977	4.08
495.328	4.17
495.68	4.18
496.031	4.21
496.383	4.04
496.734	4.18
497.086	4.1
497.437	4.13
497.788	3.99
498.139	4.03
498.49	4.17
498.842	4.11
499.193	4.15
499.544	4.2
499.894	4.15
500.245	4.22
500.596	4.03
500.947	4.21
501.298	4.17
501.648	4.13
501.999	4.25
502.35	4.38
502.7	4.28
503.051	4.25
503.401	4.28
503.752	4.23
504.102	4.27
504.452	4.25
504.803	4.2
505.153	4.19
505.503	4.22
505.853	4.16
506.203	4.31
506.553	4.25
506.903	4.15
507.253	4.4
507.603	4.26
507.953	4.4
508.303	4.27
508.652	4.32
509.002	4.29
509.352	4.22
509.701	4.3
510.051	4.34
510.4	4.28
510.75	4.33
511.099	4.22
511.449	4.31
511.798	4.42
512.147	4.35
512.496	4.45
512.846	4.34
513.195	4.34
513.544	4.38
513.893	4.22
514.242	4.44
514.591	4.46
514.939	4.43
515.288	4.47
515.637	4.49
515.986	4.51
516.334	4.54
516.683	4.57
517.032	4.36
517.38	4.39
517.729	4.5
518.077	4.48
518.426	4.45
518.774	4.46
519.122	4.4
519.47	4.41
519.819	4.41
520.167	4.44
520.515	4.46
520.863	4.48
521.211	4.39
521.559	4.49
521.907	4.5
522.255	4.64
522.602	4.53
522.95	4.63
523.298	4.55
523.645	4.62
523.993	4.75
524.341	4.65
524.688	4.55
525.036	4.69
525.383	4.79
525.73	4.65
526.078	4.69
526.425	4.66
526.772	4.44
527.119	4.57
527.466	4.55
527.814	4.61
528.161	4.64
528.508	4.62
528.854	4.52
529.201	4.5
529.548	4.44
529.895	4.36
530.242	4.38
530.588	4.51
530.935	4.57
531.282	4.62
531.628	4.72
531.975	4.68
532.321	4.67
532.667	4.72
533.014	4.78
533.36	4.7
533.706	4.75
534.052	4.71
534.399	4.64
534.745	4.57
535.091	4.65
535.437	4.74
535.783	4.84
536.129	4.94
536.474	4.84
536.82	4.86
537.166	4.83
537.512	4.85
537.857	4.84
538.203	4.86
538.549	4.94
538.894	4.85
539.239	5
539.585	5.06
539.93	4.94
540.276	5
540.621	5.04
540.966	4.97
541.311	4.92
541.656	4.9
542.001	5.03
542.346	4.86
542.691	4.83
543.036	4.86
543.381	4.91
543.726	5.04
544.071	5.02
544.415	5.03
544.76	4.98
545.105	5.08
545.449	5.13
545.794	5.12
546.138	5.26
546.483	5.11
546.827	5.23
547.171	5.09
547.516	5.3
547.86	5.07
548.204	5.13
548.548	5.31
548.892	5.25
549.236	5.28
549.58	5.34
549.924	5.31
550.268	5.54
550.612	5.44
550.956	5.28
551.3	5.46
551.643	5.43
551.987	5.26
552.33	5.43
552.674	5.58
553.017	5.39
553.361	5.44
553.704	5.27
554.048	5.5
554.391	5.55
554.734	5.53
555.077	5.6
555.42	5.46
555.764	5.56
556.107	5.71
556.45	5.62
556.793	5.77
557.135	5.69
557.478	5.8
557.821	5.59
558.164	5.73
558.507	5.68
558.849	5.79
559.192	5.93
559.534	5.68
559.877	5.96
560.219	5.96
560.562	6.01
560.904	5.92
561.246	6
561.589	5.88
561.931	5.98
562.273	6.03
562.615	6.05
562.957	6.04
563.299	6.04
563.641	5.97
563.983	5.99
564.325	5.84
564.667	5.99
565.008	6.02
565.35	6.14
565.692	6.29
566.033	5.9
566.375	6.05
566.716	6.09
567.058	6.28
567.399	6.15
567.741	6.02
568.082	6.19
568.423	6.2
568.764	6.24
569.105	6.38
569.447	6.23
569.788	6.22
570.129	6.18
570.47	6.41
570.811	6.39
571.151	6.35
571.492	6.45
571.833	6.45
572.174	6.29
572.514	6.26
572.855	6.35
573.195	6.25
573.536	6.46
573.876	6.47
574.217	6.5
574.557	6.65
574.898	6.37
575.238	6.52
575.578	6.6
575.918	6.56
576.258	6.67
576.598	6.67
576.938	6.75
577.278	6.69
577.618	6.67
577.958	6.75
578.298	6.8
578.638	6.86
578.977	6.9
579.317	7.07
579.657	6.87
579.996	6.89
580.336	6.82
580.675	7.01
581.014	6.99
581.354	7.14
581.693	6.93
582.032	6.84
582.372	7.2
582.711	6.89
583.05	7.26
583.389	7.17
583.728	7.33
584.067	7.16
584.406	7.3
584.745	7.22
585.083	7.43
585.422	7.27
585.761	7.39
586.1	7.5
586.438	7.43
586.777	7.25
587.115	7.45
587.454	7.33
587.792	7.13
588.13	7.71
588.469	7.74
588.807	7.67
589.145	7.55
589.483	7.4
589.821	7.54
590.159	7.55
590.497	7.46
590.835	7.77
591.173	7.62
591.511	7.83
591.849	7.71
592.187	7.68
592.524	7.66
592.862	7.77
593.2	7.75
593.537	7.79
593.875	7.81
594.212	7.88
594.55	7.78
594.887	7.97
595.224	8.03
595.561	7.81
595.899	7.85
596.236	7.98
596.573	7.84
596.91	8.09
597.247	7.84
597.584	8.05
597.921	7.96
598.258	7.93
598.594	7.89
598.931	8.03
599.268	7.95
599.604	8.32
599.941	8.28
600.277	8.21
600.614	8.37
600.95	8.37
601.287	8.38
601.623	8.61
601.959	8.37
602.296	8.48
602.632	8.65
602.968	8.56
603.304	8.41
603.64	8.39
603.976	8.57
604.312	8.65
604.648	8.65
604.984	8.88
605.319	8.49
605.655	8.51
605.991	8.66
606.326	8.44
606.662	8.46
606.998	8.83
607.333	8.64
607.668	8.6
608.004	8.58
608.339	8.94
608.674	8.73
609.01	8.97
609.345	8.97
609.68	8.88
610.015	8.83
610.35	8.99
610.685	8.73
611.02	9.01
611.355	8.91
611.689	8.97
612.024	9.02
612.359	9.05
612.694	9.02
613.028	9.36
613.363	8.98
613.697	9.37
614.032	9.33
614.366	9.19
614.7	9.37
615.035	9.19
615.369	9.33
615.703	9.88
616.037	9.23
616.371	9.67
616.705	9.59
617.039	9.61
617.373	9.32
617.707	9.39
618.041	9.71
618.375	9.3
618.709	9.49
619.042	9.57
619.376	9.79
619.71	9.72
620.043	9.65
620.377	10.02
620.71	9.9
621.043	9.9
621.377	9.81
621.71	9.92
622.043	9.97
622.376	9.96
622.709	10.07
623.043	9.92
623.376	9.98
623.709	10.29
624.041	10
624.374	10.26
624.707	9.91
625.04	10.34
625.373	9.9
625.705	10.1
626.038	10.1
626.37	10.33
626.703	10.28
627.035	10.31
627.368	10.63
627.7	10.32
628.032	10.25
628.365	10.41
628.697	10.09
629.029	10.65
629.361	10.46
629.693	10.73
630.025	10.7
630.357	10.76
630.689	10.88
631.021	11.02
631.353	10.77
631.684	10.68
632.016	10.77
632.348	10.75
632.679	10.57
633.011	10.79
633.342	10.59
633.674	10.97
634.005	11.1
634.336	10.82
634.668	11.02
634.999	11.17
635.33	11
635.661	10.98
635.992	10.81
636.323	11.11
636.654	11.24
636.985	11.04
637.316	11.27
637.647	11.28
637.977	11.09
638.308	11.25
638.639	11.62
638.969	11.1
639.3	11.5
639.63	11.19
639.961	11.72
640.291	11.4
640.622	11.83
640.952	11.74
641.282	10.95
641.612	11.52
641.943	11.65
642.273	11.95
642.603	11.91
642.933	11.71
643.263	12.17
643.592	11.87
643.922	12.02
644.252	11.91
644.582	12.04
644.911	11.62
645.241	11.69
645.571	11.98
645.9	12.46
646.23	11.74
646.559	12.22
646.888	12.04
647.218	11.87
647.547	11.93
647.876	12.12
648.205	11.99
648.534	11.82
648.863	12.74
649.192	12.66
649.521	11.82
649.85	12.63
650.179	12
650.508	12.4
650.837	12.45
651.165	12.77
651.494	12.18
651.822	12.39
652.151	12.88
652.479	12.77
652.808	12.25
653.136	12.54
653.465	13.06
653.793	13.12
654.121	13.15
654.449	12.54
654.777	12.9
655.105	13.27
655.433	13.11
655.761	12.95
656.089	12.94
656.417	13.06
656.745	13.44
657.073	13.47
657.4	13.34
657.728	13.21
658.056	12.94
658.383	13.13
658.711	13.02
659.038	13.57
659.365	13.15
659.693	13.03
660.02	13.11
660.347	13.2
660.674	13.12
661.001	12.94
661.329	13.64
661.656	13.28
661.982	13.69
662.309	13.43
662.636	13.48
662.963	13.58
663.29	13.54
663.616	13.65
663.943	14.08
664.27	13.59
664.596	13.19
664.923	13.95
665.249	13.57
665.576	13.23
665.902	13.71
666.228	13.62
666.554	13.74
666.881	13.72
667.207	14.04
667.533	14.17
667.859	13.95
668.185	14.24
668.511	14.14
668.837	14.16
669.162	13.7
669.488	13.88
669.814	14.55
670.139	14.82
670.465	14.68
670.791	14.29
671.116	14.21
671.442	14.41
671.767	14.18
672.092	14.38
672.418	14.35
672.743	14.14
673.068	14.6
673.393	14.43
673.718	14.68
674.043	14.87
674.368	15.06
674.693	14.78
675.018	15.08
675.343	15.24
675.667	14.88
675.992	14.74
676.317	15.11
676.641	15.21
676.966	15.38
677.29	14.94
677.615	15.13
677.939	14.74
678.264	14.98
678.588	15.31
678.912	15.02
679.236	15.1
679.56	14.79
679.885	15.35
680.209	15.09
680.532	15.65
680.856	15.9
681.18	15.42
681.504	14.79
681.828	14.92
682.152	15.36
682.475	15.6
682.799	15.47
683.122	14.88
683.446	15.39
683.769	15.81
684.093	15.89
684.416	15.04
684.739	16.25
685.062	15.36
685.386	15.84
685.709	16.01
686.032	15.15
686.355	15.25
686.678	15.79
687.001	15.54
687.324	15.25
687.646	15.62
687.969	15.7
688.292	16.58
