Data from 0050_crown_Reflection__1__21.txt Node

Date: Fri Dec 16 13:58:25 CST 2022
User: ToomeyLab
Spectrometer: FLMS14357
Trigger mode: 0
Integration Time (sec): 1.000000E-2
Scans to average: 100
Electric dark correction enabled: true
Nonlinearity correction enabled: false
Boxcar width: 0
XAxis mode: Wavelengths
Number of Pixels in Spectrum: 2048
>>>>>Begin Spectral Data<<<<<
189.047	33.77
189.435	33.77
189.823	33.77
190.211	105.22
190.599	36.79
190.987	171.87
191.375	-297.35
191.763	195.7
192.151	114.33
192.538	-0.26
192.926	163.92
193.314	51.25
193.702	1224.92
194.089	27.32
194.477	-24.27
194.864	7.3
195.252	-19.54
195.639	111.15
196.027	202.05
196.414	65.08
196.801	194.32
197.189	73.89
197.576	127.99
197.963	-203.8
198.351	-9.41
198.738	-13.85
199.125	25.7
199.512	-5.8
199.899	-35.98
200.286	-14.31
200.673	6.01
201.06	-5.18
201.447	32.52
201.833	16.79
202.22	18.17
202.607	-51.53
202.994	26.71
203.38	-12.74
203.767	-24.38
204.154	4.5
204.54	7.58
204.927	5
205.313	12.1
205.699	0.23
206.086	14.74
206.472	-5.36
206.858	16.26
207.245	9.5
207.631	2.09
208.017	17.27
208.403	10.14
208.789	-10.77
209.175	22.25
209.561	7.33
209.947	-40.24
210.333	-13.75
210.719	-21.45
211.105	-63.55
211.491	-17.64
211.876	22.42
212.262	-37
212.648	-39.01
213.034	3.47
213.419	17.49
213.805	-2.88
214.19	19.73
214.576	19.24
214.961	-8.04
215.346	-22.51
215.732	-1.34
216.117	6.52
216.502	-22.43
216.888	-3.47
217.273	9.24
217.658	34.97
218.043	8.31
218.428	-1.08
218.813	-7.46
219.198	-22.3
219.583	4.43
219.968	4.57
220.353	19.72
220.738	15.37
221.122	0.42
221.507	-4.76
221.892	1.21
222.276	13.63
222.661	0.39
223.046	7.62
223.43	-3.49
223.815	9.58
224.199	7.95
224.583	5.09
224.968	3.4
225.352	-4.09
225.736	8.41
226.121	1.47
226.505	-2.25
226.889	9.68
227.273	5.93
227.657	7.06
228.041	4.3
228.425	4.93
228.809	4.54
229.193	4.1
229.577	5.63
229.961	6.14
230.344	5.83
230.728	6.05
231.112	5.48
231.495	4.6
231.879	4.81
232.263	4.88
232.646	5.49
233.03	3.46
233.413	2.82
233.797	6.76
234.18	3.78
234.563	6.37
234.946	5.03
235.33	6.31
235.713	4.43
236.096	5.04
236.479	5.37
236.862	6.48
237.245	5.96
237.628	6.18
238.011	5.27
238.394	6.98
238.777	5.5
239.16	3.27
239.543	4.37
239.925	4.08
240.308	3.97
240.691	3.55
241.073	4.68
241.456	5.34
241.838	5.74
242.221	4.75
242.603	4.89
242.986	5.11
243.368	4.95
243.75	4.67
244.133	4.84
244.515	5.04
244.897	4.57
245.279	5.08
245.661	5.2
246.043	4.35
246.425	3.94
246.807	4.84
247.189	4.45
247.571	5.11
247.953	4.84
248.335	4.93
248.717	4.8
249.098	4.75
249.48	4.7
249.862	5.07
250.243	4.99
250.625	4.43
251.006	4.89
251.388	5.81
251.769	4.07
252.151	4.6
252.532	4.62
252.913	4.54
253.295	4.46
253.676	4.8
254.057	4.34
254.438	4.45
254.819	4.85
255.2	4.64
255.581	4.91
255.962	4.24
256.343	4.78
256.724	4.49
257.105	4.87
257.486	5.01
257.867	3.49
258.247	4.27
258.628	5
259.009	4.07
259.389	4.53
259.77	4.11
260.15	4.79
260.531	4.29
260.911	4.43
261.292	4.44
261.672	4.15
262.052	4.3
262.432	4.13
262.813	4.58
263.193	3.9
263.573	4.61
263.953	3.98
264.333	4.71
264.713	3.88
265.093	3.92
265.473	4.02
265.853	3.98
266.233	4.13
266.612	3.75
266.992	4.46
267.372	4.14
267.752	4.03
268.131	4.06
268.511	4.35
268.89	3.95
269.27	4.18
269.649	4.06
270.029	3.88
270.408	4.01
270.787	4.15
271.167	4.18
271.546	3.78
271.925	3.65
272.304	4.57
272.683	3.9
273.062	4.44
273.441	4.13
273.82	4.2
274.199	4.07
274.578	4.19
274.957	4.51
275.336	4
275.715	4.02
276.093	4.59
276.472	4.27
276.851	4.18
277.229	4.69
277.608	3.89
277.986	4.03
278.365	3.43
278.743	4.05
279.122	3.4
279.5	3.89
279.878	3.75
280.257	4.4
280.635	4.02
281.013	3.95
281.391	3.89
281.769	4
282.147	4.13
282.525	3.86
282.903	4.45
283.281	3.86
283.659	3.84
284.037	3.98
284.415	3.97
284.792	3.86
285.17	3.65
285.548	3.87
285.925	3.37
286.303	3.62
286.68	4.54
287.058	3.75
287.435	3.57
287.813	4
288.19	4.23
288.567	3.74
288.945	3.65
289.322	3.86
289.699	3.65
290.076	4.07
290.453	3.35
290.83	3.78
291.207	3.98
291.584	3.58
291.961	4.07
292.338	3.69
292.715	3.79
293.092	3.67
293.469	4.08
293.845	3.79
294.222	3.96
294.599	3.98
294.975	3.88
295.352	3.23
295.728	3.75
296.105	3.48
296.481	3.74
296.858	3.85
297.234	3.55
297.61	3.82
297.986	3.79
298.363	3.21
298.739	3.92
299.115	3.31
299.491	3.68
299.867	3.63
300.243	3.58
300.619	3.46
300.995	3.72
301.371	3.66
301.746	3.89
302.122	3.86
302.498	3.22
302.874	3.72
303.249	3.55
303.625	3.6
304	3.58
304.376	3.43
304.751	3.58
305.127	3.79
305.502	3.69
305.878	3.67
306.253	3.44
306.628	3.58
307.003	3.75
307.378	3.48
307.754	3.6
308.129	2.89
308.504	3.34
308.879	3.52
309.254	3.63
309.629	2.83
310.003	4.19
310.378	3.82
310.753	3.44
311.128	3.41
311.502	3.27
311.877	3.16
312.252	3.66
312.626	3.28
313.001	3.53
313.375	3.65
313.75	3.28
314.124	3.85
314.498	3.62
314.873	3.63
315.247	3.24
315.621	3.84
315.995	3.4
316.369	3.18
316.743	3.63
317.117	3.46
317.491	3.38
317.865	3.11
318.239	3.67
318.613	3.06
318.987	3.34
319.361	3.39
319.734	3.49
320.108	3.31
320.482	3.4
320.855	3.15
321.229	3.78
321.602	3.38
321.976	3.48
322.349	3.28
322.723	3.19
323.096	3.1
323.469	2.54
323.843	3.42
324.216	3.15
324.589	3.14
324.962	3.39
325.335	3.54
325.708	3.72
326.081	4.14
326.454	3.38
326.827	3.69
327.2	3.56
327.573	3.62
327.945	3.58
328.318	3.15
328.691	3.64
329.063	3.35
329.436	2.98
329.809	3.15
330.181	3.44
330.553	3.6
330.926	3.44
331.298	3.34
331.671	3.29
332.043	3.45
332.415	3.57
332.787	3.82
333.159	3.43
333.532	3.23
333.904	3.76
334.276	3.13
334.648	3.45
335.02	3.6
335.391	3.39
335.763	3.29
336.135	3.74
336.507	3.28
336.879	3.1
337.25	3.57
337.622	3.41
337.993	3.66
338.365	3.45
338.736	3.58
339.108	3.23
339.479	3.26
339.851	4
340.222	3.59
340.593	3.36
340.964	3.11
341.336	3.08
341.707	3
342.078	2.83
342.449	3.9
342.82	3.49
343.191	3.11
343.562	3.24
343.933	3.3
344.303	3.62
344.674	3.56
345.045	3.52
345.416	3.75
345.786	3.08
346.157	3.4
346.527	3.3
346.898	3.28
347.268	3.17
347.639	3.34
348.009	3.53
348.38	3.09
348.75	3.39
349.12	3.67
349.49	3.22
349.861	3.92
350.231	3.85
350.601	3.54
350.971	3.28
351.341	3.42
351.711	3.13
352.081	3.68
352.45	3.74
352.82	3.62
353.19	3.7
353.56	3.48
353.929	3.42
354.299	3.45
354.669	3.74
355.038	3.48
355.408	3.77
355.777	3.56
356.147	3.62
356.516	4.03
356.885	3.26
357.254	3.51
357.624	3.57
357.993	3.48
358.362	3.35
358.731	3.27
359.1	3.58
359.469	3.58
359.838	3.52
360.207	3.32
360.576	3.65
360.945	3.46
361.314	3.88
361.682	3.32
362.051	3.41
362.42	3.63
362.788	3.81
363.157	3.57
363.525	3.58
363.894	3.39
364.262	3.5
364.631	4.09
364.999	3.2
365.367	3.86
365.735	3.4
366.104	3.52
366.472	3.63
366.84	3.65
367.208	3.53
367.576	3.49
367.944	3.77
368.312	3.37
368.68	3.84
369.048	3.58
369.416	3.39
369.783	3.74
370.151	3.77
370.519	3.54
370.886	3.69
371.254	3.72
371.621	3.81
371.989	4
372.356	3.61
372.724	3.57
373.091	3.44
373.458	3.69
373.826	3.77
374.193	4.16
374.56	3.66
374.927	3.46
375.294	3.97
375.661	3.87
376.028	3.96
376.395	3.7
376.762	3.85
377.129	3.92
377.496	3.46
377.863	3.91
378.229	3.68
378.596	3.65
378.963	3.66
379.329	3.76
379.696	3.73
380.062	3.94
380.429	3.65
380.795	3.57
381.161	3.6
381.528	3.47
381.894	3.95
382.26	3.56
382.626	3.67
382.993	3.64
383.359	3.7
383.725	3.81
384.091	3.62
384.457	3.66
384.823	3.73
385.188	3.84
385.554	3.66
385.92	3.91
386.286	3.89
386.651	3.75
387.017	3.99
387.383	3.67
387.748	3.91
388.114	3.97
388.479	3.93
388.845	4.02
389.21	4.01
389.575	3.92
389.94	3.8
390.306	3.74
390.671	3.83
391.036	3.95
391.401	4.09
391.766	3.84
392.131	3.64
392.496	3.81
392.861	3.55
393.226	3.88
393.591	3.97
393.956	3.82
394.32	3.7
394.685	3.98
395.05	3.81
395.414	4.06
395.779	3.83
396.143	3.88
396.508	4.26
396.872	4.02
397.236	3.52
397.601	4.02
397.965	3.63
398.329	4.08
398.694	3.78
399.058	3.84
399.422	3.89
399.786	3.82
400.15	3.84
400.514	3.71
400.878	3.96
401.242	3.96
401.605	4.03
401.969	3.8
402.333	3.89
402.697	4.23
403.06	4.1
403.424	4.08
403.787	4.07
404.151	4.11
404.514	4.03
404.878	4.01
405.241	4.23
405.604	4.06
405.968	4.01
406.331	3.91
406.694	3.94
407.057	4.08
407.42	4.03
407.783	4.07
408.146	3.83
408.509	4
408.872	3.78
409.235	3.98
409.598	4.07
409.961	4.16
410.323	4.17
410.686	3.96
411.049	3.89
411.411	4.08
411.774	4.05
412.136	4.07
412.499	4.11
412.861	3.81
413.223	4.1
413.586	3.96
413.948	4.19
414.31	4.23
414.672	3.98
415.035	4.03
415.397	3.76
415.759	3.8
416.121	4.29
416.483	4.17
416.845	3.99
417.206	4.09
417.568	4.19
417.93	4
418.292	4.13
418.653	4.1
419.015	4
419.377	4.13
419.738	3.92
420.1	3.9
420.461	3.95
420.822	4
421.184	4
421.545	3.97
421.906	3.98
422.267	3.81
422.629	3.89
422.99	3.94
423.351	4.01
423.712	3.98
424.073	4.03
424.434	3.84
424.795	3.92
425.155	3.94
425.516	3.93
425.877	3.94
426.238	3.89
426.598	4.05
426.959	3.88
427.32	4.07
427.68	4.02
428.041	4.08
428.401	4.02
428.761	3.93
429.122	3.93
429.482	3.81
429.842	4.09
430.202	3.98
430.563	4.07
430.923	3.9
431.283	4.06
431.643	4.07
432.003	3.96
432.363	4.17
432.722	4.06
433.082	4.02
433.442	4.03
433.802	4.05
434.161	4.03
434.521	4.09
434.881	4.09
435.24	4.01
435.6	4.05
435.959	4.02
436.319	4.05
436.678	3.99
437.037	3.99
437.396	4.13
437.756	4.03
438.115	4.04
438.474	4.11
438.833	4.15
439.192	4.19
439.551	4.11
439.91	4.06
440.269	4.18
440.628	4.14
440.987	3.97
441.345	4.03
441.704	4.1
442.063	3.96
442.421	4.08
442.78	3.95
443.138	4.08
443.497	3.99
443.855	3.98
444.214	4.06
444.572	4.03
444.93	4.12
445.288	4.01
445.647	4.07
446.005	4.01
446.363	4.05
446.721	3.92
447.079	4
447.437	4.04
447.795	3.96
448.153	3.98
448.51	3.94
448.868	4.12
449.226	3.93
449.584	4.05
449.941	4.14
450.299	4.08
450.656	4.12
451.014	3.99
451.371	4.02
451.729	4.12
452.086	3.96
452.443	4.06
452.801	4.25
453.158	3.99
453.515	4
453.872	4.13
454.229	4.06
454.586	4.07
454.943	4.06
455.3	4.23
455.657	4.06
456.014	4.17
456.371	4.25
456.727	4.03
457.084	4.11
457.441	4.03
457.797	4.1
458.154	4.19
458.51	4.09
458.867	3.99
459.223	4.19
459.58	4.01
459.936	4.01
460.292	4.04
460.648	3.94
461.005	3.9
461.361	3.95
461.717	4.02
462.073	4.08
462.429	4.1
462.785	4.01
463.141	4.09
463.496	4.03
463.852	4.3
464.208	4.06
464.564	3.95
464.919	3.99
465.275	4.04
465.631	3.98
465.986	4.16
466.342	4.07
466.697	4.11
467.052	4.13
467.408	3.98
467.763	4
468.118	3.92
468.473	4.14
468.829	4.07
469.184	4.04
469.539	3.92
469.894	3.97
470.249	4.15
470.603	4.16
470.958	4.13
471.313	4.01
471.668	4.1
472.023	4.19
472.377	4.01
472.732	4.02
473.086	4.04
473.441	4.22
473.795	4.24
474.15	4.05
474.504	4.03
474.859	4.07
475.213	4.07
475.567	4
475.921	4.06
476.275	4.16
476.63	3.96
476.984	4.08
477.338	4.32
477.692	4.13
478.045	3.95
478.399	4.12
478.753	3.95
479.107	4.1
479.461	4.12
479.814	4.03
480.168	4
480.521	3.9
480.875	4.17
481.228	4.02
481.582	4
481.935	4.08
482.289	3.95
482.642	4.07
482.995	4.04
483.348	4
483.701	3.98
484.055	3.99
484.408	3.89
484.761	3.72
485.114	3.71
485.466	3.76
485.819	3.8
486.172	3.83
486.525	3.93
486.878	3.94
487.23	3.91
487.583	3.84
487.936	3.89
488.288	3.87
488.641	3.82
488.993	3.72
489.345	3.77
489.698	3.86
490.05	3.91
490.402	3.99
490.754	4.02
491.107	4
491.459	4.05
491.811	4.01
492.163	4
492.515	3.95
492.866	3.8
493.218	3.82
493.57	3.94
493.922	3.95
494.274	3.97
494.625	3.98
494.977	3.98
495.328	4.07
495.68	4.14
496.031	4.06
496.383	3.91
496.734	4.11
497.086	3.89
497.437	4.16
497.788	4.08
498.139	3.92
498.49	4.1
498.842	4.06
499.193	4.04
499.544	4.11
499.894	3.98
500.245	4.07
500.596	4.06
500.947	4.06
501.298	4.04
501.648	4.07
501.999	4.16
502.35	4.11
502.7	4.13
503.051	4.1
503.401	4.12
503.752	4.01
504.102	3.95
504.452	4.03
504.803	3.91
505.153	4.23
505.503	4.06
505.853	4.05
506.203	3.96
506.553	4
506.903	4.03
507.253	4.08
507.603	3.97
507.953	4.14
508.303	3.99
508.652	4.11
509.002	4.01
509.352	4
509.701	4.04
510.051	4.05
510.4	4.03
510.75	4.05
511.099	4.03
511.449	3.98
511.798	4.22
512.147	4.06
512.496	4.03
512.846	4
513.195	4.12
513.544	3.99
513.893	3.89
514.242	4.12
514.591	4.07
514.939	4.03
515.288	4.09
515.637	4.11
515.986	3.95
516.334	4.1
516.683	3.91
517.032	3.91
517.38	4.08
517.729	4.03
518.077	4.22
518.426	4.02
518.774	4
519.122	3.94
519.47	4.02
519.819	3.98
520.167	3.95
520.515	3.91
520.863	3.98
521.211	3.93
521.559	4.01
521.907	3.96
522.255	3.95
522.602	4
522.95	4.13
523.298	4.07
523.645	4.08
523.993	4.12
524.341	4.12
524.688	4.1
525.036	4.11
525.383	4.1
525.73	4.02
526.078	4.07
526.425	3.99
526.772	3.88
527.119	3.9
527.466	3.96
527.814	3.97
528.161	4.03
528.508	4.03
528.854	3.88
529.201	3.85
529.548	3.82
529.895	3.79
530.242	3.8
530.588	3.84
530.935	3.86
531.282	3.97
531.628	3.96
531.975	3.98
532.321	4.01
532.667	4.05
533.014	3.95
533.36	3.98
533.706	4.08
534.052	3.92
534.399	3.88
534.745	3.84
535.091	3.89
535.437	3.93
535.783	4.12
536.129	3.97
536.474	4.07
536.82	3.98
537.166	4.01
537.512	3.97
537.857	4.03
538.203	3.88
538.549	4.04
538.894	4.03
539.239	4.1
539.585	4.08
539.93	4.21
540.276	4.07
540.621	4.12
540.966	4.1
541.311	4.09
541.656	3.94
542.001	4.01
542.346	3.9
542.691	3.91
543.036	3.88
543.381	3.93
543.726	3.95
544.071	4.05
544.415	3.97
544.76	3.94
545.105	4.07
545.449	4
545.794	4.01
546.138	4.09
546.483	4
546.827	4.02
547.171	3.99
547.516	4.02
547.86	4.02
548.204	4.03
548.548	4.07
548.892	4.08
549.236	4.09
549.58	4.08
549.924	4.16
550.268	4.22
550.612	4.2
550.956	4.13
551.3	4.11
551.643	4.12
551.987	4.01
552.33	3.99
552.674	4.3
553.017	4.22
553.361	4.17
553.704	4.15
554.048	4.21
554.391	4.12
554.734	4.21
555.077	4.24
555.42	4.17
555.764	4.22
556.107	4.08
556.45	4.11
556.793	4.38
557.135	4.3
557.478	4.23
557.821	4.3
558.164	4.22
558.507	4.1
558.849	3.99
559.192	4.28
559.534	4.02
559.877	4.4
560.219	4.19
560.562	4.38
560.904	4.15
561.246	4.07
561.589	4.16
561.931	4.33
562.273	4.23
562.615	4.08
562.957	4.21
563.299	4.25
563.641	4.26
563.983	4.08
564.325	4.22
564.667	4.14
565.008	4.04
565.35	4.15
565.692	4.33
566.033	4.14
566.375	4.1
566.716	4.34
567.058	4.25
567.399	4.21
567.741	4.13
568.082	4.14
568.423	4.09
568.764	4.2
569.105	4.2
569.447	4.2
569.788	4.19
570.129	4.16
570.47	4.13
570.811	4.22
571.151	4.17
571.492	4.31
571.833	4.2
572.174	4.15
572.514	4.04
572.855	4.26
573.195	4.1
573.536	4.18
573.876	4.16
574.217	4.28
574.557	4.13
574.898	4.1
575.238	4.12
575.578	4.17
575.918	4.18
576.258	4.2
576.598	4.09
576.938	4.37
577.278	4.05
577.618	4.25
577.958	4.28
578.298	4.07
578.638	4.26
578.977	4.09
579.317	4.42
579.657	4.28
579.996	4.15
580.336	4.24
580.675	4.39
581.014	4.18
581.354	4.41
581.693	4.25
582.032	4.1
582.372	4.3
582.711	4.37
583.05	4.22
583.389	4.34
583.728	4.4
584.067	4.4
584.406	4.36
584.745	4.58
585.083	4.45
585.422	4.38
585.761	4.47
586.1	4.33
586.438	4.49
586.777	4.24
587.115	4.54
587.454	4.21
587.792	4.24
588.13	4.56
588.469	4.44
588.807	4.48
589.145	4.42
589.483	4.18
589.821	4.17
590.159	4.33
590.497	4.12
590.835	4.22
591.173	4.47
591.511	4.28
591.849	4.3
592.187	4.18
592.524	4.33
592.862	4.35
593.2	4.32
593.537	4.5
593.875	4.45
594.212	4.42
594.55	4.38
594.887	4.58
595.224	4.33
595.561	4.39
595.899	4.34
596.236	4.4
596.573	4.42
596.91	4.34
597.247	4.28
597.584	4.56
597.921	4.24
598.258	4.29
598.594	4.13
598.931	4.37
599.268	4.34
599.604	4.64
599.941	4.44
600.277	4.34
600.614	4.44
600.95	4.36
601.287	4.27
601.623	4.62
601.959	4.29
602.296	4.39
602.632	4.51
602.968	4.37
603.304	4.3
603.64	4.17
603.976	4.14
604.312	4.32
604.648	4.52
604.984	4.29
605.319	4.42
605.655	4.33
605.991	4.33
606.326	4.22
606.662	4.19
606.998	4.34
607.333	4.1
607.668	4.25
608.004	4.4
608.339	4.34
608.674	4.2
609.01	4.65
609.345	4.62
609.68	4.15
610.015	4.26
610.35	4.38
610.685	4.41
611.02	4.45
611.355	4.32
611.689	4.25
612.024	4.36
612.359	4.57
612.694	4.54
613.028	4.72
613.363	4.42
613.697	4.33
614.032	4.54
614.366	4.01
614.7	4.54
615.035	4.38
615.369	4.43
615.703	4.92
616.037	4.42
616.371	4.36
616.705	4.38
617.039	4.66
617.373	4.49
617.707	4.46
618.041	4.46
618.375	4.32
618.709	4.23
619.042	4.24
619.376	4.32
619.71	4.56
620.043	4.48
620.377	4.33
620.71	4.46
621.043	4.28
621.377	4.28
621.71	4.49
622.043	4.6
622.376	4.14
622.709	4.86
623.043	4.32
623.376	4.56
623.709	4.5
624.041	4.36
624.374	4.12
624.707	4.01
625.04	4.73
625.373	4.03
625.705	4.69
626.038	4.24
626.37	4.44
626.703	4.48
627.035	4.74
627.368	4.52
627.7	4.67
628.032	4.55
628.365	4.28
628.697	4.27
629.029	4.79
629.361	4.28
629.693	4.7
630.025	4.61
630.357	4.33
630.689	4.99
631.021	4.29
631.353	4.68
631.684	4.57
632.016	4.4
632.348	4.37
632.679	4.3
633.011	4.49
633.342	4.36
633.674	4.5
634.005	4.69
634.336	4.69
634.668	4.23
634.999	4.32
635.33	4.55
635.661	4.42
635.992	4.47
636.323	4.55
636.654	4.6
636.985	4.56
637.316	4.51
637.647	4.62
637.977	4.34
638.308	4.25
638.639	4.31
638.969	4.46
639.3	4.5
639.63	4.52
639.961	4.55
640.291	4.91
640.622	4.56
640.952	4.56
641.282	4.31
641.612	4.15
641.943	4.58
642.273	4.5
642.603	4.71
642.933	4.33
643.263	4.81
643.592	4.57
643.922	5.16
644.252	4.58
644.582	4.38
644.911	4.33
645.241	4.39
645.571	4.5
645.9	4.79
646.23	4.49
646.559	4.48
646.888	4.37
647.218	4.68
647.547	4.93
647.876	4.95
648.205	4.37
648.534	4.41
648.863	5.12
649.192	4.7
649.521	4.49
649.85	4.75
650.179	4.27
650.508	4.83
650.837	4.75
651.165	4.77
651.494	4.78
651.822	4.65
652.151	5.06
652.479	4.67
652.808	4.6
653.136	4.63
653.465	4.62
653.793	4.91
654.121	4.96
654.449	4.54
654.777	4.44
655.105	4.83
655.433	4.92
655.761	4.7
656.089	4.76
656.417	4.79
656.745	4.92
657.073	4.75
657.4	4.62
657.728	4.88
658.056	4.55
658.383	4.66
658.711	4.57
659.038	4.43
659.365	4.6
659.693	4.51
660.02	4.63
660.347	4.85
660.674	4.62
661.001	4.27
661.329	4.74
661.656	4.4
661.982	4.75
662.309	4.92
662.636	4.64
662.963	4.49
663.29	4.65
663.616	5.01
663.943	5.15
664.27	5
664.596	4.72
664.923	5.08
665.249	5.01
665.576	4.32
665.902	4.44
666.228	4.36
666.554	4.59
666.881	4.9
667.207	4.79
667.533	4.75
667.859	4.91
668.185	4.49
668.511	4.56
668.837	4.52
669.162	4.97
669.488	4.75
669.814	5.07
670.139	5
670.465	5.1
670.791	4.65
671.116	4.97
671.442	4.68
671.767	4.72
672.092	4.64
672.418	5.45
672.743	4.47
673.068	4.47
673.393	4.62
673.718	4.58
674.043	4.21
674.368	5.16
674.693	4.81
675.018	4.69
675.343	4.92
675.667	4.77
675.992	4.83
676.317	4.65
676.641	5.66
676.966	5.2
677.29	4.85
677.615	4.86
677.939	4.66
678.264	4.56
678.588	5.02
678.912	5.19
679.236	5.06
679.56	4.78
679.885	5.07
680.209	4.63
680.532	4.31
680.856	5.03
681.18	4.44
681.504	4.73
681.828	4.22
682.152	4.81
682.475	4.83
682.799	5.11
683.122	4.61
683.446	4.62
683.769	4.89
684.093	4.78
684.416	4.86
684.739	4.73
685.062	5.02
685.386	5.3
685.709	4.68
686.032	4.61
686.355	4.75
686.678	4.95
687.001	4.16
687.324	4.31
687.646	4.58
687.969	5.2
688.292	5.43
688.614	5.38
688.937	5.28
689.26	4.68
689.582	4.47
689.904	5.21
690.227	4.91
690.549	5.27
690.871	4.95
691.194	4.7
691.516	5.18
691.838	4.89
692.16	5.56
692.482	5.18
692.804	4.66
693.126	4.83
693.448	4.77
693.769	5
694.091	5.66
