Data from 0050_crown_Reflection__4__24.txt Node

Date: Fri Dec 16 13:58:57 CST 2022
User: ToomeyLab
Spectrometer: FLMS14357
Trigger mode: 0
Integration Time (sec): 1.000000E-2
Scans to average: 100
Electric dark correction enabled: true
Nonlinearity correction enabled: false
Boxcar width: 0
XAxis mode: Wavelengths
Number of Pixels in Spectrum: 2048
>>>>>Begin Spectral Data<<<<<
189.047	103.95
189.435	103.95
189.823	103.95
190.211	24.1
190.599	98.25
190.987	-390.46
191.375	-3.37
191.763	76.19
192.151	212.22
192.538	85.04
192.926	-71.43
193.314	71.94
193.702	91.19
194.089	36.36
194.477	-88.22
194.864	13.38
195.252	23.08
195.639	132.9
196.027	-119.5
196.414	-12.78
196.801	102.5
197.189	106.11
197.576	642.84
197.963	-68.97
198.351	13.59
198.738	-41.15
199.125	26.41
199.512	10.02
199.899	-33.83
200.286	-19.31
200.673	22.67
201.06	32.91
201.447	9.8
201.833	15.29
202.22	25.12
202.607	-3.76
202.994	33.31
203.38	-8.28
203.767	-13.88
204.154	-15.43
204.54	7.13
204.927	17.11
205.313	16.18
205.699	-2
206.086	14.08
206.472	23.28
206.858	22.84
207.245	-17.2
207.631	-27.44
208.017	25.13
208.403	12.22
208.789	8.98
209.175	32.16
209.561	19.58
209.947	-22.03
210.333	3.83
210.719	15.44
211.105	-5.91
211.491	20.73
211.876	7.95
212.262	-39.78
212.648	-36.37
213.034	31.69
213.419	10.83
213.805	-0.17
214.19	-12.24
214.576	-1.72
214.961	-7.28
215.346	-29.94
215.732	-2.24
216.117	-10.83
216.502	-28.16
216.888	-28.89
217.273	6.31
217.658	1.46
218.043	23.26
218.428	13.51
218.813	3.51
219.198	0.06
219.583	0.21
219.968	7.5
220.353	25.17
220.738	13.03
221.122	4.12
221.507	-3.61
221.892	-2.4
222.276	24.82
222.661	-9.89
223.046	13.48
223.43	-6.77
223.815	13.89
224.199	8.46
224.583	7.92
224.968	14.48
225.352	-2.25
225.736	7.91
226.121	5.73
226.505	14.08
226.889	8.04
227.273	12.54
227.657	3.63
228.041	10.7
228.425	10.75
228.809	8.79
229.193	7.8
229.577	8.79
229.961	9.15
230.344	9.71
230.728	8.98
231.112	8.63
231.495	8.63
231.879	8.57
232.263	8.57
232.646	7.86
233.03	6.63
233.413	6.37
233.797	9.72
234.18	5.43
234.563	6.67
234.946	7.5
235.33	7.84
235.713	6.9
236.096	9.02
236.479	8.37
236.862	10.39
237.245	7.53
237.628	8.77
238.011	8.1
238.394	8.24
238.777	6.11
239.16	6.4
239.543	7.55
239.925	9.59
240.308	9.38
240.691	8.37
241.073	6.88
241.456	6.69
241.838	8.14
242.221	8.69
242.603	8.59
242.986	9.33
243.368	8.41
243.75	7.51
244.133	8.03
244.515	7.88
244.897	7.72
245.279	7.83
245.661	7.88
246.043	7.23
246.425	7
246.807	8.56
247.189	7.86
247.571	8.01
247.953	8.02
248.335	8.04
248.717	7.58
249.098	7.59
249.48	7.49
249.862	7.57
250.243	7.86
250.625	7.79
251.006	8.48
251.388	7.72
251.769	7.84
252.151	7.21
252.532	7.7
252.913	7.75
253.295	7.44
253.676	7.44
254.057	7.22
254.438	7.05
254.819	8.08
255.2	7.63
255.581	7.45
255.962	6.84
256.343	8.16
256.724	7.73
257.105	7.48
257.486	6.97
257.867	5.55
258.247	6.68
258.628	7.64
259.009	6.47
259.389	7.8
259.77	6.91
260.15	7.54
260.531	7.37
260.911	7.25
261.292	7.11
261.672	6.96
262.052	6.83
262.432	6.63
262.813	6.86
263.193	6.65
263.573	6.84
263.953	6.88
264.333	6.78
264.713	6.67
265.093	6.88
265.473	7.5
265.853	6.79
266.233	6.55
266.612	7.3
266.992	6.88
267.372	6.96
267.752	6.8
268.131	6.82
268.511	6.71
268.89	7.06
269.27	6.74
269.649	7.19
270.029	6.64
270.408	6.29
270.787	7.01
271.167	6.9
271.546	6.56
271.925	6.49
272.304	7.03
272.683	6.81
273.062	6.43
273.441	7.19
273.82	6.59
274.199	6.79
274.578	6.81
274.957	6.75
275.336	6.44
275.715	7.03
276.093	7.29
276.472	6.77
276.851	6.94
277.229	6.94
277.608	6.67
277.986	6.7
278.365	6.35
278.743	6.74
279.122	5.84
279.5	5.8
279.878	5.88
280.257	7.08
280.635	6.66
281.013	6.81
281.391	6.18
281.769	5.58
282.147	6.1
282.525	6.26
282.903	6.26
283.281	6.11
283.659	6.33
284.037	6.4
284.415	5.97
284.792	6.57
285.17	6.05
285.548	6.44
285.925	6.14
286.303	6.4
286.68	6.39
287.058	6.24
287.435	6.35
287.813	6.08
288.19	6.35
288.567	6.21
288.945	6.73
289.322	6.07
289.699	5.69
290.076	6.31
290.453	5.97
290.83	5.87
291.207	6.22
291.584	5.87
291.961	6.21
292.338	6.03
292.715	6.45
293.092	6.16
293.469	5.81
293.845	6.57
294.222	6.05
294.599	5.82
294.975	5.78
295.352	5.89
295.728	5.9
296.105	6.02
296.481	6.62
296.858	6.12
297.234	5.73
297.61	5.83
297.986	5.94
298.363	5.92
298.739	5.97
299.115	5.31
299.491	6
299.867	5.6
300.243	5.78
300.619	6.13
300.995	6.11
301.371	5.66
301.746	5.71
302.122	5.8
302.498	6.08
302.874	5.8
303.249	5.8
303.625	5.88
304	5.63
304.376	6.04
304.751	6.2
305.127	5.91
305.502	6.16
305.878	5.76
306.253	6.03
306.628	6.13
307.003	5.82
307.378	5.27
307.754	6.32
308.129	5.48
308.504	5.52
308.879	5.46
309.254	6.38
309.629	5.53
310.003	6.27
310.378	5.83
310.753	5.7
311.128	5.43
311.502	5.36
311.877	5.55
312.252	5.58
312.626	5.39
313.001	5.68
313.375	5.65
313.75	5.55
314.124	5.67
314.498	5.5
314.873	5.62
315.247	5.09
315.621	5.97
315.995	5.35
316.369	5.83
316.743	5.92
317.117	5.31
317.491	5.96
317.865	5.48
318.239	5.87
318.613	5.84
318.987	5.67
319.361	5.32
319.734	5.59
320.108	5.62
320.482	5.81
320.855	5.21
321.229	5.29
321.602	6.24
321.976	5.21
322.349	5.29
322.723	4.83
323.096	5.65
323.469	5.38
323.843	5.37
324.216	4.77
324.589	5.73
324.962	5.55
325.335	5.35
325.708	6.03
326.081	6
326.454	5.48
326.827	5.58
327.2	5.93
327.573	5.28
327.945	5.5
328.318	6.15
328.691	5.28
329.063	5.12
329.436	5.55
329.809	5.26
330.181	5.45
330.553	5.61
330.926	5.26
331.298	4.71
331.671	5.62
332.043	6.05
332.415	5.63
332.787	6.22
333.159	5.41
333.532	5.4
333.904	5.59
334.276	5.43
334.648	5.93
335.02	5.34
335.391	5.75
335.763	5.15
336.135	5.81
336.507	5.91
336.879	5.53
337.25	5.81
337.622	5.42
337.993	5.42
338.365	5.62
338.736	5.36
339.108	5.16
339.479	5.67
339.851	5.84
340.222	5.35
340.593	4.99
340.964	5.58
341.336	5.21
341.707	5.36
342.078	5.29
342.449	5.78
342.82	5.55
343.191	5.31
343.562	5.43
343.933	5.58
344.303	5.51
344.674	5.72
345.045	5.98
345.416	5.55
345.786	5.4
346.157	5.6
346.527	5.27
346.898	5.11
347.268	5.66
347.639	5.39
348.009	5.77
348.38	5.59
348.75	5.43
349.12	5.69
349.49	5.41
349.861	6.15
350.231	5.92
350.601	5.85
350.971	5.39
351.341	5.65
351.711	5.47
352.081	5.39
352.45	5.74
352.82	5.72
353.19	5.55
353.56	5.78
353.929	5.96
354.299	5.32
354.669	5.47
355.038	5.79
355.408	5.71
355.777	5.83
356.147	5.93
356.516	5.77
356.885	5.44
357.254	5.52
357.624	5.7
357.993	5.68
358.362	5.86
358.731	5.67
359.1	5.89
359.469	5.63
359.838	5.56
360.207	5.68
360.576	5.46
360.945	5.73
361.314	5.8
361.682	5.61
362.051	5.68
362.42	6.05
362.788	5.84
363.157	5.67
363.525	5.59
363.894	5.48
364.262	5.57
364.631	6.23
364.999	5.44
365.367	6.13
365.735	5.37
366.104	5.71
366.472	5.7
366.84	5.75
367.208	5.65
367.576	5.74
367.944	6.1
368.312	5.53
368.68	5.8
369.048	6.23
369.416	5.92
369.783	5.75
370.151	5.85
370.519	5.42
370.886	6.04
371.254	5.6
371.621	5.84
371.989	5.98
372.356	5.75
372.724	5.85
373.091	5.91
373.458	5.82
373.826	5.58
374.193	6.27
374.56	5.82
374.927	5.86
375.294	6.07
375.661	5.71
376.028	5.63
376.395	5.6
376.762	6.07
377.129	6.25
377.496	5.94
377.863	5.97
378.229	5.95
378.596	5.72
378.963	5.97
379.329	5.86
379.696	5.66
380.062	5.85
380.429	5.99
380.795	5.58
381.161	5.7
381.528	5.69
381.894	5.96
382.26	5.87
382.626	5.86
382.993	5.63
383.359	5.95
383.725	5.79
384.091	5.89
384.457	6.27
384.823	5.9
385.188	6.33
385.554	6
385.92	6.4
386.286	6.42
386.651	5.96
387.017	6.07
387.383	5.94
387.748	5.7
388.114	6.16
388.479	6.02
388.845	5.97
389.21	6
389.575	5.96
389.94	5.77
390.306	5.9
390.671	6.06
391.036	6.31
391.401	6.31
391.766	6.08
392.131	6.01
392.496	5.86
392.861	5.87
393.226	5.98
393.591	5.79
393.956	6.03
394.32	5.79
394.685	5.84
395.05	5.92
395.414	5.98
395.779	5.98
396.143	6.18
396.508	6.09
396.872	6.11
397.236	5.76
397.601	6.13
397.965	5.79
398.329	6.17
398.694	5.9
399.058	6.18
399.422	6.23
399.786	6.07
400.15	6.02
400.514	5.92
400.878	5.89
401.242	6.32
401.605	6.16
401.969	6.12
402.333	5.92
402.697	6.21
403.06	6.11
403.424	6.07
403.787	6.4
404.151	6
404.514	6.1
404.878	6.04
405.241	6.37
405.604	6.17
405.968	6.23
406.331	6.04
406.694	6
407.057	6.36
407.42	5.96
407.783	6.24
408.146	6.24
408.509	6.09
408.872	6.15
409.235	6.16
409.598	6.16
409.961	6.29
410.323	6.21
410.686	6.15
411.049	6.08
411.411	6.23
411.774	5.96
412.136	6.22
412.499	5.99
412.861	5.79
413.223	6.12
413.586	6.23
413.948	6.14
414.31	6.15
414.672	6.03
415.035	6.29
415.397	6.15
415.759	6.04
416.121	6.38
416.483	6.25
416.845	6.36
417.206	6.21
417.568	6.25
417.93	6.25
418.292	6.2
418.653	6.25
419.015	6.28
419.377	6.24
419.738	6.27
420.1	6.09
420.461	6.13
420.822	6.32
421.184	6.06
421.545	6.15
421.906	6.21
422.267	6.05
422.629	6.05
422.99	6.09
423.351	6.08
423.712	6.02
424.073	6.13
424.434	6.09
424.795	6.15
425.155	6.1
425.516	6.15
425.877	6.15
426.238	6.01
426.598	6.13
426.959	6
427.32	6.11
427.68	6.01
428.041	6.26
428.401	6.06
428.761	6.18
429.122	6.27
429.482	6.22
429.842	6.19
430.202	6.23
430.563	6.31
430.923	6.12
431.283	6.35
431.643	6.25
432.003	6.25
432.363	6.28
432.722	6.24
433.082	6.2
433.442	6.12
433.802	6.25
434.161	6.21
434.521	6.29
434.881	6.26
435.24	6.19
435.6	6.05
435.959	6.25
436.319	6.19
436.678	6.08
437.037	6.21
437.396	6.19
437.756	6.23
438.115	6.17
438.474	6.19
438.833	6.24
439.192	6.4
439.551	6.28
439.91	6.32
440.269	6.24
440.628	6.27
440.987	6.24
441.345	6.18
441.704	6.32
442.063	6.2
442.421	6.19
442.78	6.11
443.138	6.06
443.497	5.96
443.855	6.07
444.214	6.16
444.572	6.22
444.93	6.37
445.288	6.29
445.647	6.32
446.005	6.23
446.363	6.27
446.721	6.03
447.079	6.22
447.437	6.21
447.795	6.11
448.153	6.15
448.51	6.15
448.868	6.11
449.226	6.08
449.584	6.12
449.941	6.05
450.299	6.18
450.656	6.19
451.014	6.17
451.371	6.17
451.729	6.16
452.086	6.1
452.443	6
452.801	6.29
453.158	6.08
453.515	6.22
453.872	6.34
454.229	6.14
454.586	6.2
454.943	6.1
455.3	6.2
455.657	6.24
456.014	6.28
456.371	6.39
456.727	6.22
457.084	6.14
457.441	6.24
457.797	6.37
458.154	6.34
458.51	6.21
458.867	6.09
459.223	6.24
459.58	6.23
459.936	6.26
460.292	6.36
460.648	6.18
461.005	6.14
461.361	6.16
461.717	6.23
462.073	6.02
462.429	6.12
462.785	6.22
463.141	6.25
463.496	6.09
463.852	6.24
464.208	6.18
464.564	6.12
464.919	6.34
465.275	6.19
465.631	6.18
465.986	6.23
466.342	6.25
466.697	6.25
467.052	6.24
467.408	6.18
467.763	6.14
468.118	6.18
468.473	6.42
468.829	6.23
469.184	6.19
469.539	6.1
469.894	6.27
470.249	6.18
470.603	6.24
470.958	6.31
471.313	6.16
471.668	6.31
472.023	6.38
472.377	6.19
472.732	6.19
473.086	6.17
473.441	6.32
473.795	6.39
474.15	6.19
474.504	6.22
474.859	6.23
475.213	6.15
475.567	6.12
475.921	6.39
476.275	6.16
476.63	6.27
476.984	6.14
477.338	6.43
477.692	6.25
478.045	6.13
478.399	6.27
478.753	6.08
479.107	6.2
479.461	6.15
479.814	6.08
480.168	6.06
480.521	6.07
480.875	6.28
481.228	6.3
481.582	6.14
481.935	6.08
482.289	6.14
482.642	6.22
482.995	6.14
483.348	6.09
483.701	6.1
484.055	6.08
484.408	6.06
484.761	6
485.114	5.95
485.466	5.91
485.819	5.8
486.172	5.75
486.525	5.83
486.878	5.84
487.23	5.93
487.583	5.94
487.936	6.01
488.288	6.07
488.641	6.02
488.993	5.91
489.345	5.86
489.698	5.92
490.05	5.86
490.402	5.96
490.754	6.01
491.107	5.97
491.459	6.06
491.811	6.16
492.163	6.13
492.515	6.19
492.866	5.94
493.218	5.95
493.57	5.93
493.922	5.87
494.274	5.94
494.625	5.93
494.977	6.07
495.328	6.11
495.68	6.22
496.031	6.15
496.383	6.2
496.734	6.24
497.086	6.11
497.437	6.13
497.788	6.22
498.139	6.24
498.49	6.13
498.842	6.04
499.193	6.08
499.544	6.2
499.894	6.17
500.245	6.17
500.596	6.06
500.947	6.17
501.298	6.1
501.648	6.15
501.999	6.25
502.35	6.32
502.7	6.12
503.051	6.32
503.401	6.24
503.752	6.18
504.102	6.27
504.452	6.12
504.803	6.05
505.153	6.26
505.503	6.27
505.853	6.15
506.203	6.26
506.553	6.25
506.903	6.2
507.253	6.21
507.603	6.2
507.953	6.28
508.303	6.25
508.652	6.17
509.002	6.22
509.352	6.16
509.701	6.24
510.051	6.18
510.4	6.03
510.75	6.18
511.099	6.1
511.449	6.14
511.798	6.27
512.147	6.18
512.496	6.2
512.846	6.14
513.195	6.19
513.544	6.13
513.893	6.05
514.242	6.19
514.591	6.24
514.939	6.07
515.288	6.14
515.637	6.28
515.986	6.14
516.334	6.28
516.683	6.18
517.032	6.13
517.38	6.21
517.729	6.25
518.077	6.32
518.426	6.17
518.774	6.31
519.122	6.14
519.47	6.09
519.819	6.18
520.167	6.09
520.515	6.09
520.863	6.1
521.211	6.04
521.559	6.1
521.907	6.12
522.255	6.21
522.602	6.2
522.95	6.31
523.298	6.24
523.645	6.12
523.993	6.27
524.341	6.11
524.688	6.22
525.036	6.28
525.383	6.23
525.73	6.25
526.078	6.26
526.425	6.28
526.772	6.11
527.119	6.1
527.466	6.05
527.814	5.99
528.161	6.12
528.508	6.1
528.854	6.05
529.201	6.11
529.548	6.1
529.895	6.07
530.242	5.97
530.588	5.93
530.935	5.87
531.282	5.93
531.628	5.91
531.975	5.96
532.321	5.97
532.667	6.11
533.014	6.1
533.36	6.03
533.706	6.2
534.052	6.06
534.399	6.08
534.745	6.07
535.091	6
535.437	5.94
535.783	6.04
536.129	6.02
536.474	6.03
536.82	6.07
537.166	6.22
537.512	6.18
537.857	6.18
538.203	6.12
538.549	6.14
538.894	6.12
539.239	6.17
539.585	6.12
539.93	6.24
540.276	6.13
540.621	6.18
540.966	6.17
541.311	6.06
541.656	6.23
542.001	6.23
542.346	6.13
542.691	6.16
543.036	6.06
543.381	5.99
543.726	6.01
544.071	6.07
544.415	6.08
544.76	5.99
545.105	6.17
545.449	6.11
545.794	6.17
546.138	6.17
546.483	6.17
546.827	6.24
547.171	6.25
547.516	6.26
547.86	6.15
548.204	6.16
548.548	6.27
548.892	6.1
549.236	6.15
549.58	6.19
549.924	6.08
550.268	6.37
550.612	6.33
550.956	6.25
551.3	6.27
551.643	6.31
551.987	6.22
552.33	6.33
552.674	6.44
553.017	6.47
553.361	6.28
553.704	6.32
554.048	6.37
554.391	6.31
554.734	6.35
555.077	6.35
555.42	6.21
555.764	6.3
556.107	6.18
556.45	6.24
556.793	6.44
557.135	6.55
557.478	6.39
557.821	6.26
558.164	6.45
558.507	6.33
558.849	6.23
559.192	6.34
559.534	6.21
559.877	6.51
560.219	6.47
560.562	6.52
560.904	6.19
561.246	6.48
561.589	6.52
561.931	6.51
562.273	6.34
562.615	6.3
562.957	6.54
563.299	6.43
563.641	6.4
563.983	6.38
564.325	6.28
564.667	6.34
565.008	6.32
565.35	6.48
565.692	6.58
566.033	6.41
566.375	6.44
566.716	6.46
567.058	6.37
567.399	6.47
567.741	6.42
568.082	6.34
568.423	6.45
568.764	6.41
569.105	6.39
569.447	6.38
569.788	6.31
570.129	6.22
570.47	6.47
570.811	6.52
571.151	6.39
571.492	6.5
571.833	6.39
572.174	6.28
572.514	6.29
572.855	6.42
573.195	6.31
573.536	6.33
573.876	6.36
574.217	6.36
574.557	6.42
574.898	6.31
575.238	6.24
575.578	6.5
575.918	6.3
576.258	6.39
576.598	6.41
576.938	6.48
577.278	6.24
577.618	6.27
577.958	6.35
578.298	6.43
578.638	6.36
578.977	6.57
579.317	6.58
579.657	6.39
579.996	6.32
580.336	6.3
580.675	6.47
581.014	6.41
581.354	6.8
581.693	6.5
582.032	6.34
582.372	6.59
582.711	6.39
583.05	6.61
583.389	6.54
583.728	6.57
584.067	6.24
584.406	6.79
584.745	6.48
585.083	6.65
585.422	6.51
585.761	6.62
586.1	6.76
586.438	6.77
586.777	6.47
587.115	6.5
587.454	6.68
587.792	6.49
588.13	6.57
588.469	6.57
588.807	6.43
589.145	6.42
589.483	6.45
589.821	6.5
590.159	6.66
590.497	6.33
590.835	6.56
591.173	6.57
591.511	6.6
591.849	6.39
592.187	6.51
592.524	6.54
592.862	6.65
593.2	6.51
593.537	6.47
593.875	6.39
594.212	6.62
594.55	6.62
594.887	6.57
595.224	6.43
595.561	6.55
595.899	6.47
596.236	6.81
596.573	6.5
596.91	6.59
597.247	6.54
597.584	6.74
597.921	6.48
598.258	6.52
598.594	6.27
598.931	6.36
599.268	6.38
599.604	6.55
599.941	6.42
600.277	6.35
600.614	6.67
600.95	6.71
601.287	6.61
601.623	6.64
601.959	6.52
602.296	6.67
602.632	6.66
602.968	6.34
603.304	6.46
603.64	6.43
603.976	6.6
604.312	6.51
604.648	6.85
604.984	6.55
605.319	6.53
605.655	6.64
605.991	6.62
606.326	6.44
606.662	6.57
606.998	6.35
607.333	6.28
607.668	6.41
608.004	6.57
608.339	6.49
608.674	6.6
609.01	6.53
609.345	6.83
609.68	6.53
610.015	6.73
610.35	6.71
610.685	6.73
611.02	6.58
611.355	6.69
611.689	6.37
612.024	6.62
612.359	6.53
612.694	6.48
613.028	6.89
613.363	6.45
613.697	6.57
614.032	6.86
614.366	6.59
614.7	6.92
615.035	6.46
615.369	6.76
615.703	6.86
616.037	6.59
616.371	6.49
616.705	6.64
617.039	6.81
617.373	6.46
617.707	6.8
618.041	6.68
618.375	6.57
618.709	6.56
619.042	6.54
619.376	6.62
619.71	6.92
620.043	6.44
620.377	6.58
620.71	6.52
621.043	6.38
621.377	6.73
621.71	6.79
622.043	6.71
622.376	6.34
622.709	6.75
623.043	6.57
623.376	6.82
623.709	6.56
624.041	6.64
624.374	6.53
624.707	6.34
625.04	6.73
625.373	6.59
625.705	6.83
626.038	6.95
626.37	6.9
626.703	6.6
627.035	6.8
627.368	6.73
627.7	6.85
628.032	6.89
628.365	6.46
628.697	6.76
629.029	6.78
629.361	6.43
629.693	6.94
630.025	6.75
630.357	6.68
630.689	6.87
631.021	6.84
631.353	6.46
631.684	6.53
632.016	6.77
632.348	6.91
632.679	6.82
633.011	6.87
633.342	6.61
633.674	6.45
634.005	6.96
634.336	6.64
634.668	6.57
634.999	6.7
635.33	6.75
635.661	7.06
635.992	6.69
636.323	6.67
636.654	6.77
636.985	6.62
637.316	6.68
637.647	6.69
637.977	6.5
638.308	6.61
638.639	6.83
638.969	6.73
639.3	6.75
639.63	6.67
639.961	6.53
640.291	7.05
640.622	6.8
640.952	6.67
641.282	6.69
641.612	6.82
641.943	7.2
642.273	6.49
642.603	6.52
642.933	6.83
643.263	7.24
643.592	6.45
643.922	7.42
644.252	6.75
644.582	6.53
644.911	6.52
645.241	6.52
645.571	6.54
645.9	6.69
646.23	6.77
646.559	7.1
646.888	6.74
647.218	6.86
647.547	7.27
647.876	7.24
648.205	6.45
648.534	6.75
648.863	6.91
649.192	6.77
649.521	6.6
649.85	6.9
650.179	6.67
650.508	6.84
650.837	6.78
651.165	6.99
651.494	6.98
651.822	6.91
652.151	7.5
652.479	7.19
652.808	6.61
653.136	7.15
653.465	7.06
653.793	6.56
654.121	6.82
654.449	6.79
654.777	6.78
655.105	7.35
655.433	6.87
655.761	6.54
656.089	7.08
656.417	6.57
656.745	7.55
657.073	7.3
657.4	7.06
657.728	6.67
658.056	7.06
658.383	7.21
658.711	6.99
659.038	7.12
659.365	7.05
659.693	6.68
660.02	6.98
660.347	7.11
660.674	6.61
661.001	6.49
661.329	6.85
661.656	6.69
661.982	7.01
662.309	6.75
662.636	7.09
662.963	7.35
663.29	6.99
663.616	7.06
663.943	7.24
664.27	7.34
664.596	6.8
664.923	7.59
665.249	6.89
665.576	6.9
665.902	7.07
666.228	6.43
666.554	7.11
666.881	7.07
667.207	7.05
667.533	7.19
667.859	6.83
668.185	6.95
668.511	6.86
668.837	6.84
669.162	6.82
669.488	7
669.814	7.6
670.139	7.42
670.465	6.99
670.791	7.17
671.116	7.27
671.442	6.92
671.767	6.69
672.092	7.18
672.418	7.07
672.743	7.11
673.068	6.96
673.393	6.96
673.718	7.46
674.043	7.51
674.368	7.6
674.693	7.11
675.018	6.82
675.343	7.04
675.667	7.06
675.992	7.02
676.317	7.03
676.641	7.4
676.966	7.49
677.29	7.01
677.615	7.44
677.939	6.64
678.264	7.02
678.588	7.46
678.912	7.14
679.236	7.84
679.56	6.52
679.885	7.01
680.209	7.26
680.532	7.02
680.856	7.52
681.18	7.02
681.504	6.41
681.828	6.7
682.152	6.72
682.475	7.01
682.799	7.19
683.122	6.78
683.446	6.88
683.769	7.66
684.093	7.51
684.416	7.19
684.739	7.11
685.062	7.59
685.386	7.49
685.709	7.14
686.032	7.35
686.355	6.92
686.678	6.69
687.001	6.36
687.324	6.78
687.646	6.76
687.969	7.26
688.292	7.35
688.614	8.09
688.937	7.07
689.26	7.04
689.582	7.3
689.904	7.76
690.227	7.19
690.549	6.94
690.871	7.01
691.194	7.9
691.516	7.4
691.838	7.53
692.16	7.57
692.482	7.08
