Data from 0050_chest_Reflection__3__18.txt Node

Date: Fri Dec 16 13:57:09 CST 2022
User: ToomeyLab
Spectrometer: FLMS14357
Trigger mode: 0
Integration Time (sec): 1.000000E-2
Scans to average: 100
Electric dark correction enabled: true
Nonlinearity correction enabled: false
Boxcar width: 0
XAxis mode: Wavelengths
Number of Pixels in Spectrum: 2048
>>>>>Begin Spectral Data<<<<<
189.047	55.81
189.435	55.81
189.823	55.81
190.211	40.66
190.599	-21.58
190.987	-452.68
191.375	226.15
191.763	89.86
192.151	196.12
192.538	34.47
192.926	45.18
193.314	8.9
193.702	877.2
194.089	29.1
194.477	55.8
194.864	-20.68
195.252	103.16
195.639	232
196.027	-15.92
196.414	118.35
196.801	97.5
197.189	82.34
197.576	478.06
197.963	-414.03
198.351	13.44
198.738	10.16
199.125	40.26
199.512	-9.99
199.899	-40.41
200.286	-35.21
200.673	22.53
201.06	55.58
201.447	30.95
201.833	-22.84
202.22	22.68
202.607	40.02
202.994	21.38
203.38	-26.49
203.767	-33.25
204.154	-20.34
204.54	0.04
204.927	12.33
205.313	18.34
205.699	-19.2
206.086	8.29
206.472	-31.35
206.858	1.57
207.245	14.72
207.631	14.41
208.017	45.45
208.403	7.9
208.789	14.94
209.175	33.56
209.561	19.44
209.947	-7.06
210.333	-5.17
210.719	-34.34
211.105	-16.32
211.491	-19.84
211.876	10.24
212.262	17.09
212.648	-59.57
213.034	5.21
213.419	28.59
213.805	1.19
214.19	3.16
214.576	-15.28
214.961	-3.54
215.346	-37.4
215.732	13.27
216.117	-2.31
216.502	-12.23
216.888	3.15
217.273	13.45
217.658	19.38
218.043	-13.07
218.428	6.34
218.813	-10.85
219.198	-23.18
219.583	-12.99
219.968	1.46
220.353	4.92
220.738	-6.02
221.122	6.45
221.507	-18.66
221.892	-1.76
222.276	-1.62
222.661	-7.16
223.046	0.44
223.43	-2.89
223.815	11.01
224.199	2.92
224.583	0.32
224.968	5.69
225.352	-5.81
225.736	4.76
226.121	-4.94
226.505	1.54
226.889	6.91
227.273	4.44
227.657	1.29
228.041	3.12
228.425	3.5
228.809	-0.27
229.193	1.5
229.577	2.15
229.961	2.13
230.344	1.72
230.728	2.02
231.112	1.67
231.495	1.29
231.879	2.35
232.263	0.02
232.646	1.77
233.03	-0.14
233.413	-0.07
233.797	2.78
234.18	-0.86
234.563	0.66
234.946	1.03
235.33	2.24
235.713	1.19
236.096	1.94
236.479	3.67
236.862	1.87
237.245	3.65
237.628	2.11
238.011	1.51
238.394	2.62
238.777	1.88
239.16	0.03
239.543	0.35
239.925	1.99
240.308	2.01
240.691	1.55
241.073	0.55
241.456	2.58
241.838	1.23
242.221	1.3
242.603	2.1
242.986	2.35
243.368	1.51
243.75	1.72
244.133	1.59
244.515	1.55
244.897	1.19
245.279	0.65
245.661	2.02
246.043	1.92
246.425	1.06
246.807	1.62
247.189	1.87
247.571	1.93
247.953	1.73
248.335	1.7
248.717	1.41
249.098	1.71
249.48	1.28
249.862	1.93
250.243	1.35
250.625	2.11
251.006	1.54
251.388	2
251.769	1.32
252.151	0.96
252.532	0.97
252.913	1.82
253.295	1.66
253.676	1.79
254.057	1.36
254.438	0.89
254.819	1.9
255.2	1.41
255.581	1.26
255.962	0.78
256.343	2.5
256.724	1.3
257.105	1.53
257.486	2.16
257.867	-0.16
258.247	1.63
258.628	2.43
259.009	1.28
259.389	1.98
259.77	1.22
260.15	1.92
260.531	1.59
260.911	1.51
261.292	1.52
261.672	1.56
262.052	1.28
262.432	1.36
262.813	1.68
263.193	1.1
263.573	1.61
263.953	1.51
264.333	1.14
264.713	1.29
265.093	1.8
265.473	2.31
265.853	0.84
266.233	0.95
266.612	1.85
266.992	1.38
267.372	1.39
267.752	1.06
268.131	1.85
268.511	1.86
268.89	1.34
269.27	2.07
269.649	1.87
270.029	1.46
270.408	1.04
270.787	1.23
271.167	1.38
271.546	1.2
271.925	1.85
272.304	1.53
272.683	1.31
273.062	1.56
273.441	1.63
273.82	1.96
274.199	1.47
274.578	1.45
274.957	1.61
275.336	1.37
275.715	1.87
276.093	1.89
276.472	1.66
276.851	2.14
277.229	1.72
277.608	1.23
277.986	1.56
278.365	1.23
278.743	1.51
279.122	0.94
279.5	1.12
279.878	1.26
280.257	2.22
280.635	1.66
281.013	1.16
281.391	1.54
281.769	1.26
282.147	1.75
282.525	1.54
282.903	1.24
283.281	1.76
283.659	1.61
284.037	1.6
284.415	1.51
284.792	1.92
285.17	1.03
285.548	1.2
285.925	1.48
286.303	1.12
286.68	1.7
287.058	1.3
287.435	1.61
287.813	1.81
288.19	2.2
288.567	1.5
288.945	1.65
289.322	1.24
289.699	1.69
290.076	1.63
290.453	1.43
290.83	1.77
291.207	1.35
291.584	1.47
291.961	1.68
292.338	1.53
292.715	1.81
293.092	1.49
293.469	1.75
293.845	1.71
294.222	1.58
294.599	1.79
294.975	1.71
295.352	1.51
295.728	1.75
296.105	1.19
296.481	1.72
296.858	1.99
297.234	1.45
297.61	1.63
297.986	1.61
298.363	1.31
298.739	1.87
299.115	1.42
299.491	1.54
299.867	1.58
300.243	1.37
300.619	1.64
300.995	1.53
301.371	1.6
301.746	1.51
302.122	1.72
302.498	1.77
302.874	1.56
303.249	1.61
303.625	1.63
304	1.51
304.376	1.62
304.751	1.37
305.127	1.62
305.502	2.07
305.878	1.73
306.253	0.94
306.628	1.81
307.003	1.79
307.378	1.6
307.754	1.71
308.129	1.49
308.504	1.42
308.879	1.72
309.254	1.82
309.629	1.42
310.003	2.37
310.378	1.88
310.753	1.54
311.128	1.52
311.502	1.35
311.877	1.48
312.252	1.6
312.626	1.37
313.001	1.41
313.375	1.68
313.75	1.49
314.124	1.84
314.498	1.26
314.873	1.34
315.247	1.14
315.621	2.1
315.995	1.81
316.369	2.11
316.743	2
317.117	1.68
317.491	1.6
317.865	1.03
318.239	2.21
318.613	1.8
318.987	1.79
319.361	1.73
319.734	1.68
320.108	2.19
320.482	1.54
320.855	1.74
321.229	2.59
321.602	2
321.976	1.72
322.349	1.38
322.723	1.15
323.096	1.45
323.469	1.14
323.843	1.97
324.216	1.58
324.589	2.13
324.962	1.65
325.335	1.65
325.708	1.52
326.081	1.87
326.454	2.11
326.827	1.82
327.2	2.18
327.573	1.9
327.945	1.5
328.318	1.82
328.691	1.79
329.063	1.54
329.436	1.82
329.809	1.18
330.181	1.72
330.553	2.28
330.926	1.65
331.298	1.29
331.671	1.73
332.043	1.93
332.415	2.07
332.787	2.14
333.159	1.72
333.532	1.62
333.904	1.94
334.276	2.14
334.648	1.56
335.02	1.56
335.391	2.15
335.763	1.73
336.135	1.63
336.507	1.64
336.879	1.63
337.25	1.84
337.622	1.78
337.993	1.78
338.365	1.89
338.736	2.04
339.108	1.64
339.479	1.72
339.851	1.9
340.222	1.78
340.593	1.38
340.964	1.87
341.336	1.17
341.707	1.52
342.078	1.24
342.449	2.12
342.82	1.85
343.191	1.57
343.562	1.82
343.933	2
344.303	1.83
344.674	1.68
345.045	2
345.416	1.73
345.786	1.6
346.157	1.65
346.527	1.52
346.898	1.69
347.268	1.54
347.639	1.33
348.009	2.43
348.38	1.86
348.75	1.75
349.12	1.71
349.49	1.85
349.861	1.94
350.231	2.03
350.601	1.58
350.971	1.77
351.341	1.74
351.711	1.9
352.081	2.01
352.45	1.89
352.82	1.79
353.19	1.55
353.56	1.58
353.929	1.8
354.299	1.54
354.669	1.85
355.038	1.81
355.408	2.44
355.777	1.46
356.147	2.06
356.516	1.93
356.885	1.62
357.254	2.06
357.624	1.77
357.993	1.69
358.362	1.81
358.731	1.86
359.1	2.18
359.469	1.99
359.838	1.75
360.207	1.63
360.576	1.97
360.945	1.75
361.314	2
361.682	1.94
362.051	1.86
362.42	2.15
362.788	1.86
363.157	1.59
363.525	1.68
363.894	1.61
364.262	1.66
364.631	2.59
364.999	1.46
365.367	2.01
365.735	1.39
366.104	1.45
366.472	1.9
366.84	1.77
367.208	1.4
367.576	2.07
367.944	1.91
368.312	1.58
368.68	1.98
369.048	2.11
369.416	1.88
369.783	1.72
370.151	2.07
370.519	1.8
370.886	1.77
371.254	1.58
371.621	1.95
371.989	1.97
372.356	1.79
372.724	1.93
373.091	1.62
373.458	1.67
373.826	1.7
374.193	2.1
374.56	1.61
374.927	1.61
375.294	1.98
375.661	2.01
376.028	1.89
376.395	1.75
376.762	2.23
377.129	2.02
377.496	2.1
377.863	2
378.229	2.02
378.596	1.86
378.963	1.77
379.329	1.87
379.696	1.84
380.062	2.07
380.429	1.96
380.795	1.81
381.161	1.83
381.528	1.63
381.894	2.12
382.26	1.72
382.626	1.66
382.993	1.72
383.359	1.93
383.725	2.1
384.091	1.79
384.457	2.07
384.823	1.93
385.188	2.21
385.554	1.97
385.92	1.96
386.286	2.04
386.651	1.83
387.017	2.09
387.383	1.89
387.748	1.75
388.114	2.25
388.479	2.11
388.845	1.97
389.21	1.99
389.575	2.09
389.94	1.94
390.306	2.17
390.671	1.97
391.036	2.08
391.401	2.22
391.766	2.14
392.131	2.07
392.496	1.91
392.861	1.69
393.226	1.88
393.591	1.93
393.956	2.01
394.32	1.97
394.685	2.22
395.05	1.93
395.414	2.07
395.779	1.97
396.143	1.99
396.508	2.16
396.872	2
397.236	1.86
397.601	2.07
397.965	1.93
398.329	2.02
398.694	1.99
399.058	1.81
399.422	2.07
399.786	2.14
400.15	2.08
400.514	2.09
400.878	2
401.242	1.92
401.605	1.96
401.969	1.93
402.333	2.07
402.697	2.15
403.06	2.08
403.424	2.01
403.787	2.36
404.151	1.92
404.514	2.18
404.878	2.25
405.241	2.23
405.604	2.21
405.968	1.84
406.331	2.11
406.694	1.91
407.057	2.41
407.42	2.1
407.783	2.12
408.146	2.09
408.509	1.94
408.872	1.95
409.235	2.09
409.598	2.33
409.961	2.26
410.323	2.08
410.686	2.03
411.049	1.98
411.411	2.12
411.774	2.09
412.136	2.12
412.499	1.99
412.861	1.81
413.223	2.17
413.586	1.81
413.948	2.22
414.31	2.29
414.672	2.24
415.035	2.24
415.397	2.11
415.759	2.2
416.121	2.32
416.483	2.51
416.845	1.99
417.206	2.22
417.568	2.2
417.93	2.15
418.292	2.26
418.653	2.07
419.015	2.24
419.377	2.16
419.738	1.96
420.1	2.11
420.461	1.97
420.822	2.08
421.184	2.08
421.545	2.03
421.906	2.18
422.267	1.95
422.629	2.09
422.99	2.04
423.351	2.08
423.712	2.06
424.073	2.11
424.434	2.08
424.795	2.07
425.155	2.05
425.516	2.06
425.877	2.15
426.238	1.98
426.598	2.18
426.959	1.98
427.32	2.13
427.68	2.26
428.041	2.14
428.401	2.1
428.761	2.09
429.122	2.03
429.482	2.01
429.842	2.05
430.202	2.05
430.563	2.14
430.923	2.09
431.283	2.19
431.643	2.14
432.003	2.11
432.363	2.16
432.722	2.2
433.082	2.17
433.442	2.19
433.802	2.14
434.161	2.1
434.521	2.21
434.881	2.25
435.24	2.09
435.6	2.17
435.959	2.19
436.319	2.03
436.678	2.27
437.037	2.22
437.396	2.25
437.756	2.19
438.115	2.06
438.474	2.09
438.833	2.26
439.192	2.3
439.551	2.26
439.91	2.32
440.269	2.3
440.628	2.22
440.987	2.09
441.345	2.1
441.704	2.24
442.063	2.14
442.421	2.26
442.78	2.2
443.138	2.18
443.497	2.22
443.855	2.15
444.214	2.32
444.572	2.13
444.93	2.34
445.288	2.39
445.647	2.26
446.005	2.17
446.363	2.2
446.721	2.13
447.079	2.23
447.437	2.15
447.795	2.14
448.153	2.17
448.51	2.2
448.868	2.28
449.226	2.23
449.584	2.21
449.941	2.35
450.299	2.23
450.656	2.3
451.014	2.29
451.371	2.35
451.729	2.3
452.086	2.21
452.443	2.12
452.801	2.39
453.158	2.18
453.515	2.2
453.872	2.39
454.229	2.18
454.586	2.24
454.943	2.16
455.3	2.45
455.657	2.24
456.014	2.48
456.371	2.36
456.727	2.23
457.084	2.15
457.441	2.16
457.797	2.3
458.154	2.35
458.51	2.31
458.867	2.19
459.223	2.43
459.58	2.23
459.936	2.29
460.292	2.36
460.648	2.27
461.005	2.21
461.361	2.24
461.717	2.21
462.073	2.31
462.429	2.21
462.785	2.34
463.141	2.42
463.496	2.14
463.852	2.31
464.208	2.27
464.564	2.31
464.919	2.19
465.275	2.43
465.631	2.41
465.986	2.37
466.342	2.24
466.697	2.31
467.052	2.42
467.408	2.38
467.763	2.27
468.118	2.32
468.473	2.5
468.829	2.37
469.184	2.45
469.539	2.23
469.894	2.33
470.249	2.53
470.603	2.32
470.958	2.49
471.313	2.36
471.668	2.49
472.023	2.58
472.377	2.31
472.732	2.43
473.086	2.27
473.441	2.54
473.795	2.62
474.15	2.46
474.504	2.34
474.859	2.53
475.213	2.29
475.567	2.38
475.921	2.6
476.275	2.48
476.63	2.45
476.984	2.44
477.338	2.7
477.692	2.52
478.045	2.32
478.399	2.52
478.753	2.37
479.107	2.47
479.461	2.39
479.814	2.51
480.168	2.42
480.521	2.44
480.875	2.62
481.228	2.44
481.582	2.3
481.935	2.4
482.289	2.32
482.642	2.47
482.995	2.36
483.348	2.36
483.701	2.45
484.055	2.35
484.408	2.33
484.761	2.23
485.114	2.18
485.466	2.25
485.819	2.26
486.172	2.35
486.525	2.38
486.878	2.37
487.23	2.4
487.583	2.37
487.936	2.43
488.288	2.33
488.641	2.3
488.993	2.26
489.345	2.33
489.698	2.37
490.05	2.36
490.402	2.42
490.754	2.5
491.107	2.44
491.459	2.53
491.811	2.47
492.163	2.49
492.515	2.4
492.866	2.33
493.218	2.3
493.57	2.41
493.922	2.39
494.274	2.5
494.625	2.51
494.977	2.49
495.328	2.58
495.68	2.65
496.031	2.57
496.383	2.47
496.734	2.58
497.086	2.49
497.437	2.67
497.788	2.55
498.139	2.6
498.49	2.7
498.842	2.55
499.193	2.56
499.544	2.63
499.894	2.55
500.245	2.47
500.596	2.59
500.947	2.6
501.298	2.61
501.648	2.6
501.999	2.72
502.35	2.71
502.7	2.69
503.051	2.72
503.401	2.66
503.752	2.61
504.102	2.68
504.452	2.61
504.803	2.46
505.153	2.65
505.503	2.56
505.853	2.61
506.203	2.64
506.553	2.56
506.903	2.67
507.253	2.7
507.603	2.64
507.953	2.72
508.303	2.66
508.652	2.61
509.002	2.65
509.352	2.64
509.701	2.65
510.051	2.61
510.4	2.63
510.75	2.7
511.099	2.6
511.449	2.59
511.798	2.75
512.147	2.72
512.496	2.71
512.846	2.63
513.195	2.75
513.544	2.67
513.893	2.6
514.242	2.8
514.591	2.71
514.939	2.72
515.288	2.75
515.637	2.78
515.986	2.74
516.334	2.82
516.683	2.69
517.032	2.78
517.38	2.72
517.729	2.74
518.077	2.8
518.426	2.68
518.774	2.77
519.122	2.71
519.47	2.79
519.819	2.69
520.167	2.72
520.515	2.73
520.863	2.71
521.211	2.78
521.559	2.79
521.907	2.73
522.255	2.89
522.602	2.82
522.95	2.84
523.298	2.85
523.645	2.82
523.993	2.88
524.341	2.8
524.688	2.88
525.036	2.89
525.383	2.85
525.73	2.95
526.078	2.88
526.425	2.8
526.772	2.73
527.119	2.76
527.466	2.8
527.814	2.8
528.161	2.87
528.508	2.79
528.854	2.75
529.201	2.77
529.548	2.66
529.895	2.66
530.242	2.66
530.588	2.73
530.935	2.83
531.282	2.81
531.628	2.83
531.975	2.9
532.321	2.85
532.667	2.91
533.014	2.95
533.36	2.94
533.706	2.94
534.052	2.83
534.399	2.86
534.745	2.77
535.091	2.89
535.437	2.88
535.783	2.93
536.129	2.94
536.474	3.03
536.82	2.91
537.166	3.02
537.512	2.96
537.857	2.93
538.203	2.88
538.549	3.05
538.894	3
539.239	3.14
539.585	3.06
539.93	3.16
540.276	2.98
540.621	3.14
540.966	3.09
541.311	3.08
541.656	2.97
542.001	3.04
542.346	2.99
542.691	2.96
543.036	2.95
543.381	3.02
543.726	3.02
544.071	3.09
544.415	3.02
544.76	2.95
545.105	3.08
545.449	3.07
545.794	3.08
546.138	3.17
546.483	3.09
546.827	3.18
547.171	3.19
547.516	3.35
547.86	3.14
548.204	3.12
548.548	3.22
548.892	3.3
549.236	3.35
549.58	3.25
549.924	3.26
550.268	3.29
550.612	3.48
550.956	3.26
551.3	3.26
551.643	3.36
551.987	3.41
552.33	3.36
552.674	3.49
553.017	3.48
553.361	3.42
553.704	3.35
554.048	3.32
554.391	3.37
554.734	3.33
555.077	3.34
555.42	3.39
555.764	3.55
556.107	3.42
556.45	3.38
556.793	3.77
557.135	3.58
557.478	3.55
557.821	3.54
558.164	3.56
558.507	3.45
558.849	3.53
559.192	3.57
559.534	3.44
559.877	3.83
560.219	3.74
560.562	3.58
560.904	3.6
561.246	3.8
561.589	3.81
561.931	3.9
562.273	3.63
562.615	3.73
562.957	3.61
563.299	3.67
563.641	3.83
563.983	3.72
564.325	3.62
564.667	3.57
565.008	3.69
565.35	3.84
565.692	3.91
566.033	3.83
566.375	3.61
566.716	3.73
567.058	3.91
567.399	3.87
567.741	3.81
568.082	3.8
568.423	3.76
568.764	3.85
569.105	3.97
569.447	3.89
569.788	3.87
570.129	3.94
570.47	4.01
570.811	4.03
571.151	3.99
571.492	4.1
571.833	3.98
572.174	4.01
572.514	3.87
572.855	4.15
573.195	3.96
573.536	4.04
573.876	4.01
574.217	4.01
574.557	4.04
574.898	3.93
575.238	4.01
575.578	4.21
575.918	4.11
576.258	4.03
576.598	4.06
576.938	4.13
577.278	4.16
577.618	4.14
577.958	4.2
578.298	4.14
578.638	4.16
578.977	4.3
579.317	4.32
579.657	4.3
579.996	4.27
580.336	4.33
580.675	4.37
581.014	4.32
581.354	4.47
581.693	4.51
582.032	4.41
582.372	4.6
582.711	4.51
583.05	4.62
583.389	4.5
583.728	4.42
584.067	4.62
584.406	4.67
584.745	4.49
585.083	4.61
585.422	4.57
585.761	4.62
586.1	4.83
586.438	4.78
586.777	4.62
587.115	4.84
587.454	4.73
587.792	4.64
588.13	5.04
588.469	4.79
588.807	4.93
589.145	4.72
589.483	4.62
589.821	4.7
590.159	4.78
590.497	4.61
590.835	4.63
591.173	4.77
591.511	4.92
591.849	4.89
592.187	4.99
592.524	4.8
592.862	5.03
593.2	4.9
593.537	5.09
593.875	5.02
594.212	5.06
594.55	5.06
594.887	5.23
595.224	4.95
595.561	4.85
595.899	4.89
596.236	4.91
596.573	4.93
596.91	5.13
597.247	5.11
597.584	5.29
597.921	5.02
598.258	5.16
598.594	5.03
598.931	5.09
599.268	5.19
599.604	5.41
599.941	5.17
600.277	5.4
600.614	5.19
600.95	5.47
601.287	5.5
601.623	5.54
601.959	5.34
602.296	5.45
602.632	5.63
602.968	5.41
603.304	5.33
603.64	5.31
603.976	5.29
604.312	5.52
604.648	5.44
604.984	5.44
605.319	5.54
605.655	5.57
605.991	5.49
606.326	5.42
606.662	5.55
606.998	5.49
607.333	5.62
607.668	5.6
608.004	5.5
608.339	5.75
608.674	5.67
609.01	5.64
609.345	5.92
609.68	5.55
610.015	5.59
610.35	5.8
610.685	5.98
611.02	6.03
611.355	5.8
611.689	5.64
612.024	6.06
612.359	5.9
612.694	6.06
613.028	6.27
613.363	5.94
613.697	5.89
614.032	6.09
614.366	6.27
614.7	6.38
615.035	6.03
615.369	6.42
615.703	6.81
616.037	6.15
616.371	6.05
616.705	6.49
617.039	6.3
617.373	6.32
617.707	6.03
618.041	6.2
618.375	6.25
618.709	6.3
619.042	6.42
619.376	6.13
619.71	6.37
620.043	6.58
620.377	6.31
620.71	6.48
621.043	6.23
621.377	6.41
621.71	6.75
622.043	6.37
622.376	6.78
622.709	6.83
623.043	6.48
623.376	6.78
623.709	6.75
624.041	6.67
624.374	6.63
624.707	6.68
625.04	6.97
625.373	6.75
625.705	6.87
626.038	6.9
626.37	7.05
626.703	6.51
627.035	6.87
627.368	7.01
627.7	6.94
628.032	6.87
628.365	6.97
628.697	6.88
629.029	7.15
629.361	7.04
629.693	6.94
630.025	7.19
630.357	6.77
630.689	7.16
631.021	7.49
631.353	7.14
631.684	7.03
632.016	6.96
632.348	7.27
632.679	7.26
633.011	7.17
633.342	7.37
633.674	7.18
634.005	7.52
634.336	7.34
634.668	7.33
634.999	7.42
635.33	7.59
635.661	7.5
635.992	7.46
636.323	7.41
636.654	7.45
636.985	7.52
637.316	7.56
637.647	7.71
637.977	7.59
638.308	7.3
638.639	7.49
638.969	7.48
639.3	7.59
639.63	7.29
639.961	7.25
640.291	8.32
640.622	8.07
640.952	7.96
641.282	7.61
641.612	7.78
641.943	8.16
642.273	8.11
642.603	8.37
642.933	8.28
643.263	8.41
643.592	7.9
643.922	8.31
644.252	8.28
644.582	7.75
644.911	7.84
645.241	7.96
645.571	8.31
645.9	8.77
646.23	8.16
646.559	8.65
646.888	8.16
647.218	8.6
647.547	8.77
647.876	9
648.205	8.4
648.534	7.99
648.863	8.84
649.192	8.12
649.521	8.2
649.85	8.55
650.179	7.68
650.508	8.69
650.837	8.69
651.165	8.61
651.494	8.66
651.822	9.17
652.151	8.79
652.479	8.83
652.808	8.33
653.136	8.58
653.465	9.2
653.793	9.12
654.121	8.91
654.449	8.71
654.777	8.86
655.105	8.56
655.433	9.58
655.761	8.45
656.089	8.94
656.417	8.68
656.745	9.55
657.073	9.48
657.4	9.32
657.728	9.56
658.056	8.99
658.383	9.12
658.711	9.06
659.038	9.5
659.365	9.33
659.693	9.05
660.02	9.37
660.347	9.36
660.674	8.9
661.001	8.65
661.329	9.26
661.656	8.8
661.982	9.43
662.309	9.26
662.636	9.56
662.963	9.45
663.29	9.52
663.616	9.31
663.943	9.56
664.27	9.48
664.596	9.29
664.923	9.66
665.249	9.4
665.576	9.58
665.902	9.47
666.228	9.35
666.554	9.96
666.881	9.78
667.207	9.43
667.533	10.1
667.859	9.91
668.185	10
668.511	9.7
668.837	9.54
669.162	9.81
669.488	9.82
669.814	10.42
670.139	10.22
670.465	10.22
670.791	10.07
671.116	10.02
671.442	10.56
671.767	10.33
672.092	10.37
672.418	10.57
672.743	10.1
673.068	10.22
673.393	10.94
673.718	10.63
674.043	10.49
674.368	10.96
674.693	10.85
675.018	10.47
675.343	10.14
675.667	10.91
675.992	10.91
676.317	10.19
676.641	10.82
676.966	10.95
677.29	10.65
677.615	10.61
677.939	10.17
678.264	10.25
678.588	10.98
678.912	11.41
679.236	11.25
679.56	10.07
679.885	11.16
680.209	10.83
680.532	10.97
680.856	11.57
681.18	11.13
681.504	10.31
681.828	10.12
682.152	11.01
682.475	11.26
682.799	11.34
683.122	10.98
683.446	11.15
683.769	11.21
684.093	10.9
684.416	10.43
684.739	11.55
685.062	11.26
685.386	11.4
685.709	10.96
686.032	11.26
686.355	11.3
686.678	11.55
687.001	10.77
687.324	10.83
687.646	11.87
687.969	11.18
688.292	11.69
688.614	12.44
688.937	11.57
689.26	10.71
689.582	11.32
689.904	11.92
690.227	11.81
690.549	12.05
690.871	12.09
691.194	12.28
