Data from 0050_forehead_Reflection__1__26.txt Node

Date: Fri Dec 16 13:59:40 CST 2022
User: ToomeyLab
Spectrometer: FLMS14357
Trigger mode: 0
Integration Time (sec): 1.000000E-2
Scans to average: 100
Electric dark correction enabled: true
Nonlinearity correction enabled: false
Boxcar width: 0
XAxis mode: Wavelengths
Number of Pixels in Spectrum: 2048
>>>>>Begin Spectral Data<<<<<
189.047	27.19
189.435	27.19
189.823	27.19
190.211	22.67
190.599	58.89
190.987	168.65
191.375	74.11
191.763	100
192.151	-175.04
192.538	-15.07
192.926	-16.45
193.314	82.36
193.702	270.21
194.089	3.66
194.477	-128.17
194.864	-109.15
195.252	-91.59
195.639	202.41
196.027	-37.91
196.414	105.2
196.801	110.19
197.189	83.5
197.576	404.86
197.963	-4.64
198.351	27.29
198.738	44.52
199.125	48.99
199.512	48.75
199.899	18.5
200.286	1.33
200.673	48.2
201.06	50.55
201.447	38.35
201.833	44.41
202.22	35.88
202.607	33.21
202.994	42.32
203.38	24.24
203.767	4.12
204.154	0.99
204.54	3.59
204.927	59.46
205.313	30.03
205.699	35.11
206.086	-4.5
206.472	31.99
206.858	13.34
207.245	29.8
207.631	30.02
208.017	39.13
208.403	20.26
208.789	13.28
209.175	35.64
209.561	27.33
209.947	3.39
210.333	-0.57
210.719	22.3
211.105	9.04
211.491	29.02
211.876	67.79
212.262	-12.07
212.648	-7.91
213.034	-1.22
213.419	31.4
213.805	16.56
214.19	36.33
214.576	47.16
214.961	11.86
215.346	-3.76
215.732	15.33
216.117	24.85
216.502	16.56
216.888	-10.55
217.273	37.12
217.658	6.16
218.043	13.95
218.428	13.74
218.813	28.6
219.198	0.66
219.583	30.06
219.968	14.28
220.353	13.96
220.738	5.19
221.122	-6.67
221.507	13.96
221.892	18.47
222.276	41.95
222.661	22.49
223.046	20.85
223.43	3.98
223.815	15.86
224.199	6.18
224.583	5.77
224.968	12.25
225.352	4
225.736	15.82
226.121	8.16
226.505	9.85
226.889	12.23
227.273	9.79
227.657	7.23
228.041	12.48
228.425	6.57
228.809	5.97
229.193	4.92
229.577	5.29
229.961	6.25
230.344	6.31
230.728	6.58
231.112	6.76
231.495	6.01
231.879	7.83
232.263	6.01
232.646	5.24
233.03	5.77
233.413	6.41
233.797	7.28
234.18	4.52
234.563	7.19
234.946	6.39
235.33	8.42
235.713	6.16
236.096	5.32
236.479	7.86
236.862	8.2
237.245	8.34
237.628	6.81
238.011	5.88
238.394	8.25
238.777	8.43
239.16	4.74
239.543	4.15
239.925	7.95
240.308	6.6
240.691	7.53
241.073	6.66
241.456	5.03
241.838	6.26
242.221	6.61
242.603	5.75
242.986	7.37
243.368	6.19
243.75	5.67
244.133	6.15
244.515	6.29
244.897	5.97
245.279	6.44
245.661	7.17
246.043	7.21
246.425	5.35
246.807	6.19
247.189	5.83
247.571	6.19
247.953	6.09
248.335	6.19
248.717	6.43
249.098	6.1
249.48	5.87
249.862	5.84
250.243	6.46
250.625	6.57
251.006	6.34
251.388	6.66
251.769	6.57
252.151	6.46
252.532	6.36
252.913	6.5
253.295	6.06
253.676	6.46
254.057	6.56
254.438	5.95
254.819	6.41
255.2	6.14
255.581	6.44
255.962	6.24
256.343	6.76
256.724	6.99
257.105	6.86
257.486	7.12
257.867	5.02
258.247	6.51
258.628	7.05
259.009	6.47
259.389	5.89
259.77	5.73
260.15	6.89
260.531	6.23
260.911	6.05
261.292	6.04
261.672	6.14
262.052	6.12
262.432	6.03
262.813	6.26
263.193	6.11
263.573	6.08
263.953	6.08
264.333	5.83
264.713	6.06
265.093	6.16
265.473	6.79
265.853	5.81
266.233	5.79
266.612	6.05
266.992	5.82
267.372	6.32
267.752	6.4
268.131	6.3
268.511	6.27
268.89	6.21
269.27	6.52
269.649	5.79
270.029	5.91
270.408	5.9
270.787	5.97
271.167	6.34
271.546	5.76
271.925	5.87
272.304	6.18
272.683	5.93
273.062	6.1
273.441	5.86
273.82	6.15
274.199	6.11
274.578	5.92
274.957	5.88
275.336	6
275.715	6.05
276.093	6.91
276.472	5.6
276.851	6.34
277.229	6.49
277.608	5.81
277.986	5.97
278.365	5.32
278.743	6.39
279.122	5.85
279.5	5.93
279.878	5.27
280.257	5.87
280.635	6.39
281.013	6.57
281.391	5.85
281.769	5.77
282.147	6.47
282.525	6.03
282.903	6.09
283.281	5.97
283.659	6.06
284.037	5.88
284.415	6.35
284.792	6.22
285.17	5.51
285.548	5.47
285.925	5.71
286.303	5.62
286.68	6.13
287.058	6.08
287.435	6.06
287.813	6.11
288.19	6.35
288.567	5.85
288.945	6.44
289.322	5.82
289.699	6.05
290.076	6.16
290.453	6.08
290.83	6.46
291.207	6.37
291.584	6.29
291.961	6.47
292.338	6.41
292.715	6.74
293.092	6.73
293.469	6.9
293.845	7.51
294.222	7.01
294.599	6.86
294.975	7.21
295.352	6.62
295.728	6.84
296.105	6.86
296.481	7.43
296.858	7.55
297.234	7.05
297.61	7.23
297.986	7.09
298.363	6.81
298.739	7.2
299.115	6.84
299.491	7.47
299.867	7.64
300.243	7.22
300.619	7.17
300.995	7.7
301.371	7.89
301.746	7.39
302.122	7.91
302.498	7.72
302.874	7.88
303.249	7.52
303.625	8.03
304	7.27
304.376	7.98
304.751	7.85
305.127	7.67
305.502	7.8
305.878	8.17
306.253	7.85
306.628	8.63
307.003	8.36
307.378	8.07
307.754	8.4
308.129	7.98
308.504	8.18
308.879	8.61
309.254	8.49
309.629	8.45
310.003	8.96
310.378	9.05
310.753	8.52
311.128	8.47
311.502	8.45
311.877	8.72
312.252	8.59
312.626	8.71
313.001	9.13
313.375	9.08
313.75	8.91
314.124	9.91
314.498	9.33
314.873	9.55
315.247	8.85
315.621	9.63
315.995	9.51
316.369	9.36
316.743	9.91
317.117	9.37
317.491	9.77
317.865	9.06
318.239	9.84
318.613	9.89
318.987	9.88
319.361	9.85
319.734	10.52
320.108	9.94
320.482	9.97
320.855	10.1
321.229	10.35
321.602	9.97
321.976	10.15
322.349	10.19
322.723	10.15
323.096	10.68
323.469	10.14
323.843	10.42
324.216	10.39
324.589	11.1
324.962	10.45
325.335	10.9
325.708	10.68
326.081	11.21
326.454	10.85
326.827	10.81
327.2	11.33
327.573	11.06
327.945	10.74
328.318	11.57
328.691	10.85
329.063	10.88
329.436	10.83
329.809	11.43
330.181	11.11
330.553	11.46
330.926	11.35
331.298	10.98
331.671	11.54
332.043	11.32
332.415	11.94
332.787	11.74
333.159	11.72
333.532	11.48
333.904	11.71
334.276	11.88
334.648	11.79
335.02	11.68
335.391	12.2
335.763	11.8
336.135	11.91
336.507	11.99
336.879	12.09
337.25	12.01
337.622	12.39
337.993	12.05
338.365	12.1
338.736	12.49
339.108	11.82
339.479	12.06
339.851	12.93
340.222	12.6
340.593	12.26
340.964	12.26
341.336	12.12
341.707	12.28
342.078	12.32
342.449	13.22
342.82	12.28
343.191	12.46
343.562	12.88
343.933	12.72
344.303	12.93
344.674	13.03
345.045	12.96
345.416	13.03
345.786	12.51
346.157	12.86
346.527	12.92
346.898	12.92
347.268	13
347.639	13.11
348.009	13.11
348.38	13.24
348.75	13.2
349.12	13.56
349.49	13.6
349.861	14.08
350.231	13.55
350.601	13.58
350.971	13.54
351.341	13.85
351.711	13.49
352.081	13.77
352.45	14.01
352.82	13.64
353.19	13.68
353.56	14.04
353.929	13.91
354.299	13.97
354.669	14.36
355.038	13.69
355.408	14.35
355.777	13.97
356.147	14.34
356.516	14.4
356.885	14.31
357.254	14.36
357.624	14.33
357.993	13.94
358.362	14.6
358.731	14.05
359.1	14.19
359.469	14.24
359.838	14.37
360.207	14.43
360.576	14.58
360.945	14.06
361.314	14.61
361.682	14.4
362.051	14.7
362.42	14.84
362.788	14.91
363.157	14.7
363.525	14.74
363.894	14.61
364.262	14.8
364.631	15.33
364.999	14.63
365.367	15.34
365.735	14.77
366.104	14.8
366.472	15.4
366.84	15.4
367.208	14.97
367.576	15.17
367.944	15.49
368.312	15.28
368.68	15.46
369.048	15.67
369.416	15.54
369.783	15.18
370.151	15.6
370.519	15.59
370.886	15.44
371.254	15.79
371.621	15.76
371.989	15.83
372.356	15.52
372.724	15.8
373.091	15.79
373.458	15.67
373.826	15.61
374.193	16.41
374.56	15.79
374.927	16.09
375.294	16.18
375.661	16.26
376.028	15.97
376.395	16.17
376.762	16.19
377.129	16.61
377.496	16.3
377.863	16.73
378.229	16.47
378.596	16.52
378.963	16.49
379.329	16.57
379.696	16.63
380.062	16.75
380.429	16.8
380.795	16.45
381.161	16.56
381.528	16.82
381.894	16.73
382.26	16.74
382.626	16.87
382.993	16.76
383.359	16.93
383.725	17.34
384.091	17.06
384.457	17.59
384.823	17.19
385.188	17.65
385.554	17.19
385.92	17.35
386.286	17.36
386.651	17.32
387.017	17.52
387.383	17.3
387.748	17.29
388.114	17.39
388.479	17.78
388.845	17.82
389.21	17.58
389.575	17.76
389.94	17.75
390.306	17.6
390.671	17.74
391.036	18.03
391.401	18.24
391.766	17.88
392.131	18.05
392.496	17.96
392.861	17.92
393.226	18.06
393.591	17.94
393.956	18.31
394.32	18.11
394.685	18.25
395.05	18.07
395.414	18.24
395.779	18.22
396.143	17.98
396.508	18.11
396.872	18.33
397.236	17.96
397.601	18.52
397.965	18.31
398.329	18.79
398.694	18.49
399.058	18.74
399.422	18.66
399.786	18.77
400.15	18.6
400.514	18.69
400.878	18.65
401.242	18.77
401.605	18.9
401.969	18.78
402.333	18.93
402.697	19.17
403.06	18.86
403.424	18.8
403.787	19.2
404.151	18.88
404.514	19.29
404.878	19.32
405.241	19.28
405.604	19.1
405.968	19.07
406.331	19.08
406.694	19.1
407.057	19.38
407.42	19.18
407.783	19.27
408.146	19.44
408.509	19.13
408.872	19.35
409.235	19.55
409.598	19.61
409.961	19.87
410.323	19.63
410.686	19.72
411.049	19.59
411.411	19.37
411.774	19.44
412.136	19.85
412.499	19.63
412.861	19.7
413.223	20.01
413.586	19.87
413.948	20.09
414.31	20.17
414.672	19.89
415.035	19.98
415.397	20.17
415.759	20.28
416.121	20.19
416.483	20.36
416.845	20.06
417.206	20.14
417.568	20.27
417.93	20.13
418.292	20.2
418.653	20.21
419.015	20.14
419.377	20.13
419.738	20.06
420.1	20.12
420.461	20.13
420.822	20.33
421.184	20.26
421.545	20.32
421.906	20.17
422.267	20.1
422.629	20.09
422.99	20.14
423.351	20.1
423.712	20.24
424.073	20.48
424.434	20.33
424.795	20.3
425.155	20.45
425.516	20.41
425.877	20.45
426.238	20.28
426.598	20.36
426.959	20.54
427.32	20.65
427.68	20.67
428.041	20.79
428.401	20.97
428.761	20.88
429.122	21.08
429.482	20.91
429.842	21.15
430.202	21.09
430.563	21.38
430.923	21.29
431.283	21.39
431.643	21.44
432.003	21.37
432.363	21.34
432.722	21.35
433.082	21.41
433.442	21.5
433.802	21.37
434.161	21.43
434.521	21.57
434.881	21.67
435.24	21.45
435.6	21.53
435.959	21.57
436.319	21.56
436.678	21.7
437.037	21.82
437.396	21.79
437.756	21.84
438.115	21.75
438.474	21.91
438.833	21.99
439.192	22.12
439.551	21.92
439.91	21.92
440.269	22.06
440.628	21.94
440.987	21.85
441.345	21.94
441.704	22.02
442.063	21.8
442.421	22.16
442.78	21.96
443.138	21.97
443.497	22.03
443.855	22.21
444.214	22.32
444.572	22.19
444.93	22.29
445.288	22.47
445.647	22.43
446.005	22.22
446.363	22.48
446.721	22.26
447.079	22.31
447.437	22.29
447.795	22.18
448.153	22.23
448.51	22.22
448.868	22.39
449.226	22.33
449.584	22.39
449.941	22.66
450.299	22.66
450.656	22.76
451.014	22.85
451.371	22.81
451.729	22.84
452.086	22.88
452.443	22.84
452.801	23.02
453.158	23.22
453.515	23
453.872	23.14
454.229	22.91
454.586	23.15
454.943	23.02
455.3	23.18
455.657	23.05
456.014	23.34
456.371	23.42
456.727	23.33
457.084	23.33
457.441	23.33
457.797	23.53
458.154	23.47
458.51	23.49
458.867	23.56
459.223	23.67
459.58	23.5
459.936	23.63
460.292	23.59
460.648	23.57
461.005	23.26
461.361	23.2
461.717	23.35
462.073	23.33
462.429	23.61
462.785	23.71
463.141	23.83
463.496	23.77
463.852	23.99
464.208	23.87
464.564	24
464.919	24
465.275	24.11
465.631	24.05
465.986	23.95
466.342	24.41
466.697	24.01
467.052	24.19
467.408	24.21
467.763	24.17
468.118	24.37
468.473	24.44
468.829	24.13
469.184	24.31
469.539	24.15
469.894	24.28
470.249	24.29
470.603	24.47
470.958	24.44
471.313	24.5
471.668	24.6
472.023	24.54
472.377	24.64
472.732	24.64
473.086	24.59
473.441	24.6
473.795	24.74
474.15	24.72
474.504	24.86
474.859	24.73
475.213	24.82
475.567	24.88
475.921	24.95
476.275	24.79
476.63	24.9
476.984	25.04
477.338	25.26
477.692	25.15
478.045	24.99
478.399	25.02
478.753	24.77
479.107	24.94
479.461	24.85
479.814	25
480.168	25.15
480.521	25.27
480.875	25.24
481.228	25.41
481.582	25.17
481.935	25.17
482.289	25.17
482.642	25.22
482.995	25.09
483.348	25.04
483.701	25.01
484.055	25.05
484.408	24.84
484.761	24.63
485.114	24.54
485.466	24.6
485.819	24.48
486.172	24.54
486.525	24.59
486.878	24.79
487.23	24.96
487.583	24.97
487.936	25
488.288	25.03
488.641	24.92
488.993	24.87
489.345	24.85
489.698	24.89
490.05	24.95
490.402	25.06
490.754	25.26
491.107	25.37
491.459	25.47
491.811	25.63
492.163	25.71
492.515	25.36
492.866	25.16
493.218	25.26
493.57	25.33
493.922	25.25
494.274	25.47
494.625	25.72
494.977	25.92
495.328	26.01
495.68	26.25
496.031	26.29
496.383	26.29
496.734	26.26
497.086	26.26
497.437	26.27
497.788	26.31
498.139	26.35
498.49	26.26
498.842	26.29
499.193	26.21
499.544	26.48
499.894	26.4
500.245	26.52
500.596	26.55
500.947	26.55
501.298	26.61
501.648	26.76
501.999	26.93
502.35	26.89
502.7	26.89
503.051	27.13
503.401	26.99
503.752	26.86
504.102	26.93
504.452	26.92
504.803	26.63
505.153	27.05
505.503	26.95
505.853	26.88
506.203	26.96
506.553	26.95
506.903	26.96
507.253	27.14
507.603	27.05
507.953	27.25
508.303	27.19
508.652	27.25
509.002	27.19
509.352	27.15
509.701	27.32
510.051	27.15
510.4	27.19
510.75	27.11
511.099	27.23
511.449	27.19
511.798	27.36
512.147	27.23
512.496	27.48
512.846	27.27
513.195	27.3
513.544	27.41
513.893	27.38
514.242	27.46
514.591	27.51
514.939	27.62
515.288	27.63
515.637	27.86
515.986	27.63
516.334	27.82
516.683	27.89
517.032	27.79
517.38	27.73
517.729	27.97
518.077	27.99
518.426	27.86
518.774	27.85
519.122	27.68
519.47	27.8
519.819	27.62
520.167	27.7
520.515	27.74
520.863	27.74
521.211	27.83
521.559	27.84
521.907	27.96
522.255	27.96
522.602	28.21
522.95	28.2
523.298	28.21
523.645	28.22
523.993	28.39
524.341	28.39
524.688	28.26
525.036	28.4
525.383	28.5
525.73	28.51
526.078	28.35
526.425	28.46
526.772	28.09
527.119	28.18
527.466	28.04
527.814	28.04
528.161	28.18
528.508	28.16
528.854	28.18
529.201	27.92
529.548	28
529.895	27.85
530.242	27.97
530.588	27.95
530.935	27.94
531.282	27.97
531.628	28.06
531.975	28.33
532.321	28.45
532.667	28.49
533.014	28.79
533.36	28.66
533.706	28.59
534.052	28.71
534.399	28.4
534.745	28.33
535.091	28.43
535.437	28.44
535.783	28.46
536.129	28.68
536.474	28.87
536.82	28.78
537.166	29.05
537.512	29.17
537.857	29.02
538.203	28.85
538.549	28.95
538.894	29.09
539.239	29.08
539.585	29.19
539.93	29.4
540.276	29.49
540.621	29.56
540.966	29.5
541.311	29.36
541.656	29.29
542.001	29.23
542.346	28.95
542.691	28.91
543.036	28.98
543.381	29.09
543.726	28.99
544.071	29.12
544.415	29.13
544.76	29.23
545.105	29.35
545.449	29.43
545.794	29.59
546.138	29.68
546.483	29.6
546.827	29.75
547.171	29.72
547.516	29.92
547.86	29.77
548.204	29.72
548.548	29.95
548.892	29.79
549.236	29.99
549.58	29.94
549.924	30.15
550.268	30.47
550.612	30.36
550.956	30.49
551.3	30.31
551.643	30.42
551.987	30.68
552.33	30.59
552.674	30.75
553.017	30.58
553.361	30.63
553.704	30.54
554.048	30.49
554.391	30.56
554.734	30.58
555.077	30.7
555.42	30.83
555.764	30.71
556.107	30.88
556.45	30.8
556.793	31.11
557.135	31.03
557.478	31.15
557.821	30.92
558.164	31.13
558.507	31.01
558.849	30.91
559.192	31.13
559.534	31.08
559.877	31.47
560.219	31.3
560.562	31.16
560.904	31.23
561.246	31.43
561.589	31.32
561.931	31.49
562.273	30.98
562.615	31.26
562.957	31.43
563.299	31.36
563.641	31.65
563.983	31.56
564.325	31.29
564.667	31.49
565.008	31.33
565.35	31.56
565.692	31.65
566.033	31.79
566.375	31.64
566.716	31.7
567.058	31.75
567.399	31.64
567.741	31.5
568.082	31.67
568.423	31.59
568.764	31.82
569.105	31.63
569.447	31.79
569.788	31.89
570.129	31.67
570.47	31.87
570.811	31.73
571.151	31.79
571.492	32.08
571.833	32.04
572.174	31.83
572.514	31.95
572.855	32.04
573.195	31.75
573.536	31.78
573.876	31.94
574.217	31.86
574.557	31.92
574.898	31.98
575.238	31.95
575.578	32.01
575.918	32.28
576.258	32.25
576.598	32.22
576.938	32.36
577.278	32.38
577.618	32.38
577.958	32.45
578.298	32.58
578.638	32.44
578.977	32.32
579.317	32.65
579.657	32.33
579.996	32.75
580.336	32.27
580.675	32.49
581.014	32.81
581.354	32.74
581.693	32.56
582.032	32.83
582.372	32.97
582.711	33.01
583.05	33.07
583.389	33.23
583.728	33.25
584.067	33.09
584.406	32.85
584.745	32.96
585.083	33.12
585.422	33.01
585.761	33.19
586.1	33.24
586.438	33.49
586.777	33.12
587.115	33.3
587.454	33.36
587.792	33.17
588.13	33.36
588.469	33.6
588.807	33.32
589.145	33.77
589.483	33.56
589.821	33.35
590.159	33.24
590.497	33.29
590.835	33.64
591.173	33.68
591.511	33.45
591.849	33.46
592.187	33.63
592.524	33.49
592.862	33.81
593.2	33.62
593.537	33.94
593.875	33.64
594.212	33.75
594.55	33.67
594.887	33.97
595.224	33.55
595.561	33.72
595.899	33.79
596.236	33.94
596.573	33.69
596.91	33.91
597.247	33.91
597.584	34
597.921	33.87
598.258	33.63
598.594	33.57
598.931	33.8
599.268	33.73
599.604	34.14
599.941	33.83
600.277	34.17
600.614	34.31
600.95	34.36
601.287	34.59
601.623	34.59
601.959	34.25
602.296	34.65
602.632	34.63
602.968	34.28
603.304	34.44
603.64	34.36
603.976	34.4
604.312	34.57
604.648	34.43
604.984	34.41
605.319	34.23
605.655	34.25
605.991	34.49
606.326	34.26
606.662	34.29
606.998	34.54
607.333	34.31
607.668	34.5
608.004	34.4
608.339	34.57
608.674	34.76
609.01	34.72
609.345	34.57
609.68	34.55
610.015	34.81
610.35	34.82
610.685	34.75
611.02	34.84
611.355	34.76
611.689	34.55
612.024	35.03
612.359	34.98
612.694	35
613.028	35.28
613.363	35.56
613.697	35.09
614.032	35.09
614.366	35.39
614.7	35.12
615.035	35.11
615.369	35.1
615.703	35.55
616.037	35.14
616.371	35.29
616.705	35.54
617.039	35.53
617.373	35.53
617.707	35.11
618.041	35.67
618.375	35.49
618.709	35.51
619.042	35.96
619.376	35.71
619.71	35.79
620.043	35.69
620.377	35.99
620.71	35.82
621.043	35.42
621.377	35.71
621.71	35.86
622.043	36.14
622.376	35.51
622.709	35.88
623.043	35.84
623.376	36.1
623.709	35.77
624.041	35.9
624.374	35.96
624.707	35.77
625.04	36.1
625.373	35.82
625.705	35.97
626.038	36.18
626.37	35.99
626.703	35.65
627.035	36.25
627.368	36.3
627.7	35.99
628.032	36.38
628.365	36.28
628.697	36.2
629.029	36.54
629.361	36
629.693	36.55
630.025	36.37
630.357	36.32
630.689	36.4
631.021	36.21
631.353	36.49
631.684	36.77
632.016	36.5
632.348	36.65
632.679	36.95
633.011	36.28
633.342	36.35
633.674	36.53
634.005	36.28
634.336	36.77
634.668	36.51
634.999	36.25
635.33	36.6
635.661	36.82
635.992	36.8
636.323	36.61
636.654	37.1
636.985	36.83
637.316	36.67
637.647	36.68
637.977	36.95
638.308	36.61
638.639	36.85
638.969	36.67
639.3	36.83
639.63	37.31
639.961	37.04
640.291	37.16
640.622	36.81
640.952	36.89
641.282	36.88
641.612	36.4
641.943	36.81
642.273	37.08
642.603	37.41
642.933	37.33
643.263	37.46
643.592	37.16
643.922	37.89
644.252	37.41
644.582	37.23
644.911	37.37
645.241	37.3
645.571	37.6
645.9	37.68
646.23	37.57
646.559	37.73
646.888	36.84
647.218	37.56
647.547	37.82
647.876	37.96
648.205	37.68
648.534	37.12
648.863	37.77
649.192	37.25
649.521	37.44
649.85	38
650.179	37.57
650.508	37.2
650.837	37.69
651.165	37.64
651.494	37.43
651.822	37.7
652.151	37.95
652.479	37.94
652.808	37.86
653.136	37.63
653.465	37.96
653.793	38.03
654.121	37.82
654.449	37.62
654.777	38.16
655.105	37.95
655.433	38.2
655.761	37.89
656.089	38.02
656.417	38.43
656.745	38.35
657.073	38.55
657.4	38.83
657.728	37.55
658.056	37.72
658.383	38.27
658.711	38.27
659.038	38.15
659.365	38.28
659.693	38
660.02	38.63
660.347	38.05
660.674	37.99
661.001	38.24
661.329	38.01
661.656	38.48
661.982	38.43
662.309	38.12
662.636	38.15
662.963	38.18
663.29	38.13
663.616	38.36
663.943	38.92
664.27	39.05
664.596	38.72
664.923	39.54
665.249	38.81
665.576	38.8
665.902	39.01
666.228	38.67
666.554	38.45
666.881	39.16
667.207	38.91
667.533	38.57
667.859	39.01
668.185	38.59
668.511	38.37
668.837	38.66
669.162	38.72
669.488	38.69
