Data from 0050_crown_Reflection__0__20.txt Node

Date: Fri Dec 16 13:58:13 CST 2022
User: ToomeyLab
Spectrometer: FLMS14357
Trigger mode: 0
Integration Time (sec): 1.000000E-2
Scans to average: 100
Electric dark correction enabled: true
Nonlinearity correction enabled: false
Boxcar width: 0
XAxis mode: Wavelengths
Number of Pixels in Spectrum: 2048
>>>>>Begin Spectral Data<<<<<
189.047	171.78
189.435	171.78
189.823	171.78
190.211	126.36
190.599	95.96
190.987	-489.99
191.375	92.1
191.763	47.76
192.151	320.79
192.538	82
192.926	-56.12
193.314	90.44
193.702	-1172.34
194.089	43.91
194.477	-296.28
194.864	-0.04
195.252	15.28
195.639	105.04
196.027	257.05
196.414	-65.78
196.801	108.92
197.189	120.47
197.576	-395.4
197.963	-62.9
198.351	-12.67
198.738	21.01
199.125	29.44
199.512	27.01
199.899	-38.87
200.286	-22.23
200.673	10.25
201.06	14.03
201.447	34.69
201.833	9.94
202.22	22.64
202.607	-10.68
202.994	66.31
203.38	-32.75
203.767	-2.6
204.154	-30.46
204.54	18.38
204.927	-0.28
205.313	26.04
205.699	14.3
206.086	10.63
206.472	38.53
206.858	10.84
207.245	-10.72
207.631	13.59
208.017	3.16
208.403	26.67
208.789	3.96
209.175	32.89
209.561	-0.01
209.947	7.79
210.333	-6.46
210.719	-15.36
211.105	10.49
211.491	-8.31
211.876	-32.63
212.262	-32.45
212.648	-20.95
213.034	-5.04
213.419	35.77
213.805	0.93
214.19	-16.28
214.576	12.8
214.961	12.09
215.346	-16.24
215.732	7.1
216.117	-24.55
216.502	-23.17
216.888	-18.61
217.273	11.68
217.658	13.14
218.043	20
218.428	17.13
218.813	23.57
219.198	-20.99
219.583	8.65
219.968	-0.27
220.353	12.76
220.738	3.36
221.122	-10.79
221.507	5.3
221.892	12.54
222.276	14.99
222.661	5.45
223.046	15.43
223.43	6.58
223.815	2.4
224.199	3.28
224.583	13.37
224.968	15.21
225.352	1.78
225.736	10.64
226.121	6.98
226.505	13.05
226.889	11.82
227.273	9.65
227.657	9.37
228.041	9.97
228.425	9.59
228.809	8.7
229.193	7.27
229.577	9.55
229.961	9.49
230.344	10.08
230.728	9.9
231.112	9.79
231.495	9.54
231.879	10.69
232.263	9.06
232.646	9.09
233.03	7.68
233.413	7.11
233.797	12.3
234.18	7.62
234.563	9.5
234.946	7.55
235.33	9.75
235.713	8.68
236.096	7.44
236.479	11.22
236.862	8.62
237.245	10.39
237.628	9.27
238.011	10.09
238.394	11.33
238.777	9.26
239.16	8.96
239.543	10.05
239.925	9.41
240.308	10.13
240.691	8.89
241.073	9.5
241.456	8.74
241.838	9.16
242.221	9.16
242.603	8.53
242.986	9.88
243.368	9.02
243.75	8.92
244.133	9.11
244.515	8.91
244.897	8.15
245.279	8.81
245.661	8.06
246.043	9.4
246.425	8.78
246.807	8.83
247.189	8.11
247.571	8.94
247.953	9
248.335	8.81
248.717	8.41
249.098	8.47
249.48	8.11
249.862	8.65
250.243	8.23
250.625	8.35
251.006	8.47
251.388	8.4
251.769	8.66
252.151	8.48
252.532	8.13
252.913	7.84
253.295	8.77
253.676	8.52
254.057	7.75
254.438	7.56
254.819	8.53
255.2	8.4
255.581	8.04
255.962	8.08
256.343	7.45
256.724	7.94
257.105	7.54
257.486	6.89
257.867	6.96
258.247	8.17
258.628	8.27
259.009	7.37
259.389	7.63
259.77	8.24
260.15	8.37
260.531	7.98
260.911	8.14
261.292	7.81
261.672	7.49
262.052	7.67
262.432	7.75
262.813	7.31
263.193	7.12
263.573	7.68
263.953	7.66
264.333	7.79
264.713	7.81
265.093	7.61
265.473	8.72
265.853	6.96
266.233	7.14
266.612	7.43
266.992	7.69
267.372	7.46
267.752	6.96
268.131	7.2
268.511	7.58
268.89	7.55
269.27	7.38
269.649	7.37
270.029	7.03
270.408	7.21
270.787	6.77
271.167	7.17
271.546	6.48
271.925	7.45
272.304	7.37
272.683	7
273.062	7.57
273.441	7.34
273.82	7.14
274.199	7.01
274.578	6.9
274.957	7.38
275.336	6.97
275.715	7.56
276.093	7.2
276.472	6.83
276.851	7.38
277.229	7.04
277.608	7.14
277.986	6.57
278.365	6.88
278.743	7.28
279.122	6.44
279.5	6.61
279.878	6.36
280.257	7.1
280.635	6.59
281.013	6.89
281.391	6.64
281.769	6.78
282.147	6.87
282.525	6.87
282.903	7
283.281	6.82
283.659	7.13
284.037	6.58
284.415	6.96
284.792	6.71
285.17	6.38
285.548	6.61
285.925	6.83
286.303	6.75
286.68	6.87
287.058	6.75
287.435	6.69
287.813	6.78
288.19	6.88
288.567	6.06
288.945	6.39
289.322	6.21
289.699	6.73
290.076	7.18
290.453	6.53
290.83	6.82
291.207	6.76
291.584	6.26
291.961	6.62
292.338	6.33
292.715	6.47
293.092	6.54
293.469	6.96
293.845	6.61
294.222	6.53
294.599	6.19
294.975	6.89
295.352	6.2
295.728	6.82
296.105	6.53
296.481	6.78
296.858	6.43
297.234	6.59
297.61	6.58
297.986	6.23
298.363	6.17
298.739	6.52
299.115	6.06
299.491	6.38
299.867	6.38
300.243	6.26
300.619	5.9
300.995	6.55
301.371	6.52
301.746	6.35
302.122	6.31
302.498	6.52
302.874	6.39
303.249	6.66
303.625	6.02
304	5.94
304.376	5.87
304.751	6.52
305.127	6.08
305.502	6.21
305.878	6.22
306.253	5.65
306.628	6.39
307.003	6.44
307.378	5.99
307.754	6.57
308.129	5.98
308.504	5.98
308.879	5.98
309.254	6.14
309.629	6.13
310.003	6.6
310.378	6.18
310.753	6.08
311.128	6.11
311.502	6.01
311.877	6.22
312.252	6.15
312.626	5.62
313.001	6.18
313.375	5.74
313.75	5.72
314.124	6.11
314.498	5.78
314.873	5.66
315.247	5.46
315.621	5.95
315.995	6.15
316.369	6.3
316.743	6.1
317.117	5.99
317.491	6.2
317.865	5.2
318.239	6.06
318.613	6.22
318.987	6.12
319.361	6.13
319.734	5.84
320.108	6.25
320.482	5.87
320.855	5.75
321.229	6.02
321.602	5.9
321.976	5.42
322.349	5.07
322.723	5.37
323.096	5.58
323.469	5.4
323.843	5.82
324.216	5.28
324.589	6.32
324.962	6.06
325.335	5.36
325.708	5.95
326.081	6.31
326.454	6.29
326.827	6.13
327.2	6.36
327.573	6
327.945	5.99
328.318	5.97
328.691	5.63
329.063	5.77
329.436	6.13
329.809	6.14
330.181	5.41
330.553	6.1
330.926	5.68
331.298	5.21
331.671	5.96
332.043	6.04
332.415	6.33
332.787	6.38
333.159	5.54
333.532	5.73
333.904	5.91
334.276	5.75
334.648	5.96
335.02	6.02
335.391	5.61
335.763	5.49
336.135	5.83
336.507	6.3
336.879	5.74
337.25	5.81
337.622	5.72
337.993	6.45
338.365	5.7
338.736	5.56
339.108	5.69
339.479	6.01
339.851	6.3
340.222	6.25
340.593	5.96
340.964	5.93
341.336	5.6
341.707	6.23
342.078	5.41
342.449	6.04
342.82	6.02
343.191	5.62
343.562	5.62
343.933	5.75
344.303	5.86
344.674	6.2
345.045	6.26
345.416	5.83
345.786	5.74
346.157	5.82
346.527	5.84
346.898	5.74
347.268	6.16
347.639	5.77
348.009	5.93
348.38	5.8
348.75	5.79
349.12	5.62
349.49	5.83
349.861	6.51
350.231	6.11
350.601	5.87
350.971	5.94
351.341	6.21
351.711	6.27
352.081	5.81
352.45	5.82
352.82	6.03
353.19	6.11
353.56	6.05
353.929	6.01
354.299	6.06
354.669	6.23
355.038	5.9
355.408	6.45
355.777	5.59
356.147	6.23
356.516	6.32
356.885	6.31
357.254	6.18
357.624	6
357.993	5.89
358.362	6.26
358.731	6.18
359.1	6.51
359.469	6.09
359.838	6.02
360.207	5.99
360.576	6.36
360.945	5.96
361.314	6.19
361.682	6.02
362.051	6.05
362.42	6.27
362.788	6.35
363.157	6.04
363.525	6.08
363.894	5.87
364.262	6.02
364.631	6.59
364.999	5.91
365.367	6.22
365.735	5.66
366.104	6.06
366.472	6.24
366.84	6.45
367.208	6.02
367.576	6.22
367.944	6.57
368.312	5.96
368.68	6.36
369.048	6.35
369.416	6.37
369.783	6.29
370.151	6.27
370.519	6.17
370.886	6.43
371.254	6.27
371.621	6.18
371.989	6.46
372.356	6.31
372.724	6.13
373.091	6.34
373.458	6.16
373.826	5.89
374.193	6.46
374.56	6.23
374.927	6.46
375.294	6.54
375.661	6.32
376.028	6.35
376.395	6.26
376.762	6.59
377.129	6.63
377.496	6.35
377.863	6.15
378.229	6.28
378.596	6.31
378.963	6.32
379.329	6.4
379.696	6.35
380.062	6.72
380.429	6.41
380.795	6.2
381.161	6.54
381.528	6.09
381.894	6.42
382.26	6.4
382.626	6.18
382.993	6.23
383.359	6.31
383.725	6.73
384.091	6.5
384.457	6.6
384.823	6.43
385.188	6.75
385.554	6.67
385.92	6.67
386.286	6.6
386.651	6.63
387.017	6.53
387.383	6.41
387.748	6.56
388.114	6.5
388.479	6.76
388.845	6.48
389.21	6.66
389.575	6.39
389.94	6.58
390.306	6.51
390.671	6.38
391.036	6.68
391.401	6.77
391.766	6.4
392.131	6.47
392.496	6.54
392.861	6.48
393.226	6.6
393.591	6.54
393.956	6.61
394.32	6.7
394.685	6.82
395.05	6.63
395.414	6.72
395.779	6.51
396.143	6.52
396.508	6.6
396.872	6.52
397.236	6.55
397.601	6.67
397.965	6.43
398.329	6.64
398.694	6.41
399.058	6.43
399.422	6.76
399.786	6.64
400.15	6.5
400.514	6.67
400.878	6.69
401.242	6.78
401.605	6.66
401.969	6.77
402.333	6.64
402.697	6.71
403.06	6.63
403.424	6.7
403.787	6.92
404.151	6.67
404.514	6.88
404.878	6.55
405.241	6.72
405.604	6.74
405.968	6.64
406.331	6.68
406.694	6.61
407.057	6.92
407.42	6.65
407.783	6.7
408.146	6.71
408.509	6.54
408.872	6.55
409.235	6.74
409.598	6.88
409.961	6.91
410.323	6.83
410.686	6.66
411.049	6.81
411.411	6.85
411.774	6.69
412.136	6.94
412.499	6.64
412.861	6.53
413.223	6.76
413.586	6.72
413.948	7.06
414.31	7.07
414.672	6.7
415.035	6.93
415.397	6.98
415.759	6.9
416.121	6.93
416.483	6.92
416.845	6.83
417.206	6.99
417.568	6.87
417.93	6.69
418.292	6.97
418.653	7.04
419.015	6.88
419.377	6.72
419.738	6.78
420.1	6.82
420.461	6.68
420.822	6.81
421.184	6.8
421.545	6.72
421.906	6.77
422.267	6.57
422.629	6.68
422.99	6.69
423.351	6.63
423.712	6.71
424.073	6.72
424.434	6.67
424.795	6.76
425.155	6.78
425.516	6.68
425.877	6.66
426.238	6.61
426.598	6.68
426.959	6.61
427.32	6.82
427.68	6.79
428.041	6.8
428.401	6.88
428.761	6.79
429.122	6.78
429.482	6.65
429.842	6.83
430.202	6.87
430.563	6.85
430.923	6.79
431.283	6.85
431.643	6.83
432.003	6.99
432.363	6.93
432.722	6.64
433.082	6.84
433.442	6.73
433.802	6.88
434.161	6.76
434.521	6.84
434.881	6.79
435.24	6.81
435.6	6.82
435.959	6.8
436.319	6.83
436.678	6.87
437.037	6.75
437.396	6.76
437.756	6.69
438.115	6.96
438.474	6.9
438.833	6.97
439.192	7
439.551	6.92
439.91	6.99
440.269	6.97
440.628	6.82
440.987	6.82
441.345	6.65
441.704	6.86
442.063	6.8
442.421	6.85
442.78	6.73
443.138	6.69
443.497	6.68
443.855	6.8
444.214	6.86
444.572	6.86
444.93	6.87
445.288	6.83
445.647	6.95
446.005	6.71
446.363	6.75
446.721	6.66
447.079	6.87
447.437	6.71
447.795	6.66
448.153	6.7
448.51	6.69
448.868	6.77
449.226	6.7
449.584	6.72
449.941	6.84
450.299	6.84
450.656	6.71
451.014	6.76
451.371	6.8
451.729	6.88
452.086	6.63
452.443	6.75
452.801	6.8
453.158	6.72
453.515	6.87
453.872	6.97
454.229	6.67
454.586	6.74
454.943	6.7
455.3	6.97
455.657	6.66
456.014	6.82
456.371	6.83
456.727	6.76
457.084	6.73
457.441	6.79
457.797	6.8
458.154	6.89
458.51	6.89
458.867	6.82
459.223	6.82
459.58	6.79
459.936	6.75
460.292	6.9
460.648	6.82
461.005	6.71
461.361	6.68
461.717	6.74
462.073	6.62
462.429	6.66
462.785	6.76
463.141	6.88
463.496	6.7
463.852	6.99
464.208	6.75
464.564	6.67
464.919	6.83
465.275	6.9
465.631	6.78
465.986	6.8
466.342	6.82
466.697	6.66
467.052	6.88
467.408	6.81
467.763	6.65
468.118	6.75
468.473	6.93
468.829	6.84
469.184	6.76
469.539	6.63
469.894	6.79
470.249	6.9
470.603	6.72
470.958	6.78
471.313	6.78
471.668	6.97
472.023	6.87
472.377	6.62
472.732	6.74
473.086	6.6
473.441	6.78
473.795	7.01
474.15	6.68
474.504	6.75
474.859	6.71
475.213	6.82
475.567	6.71
475.921	6.81
476.275	6.92
476.63	6.89
476.984	6.75
477.338	6.92
477.692	6.74
478.045	6.72
478.399	6.88
478.753	6.68
479.107	6.79
479.461	6.77
479.814	6.75
480.168	6.67
480.521	6.73
480.875	6.82
481.228	6.8
481.582	6.67
481.935	6.68
482.289	6.67
482.642	6.75
482.995	6.7
483.348	6.61
483.701	6.57
484.055	6.64
484.408	6.62
484.761	6.46
485.114	6.4
485.466	6.39
485.819	6.29
486.172	6.3
486.525	6.33
486.878	6.34
487.23	6.44
487.583	6.53
487.936	6.54
488.288	6.56
488.641	6.52
488.993	6.39
489.345	6.34
489.698	6.4
490.05	6.39
490.402	6.44
490.754	6.46
491.107	6.5
491.459	6.61
491.811	6.65
492.163	6.58
492.515	6.57
492.866	6.48
493.218	6.48
493.57	6.46
493.922	6.38
494.274	6.43
494.625	6.46
494.977	6.46
495.328	6.65
495.68	6.73
496.031	6.75
496.383	6.56
496.734	6.66
497.086	6.5
497.437	6.72
497.788	6.63
498.139	6.65
498.49	6.65
498.842	6.58
499.193	6.49
499.544	6.64
499.894	6.64
500.245	6.65
500.596	6.62
500.947	6.64
501.298	6.58
501.648	6.59
501.999	6.78
502.35	6.77
502.7	6.71
503.051	6.82
503.401	6.74
503.752	6.59
504.102	6.65
504.452	6.52
504.803	6.59
505.153	6.7
505.503	6.54
505.853	6.64
506.203	6.57
506.553	6.58
506.903	6.64
507.253	6.68
507.603	6.56
507.953	6.75
508.303	6.58
508.652	6.56
509.002	6.64
509.352	6.53
509.701	6.65
510.051	6.64
510.4	6.58
510.75	6.58
511.099	6.57
511.449	6.53
511.798	6.64
512.147	6.52
512.496	6.64
512.846	6.51
513.195	6.56
513.544	6.54
513.893	6.48
514.242	6.67
514.591	6.64
514.939	6.61
515.288	6.58
515.637	6.68
515.986	6.55
516.334	6.65
516.683	6.53
517.032	6.51
517.38	6.64
517.729	6.54
518.077	6.59
518.426	6.55
518.774	6.57
519.122	6.62
519.47	6.58
519.819	6.61
520.167	6.52
520.515	6.42
520.863	6.46
521.211	6.48
521.559	6.54
521.907	6.54
522.255	6.59
522.602	6.6
522.95	6.56
523.298	6.58
523.645	6.54
523.993	6.62
524.341	6.53
524.688	6.7
525.036	6.74
525.383	6.58
525.73	6.62
526.078	6.6
526.425	6.51
526.772	6.37
527.119	6.41
527.466	6.38
527.814	6.51
528.161	6.51
528.508	6.45
528.854	6.42
529.201	6.38
529.548	6.41
529.895	6.36
530.242	6.3
530.588	6.28
530.935	6.26
531.282	6.22
531.628	6.32
531.975	6.33
532.321	6.51
532.667	6.4
533.014	6.48
533.36	6.42
533.706	6.46
534.052	6.43
534.399	6.36
534.745	6.31
535.091	6.38
535.437	6.34
535.783	6.35
536.129	6.38
536.474	6.42
536.82	6.43
537.166	6.57
537.512	6.51
537.857	6.52
538.203	6.44
538.549	6.49
538.894	6.39
539.239	6.53
539.585	6.46
539.93	6.45
540.276	6.5
540.621	6.51
540.966	6.48
541.311	6.51
541.656	6.45
542.001	6.51
542.346	6.44
542.691	6.39
543.036	6.31
543.381	6.33
543.726	6.28
544.071	6.35
544.415	6.35
544.76	6.32
545.105	6.4
545.449	6.4
545.794	6.45
546.138	6.44
546.483	6.42
546.827	6.53
547.171	6.48
547.516	6.61
547.86	6.53
548.204	6.46
548.548	6.58
548.892	6.54
549.236	6.45
549.58	6.46
549.924	6.5
550.268	6.51
550.612	6.6
550.956	6.49
551.3	6.54
551.643	6.55
551.987	6.53
552.33	6.54
552.674	6.57
553.017	6.6
553.361	6.48
553.704	6.49
554.048	6.64
554.391	6.52
554.734	6.65
555.077	6.64
555.42	6.52
555.764	6.48
556.107	6.59
556.45	6.32
556.793	6.66
557.135	6.87
557.478	6.6
557.821	6.53
558.164	6.87
558.507	6.44
558.849	6.35
559.192	6.6
559.534	6.41
559.877	6.67
560.219	6.59
560.562	6.73
560.904	6.49
561.246	6.62
561.589	6.7
561.931	6.56
562.273	6.69
562.615	6.69
562.957	6.6
563.299	6.59
563.641	6.61
563.983	6.7
564.325	6.39
564.667	6.46
565.008	6.47
565.35	6.71
565.692	6.75
566.033	6.74
566.375	6.44
566.716	6.64
567.058	6.77
567.399	6.59
567.741	6.65
568.082	6.56
568.423	6.64
568.764	6.68
569.105	6.58
569.447	6.49
569.788	6.55
570.129	6.5
570.47	6.54
570.811	6.75
571.151	6.58
571.492	6.73
571.833	6.71
572.174	6.47
572.514	6.58
572.855	6.59
573.195	6.55
573.536	6.65
573.876	6.53
574.217	6.54
574.557	6.65
574.898	6.41
575.238	6.49
575.578	6.62
575.918	6.56
576.258	6.56
576.598	6.54
576.938	6.65
577.278	6.44
577.618	6.61
577.958	6.6
578.298	6.66
578.638	6.62
578.977	6.48
579.317	6.72
579.657	6.71
579.996	6.57
580.336	6.45
580.675	6.68
581.014	6.64
581.354	6.54
581.693	6.64
582.032	6.52
582.372	6.7
582.711	6.59
583.05	6.78
583.389	6.63
583.728	6.75
584.067	6.79
584.406	6.75
584.745	6.56
585.083	6.9
585.422	6.51
585.761	6.56
586.1	6.73
586.438	6.79
586.777	6.61
587.115	6.79
587.454	6.57
587.792	6.57
588.13	6.84
588.469	6.68
588.807	6.76
589.145	6.76
589.483	6.58
589.821	6.52
590.159	6.54
590.497	6.43
590.835	6.55
591.173	6.79
591.511	6.7
591.849	6.58
592.187	6.55
592.524	6.61
592.862	6.8
593.2	6.43
593.537	6.5
593.875	6.68
594.212	6.7
594.55	6.51
594.887	6.89
595.224	6.65
595.561	6.75
595.899	6.55
596.236	6.52
596.573	6.51
596.91	6.62
597.247	6.55
597.584	6.7
597.921	6.5
598.258	6.47
598.594	6.74
598.931	6.56
599.268	6.38
599.604	6.64
599.941	6.44
600.277	6.52
600.614	6.62
600.95	6.83
601.287	6.69
601.623	6.69
601.959	6.35
602.296	6.7
602.632	6.9
602.968	6.6
603.304	6.56
603.64	6.32
603.976	6.78
604.312	6.71
604.648	6.66
604.984	6.62
605.319	6.52
605.655	6.59
605.991	6.67
606.326	6.42
606.662	6.51
606.998	6.58
607.333	6.55
607.668	6.5
608.004	6.47
608.339	6.68
608.674	6.64
609.01	6.76
609.345	6.85
609.68	6.44
610.015	6.48
610.35	6.59
610.685	6.59
611.02	6.82
611.355	6.62
611.689	6.48
612.024	6.63
612.359	6.67
612.694	6.73
613.028	6.77
613.363	6.45
613.697	6.64
614.032	6.57
614.366	6.6
614.7	7
615.035	6.67
615.369	6.55
615.703	6.78
616.037	6.56
616.371	6.4
616.705	6.62
617.039	6.77
617.373	6.82
617.707	6.63
618.041	6.67
618.375	6.58
618.709	6.6
619.042	6.47
619.376	6.62
619.71	6.58
620.043	6.34
620.377	6.71
620.71	6.81
621.043	6.15
621.377	6.41
621.71	6.76
622.043	6.59
622.376	6.59
622.709	6.9
623.043	6.52
623.376	6.83
623.709	6.79
624.041	6.48
624.374	6.52
624.707	6.51
625.04	6.95
625.373	6.37
625.705	6.76
626.038	6.76
626.37	6.59
626.703	6.39
627.035	6.73
627.368	6.62
627.7	6.77
628.032	6.81
628.365	6.57
628.697	6.6
629.029	6.64
629.361	6.38
629.693	6.72
630.025	6.63
630.357	6.64
630.689	7.04
631.021	6.76
631.353	6.71
631.684	6.53
632.016	6.57
632.348	6.97
632.679	6.8
633.011	6.38
633.342	6.37
633.674	6.7
634.005	6.66
634.336	6.6
634.668	6.55
634.999	6.59
635.33	6.72
635.661	6.6
635.992	6.43
636.323	6.66
636.654	6.3
636.985	6.46
637.316	6.73
637.647	6.55
637.977	6.41
638.308	6.5
638.639	6.55
638.969	6.45
639.3	6.35
639.63	6.35
639.961	6.78
640.291	6.82
640.622	7.27
640.952	6.44
641.282	6
641.612	6.31
641.943	6.93
642.273	6.61
642.603	6.4
642.933	6.58
643.263	6.85
643.592	6.31
643.922	6.89
644.252	6.54
644.582	6.56
644.911	6.56
645.241	6.63
645.571	6.16
645.9	6.62
646.23	6.41
646.559	6.8
646.888	6.76
647.218	6.59
647.547	7.11
647.876	6.99
648.205	6.6
648.534	6.57
648.863	6.85
649.192	6.91
649.521	6.08
649.85	6.6
650.179	6.27
650.508	6.78
650.837	6.94
651.165	6.72
651.494	6.54
651.822	6.64
652.151	6.82
652.479	7.26
652.808	6.55
653.136	6.71
653.465	6.77
653.793	7.02
654.121	7.01
654.449	6.32
654.777	6.48
655.105	6.8
655.433	6.87
655.761	6.67
656.089	7.05
656.417	6.27
656.745	7.33
657.073	7.08
657.4	6.67
657.728	6.73
658.056	7.02
658.383	6.7
658.711	6.65
659.038	7.08
659.365	6.48
659.693	6.58
660.02	6.9
660.347	6.95
660.674	6.32
661.001	6.37
661.329	6.89
661.656	6.84
661.982	6.64
662.309	6.59
662.636	6.85
662.963	6.58
663.29	6.32
663.616	6.62
663.943	7.13
664.27	6.73
664.596	6.65
664.923	7.12
665.249	6.79
665.576	6.57
665.902	6.74
666.228	6.85
666.554	6.16
666.881	7.33
667.207	6.74
667.533	6.71
667.859	6.12
668.185	6.52
668.511	6.35
668.837	6.68
669.162	7.27
669.488	6.77
669.814	7.31
670.139	7.26
670.465	6.81
670.791	7.32
671.116	6.23
671.442	6.67
671.767	6.75
672.092	6.6
672.418	7.01
672.743	6.75
673.068	6.21
673.393	6.31
673.718	6.62
674.043	6.82
674.368	6.8
674.693	7.2
675.018	6.74
675.343	7.11
675.667	6.82
675.992	6.56
676.317	6.89
676.641	7.17
676.966	7.16
677.29	6.6
677.615	6.33
677.939	6.87
678.264	6.56
678.588	6.93
678.912	7.05
679.236	7.16
679.56	6.76
679.885	7.05
680.209	6.27
680.532	7.04
680.856	7.29
681.18	6.7
681.504	6.69
681.828	6.24
682.152	6.76
682.475	6.6
682.799	7.21
683.122	6.93
683.446	6.87
683.769	6.86
684.093	7.23
684.416	6.42
684.739	7.22
685.062	6.88
685.386	6.63
685.709	6.74
686.032	6.57
686.355	6.7
686.678	6.78
687.001	6.74
687.324	6.37
687.646	7.04
687.969	6.45
688.292	7.18
688.614	6.86
688.937	6.89
689.26	6.68
689.582	7.03
689.904	7.07
690.227	6.65
690.549	6.94
690.871	6.9
691.194	7.13
691.516	7.24
691.838	6.67
692.16	7.21
692.482	7.38
