Data from 0050_chest_Reflection__0__15.txt Node

Date: Fri Dec 16 13:56:10 CST 2022
User: ToomeyLab
Spectrometer: FLMS14357
Trigger mode: 0
Integration Time (sec): 1.000000E-2
Scans to average: 100
Electric dark correction enabled: true
Nonlinearity correction enabled: false
Boxcar width: 0
XAxis mode: Wavelengths
Number of Pixels in Spectrum: 2048
>>>>>Begin Spectral Data<<<<<
189.047	-7.11
189.435	-7.11
189.823	-7.11
190.211	56.5
190.599	110.79
190.987	-158.05
191.375	-94.37
191.763	5.4
192.151	16.56
192.538	80.83
192.926	-3.28
193.314	57.81
193.702	889.36
194.089	-3.77
194.477	176.97
194.864	-9.3
195.252	-83.1
195.639	113.75
196.027	-79.62
196.414	36.49
196.801	186.48
197.189	126.68
197.576	43.89
197.963	-363.61
198.351	17.51
198.738	-33.95
199.125	31.19
199.512	14.7
199.899	-1.9
200.286	-12.29
200.673	44.29
201.06	37.16
201.447	62.27
201.833	23.46
202.22	9.78
202.607	-15.16
202.994	57.66
203.38	-2.27
203.767	7.34
204.154	-10.09
204.54	37.29
204.927	-3.93
205.313	36.76
205.699	14.17
206.086	2.05
206.472	-3.74
206.858	17.43
207.245	9.6
207.631	0.65
208.017	7.19
208.403	38.01
208.789	17.46
209.175	47.79
209.561	9.11
209.947	-21.79
210.333	-20.52
210.719	7.78
211.105	5.72
211.491	-10.97
211.876	57.51
212.262	22.2
212.648	-5.33
213.034	19.71
213.419	28.13
213.805	5.34
214.19	11.95
214.576	5.72
214.961	-21.97
215.346	-47.08
215.732	5.59
216.117	4.09
216.502	-9.11
216.888	11.43
217.273	36.86
217.658	-24.35
218.043	-2.4
218.428	17.87
218.813	10.78
219.198	1.91
219.583	21.28
219.968	-3.14
220.353	18.94
220.738	14.96
221.122	6.2
221.507	7.23
221.892	7.66
222.276	14.53
222.661	-3.1
223.046	15.8
223.43	4.87
223.815	18.32
224.199	-1.7
224.583	6.72
224.968	12.44
225.352	6.35
225.736	8.97
226.121	-2.97
226.505	8.67
226.889	11.26
227.273	6.24
227.657	8.35
228.041	8.23
228.425	7.92
228.809	6.39
229.193	3.39
229.577	3.54
229.961	4.83
230.344	5
230.728	4.87
231.112	4.76
231.495	4.58
231.879	4.21
232.263	3.66
232.646	5.77
233.03	2.73
233.413	2.62
233.797	6.33
234.18	0.52
234.563	4.57
234.946	4.5
235.33	4.64
235.713	4.13
236.096	4.39
236.479	4.35
236.862	5.79
237.245	5.99
237.628	4.73
238.011	5.35
238.394	7.24
238.777	4.77
239.16	3.62
239.543	6.1
239.925	5.61
240.308	6.55
240.691	3.09
241.073	4.37
241.456	3.11
241.838	4.64
242.221	4.42
242.603	5.13
242.986	5.65
243.368	4.36
243.75	3.98
244.133	4.09
244.515	4.56
244.897	4.32
245.279	5.47
245.661	3.97
246.043	5.42
246.425	4.22
246.807	4.19
247.189	4.58
247.571	4.56
247.953	4.51
248.335	4.51
248.717	4.42
249.098	4.31
249.48	4.23
249.862	4.43
250.243	4.22
250.625	4.29
251.006	4.61
251.388	4.89
251.769	5.7
252.151	4.41
252.532	4.1
252.913	4.92
253.295	4.48
253.676	4.34
254.057	4.12
254.438	3.83
254.819	4.68
255.2	3.5
255.581	3.4
255.962	5.1
256.343	4
256.724	4.31
257.105	4.21
257.486	4.1
257.867	3.42
258.247	4.2
258.628	4.98
259.009	3.88
259.389	4.46
259.77	3.73
260.15	4.48
260.531	4.03
260.911	4.24
261.292	4.08
261.672	4.01
262.052	3.86
262.432	3.92
262.813	4.26
263.193	3.88
263.573	3.69
263.953	3.76
264.333	3.8
264.713	4.28
265.093	3.77
265.473	4.94
265.853	3.73
266.233	4.17
266.612	3.95
266.992	3.85
267.372	3.72
267.752	3.99
268.131	4.23
268.511	4.28
268.89	4.05
269.27	4.2
269.649	4.34
270.029	4.12
270.408	3.52
270.787	3.96
271.167	4.06
271.546	3.46
271.925	4.24
272.304	3.83
272.683	3.71
273.062	4.26
273.441	3.82
273.82	4.55
274.199	4.34
274.578	4.07
274.957	4.34
275.336	4.1
275.715	4.32
276.093	4.51
276.472	4.44
276.851	4.07
277.229	4.15
277.608	3.72
277.986	4.13
278.365	3.78
278.743	4.54
279.122	3.47
279.5	4.42
279.878	3.5
280.257	4.17
280.635	4.05
281.013	4.39
281.391	3.44
281.769	3.96
282.147	3.97
282.525	3.32
282.903	3.97
283.281	4.14
283.659	4.01
284.037	3.88
284.415	3.71
284.792	3.75
285.17	3.85
285.548	3.61
285.925	3.85
286.303	3.59
286.68	3.47
287.058	3.69
287.435	3.75
287.813	3.96
288.19	4.27
288.567	3.7
288.945	3.9
289.322	3.76
289.699	4.25
290.076	3.91
290.453	3.57
290.83	4.02
291.207	3.64
291.584	3.5
291.961	4.05
292.338	3.59
292.715	3.7
293.092	3.76
293.469	4.21
293.845	3.86
294.222	3.89
294.599	4.2
294.975	3.76
295.352	3.81
295.728	3.89
296.105	3.74
296.481	4.34
296.858	4.18
297.234	4.05
297.61	3.78
297.986	3.93
298.363	3.48
298.739	3.84
299.115	3.44
299.491	3.56
299.867	3.83
300.243	3.63
300.619	3.59
300.995	3.62
301.371	3.62
301.746	3.76
302.122	3.74
302.498	3.77
302.874	3.77
303.249	3.88
303.625	3.64
304	3.5
304.376	3.92
304.751	4.09
305.127	3.68
305.502	3.95
305.878	3.53
306.253	3.91
306.628	4.06
307.003	3.88
307.378	3.55
307.754	3.85
308.129	3.62
308.504	3.74
308.879	3.94
309.254	4.19
309.629	3.85
310.003	4.29
310.378	4.03
310.753	3.64
311.128	3.49
311.502	3.7
311.877	3.89
312.252	3.72
312.626	3.6
313.001	3.79
313.375	3.65
313.75	3.62
314.124	4.07
314.498	3.54
314.873	4
315.247	3.29
315.621	4.19
315.995	3.75
316.369	4.05
316.743	4.09
317.117	3.87
317.491	4
317.865	3.15
318.239	4.06
318.613	3.7
318.987	4.02
319.361	3.76
319.734	3.79
320.108	3.52
320.482	3.67
320.855	4.03
321.229	4.28
321.602	3.8
321.976	4.11
322.349	2.9
322.723	3.18
323.096	3.59
323.469	3.75
323.843	3.86
324.216	3.67
324.589	3.89
324.962	4.2
325.335	4.01
325.708	3.94
326.081	3.69
326.454	3.62
326.827	3.87
327.2	4.12
327.573	3.89
327.945	3.43
328.318	3.82
328.691	3.5
329.063	3.34
329.436	3.57
329.809	3.1
330.181	3.72
330.553	4.33
330.926	3.93
331.298	3.02
331.671	3.31
332.043	4.04
332.415	4.08
332.787	4.45
333.159	3.51
333.532	3.93
333.904	3.79
334.276	4
334.648	3.77
335.02	3.76
335.391	3.64
335.763	3.5
336.135	4.37
336.507	4.14
336.879	3.56
337.25	3.56
337.622	4.04
337.993	3.89
338.365	3.93
338.736	3.85
339.108	3.69
339.479	3.68
339.851	3.91
340.222	4.15
340.593	3.76
340.964	3.75
341.336	3.29
341.707	3.68
342.078	3.52
342.449	4.01
342.82	3.66
343.191	3.86
343.562	3.75
343.933	3.32
344.303	3.7
344.674	3.67
345.045	4.16
345.416	3.55
345.786	3.4
346.157	3.72
346.527	3.68
346.898	3.24
347.268	3.61
347.639	3.89
348.009	3.74
348.38	3.55
348.75	3.63
349.12	3.88
349.49	3.48
349.861	4.18
350.231	3.99
350.601	4.22
350.971	3.98
351.341	3.64
351.711	3.94
352.081	3.34
352.45	3.94
352.82	3.84
353.19	3.93
353.56	3.68
353.929	4.08
354.299	3.66
354.669	3.87
355.038	3.49
355.408	4.01
355.777	3.75
356.147	4.04
356.516	4.07
356.885	3.64
357.254	3.84
357.624	3.51
357.993	3.77
358.362	3.79
358.731	3.82
359.1	3.94
359.469	3.76
359.838	3.67
360.207	3.8
360.576	3.84
360.945	3.87
361.314	3.93
361.682	3.51
362.051	3.71
362.42	3.99
362.788	3.7
363.157	3.8
363.525	3.67
363.894	3.51
364.262	3.56
364.631	4.32
364.999	3.67
365.367	3.98
365.735	3.68
366.104	3.53
366.472	3.71
366.84	3.91
367.208	3.78
367.576	3.73
367.944	4.24
368.312	3.35
368.68	3.94
369.048	4.08
369.416	3.83
369.783	3.59
370.151	3.81
370.519	3.66
370.886	3.9
371.254	3.99
371.621	4.11
371.989	3.98
372.356	3.98
372.724	3.7
373.091	3.93
373.458	3.83
373.826	3.67
374.193	4.35
374.56	3.7
374.927	3.61
375.294	4.05
375.661	4.13
376.028	4.26
376.395	3.87
376.762	3.96
377.129	4.19
377.496	3.86
377.863	3.95
378.229	3.82
378.596	3.88
378.963	3.81
379.329	3.96
379.696	3.75
380.062	4.27
380.429	3.77
380.795	3.59
381.161	3.55
381.528	3.42
381.894	4.08
382.26	3.88
382.626	3.83
382.993	3.91
383.359	3.73
383.725	4.12
384.091	4.12
384.457	3.91
384.823	3.86
385.188	3.94
385.554	3.96
385.92	4.06
386.286	3.96
386.651	4.09
387.017	4.02
387.383	3.98
387.748	3.87
388.114	4.03
388.479	4.1
388.845	4.32
389.21	3.98
389.575	4.09
389.94	3.89
390.306	3.86
390.671	4.05
391.036	3.88
391.401	4.13
391.766	4.15
392.131	3.89
392.496	3.81
392.861	3.8
393.226	3.99
393.591	4.04
393.956	4
394.32	3.87
394.685	3.86
395.05	3.88
395.414	3.93
395.779	3.85
396.143	3.92
396.508	4.16
396.872	4.06
397.236	3.76
397.601	4.12
397.965	3.85
398.329	4.15
398.694	3.84
399.058	4.13
399.422	3.98
399.786	4.1
400.15	3.93
400.514	3.93
400.878	4.19
401.242	4.29
401.605	3.78
401.969	4.05
402.333	3.96
402.697	4.28
403.06	4.29
403.424	3.95
403.787	4.06
404.151	4.02
404.514	4.08
404.878	4.02
405.241	4.11
405.604	4.19
405.968	4.03
406.331	4.04
406.694	3.92
407.057	4.4
407.42	3.99
407.783	4.1
408.146	3.98
408.509	4.01
408.872	3.98
409.235	4.22
409.598	4.29
409.961	4.13
410.323	4.36
410.686	4.17
411.049	3.97
411.411	4.15
411.774	4.14
412.136	4.02
412.499	4.07
412.861	3.82
413.223	4.14
413.586	4
413.948	4.15
414.31	4.27
414.672	4.01
415.035	4.18
415.397	4.36
415.759	3.97
416.121	4.3
416.483	4.39
416.845	4.14
417.206	4.32
417.568	4.11
417.93	4.09
418.292	4.25
418.653	4.21
419.015	4.21
419.377	4.06
419.738	4.03
420.1	4.03
420.461	3.89
420.822	4.12
421.184	4.12
421.545	4.07
421.906	4.1
422.267	4.06
422.629	4.06
422.99	4.03
423.351	4.13
423.712	4.06
424.073	4.19
424.434	4.03
424.795	4.06
425.155	4.06
425.516	4.11
425.877	4.1
426.238	4.06
426.598	4.05
426.959	4.07
427.32	4.14
427.68	4.16
428.041	4.05
428.401	4.2
428.761	4.21
429.122	4.25
429.482	4.12
429.842	4.29
430.202	4.17
430.563	4.25
430.923	4.02
431.283	4.15
431.643	4.26
432.003	4.36
432.363	4.26
432.722	4.27
433.082	4.33
433.442	4.38
433.802	4.33
434.161	4.18
434.521	4.34
434.881	4.37
435.24	4.08
435.6	4.2
435.959	4.23
436.319	4.14
436.678	4.34
437.037	4.26
437.396	4.25
437.756	4.18
438.115	4.31
438.474	4.35
438.833	4.3
439.192	4.53
439.551	4.32
439.91	4.31
440.269	4.35
440.628	4.29
440.987	4.15
441.345	4.22
441.704	4.27
442.063	4.26
442.421	4.27
442.78	4.22
443.138	4.31
443.497	4.21
443.855	4.22
444.214	4.31
444.572	4.26
444.93	4.33
445.288	4.35
445.647	4.38
446.005	4.22
446.363	4.22
446.721	4.2
447.079	4.21
447.437	4.32
447.795	4.21
448.153	4.23
448.51	4.23
448.868	4.27
449.226	4.27
449.584	4.2
449.941	4.36
450.299	4.32
450.656	4.49
451.014	4.25
451.371	4.47
451.729	4.46
452.086	4.25
452.443	4.38
452.801	4.48
453.158	4.37
453.515	4.42
453.872	4.5
454.229	4.35
454.586	4.34
454.943	4.32
455.3	4.5
455.657	4.17
456.014	4.33
456.371	4.38
456.727	4.37
457.084	4.32
457.441	4.35
457.797	4.42
458.154	4.27
458.51	4.43
458.867	4.45
459.223	4.43
459.58	4.36
459.936	4.34
460.292	4.47
460.648	4.36
461.005	4.31
461.361	4.29
461.717	4.34
462.073	4.29
462.429	4.45
462.785	4.43
463.141	4.53
463.496	4.48
463.852	4.58
464.208	4.49
464.564	4.31
464.919	4.34
465.275	4.42
465.631	4.5
465.986	4.44
466.342	4.56
466.697	4.51
467.052	4.42
467.408	4.47
467.763	4.5
468.118	4.43
468.473	4.47
468.829	4.45
469.184	4.64
469.539	4.44
469.894	4.44
470.249	4.6
470.603	4.63
470.958	4.67
471.313	4.52
471.668	4.65
472.023	4.56
472.377	4.56
472.732	4.6
473.086	4.31
473.441	4.61
473.795	4.72
474.15	4.45
474.504	4.56
474.859	4.52
475.213	4.68
475.567	4.45
475.921	4.65
476.275	4.71
476.63	4.68
476.984	4.45
477.338	4.88
477.692	4.53
478.045	4.58
478.399	4.62
478.753	4.45
479.107	4.5
479.461	4.65
479.814	4.59
480.168	4.59
480.521	4.53
480.875	4.64
481.228	4.6
481.582	4.5
481.935	4.58
482.289	4.63
482.642	4.62
482.995	4.53
483.348	4.56
483.701	4.5
484.055	4.46
484.408	4.42
484.761	4.36
485.114	4.31
485.466	4.31
485.819	4.33
486.172	4.41
486.525	4.49
486.878	4.46
487.23	4.51
487.583	4.51
487.936	4.5
488.288	4.41
488.641	4.42
488.993	4.39
489.345	4.39
489.698	4.44
490.05	4.51
490.402	4.59
490.754	4.61
491.107	4.59
491.459	4.69
491.811	4.69
492.163	4.64
492.515	4.57
492.866	4.44
493.218	4.49
493.57	4.55
493.922	4.53
494.274	4.63
494.625	4.64
494.977	4.79
495.328	4.84
495.68	4.91
496.031	4.74
496.383	4.73
496.734	4.85
497.086	4.75
497.437	4.8
497.788	4.82
498.139	4.71
498.49	4.8
498.842	4.72
499.193	4.71
499.544	4.79
499.894	4.85
500.245	4.79
500.596	4.75
500.947	4.76
501.298	4.83
501.648	4.85
501.999	4.97
502.35	4.92
502.7	4.84
503.051	4.91
503.401	5
503.752	4.93
504.102	4.95
504.452	4.76
504.803	4.81
505.153	4.9
505.503	4.77
505.853	4.9
506.203	4.85
506.553	4.79
506.903	4.91
507.253	4.96
507.603	4.93
507.953	4.98
508.303	4.97
508.652	4.98
509.002	5
509.352	5.01
509.701	4.91
510.051	4.98
510.4	4.97
510.75	4.94
511.099	4.94
511.449	4.93
511.798	5.04
512.147	4.91
512.496	5.09
512.846	5
513.195	4.96
513.544	4.93
513.893	4.94
514.242	5.08
514.591	5.13
514.939	5.03
515.288	5.05
515.637	5.16
515.986	5.05
516.334	5.1
516.683	5.13
517.032	5.07
517.38	5.13
517.729	5.12
518.077	5.16
518.426	4.99
518.774	5.1
519.122	5.09
519.47	5.03
519.819	5.02
520.167	5.03
520.515	5.02
520.863	5.1
521.211	5.12
521.559	5.04
521.907	5.21
522.255	5.19
522.602	5.27
522.95	5.33
523.298	5.19
523.645	5.13
523.993	5.3
524.341	5.37
524.688	5.24
525.036	5.29
525.383	5.23
525.73	5.31
526.078	5.23
526.425	5.2
526.772	5.19
527.119	5.18
527.466	5.16
527.814	5.21
528.161	5.28
528.508	5.21
528.854	5.12
529.201	5.15
529.548	5.17
529.895	5.07
530.242	5.07
530.588	5.14
530.935	5.16
531.282	5.2
531.628	5.24
531.975	5.33
532.321	5.31
532.667	5.41
533.014	5.38
533.36	5.36
533.706	5.45
534.052	5.36
534.399	5.3
534.745	5.27
535.091	5.28
535.437	5.38
535.783	5.4
536.129	5.41
536.474	5.53
536.82	5.48
537.166	5.49
537.512	5.53
537.857	5.54
538.203	5.49
538.549	5.59
538.894	5.53
539.239	5.71
539.585	5.64
539.93	5.57
540.276	5.84
540.621	5.72
540.966	5.57
541.311	5.72
541.656	5.55
542.001	5.68
542.346	5.63
542.691	5.5
543.036	5.5
543.381	5.58
543.726	5.61
544.071	5.69
544.415	5.72
544.76	5.71
545.105	5.76
545.449	5.67
545.794	5.75
546.138	5.85
546.483	5.78
546.827	5.86
547.171	5.85
547.516	5.97
547.86	5.93
548.204	5.86
548.548	5.96
548.892	5.96
549.236	6.04
549.58	6.05
549.924	6.16
550.268	6.13
550.612	6.17
550.956	6.06
551.3	6.15
551.643	6.09
551.987	6.23
552.33	6.22
552.674	6.37
553.017	6.27
553.361	6.24
553.704	6.27
554.048	6.36
554.391	6.16
554.734	6.19
555.077	6.35
555.42	6.15
555.764	6.31
556.107	6.48
556.45	6.32
556.793	6.5
557.135	6.56
557.478	6.57
557.821	6.22
558.164	6.43
558.507	6.34
558.849	6.5
559.192	6.49
559.534	6.51
559.877	6.71
560.219	6.71
560.562	6.71
560.904	6.57
561.246	6.8
561.589	6.66
561.931	6.79
562.273	6.61
562.615	6.78
562.957	6.88
563.299	6.83
563.641	6.88
563.983	6.96
564.325	6.66
564.667	6.7
565.008	6.84
565.35	6.87
565.692	7.06
566.033	6.89
566.375	6.74
566.716	6.98
567.058	7.04
567.399	6.98
567.741	6.82
568.082	6.9
568.423	6.96
568.764	6.95
569.105	6.98
569.447	7.1
569.788	7.09
570.129	7.26
570.47	7.22
570.811	7.18
571.151	7.27
571.492	7.35
571.833	7.14
572.174	7.17
572.514	7.25
572.855	7.36
573.195	7.14
573.536	7.29
573.876	7.27
574.217	7.31
574.557	7.39
574.898	7.33
575.238	7.33
575.578	7.44
575.918	7.48
576.258	7.55
576.598	7.42
576.938	7.73
577.278	7.49
577.618	7.52
577.958	7.53
578.298	7.62
578.638	7.75
578.977	7.78
579.317	7.67
579.657	7.81
579.996	7.82
580.336	7.69
580.675	7.65
581.014	7.78
581.354	7.93
581.693	8
582.032	7.86
582.372	8.03
582.711	7.8
583.05	8.24
583.389	8.11
583.728	8.21
584.067	8.1
584.406	8.24
584.745	8.33
585.083	8.35
585.422	8.1
585.761	8.25
586.1	8.29
586.438	8.35
586.777	8.23
587.115	8.14
587.454	8.31
587.792	8.06
588.13	8.44
588.469	8.6
588.807	8.65
589.145	8.61
589.483	8.44
589.821	8.6
590.159	8.5
590.497	8.27
590.835	8.56
591.173	8.62
591.511	8.53
591.849	8.88
592.187	8.55
592.524	8.58
592.862	8.65
593.2	8.65
593.537	8.91
593.875	8.87
594.212	8.75
594.55	8.82
594.887	8.99
595.224	9.02
595.561	8.94
595.899	8.84
596.236	9.11
596.573	9.03
596.91	9.01
597.247	9.04
597.584	9.12
597.921	9.25
598.258	9
598.594	8.94
598.931	8.98
599.268	9.09
599.604	9.26
599.941	9.06
600.277	9.15
600.614	9.35
600.95	9.31
601.287	9.56
601.623	9.47
601.959	9.23
602.296	9.7
602.632	9.52
602.968	9.37
603.304	9.6
603.64	9.58
603.976	9.62
604.312	9.75
604.648	9.69
604.984	9.65
605.319	9.79
605.655	9.7
605.991	9.78
606.326	9.61
606.662	9.62
606.998	9.75
607.333	9.85
607.668	9.97
608.004	9.86
608.339	10.02
608.674	10
609.01	10.24
609.345	10.23
609.68	9.98
610.015	10.07
610.35	10.05
610.685	10.21
611.02	10.29
611.355	10.31
611.689	9.95
612.024	10.33
612.359	10.4
612.694	10.35
613.028	10.61
613.363	10.39
613.697	10.32
614.032	10.62
614.366	10.31
614.7	10.81
615.035	10.35
615.369	10.71
615.703	11
616.037	10.51
616.371	10.82
616.705	10.79
617.039	10.9
617.373	10.72
617.707	10.73
618.041	11.18
618.375	10.61
618.709	10.81
619.042	10.82
619.376	10.89
619.71	10.88
620.043	10.94
620.377	11.24
620.71	11.32
621.043	10.8
621.377	11.53
621.71	11.22
622.043	11.54
622.376	11.46
622.709	11.56
623.043	11.36
623.376	11.41
623.709	11.44
624.041	11.54
624.374	11.5
624.707	11.2
625.04	11.66
625.373	11.51
625.705	11.35
626.038	11.62
626.37	11.91
626.703	11.61
627.035	11.7
627.368	11.67
627.7	11.86
628.032	11.83
628.365	11.6
628.697	11.7
629.029	12.18
629.361	11.83
629.693	11.9
630.025	11.93
630.357	11.7
630.689	12.18
631.021	12.19
631.353	12.47
631.684	12.21
632.016	11.8
632.348	12.46
632.679	12.32
633.011	12.56
633.342	12.04
633.674	12.23
634.005	12.6
634.336	12.36
634.668	12.49
634.999	12.65
635.33	12.19
635.661	12.33
635.992	12.33
636.323	12.71
636.654	12.77
636.985	12.83
637.316	12.83
637.647	12.96
637.977	12.58
638.308	12.82
638.639	12.95
638.969	12.94
639.3	12.84
639.63	12.99
639.961	12.84
640.291	13.32
640.622	13.25
640.952	13.12
641.282	12.67
641.612	12.94
641.943	12.98
642.273	13.09
642.603	13.21
642.933	12.94
643.263	13.89
643.592	13.34
643.922	13.95
644.252	13.24
644.582	13.4
644.911	13.07
645.241	13.77
645.571	13.49
645.9	13.98
646.23	13.48
646.559	14.22
646.888	13.16
647.218	13.48
647.547	13.83
647.876	13.98
648.205	13.75
648.534	13.66
648.863	13.8
649.192	13.66
649.521	13.52
649.85	14.54
650.179	13.65
650.508	13.94
650.837	13.97
651.165	14.06
651.494	14.05
651.822	14.38
652.151	14.79
652.479	14.23
652.808	14.02
653.136	14.05
653.465	14.58
653.793	14.56
654.121	14.73
654.449	14.45
654.777	14.41
655.105	14.75
655.433	14.83
655.761	14.37
656.089	14.59
656.417	14.53
656.745	15.08
657.073	15
657.4	14.6
657.728	14.78
658.056	14.67
658.383	15.24
658.711	14.95
659.038	15.03
659.365	14.81
659.693	15.29
660.02	14.85
660.347	15.07
660.674	14.99
661.001	14.93
661.329	15.11
661.656	14.97
661.982	15.29
662.309	15.43
662.636	15.41
662.963	15.35
663.29	15.42
663.616	15.43
663.943	15.9
664.27	15.28
664.596	15.5
664.923	15.99
665.249	15.41
665.576	15.44
665.902	15.18
666.228	16.01
666.554	15.69
666.881	15.73
667.207	15.77
667.533	15.72
667.859	15.44
668.185	15.74
668.511	15.58
668.837	15.97
669.162	16.18
669.488	16.24
669.814	16.62
670.139	16.54
670.465	16.58
670.791	16.49
671.116	16.18
671.442	16.15
671.767	16.43
672.092	16.74
672.418	16.32
672.743	15.62
673.068	15.74
673.393	16.4
673.718	15.72
674.043	16.49
674.368	17.31
674.693	16.82
675.018	16.73
675.343	16.63
675.667	16.98
675.992	17.19
676.317	16.84
676.641	16.91
676.966	16.88
677.29	16.88
677.615	17.59
677.939	16.77
678.264	16.7
678.588	17.18
678.912	17.47
679.236	16.87
679.56	16.66
679.885	16.69
680.209	16.45
680.532	17.36
680.856	17.56
681.18	17.39
681.504	17.28
681.828	16.87
682.152	17.42
682.475	17.45
682.799	17.65
683.122	17.05
683.446	17.38
683.769	18.21
684.093	17.77
684.416	17.35
684.739	18.25
685.062	17.86
685.386	17.99
685.709	17.62
686.032	18.03
686.355	17.88
686.678	17.8
687.001	17.15
687.324	17.58
687.646	17.79
