Data from 0050_forehead_Reflection__0__25.txt Node

Date: Fri Dec 16 13:59:29 CST 2022
User: ToomeyLab
Spectrometer: FLMS14357
Trigger mode: 0
Integration Time (sec): 1.000000E-2
Scans to average: 100
Electric dark correction enabled: true
Nonlinearity correction enabled: false
Boxcar width: 0
XAxis mode: Wavelengths
Number of Pixels in Spectrum: 2048
>>>>>Begin Spectral Data<<<<<
189.047	74.61
189.435	74.61
189.823	74.61
190.211	99.4
190.599	-11.41
190.987	-182.72
191.375	42.27
191.763	-43.25
192.151	223.13
192.538	103.5
192.926	-74.37
193.314	71.13
193.702	1117.63
194.089	-14.9
194.477	-30.03
194.864	32.49
195.252	35.63
195.639	63.44
196.027	-312.27
196.414	176.02
196.801	194.27
197.189	0.08
197.576	834.3
197.963	-40.31
198.351	5.36
198.738	34.17
199.125	53.68
199.512	-13.08
199.899	10.85
200.286	-2.2
200.673	39.84
201.06	26.41
201.447	32.43
201.833	10.22
202.22	18.16
202.607	1.71
202.994	38.55
203.38	28.21
203.767	-2.91
204.154	-23.99
204.54	37.82
204.927	36.97
205.313	37.2
205.699	-17.17
206.086	20.38
206.472	47.09
206.858	9.29
207.245	16.06
207.631	-12.29
208.017	3.73
208.403	24.87
208.789	26.27
209.175	49.22
209.561	13.09
209.947	-29.13
210.333	5.08
210.719	49.83
211.105	12.29
211.491	-5.18
211.876	33.28
212.262	-21.12
212.648	20.25
213.034	23.57
213.419	20.99
213.805	1.61
214.19	-1.1
214.576	22.19
214.961	-3.6
215.346	10.18
215.732	15.44
216.117	3
216.502	-10.17
216.888	-17.67
217.273	33.86
217.658	19.69
218.043	0.07
218.428	23.6
218.813	1.8
219.198	9.02
219.583	26.03
219.968	17.11
220.353	2.27
220.738	3.01
221.122	9.55
221.507	13.42
221.892	22.34
222.276	29.63
222.661	7.85
223.046	19.87
223.43	-9.46
223.815	9.15
224.199	22.06
224.583	7.23
224.968	7.22
225.352	10.33
225.736	7.47
226.121	14.39
226.505	4.67
226.889	8.83
227.273	10.04
227.657	7.12
228.041	8.47
228.425	7.97
228.809	6.78
229.193	5.08
229.577	4.87
229.961	4.98
230.344	5.77
230.728	4.52
231.112	5.5
231.495	4.71
231.879	8.23
232.263	4.88
232.646	5.17
233.03	4
233.413	6.2
233.797	8.83
234.18	5.2
234.563	5.22
234.946	4.66
235.33	5.69
235.713	5.22
236.096	5
236.479	5.78
236.862	8.92
237.245	7.14
237.628	6.09
238.011	5.16
238.394	7.28
238.777	6.62
239.16	3.21
239.543	7.39
239.925	5.79
240.308	6.86
240.691	5.52
241.073	7.33
241.456	5.57
241.838	6.31
242.221	5.82
242.603	5.53
242.986	6.48
243.368	5.22
243.75	5.08
244.133	5.28
244.515	5.36
244.897	5.22
245.279	5.31
245.661	6.6
246.043	6.55
246.425	5.3
246.807	5.82
247.189	5.46
247.571	5.78
247.953	5.13
248.335	5.38
248.717	5.24
249.098	5.22
249.48	4.92
249.862	5.46
250.243	5.51
250.625	5.88
251.006	5.69
251.388	6.7
251.769	6.1
252.151	5.77
252.532	5.62
252.913	5.9
253.295	5.74
253.676	6.19
254.057	5.26
254.438	5.62
254.819	5.52
255.2	5.12
255.581	5.27
255.962	5.61
256.343	6.79
256.724	5.35
257.105	6.75
257.486	6.06
257.867	4.01
258.247	5.38
258.628	6.44
259.009	5.74
259.389	6.18
259.77	5.23
260.15	5.81
260.531	5.21
260.911	5.41
261.292	5.26
261.672	5.04
262.052	5.11
262.432	5.07
262.813	5.46
263.193	4.87
263.573	5.47
263.953	5.53
264.333	5.15
264.713	4.99
265.093	5.17
265.473	6.4
265.853	5.84
266.233	5.07
266.612	6.18
266.992	4.97
267.372	5.31
267.752	4.69
268.131	5.06
268.511	5.37
268.89	5.63
269.27	5.65
269.649	5.61
270.029	5.4
270.408	5.32
270.787	5.53
271.167	5.99
271.546	4.57
271.925	5.04
272.304	5.39
272.683	4.79
273.062	5.2
273.441	5.29
273.82	5.44
274.199	5.54
274.578	4.92
274.957	5.18
275.336	5.4
275.715	5.97
276.093	5.57
276.472	5.78
276.851	4.76
277.229	6
277.608	5.12
277.986	4.89
278.365	5.42
278.743	4.86
279.122	4.99
279.5	4.77
279.878	4.26
280.257	5.07
280.635	4.82
281.013	6.07
281.391	5.21
281.769	5.13
282.147	5.24
282.525	5.09
282.903	5.29
283.281	4.77
283.659	5.13
284.037	5.5
284.415	5.46
284.792	4.9
285.17	4.97
285.548	4.92
285.925	5.36
286.303	5.27
286.68	5.48
287.058	5.26
287.435	5.17
287.813	5.48
288.19	5.64
288.567	5.17
288.945	5.53
289.322	5.05
289.699	5.41
290.076	5.56
290.453	5.09
290.83	5.88
291.207	5.34
291.584	5.44
291.961	5.49
292.338	5.72
292.715	5.92
293.092	6.02
293.469	6.25
293.845	6.27
294.222	6.03
294.599	6.16
294.975	6.37
295.352	6.04
295.728	6.25
296.105	5.96
296.481	6.93
296.858	6.61
297.234	6.39
297.61	6.22
297.986	6.4
298.363	6.36
298.739	6.49
299.115	6.18
299.491	6.46
299.867	6.67
300.243	6.69
300.619	6.7
300.995	6.5
301.371	6.67
301.746	6.73
302.122	7.06
302.498	7.07
302.874	7.13
303.249	7.28
303.625	6.79
304	7.14
304.376	6.82
304.751	7.5
305.127	7.36
305.502	7.49
305.878	7.45
306.253	6.93
306.628	7.64
307.003	7.47
307.378	7.34
307.754	7.87
308.129	7.36
308.504	7.48
308.879	7.44
309.254	7.64
309.629	7.63
310.003	8.04
310.378	7.98
310.753	7.97
311.128	7.85
311.502	7.43
311.877	8.11
312.252	7.64
312.626	7.59
313.001	8.18
313.375	8.03
313.75	8.41
314.124	8.45
314.498	8.61
314.873	8.6
315.247	8.33
315.621	8.55
315.995	8.85
316.369	8.56
316.743	8.93
317.117	9.25
317.491	8.74
317.865	8.99
318.239	9.17
318.613	8.86
318.987	9.24
319.361	9.51
319.734	8.86
320.108	9.02
320.482	9.01
320.855	8.95
321.229	9.71
321.602	9.89
321.976	9.55
322.349	8.9
322.723	9.39
323.096	9.27
323.469	9.01
323.843	9.59
324.216	9.11
324.589	9.92
324.962	9.89
325.335	10.05
325.708	9.77
326.081	10.18
326.454	9.9
326.827	10.15
327.2	10.37
327.573	9.91
327.945	10.03
328.318	9.91
328.691	10.44
329.063	9.97
329.436	10.51
329.809	10.34
330.181	10.31
330.553	10.69
330.926	10.72
331.298	10.06
331.671	10.7
332.043	10.48
332.415	10.82
332.787	10.73
333.159	10.33
333.532	10.73
333.904	11.06
334.276	10.57
334.648	10.75
335.02	10.59
335.391	11.06
335.763	11.13
336.135	10.69
336.507	11.04
336.879	11.05
337.25	11.02
337.622	10.8
337.993	11.3
338.365	11.36
338.736	11.28
339.108	11.09
339.479	11.4
339.851	12.04
340.222	11.05
340.593	11.24
340.964	11.54
341.336	11.12
341.707	11.37
342.078	11.22
342.449	11.9
342.82	11.43
343.191	11.04
343.562	11.74
343.933	11.94
344.303	11.72
344.674	12
345.045	12.41
345.416	12.06
345.786	11.68
346.157	11.88
346.527	11.51
346.898	12.26
347.268	11.87
347.639	12.23
348.009	12.42
348.38	12.19
348.75	12.32
349.12	12.34
349.49	12.28
349.861	12.87
350.231	12.54
350.601	12.55
350.971	12.42
351.341	12.41
351.711	12.33
352.081	12.78
352.45	12.88
352.82	12.46
353.19	12.52
353.56	12.84
353.929	12.7
354.299	12.57
354.669	12.86
355.038	12.8
355.408	13.19
355.777	12.87
356.147	13.05
356.516	13.36
356.885	13.14
357.254	13.24
357.624	13.13
357.993	12.7
358.362	13.12
358.731	13.36
359.1	13.33
359.469	13.09
359.838	12.96
360.207	13.24
360.576	13.29
360.945	13.39
361.314	13.64
361.682	13.12
362.051	13.57
362.42	13.54
362.788	13.35
363.157	13.5
363.525	13.58
363.894	13.35
364.262	13.43
364.631	14.23
364.999	13.58
365.367	13.8
365.735	13.67
366.104	13.52
366.472	13.84
366.84	14.06
367.208	13.68
367.576	13.98
367.944	14.27
368.312	13.83
368.68	14.26
369.048	14
369.416	14.26
369.783	14.24
370.151	14.6
370.519	14.12
370.886	14.49
371.254	14.43
371.621	14.52
371.989	14.64
372.356	14.52
372.724	14.65
373.091	14.7
373.458	14.6
373.826	14.43
374.193	14.98
374.56	14.53
374.927	14.49
375.294	15.26
375.661	14.75
376.028	15.02
376.395	14.79
376.762	15.08
377.129	15.44
377.496	14.97
377.863	14.89
378.229	15.12
378.596	15.22
378.963	15.13
379.329	15.29
379.696	15.1
380.062	15.31
380.429	15.22
380.795	15.22
381.161	15.09
381.528	15.22
381.894	15.48
382.26	15.27
382.626	15.4
382.993	15.37
383.359	15.34
383.725	15.62
384.091	15.6
384.457	15.81
384.823	15.83
385.188	16.04
385.554	15.91
385.92	16.04
386.286	16.13
386.651	15.77
387.017	15.89
387.383	16.03
387.748	15.78
388.114	16.26
388.479	16.18
388.845	16.17
389.21	16.24
389.575	16.47
389.94	16.08
390.306	16.15
390.671	16.26
391.036	16.47
391.401	16.5
391.766	16.5
392.131	16.53
392.496	16.32
392.861	16.49
393.226	16.44
393.591	16.41
393.956	16.72
394.32	16.32
394.685	16.79
395.05	16.52
395.414	16.4
395.779	16.68
396.143	16.85
396.508	16.92
396.872	16.79
397.236	16.53
397.601	16.95
397.965	16.63
398.329	17.04
398.694	16.52
399.058	17.12
399.422	17.17
399.786	17.21
400.15	17.07
400.514	17.02
400.878	17.07
401.242	17.32
401.605	17.31
401.969	17.26
402.333	17.2
402.697	17.38
403.06	17.5
403.424	17.14
403.787	17.52
404.151	17.44
404.514	17.41
404.878	17.57
405.241	17.76
405.604	17.51
405.968	17.45
406.331	17.46
406.694	17.55
407.057	17.73
407.42	17.62
407.783	17.68
408.146	17.73
408.509	17.72
408.872	17.69
409.235	17.93
409.598	17.93
409.961	18.27
410.323	18.15
410.686	18.01
411.049	17.97
411.411	17.95
411.774	17.86
412.136	17.99
412.499	18.03
412.861	18.08
413.223	18.18
413.586	17.95
413.948	18.16
414.31	18.47
414.672	18.34
415.035	18.36
415.397	18.27
415.759	18.39
416.121	18.75
416.483	18.66
416.845	18.41
417.206	18.77
417.568	18.53
417.93	18.6
418.292	18.67
418.653	18.63
419.015	18.57
419.377	18.44
419.738	18.41
420.1	18.64
420.461	18.42
420.822	18.68
421.184	18.4
421.545	18.58
421.906	18.43
422.267	18.36
422.629	18.45
422.99	18.48
423.351	18.54
423.712	18.59
424.073	18.7
424.434	18.68
424.795	18.7
425.155	18.63
425.516	18.65
425.877	18.77
426.238	18.67
426.598	18.86
426.959	18.92
427.32	19.08
427.68	19.22
428.041	19.3
428.401	19.22
428.761	19.31
429.122	19.39
429.482	19.31
429.842	19.68
430.202	19.43
430.563	19.35
430.923	19.69
431.283	19.66
431.643	19.74
432.003	19.74
432.363	19.89
432.722	19.57
433.082	19.66
433.442	19.47
433.802	19.86
434.161	19.77
434.521	19.6
434.881	19.76
435.24	19.78
435.6	19.82
435.959	19.84
436.319	19.81
436.678	19.81
437.037	19.9
437.396	20.04
437.756	20.06
438.115	20.08
438.474	20.05
438.833	20.22
439.192	20.13
439.551	20.15
439.91	20.23
440.269	20.29
440.628	20.18
440.987	20.06
441.345	20.19
441.704	20.19
442.063	20.1
442.421	20.2
442.78	20.09
443.138	20.23
443.497	20.41
443.855	20.32
444.214	20.5
444.572	20.31
444.93	20.62
445.288	20.77
445.647	20.53
446.005	20.51
446.363	20.54
446.721	20.41
447.079	20.41
447.437	20.43
447.795	20.28
448.153	20.35
448.51	20.48
448.868	20.56
449.226	20.55
449.584	20.66
449.941	20.8
450.299	20.82
450.656	20.91
451.014	20.95
451.371	21.04
451.729	21.08
452.086	21
452.443	21.25
452.801	21.22
453.158	21.3
453.515	21.17
453.872	21.14
454.229	21.17
454.586	21.34
454.943	21.31
455.3	21.45
455.657	21.28
456.014	21.44
456.371	21.41
456.727	21.56
457.084	21.47
457.441	21.49
457.797	21.57
458.154	21.48
458.51	21.66
458.867	21.73
459.223	21.81
459.58	21.61
459.936	21.67
460.292	21.61
460.648	21.31
461.005	21.4
461.361	21.38
461.717	21.52
462.073	21.53
462.429	21.65
462.785	21.79
463.141	21.9
463.496	21.86
463.852	22.14
464.208	22.06
464.564	22.14
464.919	22.07
465.275	22.14
465.631	22.28
465.986	22.04
466.342	22.37
466.697	22.35
467.052	22.27
467.408	22.38
467.763	22.15
468.118	22.25
468.473	22.33
468.829	22.23
469.184	22.52
469.539	22.37
469.894	22.61
470.249	22.56
470.603	22.5
470.958	22.75
471.313	22.38
471.668	22.58
472.023	22.94
472.377	22.61
472.732	22.58
473.086	22.71
473.441	22.51
473.795	22.91
474.15	22.53
474.504	22.68
474.859	22.76
475.213	22.73
475.567	22.8
475.921	23.14
476.275	22.97
476.63	23.04
476.984	22.95
477.338	23.15
477.692	22.94
478.045	22.92
478.399	23.12
478.753	22.84
479.107	22.92
479.461	23.02
479.814	23.08
480.168	22.91
480.521	23.02
480.875	23.2
481.228	23.07
481.582	23.03
481.935	23.02
482.289	22.98
482.642	23.24
482.995	22.91
483.348	22.89
483.701	22.79
484.055	22.78
484.408	22.53
484.761	22.2
485.114	22.16
485.466	22.27
485.819	22.53
486.172	22.61
486.525	22.75
486.878	22.75
487.23	22.97
487.583	22.91
487.936	22.89
488.288	22.79
488.641	22.76
488.993	22.65
489.345	22.74
489.698	22.81
490.05	22.93
490.402	23.07
490.754	23.38
491.107	23.32
491.459	23.49
491.811	23.39
492.163	23.44
492.515	23.12
492.866	22.87
493.218	22.98
493.57	23.25
493.922	23.29
494.274	23.53
494.625	23.62
494.977	23.91
495.328	23.97
495.68	24.09
496.031	24.11
496.383	24.11
496.734	23.99
497.086	24.09
497.437	24.03
497.788	24.06
498.139	24
498.49	24.09
498.842	24.16
499.193	24.09
499.544	24.09
499.894	24.17
500.245	24.19
500.596	24.32
500.947	24.42
501.298	24.34
501.648	24.33
501.999	24.73
502.35	24.58
502.7	24.71
503.051	24.79
503.401	24.66
503.752	24.66
504.102	24.65
504.452	24.71
504.803	24.54
505.153	24.6
505.503	24.54
505.853	24.81
506.203	24.74
506.553	24.85
506.903	24.92
507.253	24.76
507.603	24.8
507.953	25.03
508.303	24.97
508.652	24.85
509.002	24.96
509.352	24.83
509.701	24.87
510.051	24.83
510.4	24.86
510.75	24.93
511.099	24.86
511.449	24.83
511.798	25.15
512.147	25.04
512.496	25
512.846	25.05
513.195	25.07
513.544	25.1
513.893	24.95
514.242	25.23
514.591	25.24
514.939	25.3
515.288	25.27
515.637	25.32
515.986	25.51
516.334	25.43
516.683	25.52
517.032	25.43
517.38	25.56
517.729	25.55
518.077	25.44
518.426	25.45
518.774	25.3
519.122	25.3
519.47	25.29
519.819	25.13
520.167	25.27
520.515	25.17
520.863	25.34
521.211	25.43
521.559	25.58
521.907	25.62
522.255	25.64
522.602	25.82
522.95	25.8
523.298	25.89
523.645	25.82
523.993	25.97
524.341	25.86
524.688	25.88
525.036	25.91
525.383	25.94
525.73	25.87
526.078	25.77
526.425	25.78
526.772	25.54
527.119	25.68
527.466	25.63
527.814	25.65
528.161	25.81
528.508	25.76
528.854	25.59
529.201	25.41
529.548	25.2
529.895	25.16
530.242	25.32
530.588	25.4
530.935	25.53
531.282	25.7
531.628	25.75
531.975	25.98
532.321	26.03
532.667	26.05
533.014	26.18
533.36	26.04
533.706	26.02
534.052	25.96
534.399	25.7
534.745	25.57
535.091	25.8
535.437	25.89
535.783	26.11
536.129	26.32
536.474	26.31
536.82	26.41
537.166	26.53
537.512	26.52
537.857	26.27
538.203	26.25
538.549	26.34
538.894	26.44
539.239	26.61
539.585	26.63
539.93	26.79
540.276	26.92
540.621	26.83
540.966	26.83
541.311	26.65
541.656	26.39
542.001	26.57
542.346	26.07
542.691	26.18
543.036	26.23
543.381	26.26
543.726	26.52
544.071	26.58
544.415	26.65
544.76	26.66
545.105	26.71
545.449	26.86
545.794	27.02
546.138	27.21
546.483	27.08
546.827	27.12
547.171	27.04
547.516	27.2
547.86	27.03
548.204	26.89
548.548	27.21
548.892	27.29
549.236	27.49
549.58	27.48
549.924	27.59
550.268	27.73
550.612	27.94
550.956	27.74
551.3	27.72
551.643	27.72
551.987	27.98
552.33	27.91
552.674	27.83
553.017	27.81
553.361	27.84
553.704	27.77
554.048	27.79
554.391	27.9
554.734	27.79
555.077	28
555.42	27.89
555.764	27.9
556.107	28.13
556.45	28.07
556.793	28.15
557.135	28.3
557.478	28.07
557.821	28.16
558.164	28.27
558.507	28.07
558.849	28.16
559.192	28.29
559.534	28.21
559.877	28.35
560.219	28.39
560.562	28.47
560.904	28.48
561.246	28.63
561.589	28.52
561.931	28.34
562.273	28.2
562.615	28.41
562.957	28.47
563.299	28.51
563.641	28.66
563.983	28.35
564.325	28.56
564.667	28.47
565.008	28.56
565.35	28.67
565.692	28.73
566.033	28.91
566.375	28.72
566.716	28.65
567.058	28.8
567.399	28.57
567.741	28.57
568.082	28.58
568.423	28.55
568.764	28.72
569.105	29.06
569.447	29.03
569.788	28.87
570.129	28.85
570.47	29.05
570.811	28.84
571.151	28.95
571.492	29.08
571.833	29
572.174	28.9
572.514	29.03
572.855	28.99
573.195	29.01
573.536	28.79
573.876	29.15
574.217	29.16
574.557	29.18
574.898	29.05
575.238	29.13
575.578	29.19
575.918	29.19
576.258	29.2
576.598	29.09
576.938	29.19
577.278	29.29
577.618	29.44
577.958	29.39
578.298	29.5
578.638	29.39
578.977	29.42
579.317	29.44
579.657	29.59
579.996	29.61
580.336	29.62
580.675	29.76
581.014	29.64
581.354	29.82
581.693	29.68
582.032	29.61
582.372	30.16
582.711	29.9
583.05	30.1
583.389	29.89
583.728	29.86
584.067	30.08
584.406	30.08
584.745	29.93
585.083	30.06
585.422	30.04
585.761	30.21
586.1	30.23
586.438	30.13
586.777	30.2
587.115	30.26
587.454	30.19
587.792	29.99
588.13	30.55
588.469	30.45
588.807	30.46
589.145	30.32
589.483	30.33
589.821	30.22
590.159	30.46
590.497	30.24
590.835	30.41
591.173	30.22
591.511	30.26
591.849	30.29
592.187	30.49
592.524	30.15
592.862	30.59
593.2	30.58
593.537	30.76
593.875	30.45
594.212	30.56
594.55	30.6
594.887	30.77
595.224	30.36
595.561	30.51
595.899	30.71
596.236	30.53
596.573	30.24
596.91	30.62
597.247	30.54
597.584	30.86
597.921	30.48
598.258	30.57
598.594	30.47
598.931	30.41
599.268	30.44
599.604	30.88
599.941	30.66
600.277	30.71
600.614	31.02
600.95	30.79
601.287	31.3
601.623	31.25
601.959	31.02
602.296	31.13
602.632	30.94
602.968	31.07
603.304	31
603.64	31.19
603.976	31
604.312	30.98
604.648	31.02
604.984	30.85
605.319	30.86
605.655	30.94
605.991	30.99
606.326	30.88
606.662	31.05
606.998	31.01
607.333	30.98
607.668	31.3
608.004	31.29
608.339	31.29
608.674	31.15
609.01	31.19
609.345	31.25
609.68	31.44
610.015	31.37
610.35	31.28
610.685	30.96
611.02	31.41
611.355	31.34
611.689	31.18
612.024	31.27
612.359	31.4
612.694	31.61
613.028	31.67
613.363	31.84
613.697	31.81
614.032	31.75
614.366	32.03
614.7	31.9
615.035	31.47
615.369	31.69
615.703	32.09
616.037	32.02
616.371	32.2
616.705	31.94
617.039	32
617.373	31.76
617.707	32.02
618.041	31.93
618.375	31.88
618.709	31.95
619.042	32.11
619.376	32.08
619.71	32.04
620.043	31.82
620.377	32.19
620.71	32.19
621.043	31.51
621.377	31.99
621.71	32.09
622.043	32.35
622.376	32.18
622.709	32.42
623.043	32.12
623.376	32.26
623.709	32.03
624.041	32.24
624.374	32.12
624.707	32.04
625.04	32.48
625.373	32.14
625.705	32.46
626.038	32.57
626.37	32.1
626.703	32.33
627.035	32.36
627.368	32.61
627.7	32.63
628.032	31.98
628.365	32.5
628.697	32.18
629.029	32.87
629.361	32.57
629.693	32.85
630.025	32.77
630.357	32.25
630.689	32.7
631.021	32.95
631.353	33.04
631.684	32.76
632.016	32.52
632.348	32.69
632.679	32.6
633.011	32.5
633.342	32.79
633.674	33.01
634.005	32.88
634.336	32.67
634.668	32.92
634.999	32.89
635.33	32.18
635.661	32.97
635.992	32.57
636.323	32.94
636.654	33.24
636.985	32.65
637.316	32.96
637.647	33.18
637.977	32.97
638.308	32.69
638.639	33.01
638.969	33.01
639.3	33.23
639.63	33.57
639.961	33.26
640.291	33.07
640.622	33.33
640.952	33.5
641.282	32.77
641.612	33.09
641.943	33.11
642.273	32.9
642.603	33.32
642.933	33.17
643.263	33.41
643.592	33.48
643.922	33.57
644.252	33.62
644.582	33.12
644.911	33.16
645.241	33.24
645.571	33.07
645.9	34.13
646.23	33.36
646.559	33.51
646.888	33.25
647.218	33.54
647.547	33.48
647.876	33.61
648.205	33.3
648.534	33.47
648.863	34.29
649.192	33.51
649.521	33.34
649.85	33.79
650.179	33.4
650.508	33.59
650.837	33.49
651.165	34.1
651.494	33.54
651.822	33.82
652.151	33.88
652.479	33.52
652.808	33.99
653.136	33.79
653.465	34.11
653.793	33.79
654.121	33.43
654.449	34.32
654.777	33.98
655.105	33.75
655.433	34.41
655.761	33.34
656.089	34.06
656.417	33.91
656.745	34.37
657.073	34.42
657.4	34.49
657.728	33.65
658.056	33.45
658.383	34.36
658.711	33.84
659.038	34.29
659.365	34.67
659.693	33.91
660.02	34.01
660.347	33.93
660.674	33.49
661.001	33.91
661.329	33.72
661.656	34.12
661.982	34.4
662.309	34.41
662.636	34.12
662.963	34.58
663.29	34.46
663.616	34.3
663.943	34.73
664.27	34.49
664.596	34.6
664.923	34.89
665.249	34.22
665.576	35.03
665.902	34.3
666.228	34.39
666.554	34.31
666.881	34.34
667.207	35
667.533	35.22
667.859	34.8
668.185	34.77
668.511	34.55
668.837	34.59
669.162	34.46
669.488	34.67
669.814	35.04
670.139	34.88
