Data from 0050_chest_Reflection__4__19.txt Node

Date: Fri Dec 16 13:57:21 CST 2022
User: ToomeyLab
Spectrometer: FLMS14357
Trigger mode: 0
Integration Time (sec): 1.000000E-2
Scans to average: 100
Electric dark correction enabled: true
Nonlinearity correction enabled: false
Boxcar width: 0
XAxis mode: Wavelengths
Number of Pixels in Spectrum: 2048
>>>>>Begin Spectral Data<<<<<
189.047	181.96
189.435	181.96
189.823	181.96
190.211	-84.18
190.599	-53.1
190.987	492.25
191.375	-87.12
191.763	172.23
192.151	54.03
192.538	21.5
192.926	-1.2
193.314	73.61
193.702	-632.83
194.089	42.74
194.477	310.19
194.864	-28.37
195.252	-8.41
195.639	206.18
196.027	95.69
196.414	-94.32
196.801	110.44
197.189	68.94
197.576	634.69
197.963	-194.29
198.351	-6.98
198.738	25.8
199.125	31.19
199.512	4.45
199.899	-21.34
200.286	-22.71
200.673	6.8
201.06	29.1
201.447	32.61
201.833	10.33
202.22	10.87
202.607	-1.13
202.994	53.44
203.38	-32.95
203.767	-13.86
204.154	-21.09
204.54	20.51
204.927	18.48
205.313	18.52
205.699	-22.1
206.086	-2.94
206.472	-40.34
206.858	5.86
207.245	19.2
207.631	-3
208.017	-0.78
208.403	14.62
208.789	21.6
209.175	42.87
209.561	0.09
209.947	34.83
210.333	-15.94
210.719	-8.5
211.105	-14.99
211.491	40.01
211.876	10.72
212.262	17.33
212.648	10.18
213.034	36.09
213.419	38.7
213.805	9.14
214.19	30.5
214.576	7.87
214.961	8.79
215.346	-16.01
215.732	12.52
216.117	-0.01
216.502	-9.43
216.888	-4.19
217.273	5.7
217.658	-29.53
218.043	-6.56
218.428	-14.03
218.813	-21.59
219.198	-17.4
219.583	4.9
219.968	4.5
220.353	20.61
220.738	10.15
221.122	-11.29
221.507	-11.06
221.892	4.16
222.276	24.43
222.661	-3.79
223.046	14.43
223.43	-9.93
223.815	16.16
224.199	3.77
224.583	-0.73
224.968	7.31
225.352	9.61
225.736	4.83
226.121	-5.09
226.505	8.72
226.889	7.17
227.273	8.51
227.657	2.8
228.041	7.83
228.425	6.83
228.809	5.16
229.193	2.28
229.577	4.69
229.961	5.95
230.344	4.83
230.728	4.85
231.112	4
231.495	3.24
231.879	4.32
232.263	3.81
232.646	5.63
233.03	2.41
233.413	1.63
233.797	7.59
234.18	5.3
234.563	4.81
234.946	4.1
235.33	5.97
235.713	3.46
236.096	4.48
236.479	4.19
236.862	5.75
237.245	5.45
237.628	5.93
238.011	3.83
238.394	4.35
238.777	6.07
239.16	3.32
239.543	4.59
239.925	4.43
240.308	6.03
240.691	4.14
241.073	4.75
241.456	3.93
241.838	5.71
242.221	5.1
242.603	4.06
242.986	5.16
243.368	3.85
243.75	4.03
244.133	4.38
244.515	4.1
244.897	3.71
245.279	4.62
245.661	4.19
246.043	4.6
246.425	3.4
246.807	4.55
247.189	3.98
247.571	4.65
247.953	3.85
248.335	4.28
248.717	4.12
249.098	4.16
249.48	4.04
249.862	4.07
250.243	4.4
250.625	3.83
251.006	4.18
251.388	4.77
251.769	4.18
252.151	3.91
252.532	3.98
252.913	4.59
253.295	4.05
253.676	4.03
254.057	3.95
254.438	3.3
254.819	3.64
255.2	3.82
255.581	3.6
255.962	2.8
256.343	3.4
256.724	3.99
257.105	3.98
257.486	3.92
257.867	3.55
258.247	3.71
258.628	4.09
259.009	3.9
259.389	4.49
259.77	3.9
260.15	4.57
260.531	3.89
260.911	3.82
261.292	3.84
261.672	3.77
262.052	3.68
262.432	3.68
262.813	4.38
263.193	3.2
263.573	4.12
263.953	3.88
264.333	4.05
264.713	4.02
265.093	3.43
265.473	4.94
265.853	4.16
266.233	3.16
266.612	3.89
266.992	3.83
267.372	3.47
267.752	3.67
268.131	4.01
268.511	3.79
268.89	3.78
269.27	3.97
269.649	4.1
270.029	3.78
270.408	4.28
270.787	3.5
271.167	3.88
271.546	2.79
271.925	3.94
272.304	3.47
272.683	3.59
273.062	3.74
273.441	3.92
273.82	3.83
274.199	3.71
274.578	3.66
274.957	3.75
275.336	4.01
275.715	3.94
276.093	3.89
276.472	4.04
276.851	3.75
277.229	4.57
277.608	3.02
277.986	3.57
278.365	3.68
278.743	3.79
279.122	3.31
279.5	3.69
279.878	3.28
280.257	4.41
280.635	3.17
281.013	4.09
281.391	3.76
281.769	3.17
282.147	3.87
282.525	3.75
282.903	3.89
283.281	3.74
283.659	3.64
284.037	3.82
284.415	3.4
284.792	3.72
285.17	3.51
285.548	3.42
285.925	3.58
286.303	3.41
286.68	3.84
287.058	3.49
287.435	3.38
287.813	3.37
288.19	3.78
288.567	3.44
288.945	3.46
289.322	3.51
289.699	3.43
290.076	4.06
290.453	3.79
290.83	3.36
291.207	3.5
291.584	3.4
291.961	3.79
292.338	3.83
292.715	3.7
293.092	3.53
293.469	3.98
293.845	3.73
294.222	3.01
294.599	3.71
294.975	3.37
295.352	3.32
295.728	3.91
296.105	3.6
296.481	4.24
296.858	3.66
297.234	3.68
297.61	3.42
297.986	3.72
298.363	3.29
298.739	3.76
299.115	3.09
299.491	3.51
299.867	3.64
300.243	3.26
300.619	3.24
300.995	3.62
301.371	3.96
301.746	3.4
302.122	3.47
302.498	3.71
302.874	3.76
303.249	4.14
303.625	3.86
304	3.1
304.376	3.57
304.751	3.44
305.127	3.4
305.502	4.08
305.878	3.42
306.253	3.28
306.628	4.04
307.003	3.64
307.378	2.98
307.754	3.49
308.129	3.06
308.504	3.7
308.879	3.55
309.254	3.94
309.629	3.81
310.003	4.1
310.378	3.88
310.753	3.82
311.128	3.73
311.502	3.16
311.877	3.39
312.252	3.4
312.626	3.57
313.001	3.52
313.375	3.27
313.75	3.31
314.124	4.15
314.498	3.52
314.873	3.65
315.247	3.37
315.621	3.99
315.995	3.83
316.369	3.67
316.743	3.9
317.117	3.69
317.491	3.94
317.865	3.13
318.239	3.61
318.613	3.71
318.987	3.47
319.361	3.6
319.734	3.72
320.108	3.72
320.482	3.5
320.855	3.6
321.229	4.03
321.602	3.66
321.976	3.25
322.349	3.3
322.723	3.27
323.096	3.54
323.469	3.24
323.843	3.71
324.216	3.52
324.589	4.06
324.962	3.61
325.335	3.46
325.708	3.91
326.081	3.96
326.454	3.27
326.827	3.98
327.2	3.96
327.573	3.76
327.945	3.28
328.318	3.62
328.691	3.3
329.063	3.14
329.436	3.15
329.809	3.3
330.181	3.68
330.553	3.19
330.926	3.44
331.298	3.42
331.671	3.6
332.043	3.59
332.415	3.75
332.787	3.42
333.159	3.43
333.532	3.74
333.904	3.73
334.276	3.28
334.648	3.59
335.02	3.65
335.391	3.86
335.763	3.54
336.135	3.3
336.507	4.16
336.879	3.73
337.25	3.54
337.622	3.65
337.993	3.53
338.365	3.67
338.736	3.56
339.108	3.26
339.479	3.7
339.851	3.91
340.222	3.55
340.593	3.5
340.964	3.7
341.336	3.17
341.707	3.28
342.078	3.29
342.449	3.83
342.82	3.61
343.191	3.14
343.562	3.54
343.933	4.16
344.303	3.74
344.674	3.64
345.045	3.95
345.416	3.55
345.786	3.16
346.157	3.69
346.527	3.16
346.898	3.24
347.268	3.14
347.639	3.13
348.009	3.57
348.38	3.27
348.75	3.78
349.12	3.81
349.49	3.3
349.861	3.97
350.231	3.89
350.601	3.68
350.971	3.85
351.341	3.61
351.711	3.73
352.081	3.31
352.45	3.31
352.82	3.67
353.19	3.45
353.56	3.77
353.929	3.75
354.299	3.27
354.669	3.52
355.038	3.66
355.408	4.01
355.777	3.41
356.147	3.68
356.516	3.97
356.885	3.51
357.254	3.73
357.624	3.51
357.993	3.54
358.362	3.56
358.731	3.85
359.1	3.71
359.469	3.71
359.838	3.32
360.207	3.42
360.576	3.46
360.945	3.7
361.314	3.73
361.682	3.33
362.051	3.46
362.42	3.65
362.788	3.44
363.157	3.58
363.525	3.57
363.894	3.43
364.262	3.4
364.631	4.25
364.999	3.45
365.367	3.76
365.735	3.33
366.104	3.65
366.472	3.83
366.84	3.66
367.208	3.46
367.576	3.65
367.944	3.88
368.312	3.43
368.68	3.71
369.048	3.71
369.416	3.47
369.783	3.61
370.151	3.7
370.519	3.57
370.886	3.5
371.254	3.62
371.621	3.64
371.989	3.79
372.356	3.63
372.724	3.58
373.091	3.58
373.458	3.57
373.826	3.7
374.193	4.01
374.56	3.28
374.927	3.5
375.294	3.93
375.661	3.71
376.028	3.68
376.395	3.57
376.762	3.74
377.129	3.8
377.496	3.71
377.863	3.5
378.229	3.75
378.596	3.73
378.963	3.45
379.329	3.66
379.696	3.58
380.062	4.1
380.429	3.8
380.795	3.29
381.161	3.63
381.528	3.24
381.894	3.56
382.26	3.54
382.626	3.52
382.993	3.57
383.359	3.78
383.725	3.93
384.091	3.75
384.457	3.87
384.823	3.8
385.188	3.87
385.554	3.86
385.92	4.05
386.286	4.13
386.651	3.62
387.017	3.93
387.383	3.71
387.748	3.51
388.114	3.95
388.479	3.68
388.845	3.88
389.21	4.01
389.575	3.86
389.94	3.67
390.306	3.75
390.671	3.58
391.036	3.85
391.401	4.13
391.766	3.72
392.131	3.67
392.496	3.69
392.861	3.7
393.226	3.93
393.591	3.8
393.956	3.88
394.32	3.75
394.685	3.76
395.05	3.68
395.414	3.88
395.779	3.63
396.143	3.94
396.508	3.89
396.872	3.65
397.236	3.64
397.601	3.96
397.965	3.62
398.329	3.95
398.694	3.55
399.058	3.66
399.422	3.92
399.786	3.84
400.15	3.64
400.514	3.64
400.878	3.82
401.242	4
401.605	3.92
401.969	3.89
402.333	3.78
402.697	4.06
403.06	4.05
403.424	3.72
403.787	4.08
404.151	3.68
404.514	3.91
404.878	3.94
405.241	3.7
405.604	3.95
405.968	3.83
406.331	3.81
406.694	3.87
407.057	4.05
407.42	3.81
407.783	3.83
408.146	3.94
408.509	3.78
408.872	3.8
409.235	4.1
409.598	3.95
409.961	4.06
410.323	3.94
410.686	4.13
411.049	3.81
411.411	3.8
411.774	3.83
412.136	3.99
412.499	3.79
412.861	3.64
413.223	4.01
413.586	3.82
413.948	4.06
414.31	4.23
414.672	4.01
415.035	4.07
415.397	3.94
415.759	3.89
416.121	4.01
416.483	3.87
416.845	3.99
417.206	3.89
417.568	3.92
417.93	3.81
418.292	3.94
418.653	4.03
419.015	3.94
419.377	3.96
419.738	3.78
420.1	3.88
420.461	3.7
420.822	4.01
421.184	3.79
421.545	3.84
421.906	3.83
422.267	3.79
422.629	3.87
422.99	3.85
423.351	3.88
423.712	3.9
424.073	3.97
424.434	3.79
424.795	3.83
425.155	3.89
425.516	3.85
425.877	3.83
426.238	3.74
426.598	3.92
426.959	3.92
427.32	3.89
427.68	4.01
428.041	4.02
428.401	3.95
428.761	3.86
429.122	3.9
429.482	3.86
429.842	4.04
430.202	3.86
430.563	3.87
430.923	4.04
431.283	4
431.643	4.03
432.003	4
432.363	4.09
432.722	3.99
433.082	4.08
433.442	4.1
433.802	4.05
434.161	3.94
434.521	3.94
434.881	3.98
435.24	3.96
435.6	4.01
435.959	3.96
436.319	3.83
436.678	4.16
437.037	4.16
437.396	4
437.756	4.01
438.115	4.03
438.474	4.07
438.833	4.05
439.192	4.2
439.551	4.1
439.91	4.16
440.269	4.18
440.628	4.1
440.987	3.9
441.345	3.93
441.704	4
442.063	4.08
442.421	4
442.78	3.95
443.138	4.03
443.497	4.08
443.855	4.11
444.214	4.13
444.572	4.09
444.93	4.11
445.288	4.09
445.647	4.19
446.005	4.01
446.363	4.01
446.721	3.97
447.079	3.98
447.437	4.05
447.795	3.94
448.153	3.94
448.51	3.94
448.868	4.11
449.226	4.02
449.584	4.12
449.941	4.21
450.299	4.13
450.656	4.11
451.014	4
451.371	4.26
451.729	3.96
452.086	4
452.443	4.04
452.801	4.16
453.158	4.04
453.515	4.18
453.872	4.17
454.229	4.1
454.586	4.15
454.943	4.03
455.3	4.24
455.657	4.03
456.014	4.22
456.371	4.24
456.727	4.1
457.084	4.13
457.441	3.95
457.797	4.1
458.154	4.1
458.51	4.24
458.867	4.06
459.223	4.3
459.58	4.1
459.936	4
460.292	4.25
460.648	4.03
461.005	4.01
461.361	4.1
461.717	4.13
462.073	4.12
462.429	4.1
462.785	4.28
463.141	4.21
463.496	4.17
463.852	4.34
464.208	4.18
464.564	4.17
464.919	4.24
465.275	4.25
465.631	4.26
465.986	4.06
466.342	4.33
466.697	4.2
467.052	4.2
467.408	4.32
467.763	4.09
468.118	4.25
468.473	4.45
468.829	4.25
469.184	4.36
469.539	4.2
469.894	4.19
470.249	4.33
470.603	4.29
470.958	4.41
471.313	4.12
471.668	4.49
472.023	4.31
472.377	4.25
472.732	4.35
473.086	4.19
473.441	4.33
473.795	4.4
474.15	4.23
474.504	4.23
474.859	4.25
475.213	4.28
475.567	4.28
475.921	4.3
476.275	4.29
476.63	4.27
476.984	4.37
477.338	4.56
477.692	4.24
478.045	4.25
478.399	4.38
478.753	4.29
479.107	4.34
479.461	4.26
479.814	4.37
480.168	4.34
480.521	4.4
480.875	4.41
481.228	4.46
481.582	4.34
481.935	4.33
482.289	4.26
482.642	4.37
482.995	4.27
483.348	4.27
483.701	4.33
484.055	4.17
484.408	4.19
484.761	4.03
485.114	3.99
485.466	4.06
485.819	4.11
486.172	4.19
486.525	4.27
486.878	4.29
487.23	4.28
487.583	4.21
487.936	4.27
488.288	4.23
488.641	4.16
488.993	4.04
489.345	4.15
489.698	4.24
490.05	4.23
490.402	4.32
490.754	4.37
491.107	4.28
491.459	4.42
491.811	4.42
492.163	4.38
492.515	4.28
492.866	4.12
493.218	4.17
493.57	4.3
493.922	4.28
494.274	4.44
494.625	4.42
494.977	4.48
495.328	4.55
495.68	4.63
496.031	4.59
496.383	4.38
496.734	4.57
497.086	4.36
497.437	4.54
497.788	4.44
498.139	4.49
498.49	4.48
498.842	4.47
499.193	4.44
499.544	4.66
499.894	4.54
500.245	4.54
500.596	4.48
500.947	4.55
501.298	4.43
501.648	4.54
501.999	4.73
502.35	4.69
502.7	4.61
503.051	4.69
503.401	4.59
503.752	4.44
504.102	4.57
504.452	4.69
504.803	4.54
505.153	4.72
505.503	4.58
505.853	4.57
506.203	4.72
506.553	4.71
506.903	4.68
507.253	4.63
507.603	4.6
507.953	4.77
508.303	4.66
508.652	4.64
509.002	4.65
509.352	4.58
509.701	4.61
510.051	4.64
510.4	4.65
510.75	4.68
511.099	4.67
511.449	4.75
511.798	4.81
512.147	4.7
512.496	4.78
512.846	4.71
513.195	4.78
513.544	4.71
513.893	4.65
514.242	4.68
514.591	4.85
514.939	4.58
515.288	4.73
515.637	4.86
515.986	4.83
516.334	4.87
516.683	4.78
517.032	4.71
517.38	4.84
517.729	4.86
518.077	4.84
518.426	4.71
518.774	4.76
519.122	4.68
519.47	4.79
519.819	4.77
520.167	4.77
520.515	4.74
520.863	4.86
521.211	4.75
521.559	4.89
521.907	4.83
522.255	4.93
522.602	4.93
522.95	4.96
523.298	4.97
523.645	4.89
523.993	5.05
524.341	4.85
524.688	5.02
525.036	5.08
525.383	5.04
525.73	5.07
526.078	4.93
526.425	4.94
526.772	4.83
527.119	4.84
527.466	4.92
527.814	4.9
528.161	4.97
528.508	4.95
528.854	4.9
529.201	4.87
529.548	4.8
529.895	4.73
530.242	4.7
530.588	4.84
530.935	4.9
531.282	4.98
531.628	4.91
531.975	5.03
532.321	5.07
532.667	5.09
533.014	5.12
533.36	5.02
533.706	5.1
534.052	4.98
534.399	4.94
534.745	4.89
535.091	4.92
535.437	5.04
535.783	5.18
536.129	5.22
536.474	5.2
536.82	5.13
537.166	5.25
537.512	5.1
537.857	5.07
538.203	5.16
538.549	5.23
538.894	5.25
539.239	5.36
539.585	5.35
539.93	5.31
540.276	5.24
540.621	5.28
540.966	5.38
541.311	5.39
541.656	5.23
542.001	5.39
542.346	5.23
542.691	5.08
543.036	5.13
543.381	5.24
543.726	5.3
544.071	5.37
544.415	5.32
544.76	5.29
545.105	5.42
545.449	5.41
545.794	5.41
546.138	5.55
546.483	5.52
546.827	5.54
547.171	5.56
547.516	5.62
547.86	5.43
548.204	5.52
548.548	5.58
548.892	5.62
549.236	5.58
549.58	5.62
549.924	5.7
550.268	5.8
550.612	5.66
550.956	5.72
551.3	5.66
551.643	5.79
551.987	5.66
552.33	5.82
552.674	5.89
553.017	5.93
553.361	5.65
553.704	5.68
554.048	5.81
554.391	5.79
554.734	5.85
555.077	5.85
555.42	5.87
555.764	5.95
556.107	5.9
556.45	5.95
556.793	6.09
557.135	6.12
557.478	6.06
557.821	5.86
558.164	6.07
558.507	5.93
558.849	6
559.192	6.26
559.534	5.98
559.877	6.02
560.219	6.42
560.562	6.3
560.904	6.15
561.246	6.36
561.589	6.25
561.931	6.3
562.273	6.24
562.615	6.28
562.957	6.32
563.299	6.31
563.641	6.57
563.983	6.32
564.325	6.27
564.667	6.38
565.008	6.23
565.35	6.54
565.692	6.54
566.033	6.47
566.375	6.14
566.716	6.51
567.058	6.55
567.399	6.45
567.741	6.43
568.082	6.49
568.423	6.52
568.764	6.64
569.105	6.66
569.447	6.58
569.788	6.74
570.129	6.64
570.47	6.66
570.811	6.78
571.151	6.7
571.492	6.78
571.833	6.86
572.174	6.61
572.514	6.68
572.855	6.79
573.195	6.67
573.536	6.67
573.876	6.77
574.217	6.87
574.557	6.93
574.898	6.82
575.238	6.71
575.578	6.96
575.918	6.86
576.258	6.91
576.598	6.81
576.938	7.07
577.278	6.84
577.618	7.05
577.958	7.08
578.298	7.13
578.638	7.13
578.977	7.26
579.317	7.29
579.657	7.21
579.996	7.22
580.336	6.95
580.675	7.4
581.014	7.35
581.354	7.36
581.693	7.32
582.032	7.11
582.372	7.42
582.711	7.45
583.05	7.5
583.389	7.55
583.728	7.64
584.067	7.53
584.406	7.67
584.745	7.52
585.083	7.76
585.422	7.34
585.761	7.7
586.1	7.63
586.438	7.68
586.777	7.84
587.115	7.8
587.454	7.57
587.792	7.64
588.13	8.14
588.469	7.85
588.807	7.83
589.145	8.01
589.483	7.69
589.821	7.91
590.159	7.76
590.497	7.68
590.835	7.98
591.173	8.06
591.511	8.04
591.849	8.14
592.187	8.06
592.524	7.99
592.862	8.2
593.2	8.12
593.537	8.17
593.875	8.03
594.212	8.21
594.55	8.29
594.887	8.37
595.224	8.34
595.561	8.32
595.899	8.37
596.236	8.45
596.573	8.2
596.91	8.32
597.247	8.32
597.584	8.44
597.921	8.28
598.258	8.27
598.594	8.21
598.931	8.37
599.268	8.54
599.604	8.68
599.941	8.52
600.277	8.76
600.614	8.89
600.95	8.77
601.287	8.71
601.623	8.63
601.959	8.64
602.296	8.75
602.632	9.12
602.968	8.76
603.304	8.69
603.64	8.74
603.976	8.83
604.312	9.01
604.648	8.97
604.984	8.85
605.319	9.04
605.655	8.88
605.991	8.87
606.326	8.99
606.662	8.83
606.998	9.05
607.333	9.14
607.668	9.33
608.004	9.19
608.339	8.98
608.674	9.31
609.01	9.32
609.345	9.37
609.68	9.19
610.015	9.42
610.35	9.24
610.685	9.18
611.02	9.47
611.355	9.35
611.689	9.31
612.024	9.46
612.359	9.49
612.694	9.71
613.028	9.77
613.363	9.71
613.697	9.65
614.032	9.77
614.366	9.75
614.7	9.93
615.035	9.87
615.369	9.78
615.703	9.95
616.037	9.9
616.371	10.05
616.705	9.98
617.039	10.12
617.373	10.1
617.707	10.2
618.041	10.08
618.375	9.86
618.709	9.98
619.042	10.43
619.376	10.47
619.71	10.2
620.043	9.87
620.377	10.41
620.71	10.3
621.043	10.02
621.377	10.26
621.71	10.53
622.043	10.64
622.376	10.11
622.709	10.48
623.043	10.3
623.376	10.66
623.709	10.65
624.041	10.39
624.374	10.52
624.707	10.56
625.04	10.99
625.373	10.79
625.705	10.83
626.038	10.84
626.37	10.99
626.703	10.73
627.035	10.56
627.368	10.96
627.7	10.64
628.032	11.02
628.365	10.89
628.697	10.91
629.029	11.25
629.361	11.04
629.693	11.13
630.025	11.2
630.357	10.95
630.689	11.13
631.021	11.11
631.353	11.25
631.684	11.38
632.016	11
632.348	11.48
632.679	11.25
633.011	11.3
633.342	11.05
633.674	11.12
634.005	11.65
634.336	11.39
634.668	11.07
634.999	11.43
635.33	11.17
635.661	11.7
635.992	11.6
636.323	11.56
636.654	11.49
636.985	11.61
637.316	11.93
637.647	11.87
637.977	11.52
638.308	11.72
638.639	11.85
638.969	11.76
639.3	11.74
639.63	11.83
639.961	12.04
640.291	12.08
640.622	11.94
640.952	12.11
641.282	11.61
641.612	11.64
641.943	12.13
642.273	12.31
642.603	12.41
642.933	12.07
643.263	12.6
643.592	12.36
643.922	12.6
644.252	11.8
644.582	12.87
644.911	12.5
645.241	12.22
645.571	12.37
645.9	12.77
646.23	12.28
646.559	12.79
646.888	12.64
647.218	12.39
647.547	12.99
647.876	12.84
648.205	12.34
648.534	12.83
648.863	13.46
649.192	12.64
649.521	12.27
649.85	13.24
650.179	13.09
650.508	12.81
650.837	12.84
651.165	13.04
651.494	13.06
651.822	12.66
652.151	13.33
652.479	13.29
652.808	12.78
653.136	13.08
653.465	13.45
653.793	13.72
654.121	13.67
654.449	12.84
654.777	13.24
655.105	13.81
655.433	13.29
655.761	13.09
656.089	13.25
656.417	13.13
656.745	14.1
657.073	13.72
657.4	13.72
657.728	13.57
658.056	13.69
658.383	13.71
658.711	13.68
659.038	14.36
659.365	13.68
659.693	13.65
660.02	13.47
660.347	13.79
660.674	13.66
661.001	13.49
661.329	14.3
661.656	14.18
661.982	14.14
662.309	14.18
662.636	14.1
662.963	14.37
663.29	14.45
663.616	14.06
663.943	14.49
664.27	14.55
664.596	14.34
664.923	14.8
665.249	14.64
665.576	14.12
665.902	14.37
666.228	14.54
666.554	14.37
666.881	14.93
667.207	14.95
667.533	15.15
667.859	14.46
668.185	14.48
668.511	14.56
668.837	14.2
669.162	14.7
669.488	14.87
669.814	15.43
670.139	15.33
670.465	14.82
670.791	15.04
671.116	14.73
671.442	14.39
671.767	15.71
672.092	14.79
672.418	15.91
672.743	14.84
673.068	15.2
673.393	15.51
673.718	15.17
674.043	15.14
674.368	15.65
674.693	15.48
675.018	15.06
675.343	15.46
675.667	15.4
675.992	15.51
676.317	15.5
676.641	16.02
676.966	15.06
677.29	15.45
677.615	15.97
677.939	15.6
678.264	15.85
678.588	15.98
678.912	16.02
679.236	16.32
679.56	15.67
679.885	15.92
680.209	15.37
680.532	15.97
680.856	16.48
681.18	15.64
681.504	15.77
681.828	15.78
682.152	15.98
682.475	15.76
682.799	16.33
683.122	15.71
683.446	16.2
683.769	16.19
684.093	16.75
684.416	16.2
684.739	17.12
685.062	16.1
685.386	16.19
685.709	16.64
686.032	16.2
686.355	16.57
686.678	16.45
687.001	15.56
687.324	15.94
687.646	16.33
687.969	16.43
688.292	17.3
