Data from 002-16_chest_Reflection__0__141.txt Node

Date: Fri Nov 11 17:12:39 CST 2022
User: ToomeyLab
Spectrometer: FLMS14357
Trigger mode: 0
Integration Time (sec): 1.000000E-2
Scans to average: 100
Electric dark correction enabled: true
Nonlinearity correction enabled: false
Boxcar width: 0
XAxis mode: Wavelengths
Number of Pixels in Spectrum: 2048
>>>>>Begin Spectral Data<<<<<
189.047	89.6
189.435	89.6
189.823	89.6
190.211	-78.13
190.599	34.37
190.987	34.32
191.375	-177.34
191.763	-76.41
192.151	83.26
192.538	1.18
192.926	-23.56
193.314	662.86
193.702	299.03
194.089	-146.52
194.477	108.27
194.864	510.19
195.252	982.14
195.639	77.2
196.027	65.77
196.414	52.74
196.801	32363.64
197.189	542.76
197.576	95.32
197.963	73.1
198.351	-14.92
198.738	-23.81
199.125	5.43
199.512	5.36
199.899	-8.54
200.286	28.54
200.673	13.97
201.06	11.24
201.447	24.41
201.833	-10.04
202.22	23.85
202.607	55.69
202.994	39.66
203.38	-1.69
203.767	23.49
204.154	-36.17
204.54	52.32
204.927	25.76
205.313	36.94
205.699	21.34
206.086	12.89
206.472	40.12
206.858	-3.72
207.245	-7.91
207.631	28.4
208.017	-15.02
208.403	13.71
208.789	-77.95
209.175	6.63
209.561	4.49
209.947	-2.34
210.333	51.04
210.719	12.57
211.105	-7.32
211.491	-117.08
211.876	78.73
212.262	-40.92
212.648	3.31
213.034	-0.55
213.419	-27.41
213.805	23.6
214.19	-15.92
214.576	7.1
214.961	-31.49
215.346	-47.4
215.732	-41.73
216.117	1.19
216.502	1.03
216.888	6.37
217.273	-10.56
217.658	-23.3
218.043	-11.11
218.428	-37.73
218.813	38.59
219.198	-41.6
219.583	6.79
219.968	-3.62
220.353	-37.39
220.738	-28.07
221.122	-31.45
221.507	17.22
221.892	14.08
222.276	0.58
222.661	11.61
223.046	2.38
223.43	-5.65
223.815	8.48
224.199	2.95
224.583	0.36
224.968	16.2
225.352	-3.45
225.736	7.12
226.121	6.41
226.505	1.09
226.889	0.22
227.273	7.9
227.657	-2.36
228.041	-3.95
228.425	4.57
228.809	7.49
229.193	1.93
229.577	5.76
229.961	2.58
230.344	4.19
230.728	3.6
231.112	4.29
231.495	4.42
231.879	2.67
232.263	2.4
232.646	4.69
233.03	2.26
233.413	0.91
233.797	2.03
234.18	4.4
234.563	3.6
234.946	2.15
235.33	4.48
235.713	4.71
236.096	1.31
236.479	4.46
236.862	4.32
237.245	3.32
237.628	2.97
238.011	2.87
238.394	2.62
238.777	3.28
239.16	5.12
239.543	4.2
239.925	5.95
240.308	-0.97
240.691	3.75
241.073	2.34
241.456	3.02
241.838	3.22
242.221	3.12
242.603	2.47
242.986	3.49
243.368	2.73
243.75	3.78
244.133	3.71
244.515	3.32
244.897	3.62
245.279	3.03
245.661	3.75
246.043	3.76
246.425	4.75
246.807	3.19
247.189	3.08
247.571	2.18
247.953	3.43
248.335	3.88
248.717	3.3
249.098	3.68
249.48	3.26
249.862	3.23
250.243	3.35
250.625	3.46
251.006	3.79
251.388	3.49
251.769	3.42
252.151	3.86
252.532	3.96
252.913	2.65
253.295	3.48
253.676	3
254.057	3.16
254.438	3.58
254.819	2.96
255.2	4.14
255.581	3.8
255.962	4.09
256.343	4.07
256.724	3.34
257.105	3
257.486	3.21
257.867	3.17
258.247	3.8
258.628	3.1
259.009	2.9
259.389	3.14
259.77	3.94
260.15	3.9
260.531	2.92
260.911	3.04
261.292	3.43
261.672	3.33
262.052	3.38
262.432	3.63
262.813	3.05
263.193	2.57
263.573	3.76
263.953	3.64
264.333	3.9
264.713	3.37
265.093	3.72
265.473	4.12
265.853	3.24
266.233	3.34
266.612	2.48
266.992	3.63
267.372	2.94
267.752	3.42
268.131	3.19
268.511	3.63
268.89	3.42
269.27	2.72
269.649	2.78
270.029	2.71
270.408	2.74
270.787	3.46
271.167	3.18
271.546	4.2
271.925	3.55
272.304	3.38
272.683	3.19
273.062	3.06
273.441	3.31
273.82	2.54
274.199	3.25
274.578	3.12
274.957	2.72
275.336	2.7
275.715	2.97
276.093	3.93
276.472	3.16
276.851	3.46
277.229	3.03
277.608	3.02
277.986	3.1
278.365	3.61
278.743	2.89
279.122	3.22
279.5	3.36
279.878	3.02
280.257	4.02
280.635	3.28
281.013	3.3
281.391	2.81
281.769	3.55
282.147	3.3
282.525	2.73
282.903	3.15
283.281	2.8
283.659	2.54
284.037	2.85
284.415	2.95
284.792	3.17
285.17	3.23
285.548	3
285.925	3.05
286.303	2.88
286.68	3.06
287.058	2.95
287.435	3.1
287.813	3.01
288.19	2.96
288.567	3.17
288.945	2.71
289.322	3.06
289.699	3.05
290.076	2.79
290.453	3.08
290.83	3.62
291.207	2.97
291.584	2.71
291.961	3.03
292.338	3.19
292.715	2.83
293.092	3.26
293.469	3.78
293.845	3.47
294.222	3.5
294.599	3.43
294.975	2.79
295.352	3.01
295.728	3.06
296.105	2.95
296.481	2.81
296.858	3.1
297.234	2.91
297.61	3.12
297.986	2.83
298.363	3.06
298.739	3.19
299.115	3.3
299.491	3.21
299.867	2.76
300.243	2.96
300.619	3.28
300.995	3.22
301.371	2.86
301.746	2.92
302.122	3.2
302.498	2.14
302.874	3.27
303.249	3.29
303.625	3.15
304	3.14
304.376	2.99
304.751	3.35
305.127	3.73
305.502	3.49
305.878	3.41
306.253	3.19
306.628	3.33
307.003	3.16
307.378	3.49
307.754	3.49
308.129	3.62
308.504	3.23
308.879	2.82
309.254	3.03
309.629	3.29
310.003	3.11
310.378	2.65
310.753	3.15
311.128	3.15
311.502	2.4
311.877	3.66
312.252	3.08
312.626	2.66
313.001	3.36
313.375	3.01
313.75	3.41
314.124	3.52
314.498	3.52
314.873	2.91
315.247	3.02
315.621	2.39
315.995	2.89
316.369	3.11
316.743	3.3
317.117	3.25
317.491	3.04
317.865	3.07
318.239	3.73
318.613	3.33
318.987	3.75
319.361	2.85
319.734	2.59
320.108	3.09
320.482	2.63
320.855	2.94
321.229	3.42
321.602	3.68
321.976	2.79
322.349	3.61
322.723	3.13
323.096	3.64
323.469	3.48
323.843	3.78
324.216	3.37
324.589	3.12
324.962	2.96
325.335	3.58
325.708	3.14
326.081	3.2
326.454	2.89
326.827	3.26
327.2	3.09
327.573	3.58
327.945	3.18
328.318	3.26
328.691	3.62
329.063	3.21
329.436	3.27
329.809	2.87
330.181	3.35
330.553	2.99
330.926	2.79
331.298	2.92
331.671	3.57
332.043	3.25
332.415	2.84
332.787	3.09
333.159	3.46
333.532	2.74
333.904	3.12
334.276	3.27
334.648	3.02
335.02	2.97
335.391	3.36
335.763	3.34
336.135	3.42
336.507	3.22
336.879	2.7
337.25	2.75
337.622	3.35
337.993	2.93
338.365	3.25
338.736	3.3
339.108	3.07
339.479	2.89
339.851	2.9
340.222	3.33
340.593	3.22
340.964	3.08
341.336	2.98
341.707	3.43
342.078	2.57
342.449	3.35
342.82	2.82
343.191	3.33
343.562	3.45
343.933	2.93
344.303	3.63
344.674	3.21
345.045	3.16
345.416	3.2
345.786	3.47
346.157	3.04
346.527	3.2
346.898	3.05
347.268	3.27
347.639	3.26
348.009	3.15
348.38	3.28
348.75	3.59
349.12	3.11
349.49	3.16
349.861	3
350.231	3.23
350.601	3.52
350.971	3.45
351.341	2.9
351.711	2.94
352.081	2.59
352.45	3.13
352.82	3.37
353.19	3.24
353.56	3.16
353.929	3.56
354.299	3.32
354.669	3.22
355.038	3.04
355.408	3.05
355.777	3.19
356.147	3.34
356.516	3.29
356.885	3.11
357.254	3.02
357.624	3.22
357.993	3.35
358.362	3.18
358.731	2.96
359.1	3
359.469	3.3
359.838	3.5
360.207	3.33
360.576	3.41
360.945	3.35
361.314	3.34
361.682	3.15
362.051	3.06
362.42	2.88
362.788	3.08
363.157	3.36
363.525	3.23
363.894	3.07
364.262	2.96
364.631	3.25
364.999	3.16
365.367	3.34
365.735	3.21
366.104	3
366.472	3.55
366.84	3.32
367.208	3.19
367.576	3.25
367.944	3.69
368.312	3.26
368.68	3.17
369.048	3.13
369.416	2.89
369.783	3.22
370.151	3.26
370.519	3.74
370.886	3.16
371.254	3.15
371.621	3.13
371.989	3.02
372.356	2.75
372.724	3.31
373.091	3.13
373.458	3.25
373.826	3.37
374.193	3.28
374.56	3.12
374.927	3.18
375.294	3.31
375.661	3.61
376.028	3.3
376.395	3.19
376.762	3.11
377.129	3.38
377.496	3.09
377.863	3.18
378.229	3.32
378.596	3.16
378.963	3.15
379.329	3.11
379.696	3.36
380.062	3.32
380.429	2.82
380.795	3.18
381.161	3.49
381.528	3.12
381.894	3.61
382.26	3.23
382.626	3.37
382.993	3.34
383.359	3.33
383.725	3.4
384.091	2.99
384.457	2.98
384.823	3.22
385.188	3.18
385.554	3.32
385.92	3.24
386.286	2.89
386.651	3.25
387.017	3.15
387.383	3.1
387.748	3.35
388.114	3.18
388.479	3.23
388.845	3.27
389.21	3.51
389.575	3.18
389.94	3.41
390.306	3.11
390.671	3.26
391.036	3.01
391.401	3.31
391.766	3.01
392.131	3.25
392.496	3.14
392.861	3.23
393.226	3.08
393.591	3.14
393.956	3.43
394.32	3.46
394.685	3.53
395.05	3.42
395.414	3.59
395.779	3.16
396.143	3.46
396.508	3.07
396.872	3.32
397.236	3.43
397.601	3.16
397.965	3.28
398.329	3.2
398.694	3.21
399.058	3.06
399.422	3.24
399.786	3.47
400.15	3.09
400.514	2.88
400.878	3.35
401.242	3.38
401.605	3.27
401.969	3.4
402.333	3.49
402.697	3.06
403.06	3.28
403.424	3.02
403.787	3.36
404.151	3.04
404.514	3.26
404.878	3.33
405.241	3.19
405.604	3.08
405.968	3.24
406.331	3.01
406.694	3.26
407.057	3.28
407.42	3.23
407.783	2.95
408.146	3.41
408.509	3.25
408.872	3.4
409.235	3.31
409.598	3.12
409.961	3.16
410.323	3.3
410.686	3.39
411.049	3.39
411.411	3.27
411.774	3.08
412.136	3.11
412.499	3.28
412.861	3.15
413.223	3.25
413.586	3.16
413.948	3.25
414.31	3.23
414.672	3.55
415.035	3.42
415.397	3.26
415.759	3.08
416.121	3.34
416.483	3.37
416.845	3.35
417.206	3.3
417.568	3.33
417.93	3.29
418.292	3.13
418.653	3.16
419.015	3.12
419.377	3.22
419.738	3.37
420.1	3.05
420.461	3.18
420.822	3.05
421.184	3.1
421.545	3.22
421.906	3.2
422.267	3.3
422.629	3.19
422.99	3.14
423.351	3.2
423.712	3.15
424.073	3.21
424.434	3.25
424.795	3.34
425.155	3.36
425.516	3.26
425.877	3.22
426.238	3.3
426.598	3.25
426.959	3.24
427.32	3.26
427.68	3.3
428.041	3.37
428.401	3.13
428.761	3.22
429.122	3.44
429.482	3.28
429.842	3.25
430.202	3.37
430.563	3.28
430.923	3.19
431.283	3.31
431.643	3.5
432.003	3.4
432.363	3.43
432.722	3.34
433.082	3.32
433.442	3.31
433.802	3.42
434.161	3.38
434.521	3.55
434.881	3.33
435.24	3.35
435.6	3.19
435.959	3.31
436.319	3.23
436.678	3.19
437.037	3.34
437.396	3.17
437.756	3.28
438.115	3.3
438.474	3.24
438.833	3.27
439.192	3.46
439.551	3.28
439.91	3.35
440.269	3.41
440.628	3.4
440.987	3.54
441.345	3.35
441.704	3.37
442.063	3.45
442.421	3.27
442.78	3.3
443.138	3.35
443.497	3.32
443.855	3.37
444.214	3.37
444.572	3.37
444.93	3.38
445.288	3.61
445.647	3.29
446.005	3.48
446.363	3.22
446.721	3.28
447.079	3.3
447.437	3.31
447.795	3.22
448.153	3.26
448.51	3.31
448.868	3.38
449.226	3.36
449.584	3.39
449.941	3.33
450.299	3.36
450.656	3.51
451.014	3.52
451.371	3.36
451.729	3.33
452.086	3.41
452.443	3.51
452.801	3.41
453.158	3.3
453.515	3.46
453.872	3.43
454.229	3.5
454.586	3.43
454.943	3.48
455.3	3.26
455.657	3.49
456.014	3.38
456.371	3.28
456.727	3.48
457.084	3.46
457.441	3.5
457.797	3.5
458.154	3.46
458.51	3.52
458.867	3.66
459.223	3.4
459.58	3.47
459.936	3.58
460.292	3.42
460.648	3.42
461.005	3.5
461.361	3.4
461.717	3.33
462.073	3.42
462.429	3.47
462.785	3.4
463.141	3.44
463.496	3.51
463.852	3.57
464.208	3.48
464.564	3.54
464.919	3.55
465.275	3.46
465.631	3.78
465.986	3.32
466.342	3.65
466.697	3.66
467.052	3.47
467.408	3.43
467.763	3.53
468.118	3.46
468.473	3.54
468.829	3.45
469.184	3.55
469.539	3.67
469.894	3.38
470.249	3.45
470.603	3.53
470.958	3.66
471.313	3.52
471.668	3.42
472.023	3.64
472.377	3.64
472.732	3.57
473.086	3.44
473.441	3.48
473.795	3.53
474.15	3.61
474.504	3.67
474.859	3.65
475.213	3.71
475.567	3.6
475.921	3.55
476.275	3.58
476.63	3.47
476.984	3.57
477.338	3.57
477.692	3.63
478.045	3.58
478.399	3.42
478.753	3.68
479.107	3.48
479.461	3.52
479.814	3.67
480.168	3.62
480.521	3.56
480.875	3.6
481.228	3.52
481.582	3.53
481.935	3.62
482.289	3.68
482.642	3.63
482.995	3.61
483.348	3.49
483.701	3.52
484.055	3.54
484.408	3.51
484.761	3.43
485.114	3.4
485.466	3.28
485.819	3.36
486.172	3.34
486.525	3.38
486.878	3.47
487.23	3.42
487.583	3.57
487.936	3.45
488.288	3.43
488.641	3.46
488.993	3.41
489.345	3.39
489.698	3.43
490.05	3.43
490.402	3.45
490.754	3.52
491.107	3.54
491.459	3.61
491.811	3.56
492.163	3.62
492.515	3.54
492.866	3.55
493.218	3.46
493.57	3.44
493.922	3.53
494.274	3.55
494.625	3.56
494.977	3.54
495.328	3.63
495.68	3.57
496.031	3.65
496.383	3.85
496.734	3.68
497.086	3.7
497.437	3.61
497.788	3.68
498.139	3.69
498.49	3.7
498.842	3.64
499.193	3.59
499.544	3.63
499.894	3.79
500.245	3.74
500.596	3.64
500.947	3.61
501.298	3.83
501.648	3.78
501.999	3.71
502.35	3.78
502.7	3.78
503.051	3.76
503.401	3.87
503.752	3.77
504.102	3.75
504.452	3.75
504.803	3.64
505.153	3.77
505.503	3.69
505.853	3.74
506.203	3.72
506.553	3.82
506.903	3.7
507.253	3.81
507.603	3.8
507.953	3.88
508.303	3.75
508.652	3.7
509.002	3.71
509.352	3.88
509.701	3.91
510.051	3.78
510.4	3.78
510.75	3.74
511.099	3.8
511.449	3.8
511.798	3.81
512.147	3.81
512.496	3.82
512.846	3.74
513.195	3.68
513.544	3.75
513.893	3.81
514.242	3.91
514.591	3.84
514.939	3.84
515.288	3.93
515.637	3.9
515.986	3.95
516.334	3.86
516.683	3.94
517.032	3.91
517.38	3.96
517.729	3.91
518.077	3.87
518.426	3.9
518.774	3.8
519.122	3.84
519.47	3.82
519.819	3.88
520.167	3.74
520.515	3.91
520.863	3.89
521.211	3.92
521.559	3.83
521.907	3.93
522.255	3.98
522.602	4
522.95	4.02
523.298	3.92
523.645	3.94
523.993	4.05
524.341	4
524.688	3.96
525.036	4
525.383	3.88
525.73	3.97
526.078	3.96
526.425	3.91
526.772	3.84
527.119	3.97
527.466	3.88
527.814	3.89
528.161	3.96
528.508	3.93
528.854	3.93
529.201	3.98
529.548	3.89
529.895	3.78
530.242	3.78
530.588	3.79
530.935	3.81
531.282	3.92
531.628	3.92
531.975	3.86
532.321	3.93
532.667	3.99
533.014	3.96
533.36	4.02
533.706	3.99
534.052	4.02
534.399	3.98
534.745	4.01
535.091	3.92
535.437	3.99
535.783	4
536.129	4.04
536.474	4.11
536.82	3.99
537.166	4.1
537.512	4.19
537.857	4.23
538.203	4.1
538.549	4.09
538.894	4.15
539.239	4.12
539.585	4.13
539.93	4.32
540.276	4.18
540.621	4.21
540.966	4.31
541.311	4.35
541.656	4.1
542.001	4.18
542.346	4.23
542.691	4.05
543.036	4.14
543.381	4.13
543.726	4.12
544.071	4.14
544.415	4.22
544.76	4.2
545.105	4.24
545.449	4.22
545.794	4.31
546.138	4.33
546.483	4.35
546.827	4.27
547.171	4.29
547.516	4.25
547.86	4.33
548.204	4.36
548.548	4.36
548.892	4.39
549.236	4.45
549.58	4.38
549.924	4.4
550.268	4.54
550.612	4.47
550.956	4.55
551.3	4.5
551.643	4.55
551.987	4.55
552.33	4.47
552.674	4.56
553.017	4.63
553.361	4.55
553.704	4.64
554.048	4.68
554.391	4.64
554.734	4.54
555.077	4.73
555.42	4.58
555.764	4.74
556.107	4.74
556.45	4.46
556.793	4.76
557.135	4.73
557.478	4.67
557.821	4.78
558.164	4.8
558.507	4.77
558.849	4.71
559.192	4.86
559.534	4.83
559.877	4.88
560.219	5
560.562	4.9
560.904	4.77
561.246	4.72
561.589	5.01
561.931	4.82
562.273	5.06
562.615	4.77
562.957	4.85
563.299	4.87
563.641	4.87
563.983	4.94
564.325	4.82
564.667	4.91
565.008	4.94
565.35	5.06
565.692	4.93
566.033	5.01
566.375	5.02
566.716	5.23
567.058	5
567.399	5.03
567.741	5.18
568.082	5.01
568.423	5.08
568.764	5.11
569.105	5.08
569.447	5.24
569.788	5.16
570.129	5.15
570.47	5.17
570.811	5.25
571.151	5.31
571.492	5.21
571.833	5.31
572.174	5.31
572.514	5.46
572.855	5.24
573.195	5.35
573.536	5.39
573.876	5.21
574.217	5.28
574.557	5.27
574.898	5.53
575.238	5.44
575.578	5.38
575.918	5.43
576.258	5.45
576.598	5.47
576.938	5.47
577.278	5.6
577.618	5.56
577.958	5.56
578.298	5.66
578.638	5.63
578.977	5.55
579.317	5.55
579.657	5.7
579.996	5.74
580.336	5.81
580.675	5.79
581.014	5.72
581.354	5.76
581.693	5.9
582.032	5.89
582.372	6.06
582.711	5.86
583.05	5.74
583.389	5.85
583.728	5.94
584.067	5.93
584.406	5.86
584.745	5.77
585.083	6.15
585.422	6.04
585.761	6.29
586.1	5.99
586.438	6
586.777	6.15
587.115	6.03
587.454	6.17
587.792	6.06
588.13	6.32
588.469	6.18
588.807	6.37
589.145	6.12
589.483	6.26
589.821	6.13
590.159	6.21
590.497	6.2
590.835	6.27
591.173	6.45
591.511	6.19
591.849	6.05
592.187	6.26
592.524	6.3
592.862	6.5
593.2	6.43
593.537	6.17
593.875	6.41
594.212	6.64
594.55	6.51
594.887	6.5
595.224	6.49
595.561	6.61
595.899	6.49
596.236	6.67
596.573	6.27
596.91	6.69
597.247	6.67
597.584	6.36
597.921	6.6
598.258	6.74
598.594	6.63
598.931	6.73
599.268	6.71
599.604	6.94
599.941	6.7
600.277	6.64
600.614	6.91
600.95	6.86
601.287	6.91
601.623	6.96
601.959	6.82
602.296	6.84
602.632	6.98
602.968	6.89
603.304	7.12
603.64	6.88
603.976	7.08
604.312	6.87
604.648	6.7
604.984	7.12
605.319	7.15
605.655	7.05
605.991	7.03
606.326	7.13
606.662	7.14
606.998	7.15
607.333	7.15
607.668	7.29
608.004	7.41
608.339	7.46
608.674	7.25
609.01	7.26
609.345	7.44
609.68	7.58
610.015	7.45
610.35	7.44
610.685	7.64
611.02	7.61
611.355	7.46
611.689	7.46
612.024	7.54
612.359	7.52
612.694	7.5
613.028	7.48
613.363	7.66
613.697	7.61
614.032	7.92
614.366	7.81
614.7	7.84
615.035	7.88
615.369	7.75
615.703	8.12
616.037	7.98
616.371	7.81
616.705	8.08
617.039	7.88
617.373	8.17
617.707	8.15
618.041	7.86
618.375	8.02
618.709	8.24
619.042	8.13
619.376	8.1
619.71	8.28
620.043	8.21
620.377	8.22
620.71	8.24
621.043	8.29
621.377	8.32
621.71	8.4
622.043	8.17
622.376	8.36
622.709	8.36
623.043	8.57
623.376	8.39
623.709	8.31
624.041	8.6
624.374	8.2
624.707	8.43
625.04	8.57
625.373	8.85
625.705	8.47
626.038	8.67
626.37	8.98
626.703	8.62
627.035	8.48
627.368	8.81
627.7	8.67
628.032	8.76
628.365	9.16
628.697	8.91
629.029	8.84
629.361	8.9
629.693	8.6
630.025	8.96
630.357	8.88
630.689	8.99
631.021	9.22
631.353	9.13
631.684	9.15
632.016	9.26
632.348	9.34
632.679	9.01
633.011	8.7
633.342	8.97
633.674	9.45
634.005	9.48
634.336	9.47
634.668	9.16
634.999	9.5
635.33	9.53
635.661	9.42
635.992	9.38
636.323	9.63
636.654	9.56
636.985	9.78
637.316	9.75
637.647	9.65
637.977	10.05
638.308	9.51
638.639	9.95
638.969	10.18
639.3	9.92
639.63	10.03
639.961	10.02
640.291	9.75
640.622	10.13
640.952	10.1
641.282	10.19
641.612	10.29
641.943	10.24
642.273	10.27
642.603	10.05
642.933	9.83
643.263	10.37
643.592	10.71
643.922	9.99
644.252	10.24
644.582	10.27
644.911	10.6
645.241	10.64
645.571	10.29
645.9	10.17
646.23	10.6
646.559	10.36
646.888	10.42
647.218	10.21
647.547	10.88
647.876	10.23
648.205	10.87
648.534	10.59
648.863	10.75
649.192	10.63
649.521	10.86
649.85	11
650.179	10.8
650.508	11.02
650.837	11.24
651.165	10.74
651.494	10.99
651.822	10.83
652.151	10.62
652.479	11.21
652.808	10.86
653.136	10.99
653.465	11.63
653.793	11.38
654.121	11.46
654.449	11.37
654.777	11.01
655.105	11.39
655.433	11.22
655.761	11.26
656.089	11.2
656.417	11.25
656.745	11.41
657.073	11.36
657.4	11.67
657.728	11.76
658.056	11.24
658.383	11.66
658.711	12
659.038	11.48
659.365	11.5
659.693	11.07
660.02	12.25
660.347	11.57
660.674	11.62
661.001	12.25
661.329	11.76
661.656	11.99
661.982	12.03
662.309	11.86
662.636	12.15
662.963	11.83
663.29	12.38
663.616	12.15
663.943	12.4
664.27	12.43
664.596	12.37
664.923	12.52
665.249	12.68
665.576	12.39
665.902	12.08
666.228	12.18
666.554	12.47
666.881	12.02
667.207	12.35
667.533	12.81
667.859	11.74
668.185	12.54
668.511	12.5
668.837	12.25
669.162	12.96
669.488	12.69
669.814	12.97
670.139	12.83
670.465	12.75
670.791	12.35
671.116	12.81
671.442	12.82
671.767	12.79
672.092	12.98
672.418	12.85
672.743	13.37
673.068	12.92
673.393	13.43
673.718	13.8
674.043	13.58
674.368	13.52
674.693	13.42
675.018	13.57
675.343	13.7
675.667	13.24
675.992	13.71
676.317	13.58
676.641	13.66
676.966	13.4
677.29	12.97
677.615	13.82
677.939	14.23
678.264	13.56
678.588	13.88
678.912	14.39
679.236	13.54
679.56	13.83
679.885	14.02
680.209	13.71
680.532	13.9
680.856	13.96
681.18	13.55
681.504	13.85
681.828	13.44
682.152	14.64
682.475	14.39
682.799	14.14
683.122	13.93
683.446	14.08
683.769	14.81
684.093	14.24
684.416	14.6
684.739	14.72
685.062	14.43
685.386	14.77
685.709	14.8
686.032	14.32
686.355	14.1
686.678	14.52
687.001	14.79
687.324	14.55
687.646	15.08
687.969	14.84
688.292	15.23
688.614	15.03
688.937	14.73
689.26	15.31
