Data from 002-16_chest_Reflection__4__145.txt Node

Date: Fri Nov 11 17:13:27 CST 2022
User: ToomeyLab
Spectrometer: FLMS14357
Trigger mode: 0
Integration Time (sec): 1.000000E-2
Scans to average: 100
Electric dark correction enabled: true
Nonlinearity correction enabled: false
Boxcar width: 0
XAxis mode: Wavelengths
Number of Pixels in Spectrum: 2048
>>>>>Begin Spectral Data<<<<<
189.047	45.52
189.435	45.52
189.823	45.52
190.211	65.6
190.599	66.06
190.987	452.61
191.375	902.96
191.763	24.19
192.151	114.81
192.538	67.56
192.926	-26.5
193.314	1517.96
193.702	967.59
194.089	68.19
194.477	236.39
194.864	451.95
195.252	374.26
195.639	45.86
196.027	24.83
196.414	105.68
196.801	36154.55
197.189	27.28
197.576	20.54
197.963	74.47
198.351	17.03
198.738	-97.94
199.125	5.94
199.512	17.42
199.899	-5.57
200.286	1.15
200.673	8.13
201.06	2.9
201.447	32.2
201.833	5.4
202.22	28.14
202.607	2.51
202.994	17.69
203.38	7.51
203.767	5.34
204.154	-33.76
204.54	42.55
204.927	14.65
205.313	20.8
205.699	12.44
206.086	20.24
206.472	24.05
206.858	-2.84
207.245	32.41
207.631	31.43
208.017	-15.33
208.403	10.37
208.789	-50.1
209.175	7.86
209.561	22.87
209.947	0.28
210.333	40.81
210.719	26.88
211.105	18.32
211.491	-58.03
211.876	21.52
212.262	18.48
212.648	-4.37
213.034	-5.6
213.419	-3.75
213.805	17.57
214.19	-39.06
214.576	16.81
214.961	-5.62
215.346	-23.36
215.732	1.6
216.117	30.51
216.502	13.23
216.888	4.12
217.273	4.13
217.658	-16.77
218.043	40.23
218.428	-50.62
218.813	21.76
219.198	-29.62
219.583	-18.34
219.968	28.41
220.353	-31.41
220.738	17.53
221.122	15.08
221.507	16.44
221.892	13.84
222.276	18.72
222.661	0.77
223.046	2.52
223.43	3.34
223.815	2.03
224.199	4.48
224.583	9.41
224.968	22.15
225.352	0.29
225.736	3.22
226.121	11.78
226.505	7.92
226.889	0.5
227.273	-0.62
227.657	-8.55
228.041	1.92
228.425	4.68
228.809	4.93
229.193	1.68
229.577	4.48
229.961	3.09
230.344	3.3
230.728	3.27
231.112	3.35
231.495	3.21
231.879	3.25
232.263	2.56
232.646	2.37
233.03	2.26
233.413	2.97
233.797	4.21
234.18	4.2
234.563	2.43
234.946	1.46
235.33	2.55
235.713	3.08
236.096	1.14
236.479	4.66
236.862	4.92
237.245	3.86
237.628	4.33
238.011	4.58
238.394	6.07
238.777	3.5
239.16	3.7
239.543	3.99
239.925	5.35
240.308	2.13
240.691	3.08
241.073	3.13
241.456	2.55
241.838	3.66
242.221	3.39
242.603	2.16
242.986	3.68
243.368	2.77
243.75	3.25
244.133	3.51
244.515	3.67
244.897	3.67
245.279	3.24
245.661	3.4
246.043	4.1
246.425	4.25
246.807	3
247.189	3.07
247.571	2.56
247.953	3.3
248.335	3.78
248.717	3.54
249.098	3.56
249.48	3.74
249.862	3.58
250.243	3.5
250.625	3.45
251.006	3.84
251.388	3.89
251.769	4.66
252.151	3.22
252.532	4.25
252.913	2.7
253.295	3.2
253.676	3.61
254.057	3.6
254.438	3.66
254.819	3.84
255.2	4.25
255.581	3.09
255.962	3.5
256.343	3.76
256.724	3
257.105	4.05
257.486	4.62
257.867	2.28
258.247	5.45
258.628	2.71
259.009	2.99
259.389	3.49
259.77	4.67
260.15	3.76
260.531	3.5
260.911	3.28
261.292	3.59
261.672	3.47
262.052	3.63
262.432	3.98
262.813	3.79
263.193	4.03
263.573	3.95
263.953	4.3
264.333	4.16
264.713	2.8
265.093	3.02
265.473	4.27
265.853	3.28
266.233	3
266.612	3.27
266.992	2.89
267.372	3.36
267.752	3.12
268.131	4.09
268.511	3.43
268.89	3.48
269.27	3.41
269.649	3.22
270.029	2.67
270.408	2.62
270.787	3.92
271.167	3.27
271.546	3.62
271.925	3.3
272.304	3.47
272.683	3.45
273.062	3.63
273.441	3.44
273.82	3.16
274.199	3.65
274.578	3.95
274.957	3.07
275.336	3.57
275.715	3.01
276.093	3.62
276.472	3
276.851	2.76
277.229	3.49
277.608	3.44
277.986	3.45
278.365	4.05
278.743	3.23
279.122	3.45
279.5	3.4
279.878	2.96
280.257	3.44
280.635	3.3
281.013	3.35
281.391	3.24
281.769	3.77
282.147	3.47
282.525	3.53
282.903	3.14
283.281	3.4
283.659	3.31
284.037	3.36
284.415	3.52
284.792	3.3
285.17	3.6
285.548	3.58
285.925	3.67
286.303	3.5
286.68	3.59
287.058	3.57
287.435	3.6
287.813	3.29
288.19	3.42
288.567	3.39
288.945	3.22
289.322	3.41
289.699	4
290.076	3.34
290.453	3.55
290.83	3.73
291.207	3.44
291.584	3.03
291.961	3.17
292.338	3.57
292.715	3.63
293.092	3.2
293.469	3.87
293.845	3.87
294.222	3.56
294.599	3.73
294.975	3.52
295.352	3.61
295.728	4
296.105	4.06
296.481	3.54
296.858	4.22
297.234	3.78
297.61	3.7
297.986	2.95
298.363	3.55
298.739	4.02
299.115	3.66
299.491	3.89
299.867	3.39
300.243	3.46
300.619	4.11
300.995	3.68
301.371	3.53
301.746	3.79
302.122	3.97
302.498	3.86
302.874	3.7
303.249	3.93
303.625	3.79
304	3.5
304.376	4.03
304.751	4.06
305.127	3.67
305.502	4.06
305.878	4.05
306.253	4.21
306.628	4.41
307.003	4.26
307.378	4.18
307.754	4.26
308.129	3.83
308.504	4.64
308.879	4.21
309.254	3.51
309.629	3.69
310.003	4.12
310.378	3.81
310.753	3.78
311.128	3.87
311.502	3.37
311.877	4.51
312.252	3.81
312.626	3.8
313.001	4.25
313.375	3.98
313.75	4.22
314.124	4.11
314.498	4.2
314.873	4.32
315.247	4.15
315.621	3.71
315.995	3.66
316.369	4.01
316.743	4.02
317.117	4.29
317.491	4.32
317.865	3.9
318.239	4.11
318.613	3.92
318.987	4.31
319.361	4.32
319.734	3.35
320.108	4.08
320.482	3.89
320.855	4.06
321.229	4.83
321.602	4.47
321.976	3.38
322.349	4.35
322.723	4.14
323.096	4.4
323.469	4.66
323.843	4.66
324.216	3.82
324.589	3.87
324.962	3.55
325.335	4.03
325.708	3.93
326.081	4.12
326.454	4.78
326.827	4.6
327.2	3.43
327.573	4.39
327.945	3.98
328.318	4.6
328.691	4.19
329.063	4.73
329.436	4
329.809	3.91
330.181	4.37
330.553	4.03
330.926	4.21
331.298	4.04
331.671	4.54
332.043	3.94
332.415	4.26
332.787	4.55
333.159	4.44
333.532	3.96
333.904	4.16
334.276	3.9
334.648	4.11
335.02	4.87
335.391	4.22
335.763	4.07
336.135	4.19
336.507	4.44
336.879	4.42
337.25	3.83
337.622	4.44
337.993	4.66
338.365	4.24
338.736	4.22
339.108	4.07
339.479	4.06
339.851	3.68
340.222	3.89
340.593	3.7
340.964	4.24
341.336	4.31
341.707	4.24
342.078	4.19
342.449	4.18
342.82	4.06
343.191	4.71
343.562	4.53
343.933	3.42
344.303	4.83
344.674	4.56
345.045	4.14
345.416	4.13
345.786	4.12
346.157	4.19
346.527	4.59
346.898	4.15
347.268	4.23
347.639	4.5
348.009	4.25
348.38	3.98
348.75	4.37
349.12	4.47
349.49	4.02
349.861	4.26
350.231	3.86
350.601	4.48
350.971	4.45
351.341	4.24
351.711	4.19
352.081	3.72
352.45	4.3
352.82	4.42
353.19	4.09
353.56	4.33
353.929	4.28
354.299	4.4
354.669	4.14
355.038	4.39
355.408	4.12
355.777	4.34
356.147	4.59
356.516	4.21
356.885	3.91
357.254	4.45
357.624	4.55
357.993	4.72
358.362	4.36
358.731	4.11
359.1	4.09
359.469	4.21
359.838	4.33
360.207	4.37
360.576	4.46
360.945	4.73
361.314	4.36
361.682	4.5
362.051	4.2
362.42	4.06
362.788	4.11
363.157	4.17
363.525	4.46
363.894	4.11
364.262	4.08
364.631	4.18
364.999	4.26
365.367	4.58
365.735	4.41
366.104	4.01
366.472	4.5
366.84	4.24
367.208	4.39
367.576	4.01
367.944	4.46
368.312	4.1
368.68	4.39
369.048	4.3
369.416	4.06
369.783	3.91
370.151	4.32
370.519	4.85
370.886	4.32
371.254	4.2
371.621	4.61
371.989	4.44
372.356	4.24
372.724	4.56
373.091	4.44
373.458	4.25
373.826	4.5
374.193	4.44
374.56	4.36
374.927	4.28
375.294	4.44
375.661	4.52
376.028	4.4
376.395	4.4
376.762	4.26
377.129	4.25
377.496	4.45
377.863	4.31
378.229	4.29
378.596	4.41
378.963	4.26
379.329	4.31
379.696	4.3
380.062	4.39
380.429	4.37
380.795	4.09
381.161	4.38
381.528	4.45
381.894	4.39
382.26	4.39
382.626	4.3
382.993	4.41
383.359	4.59
383.725	4.51
384.091	4.47
384.457	4.48
384.823	4.25
385.188	4.4
385.554	4.64
385.92	4.28
386.286	4.17
386.651	4.28
387.017	4.32
387.383	4.44
387.748	4.39
388.114	4.4
388.479	4.59
388.845	4.46
389.21	4.4
389.575	4.27
389.94	4.61
390.306	4.3
390.671	4.42
391.036	4.53
391.401	4.42
391.766	4.19
392.131	3.93
392.496	4.5
392.861	4.17
393.226	4.58
393.591	4.14
393.956	4.48
394.32	4.34
394.685	4.62
395.05	4.51
395.414	4.55
395.779	4.38
396.143	4.51
396.508	4.11
396.872	4.64
397.236	4.4
397.601	4.3
397.965	4.49
398.329	4.51
398.694	4.27
399.058	4.43
399.422	4.38
399.786	4.72
400.15	4.35
400.514	4.37
400.878	4.52
401.242	4.6
401.605	4.34
401.969	4.56
402.333	4.5
402.697	4.36
403.06	4.3
403.424	4.52
403.787	4.67
404.151	4.57
404.514	4.16
404.878	4.65
405.241	4.41
405.604	4.39
405.968	4.64
406.331	4.36
406.694	4.58
407.057	4.46
407.42	4.44
407.783	4.39
408.146	4.65
408.509	4.42
408.872	4.73
409.235	4.54
409.598	4.29
409.961	4.56
410.323	4.52
410.686	4.58
411.049	4.7
411.411	4.41
411.774	4.59
412.136	4.54
412.499	4.68
412.861	4.53
413.223	4.49
413.586	4.58
413.948	4.56
414.31	4.5
414.672	4.7
415.035	4.55
415.397	4.54
415.759	4.55
416.121	4.6
416.483	4.31
416.845	4.52
417.206	4.64
417.568	4.52
417.93	4.47
418.292	4.37
418.653	4.6
419.015	4.29
419.377	4.56
419.738	4.55
420.1	4.51
420.461	4.37
420.822	4.42
421.184	4.46
421.545	4.49
421.906	4.53
422.267	4.53
422.629	4.44
422.99	4.44
423.351	4.4
423.712	4.46
424.073	4.55
424.434	4.53
424.795	4.63
425.155	4.49
425.516	4.51
425.877	4.57
426.238	4.38
426.598	4.45
426.959	4.49
427.32	4.58
427.68	4.53
428.041	4.7
428.401	4.52
428.761	4.64
429.122	4.7
429.482	4.76
429.842	4.68
430.202	4.77
430.563	4.57
430.923	4.65
431.283	4.67
431.643	4.79
432.003	4.68
432.363	4.71
432.722	4.78
433.082	4.7
433.442	4.57
433.802	4.74
434.161	4.88
434.521	4.74
434.881	4.68
435.24	4.75
435.6	4.63
435.959	4.6
436.319	4.59
436.678	4.67
437.037	4.71
437.396	4.51
437.756	4.81
438.115	4.58
438.474	4.63
438.833	4.64
439.192	4.81
439.551	4.58
439.91	4.67
440.269	4.83
440.628	4.65
440.987	4.72
441.345	4.64
441.704	4.76
442.063	4.81
442.421	4.62
442.78	4.75
443.138	4.71
443.497	4.68
443.855	4.6
444.214	4.71
444.572	4.71
444.93	4.78
445.288	4.89
445.647	4.73
446.005	4.91
446.363	4.76
446.721	4.72
447.079	4.77
447.437	4.78
447.795	4.53
448.153	4.7
448.51	4.68
448.868	4.7
449.226	4.7
449.584	4.74
449.941	4.77
450.299	4.84
450.656	4.81
451.014	4.96
451.371	4.78
451.729	4.78
452.086	4.75
452.443	5
452.801	4.92
453.158	4.82
453.515	4.85
453.872	4.92
454.229	4.84
454.586	4.92
454.943	4.95
455.3	4.84
455.657	4.93
456.014	4.7
456.371	4.84
456.727	4.95
457.084	4.95
457.441	4.86
457.797	4.87
458.154	4.85
458.51	4.9
458.867	4.92
459.223	4.88
459.58	5.1
459.936	4.95
460.292	4.98
460.648	4.83
461.005	4.97
461.361	4.86
461.717	4.79
462.073	4.94
462.429	4.89
462.785	4.88
463.141	4.97
463.496	4.91
463.852	4.99
464.208	5.04
464.564	5.04
464.919	4.99
465.275	4.97
465.631	5.07
465.986	4.99
466.342	5.13
466.697	5.16
467.052	5.14
467.408	5
467.763	5
468.118	5.21
468.473	4.99
468.829	5.17
469.184	5.13
469.539	5.24
469.894	4.99
470.249	5.05
470.603	4.97
470.958	5.25
471.313	5.17
471.668	5.19
472.023	5.27
472.377	5.25
472.732	5.25
473.086	5.28
473.441	5.23
473.795	5.2
474.15	5.21
474.504	5.17
474.859	5.22
475.213	5.31
475.567	5.08
475.921	5.33
476.275	5.19
476.63	5.27
476.984	5.32
477.338	5.16
477.692	5.29
478.045	5.14
478.399	5.1
478.753	5.2
479.107	5.2
479.461	5.36
479.814	5.19
480.168	5.28
480.521	5.36
480.875	5.38
481.228	5.31
481.582	5.28
481.935	5.23
482.289	5.45
482.642	5.23
482.995	5.24
483.348	5.22
483.701	5.31
484.055	5.22
484.408	5.14
484.761	5.1
485.114	5.02
485.466	4.85
485.819	4.91
486.172	4.97
486.525	5.06
486.878	5.11
487.23	5.17
487.583	5.23
487.936	5.22
488.288	5.16
488.641	5.17
488.993	5.05
489.345	5.07
489.698	5.1
490.05	5.09
490.402	5.13
490.754	5.26
491.107	5.29
491.459	5.36
491.811	5.33
492.163	5.36
492.515	5.39
492.866	5.21
493.218	5.11
493.57	5.16
493.922	5.25
494.274	5.27
494.625	5.31
494.977	5.45
495.328	5.4
495.68	5.43
496.031	5.54
496.383	5.51
496.734	5.54
497.086	5.59
497.437	5.54
497.788	5.52
498.139	5.44
498.49	5.42
498.842	5.52
499.193	5.55
499.544	5.6
499.894	5.69
500.245	5.52
500.596	5.65
500.947	5.61
501.298	5.7
501.648	5.68
501.999	5.7
502.35	5.67
502.7	5.64
503.051	5.67
503.401	5.52
503.752	5.51
504.102	5.72
504.452	5.73
504.803	5.75
505.153	5.67
505.503	5.61
505.853	5.74
506.203	5.77
506.553	5.81
506.903	5.75
507.253	5.81
507.603	5.81
507.953	5.84
508.303	5.88
508.652	5.73
509.002	5.79
509.352	5.94
509.701	5.81
510.051	5.81
510.4	5.69
510.75	5.72
511.099	5.79
511.449	5.84
511.798	5.82
512.147	5.87
512.496	5.8
512.846	5.76
513.195	5.78
513.544	5.98
513.893	5.9
514.242	5.92
514.591	5.95
514.939	6.06
515.288	5.99
515.637	5.82
515.986	5.96
516.334	5.93
516.683	5.96
517.032	5.94
517.38	5.97
517.729	6.08
518.077	5.98
518.426	6.06
518.774	6
519.122	5.92
519.47	5.86
519.819	5.97
520.167	5.9
520.515	6.01
520.863	6.09
521.211	5.99
521.559	6.02
521.907	6.11
522.255	6.16
522.602	6.2
522.95	6.16
523.298	6.17
523.645	6.28
523.993	6.38
524.341	6.34
524.688	6.27
525.036	6.27
525.383	6.23
525.73	6.21
526.078	6.31
526.425	6.17
526.772	6.23
527.119	6.22
527.466	6.13
527.814	6.12
528.161	6.18
528.508	6.15
528.854	6.24
529.201	6.2
529.548	6.13
529.895	6.12
530.242	6.02
530.588	6.02
530.935	6.14
531.282	6.23
531.628	6.22
531.975	6.27
532.321	6.32
532.667	6.42
533.014	6.44
533.36	6.42
533.706	6.45
534.052	6.41
534.399	6.44
534.745	6.33
535.091	6.31
535.437	6.33
535.783	6.45
536.129	6.52
536.474	6.58
536.82	6.51
537.166	6.65
537.512	6.6
537.857	6.69
538.203	6.52
538.549	6.56
538.894	6.64
539.239	6.64
539.585	6.75
539.93	6.73
540.276	6.85
540.621	6.8
540.966	6.87
541.311	6.94
541.656	6.71
542.001	6.92
542.346	6.81
542.691	6.71
543.036	6.62
543.381	6.65
543.726	6.66
544.071	6.72
544.415	6.81
544.76	6.87
545.105	6.91
545.449	6.89
545.794	6.91
546.138	7.04
546.483	7.08
546.827	7.1
547.171	7.07
547.516	6.99
547.86	7.07
548.204	6.98
548.548	7.05
548.892	7.09
549.236	7.23
549.58	7.45
549.924	7.26
550.268	7.35
550.612	7.35
550.956	7.45
551.3	7.35
551.643	7.54
551.987	7.38
552.33	7.49
552.674	7.44
553.017	7.46
553.361	7.49
553.704	7.38
554.048	7.6
554.391	7.67
554.734	7.43
555.077	7.68
555.42	7.67
555.764	7.77
556.107	7.66
556.45	7.57
556.793	7.78
557.135	7.77
557.478	7.82
557.821	7.86
558.164	7.93
558.507	8.05
558.849	7.73
559.192	8.01
559.534	7.81
559.877	7.98
560.219	8
560.562	8.01
560.904	7.82
561.246	7.84
561.589	7.92
561.931	8.02
562.273	8.05
562.615	8.15
562.957	8.02
563.299	8.19
563.641	8.09
563.983	8.18
564.325	8.08
564.667	8.17
565.008	8.16
565.35	8.31
565.692	8.22
566.033	8.33
566.375	8.16
566.716	8.36
567.058	8.22
567.399	8.43
567.741	8.4
568.082	8.33
568.423	8.33
568.764	8.43
569.105	8.47
569.447	8.6
569.788	8.55
570.129	8.49
570.47	8.52
570.811	8.65
571.151	8.74
571.492	8.85
571.833	8.61
572.174	8.79
572.514	8.7
572.855	8.82
573.195	8.77
573.536	8.76
573.876	8.8
574.217	8.7
574.557	8.76
574.898	8.84
575.238	8.93
575.578	8.69
575.918	8.81
576.258	8.96
576.598	8.99
576.938	9.02
577.278	8.94
577.618	9.16
577.958	9.14
578.298	9.27
578.638	9.1
578.977	9.03
579.317	9.26
579.657	9.3
579.996	9.41
580.336	9.5
580.675	9.31
581.014	9.57
581.354	9.6
581.693	9.3
582.032	9.51
582.372	9.68
582.711	9.53
583.05	9.57
583.389	9.79
583.728	9.43
584.067	9.57
584.406	9.75
584.745	10.02
585.083	9.85
585.422	9.85
585.761	10.07
586.1	9.85
586.438	10.04
586.777	10.17
587.115	10
587.454	10.22
587.792	10.21
588.13	10.04
588.469	10.16
588.807	10.02
589.145	10.09
589.483	10.21
589.821	10.07
590.159	9.97
590.497	10.29
590.835	10.03
591.173	10.36
591.511	10.35
591.849	10.29
592.187	10.18
592.524	10.42
592.862	10.43
593.2	10.46
593.537	10.25
593.875	10.56
594.212	10.5
594.55	10.78
594.887	10.58
595.224	10.72
595.561	10.94
595.899	10.65
596.236	10.86
596.573	10.59
596.91	10.73
597.247	10.77
597.584	10.74
597.921	10.92
598.258	10.97
598.594	10.88
598.931	10.83
599.268	10.75
599.604	10.95
599.941	11.06
600.277	11.04
600.614	11.17
600.95	11.17
601.287	11.5
601.623	11.27
601.959	11.28
602.296	11.24
602.632	11.57
602.968	11.26
603.304	11.41
603.64	11.46
603.976	11.51
604.312	11.44
604.648	11.28
604.984	11.58
605.319	11.74
605.655	11.52
605.991	11.45
606.326	11.53
606.662	11.49
606.998	11.59
607.333	11.59
607.668	11.79
608.004	11.89
608.339	11.94
608.674	11.93
609.01	11.69
609.345	11.83
609.68	12.16
610.015	11.83
610.35	11.95
610.685	12.04
611.02	12.18
611.355	11.94
611.689	12.12
612.024	12.01
612.359	12.01
612.694	12.19
613.028	12.3
613.363	12.38
613.697	12.34
614.032	12.38
614.366	12.21
614.7	12.3
615.035	12.81
615.369	12.67
615.703	12.78
616.037	13.09
616.371	12.6
616.705	12.83
617.039	12.46
617.373	12.62
617.707	12.88
618.041	12.66
618.375	12.92
618.709	12.83
619.042	12.99
619.376	12.99
619.71	13.07
620.043	13.1
620.377	12.87
620.71	13.03
621.043	13.04
621.377	13.17
621.71	13.39
622.043	13.1
622.376	13.29
622.709	13.15
623.043	13.3
623.376	13.1
623.709	13.04
624.041	13.43
624.374	13.64
624.707	13.65
625.04	13.54
625.373	13.57
625.705	13.26
626.038	13.66
626.37	13.61
626.703	13.73
627.035	13.45
627.368	13.94
627.7	13.79
628.032	13.44
628.365	14.11
628.697	14.15
629.029	13.87
629.361	13.79
629.693	14.11
630.025	13.78
630.357	13.79
630.689	14.12
631.021	14.02
631.353	14.02
631.684	14.25
632.016	13.94
632.348	14
632.679	14.29
633.011	14.19
633.342	13.97
633.674	14.45
634.005	14.44
634.336	14.39
634.668	14.15
634.999	14.34
635.33	14.65
635.661	14.59
635.992	14.8
636.323	14.47
636.654	14.88
636.985	14.81
637.316	14.83
637.647	14.69
637.977	14.93
638.308	14.97
638.639	14.74
638.969	15.14
639.3	14.8
639.63	15.15
639.961	14.94
640.291	15.13
640.622	15.31
640.952	14.93
641.282	15.33
641.612	15.45
641.943	15.02
642.273	15.66
642.603	15.16
642.933	15.49
643.263	15.18
643.592	15.8
643.922	15.55
644.252	15.61
644.582	15.62
644.911	16.01
645.241	15.75
645.571	15.87
645.9	15.89
646.23	15.57
646.559	15.95
646.888	16.11
647.218	15.76
647.547	16.14
647.876	15.55
648.205	15.8
648.534	16.02
648.863	15.81
649.192	16.19
649.521	16.08
649.85	15.74
650.179	16.14
650.508	16.31
650.837	16.48
651.165	16.68
651.494	16.33
651.822	16.07
652.151	16.4
652.479	16.18
652.808	16.39
653.136	16.13
653.465	16.71
653.793	16.77
654.121	16.6
654.449	17.03
654.777	16.51
655.105	16.88
655.433	16.3
655.761	16.63
656.089	16.81
656.417	16.73
656.745	16.58
657.073	16.65
657.4	16.92
657.728	16.82
658.056	16.41
658.383	17.26
658.711	17.44
659.038	16.99
659.365	17
659.693	16.94
660.02	17.42
660.347	17.09
660.674	16.94
661.001	17.39
661.329	16.9
661.656	17.24
661.982	17.1
662.309	17.64
662.636	17.3
662.963	17.27
663.29	17.85
663.616	18.02
663.943	17.7
664.27	17.6
664.596	17.64
664.923	17.98
665.249	17.81
665.576	18.09
665.902	17.87
666.228	17.81
666.554	17.64
666.881	17.75
667.207	17.9
667.533	18.42
667.859	18.17
668.185	17.86
668.511	18.37
668.837	17.84
669.162	18.35
669.488	18.35
669.814	18.18
670.139	18.48
670.465	18.58
670.791	17.83
671.116	18.51
671.442	18.59
671.767	18.24
672.092	18.46
672.418	18.68
672.743	18.26
673.068	18.67
673.393	18.3
673.718	18.85
674.043	19.44
674.368	18.64
674.693	18.67
675.018	18.58
675.343	18.65
675.667	19.37
675.992	18.81
676.317	19.54
676.641	19.34
676.966	18.75
677.29	18.5
677.615	19.34
677.939	19.33
678.264	18.97
678.588	19.46
678.912	19.03
679.236	19.47
679.56	19.32
679.885	20.13
680.209	18.8
680.532	19.1
680.856	19.32
681.18	19.72
681.504	19.97
681.828	19.1
682.152	19.93
682.475	19.71
682.799	19.78
683.122	19.62
683.446	19.96
683.769	20.46
684.093	19.66
684.416	20.14
684.739	20.03
685.062	20.14
685.386	20.33
685.709	20.59
686.032	19.7
686.355	19.92
