Data from 002-16_chest_Reflection__1__142.txt Node

Date: Fri Nov 11 17:12:50 CST 2022
User: ToomeyLab
Spectrometer: FLMS14357
Trigger mode: 0
Integration Time (sec): 1.000000E-2
Scans to average: 100
Electric dark correction enabled: true
Nonlinearity correction enabled: false
Boxcar width: 0
XAxis mode: Wavelengths
Number of Pixels in Spectrum: 2048
>>>>>Begin Spectral Data<<<<<
189.047	114.4
189.435	114.4
189.823	114.4
190.211	257.3
190.599	122.28
190.987	199.54
191.375	322.66
191.763	30.45
192.151	66.91
192.538	48.54
192.926	-50.13
193.314	-1011.84
193.702	695.31
194.089	-306.88
194.477	-79.25
194.864	170.94
195.252	1328.02
195.639	21.63
196.027	58.3
196.414	137.39
196.801	26754.55
197.189	334.02
197.576	186.05
197.963	99.57
198.351	31.36
198.738	-18.95
199.125	40.15
199.512	39.88
199.899	16.3
200.286	48.51
200.673	15.03
201.06	-23.02
201.447	27.4
201.833	20.29
202.22	22.71
202.607	40.53
202.994	9.37
203.38	48.35
203.767	-0.71
204.154	-6.66
204.54	47.7
204.927	42.88
205.313	30.84
205.699	71.24
206.086	59.81
206.472	36.31
206.858	6.77
207.245	39.85
207.631	46.04
208.017	-3.01
208.403	25.59
208.789	-113.46
209.175	33.95
209.561	60.92
209.947	16.08
210.333	58.15
210.719	-7.07
211.105	39.12
211.491	-141.06
211.876	37.99
212.262	2.83
212.648	-15.03
213.034	29.44
213.419	19.02
213.805	5.94
214.19	-52.1
214.576	11.54
214.961	-8.44
215.346	-42.94
215.732	-39.83
216.117	63.68
216.502	4.73
216.888	32.51
217.273	-2.22
217.658	8.6
218.043	9.67
218.428	2.53
218.813	51.99
219.198	-25.36
219.583	20.57
219.968	19.02
220.353	-22.74
220.738	-30.31
221.122	-12.29
221.507	7.87
221.892	26.28
222.276	-0.23
222.661	12.72
223.046	12.2
223.43	8.69
223.815	-3.13
224.199	-0.87
224.583	1.85
224.968	17.29
225.352	0.74
225.736	9.26
226.121	1.25
226.505	9.59
226.889	-1.94
227.273	12.83
227.657	0.94
228.041	2.81
228.425	5.06
228.809	7.58
229.193	1.57
229.577	4.92
229.961	2.37
230.344	3.2
230.728	2.51
231.112	2.31
231.495	3.69
231.879	2.06
232.263	0.44
232.646	2.83
233.03	2.22
233.413	2.07
233.797	3.71
234.18	4
234.563	3.57
234.946	0.21
235.33	1.57
235.713	1.75
236.096	1.36
236.479	6.22
236.862	4.33
237.245	2.59
237.628	2.25
238.011	3.38
238.394	3.7
238.777	1.83
239.16	2.78
239.543	2.46
239.925	5.12
240.308	1.58
240.691	0.21
241.073	1.76
241.456	0.85
241.838	4.06
242.221	2.36
242.603	2.2
242.986	2.81
243.368	2.49
243.75	2.85
244.133	2.07
244.515	2.45
244.897	2.24
245.279	2.44
245.661	2.3
246.043	3.2
246.425	3.02
246.807	2.65
247.189	1.54
247.571	1.11
247.953	2.65
248.335	2.53
248.717	2.3
249.098	2.34
249.48	2.44
249.862	2.24
250.243	2.3
250.625	2.56
251.006	2.93
251.388	2.44
251.769	4.52
252.151	2.28
252.532	2.78
252.913	1.9
253.295	2.49
253.676	2.61
254.057	2.33
254.438	2.54
254.819	2.57
255.2	2.05
255.581	3.15
255.962	3.36
256.343	3.65
256.724	1.57
257.105	3.12
257.486	3.58
257.867	1.8
258.247	2.39
258.628	2.57
259.009	2.35
259.389	2.42
259.77	2.65
260.15	2.79
260.531	1.99
260.911	2.22
261.292	2.2
261.672	2.06
262.052	2.09
262.432	2.68
262.813	2.17
263.193	2.55
263.573	2.7
263.953	2.27
264.333	2.45
264.713	1.56
265.093	2.54
265.473	3.4
265.853	2.67
266.233	3.12
266.612	1.48
266.992	1.81
267.372	2.06
267.752	2.24
268.131	2.69
268.511	2.54
268.89	2.45
269.27	2.13
269.649	1.95
270.029	1.66
270.408	2.26
270.787	2.88
271.167	2.59
271.546	2.95
271.925	2.1
272.304	1.99
272.683	2.31
273.062	2.36
273.441	2.01
273.82	2.28
274.199	1.92
274.578	2.51
274.957	1.82
275.336	2.03
275.715	2.38
276.093	3.39
276.472	2.71
276.851	1.96
277.229	2.35
277.608	2.31
277.986	2.23
278.365	3.02
278.743	2.27
279.122	1.58
279.5	1.97
279.878	1.71
280.257	2.58
280.635	2.12
281.013	2.39
281.391	1.79
281.769	2.43
282.147	2.14
282.525	1.6
282.903	2.62
283.281	1.82
283.659	2.02
284.037	2.16
284.415	2.15
284.792	2.77
285.17	2.48
285.548	2.63
285.925	2.35
286.303	2.83
286.68	2.22
287.058	2.38
287.435	2.16
287.813	2.3
288.19	2.38
288.567	2.42
288.945	1.95
289.322	1.63
289.699	2.52
290.076	1.68
290.453	2.28
290.83	2.47
291.207	2
291.584	2
291.961	2.09
292.338	2.14
292.715	2.53
293.092	1.95
293.469	2.57
293.845	2.51
294.222	2.72
294.599	2.3
294.975	2.53
295.352	1.79
295.728	2.2
296.105	2.15
296.481	2.08
296.858	2.25
297.234	2.62
297.61	2.13
297.986	1.68
298.363	2.08
298.739	2.37
299.115	1.89
299.491	2.11
299.867	2.02
300.243	2.08
300.619	2.52
300.995	1.95
301.371	1.56
301.746	2.04
302.122	2.13
302.498	1.94
302.874	2.1
303.249	2.15
303.625	2.24
304	1.82
304.376	2.39
304.751	2.58
305.127	2.76
305.502	2.18
305.878	2.57
306.253	2.51
306.628	2.56
307.003	2.37
307.378	2.16
307.754	2.43
308.129	2.43
308.504	1.73
308.879	1.96
309.254	2.49
309.629	1.98
310.003	2.22
310.378	1.65
310.753	1.95
311.128	2.21
311.502	1.68
311.877	2.29
312.252	2.13
312.626	2.05
313.001	2.33
313.375	2.28
313.75	2.66
314.124	2.17
314.498	2.67
314.873	2.13
315.247	2.35
315.621	1.57
315.995	1.86
316.369	2.71
316.743	2.31
317.117	2.07
317.491	2.28
317.865	2.36
318.239	3.06
318.613	1.95
318.987	2.7
319.361	2.28
319.734	2.26
320.108	2.78
320.482	2.28
320.855	2.58
321.229	2.73
321.602	2.11
321.976	2.05
322.349	2.39
322.723	2.07
323.096	2.23
323.469	2.41
323.843	2.4
324.216	1.71
324.589	2.02
324.962	2.44
325.335	2.58
325.708	2.84
326.081	1.83
326.454	1.95
326.827	2.58
327.2	2.19
327.573	2.05
327.945	2.23
328.318	2.77
328.691	2.38
329.063	2.37
329.436	3
329.809	1.8
330.181	3.14
330.553	2.62
330.926	1.41
331.298	2.04
331.671	2.53
332.043	2.81
332.415	2.15
332.787	2.68
333.159	2.81
333.532	1.83
333.904	1.66
334.276	2.15
334.648	2.03
335.02	2.26
335.391	1.76
335.763	2.37
336.135	2.29
336.507	2.59
336.879	1.98
337.25	1.75
337.622	2.44
337.993	2.46
338.365	2.31
338.736	2.17
339.108	2.28
339.479	2.65
339.851	2.04
340.222	1.87
340.593	2.34
340.964	1.98
341.336	2.12
341.707	2.53
342.078	2.21
342.449	2.45
342.82	2.15
343.191	2.51
343.562	2.51
343.933	1.37
344.303	2.71
344.674	2
345.045	2.13
345.416	2.2
345.786	2.45
346.157	2.09
346.527	2.56
346.898	2.14
347.268	2.26
347.639	2.51
348.009	2.02
348.38	2.33
348.75	2.67
349.12	2.57
349.49	2.36
349.861	2.14
350.231	1.99
350.601	2.91
350.971	2.73
351.341	2.33
351.711	2.41
352.081	1.58
352.45	2.11
352.82	2.32
353.19	2.21
353.56	2.32
353.929	2.63
354.299	2.22
354.669	2.02
355.038	2.42
355.408	1.94
355.777	2.51
356.147	2.21
356.516	2.46
356.885	2.3
357.254	2.05
357.624	2.41
357.993	2.36
358.362	2.15
358.731	2.07
359.1	1.74
359.469	2.6
359.838	2.24
360.207	2.31
360.576	2.43
360.945	2.48
361.314	2.28
361.682	2.4
362.051	2.29
362.42	2.14
362.788	2.15
363.157	2.24
363.525	2.29
363.894	2.2
364.262	2.08
364.631	2.25
364.999	2.04
365.367	2.39
365.735	2.12
366.104	2.34
366.472	2.13
366.84	2.17
367.208	2.4
367.576	2.39
367.944	2.64
368.312	2.31
368.68	2.64
369.048	2.21
369.416	2.14
369.783	1.86
370.151	2.27
370.519	2.47
370.886	2.27
371.254	2.07
371.621	2.72
371.989	2.23
372.356	2.02
372.724	2.28
373.091	2.19
373.458	2.36
373.826	2.51
374.193	2.5
374.56	2.17
374.927	2.33
375.294	2.68
375.661	2.66
376.028	2.56
376.395	2.55
376.762	2.08
377.129	2.44
377.496	2.06
377.863	2.55
378.229	2.3
378.596	2.29
378.963	2.12
379.329	2.19
379.696	2.25
380.062	2.26
380.429	2.05
380.795	2.31
381.161	2.53
381.528	2.56
381.894	2.53
382.26	2.17
382.626	2.18
382.993	2.37
383.359	2.45
383.725	2.12
384.091	2.02
384.457	2.28
384.823	2.34
385.188	2.21
385.554	2.35
385.92	2.23
386.286	2.16
386.651	2.03
387.017	2.25
387.383	2.48
387.748	2.03
388.114	2.41
388.479	2.33
388.845	2.09
389.21	2.11
389.575	2.32
389.94	2.54
390.306	2.23
390.671	2.03
391.036	2.41
391.401	2.2
391.766	2.41
392.131	2.01
392.496	2.22
392.861	2.19
393.226	2.37
393.591	2.22
393.956	2.27
394.32	2.52
394.685	2.48
395.05	2.43
395.414	2.36
395.779	2.33
396.143	2.39
396.508	2.25
396.872	2.27
397.236	2.35
397.601	2.14
397.965	2.29
398.329	2.08
398.694	2.25
399.058	2.36
399.422	2.2
399.786	2.11
400.15	2.38
400.514	2.48
400.878	2.29
401.242	2.26
401.605	2.58
401.969	2.31
402.333	2.38
402.697	2.35
403.06	2.37
403.424	2.2
403.787	2.31
404.151	2.23
404.514	2.51
404.878	2.57
405.241	2.29
405.604	2.28
405.968	2.35
406.331	2.06
406.694	2.23
407.057	2.3
407.42	2.38
407.783	2.17
408.146	2.5
408.509	2.42
408.872	2.6
409.235	2.36
409.598	2.11
409.961	2.38
410.323	2.28
410.686	2.42
411.049	2.43
411.411	2.26
411.774	2.27
412.136	2.34
412.499	2.32
412.861	2.07
413.223	2.28
413.586	2.18
413.948	2.27
414.31	2.5
414.672	2.46
415.035	2.46
415.397	2.4
415.759	2.34
416.121	2.49
416.483	2.47
416.845	2.31
417.206	2.27
417.568	2.33
417.93	2.43
418.292	2.19
418.653	2.12
419.015	2.02
419.377	2.28
419.738	2.39
420.1	2.22
420.461	2.21
420.822	2.23
421.184	2.24
421.545	2.25
421.906	2.28
422.267	2.28
422.629	2.26
422.99	2.25
423.351	2.18
423.712	2.35
424.073	2.24
424.434	2.16
424.795	2.44
425.155	2.38
425.516	2.29
425.877	2.32
426.238	2.32
426.598	2.3
426.959	2.21
427.32	2.35
427.68	2.35
428.041	2.43
428.401	2.27
428.761	2.38
429.122	2.44
429.482	2.6
429.842	2.32
430.202	2.47
430.563	2.28
430.923	2.48
431.283	2.58
431.643	2.52
432.003	2.54
432.363	2.49
432.722	2.51
433.082	2.46
433.442	2.52
433.802	2.45
434.161	2.48
434.521	2.51
434.881	2.28
435.24	2.47
435.6	2.39
435.959	2.42
436.319	2.25
436.678	2.38
437.037	2.44
437.396	2.35
437.756	2.29
438.115	2.24
438.474	2.36
438.833	2.22
439.192	2.45
439.551	2.31
439.91	2.49
440.269	2.51
440.628	2.5
440.987	2.53
441.345	2.43
441.704	2.49
442.063	2.59
442.421	2.44
442.78	2.4
443.138	2.38
443.497	2.4
443.855	2.48
444.214	2.38
444.572	2.52
444.93	2.44
445.288	2.62
445.647	2.38
446.005	2.52
446.363	2.47
446.721	2.41
447.079	2.43
447.437	2.39
447.795	2.35
448.153	2.44
448.51	2.46
448.868	2.46
449.226	2.41
449.584	2.43
449.941	2.44
450.299	2.49
450.656	2.59
451.014	2.56
451.371	2.43
451.729	2.59
452.086	2.52
452.443	2.59
452.801	2.51
453.158	2.53
453.515	2.5
453.872	2.6
454.229	2.52
454.586	2.61
454.943	2.55
455.3	2.47
455.657	2.64
456.014	2.58
456.371	2.59
456.727	2.65
457.084	2.53
457.441	2.57
457.797	2.59
458.154	2.51
458.51	2.54
458.867	2.74
459.223	2.58
459.58	2.71
459.936	2.58
460.292	2.47
460.648	2.58
461.005	2.54
461.361	2.62
461.717	2.57
462.073	2.49
462.429	2.6
462.785	2.55
463.141	2.62
463.496	2.68
463.852	2.59
464.208	2.61
464.564	2.66
464.919	2.64
465.275	2.62
465.631	2.67
465.986	2.59
466.342	2.72
466.697	2.76
467.052	2.75
467.408	2.67
467.763	2.67
468.118	2.58
468.473	2.58
468.829	2.62
469.184	2.73
469.539	2.74
469.894	2.66
470.249	2.61
470.603	2.56
470.958	2.67
471.313	2.63
471.668	2.7
472.023	2.81
472.377	2.86
472.732	2.64
473.086	2.65
473.441	2.74
473.795	2.83
474.15	2.66
474.504	2.71
474.859	2.87
475.213	2.8
475.567	2.77
475.921	2.82
476.275	2.68
476.63	2.72
476.984	2.78
477.338	2.63
477.692	2.74
478.045	2.67
478.399	2.62
478.753	2.79
479.107	2.63
479.461	2.73
479.814	2.72
480.168	2.74
480.521	2.77
480.875	2.63
481.228	2.71
481.582	2.73
481.935	2.75
482.289	2.87
482.642	2.72
482.995	2.81
483.348	2.6
483.701	2.67
484.055	2.67
484.408	2.69
484.761	2.59
485.114	2.57
485.466	2.48
485.819	2.52
486.172	2.54
486.525	2.55
486.878	2.57
487.23	2.61
487.583	2.68
487.936	2.6
488.288	2.63
488.641	2.65
488.993	2.62
489.345	2.56
489.698	2.6
490.05	2.58
490.402	2.64
490.754	2.71
491.107	2.64
491.459	2.73
491.811	2.74
492.163	2.79
492.515	2.76
492.866	2.68
493.218	2.59
493.57	2.62
493.922	2.66
494.274	2.72
494.625	2.69
494.977	2.72
495.328	2.8
495.68	2.77
496.031	2.8
496.383	2.87
496.734	2.82
497.086	2.94
497.437	2.74
497.788	2.88
498.139	2.8
498.49	2.8
498.842	2.85
499.193	2.74
499.544	2.88
499.894	2.87
500.245	2.87
500.596	2.94
500.947	2.79
501.298	2.86
501.648	2.97
501.999	2.87
502.35	2.76
502.7	2.88
503.051	2.76
503.401	2.82
503.752	2.88
504.102	2.72
504.452	2.89
504.803	3
505.153	2.87
505.503	2.87
505.853	2.94
506.203	2.9
506.553	3.03
506.903	2.88
507.253	3
507.603	3.02
507.953	2.97
508.303	2.93
508.652	2.83
509.002	2.9
509.352	3.08
509.701	2.96
510.051	2.87
510.4	2.82
510.75	2.88
511.099	2.96
511.449	2.96
511.798	2.89
512.147	3.02
512.496	2.93
512.846	2.93
513.195	2.87
513.544	3.1
513.893	2.99
514.242	2.99
514.591	3
514.939	3.01
515.288	3.03
515.637	2.91
515.986	3.07
516.334	2.98
516.683	3.03
517.032	2.97
517.38	3.02
517.729	3.08
518.077	2.91
518.426	3.02
518.774	2.95
519.122	3.02
519.47	2.98
519.819	2.91
520.167	2.96
520.515	3.04
520.863	3.02
521.211	3.03
521.559	3.02
521.907	3.11
522.255	3.1
522.602	3.16
522.95	3.07
523.298	3.16
523.645	3.18
523.993	3.1
524.341	3.16
524.688	3.08
525.036	3.13
525.383	3.13
525.73	3.07
526.078	3.13
526.425	3.08
526.772	3.03
527.119	3.15
527.466	3
527.814	3.03
528.161	3.13
528.508	3.07
528.854	3
529.201	3.09
529.548	3.12
529.895	3
530.242	3.01
530.588	2.99
530.935	2.99
531.282	3.1
531.628	3.04
531.975	3.08
532.321	3.06
532.667	3.09
533.014	3.18
533.36	3.13
533.706	3.14
534.052	3.14
534.399	3.15
534.745	3.11
535.091	3.1
535.437	3.16
535.783	3.09
536.129	3.17
536.474	3.24
536.82	3.2
537.166	3.27
537.512	3.31
537.857	3.25
538.203	3.26
538.549	3.22
538.894	3.26
539.239	3.29
539.585	3.19
539.93	3.46
540.276	3.2
540.621	3.34
540.966	3.33
541.311	3.43
541.656	3.32
542.001	3.49
542.346	3.35
542.691	3.28
543.036	3.26
543.381	3.24
543.726	3.27
544.071	3.28
544.415	3.35
544.76	3.35
545.105	3.36
545.449	3.4
545.794	3.36
546.138	3.49
546.483	3.49
546.827	3.45
547.171	3.46
547.516	3.33
547.86	3.44
548.204	3.45
548.548	3.44
548.892	3.47
549.236	3.54
549.58	3.68
549.924	3.53
550.268	3.75
550.612	3.62
550.956	3.75
551.3	3.75
551.643	3.74
551.987	3.62
552.33	3.73
552.674	3.6
553.017	3.72
553.361	3.84
553.704	3.73
554.048	3.69
554.391	3.81
554.734	3.67
555.077	3.72
555.42	3.84
555.764	3.81
556.107	3.76
556.45	3.67
556.793	3.83
557.135	3.94
557.478	3.83
557.821	3.92
558.164	3.9
558.507	3.82
558.849	3.79
559.192	3.89
559.534	3.92
559.877	3.95
560.219	4.1
560.562	4.01
560.904	3.98
561.246	4.03
561.589	4.13
561.931	4.01
562.273	3.97
562.615	4
562.957	3.88
563.299	4.08
563.641	3.92
563.983	3.82
564.325	3.94
564.667	3.99
565.008	3.97
565.35	4.21
565.692	3.94
566.033	4.27
566.375	4.21
566.716	4.2
567.058	4.08
567.399	4.17
567.741	4.17
568.082	4.19
568.423	4.26
568.764	4.22
569.105	4.24
569.447	4.2
569.788	4.27
570.129	4.15
570.47	4.21
570.811	4.25
571.151	4.36
571.492	4.43
571.833	4.28
572.174	4.31
572.514	4.39
572.855	4.35
573.195	4.41
573.536	4.39
573.876	4.44
574.217	4.28
574.557	4.3
574.898	4.38
575.238	4.49
575.578	4.3
575.918	4.24
576.258	4.44
576.598	4.53
576.938	4.4
577.278	4.5
577.618	4.5
577.958	4.63
578.298	4.61
578.638	4.59
578.977	4.55
579.317	4.48
579.657	4.74
579.996	4.62
580.336	4.77
580.675	4.55
581.014	4.62
581.354	4.83
581.693	4.72
582.032	4.8
582.372	4.89
582.711	4.84
583.05	4.87
583.389	4.81
583.728	4.75
584.067	4.82
584.406	4.76
584.745	4.79
585.083	4.99
585.422	4.81
585.761	5.05
586.1	4.9
586.438	4.87
586.777	4.92
587.115	5.03
587.454	5.33
587.792	5.05
588.13	5.16
588.469	5.07
588.807	5.25
589.145	5.03
589.483	5.21
589.821	5.1
590.159	5.22
590.497	5.16
590.835	5.09
591.173	5.14
591.511	5.41
591.849	5.24
592.187	5.14
592.524	5.1
592.862	5.55
593.2	5.59
593.537	4.97
593.875	5.55
594.212	5.41
594.55	5.42
594.887	5.42
595.224	5.22
595.561	5.52
595.899	5.33
596.236	5.53
596.573	5.28
596.91	5.36
597.247	5.2
597.584	5.38
597.921	5.35
598.258	5.42
598.594	5.4
598.931	5.51
599.268	5.45
599.604	5.55
599.941	5.49
600.277	5.35
600.614	5.58
600.95	5.56
601.287	5.92
601.623	5.76
601.959	5.34
602.296	5.56
602.632	5.74
602.968	5.68
603.304	5.95
603.64	5.77
603.976	5.95
604.312	5.71
604.648	5.77
604.984	5.83
605.319	5.77
605.655	5.97
605.991	5.85
606.326	5.94
606.662	5.68
606.998	6
607.333	5.92
607.668	5.99
608.004	5.98
608.339	6.14
608.674	6.2
609.01	5.88
609.345	6.14
609.68	6.27
610.015	6.25
610.35	6.32
610.685	6.2
611.02	6.44
611.355	6.18
611.689	6.24
612.024	6.37
612.359	6
612.694	6.23
613.028	6.19
613.363	6.41
613.697	6.41
614.032	6.44
614.366	6.26
614.7	6.21
615.035	6.65
615.369	6.29
615.703	6.28
616.037	6.86
616.371	6.7
616.705	6.64
617.039	6.67
617.373	6.71
617.707	6.54
618.041	6.35
618.375	6.77
618.709	6.52
619.042	6.72
619.376	6.46
619.71	6.67
620.043	6.94
620.377	6.67
620.71	6.59
621.043	7.13
621.377	6.85
621.71	7.02
622.043	6.82
622.376	6.82
622.709	6.85
623.043	6.86
623.376	6.96
623.709	7.01
624.041	6.97
624.374	7.44
624.707	7.25
625.04	7.02
625.373	7.31
625.705	7
626.038	7.22
626.37	7.11
626.703	7.33
627.035	7.11
627.368	7.35
627.7	7.07
628.032	7.27
628.365	7.54
628.697	7.38
629.029	7.36
629.361	7.24
629.693	7.25
630.025	7.45
630.357	7.29
630.689	7.49
631.021	7.44
631.353	7.43
631.684	7.51
632.016	7.51
632.348	7.66
632.679	7.77
633.011	7.28
633.342	7.21
633.674	7.56
634.005	7.69
634.336	7.29
634.668	7.53
634.999	7.55
635.33	7.65
635.661	7.79
635.992	7.73
636.323	8.02
636.654	8.1
636.985	8.09
637.316	7.8
637.647	7.9
637.977	7.72
638.308	8.01
638.639	8.01
638.969	7.96
639.3	7.64
639.63	8.05
639.961	7.98
640.291	8.12
640.622	7.97
640.952	7.82
641.282	8.28
641.612	8.53
641.943	8.36
642.273	8.35
642.603	8.45
642.933	8.37
643.263	7.88
643.592	8.52
643.922	8.35
644.252	8.24
644.582	7.95
644.911	8.42
645.241	8.88
645.571	8.32
645.9	8.5
646.23	8.59
646.559	8.47
646.888	8.87
647.218	8.23
647.547	8.57
647.876	8.4
648.205	8.33
648.534	8.41
648.863	8.88
649.192	8.78
649.521	9.05
649.85	8.74
650.179	8.64
650.508	8.75
650.837	8.78
651.165	9.01
651.494	9.11
651.822	9.03
652.151	9.03
652.479	9.02
652.808	8.99
653.136	9
653.465	9.19
653.793	9.15
654.121	8.99
654.449	8.8
654.777	9.41
655.105	8.83
655.433	8.95
655.761	8.8
656.089	8.9
656.417	9.78
656.745	9.11
657.073	9.34
657.4	9.18
657.728	9.56
658.056	8.98
658.383	9.16
658.711	9.61
659.038	9.58
659.365	9.52
659.693	9.17
660.02	9.73
660.347	9.58
660.674	9.24
661.001	9.46
661.329	9.51
661.656	9.45
661.982	10.19
662.309	9.82
662.636	9.62
662.963	9.72
663.29	9.79
663.616	9.58
663.943	9.93
664.27	9.71
664.596	9.99
664.923	9.8
665.249	9.86
665.576	9.92
665.902	9.68
666.228	9.9
666.554	10.01
666.881	9.73
667.207	9.73
667.533	10.31
667.859	9.9
668.185	9.83
668.511	10.23
668.837	10.05
669.162	10.48
669.488	10.31
669.814	10.14
670.139	10.27
670.465	10.45
670.791	9.86
671.116	10.56
671.442	10.37
671.767	10.36
672.092	10.16
672.418	10.13
672.743	10.39
673.068	10.16
673.393	10.07
673.718	10.46
674.043	10.62
674.368	10.14
674.693	10.12
675.018	10.85
675.343	10.7
675.667	10.76
675.992	10.8
676.317	10.53
676.641	10.49
676.966	10.5
677.29	10.11
677.615	10.91
677.939	11.25
678.264	10.44
678.588	11.37
678.912	10.79
679.236	10.98
679.56	11.44
679.885	10.77
680.209	10.64
680.532	10.88
680.856	11.32
681.18	11.16
681.504	11
681.828	10.44
682.152	11.59
682.475	10.82
682.799	11.04
683.122	11.12
683.446	10.89
683.769	11.18
684.093	10.8
684.416	11.37
684.739	11.42
685.062	11.09
685.386	11.51
685.709	11.63
686.032	11.55
686.355	11.44
686.678	11.45
687.001	12.11
687.324	11.14
687.646	11.46
687.969	11.49
688.292	10.89
688.614	11.85
688.937	11.7
689.26	11.75
689.582	11.88
689.904	11.51
690.227	12.12
690.549	12.29
690.871	11.46
