Data from 002-16_forehead_Reflection__0__153.txt Node

Date: Fri Nov 11 17:16:02 CST 2022
User: ToomeyLab
Spectrometer: FLMS14357
Trigger mode: 0
Integration Time (sec): 1.000000E-2
Scans to average: 100
Electric dark correction enabled: true
Nonlinearity correction enabled: false
Boxcar width: 0
XAxis mode: Wavelengths
Number of Pixels in Spectrum: 2048
>>>>>Begin Spectral Data<<<<<
189.047	65.63
189.435	65.63
189.823	65.63
190.211	261.11
190.599	32.32
190.987	296.96
191.375	805.42
191.763	-104.41
192.151	99.57
192.538	13.57
192.926	-177
193.314	788.98
193.702	469.66
194.089	177.73
194.477	166.14
194.864	84.91
195.252	392.82
195.639	16.54
196.027	70.84
196.414	-8.06
196.801	18209.09
197.189	217.95
197.576	58.68
197.963	0.63
198.351	72.97
198.738	-120.36
199.125	-8.59
199.512	82.84
199.899	24.25
200.286	10.1
200.673	43.56
201.06	48.52
201.447	34.43
201.833	30.15
202.22	63.39
202.607	59.41
202.994	37.42
203.38	26.86
203.767	59.21
204.154	9.07
204.54	57.86
204.927	37.56
205.313	63.77
205.699	9.01
206.086	31.55
206.472	65.78
206.858	17.95
207.245	42.71
207.631	53.93
208.017	40.28
208.403	59.51
208.789	4.22
209.175	37.88
209.561	37.27
209.947	38.85
210.333	51.55
210.719	21.55
211.105	31.7
211.491	24.99
211.876	93.67
212.262	3.39
212.648	17.64
213.034	-29.94
213.419	30.89
213.805	26.55
214.19	-37.73
214.576	25.71
214.961	27.04
215.346	-44.85
215.732	6.54
216.117	31.78
216.502	42.98
216.888	28.21
217.273	45.69
217.658	31.81
218.043	3.5
218.428	32.73
218.813	41.65
219.198	-14.1
219.583	29.99
219.968	33.12
220.353	6.69
220.738	36.47
221.122	-11.73
221.507	36.89
221.892	19.95
222.276	35.96
222.661	21.43
223.046	19.59
223.43	14.96
223.815	13.03
224.199	26.41
224.583	9.34
224.968	28.24
225.352	0.85
225.736	18.43
226.121	21.3
226.505	19.89
226.889	9.52
227.273	14.44
227.657	4.52
228.041	7.78
228.425	8.83
228.809	16.19
229.193	7.77
229.577	10.69
229.961	9.76
230.344	7.45
230.728	8.07
231.112	6.8
231.495	7.37
231.879	5.79
232.263	7.55
232.646	7.78
233.03	7.81
233.413	6.44
233.797	8.14
234.18	7.66
234.563	8.74
234.946	3.61
235.33	8.97
235.713	6.48
236.096	5.35
236.479	6.8
236.862	9.07
237.245	9.41
237.628	8.51
238.011	10.41
238.394	9
238.777	5.72
239.16	8.64
239.543	7.68
239.925	10.5
240.308	7.27
240.691	8.11
241.073	6.83
241.456	7.03
241.838	7.87
242.221	7.21
242.603	6.49
242.986	7.54
243.368	7.11
243.75	7.16
244.133	6.89
244.515	7.27
244.897	6.97
245.279	7.25
245.661	6.78
246.043	7.54
246.425	9.15
246.807	7.78
247.189	6.79
247.571	6.52
247.953	6.69
248.335	7.41
248.717	6.9
249.098	7.05
249.48	7.19
249.862	7
250.243	6.86
250.625	6.89
251.006	8.28
251.388	7.78
251.769	8.41
252.151	7.66
252.532	7.43
252.913	6.8
253.295	7.18
253.676	7.07
254.057	7.22
254.438	7.78
254.819	7.23
255.2	7.95
255.581	7.69
255.962	8.36
256.343	8.75
256.724	7.84
257.105	7.53
257.486	8.05
257.867	7.23
258.247	8.15
258.628	7.71
259.009	6.71
259.389	7.04
259.77	8.4
260.15	7.76
260.531	6.88
260.911	6.74
261.292	7.16
261.672	6.98
262.052	6.97
262.432	7.39
262.813	7.17
263.193	6.85
263.573	7.74
263.953	7.57
264.333	7.68
264.713	6.83
265.093	7.29
265.473	7.63
265.853	7.04
266.233	7.66
266.612	6.46
266.992	6.96
267.372	7.53
267.752	7.32
268.131	7.09
268.511	6.74
268.89	7.43
269.27	6.42
269.649	6.2
270.029	6.47
270.408	6.78
270.787	7.43
271.167	7.1
271.546	7.43
271.925	7.03
272.304	7.63
272.683	6.92
273.062	7.15
273.441	6.44
273.82	6.33
274.199	6.82
274.578	7.13
274.957	6.66
275.336	6.64
275.715	6.57
276.093	7.18
276.472	6.94
276.851	7.06
277.229	6.86
277.608	6.99
277.986	6.71
278.365	7.12
278.743	7.16
279.122	6.68
279.5	6.6
279.878	6.46
280.257	7.3
280.635	6.99
281.013	6.91
281.391	7.13
281.769	7.42
282.147	7.04
282.525	6.81
282.903	6.85
283.281	6.82
283.659	6.32
284.037	6.38
284.415	6.36
284.792	7.35
285.17	6.89
285.548	6.81
285.925	7.55
286.303	6.38
286.68	6.95
287.058	6.94
287.435	6.97
287.813	6.83
288.19	7.11
288.567	6.96
288.945	6.53
289.322	6.51
289.699	7.17
290.076	7.35
290.453	7.29
290.83	7.37
291.207	7.15
291.584	6.89
291.961	7.17
292.338	7.22
292.715	7.48
293.092	7.45
293.469	7.65
293.845	7.71
294.222	8.47
294.599	8.12
294.975	7.48
295.352	7.61
295.728	7.52
296.105	7.91
296.481	7.69
296.858	7.95
297.234	7.97
297.61	7.81
297.986	7.69
298.363	7.73
298.739	8.19
299.115	8.54
299.491	8.16
299.867	7.75
300.243	8.21
300.619	8.26
300.995	8.41
301.371	8.05
301.746	8.76
302.122	8.87
302.498	8.25
302.874	8.86
303.249	9.06
303.625	8.89
304	9.03
304.376	9.44
304.751	9.96
305.127	9.41
305.502	9.93
305.878	10.1
306.253	9.75
306.628	9.79
307.003	9.63
307.378	9.86
307.754	10.22
308.129	10.4
308.504	9.72
308.879	9.65
309.254	9.51
309.629	10.52
310.003	9.95
310.378	9.63
310.753	10.16
311.128	10.14
311.502	10.49
311.877	10.83
312.252	10.54
312.626	10.54
313.001	11.03
313.375	10.97
313.75	11.2
314.124	10.91
314.498	11.28
314.873	11.4
315.247	11.6
315.621	10.68
315.995	11.87
316.369	11.93
316.743	12
317.117	11.53
317.491	12.38
317.865	12
318.239	12.05
318.613	12.38
318.987	12.8
319.361	12.2
319.734	12.47
320.108	12.91
320.482	12.79
320.855	12.74
321.229	13.38
321.602	12.92
321.976	13.07
322.349	12.86
322.723	13.17
323.096	13.39
323.469	13.51
323.843	13.62
324.216	13.3
324.589	14.15
324.962	13.54
325.335	13.93
325.708	13.65
326.081	13.17
326.454	13.68
326.827	13.82
327.2	14.06
327.573	13.65
327.945	14.06
328.318	14.54
328.691	14.36
329.063	14.49
329.436	14.51
329.809	14.42
330.181	14.65
330.553	15.05
330.926	14.09
331.298	14.76
331.671	15.25
332.043	15.21
332.415	14.7
332.787	14.68
333.159	15.43
333.532	14.94
333.904	15.48
334.276	15.17
334.648	14.71
335.02	15.71
335.391	15.89
335.763	15.77
336.135	15.56
336.507	15.58
336.879	15.52
337.25	14.78
337.622	15.89
337.993	16.05
338.365	15.68
338.736	15.73
339.108	15.92
339.479	16.45
339.851	15.51
340.222	16.4
340.593	16.04
340.964	15.96
341.336	16.44
341.707	17.13
342.078	16.24
342.449	16.41
342.82	16.55
343.191	17.17
343.562	16.93
343.933	16.44
344.303	17.09
344.674	17.32
345.045	16.71
345.416	17.14
345.786	17.41
346.157	17.13
346.527	17.4
346.898	17.35
347.268	17.43
347.639	17.56
348.009	17.75
348.38	17.35
348.75	18.08
349.12	17.5
349.49	17.62
349.861	18.02
350.231	17.94
350.601	18.29
350.971	18.3
351.341	18.28
351.711	18.03
352.081	17.43
352.45	18.26
352.82	18.46
353.19	18.28
353.56	18.22
353.929	19.15
354.299	18.86
354.669	18.35
355.038	18.6
355.408	18.22
355.777	19.06
356.147	19.17
356.516	18.93
356.885	19.04
357.254	19.04
357.624	19.47
357.993	18.87
358.362	19.41
358.731	19.14
359.1	19.06
359.469	19.32
359.838	19.35
360.207	19.39
360.576	19.06
360.945	19.8
361.314	19.84
361.682	19.41
362.051	19.65
362.42	19.58
362.788	19.62
363.157	19.91
363.525	19.85
363.894	19.68
364.262	19.57
364.631	19.85
364.999	19.92
365.367	20.44
365.735	20.5
366.104	20.47
366.472	20.65
366.84	20.61
367.208	20.48
367.576	20.69
367.944	20.73
368.312	20.61
368.68	20.97
369.048	20.53
369.416	20.86
369.783	20.76
370.151	21.12
370.519	21.13
370.886	21.27
371.254	20.82
371.621	21.11
371.989	21.26
372.356	21.23
372.724	21.51
373.091	21.03
373.458	21.08
373.826	21.51
374.193	21.51
374.56	21.38
374.927	21.95
375.294	21.85
375.661	22.09
376.028	21.92
376.395	21.94
376.762	21.78
377.129	21.73
377.496	21.99
377.863	22.01
378.229	22.38
378.596	22.08
378.963	22.08
379.329	22.21
379.696	22.36
380.062	22.15
380.429	22.27
380.795	22.42
381.161	22.69
381.528	22.41
381.894	23
382.26	22.86
382.626	22.77
382.993	22.91
383.359	22.85
383.725	23.25
384.091	23.16
384.457	23.4
384.823	23.13
385.188	23.28
385.554	23.58
385.92	23.24
386.286	23.37
386.651	23.23
387.017	23.36
387.383	23.19
387.748	23.48
388.114	23.37
388.479	23.56
388.845	23.73
389.21	24.04
389.575	23.77
389.94	24.19
390.306	23.82
390.671	23.58
391.036	24.31
391.401	24.01
391.766	24.34
392.131	24.02
392.496	24.38
392.861	24.39
393.226	24.05
393.591	24.32
393.956	24.32
394.32	24.34
394.685	24.39
395.05	24.42
395.414	24.93
395.779	24.57
396.143	24.84
396.508	24.39
396.872	24.91
397.236	24.5
397.601	24.62
397.965	24.89
398.329	24.96
398.694	24.84
399.058	24.8
399.422	25.18
399.786	24.91
400.15	24.83
400.514	24.92
400.878	25.12
401.242	25.06
401.605	24.92
401.969	25.3
402.333	25.22
402.697	25.32
403.06	25.27
403.424	25.33
403.787	25.47
404.151	25.16
404.514	25.56
404.878	25.62
405.241	25.41
405.604	25.63
405.968	25.47
406.331	25.5
406.694	25.63
407.057	25.54
407.42	25.71
407.783	25.57
408.146	25.72
408.509	25.76
408.872	25.88
409.235	25.92
409.598	25.66
409.961	25.6
410.323	26.39
410.686	26.41
411.049	26.21
411.411	25.91
411.774	26.09
412.136	26.09
412.499	26.31
412.861	25.79
413.223	26.22
413.586	26.31
413.948	26.24
414.31	26.59
414.672	26.67
415.035	26.46
415.397	26.51
415.759	26.79
416.121	26.89
416.483	26.85
416.845	26.44
417.206	26.78
417.568	27.13
417.93	26.83
418.292	26.68
418.653	27
419.015	26.84
419.377	27.03
419.738	27.02
420.1	27.1
420.461	26.82
420.822	27.1
421.184	27
421.545	26.97
421.906	27.18
422.267	27.16
422.629	27.19
422.99	27.16
423.351	27.07
423.712	27.31
424.073	27.66
424.434	27.52
424.795	27.82
425.155	27.75
425.516	27.78
425.877	27.73
426.238	27.79
426.598	27.85
426.959	28
427.32	28.08
427.68	28.36
428.041	28.54
428.401	28.75
428.761	28.72
429.122	28.88
429.482	28.98
429.842	29.23
430.202	29.14
430.563	29.19
430.923	29.47
431.283	29.45
431.643	29.58
432.003	29.69
432.363	29.58
432.722	29.61
433.082	29.67
433.442	29.87
433.802	30.1
434.161	29.83
434.521	30.08
434.881	29.85
435.24	30.08
435.6	29.96
435.959	29.99
436.319	30.12
436.678	30.23
437.037	30.55
437.396	30.47
437.756	30.6
438.115	30.63
438.474	30.85
438.833	30.74
439.192	31.02
439.551	31.01
439.91	30.98
440.269	31.05
440.628	31.15
440.987	31.21
441.345	31.17
441.704	31.3
442.063	31.26
442.421	31.28
442.78	31.15
443.138	31.23
443.497	31.48
443.855	31.57
444.214	31.8
444.572	31.85
444.93	31.78
445.288	32.14
445.647	31.75
446.005	32.14
446.363	32
446.721	32.08
447.079	32.07
447.437	32.09
447.795	31.97
448.153	32
448.51	31.93
448.868	32.09
449.226	32.18
449.584	32.27
449.941	32.47
450.299	32.71
450.656	32.61
451.014	33.06
451.371	32.88
451.729	33.02
452.086	32.98
452.443	33.37
452.801	33.34
453.158	33.35
453.515	33.48
453.872	33.75
454.229	33.48
454.586	33.65
454.943	33.65
455.3	33.59
455.657	33.65
456.014	33.6
456.371	33.78
456.727	33.92
457.084	34.06
457.441	34.24
457.797	34.27
458.154	34.5
458.51	34.43
458.867	34.78
459.223	34.39
459.58	34.52
459.936	34.52
460.292	34.61
460.648	34.37
461.005	34.57
461.361	34.32
461.717	34.28
462.073	34.36
462.429	34.16
462.785	34.59
463.141	34.81
463.496	35.03
463.852	35.21
464.208	35
464.564	35.09
464.919	35.24
465.275	35.45
465.631	35.78
465.986	35.76
466.342	35.54
466.697	35.77
467.052	35.84
467.408	35.66
467.763	35.83
468.118	36.02
468.473	35.99
468.829	36.16
469.184	36.1
469.539	36.19
469.894	36.06
470.249	36.08
470.603	36.07
470.958	36.4
471.313	36.48
471.668	36.38
472.023	36.76
472.377	36.73
472.732	36.97
473.086	36.67
473.441	36.78
473.795	36.97
474.15	36.86
474.504	37.05
474.859	37.28
475.213	37.15
475.567	37.17
475.921	37.42
476.275	37.37
476.63	37.39
476.984	37.48
477.338	37.44
477.692	37.51
478.045	37.62
478.399	37.64
478.753	37.6
479.107	37.6
479.461	37.8
479.814	37.8
480.168	37.73
480.521	37.72
480.875	37.96
481.228	38
481.582	38.12
481.935	38
482.289	38
482.642	38
482.995	38.17
483.348	38.01
483.701	38.05
484.055	37.91
484.408	37.85
484.761	37.71
485.114	37.56
485.466	37.71
485.819	37.81
486.172	37.49
486.525	37.47
486.878	37.47
487.23	37.53
487.583	37.84
487.936	37.93
488.288	38.18
488.641	38.29
488.993	38.1
489.345	38.14
489.698	38.15
490.05	38.13
490.402	38.09
490.754	38.27
491.107	38.47
491.459	38.84
491.811	38.88
492.163	39.11
492.515	39.23
492.866	39.12
493.218	38.87
493.57	38.93
493.922	38.76
494.274	38.74
494.625	38.93
494.977	39.36
495.328	39.56
495.68	39.69
496.031	39.89
496.383	40.23
496.734	40.26
497.086	40.38
497.437	40.39
497.788	40.43
498.139	40.47
498.49	40.21
498.842	40.33
499.193	40.23
499.544	40.38
499.894	40.48
500.245	40.56
500.596	40.58
500.947	40.7
501.298	40.91
501.648	41.03
501.999	41.12
502.35	41.08
502.7	41.3
503.051	41.3
503.401	41.37
503.752	41.38
504.102	41.43
504.452	41.43
504.803	41.32
505.153	41.7
505.503	41.71
505.853	41.73
506.203	41.6
506.553	41.69
506.903	41.63
507.253	41.95
507.603	41.99
507.953	42
508.303	42.16
508.652	42.06
509.002	42.02
509.352	42.14
509.701	42.29
510.051	42.3
510.4	41.93
510.75	41.94
511.099	42.06
511.449	42.07
511.798	42.02
512.147	42.28
512.496	42.37
512.846	42.31
513.195	42.35
513.544	42.58
513.893	42.61
514.242	42.54
514.591	42.58
514.939	42.67
515.288	42.79
515.637	43
515.986	43.01
516.334	43.05
516.683	43.14
517.032	43.32
517.38	43.28
517.729	43.37
518.077	43.4
518.426	43.44
518.774	43.45
519.122	43.2
519.47	43.22
519.819	43.23
520.167	43.25
520.515	43.23
520.863	43.28
521.211	43.09
521.559	43.2
521.907	43.65
522.255	43.54
522.602	43.62
522.95	43.94
523.298	43.96
523.645	44.15
523.993	43.94
524.341	44.17
524.688	44.29
525.036	44.32
525.383	44.33
525.73	44.22
526.078	44.54
526.425	44.3
526.772	44.2
527.119	44.06
527.466	44.09
527.814	44.1
528.161	44.09
528.508	44.1
528.854	44.2
529.201	44.17
529.548	44.21
529.895	44.11
530.242	44.41
530.588	44.28
530.935	44.17
531.282	44.11
531.628	43.96
531.975	44.08
532.321	44.43
532.667	44.8
533.014	44.85
533.36	44.91
533.706	45.02
534.052	44.92
534.399	44.89
534.745	44.96
535.091	44.91
535.437	44.88
535.783	44.8
536.129	44.87
536.474	45.1
536.82	45.3
537.166	45.45
537.512	45.58
537.857	45.73
538.203	45.54
538.549	45.4
538.894	45.75
539.239	45.69
539.585	45.71
539.93	46.03
540.276	46.02
540.621	46.22
540.966	46.3
541.311	46.48
541.656	46.57
542.001	46.27
542.346	46.42
542.691	46.18
543.036	45.97
543.381	45.9
543.726	46.05
544.071	45.89
544.415	45.99
544.76	46.22
545.105	46.26
545.449	46.35
545.794	46.68
546.138	46.72
546.483	46.9
546.827	47.02
547.171	47.04
547.516	46.9
547.86	47.41
548.204	47.2
548.548	47.45
548.892	47.25
549.236	47.37
549.58	47.38
549.924	47.33
550.268	47.89
550.612	47.83
550.956	48.03
551.3	48.13
551.643	48.18
551.987	48.17
552.33	48.35
552.674	48.51
553.017	48.55
553.361	48.41
553.704	48.51
554.048	48.68
554.391	48.63
554.734	48.29
555.077	48.4
555.42	48.9
555.764	48.83
556.107	48.96
556.45	48.86
556.793	49.08
557.135	48.95
557.478	49.17
557.821	49.19
558.164	49.51
558.507	49.13
558.849	49.4
559.192	49.33
559.534	49.54
559.877	49.51
560.219	49.67
560.562	49.83
560.904	49.7
561.246	50.11
561.589	49.9
561.931	49.61
562.273	49.72
562.615	49.76
562.957	49.86
563.299	50
563.641	50.25
563.983	49.86
564.325	49.89
564.667	49.77
565.008	50.31
565.35	50.32
565.692	50.26
566.033	50.49
566.375	50.61
566.716	50.26
567.058	50.28
567.399	50.53
567.741	50.37
568.082	50.35
568.423	50.31
568.764	50.38
569.105	50.42
569.447	50.62
569.788	50.46
570.129	50.74
570.47	50.6
570.811	51.07
571.151	50.93
571.492	51.29
571.833	51.21
572.174	51.17
572.514	51.33
572.855	51.19
573.195	51.3
573.536	51.31
573.876	51.1
574.217	51.16
574.557	51.32
574.898	51.37
575.238	51.43
575.578	51.44
575.918	51.56
576.258	51.82
576.598	51.85
576.938	51.81
577.278	51.88
577.618	51.68
577.958	51.94
578.298	51.98
578.638	51.99
578.977	51.98
579.317	52.13
579.657	52.59
579.996	52.54
580.336	52.6
580.675	52.48
581.014	52.48
581.354	52.67
581.693	52.88
582.032	52.72
582.372	53.02
582.711	53.01
583.05	52.67
583.389	53.02
583.728	53.08
584.067	52.84
584.406	52.88
584.745	53.21
585.083	53.27
585.422	53.48
585.761	53.69
586.1	53.55
586.438	53.47
586.777	53.59
587.115	53.87
587.454	53.96
587.792	53.93
588.13	53.72
588.469	53.6
588.807	54.39
589.145	53.73
589.483	53.81
589.821	54.04
590.159	53.93
590.497	54
590.835	54.09
591.173	54.12
591.511	54.16
591.849	53.92
592.187	54.09
592.524	54.24
592.862	54.22
593.2	54.44
593.537	54.13
593.875	54.47
594.212	54.37
594.55	54.36
594.887	54.57
595.224	54.85
595.561	54.78
595.899	54.58
596.236	54.38
596.573	54.51
596.91	54.88
597.247	54.72
597.584	54.78
597.921	54.64
598.258	54.9
598.594	55.13
598.931	55.01
599.268	54.83
599.604	54.94
599.941	54.84
600.277	55.15
600.614	55.22
600.95	55.23
601.287	55.5
601.623	55.83
601.959	55.59
602.296	55.46
602.632	56
602.968	55.68
603.304	56
603.64	55.83
603.976	55.81
604.312	55.64
604.648	55.89
604.984	55.91
605.319	55.93
605.655	55.75
605.991	55.7
606.326	55.97
606.662	55.62
606.998	55.69
607.333	55.78
607.668	55.9
608.004	56.04
608.339	56.27
608.674	56.4
609.01	55.81
609.345	56.46
609.68	56.75
610.015	56.42
610.35	56.53
610.685	56.98
611.02	56.51
611.355	56.44
611.689	56.55
612.024	56.64
612.359	56.75
612.694	56.54
613.028	56.8
613.363	56.8
613.697	56.83
614.032	56.74
614.366	56.96
614.7	56.91
615.035	57.06
615.369	57.26
615.703	57.29
616.037	57.73
616.371	57.59
616.705	57.53
617.039	57.59
617.373	57.88
617.707	57.89
618.041	57.49
618.375	57.57
618.709	57.51
619.042	57.96
619.376	57.52
619.71	58.04
620.043	57.97
620.377	57.99
620.71	58.16
621.043	58.28
621.377	58.09
621.71	58.42
622.043	57.97
622.376	58.05
622.709	58.13
623.043	58.33
623.376	58.44
623.709	58.41
624.041	58.39
624.374	58.86
624.707	58.16
625.04	58.82
625.373	58.21
625.705	58.2
626.038	58.8
626.37	58.29
626.703	58.74
627.035	58.92
627.368	58.97
627.7	59.26
628.032	58.85
628.365	58.77
628.697	58.86
629.029	58.72
629.361	59.09
629.693	59.56
630.025	58.98
630.357	59.46
630.689	59.19
631.021	59.06
631.353	59.17
631.684	59.57
632.016	59.36
632.348	59.25
632.679	59.59
633.011	59.25
633.342	59.53
633.674	59.52
634.005	59.79
634.336	59.77
634.668	59.82
634.999	59.72
635.33	60.13
635.661	59.64
635.992	59.33
636.323	59.58
636.654	60.18
636.985	60.1
637.316	60.53
637.647	59.97
637.977	60.09
638.308	59.93
638.639	59.65
638.969	60.2
639.3	59.86
639.63	60.29
639.961	60.03
640.291	60.23
640.622	60.64
640.952	60.22
641.282	60.62
641.612	60.54
641.943	60.82
642.273	60.85
642.603	61.04
642.933	60.94
643.263	61
643.592	61.35
643.922	60.93
644.252	61.18
644.582	61.14
644.911	61.35
645.241	61.69
645.571	61.35
645.9	61.18
646.23	61.23
646.559	61.46
646.888	61.91
647.218	61.07
647.547	61.61
647.876	60.92
648.205	61.43
648.534	62.16
648.863	61.39
649.192	61.4
649.521	62.33
649.85	61.94
650.179	61.43
650.508	61.42
650.837	61.98
651.165	61.98
651.494	62.31
651.822	62.02
652.151	62.16
652.479	61.96
652.808	62.03
653.136	62.32
653.465	62.17
653.793	62.58
654.121	62.12
654.449	62.76
654.777	62.24
655.105	62.75
655.433	62.46
655.761	62.21
656.089	62.75
656.417	62.25
656.745	61.71
657.073	62.49
657.4	62.42
657.728	63.18
658.056	62.57
658.383	62.31
658.711	62.51
659.038	62.25
659.365	62.77
659.693	62.68
660.02	63.53
660.347	62.97
660.674	62.98
661.001	62.43
661.329	63.23
661.656	63.39
661.982	62.95
662.309	62.56
662.636	62.88
662.963	63.06
663.29	62.98
663.616	63.42
663.943	63.66
664.27	63.53
664.596	63.08
664.923	63.19
665.249	63.37
665.576	63.39
665.902	63.98
666.228	63.29
666.554	63.55
666.881	63.79
667.207	63.76
667.533	63.3
667.859	63.44
668.185	63.95
668.511	63.67
668.837	63.61
