Data from 002-16_forehead_Reflection__4__157.txt Node

Date: Fri Nov 11 17:16:44 CST 2022
User: ToomeyLab
Spectrometer: FLMS14357
Trigger mode: 0
Integration Time (sec): 1.000000E-2
Scans to average: 100
Electric dark correction enabled: true
Nonlinearity correction enabled: false
Boxcar width: 0
XAxis mode: Wavelengths
Number of Pixels in Spectrum: 2048
>>>>>Begin Spectral Data<<<<<
189.047	143.51
189.435	143.51
189.823	143.51
190.211	139.41
190.599	18.25
190.987	450.1
191.375	-305.91
191.763	-34.75
192.151	62.5
192.538	59.73
192.926	-224.11
193.314	455.92
193.702	564.55
194.089	-118.06
194.477	151.82
194.864	455.22
195.252	908.41
195.639	2.45
196.027	47.25
196.414	176.18
196.801	43809.09
197.189	80.25
197.576	-1.83
197.963	181.4
198.351	14.36
198.738	-87.78
199.125	40.88
199.512	30.22
199.899	6.08
200.286	40.01
200.673	43.07
201.06	22.98
201.447	49.53
201.833	21.5
202.22	26.31
202.607	83.11
202.994	45.46
203.38	-9.53
203.767	21.96
204.154	26.21
204.54	33.55
204.927	61.06
205.313	35.31
205.699	65.02
206.086	56.88
206.472	13.71
206.858	33.82
207.245	47.66
207.631	15.13
208.017	-1.39
208.403	33.44
208.789	-48
209.175	19.92
209.561	55.92
209.947	36.45
210.333	23.01
210.719	31.69
211.105	8.81
211.491	-43.85
211.876	45.85
212.262	-0.77
212.648	-12.53
213.034	-10.89
213.419	21.93
213.805	33.28
214.19	-11.43
214.576	28
214.961	15.29
215.346	-58.13
215.732	-12.89
216.117	44.32
216.502	23.1
216.888	33.92
217.273	7.64
217.658	21.88
218.043	2.88
218.428	-24.11
218.813	50.46
219.198	-9.1
219.583	32.69
219.968	16
220.353	-8.26
220.738	6.27
221.122	28.66
221.507	22.99
221.892	12.85
222.276	17.43
222.661	27.37
223.046	26.74
223.43	21.3
223.815	10.5
224.199	16.5
224.583	18.89
224.968	14.63
225.352	10.12
225.736	18.25
226.121	8.74
226.505	14.56
226.889	6.7
227.273	8.51
227.657	-1.37
228.041	3.02
228.425	7.63
228.809	12.56
229.193	5.26
229.577	7.02
229.961	4.49
230.344	6.24
230.728	6.2
231.112	5.5
231.495	5.77
231.879	6.38
232.263	2.39
232.646	3.31
233.03	4.6
233.413	4.6
233.797	4.23
234.18	6.87
234.563	8.15
234.946	4.36
235.33	5.09
235.713	4.66
236.096	3.25
236.479	7.21
236.862	6.33
237.245	5.91
237.628	6.89
238.011	6.82
238.394	6.7
238.777	5.07
239.16	5.27
239.543	6.4
239.925	7.3
240.308	3.84
240.691	5.25
241.073	5.92
241.456	3.84
241.838	5.26
242.221	5.89
242.603	4.41
242.986	4.34
243.368	4.31
243.75	5.25
244.133	5.14
244.515	5.25
244.897	4.72
245.279	4.72
245.661	5.48
246.043	6.23
246.425	6.5
246.807	5.12
247.189	4.72
247.571	4.93
247.953	5.58
248.335	5.46
248.717	5.3
249.098	5.11
249.48	5.4
249.862	5.56
250.243	5.35
250.625	5.67
251.006	5.63
251.388	5.27
251.769	6.37
252.151	5.23
252.532	6.14
252.913	5.29
253.295	5.46
253.676	5.64
254.057	5.14
254.438	5.63
254.819	5.42
255.2	4.73
255.581	5.55
255.962	4.99
256.343	7.48
256.724	5.84
257.105	5.48
257.486	6.89
257.867	5.27
258.247	5.9
258.628	6.34
259.009	6.05
259.389	5.96
259.77	6.27
260.15	6.16
260.531	5.01
260.911	5.24
261.292	5.25
261.672	5.11
262.052	5.24
262.432	5.39
262.813	5.25
263.193	5.53
263.573	5.92
263.953	4.8
264.333	5.96
264.713	4.99
265.093	6.78
265.473	6.51
265.853	5.42
266.233	5.64
266.612	4.9
266.992	4.97
267.372	5.82
267.752	5.71
268.131	5.3
268.511	5.66
268.89	5.76
269.27	4.85
269.649	4.78
270.029	4.79
270.408	4.82
270.787	5.45
271.167	5.28
271.546	5.51
271.925	5.95
272.304	5.45
272.683	5.34
273.062	4.88
273.441	4.58
273.82	4.66
274.199	5.19
274.578	5.58
274.957	4.89
275.336	5.2
275.715	5.1
276.093	5.45
276.472	4.78
276.851	4.83
277.229	5.12
277.608	5.29
277.986	5.74
278.365	5.6
278.743	5.41
279.122	4.27
279.5	4.86
279.878	4.54
280.257	5.34
280.635	5.01
281.013	5.29
281.391	5.53
281.769	6
282.147	5.37
282.525	5.37
282.903	5.04
283.281	5.46
283.659	4.83
284.037	4.88
284.415	5.38
284.792	5.08
285.17	5.29
285.548	5.22
285.925	5.71
286.303	5.09
286.68	5.05
287.058	5.35
287.435	5.42
287.813	5.18
288.19	5.24
288.567	5.13
288.945	4.9
289.322	5
289.699	4.98
290.076	5.13
290.453	5.71
290.83	5.67
291.207	5.43
291.584	5.8
291.961	5.27
292.338	5.79
292.715	5.66
293.092	5.56
293.469	6.47
293.845	6.32
294.222	6.6
294.599	6.28
294.975	6.15
295.352	6.04
295.728	5.73
296.105	6.3
296.481	5.86
296.858	6.23
297.234	6.24
297.61	5.87
297.986	5.95
298.363	6.52
298.739	6.49
299.115	6.38
299.491	6.72
299.867	6.44
300.243	6.36
300.619	6.92
300.995	6.5
301.371	6.43
301.746	6.69
302.122	6.78
302.498	6.92
302.874	7.02
303.249	7.01
303.625	7.57
304	6.99
304.376	7.42
304.751	8.11
305.127	7.14
305.502	7.69
305.878	7.84
306.253	7.54
306.628	7.71
307.003	7.67
307.378	8.39
307.754	8.53
308.129	8.04
308.504	7.63
308.879	7.95
309.254	7.68
309.629	8.1
310.003	8.56
310.378	7.66
310.753	7.71
311.128	8.31
311.502	7.88
311.877	8.47
312.252	7.99
312.626	8.39
313.001	8.43
313.375	8.57
313.75	8.6
314.124	8.86
314.498	8.98
314.873	9.13
315.247	8.98
315.621	8.62
315.995	9.11
316.369	9.34
316.743	9.44
317.117	9.2
317.491	9.8
317.865	9.5
318.239	10.25
318.613	9.69
318.987	10.15
319.361	9.53
319.734	9.49
320.108	10.16
320.482	9.44
320.855	10.1
321.229	10.51
321.602	10.34
321.976	9.91
322.349	9.88
322.723	10.3
323.096	10.59
323.469	10.59
323.843	10.8
324.216	10.04
324.589	11.01
324.962	10.59
325.335	11.19
325.708	10.38
326.081	10.22
326.454	11.03
326.827	11.4
327.2	10.83
327.573	11.45
327.945	11.24
328.318	11.48
328.691	11.94
329.063	11.47
329.436	11.47
329.809	11.05
330.181	11.81
330.553	11.77
330.926	11.53
331.298	11.69
331.671	12.22
332.043	12.32
332.415	11.45
332.787	11.83
333.159	12.63
333.532	11.7
333.904	11.6
334.276	12.35
334.648	12.09
335.02	12.14
335.391	12.42
335.763	12.22
336.135	12.37
336.507	12.86
336.879	11.95
337.25	12.33
337.622	12.43
337.993	12.43
338.365	12.55
338.736	12.39
339.108	12.51
339.479	12.79
339.851	12.37
340.222	13.05
340.593	12.65
340.964	12.6
341.336	12.63
341.707	13.07
342.078	12.63
342.449	13.48
342.82	13.13
343.191	13.79
343.562	13.41
343.933	12.75
344.303	13.61
344.674	13.51
345.045	13.82
345.416	13.13
345.786	13.79
346.157	13.36
346.527	13.84
346.898	13.57
347.268	13.82
347.639	13.95
348.009	13.85
348.38	14.02
348.75	14.37
349.12	13.89
349.49	14.21
349.861	14.05
350.231	13.82
350.601	14.67
350.971	14.65
351.341	14.33
351.711	14.25
352.081	13.59
352.45	14.75
352.82	14.46
353.19	14.58
353.56	14.52
353.929	14.83
354.299	14.63
354.669	14.61
355.038	14.42
355.408	14.18
355.777	14.97
356.147	14.81
356.516	14.93
356.885	14.64
357.254	14.94
357.624	15
357.993	15.03
358.362	14.81
358.731	15.01
359.1	14.83
359.469	14.96
359.838	15.45
360.207	15.56
360.576	15.21
360.945	15.35
361.314	15.42
361.682	15.2
362.051	15.38
362.42	15.46
362.788	15.28
363.157	15.45
363.525	15.63
363.894	15.82
364.262	15.48
364.631	15.6
364.999	15.87
365.367	16.21
365.735	16.08
366.104	15.89
366.472	16.52
366.84	16.11
367.208	15.91
367.576	16.13
367.944	16.53
368.312	16.31
368.68	16.26
369.048	16.5
369.416	16.24
369.783	16.6
370.151	16.36
370.519	16.95
370.886	16.72
371.254	16.58
371.621	16.48
371.989	17.1
372.356	16.56
372.724	16.88
373.091	16.99
373.458	16.49
373.826	17.16
374.193	16.94
374.56	16.84
374.927	17.22
375.294	17.31
375.661	17.47
376.028	17.15
376.395	17.48
376.762	17.22
377.129	17.6
377.496	17.51
377.863	17.31
378.229	17.71
378.596	17.41
378.963	17.43
379.329	17.49
379.696	17.73
380.062	17.68
380.429	17.77
380.795	17.65
381.161	17.82
381.528	17.89
381.894	18.13
382.26	17.91
382.626	17.84
382.993	17.84
383.359	18.3
383.725	18.35
384.091	17.99
384.457	18.45
384.823	18.13
385.188	18.26
385.554	18.03
385.92	18.16
386.286	18.42
386.651	18.34
387.017	18.59
387.383	18.47
387.748	18.67
388.114	18.55
388.479	18.49
388.845	18.81
389.21	18.78
389.575	18.6
389.94	18.77
390.306	18.66
390.671	19.13
391.036	19.15
391.401	18.81
391.766	18.86
392.131	18.78
392.496	19.07
392.861	19.22
393.226	19.21
393.591	19.11
393.956	19.26
394.32	19.3
394.685	19.36
395.05	19.66
395.414	19.59
395.779	19.14
396.143	19.54
396.508	19.12
396.872	19.39
397.236	19.47
397.601	19.75
397.965	19.88
398.329	19.69
398.694	19.58
399.058	19.67
399.422	19.74
399.786	19.57
400.15	19.95
400.514	19.76
400.878	19.98
401.242	19.66
401.605	19.78
401.969	20.23
402.333	20.08
402.697	19.9
403.06	20.08
403.424	20.02
403.787	20.28
404.151	20.01
404.514	20.05
404.878	20.28
405.241	20.14
405.604	20.16
405.968	20.37
406.331	20.08
406.694	20.33
407.057	20.3
407.42	20.46
407.783	20.47
408.146	20.65
408.509	20.44
408.872	20.7
409.235	20.73
409.598	20.44
409.961	20.76
410.323	20.76
410.686	20.96
411.049	20.74
411.411	20.62
411.774	20.68
412.136	20.69
412.499	20.84
412.861	20.72
413.223	20.76
413.586	20.76
413.948	20.82
414.31	21.08
414.672	21.06
415.035	21.17
415.397	21.22
415.759	21.23
416.121	21.15
416.483	21.07
416.845	21.23
417.206	21.21
417.568	21.26
417.93	21.18
418.292	21.14
418.653	21.39
419.015	21.18
419.377	21.37
419.738	21.4
420.1	21.44
420.461	21.25
420.822	21.44
421.184	21.49
421.545	21.36
421.906	21.52
422.267	21.55
422.629	21.57
422.99	21.33
423.351	21.56
423.712	21.66
424.073	21.83
424.434	21.78
424.795	21.95
425.155	22.02
425.516	21.96
425.877	21.91
426.238	21.82
426.598	22.04
426.959	22.09
427.32	22.33
427.68	22.37
428.041	22.58
428.401	22.62
428.761	22.65
429.122	23.02
429.482	23.15
429.842	23.02
430.202	23.26
430.563	23.11
430.923	23.22
431.283	23.36
431.643	23.38
432.003	23.31
432.363	23.66
432.722	23.45
433.082	23.58
433.442	23.56
433.802	23.87
434.161	23.6
434.521	23.7
434.881	23.59
435.24	23.94
435.6	23.76
435.959	23.81
436.319	23.86
436.678	23.94
437.037	24.06
437.396	24.03
437.756	24.21
438.115	24.22
438.474	24.47
438.833	24.43
439.192	24.32
439.551	24.32
439.91	24.52
440.269	24.48
440.628	24.61
440.987	24.6
441.345	24.42
441.704	24.64
442.063	24.74
442.421	24.55
442.78	24.44
443.138	24.58
443.497	24.95
443.855	24.99
444.214	25.12
444.572	25.22
444.93	24.99
445.288	25.28
445.647	24.97
446.005	25.22
446.363	25.25
446.721	25.15
447.079	25.23
447.437	25.17
447.795	25
448.153	25.15
448.51	25.09
448.868	25.31
449.226	25.32
449.584	25.53
449.941	25.68
450.299	25.81
450.656	25.81
451.014	26.1
451.371	25.9
451.729	26.14
452.086	26.22
452.443	26.34
452.801	26.43
453.158	26.4
453.515	26.29
453.872	26.42
454.229	26.31
454.586	26.63
454.943	26.41
455.3	26.53
455.657	26.68
456.014	26.62
456.371	26.63
456.727	26.91
457.084	26.87
457.441	26.92
457.797	27.03
458.154	26.97
458.51	27.17
458.867	27.24
459.223	27.28
459.58	27.09
459.936	27.15
460.292	27.09
460.648	27.07
461.005	27.17
461.361	26.93
461.717	26.74
462.073	27.17
462.429	27.26
462.785	27.32
463.141	27.62
463.496	27.66
463.852	27.96
464.208	27.76
464.564	27.87
464.919	27.81
465.275	27.9
465.631	28.13
465.986	28
466.342	28.01
466.697	28.27
467.052	28.16
467.408	28.35
467.763	28.22
468.118	28.22
468.473	28.41
468.829	28.38
469.184	28.43
469.539	28.58
469.894	28.47
470.249	28.68
470.603	28.54
470.958	28.79
471.313	28.88
471.668	28.74
472.023	28.93
472.377	29.09
472.732	28.91
473.086	28.8
473.441	28.97
473.795	29.28
474.15	29.18
474.504	29.08
474.859	29.31
475.213	29.5
475.567	29.43
475.921	29.52
476.275	29.53
476.63	29.5
476.984	29.46
477.338	29.56
477.692	29.53
478.045	29.51
478.399	29.52
478.753	29.57
479.107	29.56
479.461	29.72
479.814	29.68
480.168	29.82
480.521	29.82
480.875	29.97
481.228	30.02
481.582	30.06
481.935	30.04
482.289	30.15
482.642	29.9
482.995	30.07
483.348	29.71
483.701	29.85
484.055	29.69
484.408	29.58
484.761	29.31
485.114	29.06
485.466	28.91
485.819	29.2
486.172	29.4
486.525	29.57
486.878	29.9
487.23	29.92
487.583	30.06
487.936	29.92
488.288	29.94
488.641	29.87
488.993	29.77
489.345	29.76
489.698	29.77
490.05	30
490.402	29.98
490.754	30.45
491.107	30.49
491.459	30.67
491.811	30.74
492.163	30.81
492.515	30.75
492.866	30.42
493.218	30.08
493.57	30.29
493.922	30.54
494.274	30.8
494.625	31.08
494.977	31.2
495.328	31.35
495.68	31.72
496.031	31.77
496.383	31.88
496.734	32
497.086	32.02
497.437	31.85
497.788	31.82
498.139	31.76
498.49	31.62
498.842	31.74
499.193	31.85
499.544	31.99
499.894	32.1
500.245	32.05
500.596	32.09
500.947	32.12
501.298	32.36
501.648	32.4
501.999	32.4
502.35	32.56
502.7	32.71
503.051	32.67
503.401	32.77
503.752	32.86
504.102	32.8
504.452	32.54
504.803	32.74
505.153	32.97
505.503	32.85
505.853	32.82
506.203	32.84
506.553	33.11
506.903	32.96
507.253	33.16
507.603	33.1
507.953	33.24
508.303	33.29
508.652	33.12
509.002	33.38
509.352	33.36
509.701	33.31
510.051	33.22
510.4	33.05
510.75	33.16
511.099	33.39
511.449	33.3
511.798	33.36
512.147	33.62
512.496	33.45
512.846	33.51
513.195	33.55
513.544	33.65
513.893	33.57
514.242	33.72
514.591	33.85
514.939	34
515.288	34.04
515.637	33.94
515.986	34.29
516.334	34.16
516.683	34.23
517.032	34.33
517.38	34.4
517.729	34.41
518.077	34.41
518.426	34.47
518.774	34.41
519.122	34.14
519.47	34.19
519.819	34.27
520.167	33.94
520.515	33.97
520.863	34.28
521.211	34.2
521.559	34.44
521.907	34.78
522.255	34.7
522.602	34.85
522.95	34.84
523.298	35.09
523.645	35.16
523.993	35.12
524.341	35.28
524.688	35.27
525.036	35.26
525.383	35.36
525.73	35.17
526.078	35.3
526.425	35.21
526.772	35.1
527.119	34.82
527.466	34.73
527.814	34.8
528.161	34.89
528.508	35.06
528.854	35.14
529.201	35.03
529.548	34.85
529.895	34.4
530.242	34.44
530.588	34.63
530.935	34.79
531.282	35.14
531.628	35.23
531.975	35.31
532.321	35.4
532.667	35.58
533.014	35.73
533.36	35.73
533.706	35.72
534.052	35.46
534.399	35.52
534.745	35.3
535.091	35.17
535.437	35.4
535.783	35.78
536.129	35.97
536.474	36.32
536.82	36.13
537.166	36.35
537.512	36.27
537.857	36.28
538.203	36.07
538.549	35.99
538.894	36.28
539.239	36.44
539.585	36.72
539.93	36.85
540.276	36.99
540.621	37.02
540.966	37.03
541.311	37.02
541.656	36.97
542.001	36.71
542.346	36.53
542.691	36.23
543.036	36.04
543.381	36.22
543.726	36.57
544.071	36.76
544.415	37
544.76	37.02
545.105	37.01
545.449	37.09
545.794	37.41
546.138	37.28
546.483	37.41
546.827	37.55
547.171	37.43
547.516	37.57
547.86	37.69
548.204	37.58
548.548	37.61
548.892	37.67
549.236	37.86
549.58	38.29
549.924	38.24
550.268	38.34
550.612	38.53
550.956	38.57
551.3	38.85
551.643	38.74
551.987	38.88
552.33	38.85
552.674	38.68
553.017	38.89
553.361	38.69
553.704	38.82
554.048	38.84
554.391	38.86
554.734	38.74
555.077	39.06
555.42	38.97
555.764	39.04
556.107	39.17
556.45	39.21
556.793	39.44
557.135	39.32
557.478	39.34
557.821	39.4
558.164	39.71
558.507	39.52
558.849	39.62
559.192	39.73
559.534	39.59
559.877	39.71
560.219	39.79
560.562	40.03
560.904	39.96
561.246	39.92
561.589	40.17
561.931	40.03
562.273	40.3
562.615	40.05
562.957	39.91
563.299	40.22
563.641	40.41
563.983	40.26
564.325	40.15
564.667	40.23
565.008	40.3
565.35	40.48
565.692	40.37
566.033	40.62
566.375	40.77
566.716	40.64
567.058	40.37
567.399	40.23
567.741	40.28
568.082	40.4
568.423	40.37
568.764	40.64
569.105	40.76
569.447	40.59
569.788	40.84
570.129	41.01
570.47	40.82
570.811	41.07
571.151	41.1
571.492	41.05
571.833	41.15
572.174	41.07
572.514	41.3
572.855	41.16
573.195	41.29
573.536	41.18
573.876	41.08
574.217	41.03
574.557	41.3
574.898	41.12
575.238	41.57
575.578	41.53
575.918	41.53
576.258	41.76
576.598	41.85
576.938	41.61
577.278	41.61
577.618	41.93
577.958	41.97
578.298	42.28
578.638	41.91
578.977	42
579.317	41.86
579.657	42.29
579.996	42.19
580.336	42.42
580.675	42.33
581.014	42.45
581.354	42.53
581.693	42.7
582.032	42.51
582.372	42.88
582.711	42.55
583.05	42.73
583.389	42.4
583.728	42.83
584.067	42.82
584.406	42.84
584.745	42.94
585.083	43.27
585.422	43.23
585.761	43.52
586.1	43.33
586.438	43.17
586.777	43.28
587.115	43.34
587.454	43.48
587.792	43.64
588.13	43.68
588.469	43.6
588.807	43.72
589.145	43.48
589.483	43.44
589.821	43.49
590.159	43.79
590.497	43.41
590.835	43.65
591.173	43.67
591.511	43.69
591.849	43.69
592.187	43.52
592.524	43.7
592.862	43.8
593.2	43.82
593.537	43.6
593.875	44.1
594.212	44.04
594.55	44.22
594.887	43.95
595.224	44.26
595.561	44.29
595.899	43.97
596.236	44.1
596.573	44.09
596.91	44.19
597.247	44.33
597.584	44.37
597.921	44.23
598.258	44.35
598.594	44.1
598.931	44.04
599.268	44.2
599.604	44.39
599.941	44.63
600.277	44.61
600.614	44.69
600.95	45.23
601.287	44.87
601.623	44.98
601.959	44.9
602.296	44.85
602.632	45.13
602.968	45.04
603.304	45.2
603.64	45.4
603.976	45.16
604.312	44.97
604.648	44.82
604.984	45.12
605.319	44.84
605.655	45.05
605.991	45.12
606.326	44.96
606.662	44.78
606.998	45.03
607.333	45.05
607.668	45.51
608.004	45.5
608.339	45.72
608.674	46.01
609.01	45.62
609.345	45.79
609.68	46
610.015	45.9
610.35	45.67
610.685	45.6
611.02	45.68
611.355	45.28
611.689	45.39
612.024	45.69
612.359	45.55
612.694	46.09
613.028	46.29
613.363	46.09
613.697	46.21
614.032	46.42
614.366	46.13
614.7	46.66
615.035	46.38
615.369	46.76
615.703	46.78
616.037	46.44
616.371	46.46
616.705	46.32
617.039	46.78
617.373	46.9
617.707	46.59
618.041	46.72
618.375	46.69
618.709	47
619.042	46.9
619.376	46.49
619.71	47.17
620.043	47.06
620.377	47.21
620.71	47.42
621.043	47.35
621.377	47.07
621.71	47.64
622.043	47.02
622.376	47.71
622.709	47.1
623.043	47.31
623.376	47.31
623.709	47.58
624.041	47.7
624.374	47.55
624.707	47.67
625.04	47.39
625.373	47.74
625.705	47.21
626.038	47.75
626.37	47.65
626.703	47.43
627.035	47.34
627.368	47.98
627.7	48.07
628.032	47.4
628.365	47.89
628.697	48.04
629.029	47.5
629.361	47.66
629.693	48.22
630.025	47.82
630.357	47.79
630.689	48.03
631.021	48.41
631.353	48.14
631.684	48.56
632.016	48.28
632.348	48.23
632.679	48.48
633.011	48.26
633.342	48.13
633.674	48.44
634.005	48.65
634.336	48.64
634.668	48.42
634.999	48.4
635.33	48.24
635.661	48.22
635.992	48.34
636.323	49.13
636.654	48.78
636.985	48.95
637.316	48.72
637.647	48.3
637.977	48.91
638.308	48.81
638.639	49.04
638.969	49.49
639.3	48.89
639.63	49.11
639.961	48.78
640.291	48.69
640.622	48.9
640.952	49.09
641.282	48.99
641.612	49
641.943	49.33
642.273	49.07
642.603	49.49
642.933	49.7
643.263	49.61
643.592	50.32
643.922	49.26
644.252	49.69
644.582	50.16
644.911	49.91
645.241	49.91
645.571	49.54
645.9	50.01
646.23	49.56
646.559	49.52
646.888	49.47
647.218	49.37
647.547	49.82
647.876	49.69
648.205	50.22
648.534	50.14
648.863	50.08
649.192	49.76
649.521	49.98
649.85	49.72
650.179	50.4
650.508	50.29
650.837	50.13
651.165	50.3
651.494	50.34
651.822	50.07
652.151	49.76
652.479	50.3
652.808	49.56
653.136	50.09
653.465	50.45
653.793	50.07
654.121	50.73
654.449	50.23
654.777	50.45
655.105	50.83
655.433	50.55
655.761	50.92
656.089	50.62
656.417	50.82
656.745	50.26
657.073	50.67
657.4	50.62
657.728	50.82
658.056	50.62
658.383	50.62
658.711	50.85
659.038	51.04
659.365	50.45
659.693	51.36
660.02	50.74
660.347	50.9
660.674	50.6
661.001	50.45
661.329	50.71
661.656	51.12
661.982	51.06
662.309	51.37
662.636	51.14
662.963	51.1
663.29	51.41
663.616	51.04
663.943	51.73
664.27	51.95
664.596	51.64
664.923	51.46
665.249	51.79
665.576	51.56
665.902	51.68
666.228	51.67
666.554	51.8
666.881	51.51
667.207	51.91
667.533	52.15
667.859	51.26
668.185	51.96
668.511	51.78
668.837	51.2
669.162	52.05
669.488	51.58
