Data from 002-16_crown_Reflection__4__150.txt Node

Date: Fri Nov 11 17:15:09 CST 2022
User: ToomeyLab
Spectrometer: FLMS14357
Trigger mode: 0
Integration Time (sec): 1.000000E-2
Scans to average: 100
Electric dark correction enabled: true
Nonlinearity correction enabled: false
Boxcar width: 0
XAxis mode: Wavelengths
Number of Pixels in Spectrum: 2048
>>>>>Begin Spectral Data<<<<<
189.047	9.26
189.435	9.26
189.823	9.26
190.211	193.17
190.599	53.81
190.987	35.18
191.375	767
191.763	111.16
192.151	79.26
192.538	82.75
192.926	-195.42
193.314	513.88
193.702	98.62
194.089	-80.74
194.477	303.58
194.864	415.22
195.252	681.79
195.639	55.02
196.027	23.95
196.414	93.14
196.801	7172.73
197.189	414.48
197.576	223.38
197.963	-11.17
198.351	-68.35
198.738	-116.47
199.125	10.83
199.512	3.08
199.899	-11.17
200.286	-13.89
200.673	25.67
201.06	-56.98
201.447	34.42
201.833	5.22
202.22	36.64
202.607	7.7
202.994	21.2
203.38	11.52
203.767	16.06
204.154	-11.57
204.54	23.87
204.927	23.21
205.313	-3.71
205.699	45.01
206.086	7.77
206.472	16.95
206.858	-16.12
207.245	-2.94
207.631	21.94
208.017	55.82
208.403	-15.44
208.789	-97.74
209.175	-5.74
209.561	10.16
209.947	20.14
210.333	14.6
210.719	4.06
211.105	2.85
211.491	-116.57
211.876	56.86
212.262	-41.78
212.648	-4.97
213.034	0.42
213.419	25.23
213.805	29.64
214.19	-18.74
214.576	13.69
214.961	-21.96
215.346	-59.24
215.732	-31.64
216.117	19.93
216.502	3.61
216.888	38.28
217.273	-11.65
217.658	6.26
218.043	-0.97
218.428	-42.6
218.813	24.01
219.198	-7.95
219.583	2.25
219.968	6.71
220.353	-22.69
220.738	-49.51
221.122	-0.28
221.507	16.23
221.892	6.52
222.276	4.61
222.661	13.16
223.046	2.14
223.43	1.06
223.815	-3.33
224.199	16.38
224.583	7.45
224.968	7.93
225.352	-8.74
225.736	8.81
226.121	-3.65
226.505	6.46
226.889	10.97
227.273	6.01
227.657	-4.79
228.041	-1.05
228.425	7.83
228.809	9.33
229.193	2.72
229.577	5.64
229.961	4.53
230.344	5.9
230.728	5.53
231.112	5.82
231.495	5.97
231.879	4.93
232.263	4.6
232.646	6.82
233.03	3.79
233.413	5.17
233.797	2.75
234.18	3.08
234.563	6.52
234.946	6.85
235.33	3.81
235.713	3.93
236.096	2.88
236.479	5.5
236.862	6.28
237.245	5.58
237.628	3.48
238.011	3.63
238.394	4.67
238.777	5.13
239.16	3.67
239.543	2.62
239.925	8.79
240.308	4.57
240.691	4.49
241.073	3.72
241.456	4.04
241.838	5.71
242.221	4.49
242.603	4.33
242.986	4.98
243.368	4.54
243.75	5.42
244.133	5.14
244.515	5.61
244.897	5.29
245.279	5.48
245.661	4.93
246.043	5.47
246.425	5.33
246.807	5.32
247.189	4.29
247.571	4.39
247.953	4.66
248.335	5.21
248.717	4.87
249.098	5.18
249.48	4.94
249.862	5.01
250.243	4.62
250.625	5.09
251.006	5.77
251.388	5.6
251.769	4.96
252.151	5.39
252.532	5.4
252.913	4.71
253.295	4.7
253.676	4.63
254.057	4.66
254.438	5.06
254.819	4.77
255.2	5.39
255.581	4.18
255.962	5.13
256.343	5.34
256.724	4.69
257.105	4.18
257.486	4.98
257.867	3.92
258.247	5.26
258.628	4.61
259.009	5.26
259.389	4.85
259.77	5.87
260.15	4.98
260.531	4.28
260.911	4.72
261.292	4.74
261.672	4.66
262.052	4.73
262.432	5.05
262.813	4.34
263.193	4.08
263.573	5.5
263.953	4.36
264.333	4.81
264.713	4.02
265.093	5
265.473	4.84
265.853	4.17
266.233	4.99
266.612	3.73
266.992	4.89
267.372	4.48
267.752	4.75
268.131	4.55
268.511	4.75
268.89	4.98
269.27	4.4
269.649	3.79
270.029	3.91
270.408	3.92
270.787	4.07
271.167	4.25
271.546	5.07
271.925	4.35
272.304	4.86
272.683	4.39
273.062	4.57
273.441	4.3
273.82	4.18
274.199	4.56
274.578	4.73
274.957	3.89
275.336	4.6
275.715	4.41
276.093	4.89
276.472	4.62
276.851	4.66
277.229	3.67
277.608	4.06
277.986	4.44
278.365	4.45
278.743	4.73
279.122	4.28
279.5	4.18
279.878	4.45
280.257	4.91
280.635	4.64
281.013	4.01
281.391	4.5
281.769	5.24
282.147	4
282.525	4.2
282.903	4.76
283.281	4.18
283.659	3.84
284.037	4.17
284.415	4.51
284.792	4.61
285.17	4.29
285.548	4.69
285.925	4.34
286.303	4.12
286.68	4.21
287.058	4.17
287.435	4.73
287.813	4.26
288.19	4.57
288.567	4.21
288.945	3.92
289.322	3.97
289.699	4.34
290.076	4.24
290.453	4.25
290.83	4.39
291.207	4.33
291.584	4.13
291.961	4.12
292.338	4.6
292.715	3.84
293.092	4.06
293.469	4.59
293.845	4.44
294.222	4.2
294.599	4.98
294.975	4.64
295.352	3.65
295.728	4.25
296.105	3.75
296.481	4.02
296.858	3.96
297.234	3.95
297.61	4.35
297.986	3.82
298.363	4.23
298.739	3.96
299.115	3.78
299.491	4.08
299.867	4.04
300.243	4.22
300.619	3.99
300.995	3.92
301.371	3.49
301.746	3.99
302.122	3.93
302.498	3.8
302.874	4.2
303.249	3.93
303.625	3.82
304	3.99
304.376	3.87
304.751	4.61
305.127	3.91
305.502	3.98
305.878	4.24
306.253	4.18
306.628	3.91
307.003	3.9
307.378	4.44
307.754	4.65
308.129	4.4
308.504	4.02
308.879	3.43
309.254	3.79
309.629	3.87
310.003	3.71
310.378	3.32
310.753	3.55
311.128	3.93
311.502	3.47
311.877	4.35
312.252	3.5
312.626	3.59
313.001	3.9
313.375	3.98
313.75	4.23
314.124	4.01
314.498	4.43
314.873	3.79
315.247	3.93
315.621	3.47
315.995	3.76
316.369	4.12
316.743	3.5
317.117	3.61
317.491	4.17
317.865	3.9
318.239	3.97
318.613	3.86
318.987	4.05
319.361	4.23
319.734	3.38
320.108	4.18
320.482	3.19
320.855	3.68
321.229	4.19
321.602	3.52
321.976	3.28
322.349	4.38
322.723	4.13
323.096	4.22
323.469	4.22
323.843	4.24
324.216	3.52
324.589	3.82
324.962	3.48
325.335	4.18
325.708	3.85
326.081	3.25
326.454	3.62
326.827	3.48
327.2	3.59
327.573	4.01
327.945	3.68
328.318	4.22
328.691	4.14
329.063	3.94
329.436	4.05
329.809	3.24
330.181	3.92
330.553	4.15
330.926	3.44
331.298	3.55
331.671	3.6
332.043	4.26
332.415	3.73
332.787	3.78
333.159	3.92
333.532	3.51
333.904	3.68
334.276	3.6
334.648	3.79
335.02	4.16
335.391	4.14
335.763	3.97
336.135	3.55
336.507	4.23
336.879	3.6
337.25	2.73
337.622	4.23
337.993	3.6
338.365	3.8
338.736	3.77
339.108	3.72
339.479	3.53
339.851	3.45
340.222	3.83
340.593	3.64
340.964	3.59
341.336	3.37
341.707	3.65
342.078	3.29
342.449	4.13
342.82	3.67
343.191	4.1
343.562	3.6
343.933	3.37
344.303	3.93
344.674	3.84
345.045	3.65
345.416	3.72
345.786	3.89
346.157	3.79
346.527	3.75
346.898	3.54
347.268	3.76
347.639	4.04
348.009	3.2
348.38	3.61
348.75	4.12
349.12	4.09
349.49	4.23
349.861	3.24
350.231	3.3
350.601	4.48
350.971	4.21
351.341	3.65
351.711	3.73
352.081	3.01
352.45	3.6
352.82	3.7
353.19	3.51
353.56	3.65
353.929	4.02
354.299	4.09
354.669	3.6
355.038	3.65
355.408	3.66
355.777	3.84
356.147	3.94
356.516	4.11
356.885	3.87
357.254	3.61
357.624	3.8
357.993	3.93
358.362	3.68
358.731	3.74
359.1	3.51
359.469	3.75
359.838	3.8
360.207	4.1
360.576	3.88
360.945	3.99
361.314	3.98
361.682	3.86
362.051	3.79
362.42	3.36
362.788	3.56
363.157	3.75
363.525	3.9
363.894	3.72
364.262	3.68
364.631	3.77
364.999	3.76
365.367	3.99
365.735	3.9
366.104	3.53
366.472	3.63
366.84	3.94
367.208	3.97
367.576	4.06
367.944	3.9
368.312	4.05
368.68	4.04
369.048	3.7
369.416	3.74
369.783	3.87
370.151	3.91
370.519	4.43
370.886	4.02
371.254	3.35
371.621	4.03
371.989	3.7
372.356	3.8
372.724	4.22
373.091	3.96
373.458	3.75
373.826	3.93
374.193	3.94
374.56	3.81
374.927	3.9
375.294	4.11
375.661	4.25
376.028	3.97
376.395	4.05
376.762	3.8
377.129	3.99
377.496	3.79
377.863	3.82
378.229	4.09
378.596	3.93
378.963	3.89
379.329	3.68
379.696	3.92
380.062	3.85
380.429	3.81
380.795	3.82
381.161	3.64
381.528	4.31
381.894	4.26
382.26	3.76
382.626	3.91
382.993	4.27
383.359	3.97
383.725	4.08
384.091	3.86
384.457	3.98
384.823	4.06
385.188	4.05
385.554	4.09
385.92	3.92
386.286	3.9
386.651	3.75
387.017	3.94
387.383	3.9
387.748	3.66
388.114	3.95
388.479	4
388.845	3.91
389.21	4.16
389.575	3.86
389.94	4.14
390.306	3.95
390.671	4.11
391.036	4.06
391.401	4
391.766	4.08
392.131	3.65
392.496	3.95
392.861	3.9
393.226	3.98
393.591	4.13
393.956	4.15
394.32	4.27
394.685	4.31
395.05	4.21
395.414	4.18
395.779	4.08
396.143	4.12
396.508	3.84
396.872	4.19
397.236	3.85
397.601	4.23
397.965	4.09
398.329	3.97
398.694	3.83
399.058	4.15
399.422	4.31
399.786	4.26
400.15	3.96
400.514	4.29
400.878	4.19
401.242	4.15
401.605	4.04
401.969	4.31
402.333	3.89
402.697	3.89
403.06	3.98
403.424	3.81
403.787	4.08
404.151	4.02
404.514	3.94
404.878	4.26
405.241	4.14
405.604	3.97
405.968	4.16
406.331	3.98
406.694	4.21
407.057	4.04
407.42	4.1
407.783	4.08
408.146	4.36
408.509	4.29
408.872	4.37
409.235	4.34
409.598	4.03
409.961	4.09
410.323	4.15
410.686	4.46
411.049	4.22
411.411	4.14
411.774	3.9
412.136	4.16
412.499	4.08
412.861	4.05
413.223	4.15
413.586	4.11
413.948	4.15
414.31	4.25
414.672	4.34
415.035	4.13
415.397	4.25
415.759	4.2
416.121	4.11
416.483	4.2
416.845	4.27
417.206	4.34
417.568	4.11
417.93	4.16
418.292	4.13
418.653	4.23
419.015	4.05
419.377	4.09
419.738	4.31
420.1	4.02
420.461	4.05
420.822	4.01
421.184	4.12
421.545	4.15
421.906	4.03
422.267	4.15
422.629	4.06
422.99	4.13
423.351	4.11
423.712	4.05
424.073	4.1
424.434	4.18
424.795	4.23
425.155	4.22
425.516	4.22
425.877	4.11
426.238	4.09
426.598	4.15
426.959	4.19
427.32	4.14
427.68	4.25
428.041	4.35
428.401	4.11
428.761	4.19
429.122	4.23
429.482	4.2
429.842	4.15
430.202	4.34
430.563	4.22
430.923	4.31
431.283	4.25
431.643	4.31
432.003	4.48
432.363	4.46
432.722	4.21
433.082	4.16
433.442	4.35
433.802	4.4
434.161	4.39
434.521	4.38
434.881	4.1
435.24	4.29
435.6	4.17
435.959	4.31
436.319	4.22
436.678	4.19
437.037	4.18
437.396	4.04
437.756	4.15
438.115	4.25
438.474	4.28
438.833	4.25
439.192	4.38
439.551	4.19
439.91	4.37
440.269	4.3
440.628	4.29
440.987	4.46
441.345	4.32
441.704	4.2
442.063	4.41
442.421	4.23
442.78	4.14
443.138	4.3
443.497	4.23
443.855	4.31
444.214	4.28
444.572	4.28
444.93	4.28
445.288	4.4
445.647	4.21
446.005	4.27
446.363	4.15
446.721	4.21
447.079	4.2
447.437	4.35
447.795	4.17
448.153	4.2
448.51	4.21
448.868	4.21
449.226	4.28
449.584	4.31
449.941	4.31
450.299	4.4
450.656	4.37
451.014	4.53
451.371	4.32
451.729	4.55
452.086	4.4
452.443	4.46
452.801	4.32
453.158	4.41
453.515	4.25
453.872	4.46
454.229	4.36
454.586	4.35
454.943	4.35
455.3	4.27
455.657	4.48
456.014	4.26
456.371	4.29
456.727	4.42
457.084	4.48
457.441	4.46
457.797	4.3
458.154	4.49
458.51	4.13
458.867	4.33
459.223	4.26
459.58	4.5
459.936	4.31
460.292	4.41
460.648	4.26
461.005	4.35
461.361	4.3
461.717	4.26
462.073	4.32
462.429	4.42
462.785	4.34
463.141	4.48
463.496	4.34
463.852	4.34
464.208	4.5
464.564	4.41
464.919	4.27
465.275	4.49
465.631	4.43
465.986	4.36
466.342	4.49
466.697	4.32
467.052	4.48
467.408	4.3
467.763	4.52
468.118	4.34
468.473	4.48
468.829	4.6
469.184	4.56
469.539	4.49
469.894	4.38
470.249	4.44
470.603	4.38
470.958	4.59
471.313	4.53
471.668	4.41
472.023	4.57
472.377	4.71
472.732	4.52
473.086	4.47
473.441	4.5
473.795	4.52
474.15	4.56
474.504	4.56
474.859	4.61
475.213	4.51
475.567	4.6
475.921	4.63
476.275	4.58
476.63	4.58
476.984	4.53
477.338	4.5
477.692	4.54
478.045	4.41
478.399	4.39
478.753	4.49
479.107	4.4
479.461	4.43
479.814	4.65
480.168	4.58
480.521	4.45
480.875	4.52
481.228	4.63
481.582	4.54
481.935	4.54
482.289	4.58
482.642	4.48
482.995	4.47
483.348	4.38
483.701	4.4
484.055	4.43
484.408	4.42
484.761	4.28
485.114	4.26
485.466	4.15
485.819	4.17
486.172	4.2
486.525	4.31
486.878	4.33
487.23	4.35
487.583	4.36
487.936	4.34
488.288	4.3
488.641	4.34
488.993	4.3
489.345	4.25
489.698	4.28
490.05	4.28
490.402	4.34
490.754	4.44
491.107	4.43
491.459	4.45
491.811	4.38
492.163	4.44
492.515	4.37
492.866	4.36
493.218	4.22
493.57	4.26
493.922	4.33
494.274	4.42
494.625	4.39
494.977	4.44
495.328	4.42
495.68	4.49
496.031	4.55
496.383	4.52
496.734	4.51
497.086	4.49
497.437	4.62
497.788	4.61
498.139	4.53
498.49	4.55
498.842	4.57
499.193	4.48
499.544	4.53
499.894	4.5
500.245	4.43
500.596	4.59
500.947	4.49
501.298	4.62
501.648	4.72
501.999	4.69
502.35	4.52
502.7	4.6
503.051	4.54
503.401	4.59
503.752	4.53
504.102	4.53
504.452	4.56
504.803	4.59
505.153	4.63
505.503	4.58
505.853	4.54
506.203	4.7
506.553	4.63
506.903	4.55
507.253	4.65
507.603	4.52
507.953	4.68
508.303	4.51
508.652	4.53
509.002	4.5
509.352	4.66
509.701	4.61
510.051	4.64
510.4	4.58
510.75	4.61
511.099	4.47
511.449	4.48
511.798	4.45
512.147	4.55
512.496	4.57
512.846	4.53
513.195	4.44
513.544	4.56
513.893	4.56
514.242	4.61
514.591	4.53
514.939	4.57
515.288	4.61
515.637	4.63
515.986	4.64
516.334	4.6
516.683	4.5
517.032	4.6
517.38	4.73
517.729	4.71
518.077	4.5
518.426	4.58
518.774	4.57
519.122	4.51
519.47	4.45
519.819	4.53
520.167	4.52
520.515	4.47
520.863	4.51
521.211	4.55
521.559	4.47
521.907	4.69
522.255	4.63
522.602	4.64
522.95	4.65
523.298	4.66
523.645	4.58
523.993	4.66
524.341	4.63
524.688	4.75
525.036	4.72
525.383	4.6
525.73	4.54
526.078	4.58
526.425	4.5
526.772	4.58
527.119	4.55
527.466	4.43
527.814	4.43
528.161	4.41
528.508	4.52
528.854	4.49
529.201	4.47
529.548	4.42
529.895	4.37
530.242	4.29
530.588	4.29
530.935	4.27
531.282	4.42
531.628	4.39
531.975	4.47
532.321	4.46
532.667	4.47
533.014	4.55
533.36	4.49
533.706	4.51
534.052	4.51
534.399	4.43
534.745	4.44
535.091	4.38
535.437	4.39
535.783	4.39
536.129	4.48
536.474	4.53
536.82	4.59
537.166	4.56
537.512	4.6
537.857	4.54
538.203	4.42
538.549	4.49
538.894	4.53
539.239	4.49
539.585	4.49
539.93	4.6
540.276	4.62
540.621	4.63
540.966	4.52
541.311	4.7
541.656	4.52
542.001	4.57
542.346	4.52
542.691	4.42
543.036	4.3
543.381	4.35
543.726	4.42
544.071	4.43
544.415	4.47
544.76	4.47
545.105	4.51
545.449	4.55
545.794	4.53
546.138	4.56
546.483	4.59
546.827	4.64
547.171	4.53
547.516	4.47
547.86	4.55
548.204	4.59
548.548	4.55
548.892	4.52
549.236	4.62
549.58	4.65
549.924	4.59
550.268	4.79
550.612	4.63
550.956	4.76
551.3	4.77
551.643	4.74
551.987	4.62
552.33	4.54
552.674	4.64
553.017	4.59
553.361	4.65
553.704	4.69
554.048	4.64
554.391	4.6
554.734	4.6
555.077	4.65
555.42	4.7
555.764	4.65
556.107	4.64
556.45	4.62
556.793	4.73
557.135	4.61
557.478	4.73
557.821	4.61
558.164	4.72
558.507	4.54
558.849	4.58
559.192	4.56
559.534	4.57
559.877	4.74
560.219	4.85
560.562	4.83
560.904	4.52
561.246	4.67
561.589	4.59
561.931	4.64
562.273	4.74
562.615	4.52
562.957	4.65
563.299	4.73
563.641	4.55
563.983	4.71
564.325	4.54
564.667	4.65
565.008	4.57
565.35	4.71
565.692	4.53
566.033	4.85
566.375	4.72
566.716	4.58
567.058	4.43
567.399	4.7
567.741	4.7
568.082	4.5
568.423	4.72
568.764	4.63
569.105	4.67
569.447	4.63
569.788	4.52
570.129	4.66
570.47	4.59
570.811	4.65
571.151	4.69
571.492	4.78
571.833	4.8
572.174	4.6
572.514	4.77
572.855	4.61
573.195	4.67
573.536	4.64
573.876	4.56
574.217	4.52
574.557	4.62
574.898	4.58
575.238	4.74
575.578	4.56
575.918	4.53
576.258	4.65
576.598	4.76
576.938	4.66
577.278	4.72
577.618	4.64
577.958	4.73
578.298	4.8
578.638	4.69
578.977	4.47
579.317	4.64
579.657	4.71
579.996	4.71
580.336	4.63
580.675	4.63
581.014	4.62
581.354	4.65
581.693	4.48
582.032	4.77
582.372	4.71
582.711	4.73
583.05	4.63
583.389	4.72
583.728	4.69
584.067	4.75
584.406	4.74
584.745	4.56
585.083	4.75
585.422	4.6
585.761	4.81
586.1	4.42
586.438	4.69
586.777	4.85
587.115	4.74
587.454	4.71
587.792	4.85
588.13	4.72
588.469	4.86
588.807	4.86
589.145	4.96
589.483	4.7
589.821	4.57
590.159	4.53
590.497	4.8
590.835	4.63
591.173	4.84
591.511	4.88
591.849	4.54
592.187	4.7
592.524	4.72
592.862	4.79
593.2	4.72
593.537	4.4
593.875	4.7
594.212	4.79
594.55	4.68
594.887	4.72
595.224	4.83
595.561	4.9
595.899	4.76
596.236	4.75
596.573	4.58
596.91	4.67
597.247	4.59
597.584	4.63
597.921	4.62
598.258	4.73
598.594	4.59
598.931	4.78
599.268	4.56
599.604	4.75
599.941	4.55
600.277	4.55
600.614	4.71
600.95	4.77
601.287	4.88
601.623	4.79
601.959	4.68
602.296	4.71
602.632	4.46
602.968	4.67
603.304	4.69
603.64	4.6
603.976	4.7
604.312	4.6
604.648	4.42
604.984	4.83
605.319	4.83
605.655	4.53
605.991	4.61
606.326	4.58
606.662	4.62
606.998	4.71
607.333	4.72
607.668	4.67
608.004	4.78
608.339	4.81
608.674	4.82
609.01	4.42
609.345	4.55
609.68	4.82
610.015	4.68
610.35	4.76
610.685	4.46
611.02	4.84
611.355	4.57
611.689	4.73
612.024	4.77
612.359	4.51
612.694	4.65
613.028	4.77
613.363	4.81
613.697	4.92
614.032	4.79
614.366	4.57
614.7	4.7
615.035	5.02
615.369	4.79
615.703	4.66
616.037	4.83
616.371	4.59
616.705	4.82
617.039	4.63
617.373	4.7
617.707	4.83
618.041	4.76
618.375	4.9
618.709	4.85
619.042	4.65
619.376	4.52
619.71	4.88
620.043	4.99
620.377	4.69
620.71	4.94
621.043	4.76
621.377	4.9
621.71	5.03
622.043	4.61
622.376	4.68
622.709	4.79
623.043	4.66
623.376	4.75
623.709	4.93
624.041	4.92
624.374	4.62
624.707	4.47
625.04	4.58
625.373	4.8
625.705	4.8
626.038	4.72
626.37	4.8
626.703	5.06
627.035	4.74
627.368	4.68
627.7	4.8
628.032	4.72
628.365	5.06
628.697	4.87
629.029	4.84
629.361	4.71
629.693	4.57
630.025	4.76
630.357	4.33
630.689	4.84
631.021	4.75
631.353	4.65
631.684	4.93
632.016	4.66
632.348	4.66
632.679	5
633.011	4.7
633.342	4.48
633.674	4.81
634.005	5.3
634.336	4.65
634.668	4.36
634.999	4.52
635.33	4.63
635.661	4.83
635.992	4.69
636.323	4.87
636.654	5.12
636.985	5.09
637.316	4.87
637.647	4.79
637.977	4.89
638.308	4.57
638.639	4.56
638.969	4.78
639.3	4.58
639.63	4.7
639.961	5.02
640.291	4.93
640.622	4.8
640.952	4.65
641.282	4.96
641.612	4.82
641.943	4.9
642.273	4.68
642.603	4.71
642.933	4.54
643.263	4.79
643.592	4.86
643.922	4.61
644.252	4.68
644.582	5.01
644.911	5.17
645.241	5.18
645.571	4.57
645.9	4.78
646.23	4.82
646.559	4.83
646.888	5.07
647.218	4.68
647.547	5.15
647.876	4.4
648.205	4.96
648.534	4.69
648.863	4.54
649.192	4.99
649.521	5.3
649.85	4.55
650.179	4.88
650.508	5.32
650.837	4.71
651.165	4.95
651.494	5.04
651.822	4.7
652.151	4.98
652.479	5.01
652.808	4.96
653.136	4.97
653.465	5.17
653.793	5.3
654.121	5.29
654.449	4.91
654.777	4.7
655.105	5.06
655.433	4.57
655.761	4.83
656.089	4.49
656.417	4.91
656.745	4.83
657.073	5.17
657.4	4.86
657.728	5.13
658.056	4.63
658.383	4.98
658.711	5.39
659.038	4.96
659.365	4.57
659.693	4.72
660.02	5.61
660.347	5.01
660.674	4.91
661.001	5.22
661.329	4.69
661.656	5.05
661.982	5.27
662.309	5.07
662.636	4.97
662.963	4.88
663.29	5.22
663.616	5.12
663.943	5.28
664.27	5.06
664.596	5.21
664.923	5.06
665.249	5.04
665.576	5.3
665.902	4.58
666.228	5.08
666.554	5.25
666.881	4.84
667.207	4.52
667.533	5.32
667.859	4.83
668.185	5.44
668.511	5.08
668.837	4.51
669.162	5.29
669.488	4.83
669.814	4.65
670.139	5.22
670.465	5
670.791	4.6
671.116	5.17
671.442	4.81
671.767	5.1
672.092	4.66
672.418	5.15
672.743	4.78
673.068	4.82
673.393	5.05
673.718	5.11
674.043	5.24
674.368	4.96
674.693	5.15
675.018	5.32
675.343	5.24
675.667	4.89
675.992	4.82
676.317	5.2
676.641	5.18
676.966	4.71
677.29	4.8
677.615	5.71
677.939	5.28
678.264	4.67
678.588	6.08
678.912	5.88
679.236	5.66
679.56	5.76
679.885	5.54
680.209	5.13
680.532	4.74
680.856	5.59
681.18	5.18
681.504	4.65
681.828	4.65
682.152	5.69
682.475	5.05
682.799	4.96
683.122	5
683.446	5.21
683.769	5.49
684.093	5.05
684.416	5.04
684.739	4.76
685.062	5.29
685.386	5.38
685.709	5.07
686.032	5.24
686.355	4.99
686.678	5.04
687.001	5.46
687.324	5.11
687.646	5.15
687.969	4.71
688.292	4.9
688.614	5.1
688.937	4.38
689.26	5.13
689.582	5.55
689.904	5.16
690.227	4.87
690.549	5.25
690.871	4.65
691.194	5.43
691.516	5.43
691.838	5.07
692.16	4.71
692.482	5.38
692.804	5.35
