Data from 002-16_crown_Reflection__3__149.txt Node

Date: Fri Nov 11 17:14:58 CST 2022
User: ToomeyLab
Spectrometer: FLMS14357
Trigger mode: 0
Integration Time (sec): 1.000000E-2
Scans to average: 100
Electric dark correction enabled: true
Nonlinearity correction enabled: false
Boxcar width: 0
XAxis mode: Wavelengths
Number of Pixels in Spectrum: 2048
>>>>>Begin Spectral Data<<<<<
189.047	174.05
189.435	174.05
189.823	174.05
190.211	340.1
190.599	-6.32
190.987	-192.15
191.375	2727.59
191.763	137.61
192.151	36.76
192.538	-4.74
192.926	-177.67
193.314	-255.1
193.702	580.28
194.089	-209.03
194.477	33.75
194.864	557.61
195.252	888.44
195.639	53.85
196.027	49.38
196.414	237.65
196.801	25172.73
197.189	344.83
197.576	246.64
197.963	-67.77
198.351	-41.66
198.738	-132.49
199.125	18.4
199.512	17.49
199.899	-16.93
200.286	19.24
200.673	-18.51
201.06	-68.85
201.447	15.33
201.833	8.85
202.22	36.94
202.607	29.22
202.994	26.27
203.38	-9
203.767	7.56
204.154	-41.57
204.54	36.26
204.927	12.39
205.313	25.96
205.699	3.32
206.086	2.22
206.472	8.43
206.858	2.88
207.245	-13.41
207.631	23.05
208.017	-53.46
208.403	6.51
208.789	-133.83
209.175	-2.49
209.561	7.24
209.947	-36.37
210.333	-4.74
210.719	2.47
211.105	-26.08
211.491	-168.74
211.876	7.89
212.262	-0.75
212.648	-11.46
213.034	-2.69
213.419	-1.36
213.805	-6.29
214.19	-25.35
214.576	5.52
214.961	12.93
215.346	-80.44
215.732	-81.51
216.117	1.5
216.502	-10.04
216.888	-21.92
217.273	13.46
217.658	-19.13
218.043	-39.56
218.428	-38.09
218.813	25.01
219.198	-39.22
219.583	-18.63
219.968	10.23
220.353	-52.39
220.738	24.79
221.122	-33.91
221.507	10.27
221.892	10.25
222.276	-16.68
222.661	-6.11
223.046	15.53
223.43	-4.04
223.815	0.14
224.199	1.41
224.583	-1.55
224.968	11.73
225.352	-7.01
225.736	2.26
226.121	3.14
226.505	9.86
226.889	1.68
227.273	1.56
227.657	-3.06
228.041	-2.99
228.425	3.79
228.809	7.57
229.193	-0.58
229.577	3.52
229.961	2.26
230.344	3.91
230.728	3.78
231.112	3.41
231.495	3.64
231.879	3.07
232.263	1.3
232.646	2.11
233.03	1.96
233.413	1.46
233.797	1.96
234.18	4.86
234.563	4.59
234.946	1.6
235.33	2.1
235.713	1.19
236.096	1.58
236.479	2.9
236.862	3.84
237.245	2.57
237.628	2.76
238.011	2.52
238.394	3.67
238.777	3.14
239.16	1.97
239.543	4.32
239.925	6.2
240.308	1.47
240.691	1.88
241.073	-0.01
241.456	2.37
241.838	3.74
242.221	2.22
242.603	2.22
242.986	2.34
243.368	3.16
243.75	3.34
244.133	2.91
244.515	3.61
244.897	2.59
245.279	3.1
245.661	3.07
246.043	2.85
246.425	4.24
246.807	2.42
247.189	2.34
247.571	2.05
247.953	3.29
248.335	3.63
248.717	3.12
249.098	2.9
249.48	3.29
249.862	2.81
250.243	3.3
250.625	3.46
251.006	3.1
251.388	2.66
251.769	3.4
252.151	2.33
252.532	2.73
252.913	2.59
253.295	2.33
253.676	2.77
254.057	2.99
254.438	3.19
254.819	2.75
255.2	2.47
255.581	3.18
255.962	3.46
256.343	3.38
256.724	2.47
257.105	3.44
257.486	3.32
257.867	2.07
258.247	2.86
258.628	1.99
259.009	2.88
259.389	2.74
259.77	3.8
260.15	3.48
260.531	2.5
260.911	2.8
261.292	2.94
261.672	2.63
262.052	2.89
262.432	3.07
262.813	3
263.193	2.99
263.573	3.09
263.953	2.47
264.333	3.16
264.713	2.52
265.093	2.32
265.473	3.57
265.853	2.06
266.233	2.42
266.612	1.7
266.992	3.13
267.372	3
267.752	3.23
268.131	2.68
268.511	2.7
268.89	2.87
269.27	2.36
269.649	2.41
270.029	1.56
270.408	2.7
270.787	3.65
271.167	2.6
271.546	3.44
271.925	2.64
272.304	3.29
272.683	2.96
273.062	2.65
273.441	2.55
273.82	2.32
274.199	2.87
274.578	3.17
274.957	2.38
275.336	2.63
275.715	2.54
276.093	3.18
276.472	2.18
276.851	2.58
277.229	2.92
277.608	2.61
277.986	2.68
278.365	3.08
278.743	2.92
279.122	1.91
279.5	2
279.878	2.31
280.257	3.27
280.635	3.06
281.013	2.77
281.391	2.66
281.769	3.31
282.147	2.36
282.525	2.13
282.903	2.89
283.281	2.64
283.659	2.37
284.037	2.86
284.415	2.29
284.792	2.67
285.17	2.44
285.548	2.7
285.925	2.59
286.303	2.56
286.68	2.6
287.058	2.71
287.435	2.7
287.813	2.56
288.19	2.7
288.567	2.91
288.945	2.15
289.322	2.53
289.699	2.73
290.076	2.33
290.453	2.49
290.83	2.68
291.207	2.44
291.584	2.61
291.961	2.52
292.338	2.78
292.715	2.96
293.092	2.82
293.469	2.8
293.845	3.2
294.222	3.08
294.599	2.91
294.975	2.42
295.352	2
295.728	2.64
296.105	2.45
296.481	2.45
296.858	2.41
297.234	2.74
297.61	2.99
297.986	2.48
298.363	2.75
298.739	2.78
299.115	2.6
299.491	2.4
299.867	2.33
300.243	2.65
300.619	2.83
300.995	2.55
301.371	2.28
301.746	2.7
302.122	2.27
302.498	2.06
302.874	3.03
303.249	3.13
303.625	2.48
304	2.12
304.376	2.73
304.751	3.46
305.127	2.83
305.502	2.55
305.878	3.24
306.253	2.97
306.628	2.82
307.003	2.47
307.378	3.08
307.754	2.73
308.129	2.89
308.504	2.67
308.879	2.4
309.254	2.16
309.629	2.6
310.003	2.28
310.378	2.46
310.753	2.14
311.128	3.04
311.502	2.41
311.877	3.2
312.252	2.2
312.626	2.7
313.001	2.69
313.375	2.83
313.75	2.73
314.124	2.94
314.498	2.81
314.873	2.82
315.247	2.91
315.621	2.26
315.995	2.72
316.369	3.02
316.743	2.98
317.117	2.78
317.491	3.1
317.865	2.56
318.239	2.93
318.613	2.53
318.987	2.81
319.361	2.57
319.734	2.2
320.108	2.88
320.482	2.28
320.855	2.56
321.229	3.21
321.602	2.62
321.976	2.59
322.349	2.92
322.723	2.86
323.096	3.35
323.469	3.28
323.843	3.14
324.216	2.57
324.589	3.26
324.962	2.5
325.335	3.17
325.708	3.15
326.081	2.76
326.454	2.92
326.827	3.16
327.2	2.76
327.573	3.39
327.945	2.86
328.318	3.39
328.691	3.47
329.063	3.24
329.436	2.99
329.809	2.33
330.181	3.13
330.553	2.85
330.926	2.72
331.298	3.19
331.671	3.17
332.043	3.69
332.415	2.84
332.787	3.16
333.159	3.59
333.532	2.7
333.904	2.99
334.276	3.04
334.648	2.48
335.02	3.16
335.391	3.28
335.763	3.23
336.135	2.95
336.507	3.41
336.879	3.31
337.25	2.99
337.622	3.04
337.993	2.82
338.365	3.03
338.736	3.36
339.108	2.98
339.479	3.52
339.851	2.64
340.222	2.95
340.593	2.98
340.964	3.19
341.336	3.17
341.707	3.23
342.078	2.82
342.449	3.03
342.82	3.13
343.191	3.49
343.562	3.22
343.933	2.64
344.303	3.52
344.674	3.5
345.045	3.24
345.416	3.51
345.786	3.34
346.157	3.2
346.527	3.37
346.898	3.01
347.268	3.29
347.639	3.39
348.009	3.38
348.38	3.38
348.75	3.88
349.12	3.62
349.49	3.25
349.861	2.87
350.231	3.25
350.601	3.84
350.971	3.4
351.341	3.5
351.711	3.22
352.081	2.8
352.45	3.3
352.82	3.37
353.19	3.39
353.56	3.29
353.929	4
354.299	3.27
354.669	3.42
355.038	3.45
355.408	3.34
355.777	3.42
356.147	3.31
356.516	3.58
356.885	3.59
357.254	3.23
357.624	3.96
357.993	3.58
358.362	3.66
358.731	3.49
359.1	2.98
359.469	3.46
359.838	3.41
360.207	3.81
360.576	3.57
360.945	3.6
361.314	3.63
361.682	3.59
362.051	3.5
362.42	3.44
362.788	3.39
363.157	3.7
363.525	3.74
363.894	3.58
364.262	3.41
364.631	3.43
364.999	3.71
365.367	4.02
365.735	3.86
366.104	3.55
366.472	3.66
366.84	3.56
367.208	3.42
367.576	3.84
367.944	3.91
368.312	3.82
368.68	3.95
369.048	3.71
369.416	3.46
369.783	3.38
370.151	3.78
370.519	4.07
370.886	3.67
371.254	3.78
371.621	4.14
371.989	3.51
372.356	3.58
372.724	3.89
373.091	3.85
373.458	3.69
373.826	4.04
374.193	3.94
374.56	3.8
374.927	4.08
375.294	4.05
375.661	4.28
376.028	3.71
376.395	4.26
376.762	3.92
377.129	3.9
377.496	3.86
377.863	3.99
378.229	4.08
378.596	3.5
378.963	3.72
379.329	3.87
379.696	3.89
380.062	3.87
380.429	3.8
380.795	3.9
381.161	4.19
381.528	3.97
381.894	3.71
382.26	4.12
382.626	3.89
382.993	3.97
383.359	4.04
383.725	4.07
384.091	3.97
384.457	3.98
384.823	3.86
385.188	3.88
385.554	4.11
385.92	3.67
386.286	3.91
386.651	3.56
387.017	3.85
387.383	3.99
387.748	3.95
388.114	3.84
388.479	4.17
388.845	4
389.21	3.92
389.575	3.84
389.94	4.1
390.306	3.82
390.671	3.96
391.036	4.22
391.401	4.25
391.766	3.84
392.131	3.92
392.496	4.33
392.861	4
393.226	4.15
393.591	3.99
393.956	4.28
394.32	4.29
394.685	4.23
395.05	4.36
395.414	4.33
395.779	4.19
396.143	4.19
396.508	3.81
396.872	4.31
397.236	4.11
397.601	4.05
397.965	4.32
398.329	4.19
398.694	4.12
399.058	4.15
399.422	4.12
399.786	4.04
400.15	4.28
400.514	4.15
400.878	4.38
401.242	4.23
401.605	4.25
401.969	4.39
402.333	4.23
402.697	4.18
403.06	4.08
403.424	4.09
403.787	4.26
404.151	4.08
404.514	4.12
404.878	4.33
405.241	4.1
405.604	4.11
405.968	4.34
406.331	4.34
406.694	4.26
407.057	4.25
407.42	4.21
407.783	4.18
408.146	4.58
408.509	4.34
408.872	4.51
409.235	4.19
409.598	4.39
409.961	4.47
410.323	4.4
410.686	4.72
411.049	4.52
411.411	4.43
411.774	4.44
412.136	4.48
412.499	4.67
412.861	4.4
413.223	4.54
413.586	4.61
413.948	4.69
414.31	4.95
414.672	4.97
415.035	4.86
415.397	5.14
415.759	4.79
416.121	4.99
416.483	5.02
416.845	4.91
417.206	5.05
417.568	4.95
417.93	4.98
418.292	4.77
418.653	4.88
419.015	4.87
419.377	4.98
419.738	4.99
420.1	4.91
420.461	4.93
420.822	4.8
421.184	4.85
421.545	4.87
421.906	4.89
422.267	4.98
422.629	4.86
422.99	4.76
423.351	4.73
423.712	4.8
424.073	4.78
424.434	4.85
424.795	4.96
425.155	4.98
425.516	4.91
425.877	4.97
426.238	4.79
426.598	4.78
426.959	4.76
427.32	4.92
427.68	5.01
428.041	5.09
428.401	4.85
428.761	5.03
429.122	5.14
429.482	5.24
429.842	5.15
430.202	5.26
430.563	5.27
430.923	5.19
431.283	5.22
431.643	5.29
432.003	5.33
432.363	5.27
432.722	5.44
433.082	5.3
433.442	5.42
433.802	5.33
434.161	5.29
434.521	5.36
434.881	5.18
435.24	5.31
435.6	5.12
435.959	5.19
436.319	5.26
436.678	5.23
437.037	5.3
437.396	5.32
437.756	5.38
438.115	5.37
438.474	5.31
438.833	5.34
439.192	5.47
439.551	5.27
439.91	5.47
440.269	5.43
440.628	5.43
440.987	5.63
441.345	5.39
441.704	5.32
442.063	5.32
442.421	5.23
442.78	5.17
443.138	5.19
443.497	5.25
443.855	5.3
444.214	5.3
444.572	5.39
444.93	5.48
445.288	5.62
445.647	5.33
446.005	5.49
446.363	5.4
446.721	5.28
447.079	5.39
447.437	5.27
447.795	5.11
448.153	5.19
448.51	5.23
448.868	5.2
449.226	5.19
449.584	5.23
449.941	5.26
450.299	5.24
450.656	5.45
451.014	5.45
451.371	5.25
451.729	5.42
452.086	5.29
452.443	5.54
452.801	5.53
453.158	5.4
453.515	5.47
453.872	5.46
454.229	5.34
454.586	5.32
454.943	5.25
455.3	5.31
455.657	5.5
456.014	5.33
456.371	5.38
456.727	5.41
457.084	5.53
457.441	5.47
457.797	5.45
458.154	5.5
458.51	5.37
458.867	5.44
459.223	5.45
459.58	5.4
459.936	5.6
460.292	5.39
460.648	5.32
461.005	5.37
461.361	5.28
461.717	5.23
462.073	5.29
462.429	5.32
462.785	5.24
463.141	5.36
463.496	5.34
463.852	5.52
464.208	5.48
464.564	5.5
464.919	5.46
465.275	5.59
465.631	5.65
465.986	5.43
466.342	5.6
466.697	5.57
467.052	5.58
467.408	5.57
467.763	5.55
468.118	5.43
468.473	5.43
468.829	5.72
469.184	5.67
469.539	5.67
469.894	5.61
470.249	5.55
470.603	5.58
470.958	5.72
471.313	5.54
471.668	5.59
472.023	5.83
472.377	5.7
472.732	5.81
473.086	5.6
473.441	5.52
473.795	5.79
474.15	5.71
474.504	5.8
474.859	5.77
475.213	5.61
475.567	5.8
475.921	5.85
476.275	5.78
476.63	5.62
476.984	5.77
477.338	5.81
477.692	5.71
478.045	5.71
478.399	5.56
478.753	5.88
479.107	5.57
479.461	5.78
479.814	5.67
480.168	5.7
480.521	5.74
480.875	5.73
481.228	5.71
481.582	5.64
481.935	5.73
482.289	5.77
482.642	5.69
482.995	5.63
483.348	5.58
483.701	5.62
484.055	5.45
484.408	5.49
484.761	5.38
485.114	5.24
485.466	5.16
485.819	5.24
486.172	5.14
486.525	5.16
486.878	5.23
487.23	5.37
487.583	5.31
487.936	5.4
488.288	5.4
488.641	5.42
488.993	5.29
489.345	5.25
489.698	5.29
490.05	5.2
490.402	5.26
490.754	5.31
491.107	5.44
491.459	5.48
491.811	5.51
492.163	5.6
492.515	5.51
492.866	5.5
493.218	5.34
493.57	5.32
493.922	5.37
494.274	5.45
494.625	5.36
494.977	5.43
495.328	5.56
495.68	5.58
496.031	5.62
496.383	5.78
496.734	5.74
497.086	5.77
497.437	5.71
497.788	5.78
498.139	5.69
498.49	5.75
498.842	5.73
499.193	5.65
499.544	5.66
499.894	5.75
500.245	5.73
500.596	5.77
500.947	5.71
501.298	5.78
501.648	5.79
501.999	5.74
502.35	5.85
502.7	5.82
503.051	5.7
503.401	5.73
503.752	5.7
504.102	5.71
504.452	5.85
504.803	5.78
505.153	5.88
505.503	5.82
505.853	5.83
506.203	5.82
506.553	5.91
506.903	5.7
507.253	5.9
507.603	5.86
507.953	5.76
508.303	5.92
508.652	5.66
509.002	5.79
509.352	5.78
509.701	5.88
510.051	5.8
510.4	5.67
510.75	5.85
511.099	5.74
511.449	5.71
511.798	5.68
512.147	5.69
512.496	5.71
512.846	5.67
513.195	5.73
513.544	5.81
513.893	5.82
514.242	5.8
514.591	5.75
514.939	5.7
515.288	5.78
515.637	5.78
515.986	5.87
516.334	5.81
516.683	5.92
517.032	5.75
517.38	5.84
517.729	5.89
518.077	5.76
518.426	5.86
518.774	5.76
519.122	5.77
519.47	5.68
519.819	5.79
520.167	5.73
520.515	5.68
520.863	5.73
521.211	5.66
521.559	5.75
521.907	5.72
522.255	5.8
522.602	5.79
522.95	5.71
523.298	5.8
523.645	5.77
523.993	5.75
524.341	5.84
524.688	5.75
525.036	5.91
525.383	5.63
525.73	5.73
526.078	5.73
526.425	5.8
526.772	5.82
527.119	5.75
527.466	5.66
527.814	5.63
528.161	5.58
528.508	5.61
528.854	5.64
529.201	5.62
529.548	5.66
529.895	5.51
530.242	5.51
530.588	5.46
530.935	5.4
531.282	5.45
531.628	5.42
531.975	5.48
532.321	5.52
532.667	5.54
533.014	5.63
533.36	5.52
533.706	5.67
534.052	5.66
534.399	5.64
534.745	5.67
535.091	5.54
535.437	5.53
535.783	5.47
536.129	5.58
536.474	5.65
536.82	5.65
537.166	5.69
537.512	5.75
537.857	5.8
538.203	5.67
538.549	5.62
538.894	5.67
539.239	5.67
539.585	5.57
539.93	5.78
540.276	5.78
540.621	5.76
540.966	5.78
541.311	5.83
541.656	5.68
542.001	5.79
542.346	5.8
542.691	5.63
543.036	5.55
543.381	5.5
543.726	5.53
544.071	5.54
544.415	5.62
544.76	5.52
545.105	5.7
545.449	5.69
545.794	5.66
546.138	5.69
546.483	5.73
546.827	5.84
547.171	5.71
547.516	5.67
547.86	5.76
548.204	5.8
548.548	5.7
548.892	5.78
549.236	5.78
549.58	5.77
549.924	5.72
550.268	5.89
550.612	5.93
550.956	5.73
551.3	6.02
551.643	5.95
551.987	5.99
552.33	5.94
552.674	5.87
553.017	5.91
553.361	5.96
553.704	5.9
554.048	5.92
554.391	5.97
554.734	5.81
555.077	6
555.42	5.9
555.764	5.98
556.107	5.93
556.45	5.77
556.793	5.99
557.135	5.85
557.478	5.84
557.821	6.08
558.164	5.96
558.507	5.79
558.849	6.02
559.192	5.97
559.534	5.93
559.877	6.01
560.219	6.01
560.562	6.07
560.904	5.76
561.246	5.94
561.589	6.06
561.931	5.96
562.273	6.03
562.615	6.02
562.957	5.9
563.299	6.04
563.641	5.91
563.983	5.9
564.325	5.7
564.667	5.98
565.008	5.85
565.35	5.89
565.692	5.84
566.033	6.16
566.375	6.03
566.716	5.96
567.058	5.79
567.399	5.85
567.741	5.96
568.082	5.89
568.423	5.91
568.764	5.94
569.105	5.94
569.447	5.91
569.788	5.92
570.129	5.98
570.47	5.92
570.811	5.9
571.151	5.98
571.492	5.94
571.833	6.02
572.174	5.98
572.514	5.99
572.855	5.95
573.195	5.97
573.536	5.93
573.876	5.96
574.217	5.79
574.557	5.82
574.898	5.97
575.238	6.01
575.578	5.96
575.918	5.95
576.258	6.01
576.598	6.11
576.938	5.98
577.278	6.14
577.618	6.05
577.958	6.04
578.298	5.97
578.638	5.97
578.977	5.93
579.317	5.94
579.657	5.94
579.996	6.12
580.336	6.09
580.675	5.98
581.014	6.13
581.354	6.06
581.693	5.89
582.032	6.22
582.372	6.32
582.711	6.04
583.05	6
583.389	6.27
583.728	6.07
584.067	6.23
584.406	6
584.745	5.94
585.083	6.17
585.422	6.05
585.761	6.27
586.1	6.14
586.438	5.98
586.777	6.19
587.115	5.92
587.454	6.1
587.792	6.01
588.13	6.35
588.469	6.06
588.807	6.28
589.145	6.38
589.483	6.08
589.821	5.94
590.159	6.07
590.497	6.13
590.835	6.08
591.173	6.16
591.511	6.37
591.849	6.14
592.187	6.23
592.524	6.11
592.862	6.29
593.2	6.1
593.537	5.99
593.875	6.19
594.212	6.06
594.55	6.22
594.887	6.02
595.224	6.15
595.561	6.09
595.899	6.13
596.236	6.14
596.573	6.05
596.91	6.3
597.247	5.99
597.584	5.96
597.921	6.16
598.258	6.32
598.594	6.12
598.931	6.27
599.268	6.14
599.604	6.21
599.941	5.92
600.277	6.12
600.614	6.11
600.95	6.25
601.287	6.25
601.623	5.91
601.959	6.03
602.296	6.1
602.632	6.09
602.968	6.36
603.304	6.18
603.64	6.29
603.976	6.33
604.312	6.2
604.648	5.98
604.984	6.46
605.319	6.21
605.655	6.01
605.991	6.27
606.326	6.15
606.662	6.01
606.998	6.26
607.333	6.23
607.668	6.21
608.004	6.12
608.339	6.28
608.674	6.28
609.01	6.22
609.345	6.11
609.68	6.45
610.015	6.33
610.35	6.33
610.685	6.55
611.02	6.38
611.355	6.03
611.689	6.26
612.024	6.3
612.359	6.17
612.694	6.13
613.028	6.28
613.363	6.52
613.697	6.36
614.032	6.27
614.366	5.93
614.7	6.44
615.035	6.38
615.369	6.57
615.703	6.31
616.037	6.24
616.371	6.31
616.705	6.41
617.039	6.4
617.373	6.47
617.707	6.43
618.041	5.85
618.375	6.44
618.709	6.37
619.042	6.38
619.376	6.41
619.71	6.34
620.043	6.42
620.377	6.4
620.71	6.23
621.043	6.19
621.377	6.51
621.71	6.48
622.043	6.37
622.376	6.44
622.709	6.03
623.043	6.18
623.376	6.33
623.709	6.47
624.041	6.42
624.374	6.07
624.707	6.43
625.04	6.46
625.373	6.36
625.705	6.22
626.038	6.41
626.37	6.26
626.703	6.43
627.035	6.32
627.368	6.31
627.7	6.1
628.032	6.46
628.365	6.6
628.697	6.55
629.029	6.28
629.361	6.43
629.693	6.25
630.025	6.44
630.357	6.07
630.689	6.24
631.021	6.11
631.353	6.42
631.684	6.43
632.016	6.3
632.348	6.45
632.679	6.44
633.011	6.33
633.342	6.18
633.674	6.32
634.005	6.52
634.336	6.53
634.668	6.28
634.999	6.16
635.33	6.3
635.661	6.67
635.992	6.47
636.323	6.7
636.654	6.75
636.985	6.61
637.316	6.52
637.647	6.23
637.977	6.35
638.308	6.31
638.639	6.48
638.969	6.75
639.3	6.42
639.63	6.46
639.961	6.43
640.291	6.36
640.622	6.55
640.952	6.52
641.282	6.47
641.612	6.57
641.943	6.81
642.273	6.75
642.603	6.57
642.933	6.51
643.263	6.3
643.592	7.01
643.922	6.3
644.252	6.68
644.582	6.57
644.911	6.84
645.241	6.4
645.571	6.74
645.9	5.99
646.23	6.54
646.559	6.35
646.888	6.42
647.218	6.3
647.547	6.65
647.876	6.63
648.205	6.51
648.534	6.69
648.863	6.72
649.192	6.81
649.521	6.67
649.85	6.51
650.179	6.33
650.508	6.47
650.837	6.5
651.165	6.84
651.494	6.7
651.822	6.1
652.151	6.52
652.479	6.79
652.808	6.44
653.136	6.43
653.465	6.96
653.793	6.82
654.121	6.72
654.449	6.43
654.777	6.65
655.105	6.65
655.433	6.29
655.761	6.38
656.089	6.52
656.417	6.74
656.745	6.83
657.073	6.58
657.4	6.48
657.728	6.83
658.056	6.1
658.383	6.73
658.711	7.13
659.038	6.56
659.365	6.54
659.693	6.65
660.02	6.64
660.347	6.82
660.674	6.44
661.001	6.97
661.329	6.63
661.656	6.71
661.982	6.83
662.309	6.83
662.636	6.88
662.963	6.6
663.29	6.99
663.616	6.82
663.943	6.72
664.27	6.88
664.596	6.71
664.923	7.29
665.249	6.9
665.576	6.77
665.902	6.55
666.228	7.02
666.554	6.3
666.881	6.01
667.207	6.36
667.533	6.73
667.859	6.11
668.185	6.83
668.511	6.84
668.837	6.96
669.162	6.81
669.488	6.85
669.814	6.35
670.139	7.06
670.465	7.1
670.791	6.41
671.116	6.39
671.442	6.48
671.767	6.38
672.092	6.54
672.418	7.07
672.743	6.89
673.068	6.4
673.393	6.03
673.718	6.73
674.043	7.19
674.368	6.47
674.693	6.97
675.018	6.48
675.343	7.03
675.667	7.03
675.992	6.89
676.317	6.96
676.641	7.12
676.966	6.26
677.29	6.05
677.615	7.3
677.939	6.96
678.264	6.6
678.588	7.18
678.912	7.23
679.236	6.7
679.56	7.21
679.885	7.4
680.209	6.6
680.532	6.49
680.856	7.15
681.18	6.76
681.504	6.99
681.828	6.62
682.152	7.37
682.475	6.93
682.799	6.99
683.122	6.76
683.446	6.82
683.769	7.06
684.093	6.91
684.416	7.25
684.739	6.78
685.062	6.47
685.386	7.06
685.709	6.69
686.032	6.19
686.355	6.7
686.678	7.27
687.001	7.61
687.324	6.92
687.646	6.9
687.969	6.12
688.292	6.42
688.614	6.43
688.937	6.41
689.26	7.07
689.582	7.2
689.904	6.85
690.227	7.03
690.549	7.04
690.871	7.58
691.194	6.57
691.516	7.5
691.838	7.2
692.16	6.8
692.482	6.41
