Data from 002-16_chest_Reflection__3__144.txt Node

Date: Fri Nov 11 17:13:13 CST 2022
User: ToomeyLab
Spectrometer: FLMS14357
Trigger mode: 0
Integration Time (sec): 1.000000E-2
Scans to average: 100
Electric dark correction enabled: true
Nonlinearity correction enabled: false
Boxcar width: 0
XAxis mode: Wavelengths
Number of Pixels in Spectrum: 2048
>>>>>Begin Spectral Data<<<<<
189.047	72.83
189.435	72.83
189.823	72.83
190.211	511.24
190.599	47.98
190.987	294.98
191.375	18.23
191.763	-1.61
192.151	33.79
192.538	27.17
192.926	50.88
193.314	611.84
193.702	67.72
194.089	-212.81
194.477	-91.57
194.864	44.91
195.252	555.69
195.639	69.74
196.027	59.48
196.414	147.99
196.801	43245.45
197.189	-15.68
197.576	173.93
197.963	36.53
198.351	15.4
198.738	-120.77
199.125	13.89
199.512	23.96
199.899	40.06
200.286	32.41
200.673	13.62
201.06	-25.07
201.447	20.78
201.833	1.31
202.22	35.02
202.607	29.43
202.994	22.64
203.38	-6.88
203.767	11.86
204.154	-47.37
204.54	14.62
204.927	-40.08
205.313	5.42
205.699	-24.16
206.086	19.04
206.472	4.34
206.858	-7.47
207.245	23.38
207.631	16.22
208.017	-2.61
208.403	3.23
208.789	-78.41
209.175	-21.96
209.561	-1.65
209.947	20.71
210.333	43.75
210.719	9.43
211.105	24.73
211.491	-137.82
211.876	0.85
212.262	-50.39
212.648	-15.49
213.034	-23.66
213.419	-9.73
213.805	-7.29
214.19	-46.78
214.576	22.56
214.961	38.91
215.346	-51.12
215.732	-54.71
216.117	19.93
216.502	-43.13
216.888	-11.55
217.273	-44.89
217.658	2.14
218.043	-54.47
218.428	-14.6
218.813	18.31
219.198	-33.44
219.583	11.02
219.968	14.38
220.353	-41.27
220.738	-28.82
221.122	-13.24
221.507	18.74
221.892	-9.49
222.276	-0.41
222.661	-0.53
223.046	12.53
223.43	0.34
223.815	13.72
224.199	-0.09
224.583	-9.69
224.968	7.67
225.352	-5.08
225.736	-0.05
226.121	-0.67
226.505	9.66
226.889	3.9
227.273	-3.41
227.657	-5.26
228.041	-0.38
228.425	2.32
228.809	9.44
229.193	-1.95
229.577	4.44
229.961	3.83
230.344	4.41
230.728	4.42
231.112	4.66
231.495	4.33
231.879	3.22
232.263	1.92
232.646	2.99
233.03	3.43
233.413	1.52
233.797	3.21
234.18	3.61
234.563	5.13
234.946	1.79
235.33	3.92
235.713	4.84
236.096	1.06
236.479	3.24
236.862	5.92
237.245	5.2
237.628	3.43
238.011	3.87
238.394	2.91
238.777	3.29
239.16	3.03
239.543	4.19
239.925	4.95
240.308	2.75
240.691	1.88
241.073	2.58
241.456	2.09
241.838	4.76
242.221	4.81
242.603	2.9
242.986	3.72
243.368	3.54
243.75	3.63
244.133	4.37
244.515	3.96
244.897	3.72
245.279	3.95
245.661	3.96
246.043	4.81
246.425	4.66
246.807	3.83
247.189	3.39
247.571	3.53
247.953	3.93
248.335	4.28
248.717	3.95
249.098	4.01
249.48	4.17
249.862	4.09
250.243	3.76
250.625	3.81
251.006	4.27
251.388	3.99
251.769	4.52
252.151	3.99
252.532	4.89
252.913	4.32
253.295	3.55
253.676	3.72
254.057	3.97
254.438	4.21
254.819	3.76
255.2	3.42
255.581	3.31
255.962	4.71
256.343	4.43
256.724	4.41
257.105	4.11
257.486	3.96
257.867	3.11
258.247	3.66
258.628	3.27
259.009	4.05
259.389	4.03
259.77	4.99
260.15	3.86
260.531	3.39
260.911	3.8
261.292	3.92
261.672	3.95
262.052	3.71
262.432	4.35
262.813	4.07
263.193	3.31
263.573	4.54
263.953	3.89
264.333	3.82
264.713	2.93
265.093	4.14
265.473	3.75
265.853	2.87
266.233	2.92
266.612	3.37
266.992	3.82
267.372	4.14
267.752	3.76
268.131	3.99
268.511	3.82
268.89	3.64
269.27	2.95
269.649	3.48
270.029	3.09
270.408	3.21
270.787	4.35
271.167	3.48
271.546	4.4
271.925	4.15
272.304	3.98
272.683	3.66
273.062	3.68
273.441	3.93
273.82	3.12
274.199	3.68
274.578	3.92
274.957	3.17
275.336	4.08
275.715	3.42
276.093	4.03
276.472	2.98
276.851	3.75
277.229	3.29
277.608	3.63
277.986	3.73
278.365	4.42
278.743	3.4
279.122	3.96
279.5	3.46
279.878	2.7
280.257	4.08
280.635	3.34
281.013	3.23
281.391	3.54
281.769	4.29
282.147	3.35
282.525	3.67
282.903	3.69
283.281	3.12
283.659	3.68
284.037	3.52
284.415	3.48
284.792	4.28
285.17	3.59
285.548	4.18
285.925	3.43
286.303	3.54
286.68	3.86
287.058	3.46
287.435	3.66
287.813	3.66
288.19	3.68
288.567	3.77
288.945	3.26
289.322	3.51
289.699	3.74
290.076	3.99
290.453	3.68
290.83	4.14
291.207	3.89
291.584	3.06
291.961	3.83
292.338	3.95
292.715	3.86
293.092	3.81
293.469	3.57
293.845	4.01
294.222	4.33
294.599	4.16
294.975	3.54
295.352	3.41
295.728	3.86
296.105	3.79
296.481	3.56
296.858	3.81
297.234	3.93
297.61	3.77
297.986	3.51
298.363	4.04
298.739	4.14
299.115	3.92
299.491	4.34
299.867	3.9
300.243	3.6
300.619	3.85
300.995	3.81
301.371	3.84
301.746	4.34
302.122	3.79
302.498	3.51
302.874	3.93
303.249	3.89
303.625	4
304	3.95
304.376	4.03
304.751	4.38
305.127	3.98
305.502	4.25
305.878	4.26
306.253	3.94
306.628	4.48
307.003	3.77
307.378	4.54
307.754	4.24
308.129	4.05
308.504	4.22
308.879	3.5
309.254	3.35
309.629	3.71
310.003	3.61
310.378	3.58
310.753	3.63
311.128	4.44
311.502	3.49
311.877	4.48
312.252	3.3
312.626	3.82
313.001	4.28
313.375	3.97
313.75	4.35
314.124	3.86
314.498	4.13
314.873	3.98
315.247	4.06
315.621	3.64
315.995	3.59
316.369	4.31
316.743	4.07
317.117	3.64
317.491	3.99
317.865	4.43
318.239	4.27
318.613	3.77
318.987	4.43
319.361	3.78
319.734	3.28
320.108	4.3
320.482	3.38
320.855	4.03
321.229	4.66
321.602	3.96
321.976	3.64
322.349	4.08
322.723	3.94
323.096	4.04
323.469	3.83
323.843	4.42
324.216	3.9
324.589	3.96
324.962	3.56
325.335	4.57
325.708	4.59
326.081	3.75
326.454	4.13
326.827	3.95
327.2	3.47
327.573	3.64
327.945	3.79
328.318	4.3
328.691	3.94
329.063	4.42
329.436	4.07
329.809	3.61
330.181	4.21
330.553	4.14
330.926	3.67
331.298	4.05
331.671	3.97
332.043	4.23
332.415	4.7
332.787	4.01
333.159	4.11
333.532	3.76
333.904	3.95
334.276	4.3
334.648	3.63
335.02	4.4
335.391	4.15
335.763	3.92
336.135	4.13
336.507	4.36
336.879	3.98
337.25	3.31
337.622	4.44
337.993	4.12
338.365	4.36
338.736	4.12
339.108	4.01
339.479	4.54
339.851	3.69
340.222	3.65
340.593	3.74
340.964	3.82
341.336	4.03
341.707	3.87
342.078	3.68
342.449	4.29
342.82	3.78
343.191	4.31
343.562	4.07
343.933	3.81
344.303	4.65
344.674	3.9
345.045	4.31
345.416	3.88
345.786	3.88
346.157	3.83
346.527	4.17
346.898	4
347.268	3.9
347.639	4.09
348.009	3.93
348.38	4.1
348.75	4.47
349.12	4.15
349.49	4.01
349.861	3.98
350.231	4.03
350.601	4.48
350.971	4.43
351.341	4.11
351.711	3.71
352.081	3.5
352.45	3.87
352.82	4.3
353.19	4.09
353.56	4.19
353.929	4.56
354.299	4.21
354.669	3.73
355.038	4.22
355.408	3.73
355.777	4.45
356.147	4.16
356.516	4.36
356.885	4.05
357.254	4.26
357.624	3.86
357.993	3.87
358.362	4.01
358.731	3.7
359.1	4
359.469	4.18
359.838	4.26
360.207	4.35
360.576	4.21
360.945	4.28
361.314	4.34
361.682	4.01
362.051	4.05
362.42	3.87
362.788	4.15
363.157	4.09
363.525	4.28
363.894	4.05
364.262	4.08
364.631	4.15
364.999	3.94
365.367	4.42
365.735	4.32
366.104	4.05
366.472	4.27
366.84	4.08
367.208	4.15
367.576	4.3
367.944	4.42
368.312	3.96
368.68	4.21
369.048	3.83
369.416	4.21
369.783	4.14
370.151	4.11
370.519	4.47
370.886	4.3
371.254	4.24
371.621	4.03
371.989	3.94
372.356	4.24
372.724	4.58
373.091	4.17
373.458	4.2
373.826	4.33
374.193	4.34
374.56	4.05
374.927	3.95
375.294	4.3
375.661	4.35
376.028	4.52
376.395	4.11
376.762	4.06
377.129	4.41
377.496	4.31
377.863	4.35
378.229	4.45
378.596	3.9
378.963	4.03
379.329	4.02
379.696	4.07
380.062	4.09
380.429	4.08
380.795	4.12
381.161	4.34
381.528	4.55
381.894	4.54
382.26	4.01
382.626	4.27
382.993	4.18
383.359	4.3
383.725	4.3
384.091	3.93
384.457	4.18
384.823	4.23
385.188	4.38
385.554	4.12
385.92	4.09
386.286	4.21
386.651	4.06
387.017	4.29
387.383	4.28
387.748	3.97
388.114	4.31
388.479	4.38
388.845	4.26
389.21	4.34
389.575	4.12
389.94	4.42
390.306	4.3
390.671	4.13
391.036	4.23
391.401	4.03
391.766	4.04
392.131	4.02
392.496	4.11
392.861	4.07
393.226	4.35
393.591	4.12
393.956	4.41
394.32	4.27
394.685	4.43
395.05	4.53
395.414	4.33
395.779	4.09
396.143	4.25
396.508	4.29
396.872	4.5
397.236	4.38
397.601	4.04
397.965	4.35
398.329	4.29
398.694	4.24
399.058	4.13
399.422	4.46
399.786	4.58
400.15	4.32
400.514	4.21
400.878	4.5
401.242	4.36
401.605	4.29
401.969	4.43
402.333	4.25
402.697	4.19
403.06	4.3
403.424	4.04
403.787	4.46
404.151	4.19
404.514	4.36
404.878	4.41
405.241	4.26
405.604	4.16
405.968	4.53
406.331	4.32
406.694	4.41
407.057	4.28
407.42	4.41
407.783	4.16
408.146	4.52
408.509	4.55
408.872	4.39
409.235	4.41
409.598	4.34
409.961	4.32
410.323	4.35
410.686	4.31
411.049	4.32
411.411	4.19
411.774	4.16
412.136	4.32
412.499	4.46
412.861	4.18
413.223	4.31
413.586	4.15
413.948	4.28
414.31	4.35
414.672	4.45
415.035	4.41
415.397	4.49
415.759	4.35
416.121	4.59
416.483	4.24
416.845	4.37
417.206	4.31
417.568	4.21
417.93	4.26
418.292	4.22
418.653	4.17
419.015	4.2
419.377	4.48
419.738	4.42
420.1	4.29
420.461	4.35
420.822	4.36
421.184	4.14
421.545	4.24
421.906	4.29
422.267	4.3
422.629	4.27
422.99	4.29
423.351	4.28
423.712	4.31
424.073	4.37
424.434	4.29
424.795	4.42
425.155	4.42
425.516	4.43
425.877	4.35
426.238	4.35
426.598	4.33
426.959	4.41
427.32	4.39
427.68	4.32
428.041	4.57
428.401	4.23
428.761	4.46
429.122	4.55
429.482	4.47
429.842	4.41
430.202	4.52
430.563	4.31
430.923	4.45
431.283	4.47
431.643	4.47
432.003	4.54
432.363	4.38
432.722	4.6
433.082	4.36
433.442	4.58
433.802	4.51
434.161	4.34
434.521	4.48
434.881	4.4
435.24	4.59
435.6	4.33
435.959	4.44
436.319	4.45
436.678	4.43
437.037	4.51
437.396	4.26
437.756	4.37
438.115	4.46
438.474	4.37
438.833	4.51
439.192	4.44
439.551	4.45
439.91	4.46
440.269	4.52
440.628	4.53
440.987	4.6
441.345	4.47
441.704	4.49
442.063	4.54
442.421	4.44
442.78	4.38
443.138	4.46
443.497	4.56
443.855	4.45
444.214	4.42
444.572	4.57
444.93	4.52
445.288	4.67
445.647	4.41
446.005	4.58
446.363	4.42
446.721	4.44
447.079	4.39
447.437	4.43
447.795	4.39
448.153	4.44
448.51	4.47
448.868	4.49
449.226	4.47
449.584	4.47
449.941	4.49
450.299	4.59
450.656	4.58
451.014	4.61
451.371	4.52
451.729	4.41
452.086	4.47
452.443	4.62
452.801	4.6
453.158	4.58
453.515	4.53
453.872	4.68
454.229	4.66
454.586	4.48
454.943	4.65
455.3	4.5
455.657	4.6
456.014	4.61
456.371	4.59
456.727	4.73
457.084	4.54
457.441	4.63
457.797	4.56
458.154	4.68
458.51	4.61
458.867	4.66
459.223	4.61
459.58	4.62
459.936	4.71
460.292	4.68
460.648	4.43
461.005	4.68
461.361	4.59
461.717	4.45
462.073	4.66
462.429	4.68
462.785	4.47
463.141	4.54
463.496	4.5
463.852	4.53
464.208	4.63
464.564	4.59
464.919	4.65
465.275	4.58
465.631	4.52
465.986	4.65
466.342	4.77
466.697	4.68
467.052	4.66
467.408	4.58
467.763	4.59
468.118	4.76
468.473	4.68
468.829	4.58
469.184	4.87
469.539	4.77
469.894	4.68
470.249	4.63
470.603	4.65
470.958	4.82
471.313	4.67
471.668	4.74
472.023	4.84
472.377	4.81
472.732	4.75
473.086	4.6
473.441	4.63
473.795	4.8
474.15	4.75
474.504	4.82
474.859	4.85
475.213	4.75
475.567	4.81
475.921	4.83
476.275	4.92
476.63	4.62
476.984	4.71
477.338	4.87
477.692	4.7
478.045	4.62
478.399	4.76
478.753	4.8
479.107	4.75
479.461	4.89
479.814	4.82
480.168	4.74
480.521	4.91
480.875	4.85
481.228	4.93
481.582	4.83
481.935	4.85
482.289	4.78
482.642	4.67
482.995	4.79
483.348	4.69
483.701	4.81
484.055	4.68
484.408	4.71
484.761	4.62
485.114	4.53
485.466	4.46
485.819	4.5
486.172	4.52
486.525	4.6
486.878	4.65
487.23	4.7
487.583	4.73
487.936	4.77
488.288	4.64
488.641	4.67
488.993	4.58
489.345	4.57
489.698	4.57
490.05	4.63
490.402	4.62
490.754	4.75
491.107	4.76
491.459	4.82
491.811	4.81
492.163	4.84
492.515	4.75
492.866	4.67
493.218	4.57
493.57	4.62
493.922	4.65
494.274	4.75
494.625	4.76
494.977	4.82
495.328	4.85
495.68	4.91
496.031	4.9
496.383	4.88
496.734	4.96
497.086	4.99
497.437	5.03
497.788	4.97
498.139	4.94
498.49	4.91
498.842	4.96
499.193	4.82
499.544	4.88
499.894	5.04
500.245	4.92
500.596	5.07
500.947	4.94
501.298	5.08
501.648	5.05
501.999	5.01
502.35	4.96
502.7	5.12
503.051	4.92
503.401	5.04
503.752	4.9
504.102	5.1
504.452	5.05
504.803	5.1
505.153	5.16
505.503	5.01
505.853	4.98
506.203	5.16
506.553	5.23
506.903	5.02
507.253	5.03
507.603	5.17
507.953	5.18
508.303	5.08
508.652	5.01
509.002	5.01
509.352	5.18
509.701	5.16
510.051	5.09
510.4	5.01
510.75	5.12
511.099	5.08
511.449	5.1
511.798	5.09
512.147	5.13
512.496	5.11
512.846	5.09
513.195	5.03
513.544	5.25
513.893	5.12
514.242	5.17
514.591	5.14
514.939	5.24
515.288	5.33
515.637	5.19
515.986	5.26
516.334	5.32
516.683	5.32
517.032	5.22
517.38	5.27
517.729	5.34
518.077	5.18
518.426	5.28
518.774	5.19
519.122	5.21
519.47	5.09
519.819	5.21
520.167	5.12
520.515	5.16
520.863	5.16
521.211	5.22
521.559	5.22
521.907	5.35
522.255	5.4
522.602	5.35
522.95	5.33
523.298	5.25
523.645	5.29
523.993	5.34
524.341	5.48
524.688	5.45
525.036	5.42
525.383	5.38
525.73	5.33
526.078	5.33
526.425	5.3
526.772	5.41
527.119	5.33
527.466	5.29
527.814	5.27
528.161	5.33
528.508	5.37
528.854	5.39
529.201	5.31
529.548	5.34
529.895	5.19
530.242	5.17
530.588	5.2
530.935	5.25
531.282	5.35
531.628	5.36
531.975	5.34
532.321	5.48
532.667	5.47
533.014	5.52
533.36	5.54
533.706	5.49
534.052	5.48
534.399	5.5
534.745	5.46
535.091	5.32
535.437	5.42
535.783	5.49
536.129	5.58
536.474	5.64
536.82	5.61
537.166	5.64
537.512	5.63
537.857	5.6
538.203	5.53
538.549	5.61
538.894	5.56
539.239	5.73
539.585	5.73
539.93	5.81
540.276	5.68
540.621	5.75
540.966	5.88
541.311	5.75
541.656	5.66
542.001	5.78
542.346	5.76
542.691	5.65
543.036	5.58
543.381	5.6
543.726	5.66
544.071	5.72
544.415	5.75
544.76	5.79
545.105	5.81
545.449	5.78
545.794	5.85
546.138	5.88
546.483	5.89
546.827	5.94
547.171	5.92
547.516	5.85
547.86	5.92
548.204	5.87
548.548	5.92
548.892	5.98
549.236	6.1
549.58	6.14
549.924	6.13
550.268	6.27
550.612	6.08
550.956	6.23
551.3	6.25
551.643	6.4
551.987	6.14
552.33	6.18
552.674	6.22
553.017	6.21
553.361	6.18
553.704	6.33
554.048	6.17
554.391	6.14
554.734	6.23
555.077	6.28
555.42	6.4
555.764	6.36
556.107	6.36
556.45	6.25
556.793	6.43
557.135	6.5
557.478	6.51
557.821	6.48
558.164	6.57
558.507	6.67
558.849	6.54
559.192	6.67
559.534	6.5
559.877	6.67
560.219	6.54
560.562	6.69
560.904	6.84
561.246	6.74
561.589	6.7
561.931	6.69
562.273	6.73
562.615	6.62
562.957	6.58
563.299	6.83
563.641	6.82
563.983	6.67
564.325	6.6
564.667	6.72
565.008	6.72
565.35	6.81
565.692	6.64
566.033	7.05
566.375	6.88
566.716	6.78
567.058	6.86
567.399	6.92
567.741	6.95
568.082	6.86
568.423	6.95
568.764	6.94
569.105	6.91
569.447	6.98
569.788	7.05
570.129	6.97
570.47	7.1
570.811	7.18
571.151	6.9
571.492	7.09
571.833	7.16
572.174	7.24
572.514	7.22
572.855	7.26
573.195	7.18
573.536	7.11
573.876	7.26
574.217	7.13
574.557	7.09
574.898	7.23
575.238	7.31
575.578	7.26
575.918	7.18
576.258	7.36
576.598	7.35
576.938	7.38
577.278	7.48
577.618	7.46
577.958	7.42
578.298	7.46
578.638	7.38
578.977	7.69
579.317	7.42
579.657	7.48
579.996	7.64
580.336	7.75
580.675	7.62
581.014	7.81
581.354	7.76
581.693	7.66
582.032	7.84
582.372	7.85
582.711	7.83
583.05	7.72
583.389	7.96
583.728	7.78
584.067	7.66
584.406	7.9
584.745	8.01
585.083	8.09
585.422	8.04
585.761	8.2
586.1	7.87
586.438	8.06
586.777	8.25
587.115	8.27
587.454	8.21
587.792	8.37
588.13	8.4
588.469	8.22
588.807	8.09
589.145	8.19
589.483	8.29
589.821	8.04
590.159	8.3
590.497	8.37
590.835	8.32
591.173	8.36
591.511	8.41
591.849	8.27
592.187	8.44
592.524	8.19
592.862	8.77
593.2	8.6
593.537	8.32
593.875	8.68
594.212	8.57
594.55	8.74
594.887	8.52
595.224	8.61
595.561	8.59
595.899	8.58
596.236	8.48
596.573	8.62
596.91	8.85
597.247	8.52
597.584	8.72
597.921	8.49
598.258	8.9
598.594	8.78
598.931	8.88
599.268	8.78
599.604	8.91
599.941	9.16
600.277	8.82
600.614	9.07
600.95	9.04
601.287	9.13
601.623	9.06
601.959	9.09
602.296	9.01
602.632	9.06
602.968	9.04
603.304	9.38
603.64	9.33
603.976	9.47
604.312	9.13
604.648	9.15
604.984	9.35
605.319	9.26
605.655	9.26
605.991	9.42
606.326	9.23
606.662	9.22
606.998	9.41
607.333	9.44
607.668	9.49
608.004	9.72
608.339	9.78
608.674	9.72
609.01	9.55
609.345	9.58
609.68	10.05
610.015	9.85
610.35	9.93
610.685	9.56
611.02	9.88
611.355	9.62
611.689	9.92
612.024	9.92
612.359	9.82
612.694	9.92
613.028	9.85
613.363	10.11
613.697	10.02
614.032	10.08
614.366	9.81
614.7	9.74
615.035	10.2
615.369	10.2
615.703	10.17
616.037	10.4
616.371	10.25
616.705	10.18
617.039	10.2
617.373	10.5
617.707	10.42
618.041	10.26
618.375	10.68
618.709	10.3
619.042	10.62
619.376	10.39
619.71	10.22
620.043	10.42
620.377	10.49
620.71	10.43
621.043	10.85
621.377	10.69
621.71	10.78
622.043	10.58
622.376	10.69
622.709	10.87
623.043	10.67
623.376	10.87
623.709	10.62
624.041	10.81
624.374	10.58
624.707	10.85
625.04	10.85
625.373	10.71
625.705	10.88
626.038	11.07
626.37	11.27
626.703	11.24
627.035	11.08
627.368	11.03
627.7	10.92
628.032	11.19
628.365	11.37
628.697	11.3
629.029	11.37
629.361	11.2
629.693	11.1
630.025	11.27
630.357	11.45
630.689	11.45
631.021	11.25
631.353	11.18
631.684	11.44
632.016	11.37
632.348	11.4
632.679	11.66
633.011	11.57
633.342	11.55
633.674	11.88
634.005	11.79
634.336	11.66
634.668	11.78
634.999	11.62
635.33	11.69
635.661	11.82
635.992	11.92
636.323	12.24
636.654	12.15
636.985	11.86
637.316	12.08
637.647	11.68
637.977	11.93
638.308	12
638.639	12.16
638.969	12.27
639.3	11.45
639.63	12.46
639.961	12.26
640.291	12
640.622	12.16
640.952	12.14
641.282	12.04
641.612	12.43
641.943	12.52
642.273	12.44
642.603	12.35
642.933	12.48
643.263	12.63
643.592	12.96
643.922	12.27
644.252	12.76
644.582	12.48
644.911	12.48
645.241	12.9
645.571	12.59
645.9	12.4
646.23	12.65
646.559	12.33
646.888	12.98
647.218	12.36
647.547	12.93
647.876	12.46
648.205	13.19
648.534	13
648.863	13.05
649.192	13.16
649.521	12.56
649.85	12.86
650.179	12.97
650.508	13.2
650.837	13.42
651.165	13.37
651.494	13.4
651.822	13.44
652.151	13.23
652.479	13.4
652.808	13.52
653.136	13.34
653.465	13.4
653.793	13.65
654.121	13.64
654.449	13.19
654.777	13.17
655.105	13.83
655.433	13.06
655.761	13.58
656.089	13.29
656.417	13.81
656.745	13.67
657.073	13.74
657.4	14.14
657.728	14.05
658.056	13.54
658.383	13.38
658.711	14.19
659.038	14.17
659.365	14.06
659.693	13.71
660.02	14.51
660.347	13.97
660.674	14
661.001	14.13
661.329	13.82
661.656	14.2
661.982	14.4
662.309	14.35
662.636	14.37
662.963	14.41
663.29	14.68
663.616	14.31
663.943	14.53
664.27	14.44
664.596	14.69
664.923	15.1
665.249	14.36
665.576	14.91
665.902	14.57
666.228	14.58
666.554	14.88
666.881	14.52
667.207	14.38
667.533	14.81
667.859	14.46
668.185	14.76
668.511	15.05
668.837	14.9
669.162	14.74
669.488	15.25
669.814	14.94
670.139	15.23
670.465	14.84
670.791	14.75
671.116	14.62
671.442	14.87
671.767	14.89
672.092	15.45
672.418	15.29
672.743	14.93
673.068	14.57
673.393	14.83
673.718	14.94
674.043	15.25
674.368	15.39
674.693	15.4
675.018	15.34
675.343	15.7
675.667	15.67
675.992	15.54
676.317	15.59
676.641	15.16
676.966	15.6
677.29	15.35
677.615	15.82
677.939	15.76
678.264	15.57
678.588	16.46
678.912	15.8
679.236	15.72
679.56	15.91
679.885	15.83
680.209	15.39
680.532	15.74
680.856	16.89
681.18	16.17
681.504	16.2
681.828	15.62
682.152	16.33
682.475	15.83
682.799	15.89
683.122	16.27
683.446	16.21
683.769	16.55
684.093	15.88
684.416	16.8
684.739	16.38
685.062	16.59
685.386	16.33
685.709	16.32
686.032	16.66
686.355	16.22
