Data from 002-16_crown_Reflection__6__152.txt Node

Date: Fri Nov 11 17:15:30 CST 2022
User: ToomeyLab
Spectrometer: FLMS14357
Trigger mode: 0
Integration Time (sec): 1.000000E-2
Scans to average: 100
Electric dark correction enabled: true
Nonlinearity correction enabled: false
Boxcar width: 0
XAxis mode: Wavelengths
Number of Pixels in Spectrum: 2048
>>>>>Begin Spectral Data<<<<<
189.047	74.45
189.435	74.45
189.823	74.45
190.211	-105.62
190.599	32.77
190.987	-177.03
191.375	1602.96
191.763	-44.68
192.151	98.06
192.538	4.53
192.926	4.99
193.314	-1328.16
193.702	462.62
194.089	-245.74
194.477	-77.2
194.864	193.96
195.252	1418.91
195.639	-3.25
196.027	37.8
196.414	56.55
196.801	7472.73
197.189	197.87
197.576	280.68
197.963	-11.19
198.351	-30.04
198.738	-147.28
199.125	-4.65
199.512	-9.54
199.899	-32.8
200.286	-5.98
200.673	15.72
201.06	-44.23
201.447	35.87
201.833	9.02
202.22	15.8
202.607	29.55
202.994	8.96
203.38	35.74
203.767	-6.65
204.154	0.25
204.54	18.15
204.927	39.86
205.313	9.56
205.699	27.23
206.086	-8.74
206.472	22.84
206.858	-18.35
207.245	19.03
207.631	10.74
208.017	-6.7
208.403	-2.57
208.789	-135.16
209.175	38.97
209.561	-27.42
209.947	-19.08
210.333	-6.92
210.719	7.04
211.105	-18.6
211.491	-159.52
211.876	14.54
212.262	-45.21
212.648	-4.98
213.034	-39.25
213.419	-27.27
213.805	9.97
214.19	-78.15
214.576	-4.51
214.961	-12.2
215.346	-50.5
215.732	-52.9
216.117	20.19
216.502	-6.04
216.888	-8.39
217.273	-25.25
217.658	-14.2
218.043	16.81
218.428	-9.99
218.813	7.62
219.198	-40.89
219.583	5.11
219.968	-6.46
220.353	-4.29
220.738	-24.46
221.122	-3.85
221.507	31.3
221.892	7.07
222.276	-0.03
222.661	6.14
223.046	10.42
223.43	3.2
223.815	1.94
224.199	9.71
224.583	3.21
224.968	12.64
225.352	-4.46
225.736	5.42
226.121	7.26
226.505	3.64
226.889	5.04
227.273	9.91
227.657	-0.63
228.041	2.96
228.425	9.58
228.809	7.75
229.193	2.03
229.577	9.58
229.961	8.24
230.344	8.85
230.728	8.42
231.112	9.06
231.495	8.35
231.879	8.05
232.263	6.01
232.646	7.95
233.03	7.83
233.413	6.76
233.797	7.35
234.18	7.13
234.563	6.55
234.946	5.02
235.33	6.66
235.713	7.42
236.096	5.24
236.479	10.9
236.862	9.05
237.245	8.67
237.628	7.45
238.011	6.47
238.394	9.05
238.777	8.39
239.16	7.01
239.543	4.95
239.925	8.46
240.308	8.55
240.691	5.52
241.073	6.9
241.456	6.04
241.838	7.84
242.221	7.5
242.603	6.94
242.986	7.28
243.368	7.19
243.75	7.66
244.133	7.29
244.515	7.78
244.897	7.51
245.279	7.12
245.661	7.14
246.043	6.35
246.425	7.46
246.807	7.19
247.189	6.1
247.571	6.23
247.953	7.13
248.335	7.86
248.717	7.33
249.098	7.44
249.48	7.63
249.862	7.25
250.243	6.82
250.625	6.89
251.006	7.16
251.388	7.23
251.769	7.6
252.151	6.74
252.532	6.84
252.913	6.05
253.295	6.28
253.676	7.2
254.057	6.87
254.438	7.74
254.819	6.99
255.2	7.4
255.581	7.34
255.962	5.84
256.343	7.17
256.724	5.73
257.105	7.35
257.486	6.97
257.867	6.54
258.247	7.6
258.628	5.94
259.009	6.53
259.389	7.29
259.77	7.3
260.15	7.31
260.531	6.46
260.911	6.72
261.292	6.81
261.672	6.6
262.052	6.82
262.432	6.86
262.813	6.8
263.193	7.09
263.573	6.83
263.953	6.55
264.333	6.93
264.713	6.65
265.093	7.3
265.473	7.1
265.853	5.53
266.233	5.82
266.612	5.68
266.992	6.94
267.372	6.31
267.752	6.77
268.131	6.43
268.511	6.42
268.89	6.63
269.27	5.89
269.649	6.01
270.029	5.97
270.408	6.27
270.787	6.68
271.167	6.4
271.546	6.74
271.925	6.92
272.304	6.37
272.683	6.61
273.062	6.36
273.441	6.29
273.82	5.9
274.199	6.21
274.578	6.32
274.957	5.86
275.336	6.46
275.715	5.93
276.093	6.71
276.472	6.07
276.851	6.17
277.229	5.57
277.608	6.28
277.986	5.9
278.365	6.79
278.743	5.85
279.122	6.17
279.5	5.57
279.878	5.79
280.257	6.13
280.635	6.22
281.013	5.45
281.391	5.33
281.769	6.15
282.147	5.68
282.525	5.56
282.903	6.31
283.281	6.02
283.659	5.65
284.037	6.26
284.415	5.95
284.792	6.12
285.17	5.54
285.548	6.14
285.925	5.39
286.303	5.52
286.68	5.81
287.058	5.66
287.435	5.82
287.813	5.59
288.19	6.08
288.567	5.5
288.945	5.5
289.322	5.51
289.699	5.64
290.076	5.55
290.453	5.26
290.83	5.82
291.207	5.47
291.584	5.38
291.961	5.07
292.338	5.53
292.715	5.65
293.092	5.52
293.469	5.5
293.845	5.83
294.222	5.81
294.599	5.39
294.975	5.03
295.352	5.43
295.728	5.87
296.105	5.37
296.481	5.12
296.858	5.28
297.234	4.93
297.61	4.78
297.986	5.05
298.363	5.26
298.739	5.22
299.115	5.09
299.491	5.29
299.867	4.86
300.243	5.01
300.619	4.99
300.995	4.98
301.371	4.6
301.746	5.2
302.122	4.74
302.498	4.77
302.874	5.25
303.249	5.14
303.625	4.59
304	4.66
304.376	4.88
304.751	5.49
305.127	4.96
305.502	5.28
305.878	5.46
306.253	5.15
306.628	5.01
307.003	4.93
307.378	5.09
307.754	5.07
308.129	5.22
308.504	4.77
308.879	4.65
309.254	4.5
309.629	4.34
310.003	5.26
310.378	4.22
310.753	4.35
311.128	5.05
311.502	4.45
311.877	4.66
312.252	4.44
312.626	4.71
313.001	4.52
313.375	5.08
313.75	4.88
314.124	5.1
314.498	4.74
314.873	4.52
315.247	4.43
315.621	4.63
315.995	3.93
316.369	4.73
316.743	4.54
317.117	5.09
317.491	4.61
317.865	4.42
318.239	4.62
318.613	4.62
318.987	4.96
319.361	4.48
319.734	4.08
320.108	5.05
320.482	4.25
320.855	4.66
321.229	4.94
321.602	4.34
321.976	3.91
322.349	4.72
322.723	4.26
323.096	4.86
323.469	4.61
323.843	4.29
324.216	4.74
324.589	4.49
324.962	4.06
325.335	5.08
325.708	4.64
326.081	3.93
326.454	4.24
326.827	4.72
327.2	4.1
327.573	4.72
327.945	4.49
328.318	4.8
328.691	4.51
329.063	4.19
329.436	4.42
329.809	4.3
330.181	4.76
330.553	4.83
330.926	4.01
331.298	4.31
331.671	4.33
332.043	4.8
332.415	3.87
332.787	4.25
333.159	4.54
333.532	4.04
333.904	4.4
334.276	4.63
334.648	4.3
335.02	4.51
335.391	4.14
335.763	4.16
336.135	4.4
336.507	4.17
336.879	4.54
337.25	3.61
337.622	4.09
337.993	4.44
338.365	4.64
338.736	4.23
339.108	4.37
339.479	4.79
339.851	3.87
340.222	4.23
340.593	4.14
340.964	4.34
341.336	4.26
341.707	4.31
342.078	4.25
342.449	4.69
342.82	4.32
343.191	4.93
343.562	4.48
343.933	4.15
344.303	4.65
344.674	4.36
345.045	4.26
345.416	4.58
345.786	4.62
346.157	4.56
346.527	4.49
346.898	4.06
347.268	4.21
347.639	4.6
348.009	4.42
348.38	4.26
348.75	4.73
349.12	4.29
349.49	4.4
349.861	4.2
350.231	4.46
350.601	4.77
350.971	4.81
351.341	4.22
351.711	4.58
352.081	4.08
352.45	4.55
352.82	4.69
353.19	4.37
353.56	4.36
353.929	4.81
354.299	4.65
354.669	4.62
355.038	4.62
355.408	4.45
355.777	4.51
356.147	4.52
356.516	4.43
356.885	4.22
357.254	4.54
357.624	4.42
357.993	4.5
358.362	4.51
358.731	4.44
359.1	4.49
359.469	4.55
359.838	4.8
360.207	5.1
360.576	4.67
360.945	4.75
361.314	4.9
361.682	4.8
362.051	4.57
362.42	4.36
362.788	4.48
363.157	4.55
363.525	4.81
363.894	4.72
364.262	4.34
364.631	4.63
364.999	4.65
365.367	4.88
365.735	4.47
366.104	4.47
366.472	5.03
366.84	4.94
367.208	4.91
367.576	4.67
367.944	4.82
368.312	4.8
368.68	4.64
369.048	4.65
369.416	4.51
369.783	4.31
370.151	4.84
370.519	5.02
370.886	5.11
371.254	4.37
371.621	4.8
371.989	4.43
372.356	4.4
372.724	5.01
373.091	4.84
373.458	4.64
373.826	4.72
374.193	4.92
374.56	4.72
374.927	4.89
375.294	5.02
375.661	4.97
376.028	4.89
376.395	5.02
376.762	4.92
377.129	4.96
377.496	4.91
377.863	5.02
378.229	5.02
378.596	4.98
378.963	4.81
379.329	4.78
379.696	4.91
380.062	4.9
380.429	4.85
380.795	5.19
381.161	5.15
381.528	4.86
381.894	5.05
382.26	4.9
382.626	5.11
382.993	4.9
383.359	5.09
383.725	5.2
384.091	4.94
384.457	5.01
384.823	5.15
385.188	5.09
385.554	5.08
385.92	4.81
386.286	5.01
386.651	5.18
387.017	4.89
387.383	5.28
387.748	4.89
388.114	4.99
388.479	5.09
388.845	5.19
389.21	5.12
389.575	4.94
389.94	5.19
390.306	5.01
390.671	5.01
391.036	5.11
391.401	4.98
391.766	5.16
392.131	4.87
392.496	5.17
392.861	5.01
393.226	5.05
393.591	5.09
393.956	5.31
394.32	5.31
394.685	5.41
395.05	5.35
395.414	5.3
395.779	5.12
396.143	5.43
396.508	5.21
396.872	5.34
397.236	5.23
397.601	5.34
397.965	5.22
398.329	5.1
398.694	5.36
399.058	5.33
399.422	5.47
399.786	5.37
400.15	5.07
400.514	5.24
400.878	5.39
401.242	5.37
401.605	5.46
401.969	5.47
402.333	5.41
402.697	5.28
403.06	5.31
403.424	5.29
403.787	5.23
404.151	5.14
404.514	5.32
404.878	5.46
405.241	5.31
405.604	5.42
405.968	5.47
406.331	5.29
406.694	5.3
407.057	5.28
407.42	5.53
407.783	5.38
408.146	5.44
408.509	5.42
408.872	5.75
409.235	5.4
409.598	5.35
409.961	5.23
410.323	5.57
410.686	5.46
411.049	5.58
411.411	5.4
411.774	5.38
412.136	5.39
412.499	5.53
412.861	5.38
413.223	5.37
413.586	5.43
413.948	5.35
414.31	5.38
414.672	5.66
415.035	5.48
415.397	5.47
415.759	5.42
416.121	5.61
416.483	5.47
416.845	5.5
417.206	5.69
417.568	5.51
417.93	5.48
418.292	5.35
418.653	5.39
419.015	5.51
419.377	5.57
419.738	5.61
420.1	5.57
420.461	5.53
420.822	5.39
421.184	5.43
421.545	5.52
421.906	5.57
422.267	5.56
422.629	5.46
422.99	5.51
423.351	5.45
423.712	5.43
424.073	5.63
424.434	5.47
424.795	5.58
425.155	5.53
425.516	5.53
425.877	5.5
426.238	5.54
426.598	5.58
426.959	5.52
427.32	5.6
427.68	5.5
428.041	5.72
428.401	5.47
428.761	5.55
429.122	5.79
429.482	5.71
429.842	5.56
430.202	5.81
430.563	5.54
430.923	5.75
431.283	5.79
431.643	5.7
432.003	6.02
432.363	5.75
432.722	5.64
433.082	5.9
433.442	5.74
433.802	5.84
434.161	5.81
434.521	5.83
434.881	5.47
435.24	5.73
435.6	5.63
435.959	5.67
436.319	5.66
436.678	5.54
437.037	5.76
437.396	5.73
437.756	5.66
438.115	5.62
438.474	5.86
438.833	5.65
439.192	5.73
439.551	5.7
439.91	5.74
440.269	5.76
440.628	5.71
440.987	5.87
441.345	5.71
441.704	5.63
442.063	5.89
442.421	5.77
442.78	5.66
443.138	5.65
443.497	5.72
443.855	5.83
444.214	5.73
444.572	5.84
444.93	5.81
445.288	5.98
445.647	5.75
446.005	5.8
446.363	5.82
446.721	5.71
447.079	5.85
447.437	5.73
447.795	5.7
448.153	5.65
448.51	5.71
448.868	5.76
449.226	5.78
449.584	5.82
449.941	5.65
450.299	5.84
450.656	5.79
451.014	5.86
451.371	5.8
451.729	5.76
452.086	5.85
452.443	5.88
452.801	5.82
453.158	5.79
453.515	5.78
453.872	5.97
454.229	5.87
454.586	5.94
454.943	5.97
455.3	5.91
455.657	5.85
456.014	5.79
456.371	5.76
456.727	6.01
457.084	5.92
457.441	5.88
457.797	5.88
458.154	5.76
458.51	5.89
458.867	5.96
459.223	6.07
459.58	6
459.936	6.06
460.292	5.84
460.648	5.88
461.005	5.96
461.361	5.9
461.717	5.84
462.073	5.91
462.429	5.89
462.785	5.86
463.141	5.97
463.496	5.88
463.852	5.94
464.208	5.97
464.564	6.01
464.919	5.96
465.275	6.03
465.631	6.06
465.986	5.98
466.342	6.11
466.697	5.99
467.052	6.12
467.408	6.07
467.763	6.04
468.118	5.89
468.473	5.96
468.829	6.08
469.184	6.1
469.539	6.17
469.894	5.94
470.249	5.92
470.603	5.97
470.958	6.19
471.313	6.01
471.668	6.04
472.023	6.25
472.377	6.06
472.732	6.09
473.086	6.02
473.441	6.05
473.795	5.89
474.15	6.13
474.504	6.09
474.859	6.15
475.213	6.17
475.567	6.16
475.921	6.11
476.275	6.14
476.63	6.01
476.984	6.07
477.338	6.09
477.692	6.12
478.045	6.04
478.399	6.12
478.753	6.17
479.107	5.98
479.461	6.18
479.814	5.98
480.168	6.13
480.521	6.02
480.875	5.99
481.228	6.17
481.582	6.12
481.935	6.08
482.289	6.01
482.642	6.02
482.995	6.04
483.348	5.96
483.701	5.98
484.055	5.98
484.408	5.92
484.761	5.84
485.114	5.7
485.466	5.64
485.819	5.68
486.172	5.71
486.525	5.69
486.878	5.85
487.23	5.81
487.583	5.86
487.936	5.91
488.288	5.88
488.641	5.86
488.993	5.81
489.345	5.74
489.698	5.81
490.05	5.79
490.402	5.78
490.754	5.88
491.107	5.98
491.459	6.01
491.811	6
492.163	5.94
492.515	5.9
492.866	5.89
493.218	5.75
493.57	5.81
493.922	5.85
494.274	5.88
494.625	5.93
494.977	5.93
495.328	6.04
495.68	6.02
496.031	6.07
496.383	6.1
496.734	6.11
497.086	6.1
497.437	6.07
497.788	6.08
498.139	6.01
498.49	5.96
498.842	6.1
499.193	6.07
499.544	5.97
499.894	6.07
500.245	6.07
500.596	6.13
500.947	6.05
501.298	6.02
501.648	6.14
501.999	6.01
502.35	5.97
502.7	6.02
503.051	6.02
503.401	6.05
503.752	6.09
504.102	6.09
504.452	6.04
504.803	6.12
505.153	6.13
505.503	6.01
505.853	6.01
506.203	6.19
506.553	6.12
506.903	6
507.253	6.14
507.603	6.1
507.953	6.15
508.303	6.09
508.652	6.03
509.002	6.03
509.352	6.09
509.701	6.05
510.051	5.96
510.4	5.95
510.75	5.96
511.099	5.92
511.449	5.99
511.798	5.98
512.147	6.01
512.496	6
512.846	5.93
513.195	5.86
513.544	6.01
513.893	6.09
514.242	6
514.591	5.96
514.939	6.06
515.288	6.01
515.637	6.12
515.986	6.1
516.334	6.07
516.683	6.04
517.032	6.02
517.38	6.08
517.729	6.05
518.077	5.97
518.426	6.11
518.774	6
519.122	5.95
519.47	5.82
519.819	5.95
520.167	5.8
520.515	5.88
520.863	5.93
521.211	5.9
521.559	5.88
521.907	6.03
522.255	6.03
522.602	6.01
522.95	6.01
523.298	5.94
523.645	5.91
523.993	6.03
524.341	6.05
524.688	5.97
525.036	6.04
525.383	6.02
525.73	5.85
526.078	5.96
526.425	5.88
526.772	5.89
527.119	5.83
527.466	5.72
527.814	5.77
528.161	5.8
528.508	5.81
528.854	5.82
529.201	5.8
529.548	5.78
529.895	5.64
530.242	5.6
530.588	5.57
530.935	5.66
531.282	5.74
531.628	5.7
531.975	5.75
532.321	5.78
532.667	5.83
533.014	5.79
533.36	5.78
533.706	5.86
534.052	5.78
534.399	5.65
534.745	5.71
535.091	5.69
535.437	5.69
535.783	5.71
536.129	5.77
536.474	5.79
536.82	5.76
537.166	5.76
537.512	5.87
537.857	5.91
538.203	5.7
538.549	5.73
538.894	5.78
539.239	5.74
539.585	5.81
539.93	5.86
540.276	5.8
540.621	5.86
540.966	5.72
541.311	5.93
541.656	5.76
542.001	5.74
542.346	5.76
542.691	5.57
543.036	5.54
543.381	5.55
543.726	5.58
544.071	5.63
544.415	5.67
544.76	5.7
545.105	5.69
545.449	5.75
545.794	5.71
546.138	5.72
546.483	5.67
546.827	5.73
547.171	5.75
547.516	5.66
547.86	5.73
548.204	5.57
548.548	5.61
548.892	5.68
549.236	5.7
549.58	5.8
549.924	5.77
550.268	5.87
550.612	5.8
550.956	5.85
551.3	5.84
551.643	5.76
551.987	5.79
552.33	5.82
552.674	5.58
553.017	5.68
553.361	5.72
553.704	5.84
554.048	5.63
554.391	5.73
554.734	5.59
555.077	5.67
555.42	5.58
555.764	5.54
556.107	5.66
556.45	5.66
556.793	5.68
557.135	5.68
557.478	5.7
557.821	5.69
558.164	5.82
558.507	5.78
558.849	5.62
559.192	5.77
559.534	5.61
559.877	5.7
560.219	5.74
560.562	5.65
560.904	5.64
561.246	5.55
561.589	5.82
561.931	5.55
562.273	5.75
562.615	5.56
562.957	5.69
563.299	5.71
563.641	5.57
563.983	5.74
564.325	5.5
564.667	5.64
565.008	5.47
565.35	5.66
565.692	5.37
566.033	5.65
566.375	5.51
566.716	5.54
567.058	5.54
567.399	5.53
567.741	5.49
568.082	5.58
568.423	5.46
568.764	5.58
569.105	5.49
569.447	5.63
569.788	5.4
570.129	5.51
570.47	5.56
570.811	5.7
571.151	5.59
571.492	5.6
571.833	5.69
572.174	5.67
572.514	5.53
572.855	5.54
573.195	5.56
573.536	5.34
573.876	5.51
574.217	5.39
574.557	5.43
574.898	5.5
575.238	5.51
575.578	5.44
575.918	5.42
576.258	5.53
576.598	5.51
576.938	5.41
577.278	5.38
577.618	5.28
577.958	5.55
578.298	5.51
578.638	5.4
578.977	5.42
579.317	5.47
579.657	5.53
579.996	5.38
580.336	5.44
580.675	5.55
581.014	5.4
581.354	5.48
581.693	5.39
582.032	5.48
582.372	5.58
582.711	5.67
583.05	5.42
583.389	5.37
583.728	5.3
584.067	5.46
584.406	5.34
584.745	5.42
585.083	5.37
585.422	5.35
585.761	5.76
586.1	5.45
586.438	5.53
586.777	5.37
587.115	5.64
587.454	5.57
587.792	5.56
588.13	5.55
588.469	5.46
588.807	5.5
589.145	5.48
589.483	5.44
589.821	5.2
590.159	5.44
590.497	5.42
590.835	5.28
591.173	5.25
591.511	5.52
591.849	5.35
592.187	5.36
592.524	5.19
592.862	5.5
593.2	5.36
593.537	5.07
593.875	5.38
594.212	5.42
594.55	5.42
594.887	5.33
595.224	5.23
595.561	5.25
595.899	5.12
596.236	5.3
596.573	5.25
596.91	5.2
597.247	5.35
597.584	5.18
597.921	4.92
598.258	5.22
598.594	5.13
598.931	5.27
599.268	5.1
599.604	5.26
599.941	5.29
600.277	5.04
600.614	5.46
600.95	5.26
601.287	5.23
601.623	5.3
601.959	4.97
602.296	5.03
602.632	5.02
602.968	5.26
603.304	5.17
603.64	4.99
603.976	5.24
604.312	5.24
604.648	4.92
604.984	5.19
605.319	5.09
605.655	5.08
605.991	5.08
606.326	5.14
606.662	5.03
606.998	5.12
607.333	5.31
607.668	5.12
608.004	5.11
608.339	5.24
608.674	5.19
609.01	4.73
609.345	5.14
609.68	5.44
610.015	5.15
610.35	5.13
610.685	5.15
611.02	5.08
611.355	4.86
611.689	5.1
612.024	5.11
612.359	4.69
612.694	5.06
613.028	5.05
613.363	4.99
613.697	5.14
614.032	5.11
614.366	4.66
614.7	5.06
615.035	5.07
615.369	5.11
615.703	5.2
616.037	5.21
616.371	4.81
616.705	5.05
617.039	4.89
617.373	5.13
617.707	5.02
618.041	4.79
618.375	5.37
618.709	5.01
619.042	4.83
619.376	4.97
619.71	5.08
620.043	5.24
620.377	5.07
620.71	4.79
621.043	5.42
621.377	5.06
621.71	5.05
622.043	4.85
622.376	4.9
622.709	5.03
623.043	4.68
623.376	4.82
623.709	4.74
624.041	5.07
624.374	5.06
624.707	4.6
625.04	4.96
625.373	4.99
625.705	4.91
626.038	4.95
626.37	5.11
626.703	5.29
627.035	4.92
627.368	5.17
627.7	4.95
628.032	4.89
628.365	5.04
628.697	4.84
629.029	4.95
629.361	4.84
629.693	4.91
630.025	4.59
630.357	4.83
630.689	5.04
631.021	4.78
631.353	4.83
631.684	5.2
632.016	4.94
632.348	4.93
632.679	4.77
633.011	4.67
633.342	4.9
633.674	4.89
634.005	4.89
634.336	4.72
634.668	4.51
634.999	4.67
635.33	4.91
635.661	4.97
635.992	4.97
636.323	4.9
636.654	5.1
636.985	5.12
637.316	5.18
637.647	4.87
637.977	4.98
638.308	4.79
638.639	4.75
638.969	5.15
639.3	4.79
639.63	4.97
639.961	4.91
640.291	4.68
640.622	4.71
640.952	4.91
641.282	5
641.612	5.02
641.943	4.9
642.273	5.04
642.603	4.93
642.933	4.85
643.263	4.92
643.592	5.19
643.922	4.68
644.252	4.71
644.582	4.87
644.911	5.08
645.241	5.19
645.571	4.78
645.9	4.38
646.23	4.55
646.559	4.93
646.888	4.68
647.218	4.47
647.547	5.05
647.876	4.65
648.205	4.63
648.534	4.78
648.863	4.8
649.192	4.75
649.521	4.87
649.85	4.31
650.179	4.94
650.508	5.41
650.837	5
651.165	4.97
651.494	5.04
651.822	4.57
652.151	4.67
652.479	4.7
652.808	4.67
653.136	4.73
653.465	4.96
653.793	4.81
654.121	4.67
654.449	4.68
654.777	4.69
655.105	4.75
655.433	4.27
655.761	4.92
656.089	4.92
656.417	4.9
656.745	4.69
657.073	4.7
657.4	4.75
657.728	4.98
658.056	4.32
658.383	4.43
658.711	5.05
659.038	4.55
659.365	4.82
659.693	4.64
660.02	5.14
660.347	5.07
660.674	4.59
661.001	4.71
661.329	4.73
661.656	4.84
661.982	4.96
662.309	4.73
662.636	4.84
662.963	4.87
663.29	5
663.616	5.12
663.943	4.85
664.27	5.04
664.596	5.02
664.923	5.15
665.249	4.71
665.576	4.98
665.902	5.16
666.228	5
666.554	4.69
666.881	4.75
667.207	4.34
667.533	5.24
667.859	4.48
668.185	4.7
668.511	4.42
668.837	4.71
669.162	4.83
669.488	4.89
669.814	4.63
670.139	5.19
670.465	4.67
670.791	4.25
671.116	4.51
671.442	4.52
671.767	4.56
672.092	4.18
672.418	4.56
672.743	4.7
673.068	4.55
673.393	4.06
673.718	4.72
674.043	4.92
674.368	4.37
674.693	4.91
675.018	4.53
675.343	4.63
675.667	4.71
675.992	5.02
676.317	4.57
676.641	4.69
676.966	4.23
677.29	4.07
677.615	4.88
677.939	4.76
678.264	4.69
678.588	5.91
678.912	5.3
679.236	4.79
679.56	4.81
679.885	4.79
680.209	4.43
680.532	4.44
680.856	4.95
681.18	4.42
681.504	4.6
681.828	4.56
682.152	5.09
682.475	4.59
682.799	4.54
683.122	5.21
683.446	4.72
683.769	5.11
684.093	4.67
684.416	5.07
684.739	4.53
685.062	4.74
685.386	4.47
685.709	5.21
686.032	4.67
686.355	4.21
686.678	4.38
687.001	5.26
687.324	4.29
687.646	5
687.969	4.75
688.292	4.59
688.614	4.1
688.937	3.86
689.26	4.69
689.582	5.15
689.904	4.39
690.227	4.74
690.549	4.45
690.871	4.83
691.194	4.59
691.516	5.03
691.838	4.86
692.16	4.77
692.482	4.24
