Data from 002-16_chest_Reflection__2__143.txt Node

Date: Fri Nov 11 17:13:01 CST 2022
User: ToomeyLab
Spectrometer: FLMS14357
Trigger mode: 0
Integration Time (sec): 1.000000E-2
Scans to average: 100
Electric dark correction enabled: true
Nonlinearity correction enabled: false
Boxcar width: 0
XAxis mode: Wavelengths
Number of Pixels in Spectrum: 2048
>>>>>Begin Spectral Data<<<<<
189.047	130.62
189.435	130.62
189.823	130.62
190.211	224.37
190.599	125.22
190.987	52.54
191.375	3600
191.763	-1.41
192.151	79.42
192.538	32.62
192.926	119.12
193.314	-2682.45
193.702	825.93
194.089	-183.32
194.477	-240.34
194.864	-54.84
195.252	646.58
195.639	68.66
196.027	10.24
196.414	67.15
196.801	20909.09
197.189	294.33
197.576	164.46
197.963	-30.33
198.351	-30.4
198.738	-53.97
199.125	29.18
199.512	1.25
199.899	25.58
200.286	12.45
200.673	28.09
201.06	0.07
201.447	-7.64
201.833	1.98
202.22	32.68
202.607	38.47
202.994	30.75
203.38	17.5
203.767	41.84
204.154	-34.54
204.54	63.52
204.927	19.4
205.313	-14.32
205.699	49.86
206.086	42.87
206.472	31.14
206.858	15.67
207.245	43.73
207.631	20.55
208.017	23.59
208.403	15.12
208.789	-107.14
209.175	14.52
209.561	11.97
209.947	4.82
210.333	52.99
210.719	6.41
211.105	42.63
211.491	-98.06
211.876	48.6
212.262	-26.84
212.648	3.6
213.034	16.72
213.419	11.31
213.805	-7.86
214.19	-16.91
214.576	30.71
214.961	-3.53
215.346	-36.97
215.732	-3.04
216.117	17.86
216.502	3.67
216.888	21.02
217.273	7.82
217.658	13.46
218.043	-18.82
218.428	-12.7
218.813	41.33
219.198	-29.06
219.583	17.55
219.968	24.15
220.353	-19.46
220.738	-48.92
221.122	-23.5
221.507	16.76
221.892	-1.01
222.276	12.14
222.661	11.25
223.046	13.34
223.43	-1.01
223.815	2.63
224.199	4.05
224.583	13.71
224.968	11.34
225.352	-9.49
225.736	2.96
226.121	-6.87
226.505	8.27
226.889	4.62
227.273	0.59
227.657	-5.1
228.041	-0.33
228.425	5.87
228.809	10.03
229.193	3.9
229.577	4.28
229.961	2.88
230.344	3.24
230.728	3.22
231.112	2.87
231.495	3.06
231.879	1.07
232.263	1.57
232.646	2.3
233.03	2.62
233.413	2.41
233.797	2.39
234.18	6.81
234.563	3.7
234.946	0.09
235.33	2.01
235.713	2.37
236.096	2.37
236.479	2.05
236.862	2.79
237.245	5.69
237.628	2.66
238.011	4.23
238.394	3.84
238.777	0.59
239.16	3.25
239.543	3.52
239.925	5.43
240.308	2.95
240.691	4.66
241.073	3.04
241.456	1.98
241.838	3.6
242.221	4.15
242.603	3.13
242.986	2.99
243.368	2.81
243.75	3.26
244.133	2.58
244.515	3.68
244.897	3.06
245.279	2.67
245.661	3.54
246.043	3.66
246.425	4.78
246.807	3.66
247.189	3.09
247.571	2.43
247.953	3.61
248.335	3.74
248.717	3.58
249.098	3.63
249.48	3.57
249.862	3.54
250.243	3.46
250.625	3.88
251.006	4.13
251.388	4.41
251.769	3.86
252.151	4.23
252.532	4.41
252.913	2.91
253.295	3.54
253.676	3.85
254.057	3.52
254.438	4
254.819	4.07
255.2	4.11
255.581	3.93
255.962	2.62
256.343	3.21
256.724	3.96
257.105	3.91
257.486	4.28
257.867	3.81
258.247	4.63
258.628	2.32
259.009	3.58
259.389	4.27
259.77	4.01
260.15	4.1
260.531	3.26
260.911	3.53
261.292	3.54
261.672	3.5
262.052	3.58
262.432	3.98
262.813	3.34
263.193	3.78
263.573	4.15
263.953	3.4
264.333	3.64
264.713	2.73
265.093	3.55
265.473	4.98
265.853	3.55
266.233	3.78
266.612	2.69
266.992	3.18
267.372	2.93
267.752	3.56
268.131	3.69
268.511	3.32
268.89	3.66
269.27	3.12
269.649	3.03
270.029	2.69
270.408	3.36
270.787	3.85
271.167	3.36
271.546	3.79
271.925	3.91
272.304	3.73
272.683	3.42
273.062	3.7
273.441	3.69
273.82	3.24
274.199	3.25
274.578	3.67
274.957	2.72
275.336	3.31
275.715	3.17
276.093	3.57
276.472	2.96
276.851	3.2
277.229	3.08
277.608	3.32
277.986	3.28
278.365	3.83
278.743	3.28
279.122	2.62
279.5	2.88
279.878	2.21
280.257	3.56
280.635	3.23
281.013	3.34
281.391	2.8
281.769	3.53
282.147	3.41
282.525	2.65
282.903	3.37
283.281	3.48
283.659	3.34
284.037	3.25
284.415	3.16
284.792	3.52
285.17	3.5
285.548	3.18
285.925	3.34
286.303	3.36
286.68	2.97
287.058	3.31
287.435	3.18
287.813	3.58
288.19	3.31
288.567	3.57
288.945	3.01
289.322	3.21
289.699	3.56
290.076	3.29
290.453	2.97
290.83	3.42
291.207	3.94
291.584	3.39
291.961	3.79
292.338	3.65
292.715	3.46
293.092	3.38
293.469	4.38
293.845	4.05
294.222	4.66
294.599	4.22
294.975	3.57
295.352	3.83
295.728	3.64
296.105	4.07
296.481	3.7
296.858	3.99
297.234	4.28
297.61	4.1
297.986	3.66
298.363	3.96
298.739	4.21
299.115	4.13
299.491	4.11
299.867	3.85
300.243	4.08
300.619	4.2
300.995	4.35
301.371	3.63
301.746	4.21
302.122	4.14
302.498	3.85
302.874	4.45
303.249	4.45
303.625	4.37
304	4.27
304.376	4.52
304.751	4.89
305.127	4.89
305.502	4.58
305.878	5.03
306.253	4.8
306.628	4.42
307.003	4.79
307.378	4.57
307.754	4.56
308.129	4.86
308.504	4.67
308.879	4.04
309.254	4.14
309.629	4.18
310.003	4.79
310.378	3.97
310.753	4.31
311.128	4.66
311.502	4.08
311.877	4.8
312.252	4.38
312.626	4.07
313.001	4.35
313.375	4.55
313.75	4.88
314.124	4.82
314.498	5.12
314.873	4.44
315.247	4.91
315.621	4.37
315.995	4.28
316.369	5.12
316.743	4.83
317.117	4.35
317.491	4.98
317.865	4.51
318.239	5.14
318.613	4.4
318.987	4.81
319.361	4.99
319.734	4.46
320.108	4.68
320.482	4.38
320.855	4.92
321.229	5.23
321.602	4.84
321.976	4.81
322.349	4.8
322.723	5.35
323.096	5.36
323.469	5.07
323.843	5.27
324.216	5.04
324.589	4.96
324.962	4.32
325.335	4.72
325.708	4.92
326.081	4.77
326.454	5.14
326.827	5.35
327.2	4.91
327.573	5.05
327.945	5.02
328.318	4.97
328.691	5.21
329.063	4.94
329.436	4.96
329.809	4.65
330.181	5.12
330.553	5.06
330.926	4.5
331.298	4.9
331.671	5.32
332.043	5.11
332.415	5.23
332.787	5.28
333.159	5.46
333.532	4.13
333.904	5.05
334.276	4.68
334.648	4.64
335.02	5
335.391	4.84
335.763	4.72
336.135	4.69
336.507	5.51
336.879	5.15
337.25	4.31
337.622	5.17
337.993	4.92
338.365	5.26
338.736	4.76
339.108	4.98
339.479	5.15
339.851	4.51
340.222	4.54
340.593	4.15
340.964	5.27
341.336	4.71
341.707	4.64
342.078	4.61
342.449	5.18
342.82	4.5
343.191	5.33
343.562	4.85
343.933	4.59
344.303	5.49
344.674	5
345.045	4.88
345.416	5.09
345.786	5.15
346.157	4.69
346.527	4.84
346.898	5.06
347.268	5.01
347.639	4.94
348.009	5.12
348.38	4.68
348.75	5.04
349.12	4.89
349.49	5.1
349.861	4.96
350.231	4.87
350.601	5.46
350.971	5.05
351.341	4.72
351.711	4.73
352.081	4.46
352.45	5.01
352.82	4.9
353.19	4.9
353.56	5.37
353.929	5.29
354.299	5.15
354.669	4.47
355.038	4.96
355.408	4.81
355.777	5.47
356.147	4.92
356.516	4.99
356.885	4.65
357.254	4.93
357.624	5.12
357.993	5.19
358.362	4.82
358.731	4.85
359.1	4.61
359.469	4.89
359.838	5
360.207	5.13
360.576	5.01
360.945	5.18
361.314	4.87
361.682	4.98
362.051	4.89
362.42	4.89
362.788	4.99
363.157	4.92
363.525	5.14
363.894	4.87
364.262	4.85
364.631	4.8
364.999	4.93
365.367	4.96
365.735	5
366.104	5
366.472	5.21
366.84	4.55
367.208	4.77
367.576	5.01
367.944	5.32
368.312	4.96
368.68	5.13
369.048	4.99
369.416	4.87
369.783	4.8
370.151	5.01
370.519	5.34
370.886	5.26
371.254	4.78
371.621	4.97
371.989	4.79
372.356	5.14
372.724	5.44
373.091	5.04
373.458	5
373.826	5.33
374.193	5.08
374.56	4.93
374.927	5.09
375.294	5.45
375.661	5.55
376.028	5.08
376.395	4.99
376.762	4.88
377.129	5.22
377.496	5.1
377.863	5.51
378.229	5.15
378.596	4.89
378.963	4.86
379.329	5.04
379.696	4.9
380.062	5.02
380.429	4.85
380.795	5.07
381.161	5.5
381.528	5.02
381.894	5.05
382.26	5.15
382.626	4.87
382.993	5.09
383.359	5.15
383.725	5.11
384.091	4.81
384.457	5.09
384.823	4.84
385.188	5
385.554	5.06
385.92	4.87
386.286	5.03
386.651	4.99
387.017	4.83
387.383	5.03
387.748	4.97
388.114	4.92
388.479	5.04
388.845	4.9
389.21	5.21
389.575	4.87
389.94	5.14
390.306	5.01
390.671	4.82
391.036	4.87
391.401	4.67
391.766	5.05
392.131	4.54
392.496	5.17
392.861	4.93
393.226	4.9
393.591	5.11
393.956	5.06
394.32	5.24
394.685	5.27
395.05	5.36
395.414	5.38
395.779	5.06
396.143	5
396.508	4.97
396.872	5.15
397.236	5.23
397.601	5.3
397.965	5.05
398.329	4.99
398.694	4.93
399.058	5.25
399.422	5.03
399.786	5.2
400.15	4.97
400.514	4.79
400.878	5.19
401.242	5.18
401.605	5.08
401.969	4.99
402.333	5.02
402.697	5.2
403.06	5.16
403.424	5.11
403.787	5.2
404.151	5.02
404.514	5.01
404.878	5.24
405.241	4.99
405.604	5.11
405.968	5.23
406.331	4.92
406.694	5.05
407.057	5.09
407.42	5.2
407.783	5
408.146	5.21
408.509	5.21
408.872	5.3
409.235	5.2
409.598	4.8
409.961	5.18
410.323	5.4
410.686	5.24
411.049	5.36
411.411	5.04
411.774	4.97
412.136	5.15
412.499	5.19
412.861	5.15
413.223	5.12
413.586	4.99
413.948	4.92
414.31	5.29
414.672	5.29
415.035	5.14
415.397	5.34
415.759	5.08
416.121	5.37
416.483	5.11
416.845	5.09
417.206	5.25
417.568	5.05
417.93	5.13
418.292	5.17
418.653	5.08
419.015	5.07
419.377	5.22
419.738	5.09
420.1	5.02
420.461	5.08
420.822	5.08
421.184	5.01
421.545	5.08
421.906	5
422.267	5.08
422.629	5.02
422.99	5.02
423.351	5.01
423.712	5.07
424.073	5.11
424.434	5.04
424.795	5.22
425.155	4.99
425.516	5.04
425.877	5.15
426.238	4.98
426.598	5.03
426.959	5.07
427.32	5.16
427.68	5.13
428.041	5.28
428.401	5.13
428.761	5.12
429.122	5.3
429.482	5.28
429.842	5.18
430.202	5.17
430.563	5.21
430.923	5.27
431.283	5.15
431.643	5.38
432.003	5.32
432.363	5.38
432.722	5.24
433.082	5.21
433.442	5.14
433.802	5.29
434.161	5.22
434.521	5.17
434.881	5.19
435.24	5.3
435.6	5.25
435.959	5.22
436.319	5.24
436.678	5.22
437.037	5.26
437.396	5.06
437.756	5.38
438.115	5.05
438.474	5.13
438.833	5.16
439.192	5.2
439.551	5.1
439.91	5.34
440.269	5.3
440.628	5.23
440.987	5.27
441.345	5.28
441.704	5.17
442.063	5.3
442.421	5.19
442.78	5.15
443.138	5.27
443.497	5.21
443.855	5.18
444.214	5.21
444.572	5.31
444.93	5.31
445.288	5.58
445.647	5.28
446.005	5.35
446.363	5.18
446.721	5.19
447.079	5.2
447.437	5.22
447.795	5.15
448.153	5.17
448.51	5.13
448.868	5.14
449.226	5.21
449.584	5.32
449.941	5.29
450.299	5.3
450.656	5.32
451.014	5.39
451.371	5.24
451.729	5.39
452.086	5.26
452.443	5.44
452.801	5.37
453.158	5.41
453.515	5.31
453.872	5.37
454.229	5.32
454.586	5.28
454.943	5.41
455.3	5.39
455.657	5.45
456.014	5.34
456.371	5.29
456.727	5.44
457.084	5.39
457.441	5.36
457.797	5.4
458.154	5.44
458.51	5.45
458.867	5.55
459.223	5.41
459.58	5.46
459.936	5.38
460.292	5.39
460.648	5.23
461.005	5.36
461.361	5.29
461.717	5.18
462.073	5.42
462.429	5.41
462.785	5.34
463.141	5.56
463.496	5.41
463.852	5.44
464.208	5.46
464.564	5.52
464.919	5.51
465.275	5.53
465.631	5.52
465.986	5.42
466.342	5.47
466.697	5.59
467.052	5.49
467.408	5.5
467.763	5.43
468.118	5.66
468.473	5.52
468.829	5.62
469.184	5.6
469.539	5.58
469.894	5.54
470.249	5.52
470.603	5.42
470.958	5.64
471.313	5.66
471.668	5.54
472.023	5.7
472.377	5.59
472.732	5.54
473.086	5.6
473.441	5.49
473.795	5.5
474.15	5.62
474.504	5.58
474.859	5.63
475.213	5.71
475.567	5.73
475.921	5.67
476.275	5.62
476.63	5.57
476.984	5.59
477.338	5.53
477.692	5.58
478.045	5.53
478.399	5.34
478.753	5.62
479.107	5.57
479.461	5.57
479.814	5.55
480.168	5.7
480.521	5.62
480.875	5.59
481.228	5.59
481.582	5.63
481.935	5.6
482.289	5.71
482.642	5.53
482.995	5.57
483.348	5.53
483.701	5.59
484.055	5.52
484.408	5.36
484.761	5.3
485.114	5.2
485.466	5.08
485.819	5.13
486.172	5.28
486.525	5.37
486.878	5.5
487.23	5.46
487.583	5.48
487.936	5.52
488.288	5.35
488.641	5.32
488.993	5.32
489.345	5.27
489.698	5.33
490.05	5.34
490.402	5.46
490.754	5.57
491.107	5.64
491.459	5.65
491.811	5.58
492.163	5.66
492.515	5.56
492.866	5.33
493.218	5.28
493.57	5.25
493.922	5.54
494.274	5.61
494.625	5.61
494.977	5.66
495.328	5.78
495.68	5.71
496.031	5.79
496.383	5.74
496.734	5.76
497.086	5.73
497.437	5.71
497.788	5.74
498.139	5.68
498.49	5.68
498.842	5.68
499.193	5.7
499.544	5.83
499.894	5.8
500.245	5.77
500.596	5.79
500.947	5.7
501.298	5.86
501.648	5.93
501.999	5.87
502.35	5.84
502.7	5.72
503.051	5.84
503.401	5.77
503.752	5.74
504.102	5.81
504.452	5.72
504.803	5.85
505.153	5.88
505.503	5.91
505.853	5.86
506.203	5.9
506.553	6
506.903	5.92
507.253	5.95
507.603	5.96
507.953	5.91
508.303	5.95
508.652	5.81
509.002	5.88
509.352	5.94
509.701	5.88
510.051	5.91
510.4	5.82
510.75	5.83
511.099	5.89
511.449	5.88
511.798	5.9
512.147	5.99
512.496	5.89
512.846	5.8
513.195	5.81
513.544	5.93
513.893	5.85
514.242	5.94
514.591	5.97
514.939	5.92
515.288	5.91
515.637	5.94
515.986	5.99
516.334	6.04
516.683	6.01
517.032	5.99
517.38	6.02
517.729	6.07
518.077	6.01
518.426	6.15
518.774	5.9
519.122	5.97
519.47	5.84
519.819	5.92
520.167	5.82
520.515	5.86
520.863	5.95
521.211	6.01
521.559	5.99
521.907	6.07
522.255	6.09
522.602	6.17
522.95	6.15
523.298	6.08
523.645	6.15
523.993	6.19
524.341	6.17
524.688	6.07
525.036	6.14
525.383	6.07
525.73	6.04
526.078	6.24
526.425	6.05
526.772	6.06
527.119	5.97
527.466	5.9
527.814	5.96
528.161	5.96
528.508	6.05
528.854	5.99
529.201	6.03
529.548	5.98
529.895	5.8
530.242	5.67
530.588	5.71
530.935	5.88
531.282	6.06
531.628	6.06
531.975	6.1
532.321	6.1
532.667	6.21
533.014	6.13
533.36	6.09
533.706	6.08
534.052	6.05
534.399	5.95
534.745	5.98
535.091	5.92
535.437	6.03
535.783	6.04
536.129	6.16
536.474	6.26
536.82	6.35
537.166	6.31
537.512	6.37
537.857	6.19
538.203	6.13
538.549	6.08
538.894	6.22
539.239	6.26
539.585	6.36
539.93	6.37
540.276	6.37
540.621	6.28
540.966	6.42
541.311	6.51
541.656	6.15
542.001	6.37
542.346	6.24
542.691	6.12
543.036	6.05
543.381	6.04
543.726	6.17
544.071	6.24
544.415	6.35
544.76	6.33
545.105	6.35
545.449	6.36
545.794	6.34
546.138	6.48
546.483	6.43
546.827	6.5
547.171	6.39
547.516	6.33
547.86	6.46
548.204	6.34
548.548	6.44
548.892	6.47
549.236	6.5
549.58	6.64
549.924	6.61
550.268	6.76
550.612	6.76
550.956	6.75
551.3	6.81
551.643	6.71
551.987	6.65
552.33	6.75
552.674	6.7
553.017	6.78
553.361	6.76
553.704	6.79
554.048	6.62
554.391	6.75
554.734	6.63
555.077	6.75
555.42	6.79
555.764	6.74
556.107	6.84
556.45	6.9
556.793	6.89
557.135	6.76
557.478	6.83
557.821	6.83
558.164	6.79
558.507	6.92
558.849	6.85
559.192	6.89
559.534	6.93
559.877	7.08
560.219	7.11
560.562	7
560.904	7.02
561.246	6.81
561.589	7.02
561.931	6.97
562.273	6.97
562.615	6.87
562.957	7.01
563.299	7.04
563.641	7.07
563.983	6.98
564.325	6.99
564.667	7.06
565.008	7.09
565.35	7.04
565.692	7.15
566.033	7.29
566.375	6.99
566.716	7.09
567.058	7.03
567.399	6.96
567.741	7.22
568.082	7.07
568.423	7.11
568.764	7.21
569.105	7.19
569.447	7.32
569.788	7.3
570.129	7.36
570.47	7.13
570.811	7.38
571.151	7.31
571.492	7.37
571.833	7.26
572.174	7.22
572.514	7.32
572.855	7.22
573.195	7.34
573.536	7.27
573.876	7.32
574.217	7.23
574.557	7.24
574.898	7.4
575.238	7.29
575.578	7.3
575.918	7.24
576.258	7.37
576.598	7.47
576.938	7.3
577.278	7.51
577.618	7.48
577.958	7.56
578.298	7.65
578.638	7.44
578.977	7.5
579.317	7.4
579.657	7.59
579.996	7.63
580.336	7.78
580.675	7.63
581.014	7.78
581.354	7.81
581.693	7.7
582.032	7.84
582.372	7.77
582.711	7.82
583.05	7.75
583.389	7.67
583.728	7.67
584.067	7.79
584.406	7.67
584.745	7.79
585.083	7.91
585.422	7.83
585.761	7.99
586.1	7.9
586.438	7.82
586.777	8.02
587.115	7.81
587.454	8.16
587.792	8.07
588.13	8.2
588.469	8.01
588.807	8.2
589.145	8.05
589.483	8.11
589.821	7.85
590.159	7.91
590.497	7.98
590.835	8.06
591.173	8.17
591.511	7.97
591.849	7.83
592.187	8.12
592.524	8.08
592.862	8.27
593.2	8.48
593.537	8.14
593.875	8.21
594.212	8.31
594.55	8.12
594.887	8.21
595.224	8.28
595.561	8.31
595.899	8.03
596.236	8.03
596.573	8.25
596.91	8.14
597.247	8.11
597.584	8.19
597.921	8.11
598.258	8.19
598.594	8.1
598.931	8.21
599.268	8.26
599.604	8.4
599.941	8.37
600.277	8.15
600.614	8.5
600.95	8.4
601.287	8.76
601.623	8.49
601.959	8.28
602.296	8.5
602.632	8.54
602.968	8.54
603.304	8.4
603.64	8.51
603.976	8.67
604.312	8.47
604.648	8.29
604.984	8.58
605.319	8.28
605.655	8.32
605.991	8.53
606.326	8.5
606.662	8.36
606.998	8.54
607.333	8.62
607.668	8.84
608.004	8.76
608.339	8.87
608.674	8.91
609.01	8.52
609.345	8.63
609.68	9.09
610.015	9
610.35	8.9
610.685	8.93
611.02	9.04
611.355	8.57
611.689	8.78
612.024	8.78
612.359	8.76
612.694	9.04
613.028	8.99
613.363	8.89
613.697	9.05
614.032	8.87
614.366	8.77
614.7	8.94
615.035	8.94
615.369	9.48
615.703	9.24
616.037	9.21
616.371	8.93
616.705	9.42
617.039	8.92
617.373	9.48
617.707	9.43
618.041	9.13
618.375	9.48
618.709	9.08
619.042	9.2
619.376	9.2
619.71	9.21
620.043	9.25
620.377	9.21
620.71	9.45
621.043	9.15
621.377	8.89
621.71	9.44
622.043	9.37
622.376	9.12
622.709	9.25
623.043	9.25
623.376	9.49
623.709	9.32
624.041	9.92
624.374	9.44
624.707	9.45
625.04	9.45
625.373	9.68
625.705	9.74
626.038	9.51
626.37	9.63
626.703	9.77
627.035	9.26
627.368	9.62
627.7	9.57
628.032	9.41
628.365	9.72
628.697	10.08
629.029	9.63
629.361	9.57
629.693	9.8
630.025	9.63
630.357	9.64
630.689	10.04
631.021	9.47
631.353	9.54
631.684	9.79
632.016	9.77
632.348	9.83
632.679	9.86
633.011	9.93
633.342	9.55
633.674	9.86
634.005	10.21
634.336	9.92
634.668	9.77
634.999	9.96
635.33	10.06
635.661	9.87
635.992	10.09
636.323	10.08
636.654	9.99
636.985	10.36
637.316	10.15
637.647	10.19
637.977	10.16
638.308	9.96
638.639	10.55
638.969	10.44
639.3	10.2
639.63	10.47
639.961	9.89
640.291	10.23
640.622	10.16
640.952	10.27
641.282	10.28
641.612	10.17
641.943	10.24
642.273	10.63
642.603	10.42
642.933	10.36
643.263	9.98
643.592	10.56
643.922	10.15
644.252	10.46
644.582	10.27
644.911	10.84
645.241	10.79
645.571	10.85
645.9	10.76
646.23	10.83
646.559	10.57
646.888	10.79
647.218	10.45
647.547	10.63
647.876	10.53
648.205	10.75
648.534	10.48
648.863	10.53
649.192	10.92
649.521	10.96
649.85	10.74
650.179	10.62
650.508	10.74
650.837	11.05
651.165	11.07
651.494	11.24
651.822	10.78
652.151	10.3
652.479	10.98
652.808	10.91
653.136	10.88
653.465	10.96
653.793	10.91
654.121	10.9
654.449	10.86
654.777	10.99
655.105	11.03
655.433	10.93
655.761	10.76
656.089	11.34
656.417	10.91
656.745	10.94
657.073	11.16
657.4	11.14
657.728	11.44
658.056	10.54
658.383	11.08
658.711	11.41
659.038	11.34
659.365	10.8
659.693	11.28
660.02	11.13
660.347	11.45
660.674	10.77
661.001	11.32
661.329	10.87
661.656	11.4
661.982	11.48
662.309	11.48
662.636	11.18
662.963	11.71
663.29	11.65
663.616	11.47
663.943	11.77
664.27	11.49
664.596	11.72
664.923	11.55
665.249	11.49
665.576	11.42
665.902	11.29
666.228	11.53
666.554	11.71
666.881	11.69
667.207	11.39
667.533	11.94
667.859	11.37
668.185	11.19
668.511	11.45
668.837	12.12
669.162	12.18
669.488	11.82
669.814	11.44
670.139	11.89
670.465	12.12
670.791	11.09
671.116	11.53
671.442	12.27
671.767	12.02
672.092	11.7
672.418	11.55
672.743	12.32
673.068	12.08
673.393	11.57
673.718	11.72
674.043	11.96
674.368	12.06
674.693	12.11
675.018	12.09
675.343	11.53
675.667	11.96
675.992	12.22
676.317	12.23
676.641	12.5
676.966	12
677.29	11.64
677.615	12.76
677.939	12.66
678.264	11.92
678.588	12.7
678.912	12.67
679.236	12.07
679.56	12.6
679.885	11.93
680.209	12.56
680.532	12.05
680.856	12.4
681.18	12.23
681.504	12.06
681.828	11.94
682.152	12.68
682.475	12.16
682.799	12.27
683.122	12.31
683.446	12.49
683.769	13.09
684.093	12.36
684.416	12.68
684.739	12.65
685.062	12.56
685.386	12.32
685.709	12.87
686.032	12.4
686.355	12.53
686.678	12.75
687.001	13.15
687.324	12.27
687.646	12.63
687.969	12.88
688.292	12.94
688.614	12.44
