Data from 002-16_forehead_Reflection__3__156.txt Node

Date: Fri Nov 11 17:16:34 CST 2022
User: ToomeyLab
Spectrometer: FLMS14357
Trigger mode: 0
Integration Time (sec): 1.000000E-2
Scans to average: 100
Electric dark correction enabled: true
Nonlinearity correction enabled: false
Boxcar width: 0
XAxis mode: Wavelengths
Number of Pixels in Spectrum: 2048
>>>>>Begin Spectral Data<<<<<
189.047	218.92
189.435	218.92
189.823	218.92
190.211	164.56
190.599	47.23
190.987	392.87
191.375	961.58
191.763	16.98
192.151	105.12
192.538	171.92
192.926	-190.83
193.314	-1430.2
193.702	-286.9
194.089	-70.16
194.477	-232.54
194.864	412.58
195.252	336.25
195.639	58.56
196.027	21.7
196.414	35.16
196.801	50909.09
197.189	306.34
197.576	84.59
197.963	122.7
198.351	36.19
198.738	57.64
199.125	32.47
199.512	41.5
199.899	-0.63
200.286	29.25
200.673	58.11
201.06	57.73
201.447	66.24
201.833	27.9
202.22	54.01
202.607	39.54
202.994	74.4
203.38	33.53
203.767	29.56
204.154	3.94
204.54	70.25
204.927	51.92
205.313	51.23
205.699	33.95
206.086	60.25
206.472	39.26
206.858	8.54
207.245	60.61
207.631	65.98
208.017	51.94
208.403	18.44
208.789	23.35
209.175	38.52
209.561	72.59
209.947	17.9
210.333	77.22
210.719	55.31
211.105	24.48
211.491	43.35
211.876	79.69
212.262	-12.03
212.648	31.64
213.034	51.16
213.419	9.93
213.805	54.46
214.19	33.11
214.576	40.5
214.961	34.73
215.346	-0.94
215.732	22.51
216.117	31
216.502	10.82
216.888	31.08
217.273	32.37
217.658	41.63
218.043	20.54
218.428	4.34
218.813	32.94
219.198	15.24
219.583	12.73
219.968	46.59
220.353	-4.98
220.738	21.97
221.122	1.83
221.507	27.97
221.892	24.22
222.276	15.52
222.661	19.45
223.046	26.01
223.43	19.67
223.815	13.18
224.199	12.69
224.583	9.68
224.968	22.4
225.352	-0.04
225.736	13.63
226.121	8.16
226.505	12.27
226.889	14.14
227.273	12.06
227.657	-2.05
228.041	6.56
228.425	11.77
228.809	15.89
229.193	5.22
229.577	8.43
229.961	6.78
230.344	7
230.728	7.06
231.112	6.66
231.495	6.14
231.879	6.87
232.263	5.4
232.646	6.55
233.03	6.78
233.413	4.96
233.797	5.16
234.18	7.32
234.563	5.69
234.946	6.76
235.33	5.83
235.713	6.15
236.096	5.78
236.479	7.54
236.862	7.89
237.245	7.99
237.628	8.52
238.011	7.72
238.394	7.97
238.777	6.33
239.16	7.05
239.543	9.23
239.925	6.87
240.308	7.11
240.691	5.64
241.073	5.83
241.456	6.66
241.838	6.33
242.221	6.21
242.603	6.09
242.986	6.49
243.368	5.65
243.75	5.74
244.133	5.45
244.515	6.46
244.897	6.02
245.279	6.23
245.661	6.33
246.043	6.42
246.425	7.71
246.807	5.76
247.189	5.63
247.571	5.82
247.953	6.43
248.335	6.19
248.717	6.1
249.098	6.05
249.48	6.33
249.862	5.79
250.243	6.06
250.625	6.61
251.006	6.83
251.388	6.41
251.769	6.46
252.151	6.08
252.532	7.04
252.913	6.15
253.295	6.32
253.676	7.1
254.057	6.12
254.438	6.31
254.819	5.86
255.2	6.87
255.581	6.4
255.962	6.61
256.343	7.21
256.724	7.16
257.105	6.61
257.486	6.59
257.867	6.79
258.247	7.22
258.628	5.92
259.009	6.84
259.389	7.11
259.77	7.3
260.15	7.21
260.531	6.13
260.911	6.37
261.292	6.36
261.672	6.03
262.052	6.11
262.432	6.4
262.813	6.06
263.193	5.96
263.573	7.56
263.953	6.44
264.333	6.25
264.713	6.68
265.093	6.53
265.473	8.15
265.853	6.17
266.233	6.72
266.612	5.75
266.992	6.17
267.372	6.44
267.752	6.36
268.131	6.54
268.511	6.94
268.89	6.88
269.27	6.31
269.649	5.7
270.029	5.52
270.408	5.82
270.787	6.72
271.167	6.22
271.546	5.98
271.925	6.34
272.304	6.8
272.683	5.81
273.062	6.56
273.441	5.98
273.82	5.42
274.199	6.24
274.578	6.24
274.957	5.35
275.336	5.91
275.715	6.39
276.093	6.8
276.472	6.36
276.851	6.11
277.229	5.72
277.608	6.33
277.986	6.2
278.365	6.39
278.743	5.72
279.122	6.29
279.5	5.73
279.878	5.53
280.257	6.39
280.635	5.85
281.013	6.38
281.391	5.89
281.769	7.2
282.147	6.24
282.525	5.49
282.903	6.99
283.281	6.01
283.659	6.31
284.037	6.27
284.415	5.54
284.792	5.94
285.17	6.04
285.548	6.26
285.925	6.1
286.303	5.89
286.68	6.3
287.058	6.23
287.435	6.26
287.813	6.43
288.19	6.35
288.567	6.4
288.945	5.88
289.322	6.31
289.699	6.22
290.076	6.19
290.453	6.35
290.83	6.58
291.207	7.05
291.584	6.76
291.961	6.53
292.338	6.88
292.715	6.2
293.092	6.62
293.469	6.99
293.845	7.15
294.222	7.6
294.599	7.58
294.975	7.37
295.352	7.1
295.728	6.97
296.105	7.35
296.481	7.09
296.858	7.32
297.234	7.63
297.61	7.25
297.986	7.01
298.363	7.53
298.739	7.3
299.115	7.19
299.491	7.38
299.867	7.51
300.243	7.54
300.619	8.02
300.995	7.85
301.371	7.82
301.746	8.01
302.122	8.14
302.498	7.63
302.874	8.37
303.249	7.79
303.625	8.14
304	8.12
304.376	8.76
304.751	8.8
305.127	8.58
305.502	8.59
305.878	9.46
306.253	9.15
306.628	9.71
307.003	9.04
307.378	9.47
307.754	9.33
308.129	9.41
308.504	9.96
308.879	9.36
309.254	9.26
309.629	9.57
310.003	9.66
310.378	9.38
310.753	9.75
311.128	10.28
311.502	9.56
311.877	10.38
312.252	10.06
312.626	9.84
313.001	10.36
313.375	10.77
313.75	10.83
314.124	10.87
314.498	11.28
314.873	10.67
315.247	11.16
315.621	11.32
315.995	11.1
316.369	11.86
316.743	11.32
317.117	11.51
317.491	11.66
317.865	11.69
318.239	12.21
318.613	12.18
318.987	12.61
319.361	11.97
319.734	11.31
320.108	12.54
320.482	12.52
320.855	12.88
321.229	12.68
321.602	12.89
321.976	11.99
322.349	12.78
322.723	13.63
323.096	13.49
323.469	13.34
323.843	13.74
324.216	13.16
324.589	13.37
324.962	13.62
325.335	14.05
325.708	13.52
326.081	12.87
326.454	13.07
326.827	13.81
327.2	14.05
327.573	13.52
327.945	13.58
328.318	14.21
328.691	14.59
329.063	14.24
329.436	14.03
329.809	14.35
330.181	15.05
330.553	14.82
330.926	14.42
331.298	14.88
331.671	15.09
332.043	15.62
332.415	14.61
332.787	15.33
333.159	15.15
333.532	14.96
333.904	15.18
334.276	15.46
334.648	15.5
335.02	15.73
335.391	15.35
335.763	15.44
336.135	15.53
336.507	16.3
336.879	15.28
337.25	15.18
337.622	16.01
337.993	15.92
338.365	16.16
338.736	16.23
339.108	16.42
339.479	16.26
339.851	16.39
340.222	16.27
340.593	16.16
340.964	16.8
341.336	16.8
341.707	17.01
342.078	16.55
342.449	16.74
342.82	17.08
343.191	17.23
343.562	17.22
343.933	16.43
344.303	17.68
344.674	17.83
345.045	17.28
345.416	17.54
345.786	17.36
346.157	17.55
346.527	17.84
346.898	17.69
347.268	17.93
347.639	17.8
348.009	17.81
348.38	17.94
348.75	18.15
349.12	18.09
349.49	18.23
349.861	17.88
350.231	18.08
350.601	18.63
350.971	18.84
351.341	18.58
351.711	18.61
352.081	18.09
352.45	18.44
352.82	18.98
353.19	19.01
353.56	19.04
353.929	19.19
354.299	18.75
354.669	19.28
355.038	18.99
355.408	19.06
355.777	19.74
356.147	19.35
356.516	19.33
356.885	19.41
357.254	19.51
357.624	19.74
357.993	19.7
358.362	19.5
358.731	19.4
359.1	19.72
359.469	19.74
359.838	20.14
360.207	20.05
360.576	20.14
360.945	20.04
361.314	20.11
361.682	20.11
362.051	19.81
362.42	20.24
362.788	20.18
363.157	20.47
363.525	20.47
363.894	20.18
364.262	20.26
364.631	20.47
364.999	20.79
365.367	21.07
365.735	21.05
366.104	20.95
366.472	21.25
366.84	21.34
367.208	21.27
367.576	21.25
367.944	21.85
368.312	21.42
368.68	21.56
369.048	21.81
369.416	21.69
369.783	21.36
370.151	21.82
370.519	22.21
370.886	21.69
371.254	21.63
371.621	21.82
371.989	22.07
372.356	22.05
372.724	22.38
373.091	22.47
373.458	22.08
373.826	22.5
374.193	22.36
374.56	22.26
374.927	22.68
375.294	23
375.661	22.86
376.028	22.99
376.395	22.89
376.762	22.85
377.129	22.78
377.496	22.78
377.863	23.03
378.229	23.04
378.596	23.13
378.963	23.13
379.329	23.36
379.696	23.22
380.062	23.4
380.429	23.08
380.795	23.38
381.161	23.63
381.528	23.72
381.894	23.89
382.26	23.67
382.626	23.88
382.993	23.99
383.359	23.97
383.725	24.01
384.091	23.86
384.457	24.17
384.823	24.36
385.188	24.12
385.554	24.6
385.92	23.96
386.286	24.43
386.651	24.32
387.017	24.69
387.383	24.36
387.748	24.34
388.114	24.69
388.479	24.76
388.845	25.04
389.21	24.67
389.575	24.95
389.94	25.15
390.306	25.06
390.671	24.83
391.036	25.42
391.401	25.19
391.766	25.3
392.131	24.92
392.496	25.3
392.861	25.31
393.226	25.68
393.591	25.42
393.956	25.42
394.32	25.8
394.685	25.6
395.05	26
395.414	25.74
395.779	25.79
396.143	25.97
396.508	25.86
396.872	26.01
397.236	25.98
397.601	26.28
397.965	26.3
398.329	26
398.694	26.38
399.058	26.3
399.422	26.15
399.786	26.2
400.15	26.29
400.514	26.66
400.878	26.33
401.242	26.53
401.605	26.63
401.969	26.75
402.333	26.67
402.697	26.73
403.06	26.93
403.424	26.94
403.787	27.06
404.151	26.66
404.514	26.91
404.878	26.93
405.241	27.06
405.604	26.99
405.968	27.17
406.331	27
406.694	27.16
407.057	27.31
407.42	27.18
407.783	27.16
408.146	27.45
408.509	27.46
408.872	27.77
409.235	27.8
409.598	27.35
409.961	27.69
410.323	27.75
410.686	27.71
411.049	28.05
411.411	27.68
411.774	27.73
412.136	27.74
412.499	28.07
412.861	28.1
413.223	28.12
413.586	27.95
413.948	28.26
414.31	28.33
414.672	28.43
415.035	28.18
415.397	28.61
415.759	28.43
416.121	28.41
416.483	28.42
416.845	28.62
417.206	28.7
417.568	28.65
417.93	28.49
418.292	28.56
418.653	28.52
419.015	28.68
419.377	28.7
419.738	28.87
420.1	28.74
420.461	28.85
420.822	28.94
421.184	28.8
421.545	28.89
421.906	28.89
422.267	28.88
422.629	29
422.99	28.87
423.351	28.92
423.712	29.25
424.073	29.29
424.434	29.47
424.795	29.67
425.155	29.64
425.516	29.59
425.877	29.55
426.238	29.62
426.598	29.57
426.959	29.68
427.32	30.1
427.68	30.05
428.041	30.41
428.401	30.16
428.761	30.39
429.122	30.75
429.482	30.72
429.842	30.85
430.202	31.14
430.563	31.13
430.923	31.25
431.283	31.23
431.643	31.38
432.003	31.4
432.363	31.43
432.722	31.55
433.082	31.57
433.442	31.5
433.802	31.74
434.161	31.72
434.521	31.76
434.881	31.63
435.24	31.62
435.6	31.67
435.959	31.79
436.319	31.93
436.678	31.85
437.037	32.16
437.396	32.17
437.756	32.31
438.115	32.34
438.474	32.49
438.833	32.48
439.192	32.4
439.551	32.44
439.91	32.88
440.269	32.9
440.628	32.8
440.987	32.86
441.345	32.78
441.704	32.8
442.063	32.94
442.421	32.8
442.78	32.65
443.138	32.92
443.497	33.01
443.855	33.28
444.214	33.3
444.572	33.6
444.93	33.52
445.288	33.56
445.647	33.5
446.005	33.75
446.363	33.71
446.721	33.65
447.079	33.55
447.437	33.45
447.795	33.6
448.153	33.51
448.51	33.66
448.868	33.62
449.226	33.68
449.584	33.95
449.941	34.07
450.299	34.29
450.656	34.37
451.014	34.41
451.371	34.53
451.729	34.54
452.086	34.64
452.443	34.97
452.801	35.11
453.158	35.06
453.515	35.11
453.872	35.25
454.229	35.06
454.586	35.14
454.943	35.2
455.3	35.31
455.657	35.46
456.014	35.27
456.371	35.43
456.727	35.68
457.084	35.65
457.441	35.76
457.797	35.58
458.154	35.99
458.51	35.95
458.867	36.09
459.223	36.23
459.58	36.24
459.936	36.02
460.292	36.02
460.648	36.02
461.005	36.08
461.361	35.82
461.717	35.8
462.073	35.78
462.429	35.97
462.785	36.21
463.141	36.41
463.496	36.64
463.852	37.07
464.208	36.56
464.564	37.11
464.919	37.11
465.275	37.27
465.631	37.3
465.986	37.27
466.342	37.28
466.697	37.39
467.052	37.37
467.408	37.45
467.763	37.39
468.118	37.7
468.473	37.69
468.829	37.85
469.184	37.77
469.539	37.88
469.894	37.9
470.249	37.61
470.603	37.9
470.958	37.99
471.313	38.15
471.668	38.08
472.023	38.34
472.377	38.45
472.732	38.75
473.086	38.41
473.441	38.57
473.795	38.59
474.15	38.69
474.504	38.54
474.859	38.69
475.213	38.83
475.567	39.06
475.921	39
476.275	39.09
476.63	38.88
476.984	39.28
477.338	39.1
477.692	39.3
478.045	39.05
478.399	39.13
478.753	39.3
479.107	39.21
479.461	39.38
479.814	39.33
480.168	39.49
480.521	39.65
480.875	39.52
481.228	39.57
481.582	39.66
481.935	39.63
482.289	39.84
482.642	39.91
482.995	39.73
483.348	39.44
483.701	39.65
484.055	39.48
484.408	39.4
484.761	39.05
485.114	38.95
485.466	39.03
485.819	39.19
486.172	39.12
486.525	39.25
486.878	39.41
487.23	39.31
487.583	39.67
487.936	39.72
488.288	39.94
488.641	39.63
488.993	39.52
489.345	39.52
489.698	39.72
490.05	39.72
490.402	39.76
490.754	40.01
491.107	40.1
491.459	40.54
491.811	40.68
492.163	40.65
492.515	40.79
492.866	40.54
493.218	40.31
493.57	40.27
493.922	40.45
494.274	40.58
494.625	40.72
494.977	41.17
495.328	41.36
495.68	41.65
496.031	41.75
496.383	41.87
496.734	41.84
497.086	41.86
497.437	42.08
497.788	42.13
498.139	42.09
498.49	41.77
498.842	41.81
499.193	41.91
499.544	41.97
499.894	42.21
500.245	42.12
500.596	42.34
500.947	42.44
501.298	42.64
501.648	42.73
501.999	42.83
502.35	42.87
502.7	42.84
503.051	42.98
503.401	42.92
503.752	43.29
504.102	43.31
504.452	43.09
504.803	43.1
505.153	43.33
505.503	43.22
505.853	43.3
506.203	43.45
506.553	43.37
506.903	43.36
507.253	43.57
507.603	43.79
507.953	43.94
508.303	43.49
508.652	43.84
509.002	43.66
509.352	43.82
509.701	43.86
510.051	43.88
510.4	43.56
510.75	43.63
511.099	43.79
511.449	43.9
511.798	43.82
512.147	44.1
512.496	44.11
512.846	43.98
513.195	44.2
513.544	44.22
513.893	44.17
514.242	44.38
514.591	44.46
514.939	44.51
515.288	44.53
515.637	44.64
515.986	44.68
516.334	44.93
516.683	44.76
517.032	44.99
517.38	45.03
517.729	45.09
518.077	45.08
518.426	45.08
518.774	45.17
519.122	44.91
519.47	45.14
519.819	44.95
520.167	44.86
520.515	44.77
520.863	44.91
521.211	44.98
521.559	45.15
521.907	45.41
522.255	45.42
522.602	45.42
522.95	45.72
523.298	45.85
523.645	45.82
523.993	45.84
524.341	45.91
524.688	46.06
525.036	46.07
525.383	45.96
525.73	46.03
526.078	46.22
526.425	46.2
526.772	45.97
527.119	45.75
527.466	45.68
527.814	45.72
528.161	45.82
528.508	45.81
528.854	45.95
529.201	45.68
529.548	45.9
529.895	45.61
530.242	45.74
530.588	45.79
530.935	45.84
531.282	45.97
531.628	45.96
531.975	45.87
532.321	46.2
532.667	46.46
533.014	46.63
533.36	46.67
533.706	46.77
534.052	46.62
534.399	46.72
534.745	46.54
535.091	46.41
535.437	46.44
535.783	46.54
536.129	46.78
536.474	47.04
536.82	47.2
537.166	47.47
537.512	47.38
537.857	47.43
538.203	47.15
538.549	47.16
538.894	47.38
539.239	47.63
539.585	47.54
539.93	47.9
540.276	47.97
540.621	48.11
540.966	48.15
541.311	48.33
541.656	48.12
542.001	48.12
542.346	48.14
542.691	47.73
543.036	47.53
543.381	47.62
543.726	47.68
544.071	47.82
544.415	47.87
544.76	48.08
545.105	48.03
545.449	48.25
545.794	48.63
546.138	48.7
546.483	48.58
546.827	48.55
547.171	48.85
547.516	48.8
547.86	49.05
548.204	48.95
548.548	49
548.892	48.97
549.236	49.16
549.58	49.42
549.924	49.44
550.268	49.53
550.612	49.88
550.956	49.83
551.3	49.99
551.643	50.26
551.987	50.24
552.33	50.38
552.674	50.19
553.017	50.38
553.361	50.37
553.704	50.25
554.048	50.47
554.391	50.19
554.734	50.24
555.077	50.44
555.42	50.37
555.764	50.53
556.107	50.6
556.45	50.6
556.793	50.78
557.135	50.53
557.478	50.89
557.821	51.21
558.164	51.18
558.507	51.08
558.849	50.93
559.192	51.22
559.534	51.31
559.877	51.11
560.219	51.46
560.562	51.38
560.904	51.33
561.246	51.81
561.589	51.61
561.931	51.74
562.273	51.66
562.615	51.51
562.957	51.82
563.299	51.61
563.641	51.94
563.983	51.75
564.325	51.92
564.667	51.58
565.008	51.97
565.35	52.01
565.692	52.02
566.033	52.44
566.375	52.41
566.716	52.02
567.058	52.24
567.399	51.92
567.741	52
568.082	51.78
568.423	52
568.764	52.19
569.105	52.14
569.447	52.52
569.788	52.17
570.129	52.34
570.47	52.35
570.811	52.67
571.151	52.86
571.492	52.94
571.833	52.9
572.174	52.83
572.514	52.98
572.855	52.86
573.195	52.95
573.536	52.92
573.876	52.97
574.217	52.7
574.557	52.84
574.898	52.55
575.238	52.99
575.578	53
575.918	53.04
576.258	53.24
576.598	53.16
576.938	53.34
577.278	53.17
577.618	53.53
577.958	53.39
578.298	53.48
578.638	53.42
578.977	53.52
579.317	53.49
579.657	53.82
579.996	53.83
580.336	54.11
580.675	53.8
581.014	54.02
581.354	54.15
581.693	54.07
582.032	54.39
582.372	54.26
582.711	54.29
583.05	54.48
583.389	54.84
583.728	54.3
584.067	54.77
584.406	54.53
584.745	54.75
585.083	54.83
585.422	54.84
585.761	55.26
586.1	55.2
586.438	55.16
586.777	54.93
587.115	55.39
587.454	55.28
587.792	55.38
588.13	55.18
588.469	55.01
588.807	55.32
589.145	54.91
589.483	55.38
589.821	55.22
590.159	55.29
590.497	55.32
590.835	55.57
591.173	55.33
591.511	55.4
591.849	55.32
592.187	55.63
592.524	55.55
592.862	55.79
593.2	55.86
593.537	55.48
593.875	55.93
594.212	55.81
594.55	55.8
594.887	55.89
595.224	56.26
595.561	56.34
595.899	55.9
596.236	55.79
596.573	56.01
596.91	56.13
597.247	55.9
597.584	56.36
597.921	55.93
598.258	56.32
598.594	55.9
598.931	56.06
599.268	56.06
599.604	56.31
599.941	56.22
600.277	56.45
600.614	56.46
600.95	56.89
601.287	56.82
601.623	56.85
601.959	56.84
602.296	56.7
602.632	56.86
602.968	56.79
603.304	56.93
603.64	57.33
603.976	57.24
604.312	57.07
604.648	57.17
604.984	57.18
605.319	57.22
605.655	56.82
605.991	57.15
606.326	56.72
606.662	56.57
606.998	56.93
607.333	56.9
607.668	57.22
608.004	57.31
608.339	57.18
608.674	57.52
609.01	57.39
609.345	57.78
609.68	57.65
610.015	57.85
610.35	57.51
610.685	57.99
611.02	57.63
611.355	57.3
611.689	57.66
612.024	57.47
612.359	57.82
612.694	57.88
613.028	57.89
613.363	58.32
613.697	57.8
614.032	58.09
614.366	57.82
614.7	58.2
615.035	58.37
615.369	58.62
615.703	58.44
616.037	58.38
616.371	58.9
616.705	58.49
617.039	59.04
617.373	59.1
617.707	58.87
618.041	58.73
618.375	58.89
618.709	59.07
619.042	59.02
619.376	58.98
619.71	58.94
620.043	59.12
620.377	58.89
620.71	59.3
621.043	59.07
621.377	59.13
621.71	59.66
622.043	59.07
622.376	59.39
622.709	59.45
623.043	59.53
623.376	59.3
623.709	59.83
624.041	59.43
624.374	59.89
624.707	59.7
625.04	59.98
625.373	59.96
625.705	59.2
626.038	59.88
626.37	59.81
626.703	59.72
627.035	59.23
627.368	59.81
627.7	60.09
628.032	59.5
628.365	59.89
628.697	60.16
629.029	59.48
629.361	59.85
629.693	60.34
630.025	59.85
630.357	60.09
630.689	60.44
631.021	60.32
631.353	60.3
631.684	60.41
632.016	60.72
632.348	60.58
632.679	60.66
633.011	60.04
633.342	60.65
633.674	60.59
634.005	60.51
634.336	61.05
634.668	60.94
634.999	60.91
635.33	61.06
635.661	60.88
635.992	60.49
636.323	60.86
636.654	60.98
636.985	60.89
637.316	60.99
637.647	60.94
637.977	61.46
638.308	60.49
638.639	61.15
638.969	61.37
639.3	60.67
639.63	61.26
639.961	60.87
640.291	61
640.622	61.84
640.952	61.19
641.282	61.44
641.612	61.67
641.943	61.66
642.273	61.53
642.603	61.42
642.933	61.71
643.263	61.98
643.592	61.83
643.922	61.55
644.252	62.33
644.582	62.09
644.911	62.12
645.241	62.03
645.571	62.17
645.9	62.02
646.23	62.14
646.559	62.1
646.888	62.79
647.218	62.11
647.547	62.36
647.876	61.98
648.205	62.28
648.534	62.47
648.863	62.73
649.192	62.83
649.521	62.85
649.85	62.49
650.179	62.73
650.508	62.38
650.837	62.23
651.165	62.23
651.494	63.03
651.822	62.98
652.151	62.93
652.479	62.56
652.808	62.79
653.136	63.07
653.465	62.6
653.793	62.97
654.121	63.19
654.449	62.81
654.777	62.97
655.105	63.11
655.433	62.93
655.761	62.49
656.089	63.43
656.417	63.01
656.745	62.72
657.073	63.35
657.4	63.38
657.728	63.56
658.056	63.19
658.383	63.74
658.711	62.95
659.038	63.25
659.365	63.4
659.693	63.82
660.02	63.21
660.347	63.66
660.674	63.7
661.001	63.35
661.329	63.47
661.656	63.51
661.982	63.69
662.309	63.44
662.636	63.3
662.963	63.85
663.29	63.75
663.616	63.45
663.943	64.39
664.27	64.52
664.596	63.79
664.923	63.87
665.249	64.8
665.576	63.7
665.902	64.39
666.228	64.13
666.554	64.86
666.881	64.24
667.207	64.13
667.533	64.74
667.859	63.76
668.185	64.72
668.511	64.21
668.837	64.86
