Data from 0178_crown_Reflection__0__046.txt Node

Date: Mon Aug 28 19:01:00 CDT 2023
User: ToomeyLab
Spectrometer: FLMS14357
Trigger mode: 0
Integration Time (sec): 1.000000E-2
Scans to average: 100
Electric dark correction enabled: true
Nonlinearity correction enabled: false
Boxcar width: 0
XAxis mode: Wavelengths
Number of Pixels in Spectrum: 2048
>>>>>Begin Spectral Data<<<<<
189.047	42.68
189.435	42.68
189.823	42.68
190.211	-9490.7
190.599	432.44
190.987	-682.92
191.375	-28.76
191.763	-18.96
192.151	68.24
192.538	98.5
192.926	170.5
193.314	3.39
193.702	26.65
194.089	117.32
194.477	1074.12
194.864	275.55
195.252	54.42
195.639	-190.6
196.027	159.7
196.414	261.61
196.801	130.23
197.189	-23.57
197.576	361.36
197.963	-104.72
198.351	-7.62
198.738	36.34
199.125	41.1
199.512	52.93
199.899	8.23
200.286	57.38
200.673	22.45
201.06	-1.74
201.447	-13.11
201.833	-32.32
202.22	23.23
202.607	16.78
202.994	19.74
203.38	10.15
203.767	37.08
204.154	10.46
204.54	-28.78
204.927	-41
205.313	40.39
205.699	-23.77
206.086	9.56
206.472	-16.06
206.858	-11.99
207.245	6.14
207.631	24.78
208.017	-24.14
208.403	1.65
208.789	-8.51
209.175	-23
209.561	23.32
209.947	22.01
210.333	1.94
210.719	19.38
211.105	43.97
211.491	-30.32
211.876	30.3
212.262	-37.91
212.648	8.05
213.034	-0.94
213.419	-21.83
213.805	1.14
214.19	-19.56
214.576	-3.72
214.961	11.93
215.346	-7.54
215.732	-2.49
216.117	-32.91
216.502	4.59
216.888	-38.42
217.273	18.77
217.658	12.65
218.043	-9.65
218.428	-7.79
218.813	-31.8
219.198	-15.82
219.583	4.54
219.968	21.49
220.353	-8.94
220.738	13.55
221.122	19.94
221.507	-25.31
221.892	2.6
222.276	-8.39
222.661	-2.32
223.046	12.92
223.43	0.89
223.815	7.84
224.199	-0.98
224.583	-1.11
224.968	6.33
225.352	10.38
225.736	5.65
226.121	6.49
226.505	5.02
226.889	4.33
227.273	8.46
227.657	2.49
228.041	2.31
228.425	3.71
228.809	5.96
229.193	4.72
229.577	5.18
229.961	2.68
230.344	4.21
230.728	2.39
231.112	2.8
231.495	3.35
231.879	2.16
232.263	2.48
232.646	2.13
233.03	3.1
233.413	4.98
233.797	1.75
234.18	1.58
234.563	3.62
234.946	3.91
235.33	3.99
235.713	1.96
236.096	4.71
236.479	2.56
236.862	3.34
237.245	2.28
237.628	4.01
238.011	3.25
238.394	5.84
238.777	4.21
239.16	0.6
239.543	1.1
239.925	5.78
240.308	2.29
240.691	1.18
241.073	1.37
241.456	2.61
241.838	1.88
242.221	3.32
242.603	3.12
242.986	2.56
243.368	2.39
243.75	2.54
244.133	2.4
244.515	2.38
244.897	3.03
245.279	3.14
245.661	2.71
246.043	2.98
246.425	2.58
246.807	2.97
247.189	1.82
247.571	2.46
247.953	3.98
248.335	2.73
248.717	2.33
249.098	2.52
249.48	2.64
249.862	2.57
250.243	2.51
250.625	3.02
251.006	2.87
251.388	2.68
251.769	3.25
252.151	2.86
252.532	2.11
252.913	4.01
253.295	1.86
253.676	2.27
254.057	2.32
254.438	2.2
254.819	1.98
255.2	2.43
255.581	2.78
255.962	2.58
256.343	2.84
256.724	1.86
257.105	2.08
257.486	3.51
257.867	1.75
258.247	1.87
258.628	3.12
259.009	2.36
259.389	1.63
259.77	2.82
260.15	2.23
260.531	2.56
260.911	2.05
261.292	2.1
261.672	2.76
262.052	2.04
262.432	2.36
262.813	2.59
263.193	2.38
263.573	1.87
263.953	2.51
264.333	2.32
264.713	2.5
265.093	2.7
265.473	2.75
265.853	2.36
266.233	1.77
266.612	2.41
266.992	1.6
267.372	2.62
267.752	3.16
268.131	2.58
268.511	1.78
268.89	2.67
269.27	2.36
269.649	1.92
270.029	2.64
270.408	2.08
270.787	2.93
271.167	2.5
271.546	2.47
271.925	2.3
272.304	2.28
272.683	2.29
273.062	1.96
273.441	2.23
273.82	2.11
274.199	1.78
274.578	2.24
274.957	2
275.336	2.85
275.715	2.35
276.093	2.13
276.472	2.03
276.851	2.15
277.229	3.05
277.608	2.4
277.986	2.26
278.365	2.52
278.743	2.03
279.122	1.82
279.5	1.67
279.878	1.6
280.257	2.26
280.635	2.32
281.013	2.37
281.391	1.87
281.769	2.22
282.147	2.06
282.525	2.42
282.903	1.9
283.281	2.11
283.659	3
284.037	2.78
284.415	1.68
284.792	2.28
285.17	2.01
285.548	2.06
285.925	2.79
286.303	1.87
286.68	2.68
287.058	2.98
287.435	1.92
287.813	2.12
288.19	2.72
288.567	2.42
288.945	2.49
289.322	2.17
289.699	2.63
290.076	2.46
290.453	1.95
290.83	1.82
291.207	2.45
291.584	2.72
291.961	2.49
292.338	2.15
292.715	2.09
293.092	2.46
293.469	2.45
293.845	2.05
294.222	1.93
294.599	2.23
294.975	2.56
295.352	2.31
295.728	2.72
296.105	2.58
296.481	3.14
296.858	2.99
297.234	2.61
297.61	2.56
297.986	2.72
298.363	2.65
298.739	2.49
299.115	2.35
299.491	2.83
299.867	2.58
300.243	2.72
300.619	2.63
300.995	3.11
301.371	2.54
301.746	2.97
302.122	2.64
302.498	2.81
302.874	2.7
303.249	2.7
303.625	2.51
304	2.33
304.376	2.72
304.751	2.57
305.127	2.51
305.502	2.86
305.878	2.32
306.253	2.21
306.628	2.57
307.003	2.8
307.378	2.63
307.754	2.82
308.129	2.55
308.504	3.21
308.879	3.27
309.254	2.48
309.629	2.28
310.003	2.25
310.378	2.26
310.753	2.75
311.128	3.01
311.502	2.97
311.877	2.97
312.252	2.79
312.626	3.05
313.001	2.48
313.375	3.42
313.75	2.82
314.124	2.72
314.498	2.64
314.873	3.18
315.247	2.94
315.621	2.7
315.995	3.17
316.369	2.4
316.743	2.33
317.117	2.51
317.491	2.41
317.865	2.67
318.239	2.69
318.613	3.46
318.987	2.7
319.361	2.88
319.734	2.75
320.108	2.73
320.482	3.01
320.855	2.78
321.229	2.8
321.602	2.71
321.976	2.43
322.349	3.17
322.723	2.87
323.096	2.99
323.469	2.26
323.843	1.99
324.216	3.7
324.589	2.96
324.962	2.95
325.335	2.98
325.708	3.18
326.081	2.74
326.454	2.71
326.827	2.73
327.2	2.96
327.573	2.96
327.945	3.33
328.318	3.13
328.691	2.7
329.063	2.44
329.436	2.46
329.809	2.89
330.181	2.93
330.553	2.69
330.926	3.49
331.298	3.47
331.671	2.62
332.043	3.01
332.415	3.34
332.787	2.58
333.159	2.95
333.532	3.36
333.904	2.38
334.276	2.92
334.648	2.93
335.02	3.3
335.391	3.02
335.763	2.79
336.135	3.44
336.507	2.79
336.879	2.69
337.25	3.31
337.622	3.24
337.993	3.47
338.365	3.14
338.736	2.99
339.108	2.48
339.479	2.33
339.851	3.55
340.222	3.31
340.593	2.78
340.964	3.11
341.336	2.79
341.707	2.63
342.078	2.73
342.449	3.31
342.82	3.05
343.191	3.06
343.562	2.8
343.933	2.99
344.303	2.7
344.674	2.87
345.045	3.11
345.416	2.65
345.786	2.97
346.157	3.18
346.527	2.75
346.898	2.82
347.268	2.79
347.639	2.73
348.009	2.95
348.38	3.28
348.75	3.23
349.12	3.32
349.49	3.43
349.861	2.51
350.231	2.79
350.601	3.17
350.971	3.6
351.341	3.29
351.711	2.83
352.081	3.26
352.45	2.97
352.82	3.35
353.19	3.75
353.56	3.24
353.929	3.11
354.299	2.66
354.669	3.41
355.038	2.84
355.408	3.17
355.777	3.01
356.147	3.07
356.516	3.36
356.885	3.29
357.254	2.96
357.624	3.09
357.993	3.31
358.362	2.71
358.731	2.93
359.1	3.11
359.469	3.03
359.838	2.71
360.207	2.95
360.576	3.43
360.945	3.01
361.314	2.71
361.682	2.91
362.051	3.4
362.42	3.03
362.788	2.86
363.157	3.17
363.525	2.88
363.894	3.04
364.262	3.16
364.631	2.85
364.999	3.06
365.367	3.17
365.735	3.1
366.104	3.03
366.472	2.95
366.84	3.06
367.208	2.97
367.576	2.98
367.944	3.23
368.312	3.21
368.68	3.23
369.048	3.17
369.416	3.13
369.783	3.15
370.151	3.39
370.519	3.07
370.886	3.29
371.254	3.18
371.621	3.16
371.989	3.32
372.356	3.28
372.724	3.35
373.091	3.01
373.458	3.02
373.826	3.34
374.193	3.03
374.56	3.21
374.927	2.74
375.294	2.93
375.661	3.15
376.028	3.14
376.395	2.83
376.762	3.26
377.129	3.04
377.496	3.01
377.863	3.41
378.229	3.02
378.596	3.47
378.963	3.32
379.329	3.21
379.696	3.26
380.062	3.11
380.429	3.25
380.795	3.31
381.161	3.23
381.528	3.34
381.894	3.03
382.26	3.34
382.626	3.5
382.993	3.4
383.359	3.09
383.725	3.47
384.091	3.3
384.457	2.96
384.823	3.13
385.188	3.33
385.554	3.04
385.92	3.48
386.286	3.52
386.651	3.15
387.017	3.5
387.383	3.34
387.748	3.01
388.114	2.98
388.479	3.12
388.845	3.39
389.21	3.27
389.575	3.5
389.94	3.36
390.306	3.18
390.671	3.29
391.036	3.01
391.401	3.49
391.766	3.52
392.131	3.41
392.496	3.29
392.861	3.24
393.226	3.32
393.591	2.98
393.956	3.25
394.32	3.17
394.685	3.3
395.05	3.37
395.414	3.25
395.779	3.48
396.143	3.28
396.508	2.98
396.872	3.31
397.236	3.27
397.601	3.24
397.965	3.32
398.329	3.4
398.694	3.45
399.058	3.39
399.422	3.54
399.786	3.38
400.15	3.62
400.514	3.36
400.878	3.27
401.242	3.51
401.605	3.57
401.969	3.28
402.333	3.21
402.697	3.29
403.06	3.2
403.424	3.36
403.787	3.14
404.151	3.22
404.514	3.28
404.878	3.24
405.241	3.48
405.604	3.29
405.968	3.18
406.331	3.44
406.694	3.56
407.057	3.47
407.42	3.24
407.783	3.17
408.146	3.19
408.509	3.55
408.872	3.33
409.235	3.47
409.598	3.58
409.961	3.22
410.323	3.5
410.686	3.31
411.049	3.61
411.411	3.29
411.774	3.34
412.136	3.13
412.499	3.43
412.861	3.3
413.223	3.37
413.586	3.33
413.948	3.64
414.31	3.33
414.672	3.37
415.035	3.21
415.397	3.29
415.759	3.33
416.121	3.61
416.483	3.22
416.845	3.58
417.206	3.5
417.568	3.51
417.93	3.2
418.292	3.32
418.653	3.27
419.015	3.36
419.377	3.19
419.738	3.46
420.1	3.36
420.461	3.38
420.822	3.48
421.184	3.37
421.545	3.41
421.906	3.44
422.267	3.35
422.629	3.36
422.99	3.28
423.351	3.47
423.712	3.35
424.073	3.38
424.434	3.47
424.795	3.34
425.155	3.33
425.516	3.37
425.877	3.4
426.238	3.34
426.598	3.29
426.959	3.4
427.32	3.37
427.68	3.4
428.041	3.38
428.401	3.53
428.761	3.42
429.122	3.37
429.482	3.55
429.842	3.68
430.202	3.6
430.563	3.6
430.923	3.6
431.283	3.49
431.643	3.52
432.003	3.37
432.363	3.55
432.722	3.53
433.082	3.45
433.442	3.5
433.802	3.62
434.161	3.6
434.521	3.61
434.881	3.58
435.24	3.64
435.6	3.48
435.959	3.46
436.319	3.68
436.678	3.48
437.037	3.8
437.396	3.52
437.756	3.62
438.115	3.69
438.474	3.78
438.833	3.53
439.192	3.74
439.551	3.63
439.91	3.68
440.269	3.68
440.628	3.56
440.987	3.61
441.345	3.42
441.704	3.61
442.063	3.52
442.421	3.51
442.78	3.73
443.138	3.52
443.497	3.51
443.855	3.59
444.214	3.69
444.572	3.75
444.93	3.63
445.288	3.52
445.647	3.64
446.005	3.74
446.363	3.7
446.721	3.69
447.079	3.73
447.437	3.5
447.795	3.58
448.153	3.61
448.51	3.53
448.868	3.58
449.226	3.63
449.584	3.55
449.941	3.55
450.299	3.64
450.656	3.7
451.014	3.61
451.371	3.64
451.729	3.61
452.086	3.74
452.443	3.86
452.801	3.84
453.158	3.83
453.515	3.84
453.872	3.67
454.229	3.84
454.586	3.88
454.943	3.69
455.3	3.78
455.657	3.75
456.014	3.7
456.371	3.73
456.727	3.79
457.084	3.63
457.441	3.74
457.797	3.82
458.154	3.73
458.51	3.96
458.867	3.66
459.223	3.88
459.58	3.65
459.936	3.87
460.292	3.79
460.648	3.68
461.005	3.7
461.361	3.76
461.717	3.76
462.073	3.7
462.429	3.62
462.785	3.65
463.141	3.83
463.496	3.97
463.852	3.86
464.208	3.92
464.564	3.77
464.919	3.96
465.275	3.96
465.631	3.93
465.986	3.93
466.342	3.92
466.697	3.76
467.052	3.95
467.408	3.92
467.763	3.75
468.118	3.86
468.473	3.86
468.829	3.84
469.184	3.74
469.539	3.93
469.894	3.83
470.249	3.96
470.603	3.92
470.958	3.92
471.313	3.95
471.668	3.82
472.023	4.01
472.377	3.79
472.732	3.98
473.086	3.97
473.441	3.78
473.795	3.88
474.15	4.01
474.504	4.07
474.859	4.13
475.213	4.01
475.567	3.97
475.921	4.17
476.275	3.96
476.63	4.12
476.984	4.03
477.338	4.09
477.692	4.15
478.045	4.05
478.399	4.02
478.753	3.94
479.107	3.97
479.461	4.04
479.814	4.08
480.168	4.05
480.521	4.03
480.875	4.09
481.228	4.03
481.582	4.11
481.935	4.07
482.289	4.07
482.642	4.1
482.995	4.09
483.348	4.09
483.701	4.06
484.055	3.97
484.408	3.94
484.761	3.93
485.114	3.91
485.466	3.86
485.819	3.76
486.172	3.68
486.525	3.78
486.878	3.83
487.23	3.94
487.583	4.05
487.936	4.05
488.288	4.04
488.641	4.06
488.993	4.01
489.345	3.94
489.698	3.88
490.05	3.86
490.402	3.86
490.754	3.94
491.107	4
491.459	4.07
491.811	4.14
492.163	4.13
492.515	4.25
492.866	4.21
493.218	4.01
493.57	4.01
493.922	3.87
494.274	3.99
494.625	3.95
494.977	4.18
495.328	4.23
495.68	4.21
496.031	4.27
496.383	4.13
496.734	4.21
497.086	4.33
497.437	4.32
497.788	4.33
498.139	4.33
498.49	4.13
498.842	4.22
499.193	4.18
499.544	4.18
499.894	4.21
500.245	4.19
500.596	4.29
500.947	4.3
501.298	4.33
501.648	4.22
501.999	4.29
502.35	4.23
502.7	4.32
503.051	4.43
503.401	4.42
503.752	4.27
504.102	4.36
504.452	4.32
504.803	4.53
505.153	4.27
505.503	4.39
505.853	4.45
506.203	4.38
506.553	4.33
506.903	4.35
507.253	4.47
507.603	4.41
507.953	4.41
508.303	4.53
508.652	4.54
509.002	4.49
509.352	4.38
509.701	4.41
510.051	4.37
510.4	4.44
510.75	4.52
511.099	4.53
511.449	4.58
511.798	4.43
512.147	4.43
512.496	4.47
512.846	4.46
513.195	4.52
513.544	4.51
513.893	4.55
514.242	4.63
514.591	4.54
514.939	4.36
515.288	4.56
515.637	4.51
515.986	4.49
516.334	4.62
516.683	4.61
517.032	4.56
517.38	4.66
517.729	4.62
518.077	4.52
518.426	4.6
518.774	4.66
519.122	4.64
519.47	4.55
519.819	4.53
520.167	4.44
520.515	4.64
520.863	4.48
521.211	4.55
521.559	4.6
521.907	4.72
522.255	4.54
522.602	4.74
522.95	4.73
523.298	4.8
523.645	4.75
523.993	4.66
524.341	4.84
524.688	4.77
525.036	4.85
525.383	4.83
525.73	4.82
526.078	5
526.425	4.92
526.772	4.68
527.119	4.74
527.466	4.68
527.814	4.66
528.161	4.66
528.508	4.8
528.854	4.76
529.201	4.87
529.548	4.78
529.895	4.77
530.242	4.69
530.588	4.57
530.935	4.51
531.282	4.55
531.628	4.63
531.975	4.76
532.321	4.82
532.667	4.89
533.014	4.95
533.36	4.94
533.706	4.89
534.052	4.95
534.399	4.93
534.745	4.91
535.091	4.88
535.437	4.8
535.783	4.83
536.129	4.86
536.474	4.9
536.82	5
537.166	5.06
537.512	5.12
537.857	5.26
538.203	5.11
538.549	5.12
538.894	4.89
539.239	4.99
539.585	5.08
539.93	5.17
540.276	5.2
540.621	5.18
540.966	5.12
541.311	5.41
541.656	5.29
542.001	5.21
542.346	5.34
542.691	5.16
543.036	5.12
543.381	5
543.726	4.95
544.071	5.05
544.415	5.15
544.76	5.21
545.105	5.18
545.449	5.25
545.794	5.31
546.138	5.32
546.483	5.38
546.827	5.45
547.171	5.41
547.516	5.41
547.86	5.45
548.204	5.52
548.548	5.36
548.892	5.33
549.236	5.3
549.58	5.43
549.924	5.45
550.268	5.63
550.612	5.55
550.956	5.71
551.3	5.65
551.643	5.74
551.987	5.78
552.33	5.73
552.674	5.74
553.017	5.75
553.361	5.74
553.704	5.71
554.048	5.94
554.391	5.84
554.734	5.72
555.077	5.75
555.42	5.72
555.764	5.83
556.107	5.71
556.45	5.88
556.793	5.84
557.135	6.03
557.478	6.05
557.821	5.88
558.164	6.25
558.507	5.99
558.849	6.17
559.192	5.98
559.534	6.06
559.877	6.23
560.219	6.2
560.562	6.27
560.904	6.14
561.246	6.2
561.589	6.06
561.931	6.16
562.273	5.99
562.615	6.16
562.957	6.14
563.299	6.18
563.641	5.95
563.983	6.38
564.325	6.39
564.667	6.08
565.008	6.32
565.35	6.4
565.692	6.2
566.033	6.24
566.375	6.26
566.716	6.23
567.058	6.47
567.399	6.37
567.741	6.39
568.082	6.33
568.423	6.5
568.764	6.45
569.105	6.55
569.447	6.57
569.788	6.54
570.129	6.58
570.47	6.65
570.811	6.47
571.151	6.43
571.492	6.48
571.833	6.58
572.174	6.55
572.514	6.72
572.855	6.52
573.195	6.63
573.536	6.82
573.876	6.73
574.217	6.62
574.557	6.83
574.898	6.8
575.238	6.75
575.578	6.75
575.918	6.91
576.258	6.98
576.598	6.81
576.938	6.88
577.278	7.01
577.618	6.98
577.958	6.98
578.298	7.19
578.638	7.03
578.977	6.99
579.317	7.09
579.657	6.95
579.996	7.23
580.336	7.2
580.675	7.18
581.014	7.43
581.354	7.3
581.693	7.35
582.032	7.48
582.372	7.34
582.711	7.63
583.05	7.39
583.389	7.35
583.728	7.42
584.067	7.37
584.406	7.31
584.745	7.43
585.083	7.46
585.422	7.58
585.761	7.62
586.1	7.67
586.438	7.5
586.777	7.63
587.115	7.64
587.454	7.7
587.792	7.78
588.13	7.89
588.469	7.52
588.807	7.74
589.145	7.76
589.483	7.93
589.821	7.69
590.159	7.97
590.497	7.84
590.835	7.99
591.173	7.73
591.511	7.72
591.849	7.82
592.187	7.89
592.524	8.08
592.862	8.12
593.2	7.89
593.537	7.99
593.875	8.36
594.212	8.17
594.55	8.35
594.887	8.2
595.224	8.4
595.561	8.14
595.899	8.25
596.236	8.45
596.573	8.5
596.91	8.23
597.247	8.41
597.584	8.26
597.921	8.38
598.258	8.43
598.594	8.17
598.931	8.42
599.268	8.38
599.604	8.48
599.941	8.47
600.277	8.47
600.614	8.72
600.95	8.78
601.287	8.61
601.623	8.67
601.959	8.96
602.296	8.84
602.632	8.74
602.968	8.85
603.304	8.79
603.64	8.78
603.976	8.93
604.312	8.91
604.648	8.54
604.984	8.83
605.319	8.97
605.655	8.97
605.991	9.01
606.326	9.11
606.662	9
606.998	8.91
607.333	8.96
607.668	8.98
608.004	8.92
608.339	9.09
608.674	9.11
609.01	9.46
609.345	9.43
609.68	9.23
610.015	9.47
610.35	9.6
610.685	9.38
611.02	9.58
611.355	9.59
611.689	9.23
612.024	9.41
612.359	9.47
612.694	9.59
613.028	9.58
613.363	9.35
613.697	9.44
614.032	9.65
614.366	9.56
614.7	9.93
615.035	9.57
615.369	10.19
615.703	9.9
616.037	9.53
616.371	9.86
616.705	9.89
617.039	9.46
617.373	9.82
617.707	9.67
618.041	10.05
618.375	10
618.709	10.15
619.042	10.29
619.376	10.07
619.71	10.11
620.043	10.24
620.377	10.15
620.71	9.9
621.043	10.37
621.377	10.58
621.71	10.43
622.043	10.2
622.376	10.26
622.709	10.28
623.043	10.29
623.376	10.45
623.709	10.22
624.041	10.62
624.374	10.43
624.707	10.28
625.04	10.55
625.373	10.7
625.705	10.96
626.038	10.67
626.37	10.64
626.703	10.86
627.035	10.88
627.368	11.06
627.7	10.85
628.032	10.74
628.365	10.75
628.697	10.9
629.029	10.97
629.361	10.66
629.693	10.83
630.025	10.84
630.357	10.86
630.689	11.24
631.021	11.2
631.353	10.98
631.684	11.32
632.016	10.94
632.348	11.02
632.679	11.02
633.011	10.91
633.342	11.15
633.674	11.45
634.005	11.53
634.336	11.43
634.668	11.55
634.999	11.69
635.33	11.5
635.661	11.72
635.992	11.48
636.323	11.47
636.654	11.39
636.985	11.39
637.316	11.4
637.647	11.58
637.977	11.51
638.308	11.81
638.639	11.67
638.969	11.83
639.3	11.46
639.63	11.4
639.961	12
640.291	11.88
640.622	11.66
640.952	11.41
641.282	11.96
641.612	11.84
641.943	12.08
642.273	12.3
642.603	11.98
642.933	11.82
643.263	12.36
643.592	12.03
643.922	12.01
644.252	12.22
644.582	12.13
644.911	12.17
645.241	12.31
645.571	12.14
645.9	12.33
646.23	12.29
646.559	12.42
646.888	12.62
647.218	12.03
647.547	12.02
647.876	12.3
648.205	12.76
648.534	12.9
648.863	12.43
649.192	12.36
649.521	12.23
649.85	12.67
650.179	12.47
650.508	12.88
650.837	12.94
651.165	12.47
651.494	12.51
651.822	12.56
652.151	12.87
652.479	13.84
652.808	13.02
653.136	13.17
653.465	13.05
653.793	12.85
654.121	13.24
654.449	12.84
654.777	12.68
655.105	13.41
655.433	13.29
655.761	12.9
656.089	13.31
656.417	12.93
656.745	13.38
657.073	13.36
657.4	13.41
657.728	13.82
658.056	13.17
658.383	13.61
658.711	13.78
659.038	13.43
659.365	13.31
659.693	13.87
660.02	13.32
660.347	13.83
660.674	13.7
661.001	13.39
661.329	13.24
661.656	13.18
661.982	13.44
662.309	13.37
662.636	14.14
662.963	14.15
663.29	13.78
663.616	13.6
663.943	13.83
664.27	14.11
664.596	13.86
664.923	14.4
665.249	13.97
665.576	14.01
665.902	13.77
666.228	14.15
666.554	14.36
666.881	14.04
667.207	14.17
667.533	14.04
667.859	13.54
668.185	14.34
668.511	14.45
668.837	14.19
669.162	14.74
669.488	13.98
669.814	14.44
670.139	14.36
670.465	14.75
670.791	15.04
671.116	14.1
671.442	14.43
671.767	13.95
672.092	14.39
672.418	14.55
672.743	14.92
673.068	14.74
673.393	14.48
673.718	14.51
674.043	15.2
674.368	14.8
674.693	14.95
675.018	15.28
675.343	14.28
675.667	15.47
675.992	14.8
676.317	14.68
676.641	15.19
676.966	14.68
677.29	15.12
677.615	15.39
677.939	14.71
678.264	14.74
678.588	14.95
678.912	15.32
679.236	15.09
679.56	14.67
679.885	16.03
680.209	15.13
680.532	15.07
680.856	15.05
681.18	15.54
681.504	15.12
681.828	15.18
682.152	15.67
682.475	15.26
682.799	15.57
683.122	15.31
683.446	15.67
683.769	16.14
684.093	15.56
684.416	15.9
684.739	14.81
685.062	16.14
685.386	15.52
685.709	16.32
686.032	15.29
686.355	15.61
686.678	15.94
687.001	15.09
687.324	15.92
