Data from 0177_forehead_Reflection__0__056.txt Node

Date: Mon Aug 28 19:05:50 CDT 2023
User: ToomeyLab
Spectrometer: FLMS14357
Trigger mode: 0
Integration Time (sec): 1.000000E-2
Scans to average: 100
Electric dark correction enabled: true
Nonlinearity correction enabled: false
Boxcar width: 0
XAxis mode: Wavelengths
Number of Pixels in Spectrum: 2048
>>>>>Begin Spectral Data<<<<<
189.047	38.19
189.435	38.19
189.823	38.19
190.211	1669.77
190.599	-193.71
190.987	-183.96
191.375	-85.39
191.763	174
192.151	31.67
192.538	109.85
192.926	213.84
193.314	-159.37
193.702	231.76
194.089	15.57
194.477	-2256.47
194.864	-190.22
195.252	-7.17
195.639	-2801.71
196.027	105.76
196.414	29.72
196.801	82.97
197.189	-41.63
197.576	-359.69
197.963	16.48
198.351	16.56
198.738	37.13
199.125	-7.47
199.512	36.41
199.899	21.44
200.286	11.84
200.673	24.64
201.06	26.18
201.447	-69.36
201.833	-3.11
202.22	12.91
202.607	-39.94
202.994	34.21
203.38	25.72
203.767	-35.96
204.154	26.36
204.54	24.03
204.927	42.86
205.313	32.75
205.699	-26.1
206.086	21.82
206.472	38.79
206.858	21.02
207.245	-4.02
207.631	55.45
208.017	50.59
208.403	15.11
208.789	3.74
209.175	-9.21
209.561	3.21
209.947	53.23
210.333	18.75
210.719	19.95
211.105	19.64
211.491	-11.75
211.876	22.16
212.262	-15.69
212.648	16.61
213.034	22.34
213.419	10.28
213.805	13.46
214.19	-24.73
214.576	18.95
214.961	-14.7
215.346	40.33
215.732	38.08
216.117	-7.1
216.502	-4.29
216.888	-26.55
217.273	13.48
217.658	31.88
218.043	3.06
218.428	16.32
218.813	-30.23
219.198	12.23
219.583	17.38
219.968	5.64
220.353	-7.37
220.738	13.25
221.122	9.98
221.507	11.41
221.892	1.54
222.276	12.41
222.661	-7.19
223.046	-14.79
223.43	16.13
223.815	15.52
224.199	13.21
224.583	4.84
224.968	10.61
225.352	12.48
225.736	7.35
226.121	10.3
226.505	-0.38
226.889	3.75
227.273	2.69
227.657	12.27
228.041	2.42
228.425	1.74
228.809	2.52
229.193	5.76
229.577	6.47
229.961	2.83
230.344	5.45
230.728	3.8
231.112	3.29
231.495	3.65
231.879	3.33
232.263	3.72
232.646	1.6
233.03	4.63
233.413	6.03
233.797	3.87
234.18	4.34
234.563	3.15
234.946	5.49
235.33	5.34
235.713	2.26
236.096	4.23
236.479	4.44
236.862	4.25
237.245	4.14
237.628	3.85
238.011	3.09
238.394	5.23
238.777	5.63
239.16	3.15
239.543	3.92
239.925	6.6
240.308	1.96
240.691	3.81
241.073	2.93
241.456	3.58
241.838	3.66
242.221	5.83
242.603	4.56
242.986	4.79
243.368	4.24
243.75	3.52
244.133	3.49
244.515	3.37
244.897	4.06
245.279	3.52
245.661	3.69
246.043	3.84
246.425	4.69
246.807	5.88
247.189	2.69
247.571	3.71
247.953	3.85
248.335	3.87
248.717	3.95
249.098	3.76
249.48	3.87
249.862	3.99
250.243	3.97
250.625	4.48
251.006	3.88
251.388	4.72
251.769	4.71
252.151	4.02
252.532	4.38
252.913	4.45
253.295	3.35
253.676	3.99
254.057	4.03
254.438	3.62
254.819	3.77
255.2	3.94
255.581	3.63
255.962	4.4
256.343	4.61
256.724	3.11
257.105	4.12
257.486	3.88
257.867	3.72
258.247	4.04
258.628	4.83
259.009	3.88
259.389	2.78
259.77	3.38
260.15	4.01
260.531	4.17
260.911	4.76
261.292	3.93
261.672	3.92
262.052	3.77
262.432	3.6
262.813	3.8
263.193	4.13
263.573	3.65
263.953	3.98
264.333	3.8
264.713	3.05
265.093	4.07
265.473	3.58
265.853	3.61
266.233	3.07
266.612	4.3
266.992	3.89
267.372	3.57
267.752	3.83
268.131	4.04
268.511	3.5
268.89	4.17
269.27	3.52
269.649	3.5
270.029	4
270.408	3.95
270.787	3.6
271.167	3.39
271.546	4
271.925	4.17
272.304	3.52
272.683	3.66
273.062	3.59
273.441	3.75
273.82	3.39
274.199	3.32
274.578	3.32
274.957	3.75
275.336	3.75
275.715	3.91
276.093	3.83
276.472	3.38
276.851	3.43
277.229	4.09
277.608	3.75
277.986	3.83
278.365	4
278.743	3.49
279.122	3.51
279.5	3.37
279.878	3.33
280.257	4.49
280.635	4.08
281.013	3.88
281.391	3.36
281.769	3.08
282.147	3.71
282.525	3.83
282.903	3.67
283.281	4.04
283.659	4.06
284.037	4.26
284.415	3.52
284.792	3.63
285.17	3.56
285.548	3.57
285.925	4.48
286.303	3.51
286.68	3.96
287.058	3.83
287.435	3.37
287.813	3.46
288.19	3.9
288.567	3.87
288.945	3.67
289.322	4.09
289.699	4.09
290.076	4.03
290.453	4.26
290.83	3.2
291.207	3.72
291.584	4.09
291.961	3.88
292.338	4.16
292.715	3.54
293.092	4.17
293.469	4.21
293.845	4.14
294.222	4.21
294.599	3.94
294.975	4.05
295.352	3.87
295.728	3.95
296.105	4.11
296.481	3.85
296.858	4.33
297.234	4.14
297.61	4.83
297.986	4.34
298.363	4.36
298.739	4.23
299.115	4.02
299.491	4.63
299.867	4.52
300.243	4.3
300.619	4.45
300.995	4.83
301.371	4.66
301.746	4.6
302.122	4.58
302.498	4.49
302.874	4.87
303.249	4.46
303.625	4.79
304	4.52
304.376	4.71
304.751	4.69
305.127	4.65
305.502	4.9
305.878	4.83
306.253	4.53
306.628	4.76
307.003	4.77
307.378	4.85
307.754	5.07
308.129	4.84
308.504	5.74
308.879	5.18
309.254	5.23
309.629	5.04
310.003	5.21
310.378	4.9
310.753	5.51
311.128	5.6
311.502	5.52
311.877	5.24
312.252	5.72
312.626	5.43
313.001	5.31
313.375	5.72
313.75	5.38
314.124	5.5
314.498	5.6
314.873	5.52
315.247	5.96
315.621	5.39
315.995	6.29
316.369	5.77
316.743	5.4
317.117	5.43
317.491	5.78
317.865	5.66
318.239	5.97
318.613	5.42
318.987	6.18
319.361	6.05
319.734	5.88
320.108	6.56
320.482	6.5
320.855	6.14
321.229	5.46
321.602	6.12
321.976	6.52
322.349	6.36
322.723	6.17
323.096	6.78
323.469	6.76
323.843	6.12
324.216	6.33
324.589	7.1
324.962	6.65
325.335	6.44
325.708	6.64
326.081	6.51
326.454	6.7
326.827	6.5
327.2	6.2
327.573	6.53
327.945	6.83
328.318	7.37
328.691	6.35
329.063	5.92
329.436	6.53
329.809	6.93
330.181	7.02
330.553	7.06
330.926	7.34
331.298	7.22
331.671	7.11
332.043	6.79
332.415	7.44
332.787	6.98
333.159	7.23
333.532	7.94
333.904	7.34
334.276	6.92
334.648	7.26
335.02	7.37
335.391	7.29
335.763	7.51
336.135	8.17
336.507	7.16
336.879	7.47
337.25	7.72
337.622	7.16
337.993	7.53
338.365	7.15
338.736	8.07
339.108	7.01
339.479	7.56
339.851	7.89
340.222	8.14
340.593	7.92
340.964	8.25
341.336	7.87
341.707	7.75
342.078	7.53
342.449	7.64
342.82	7.82
343.191	8.28
343.562	7.72
343.933	7.95
344.303	7.76
344.674	8.15
345.045	8.15
345.416	8.5
345.786	8.26
346.157	8.23
346.527	8.01
346.898	8.3
347.268	8.02
347.639	7.92
348.009	8.01
348.38	8.49
348.75	8.04
349.12	8.43
349.49	8.48
349.861	8.37
350.231	8.41
350.601	8.57
350.971	8.64
351.341	8.33
351.711	8.59
352.081	8.26
352.45	8.42
352.82	9.07
353.19	9.56
353.56	8.81
353.929	8.77
354.299	8.42
354.669	8.96
355.038	8.72
355.408	8.94
355.777	8.76
356.147	9.1
356.516	8.97
356.885	9.16
357.254	8.61
357.624	8.69
357.993	9.08
358.362	8.82
358.731	9.14
359.1	9.32
359.469	9.21
359.838	9.14
360.207	9.2
360.576	9.25
360.945	9.14
361.314	9.04
361.682	8.94
362.051	9.48
362.42	9.12
362.788	9.37
363.157	9.36
363.525	9.17
363.894	9.25
364.262	9.56
364.631	8.92
364.999	9.32
365.367	9.88
365.735	9.45
366.104	9.39
366.472	9.58
366.84	9.55
367.208	9.91
367.576	9.73
367.944	9.99
368.312	10.04
368.68	9.88
369.048	10.06
369.416	9.9
369.783	9.87
370.151	9.79
370.519	10.13
370.886	9.84
371.254	9.83
371.621	9.77
371.989	10
372.356	9.81
372.724	10.58
373.091	10.31
373.458	10.56
373.826	10.22
374.193	10.55
374.56	10.27
374.927	10.27
375.294	10.54
375.661	10.36
376.028	10.29
376.395	10.3
376.762	10.83
377.129	10.41
377.496	10.48
377.863	10.9
378.229	10.62
378.596	10.76
378.963	10.71
379.329	10.77
379.696	10.61
380.062	10.62
380.429	10.87
380.795	11.02
381.161	11
381.528	11.26
381.894	10.96
382.26	11.28
382.626	11.32
382.993	11.04
383.359	11.26
383.725	11.45
384.091	11.19
384.457	11.1
384.823	11.23
385.188	11.27
385.554	10.87
385.92	11.36
386.286	11.27
386.651	11.29
387.017	11.51
387.383	11.53
387.748	11.21
388.114	11.24
388.479	11.3
388.845	11.38
389.21	11.37
389.575	11.74
389.94	11.6
390.306	11.62
390.671	11.22
391.036	11.45
391.401	12.25
391.766	11.53
392.131	11.54
392.496	11.33
392.861	11.83
393.226	11.83
393.591	11.57
393.956	11.71
394.32	11.58
394.685	11.71
395.05	11.94
395.414	11.76
395.779	11.95
396.143	12.03
396.508	11.67
396.872	12.21
397.236	11.86
397.601	12.02
397.965	12.15
398.329	11.99
398.694	12.03
399.058	12.09
399.422	12.21
399.786	12.11
400.15	12.25
400.514	12.33
400.878	12.18
401.242	12.28
401.605	12.06
401.969	11.93
402.333	12.33
402.697	12.16
403.06	12.56
403.424	12.44
403.787	12.23
404.151	12.12
404.514	12.18
404.878	12.45
405.241	12.6
405.604	12.47
405.968	11.95
406.331	12.54
406.694	12.32
407.057	12.31
407.42	12.44
407.783	12.29
408.146	12.49
408.509	12.35
408.872	12.38
409.235	12.46
409.598	12.45
409.961	12.31
410.323	12.77
410.686	12.67
411.049	12.39
411.411	12.82
411.774	12.64
412.136	12.46
412.499	12.61
412.861	12.74
413.223	12.69
413.586	12.56
413.948	12.81
414.31	12.72
414.672	12.72
415.035	12.77
415.397	12.51
415.759	12.76
416.121	13.19
416.483	12.72
416.845	13.07
417.206	13.07
417.568	12.91
417.93	12.84
418.292	13.01
418.653	12.79
419.015	13.02
419.377	12.72
419.738	12.93
420.1	12.97
420.461	13.12
420.822	12.97
421.184	12.95
421.545	12.9
421.906	13.1
422.267	13.03
422.629	13.01
422.99	12.97
423.351	12.99
423.712	12.98
424.073	13.11
424.434	13.27
424.795	13.42
425.155	13.34
425.516	13.39
425.877	13.34
426.238	13.32
426.598	13.33
426.959	13.49
427.32	13.45
427.68	13.6
428.041	13.75
428.401	13.81
428.761	13.94
429.122	14.07
429.482	14.12
429.842	14.43
430.202	14.48
430.563	14.54
430.923	14.55
431.283	14.49
431.643	14.29
432.003	14.44
432.363	14.49
432.722	14.67
433.082	14.62
433.442	14.75
433.802	14.67
434.161	15.05
434.521	14.83
434.881	14.68
435.24	14.64
435.6	14.69
435.959	14.77
436.319	14.76
436.678	14.87
437.037	14.79
437.396	15.02
437.756	15.01
438.115	15.21
438.474	15.33
438.833	15.19
439.192	15.33
439.551	15.23
439.91	15.31
440.269	15.3
440.628	15.15
440.987	15.29
441.345	15.24
441.704	15.29
442.063	15.2
442.421	15.4
442.78	15.57
443.138	15.37
443.497	15.45
443.855	15.57
444.214	15.69
444.572	15.79
444.93	15.81
445.288	15.76
445.647	15.97
446.005	15.98
446.363	15.86
446.721	15.91
447.079	15.8
447.437	15.84
447.795	15.73
448.153	15.73
448.51	15.66
448.868	15.75
449.226	15.8
449.584	15.89
449.941	15.99
450.299	16.11
450.656	16.18
451.014	16.24
451.371	16.3
451.729	16.33
452.086	16.41
452.443	16.63
452.801	16.67
453.158	16.91
453.515	16.8
453.872	16.67
454.229	16.77
454.586	16.72
454.943	16.69
455.3	16.69
455.657	16.87
456.014	16.94
456.371	16.78
456.727	16.88
457.084	16.84
457.441	17.01
457.797	17.1
458.154	17.26
458.51	17.51
458.867	17.24
459.223	17.19
459.58	17.26
459.936	17.37
460.292	17.4
460.648	17.31
461.005	17.23
461.361	17.21
461.717	17.06
462.073	16.99
462.429	16.85
462.785	17.2
463.141	17.24
463.496	17.56
463.852	17.54
464.208	17.7
464.564	17.84
464.919	17.71
465.275	17.99
465.631	18.14
465.986	18.02
466.342	18.04
466.697	17.77
467.052	17.79
467.408	17.93
467.763	17.89
468.118	17.94
468.473	18.07
468.829	17.96
469.184	18.08
469.539	18.12
469.894	18.03
470.249	18.11
470.603	18.2
470.958	18.39
471.313	18.24
471.668	18.36
472.023	18.46
472.377	18.39
472.732	18.4
473.086	18.66
473.441	18.72
473.795	18.53
474.15	18.55
474.504	18.72
474.859	18.65
475.213	18.82
475.567	18.8
475.921	18.93
476.275	18.69
476.63	18.85
476.984	18.8
477.338	19.1
477.692	18.9
478.045	18.93
478.399	18.97
478.753	18.84
479.107	19.12
479.461	18.99
479.814	19.25
480.168	19.1
480.521	18.97
480.875	19.12
481.228	19.19
481.582	19.11
481.935	19.16
482.289	19.24
482.642	19.3
482.995	19.43
483.348	19.31
483.701	19.11
484.055	19.21
484.408	19.09
484.761	19.06
485.114	18.91
485.466	18.69
485.819	18.35
486.172	18.14
486.525	18.25
486.878	18.44
487.23	18.58
487.583	18.86
487.936	19.02
488.288	19.2
488.641	19.22
488.993	19.12
489.345	18.9
489.698	18.82
490.05	18.74
490.402	18.77
490.754	18.97
491.107	19.1
491.459	19.31
491.811	19.6
492.163	19.78
492.515	19.96
492.866	19.8
493.218	19.63
493.57	19.27
493.922	19.03
494.274	19.14
494.625	19.23
494.977	19.58
495.328	19.85
495.68	20.12
496.031	20.18
496.383	20.32
496.734	20.29
497.086	20.62
497.437	20.66
497.788	20.65
498.139	20.51
498.49	20.31
498.842	20.35
499.193	20.15
499.544	20.31
499.894	20.37
500.245	20.44
500.596	20.51
500.947	20.49
501.298	20.76
501.648	20.6
501.999	20.73
502.35	20.71
502.7	20.85
503.051	20.89
503.401	20.93
503.752	20.9
504.102	20.95
504.452	21.05
504.803	20.97
505.153	21.16
505.503	20.85
505.853	21.02
506.203	21.16
506.553	21.07
506.903	21.13
507.253	21.14
507.603	21.05
507.953	21.24
508.303	21.26
508.652	21.32
509.002	21.38
509.352	21.3
509.701	21.31
510.051	21.14
510.4	21.31
510.75	21.13
511.099	21.26
511.449	21.24
511.798	21.33
512.147	21.29
512.496	21.39
512.846	21.4
513.195	21.54
513.544	21.62
513.893	21.53
514.242	21.66
514.591	21.61
514.939	21.39
515.288	21.58
515.637	21.79
515.986	21.76
516.334	21.98
516.683	21.82
517.032	21.99
517.38	22.03
517.729	22.07
518.077	21.88
518.426	21.87
518.774	22.02
519.122	22.14
519.47	21.87
519.819	21.85
520.167	21.81
520.515	21.62
520.863	21.45
521.211	21.66
521.559	21.67
521.907	21.78
522.255	21.76
522.602	21.92
522.95	22.11
523.298	22.22
523.645	22.32
523.993	22.26
524.341	22.29
524.688	22.38
525.036	22.4
525.383	22.53
525.73	22.41
526.078	22.48
526.425	22.39
526.772	22.54
527.119	22.41
527.466	22.19
527.814	22
528.161	21.89
528.508	21.98
528.854	22.09
529.201	22.33
529.548	22.26
529.895	22.24
530.242	21.92
530.588	21.67
530.935	21.39
531.282	21.48
531.628	21.58
531.975	21.76
532.321	21.92
532.667	22.06
533.014	22.39
533.36	22.54
533.706	22.52
534.052	22.45
534.399	22.48
534.745	22.66
535.091	22.36
535.437	22.05
535.783	22.03
536.129	22.17
536.474	22.4
536.82	22.59
537.166	22.73
537.512	22.91
537.857	23.1
538.203	22.93
538.549	22.87
538.894	22.62
539.239	22.6
539.585	22.8
539.93	22.96
540.276	23.07
540.621	23.23
540.966	23.55
541.311	23.51
541.656	23.54
542.001	23.37
542.346	23.44
542.691	23.29
543.036	23.06
543.381	22.46
543.726	22.42
544.071	22.58
544.415	22.71
544.76	22.89
545.105	23.05
545.449	23
545.794	23.27
546.138	23.31
546.483	23.43
546.827	23.54
547.171	23.71
547.516	23.71
547.86	23.77
548.204	23.74
548.548	23.62
548.892	23.54
549.236	23.56
549.58	23.73
549.924	23.67
550.268	23.94
550.612	24.04
550.956	24.22
551.3	24.31
551.643	24.47
551.987	24.28
552.33	24.44
552.674	24.41
553.017	24.47
553.361	24.69
553.704	24.44
554.048	24.64
554.391	24.4
554.734	24.31
555.077	24.13
555.42	24.23
555.764	24.49
556.107	24.51
556.45	24.39
556.793	24.66
557.135	24.65
557.478	24.65
557.821	24.81
558.164	24.97
558.507	24.96
558.849	24.98
559.192	24.96
559.534	24.78
559.877	25.12
560.219	25.07
560.562	25.17
560.904	25.01
561.246	24.99
561.589	25.08
561.931	25.28
562.273	25.22
562.615	25.13
562.957	25.2
563.299	25.38
563.641	24.81
563.983	25.09
564.325	25.07
564.667	25.19
565.008	25.19
565.35	25.57
565.692	25.42
566.033	25.18
566.375	25.41
566.716	25.6
567.058	25.46
567.399	25.11
567.741	25.3
568.082	25.26
568.423	25.12
568.764	25.03
569.105	25.37
569.447	25.37
569.788	25.29
570.129	25.51
570.47	25.58
570.811	25.71
571.151	25.64
571.492	25.59
571.833	25.79
572.174	25.76
572.514	25.56
572.855	25.51
573.195	25.68
573.536	25.59
573.876	25.62
574.217	25.57
574.557	25.57
574.898	25.74
575.238	25.56
575.578	25.68
575.918	25.79
576.258	25.92
576.598	25.84
576.938	25.83
577.278	26
577.618	25.76
577.958	25.73
578.298	26.22
578.638	26.04
578.977	26.16
579.317	26.12
579.657	26.3
579.996	26.28
580.336	26.25
580.675	26.46
581.014	26.49
581.354	26.7
581.693	26.66
582.032	26.61
582.372	26.65
582.711	26.79
583.05	26.65
583.389	26.75
583.728	26.64
584.067	26.82
584.406	26.83
584.745	26.67
585.083	26.85
585.422	26.76
585.761	26.85
586.1	27.03
586.438	26.98
586.777	26.88
587.115	27.02
587.454	27.18
587.792	27.32
588.13	26.76
588.469	26.86
588.807	26.88
589.145	27.12
589.483	27.02
589.821	27.2
590.159	27.11
590.497	27.06
590.835	27.12
591.173	26.99
591.511	27.16
591.849	27.15
592.187	27.23
592.524	27.08
592.862	27.36
593.2	27.19
593.537	27.06
593.875	27.62
594.212	27.41
594.55	27.62
594.887	27.47
595.224	27.65
595.561	27.49
595.899	27.37
596.236	27.79
596.573	27.62
596.91	27.74
597.247	27.65
597.584	27.73
597.921	27.47
598.258	27.55
598.594	27.75
598.931	27.68
599.268	27.38
599.604	27.13
599.941	27.6
600.277	27.49
600.614	27.64
600.95	27.82
601.287	27.61
601.623	28.14
601.959	28.02
602.296	27.8
602.632	27.94
602.968	28.25
603.304	28.22
603.64	27.75
603.976	28.29
604.312	28.55
604.648	27.81
604.984	28.22
605.319	28.13
605.655	27.96
605.991	28.09
606.326	28.3
606.662	27.85
606.998	27.69
607.333	27.73
607.668	27.99
608.004	28.06
608.339	28.25
608.674	28.07
609.01	28.52
609.345	28.83
609.68	28.67
610.015	28.72
610.35	28.76
610.685	28.35
611.02	28.29
611.355	28.67
611.689	28.24
612.024	28.35
612.359	28.4
612.694	28.73
613.028	28.54
613.363	28.57
613.697	28.74
614.032	28.88
614.366	28.75
614.7	28.94
615.035	28.69
615.369	28.9
615.703	28.57
616.037	28.76
616.371	28.56
616.705	29.16
617.039	29.34
617.373	29.13
617.707	29.03
618.041	29.14
618.375	28.84
618.709	29.3
619.042	29.15
619.376	29.24
619.71	29.08
620.043	29.4
620.377	29.48
620.71	29.59
621.043	29.32
621.377	29.43
621.71	29.15
622.043	29.1
622.376	29.5
622.709	29.28
623.043	29.85
623.376	29.52
623.709	29.35
624.041	29.73
624.374	29.42
624.707	29.31
625.04	29.44
625.373	29.76
625.705	29.77
626.038	30.04
626.37	29.93
626.703	29.79
627.035	30.08
627.368	29.81
627.7	29.91
628.032	29.78
628.365	29.71
628.697	29.8
629.029	29.98
629.361	29.82
629.693	29.97
630.025	29.39
630.357	29.96
630.689	29.63
631.021	30.2
631.353	30.21
631.684	30.1
632.016	30
632.348	29.86
632.679	29.88
633.011	29.72
633.342	30.03
633.674	30.13
634.005	30.14
634.336	29.97
634.668	30.19
634.999	30.84
635.33	30.54
635.661	30.63
635.992	30.25
636.323	30.53
636.654	30.41
636.985	30.09
637.316	30.4
637.647	30.6
637.977	30.41
638.308	30.62
638.639	30.56
638.969	30.57
639.3	30.53
639.63	30.4
639.961	30.77
640.291	30.5
640.622	30.61
640.952	30.66
641.282	30.97
641.612	31
641.943	30.72
642.273	31.48
642.603	30.52
642.933	30.89
643.263	31.17
643.592	30.71
643.922	30.78
644.252	30.85
644.582	31.08
644.911	31.5
645.241	31.55
645.571	31.38
645.9	31
646.23	31.04
646.559	30.86
646.888	31.25
647.218	31.22
647.547	31.1
647.876	31.32
648.205	31.42
648.534	31.64
648.863	31.34
649.192	31.65
649.521	30.91
649.85	31.28
650.179	32.38
650.508	31.51
650.837	31.28
651.165	31.49
651.494	31.24
651.822	31.11
652.151	31.41
652.479	31.49
652.808	31.37
653.136	31.77
653.465	31.59
653.793	31.8
654.121	31.88
654.449	32.07
654.777	31.4
655.105	31.77
655.433	31.67
655.761	31.98
656.089	31.93
656.417	31.6
656.745	32.17
657.073	31.82
657.4	32.69
657.728	32.14
658.056	32.25
658.383	32.06
658.711	32.44
659.038	32.24
659.365	32.68
659.693	31.81
660.02	31.89
660.347	32.98
660.674	32.19
661.001	32.34
661.329	31.89
661.656	32.03
661.982	31.96
662.309	32.24
662.636	32.54
662.963	32.88
663.29	32.64
663.616	32.31
663.943	32.59
664.27	33.01
664.596	32.52
664.923	32.21
665.249	32.83
665.576	32.77
665.902	32.62
666.228	33.08
666.554	33.03
666.881	33.13
667.207	32.18
667.533	33.24
667.859	31.76
668.185	33.11
668.511	32.89
668.837	32.47
669.162	33.11
669.488	32.95
669.814	33.26
670.139	33.13
670.465	33.55
670.791	33.34
671.116	33
671.442	32.84
671.767	32.36
