Data from 0178_crown_Reflection__3__049.txt Node

Date: Mon Aug 28 19:01:33 CDT 2023
User: ToomeyLab
Spectrometer: FLMS14357
Trigger mode: 0
Integration Time (sec): 1.000000E-2
Scans to average: 100
Electric dark correction enabled: true
Nonlinearity correction enabled: false
Boxcar width: 0
XAxis mode: Wavelengths
Number of Pixels in Spectrum: 2048
>>>>>Begin Spectral Data<<<<<
189.047	-35.28
189.435	-35.28
189.823	-35.28
190.211	420.93
190.599	-98.14
190.987	175.29
191.375	47.16
191.763	79.45
192.151	-87.8
192.538	176.76
192.926	70.55
193.314	-327.54
193.702	-113.91
194.089	17.75
194.477	3457.65
194.864	43.42
195.252	144.36
195.639	-770.09
196.027	120.89
196.414	381.55
196.801	213.46
197.189	-57.43
197.576	23.23
197.963	-36.09
198.351	-2.42
198.738	42.74
199.125	-18.07
199.512	-0.07
199.899	-6.12
200.286	-80.03
200.673	1.11
201.06	-22.18
201.447	-47.77
201.833	-49.05
202.22	4.22
202.607	24.98
202.994	-13.91
203.38	-9.5
203.767	-39.49
204.154	-11.82
204.54	-32.16
204.927	-28.61
205.313	13.51
205.699	4.96
206.086	18.46
206.472	20.12
206.858	-20.5
207.245	-17.9
207.631	13.83
208.017	-1.42
208.403	1.53
208.789	-32.52
209.175	-51.2
209.561	-6.44
209.947	-11.73
210.333	-13.45
210.719	-1.62
211.105	4.69
211.491	0.31
211.876	37.96
212.262	-60.22
212.648	5.74
213.034	-25.04
213.419	3.11
213.805	-19.06
214.19	18.83
214.576	18.34
214.961	17.32
215.346	-6.44
215.732	23.62
216.117	0.81
216.502	-12.65
216.888	-49.71
217.273	-20.43
217.658	2.52
218.043	-10.2
218.428	-0.65
218.813	-32.62
219.198	1.59
219.583	8.74
219.968	10.53
220.353	-0.77
220.738	20.79
221.122	3.19
221.507	-26
221.892	-4.67
222.276	13.15
222.661	3.83
223.046	0.04
223.43	-0.25
223.815	7.83
224.199	13.53
224.583	-1.59
224.968	12.18
225.352	12.93
225.736	12.58
226.121	-4.75
226.505	-3.93
226.889	3.63
227.273	14.51
227.657	1.7
228.041	4
228.425	-2.09
228.809	-1.69
229.193	-0.62
229.577	4.82
229.961	1.66
230.344	1.91
230.728	2.88
231.112	1.49
231.495	1.98
231.879	1.72
232.263	2.01
232.646	0.35
233.03	3.39
233.413	3.36
233.797	2.83
234.18	2.18
234.563	1.59
234.946	1.58
235.33	3.21
235.713	0.6
236.096	1.72
236.479	2.45
236.862	4.19
237.245	3.14
237.628	4
238.011	4.97
238.394	3.21
238.777	3.92
239.16	0.24
239.543	0.46
239.925	4.76
240.308	1.6
240.691	2.09
241.073	0.35
241.456	2.08
241.838	1.79
242.221	1.96
242.603	3.49
242.986	3.16
243.368	1.55
243.75	1.66
244.133	1.92
244.515	1.93
244.897	2.5
245.279	2.16
245.661	2.07
246.043	2.8
246.425	2.33
246.807	3.42
247.189	1.41
247.571	2.03
247.953	2.18
248.335	2.35
248.717	1.81
249.098	1.93
249.48	1.85
249.862	2.25
250.243	1.96
250.625	2.64
251.006	2.17
251.388	2.19
251.769	3.13
252.151	1.67
252.532	2.07
252.913	2.69
253.295	1.51
253.676	1.82
254.057	2.09
254.438	2
254.819	1.95
255.2	2.3
255.581	2.23
255.962	1.31
256.343	3.22
256.724	1.53
257.105	2.09
257.486	2.85
257.867	1.95
258.247	1.84
258.628	3.84
259.009	1.84
259.389	1.68
259.77	2.29
260.15	1.63
260.531	1.44
260.911	2.26
261.292	2.02
261.672	1.8
262.052	1.8
262.432	2.01
262.813	2.22
263.193	1.8
263.573	1.28
263.953	2.59
264.333	1.73
264.713	2.46
265.093	2.65
265.473	1.69
265.853	1.82
266.233	1.16
266.612	2.02
266.992	1.55
267.372	2.16
267.752	2.26
268.131	1.89
268.511	1.49
268.89	2.36
269.27	1.78
269.649	1.83
270.029	1.74
270.408	2.17
270.787	2.44
271.167	1.58
271.546	1.66
271.925	2.33
272.304	2.38
272.683	2.1
273.062	2.13
273.441	2.29
273.82	1.9
274.199	1.82
274.578	1.74
274.957	2.2
275.336	1.92
275.715	2.35
276.093	1.7
276.472	1.65
276.851	1.03
277.229	2.13
277.608	1.81
277.986	1.68
278.365	2.1
278.743	1.72
279.122	1.65
279.5	1.23
279.878	2.05
280.257	1.6
280.635	1.95
281.013	1.93
281.391	2.04
281.769	1.73
282.147	2.34
282.525	2.03
282.903	1.45
283.281	1.67
283.659	2.24
284.037	2.73
284.415	1.84
284.792	2.26
285.17	1.84
285.548	1.42
285.925	1.68
286.303	2.11
286.68	2.28
287.058	1.96
287.435	1.56
287.813	2.12
288.19	2.22
288.567	1.9
288.945	1.57
289.322	1.92
289.699	2.23
290.076	2.43
290.453	1.94
290.83	1.64
291.207	1.84
291.584	1.93
291.961	2.22
292.338	1.63
292.715	1.61
293.092	1.81
293.469	2.26
293.845	1.71
294.222	1.58
294.599	1.95
294.975	2.17
295.352	2.16
295.728	2.18
296.105	2.5
296.481	2.03
296.858	2.52
297.234	2.41
297.61	2.19
297.986	2.26
298.363	2.08
298.739	1.98
299.115	1.65
299.491	2.41
299.867	2.1
300.243	2.24
300.619	2.31
300.995	2.37
301.371	1.83
301.746	2.29
302.122	2.61
302.498	2.33
302.874	1.87
303.249	2.03
303.625	2.19
304	2.06
304.376	1.71
304.751	1.82
305.127	2.31
305.502	2.26
305.878	2.2
306.253	1.57
306.628	1.87
307.003	2.23
307.378	2.09
307.754	2.47
308.129	2.14
308.504	2.98
308.879	2.49
309.254	2.27
309.629	2.23
310.003	2.25
310.378	1.75
310.753	2.4
311.128	2.3
311.502	2.5
311.877	2.39
312.252	2.59
312.626	2.37
313.001	2.37
313.375	2.14
313.75	2.53
314.124	2.13
314.498	2.6
314.873	2.28
315.247	2.1
315.621	2.29
315.995	2.83
316.369	2.46
316.743	1.94
317.117	2.37
317.491	1.6
317.865	1.78
318.239	2.31
318.613	2.3
318.987	2.29
319.361	2.66
319.734	2.23
320.108	2.23
320.482	2.09
320.855	2.35
321.229	2.08
321.602	2.37
321.976	2.37
322.349	2.28
322.723	2.17
323.096	2.86
323.469	1.71
323.843	2
324.216	2.14
324.589	2.38
324.962	2.61
325.335	2.68
325.708	2.11
326.081	2.47
326.454	2.56
326.827	2.48
327.2	2.48
327.573	2.19
327.945	2.9
328.318	2.91
328.691	1.91
329.063	1.8
329.436	2.31
329.809	3.06
330.181	2.43
330.553	1.88
330.926	2.39
331.298	2.7
331.671	2.38
332.043	2.38
332.415	3.11
332.787	1.51
333.159	2.74
333.532	3.1
333.904	2.28
334.276	2.05
334.648	2.62
335.02	2.89
335.391	2.19
335.763	2.08
336.135	2.64
336.507	2.39
336.879	2.58
337.25	2.82
337.622	2.33
337.993	3.2
338.365	2.45
338.736	2.77
339.108	2.23
339.479	1.9
339.851	2.65
340.222	2.74
340.593	2.54
340.964	2.86
341.336	2.78
341.707	2.11
342.078	2.27
342.449	2.3
342.82	2.79
343.191	2.29
343.562	2.51
343.933	2.72
344.303	2.29
344.674	2.62
345.045	2.92
345.416	3
345.786	3.05
346.157	2.65
346.527	2.3
346.898	2.48
347.268	2.19
347.639	2.33
348.009	2.17
348.38	2.71
348.75	2.59
349.12	2.54
349.49	2.17
349.861	2.09
350.231	1.98
350.601	2.56
350.971	2.87
351.341	2.32
351.711	2.49
352.081	2.5
352.45	2.38
352.82	2.73
353.19	3.1
353.56	2.73
353.929	2.72
354.299	2.03
354.669	2.33
355.038	2.87
355.408	2.62
355.777	2.41
356.147	2.62
356.516	3.16
356.885	2.8
357.254	2.76
357.624	2.72
357.993	2.82
358.362	2.51
358.731	2.74
359.1	2.47
359.469	2.68
359.838	2.34
360.207	2.58
360.576	2.59
360.945	2.8
361.314	2.42
361.682	2.51
362.051	2.71
362.42	2.38
362.788	2.75
363.157	2.51
363.525	2.33
363.894	2.63
364.262	2.62
364.631	2.65
364.999	2.6
365.367	2.74
365.735	2.65
366.104	2.44
366.472	2.57
366.84	2.54
367.208	2.68
367.576	2.47
367.944	2.86
368.312	2.93
368.68	2.65
369.048	2.82
369.416	2.77
369.783	2.37
370.151	2.69
370.519	2.86
370.886	2.48
371.254	2.73
371.621	2.3
371.989	2.61
372.356	2.61
372.724	2.82
373.091	2.63
373.458	2.72
373.826	2.81
374.193	2.57
374.56	2.75
374.927	2.73
375.294	2.9
375.661	2.79
376.028	2.7
376.395	2.45
376.762	3
377.129	2.42
377.496	2.69
377.863	2.85
378.229	2.55
378.596	2.94
378.963	2.84
379.329	2.88
379.696	2.85
380.062	2.69
380.429	2.77
380.795	2.5
381.161	2.78
381.528	3.14
381.894	2.91
382.26	3.07
382.626	2.99
382.993	2.84
383.359	2.93
383.725	2.89
384.091	2.86
384.457	2.64
384.823	2.73
385.188	2.71
385.554	2.51
385.92	2.59
386.286	2.68
386.651	2.87
387.017	2.85
387.383	2.63
387.748	2.77
388.114	2.8
388.479	2.59
388.845	2.85
389.21	2.67
389.575	3.08
389.94	2.83
390.306	3.02
390.671	2.85
391.036	2.79
391.401	2.93
391.766	3.03
392.131	2.81
392.496	2.39
392.861	2.74
393.226	2.96
393.591	2.45
393.956	2.82
394.32	2.64
394.685	2.93
395.05	3
395.414	2.78
395.779	2.81
396.143	2.88
396.508	2.61
396.872	2.94
397.236	2.63
397.601	2.72
397.965	2.86
398.329	2.88
398.694	2.66
399.058	2.71
399.422	3.03
399.786	2.74
400.15	3.18
400.514	2.76
400.878	2.86
401.242	2.86
401.605	2.97
401.969	2.76
402.333	2.86
402.697	2.82
403.06	2.94
403.424	2.97
403.787	2.63
404.151	2.82
404.514	2.87
404.878	2.64
405.241	2.92
405.604	2.86
405.968	2.79
406.331	3.09
406.694	2.7
407.057	2.91
407.42	2.8
407.783	2.69
408.146	2.74
408.509	2.96
408.872	3.02
409.235	2.88
409.598	2.8
409.961	2.65
410.323	2.98
410.686	2.95
411.049	3.11
411.411	3.02
411.774	3.09
412.136	2.92
412.499	3.02
412.861	2.89
413.223	2.94
413.586	2.63
413.948	2.95
414.31	3.06
414.672	2.87
415.035	2.85
415.397	3.05
415.759	2.93
416.121	3.02
416.483	2.76
416.845	3.02
417.206	3.13
417.568	2.96
417.93	2.77
418.292	3.15
418.653	2.95
419.015	2.94
419.377	2.87
419.738	2.94
420.1	2.96
420.461	3.05
420.822	2.9
421.184	3.02
421.545	3.07
421.906	2.91
422.267	2.92
422.629	2.84
422.99	2.86
423.351	2.96
423.712	2.86
424.073	2.93
424.434	3.01
424.795	2.87
425.155	2.93
425.516	2.94
425.877	2.98
426.238	2.9
426.598	2.8
426.959	2.95
427.32	2.94
427.68	3.01
428.041	2.99
428.401	3.07
428.761	2.94
429.122	2.98
429.482	3.21
429.842	3.07
430.202	2.99
430.563	3.1
430.923	3.25
431.283	2.99
431.643	2.84
432.003	3.03
432.363	2.97
432.722	3.11
433.082	3.05
433.442	3
433.802	3.09
434.161	3.16
434.521	3.02
434.881	2.93
435.24	2.97
435.6	3.13
435.959	2.98
436.319	3.23
436.678	2.97
437.037	3.21
437.396	3.2
437.756	3.09
438.115	3.07
438.474	3.32
438.833	3.14
439.192	3.12
439.551	2.98
439.91	3.3
440.269	3.04
440.628	3.02
440.987	3.11
441.345	3.01
441.704	3.15
442.063	3.06
442.421	3.02
442.78	3.15
443.138	3.06
443.497	3.02
443.855	3.25
444.214	3.17
444.572	3.19
444.93	3.15
445.288	3.14
445.647	3.17
446.005	3.27
446.363	3.12
446.721	3.17
447.079	3.17
447.437	3.05
447.795	3.02
448.153	3.14
448.51	3.08
448.868	3.14
449.226	3.08
449.584	3.1
449.941	3.08
450.299	3.15
450.656	3.1
451.014	3.05
451.371	3.15
451.729	3.01
452.086	3.15
452.443	3.34
452.801	3.38
453.158	3.33
453.515	3.12
453.872	3.18
454.229	3.31
454.586	3.29
454.943	3.08
455.3	3.42
455.657	3.33
456.014	3.37
456.371	3.17
456.727	3.28
457.084	3.24
457.441	3.37
457.797	3.18
458.154	3.33
458.51	3.37
458.867	3.15
459.223	3.5
459.58	3.25
459.936	3.37
460.292	3.3
460.648	3.22
461.005	3.2
461.361	3.22
461.717	3.21
462.073	3.24
462.429	3.17
462.785	3.14
463.141	3.28
463.496	3.31
463.852	3.28
464.208	3.18
464.564	3.44
464.919	3.38
465.275	3.37
465.631	3.29
465.986	3.47
466.342	3.35
466.697	3.19
467.052	3.28
467.408	3.37
467.763	3.26
468.118	3.33
468.473	3.32
468.829	3.43
469.184	3.23
469.539	3.33
469.894	3.36
470.249	3.36
470.603	3.29
470.958	3.42
471.313	3.42
471.668	3.22
472.023	3.29
472.377	3.37
472.732	3.41
473.086	3.31
473.441	3.36
473.795	3.41
474.15	3.42
474.504	3.36
474.859	3.34
475.213	3.41
475.567	3.37
475.921	3.56
476.275	3.44
476.63	3.5
476.984	3.46
477.338	3.48
477.692	3.27
478.045	3.59
478.399	3.46
478.753	3.33
479.107	3.45
479.461	3.39
479.814	3.48
480.168	3.43
480.521	3.34
480.875	3.46
481.228	3.33
481.582	3.4
481.935	3.47
482.289	3.47
482.642	3.52
482.995	3.54
483.348	3.43
483.701	3.42
484.055	3.31
484.408	3.3
484.761	3.36
485.114	3.3
485.466	3.29
485.819	3.2
486.172	3.16
486.525	3.19
486.878	3.23
487.23	3.29
487.583	3.39
487.936	3.43
488.288	3.4
488.641	3.35
488.993	3.37
489.345	3.37
489.698	3.31
490.05	3.27
490.402	3.29
490.754	3.37
491.107	3.36
491.459	3.4
491.811	3.42
492.163	3.43
492.515	3.53
492.866	3.53
493.218	3.39
493.57	3.38
493.922	3.3
494.274	3.33
494.625	3.39
494.977	3.44
495.328	3.52
495.68	3.51
496.031	3.46
496.383	3.41
496.734	3.52
497.086	3.65
497.437	3.67
497.788	3.55
498.139	3.58
498.49	3.56
498.842	3.63
499.193	3.49
499.544	3.58
499.894	3.56
500.245	3.51
500.596	3.55
500.947	3.57
501.298	3.67
501.648	3.62
501.999	3.68
502.35	3.56
502.7	3.53
503.051	3.81
503.401	3.75
503.752	3.67
504.102	3.62
504.452	3.58
504.803	3.67
505.153	3.71
505.503	3.69
505.853	3.68
506.203	3.75
506.553	3.69
506.903	3.72
507.253	3.79
507.603	3.65
507.953	3.75
508.303	3.76
508.652	3.77
509.002	3.85
509.352	3.6
509.701	3.64
510.051	3.66
510.4	3.6
510.75	3.75
511.099	3.71
511.449	3.71
511.798	3.71
512.147	3.76
512.496	3.78
512.846	3.6
513.195	3.85
513.544	3.72
513.893	3.77
514.242	3.82
514.591	3.91
514.939	3.58
515.288	3.74
515.637	3.87
515.986	3.71
516.334	3.9
516.683	3.86
517.032	3.86
517.38	3.9
517.729	3.8
518.077	3.85
518.426	3.9
518.774	3.86
519.122	3.91
519.47	3.85
519.819	3.93
520.167	3.77
520.515	3.89
520.863	3.79
521.211	3.8
521.559	3.8
521.907	3.78
522.255	3.79
522.602	3.83
522.95	3.9
523.298	3.97
523.645	3.96
523.993	3.93
524.341	4.02
524.688	4.17
525.036	3.97
525.383	4.14
525.73	3.93
526.078	4.16
526.425	4.04
526.772	3.95
527.119	4.01
527.466	3.87
527.814	3.88
528.161	3.78
528.508	3.82
528.854	3.91
529.201	3.96
529.548	3.91
529.895	3.97
530.242	3.81
530.588	3.82
530.935	3.78
531.282	3.76
531.628	3.81
531.975	3.89
532.321	3.89
532.667	3.9
533.014	4.03
533.36	4.08
533.706	4.11
534.052	3.99
534.399	4.1
534.745	4.15
535.091	4.04
535.437	4.03
535.783	3.99
536.129	4.02
536.474	4.04
536.82	4.18
537.166	4.17
537.512	4.2
537.857	4.29
538.203	4.14
538.549	4.11
538.894	4.12
539.239	4.04
539.585	4.13
539.93	4.2
540.276	4.21
540.621	4.33
540.966	4.27
541.311	4.36
541.656	4.37
542.001	4.37
542.346	4.28
542.691	4.23
543.036	4.26
543.381	4.15
543.726	4.11
544.071	4.14
544.415	4.21
544.76	4.22
545.105	4.29
545.449	4.29
545.794	4.31
546.138	4.36
546.483	4.43
546.827	4.46
547.171	4.44
547.516	4.44
547.86	4.38
548.204	4.5
548.548	4.51
548.892	4.41
549.236	4.4
549.58	4.36
549.924	4.46
550.268	4.52
550.612	4.69
550.956	4.68
551.3	4.65
551.643	4.6
551.987	4.54
552.33	4.8
552.674	4.62
553.017	4.79
553.361	4.82
553.704	4.58
554.048	4.7
554.391	4.87
554.734	4.82
555.077	4.65
555.42	4.67
555.764	4.61
556.107	4.73
556.45	4.88
556.793	4.77
557.135	4.81
557.478	4.88
557.821	4.85
558.164	4.96
558.507	4.88
558.849	4.96
559.192	4.94
559.534	4.73
559.877	4.9
560.219	5.12
560.562	4.91
560.904	5.14
561.246	4.97
561.589	5
561.931	5.15
562.273	4.99
562.615	4.96
562.957	5.02
563.299	5.23
563.641	5
563.983	5.23
564.325	5.2
564.667	5.04
565.008	5.13
565.35	5.34
565.692	5.13
566.033	4.99
566.375	5.18
566.716	5.25
567.058	5.32
567.399	5.12
567.741	5.13
568.082	5.06
568.423	5.18
568.764	5.12
569.105	5.35
569.447	5.38
569.788	5.4
570.129	5.35
570.47	5.23
570.811	5.34
571.151	5.25
571.492	5.45
571.833	5.36
572.174	5.64
572.514	5.41
572.855	5.47
573.195	5.57
573.536	5.61
573.876	5.3
574.217	5.59
574.557	5.5
574.898	5.57
575.238	5.54
575.578	5.49
575.918	5.55
576.258	5.78
576.598	5.6
576.938	5.51
577.278	5.53
577.618	5.7
577.958	5.63
578.298	5.82
578.638	5.62
578.977	5.66
579.317	5.66
579.657	5.66
579.996	5.88
580.336	5.78
580.675	5.85
581.014	5.98
581.354	6.05
581.693	5.94
582.032	6.2
582.372	5.96
582.711	6.22
583.05	5.89
583.389	6.11
583.728	6.02
584.067	6.3
584.406	6.03
584.745	6.01
585.083	5.95
585.422	5.94
585.761	6.12
586.1	6.46
586.438	6.21
586.777	6.27
587.115	6.19
587.454	6.22
587.792	6.37
588.13	6.35
588.469	6.31
588.807	6.11
589.145	6.53
589.483	6.26
589.821	6.47
590.159	6.54
590.497	6.41
590.835	6.4
591.173	6.32
591.511	6.39
591.849	6.38
592.187	6.5
592.524	6.45
592.862	6.59
593.2	6.19
593.537	6.46
593.875	6.9
594.212	6.72
594.55	6.8
594.887	6.45
595.224	6.72
595.561	6.44
595.899	6.5
596.236	6.89
596.573	6.68
596.91	6.7
597.247	6.82
597.584	6.78
597.921	6.83
598.258	7
598.594	6.62
598.931	6.62
599.268	6.81
599.604	6.68
599.941	6.9
600.277	6.72
600.614	7.17
600.95	6.94
601.287	6.9
601.623	7.28
601.959	7.17
602.296	6.96
602.632	7.06
602.968	7.02
603.304	7.23
603.64	7.05
603.976	7.22
604.312	7.24
604.648	7.02
604.984	7.18
605.319	7.17
605.655	7.21
605.991	7.34
606.326	7.17
606.662	7.16
606.998	7.25
607.333	7.18
607.668	7.29
608.004	7.26
608.339	7.43
608.674	7.29
609.01	7.65
609.345	7.46
609.68	7.46
610.015	7.4
610.35	7.74
610.685	7.72
611.02	7.41
611.355	7.56
611.689	7.37
612.024	7.58
612.359	7.68
612.694	7.52
613.028	7.58
613.363	7.43
613.697	7.7
614.032	7.74
614.366	7.62
614.7	7.81
615.035	7.72
615.369	7.63
615.703	7.8
616.037	7.82
616.371	7.6
616.705	7.99
617.039	8.06
617.373	8.02
617.707	7.8
618.041	7.98
618.375	7.98
618.709	8.07
619.042	8.01
619.376	8.16
619.71	7.88
620.043	8.19
620.377	8.25
620.71	7.7
621.043	8.3
621.377	8.28
621.71	8
622.043	7.82
622.376	8.06
622.709	8.26
623.043	8.4
623.376	8.23
623.709	8.71
624.041	8.79
624.374	8.07
624.707	8.29
625.04	8.46
625.373	8.66
625.705	8.93
626.038	8.64
626.37	8.79
626.703	8.68
627.035	8.82
627.368	8.98
627.7	8.82
628.032	8.81
628.365	8.33
628.697	8.76
629.029	8.96
629.361	8.72
629.693	8.78
630.025	8.65
630.357	8.55
630.689	9
631.021	8.86
631.353	8.79
631.684	8.93
632.016	8.95
632.348	8.98
632.679	9.05
633.011	8.79
633.342	8.79
633.674	9.14
634.005	9
634.336	8.8
634.668	9.12
634.999	9.19
635.33	9.22
635.661	9.52
635.992	9.12
636.323	9.25
636.654	9.27
636.985	9.11
637.316	9.32
637.647	9.65
637.977	9.17
638.308	9.46
638.639	9.14
638.969	9.8
639.3	9.26
639.63	9.27
639.961	9.54
640.291	9.73
640.622	9.61
640.952	9.29
641.282	9.49
641.612	9.36
641.943	9.36
642.273	9.97
642.603	9.35
642.933	9.41
643.263	9.8
643.592	9.4
643.922	9.86
644.252	9.97
644.582	10.03
644.911	9.99
645.241	9.87
645.571	10.15
645.9	9.47
646.23	9.98
646.559	9.84
646.888	10.3
647.218	9.82
647.547	9.92
647.876	10.25
648.205	10.24
648.534	10.5
648.863	9.98
649.192	10.04
649.521	10.24
649.85	10.42
650.179	10.29
650.508	10.44
650.837	10.04
651.165	10.25
651.494	10.03
651.822	10.57
652.151	10.14
652.479	10.48
652.808	10.48
653.136	10.4
653.465	10.25
653.793	10.54
654.121	10.88
654.449	11.01
654.777	10.42
655.105	10.37
655.433	10.41
655.761	10.24
656.089	10.76
656.417	10.17
656.745	10.78
657.073	10.08
657.4	10.85
657.728	11.11
658.056	10.76
658.383	10.39
658.711	11.19
659.038	10.6
659.365	11.29
659.693	10.56
660.02	11
660.347	10.97
660.674	10.89
661.001	11.21
661.329	10.87
661.656	10.58
661.982	10.87
662.309	11.03
662.636	10.91
662.963	11.29
663.29	11.47
663.616	10.84
663.943	11.06
664.27	11.15
664.596	10.94
664.923	11.63
665.249	11.22
665.576	11.71
665.902	11.31
666.228	11
666.554	11.4
666.881	11.01
667.207	11.41
667.533	11.55
667.859	10.96
668.185	11.14
668.511	12.06
668.837	10.81
669.162	11.61
669.488	11.25
669.814	11.77
670.139	11.31
670.465	11.72
670.791	11.97
671.116	11.6
671.442	11.36
671.767	10.89
672.092	12.22
672.418	11.42
672.743	12.23
673.068	11.27
673.393	11.87
673.718	11.27
674.043	11.48
674.368	12.21
674.693	11.83
675.018	12.22
675.343	11.81
675.667	12.01
675.992	11.89
676.317	11.71
676.641	12.32
676.966	12.3
677.29	12.03
677.615	12.6
677.939	12.31
678.264	11.59
678.588	11.96
678.912	12.64
679.236	11.72
679.56	12.25
679.885	12.24
680.209	12.53
680.532	12.27
680.856	12.05
681.18	12.42
681.504	12.54
681.828	12.53
682.152	12.69
682.475	12.55
682.799	12.04
683.122	12.42
683.446	12.49
683.769	13.19
684.093	12.94
684.416	12.76
684.739	12.22
685.062	12.91
685.386	12.66
685.709	12.95
686.032	12.38
686.355	13.09
686.678	12.81
687.001	11.94
687.324	12.44
687.646	12.93
687.969	13.06
688.292	13.04
688.614	13.36
688.937	13.09
689.26	13.17
689.582	12.38
