Data from 0177_crown_Reflection__4__055.txt Node

Date: Mon Aug 28 19:05:14 CDT 2023
User: ToomeyLab
Spectrometer: FLMS14357
Trigger mode: 0
Integration Time (sec): 1.000000E-2
Scans to average: 100
Electric dark correction enabled: true
Nonlinearity correction enabled: false
Boxcar width: 0
XAxis mode: Wavelengths
Number of Pixels in Spectrum: 2048
>>>>>Begin Spectral Data<<<<<
189.047	44.4
189.435	44.4
189.823	44.4
190.211	-10027.91
190.599	207.34
190.987	421.22
191.375	20.68
191.763	-1.05
192.151	-7.54
192.538	14.3
192.926	96.87
193.314	-48.76
193.702	235.01
194.089	136.77
194.477	-1289.41
194.864	509.43
195.252	-16.79
195.639	-1210.26
196.027	107.82
196.414	228.83
196.801	18.42
197.189	25.29
197.576	-23.62
197.963	49.93
198.351	-11.54
198.738	40.74
199.125	-17.48
199.512	-0.12
199.899	-32.55
200.286	-18.69
200.673	26.37
201.06	-12.14
201.447	14.51
201.833	5.19
202.22	-4.44
202.607	-9.37
202.994	15.37
203.38	-21.56
203.767	9.9
204.154	-1.79
204.54	-45.2
204.927	-15.11
205.313	4.2
205.699	-0.55
206.086	53.84
206.472	11.63
206.858	-30.09
207.245	-2.23
207.631	22.56
208.017	24.59
208.403	9.07
208.789	-0.73
209.175	-30.26
209.561	27.86
209.947	-3.42
210.333	-14.69
210.719	-17.36
211.105	12.17
211.491	-7.55
211.876	17.19
212.262	-54.11
212.648	24.17
213.034	35.76
213.419	-0.65
213.805	20.04
214.19	-4.82
214.576	4.35
214.961	-7.43
215.346	-13.63
215.732	28.6
216.117	16.34
216.502	-2.44
216.888	-64.76
217.273	-17.17
217.658	36.81
218.043	8.59
218.428	5.72
218.813	5.37
219.198	24.96
219.583	21.17
219.968	27.73
220.353	-10.93
220.738	11.01
221.122	6.31
221.507	1.54
221.892	-5.55
222.276	16
222.661	8.94
223.046	-0.03
223.43	7.02
223.815	25.46
224.199	16.59
224.583	8.55
224.968	11.96
225.352	11.67
225.736	1.98
226.121	1.66
226.505	0.47
226.889	7.15
227.273	14.85
227.657	2.87
228.041	3.53
228.425	5
228.809	6.85
229.193	7.27
229.577	9.02
229.961	4.75
230.344	5.14
230.728	5.48
231.112	4.16
231.495	4.85
231.879	5.21
232.263	4.89
232.646	4.62
233.03	4.98
233.413	7.57
233.797	4.55
234.18	3.63
234.563	3.37
234.946	8.33
235.33	5.04
235.713	1.62
236.096	5.89
236.479	4.67
236.862	5.5
237.245	4.21
237.628	4.09
238.011	7.65
238.394	5.63
238.777	7.28
239.16	5.21
239.543	3.36
239.925	6.47
240.308	3.65
240.691	4.94
241.073	4.89
241.456	4.99
241.838	3.51
242.221	6.98
242.603	6.2
242.986	5.87
243.368	4.59
243.75	4.01
244.133	4.37
244.515	3.93
244.897	4.76
245.279	4.82
245.661	4.72
246.043	4.77
246.425	4.43
246.807	5.59
247.189	4.75
247.571	3.84
247.953	5.12
248.335	4.55
248.717	4.31
249.098	4.42
249.48	4.36
249.862	4.37
250.243	4.25
250.625	4.97
251.006	4.42
251.388	4.29
251.769	4.96
252.151	5.22
252.532	4.16
252.913	4.43
253.295	3.9
253.676	4.72
254.057	4.12
254.438	3.97
254.819	3.86
255.2	3.96
255.581	3.88
255.962	4.96
256.343	5.42
256.724	3.29
257.105	3.78
257.486	4.66
257.867	4.52
258.247	3.38
258.628	5.41
259.009	3.31
259.389	2.99
259.77	4.21
260.15	3.7
260.531	4.04
260.911	4.04
261.292	4.03
261.672	3.98
262.052	3.93
262.432	3.98
262.813	4.02
263.193	3.81
263.573	4.03
263.953	3.9
264.333	3.91
264.713	3.83
265.093	5.26
265.473	3.91
265.853	3.43
266.233	3.43
266.612	3.32
266.992	4.22
267.372	3.79
267.752	4.18
268.131	4.42
268.511	3.18
268.89	4.12
269.27	3.48
269.649	4.03
270.029	4.24
270.408	3.82
270.787	4.38
271.167	4.62
271.546	4.21
271.925	3.99
272.304	3.98
272.683	4.33
273.062	3.6
273.441	3.89
273.82	3.58
274.199	3.24
274.578	3.76
274.957	3.55
275.336	4.04
275.715	4.39
276.093	3.82
276.472	3.72
276.851	3.8
277.229	4.09
277.608	3.79
277.986	3.82
278.365	4.41
278.743	3.51
279.122	3.34
279.5	3.23
279.878	3.15
280.257	3.93
280.635	3.73
281.013	3.95
281.391	4.31
281.769	3.45
282.147	3.46
282.525	3.33
282.903	3.27
283.281	3.56
283.659	4.36
284.037	3.88
284.415	3.67
284.792	3.87
285.17	3.46
285.548	3.32
285.925	4.07
286.303	3.94
286.68	3.9
287.058	3.6
287.435	3.17
287.813	3.25
288.19	4.12
288.567	3.75
288.945	3.58
289.322	3.62
289.699	3.66
290.076	4.35
290.453	3.5
290.83	2.95
291.207	3.46
291.584	3.92
291.961	3.9
292.338	3.44
292.715	3.41
293.092	4.09
293.469	3.83
293.845	3.55
294.222	3.53
294.599	3.68
294.975	3.66
295.352	3.31
295.728	3.83
296.105	3.65
296.481	3.55
296.858	3.96
297.234	3.74
297.61	3.5
297.986	3.26
298.363	3.56
298.739	3.76
299.115	3.34
299.491	3.63
299.867	3.67
300.243	3.85
300.619	3.27
300.995	3.92
301.371	3.25
301.746	3.77
302.122	3.65
302.498	4.07
302.874	4.02
303.249	3.22
303.625	3.43
304	3.38
304.376	3.73
304.751	3.69
305.127	3.88
305.502	3.58
305.878	3.37
306.253	3.31
306.628	3.88
307.003	3.61
307.378	3.96
307.754	3.55
308.129	3.35
308.504	4.34
308.879	3.88
309.254	4.19
309.629	2.92
310.003	3.48
310.378	3.55
310.753	3.62
311.128	3.81
311.502	4.11
311.877	3.32
312.252	4.05
312.626	3.54
313.001	3.86
313.375	3.52
313.75	3.59
314.124	3.43
314.498	3.68
314.873	3.83
315.247	3.69
315.621	3.03
315.995	3.75
316.369	3.74
316.743	3.36
317.117	3.8
317.491	2.99
317.865	3.48
318.239	3.3
318.613	3.8
318.987	3.49
319.361	3.23
319.734	3.44
320.108	3.44
320.482	4.07
320.855	3.39
321.229	3.79
321.602	3.54
321.976	2.98
322.349	3.73
322.723	3.25
323.096	3.9
323.469	3.08
323.843	3.45
324.216	3.75
324.589	3.97
324.962	3.65
325.335	3.24
325.708	3.38
326.081	3.22
326.454	3.89
326.827	3.36
327.2	3.64
327.573	3.77
327.945	3.89
328.318	4.25
328.691	3.43
329.063	3.67
329.436	3.06
329.809	3.7
330.181	3.19
330.553	3.27
330.926	4.16
331.298	3.7
331.671	3.21
332.043	3.33
332.415	4.01
332.787	3.39
333.159	3.42
333.532	3.94
333.904	3.49
334.276	3.53
334.648	3.48
335.02	4.08
335.391	3.44
335.763	3.41
336.135	3.78
336.507	3.77
336.879	2.89
337.25	4.04
337.622	3.72
337.993	3.63
338.365	3.37
338.736	3.99
339.108	2.93
339.479	3.43
339.851	3.82
340.222	4.04
340.593	3.18
340.964	3.49
341.336	3.53
341.707	3.45
342.078	3.68
342.449	3.55
342.82	3.75
343.191	3.47
343.562	3.31
343.933	3.35
344.303	3.76
344.674	3.72
345.045	3.66
345.416	3.6
345.786	3.82
346.157	3.43
346.527	3.37
346.898	3.53
347.268	3.15
347.639	3.14
348.009	3.19
348.38	3.41
348.75	3.77
349.12	3.74
349.49	3.64
349.861	2.9
350.231	3.24
350.601	3.59
350.971	4.01
351.341	3.48
351.711	3.33
352.081	3.27
352.45	3.42
352.82	3.7
353.19	3.78
353.56	3.93
353.929	3.61
354.299	3.18
354.669	3.86
355.038	3.98
355.408	3.53
355.777	3.31
356.147	3.68
356.516	3.5
356.885	3.31
357.254	3.41
357.624	3.29
357.993	3.75
358.362	3.45
358.731	3.45
359.1	3.57
359.469	3.81
359.838	3.33
360.207	3.73
360.576	3.63
360.945	3.54
361.314	3.25
361.682	3.48
362.051	3.47
362.42	3.39
362.788	3.42
363.157	3.59
363.525	3.27
363.894	3.48
364.262	3.53
364.631	3.53
364.999	3.64
365.367	3.8
365.735	3.37
366.104	3.44
366.472	3.73
366.84	3.37
367.208	3.81
367.576	3.45
367.944	3.88
368.312	3.69
368.68	3.53
369.048	3.9
369.416	3.75
369.783	3.47
370.151	3.69
370.519	3.51
370.886	3.67
371.254	3.61
371.621	3.49
371.989	3.62
372.356	3.52
372.724	3.99
373.091	3.77
373.458	3.36
373.826	3.82
374.193	3.55
374.56	3.96
374.927	3.3
375.294	3.89
375.661	3.78
376.028	3.32
376.395	2.97
376.762	3.98
377.129	3.51
377.496	3.67
377.863	3.79
378.229	3.41
378.596	3.62
378.963	3.75
379.329	3.52
379.696	3.42
380.062	3.55
380.429	3.16
380.795	3.76
381.161	3.74
381.528	3.91
381.894	3.41
382.26	4.13
382.626	3.83
382.993	3.78
383.359	3.99
383.725	3.71
384.091	3.67
384.457	3.45
384.823	3.54
385.188	3.36
385.554	3.41
385.92	3.7
386.286	3.87
386.651	3.68
387.017	3.94
387.383	3.78
387.748	3.61
388.114	3.63
388.479	3.44
388.845	3.8
389.21	3.77
389.575	3.82
389.94	3.67
390.306	3.9
390.671	3.68
391.036	3.47
391.401	3.99
391.766	4.23
392.131	3.66
392.496	3.53
392.861	3.63
393.226	3.76
393.591	3.53
393.956	3.62
394.32	3.43
394.685	3.83
395.05	3.89
395.414	3.69
395.779	3.69
396.143	3.6
396.508	3.31
396.872	3.84
397.236	3.74
397.601	3.75
397.965	3.66
398.329	3.55
398.694	3.82
399.058	3.67
399.422	3.89
399.786	3.93
400.15	3.83
400.514	3.83
400.878	3.72
401.242	3.44
401.605	3.55
401.969	3.78
402.333	3.68
402.697	3.63
403.06	3.81
403.424	3.92
403.787	3.55
404.151	3.44
404.514	3.68
404.878	3.55
405.241	3.86
405.604	4.02
405.968	3.62
406.331	3.8
406.694	3.61
407.057	3.84
407.42	3.78
407.783	3.66
408.146	3.71
408.509	3.77
408.872	3.62
409.235	3.96
409.598	3.78
409.961	3.69
410.323	3.9
410.686	4.02
411.049	3.83
411.411	3.74
411.774	3.81
412.136	3.84
412.499	3.57
412.861	3.89
413.223	3.67
413.586	3.64
413.948	3.88
414.31	3.87
414.672	3.76
415.035	3.74
415.397	3.73
415.759	3.97
416.121	4.02
416.483	3.6
416.845	4.08
417.206	4
417.568	3.8
417.93	3.48
418.292	3.85
418.653	3.66
419.015	3.7
419.377	3.65
419.738	3.88
420.1	3.69
420.461	3.79
420.822	3.74
421.184	3.77
421.545	3.68
421.906	3.73
422.267	3.71
422.629	3.71
422.99	3.64
423.351	3.67
423.712	3.65
424.073	3.68
424.434	3.74
424.795	3.68
425.155	3.72
425.516	3.75
425.877	3.64
426.238	3.69
426.598	3.64
426.959	3.64
427.32	3.64
427.68	3.73
428.041	3.8
428.401	3.77
428.761	3.78
429.122	3.67
429.482	3.7
429.842	3.84
430.202	3.74
430.563	4.05
430.923	3.99
431.283	3.68
431.643	3.68
432.003	3.82
432.363	3.93
432.722	3.9
433.082	3.75
433.442	3.91
433.802	3.71
434.161	3.86
434.521	3.76
434.881	3.73
435.24	3.71
435.6	3.8
435.959	3.89
436.319	3.87
436.678	3.78
437.037	3.78
437.396	3.86
437.756	3.73
438.115	3.87
438.474	3.93
438.833	3.71
439.192	3.9
439.551	3.74
439.91	3.89
440.269	3.81
440.628	3.78
440.987	3.81
441.345	3.7
441.704	3.62
442.063	3.81
442.421	3.75
442.78	3.92
443.138	3.7
443.497	3.74
443.855	3.72
444.214	3.9
444.572	3.95
444.93	3.87
445.288	3.81
445.647	3.95
446.005	3.96
446.363	3.82
446.721	3.87
447.079	3.81
447.437	3.81
447.795	3.71
448.153	3.78
448.51	3.7
448.868	3.83
449.226	3.7
449.584	3.79
449.941	3.78
450.299	3.81
450.656	3.86
451.014	3.86
451.371	3.77
451.729	3.73
452.086	3.89
452.443	4.14
452.801	3.9
453.158	3.99
453.515	3.94
453.872	3.91
454.229	3.92
454.586	3.93
454.943	3.82
455.3	3.88
455.657	3.85
456.014	3.82
456.371	4.01
456.727	4.06
457.084	3.77
457.441	4.01
457.797	4.07
458.154	4.01
458.51	4.23
458.867	3.9
459.223	3.91
459.58	3.94
459.936	4.05
460.292	3.85
460.648	3.77
461.005	3.82
461.361	3.84
461.717	3.9
462.073	3.83
462.429	3.7
462.785	3.87
463.141	3.9
463.496	4.02
463.852	3.93
464.208	3.95
464.564	3.95
464.919	4.06
465.275	4.07
465.631	4.06
465.986	3.95
466.342	3.89
466.697	3.87
467.052	3.88
467.408	3.94
467.763	3.86
468.118	3.88
468.473	3.94
468.829	3.99
469.184	3.74
469.539	3.95
469.894	3.92
470.249	3.99
470.603	4.01
470.958	3.81
471.313	3.89
471.668	3.95
472.023	3.98
472.377	4.06
472.732	3.99
473.086	4.09
473.441	3.97
473.795	4.13
474.15	4.22
474.504	4.03
474.859	3.98
475.213	4.07
475.567	4.06
475.921	4.24
476.275	4.08
476.63	4.14
476.984	3.97
477.338	3.99
477.692	4.03
478.045	4.04
478.399	3.97
478.753	3.86
479.107	4.01
479.461	4.07
479.814	4.03
480.168	4.07
480.521	3.91
480.875	4.01
481.228	3.96
481.582	3.95
481.935	3.95
482.289	3.97
482.642	4.13
482.995	4.08
483.348	3.95
483.701	3.96
484.055	3.91
484.408	3.98
484.761	3.92
485.114	3.82
485.466	3.79
485.819	3.61
486.172	3.61
486.525	3.64
486.878	3.7
487.23	3.87
487.583	3.92
487.936	4.01
488.288	3.93
488.641	3.92
488.993	3.88
489.345	3.78
489.698	3.82
490.05	3.75
490.402	3.7
490.754	3.86
491.107	3.91
491.459	3.94
491.811	3.99
492.163	3.99
492.515	4.06
492.866	4.04
493.218	3.94
493.57	3.83
493.922	3.7
494.274	3.81
494.625	3.83
494.977	3.96
495.328	4.09
495.68	4.11
496.031	4.07
496.383	4.07
496.734	4.05
497.086	4.1
497.437	4.18
497.788	4.1
498.139	4
498.49	3.99
498.842	4.08
499.193	3.93
499.544	4.03
499.894	4.01
500.245	3.97
500.596	4.06
500.947	4.04
501.298	4.15
501.648	3.97
501.999	4.15
502.35	4.01
502.7	4.17
503.051	4.13
503.401	4.02
503.752	4.12
504.102	4.04
504.452	4.08
504.803	4.37
505.153	4.07
505.503	4.04
505.853	4.02
506.203	4.02
506.553	3.98
506.903	4.06
507.253	4.14
507.603	3.99
507.953	4.11
508.303	4.13
508.652	3.97
509.002	4.19
509.352	4.03
509.701	4.02
510.051	4.02
510.4	4.08
510.75	4
511.099	4.15
511.449	4.05
511.798	4.11
512.147	4.02
512.496	4.17
512.846	4.03
513.195	4.08
513.544	4.09
513.893	4.09
514.242	4.04
514.591	4.19
514.939	3.81
515.288	4.05
515.637	4.18
515.986	4.08
516.334	4.16
516.683	4.18
517.032	4.2
517.38	4.29
517.729	4.25
518.077	4.2
518.426	4.15
518.774	4.18
519.122	4.12
519.47	4.11
519.819	4.07
520.167	4.06
520.515	4.02
520.863	3.95
521.211	3.94
521.559	4
521.907	4.09
522.255	4.08
522.602	4.01
522.95	4.23
523.298	4.13
523.645	4.13
523.993	4.16
524.341	4.08
524.688	4.14
525.036	4.11
525.383	4.21
525.73	4.26
526.078	4.28
526.425	4.22
526.772	4.12
527.119	4.17
527.466	4.02
527.814	4
528.161	3.94
528.508	4.01
528.854	3.99
529.201	4.16
529.548	3.98
529.895	3.96
530.242	3.94
530.588	3.8
530.935	3.75
531.282	3.83
531.628	3.88
531.975	3.99
532.321	4.02
532.667	4.02
533.014	4.15
533.36	4.15
533.706	4.13
534.052	4.09
534.399	4.15
534.745	4.09
535.091	3.98
535.437	3.91
535.783	3.93
536.129	4.02
536.474	4.01
536.82	4.15
537.166	4.09
537.512	4.14
537.857	4.21
538.203	4.13
538.549	4.03
538.894	3.99
539.239	4
539.585	4.02
539.93	4.1
540.276	4.2
540.621	4.13
540.966	4.17
541.311	4.3
541.656	4.13
542.001	4.23
542.346	4.2
542.691	4.1
543.036	3.99
543.381	3.94
543.726	3.85
544.071	3.95
544.415	3.99
544.76	4.09
545.105	4.07
545.449	4.06
545.794	4.06
546.138	4.15
546.483	4.12
546.827	4.22
547.171	4.19
547.516	4.09
547.86	4.27
548.204	4.29
548.548	4.18
548.892	4.13
549.236	4.01
549.58	4.18
549.924	4.11
550.268	4.27
550.612	4.25
550.956	4.26
551.3	4.29
551.643	4.36
551.987	4.23
552.33	4.32
552.674	4.31
553.017	4.22
553.361	4.29
553.704	4.08
554.048	4.31
554.391	4.23
554.734	4.2
555.077	4.07
555.42	4.16
555.764	4.19
556.107	4.15
556.45	4.35
556.793	4.14
557.135	4.35
557.478	4.16
557.821	4.36
558.164	4.3
558.507	4.34
558.849	4.23
559.192	4.25
559.534	4.08
559.877	4.44
560.219	4.4
560.562	4.35
560.904	4.28
561.246	4.14
561.589	4.4
561.931	4.28
562.273	4.23
562.615	4.19
562.957	4.43
563.299	4.37
563.641	3.98
563.983	4.23
564.325	4.29
564.667	4.24
565.008	4.2
565.35	4.39
565.692	4.49
566.033	4.4
566.375	4.2
566.716	4.31
567.058	4.21
567.399	4.28
567.741	4.12
568.082	4.13
568.423	4.13
568.764	4.2
569.105	4.22
569.447	4.23
569.788	4.26
570.129	4.24
570.47	4.24
570.811	4.31
571.151	4.16
571.492	4.2
571.833	4.22
572.174	4.23
572.514	4.32
572.855	4.34
573.195	4.32
573.536	4.37
573.876	4.12
574.217	4.18
574.557	4.18
574.898	4.33
575.238	4.34
575.578	4.3
575.918	4.21
576.258	4.32
576.598	4.21
576.938	4.13
577.278	4.24
577.618	4.23
577.958	4.22
578.298	4.48
578.638	4.22
578.977	4.22
579.317	4.17
579.657	4.3
579.996	4.3
580.336	4.26
580.675	4.36
581.014	4.55
581.354	4.19
581.693	4.46
582.032	4.47
582.372	4.5
582.711	4.38
583.05	4.22
583.389	4.42
583.728	4.35
584.067	4.23
584.406	4.23
584.745	4.21
585.083	4.6
585.422	4.38
585.761	4.3
586.1	4.43
586.438	4.27
586.777	4.36
587.115	4.5
587.454	4.51
587.792	4.46
588.13	4.36
588.469	4.37
588.807	4.4
589.145	4.34
589.483	4.31
589.821	4.31
590.159	4.36
590.497	4.54
590.835	4.21
591.173	4.2
591.511	4.16
591.849	4.37
592.187	4.26
592.524	4.4
592.862	4.37
593.2	4.44
593.537	4.28
593.875	4.53
594.212	4.39
594.55	4.33
594.887	4.37
595.224	4.18
595.561	4.17
595.899	4.27
596.236	4.25
596.573	4.57
596.91	4.35
597.247	4.32
597.584	4.31
597.921	4.21
598.258	4.31
598.594	4.35
598.931	4.12
599.268	4.2
599.604	4.25
599.941	4.29
600.277	4.26
600.614	4.45
600.95	4.54
601.287	4.48
601.623	4.76
601.959	4.66
602.296	4.37
602.632	4.48
602.968	4.54
603.304	4.33
603.64	4.22
603.976	4.28
604.312	4.42
604.648	4.28
604.984	4.08
605.319	4.6
605.655	4.39
605.991	4.54
606.326	4.35
606.662	4.27
606.998	4.2
607.333	4.42
607.668	4.39
608.004	4.44
608.339	4.56
608.674	4.23
609.01	4.47
609.345	4.65
609.68	4.2
610.015	4.61
610.35	4.62
610.685	4.4
611.02	4.32
611.355	4.54
611.689	4.11
612.024	4.27
612.359	4.33
612.694	4.55
613.028	4.42
613.363	4.3
613.697	4.35
614.032	4.46
614.366	4.32
614.7	4.56
615.035	4.25
615.369	4.55
615.703	4.73
616.037	4.02
616.371	4.37
616.705	4.31
617.039	4.61
617.373	4.47
617.707	4.49
618.041	4.62
618.375	4.3
618.709	4.9
619.042	4.58
619.376	4.54
619.71	4.46
620.043	4.39
620.377	4.8
620.71	4.32
621.043	4.55
621.377	4.69
621.71	4.38
622.043	4.16
622.376	4.73
622.709	4.19
623.043	4.47
623.376	4.61
623.709	4.57
624.041	4.69
624.374	4.51
624.707	4.21
625.04	4.24
625.373	4.39
625.705	4.83
626.038	4.58
626.37	4.68
626.703	4.79
627.035	4.54
627.368	4.5
627.7	4.52
628.032	4.55
628.365	4.3
628.697	4.51
629.029	4.79
629.361	4.39
629.693	4.67
630.025	4.26
630.357	4.37
630.689	4.57
631.021	4.57
631.353	4.49
631.684	4.42
632.016	4.43
632.348	4.69
632.679	4.3
633.011	4.59
633.342	4.14
633.674	4.57
634.005	4.62
634.336	4.14
634.668	4.52
634.999	4.91
635.33	4.46
635.661	4.76
635.992	4.56
636.323	4.65
636.654	4.38
636.985	4.7
637.316	4.54
637.647	4.83
637.977	4.4
638.308	4.62
638.639	4.38
638.969	4.72
639.3	4.3
639.63	4.41
639.961	4.91
640.291	4.8
640.622	4.61
640.952	4.23
641.282	4.8
641.612	4.67
641.943	4.71
642.273	4.94
642.603	4.09
642.933	4.18
643.263	5.3
643.592	4.38
643.922	4.88
644.252	4.61
644.582	4.57
644.911	4.54
645.241	4.46
645.571	4.61
645.9	4.6
646.23	4.65
646.559	4.66
646.888	4.57
647.218	4.38
647.547	4.55
647.876	4.77
648.205	4.78
648.534	5.05
648.863	4.59
649.192	4.51
649.521	4.65
649.85	4.96
650.179	4.57
650.508	4.63
650.837	4.86
651.165	4.35
651.494	4.79
651.822	4.49
652.151	4.31
652.479	5.03
652.808	4.4
653.136	4.41
653.465	4.54
653.793	5.09
654.121	4.73
654.449	4.84
654.777	4.58
655.105	4.62
655.433	4.56
655.761	4.31
656.089	4.6
656.417	4.22
656.745	4.73
657.073	4.13
657.4	4.72
657.728	4.92
658.056	4.54
658.383	4.73
658.711	5.29
659.038	5.1
659.365	4.98
659.693	4.86
660.02	4.78
660.347	4.88
660.674	4.72
661.001	5.12
661.329	4.44
661.656	4.63
661.982	4.64
662.309	4.67
662.636	4.48
662.963	4.87
663.29	4.8
663.616	4.26
663.943	4.73
664.27	5.01
664.596	4.35
664.923	5.31
665.249	4.45
665.576	4.78
665.902	4.74
666.228	4.3
666.554	4.48
666.881	4.88
667.207	4.28
667.533	4.59
667.859	4.22
668.185	4.62
668.511	4.8
668.837	4.03
669.162	5.05
669.488	4.66
669.814	4.68
670.139	4.73
670.465	5.2
670.791	5.53
671.116	4.77
671.442	4.59
671.767	4.16
672.092	5.1
672.418	4.77
672.743	4.85
673.068	4.43
673.393	5.15
673.718	4.39
674.043	4.69
674.368	4.72
674.693	4.92
675.018	5.32
675.343	4.73
675.667	5.16
675.992	4.93
676.317	4.3
676.641	4.88
676.966	4.75
677.29	4.72
677.615	5.45
677.939	4.36
678.264	4.83
678.588	5.07
678.912	5.12
679.236	4.43
679.56	4.59
679.885	5
680.209	4.39
680.532	5.18
680.856	4.62
681.18	4.61
681.504	4.54
681.828	4.8
682.152	4.79
682.475	4.51
682.799	5
683.122	4.88
683.446	4.76
683.769	5.07
684.093	4.78
684.416	5.31
684.739	4.62
685.062	5.03
685.386	4.75
685.709	5.47
686.032	4.65
686.355	4.59
686.678	4.79
687.001	4.35
687.324	4.79
687.646	5.06
687.969	4.48
688.292	4.71
688.614	4.88
688.937	4.82
689.26	5.01
689.582	4.33
689.904	5.19
690.227	5.7
690.549	4.77
690.871	5.18
691.194	4.58
691.516	4.46
691.838	5.54
692.16	5.14
