Data from 0177_crown_Reflection__0__051.txt Node

Date: Mon Aug 28 19:04:36 CDT 2023
User: ToomeyLab
Spectrometer: FLMS14357
Trigger mode: 0
Integration Time (sec): 1.000000E-2
Scans to average: 100
Electric dark correction enabled: true
Nonlinearity correction enabled: false
Boxcar width: 0
XAxis mode: Wavelengths
Number of Pixels in Spectrum: 2048
>>>>>Begin Spectral Data<<<<<
189.047	20.95
189.435	20.95
189.823	20.95
190.211	-7990.7
190.599	219.69
190.987	-180.6
191.375	-14.69
191.763	125.42
192.151	-4.49
192.538	-0.83
192.926	286.68
193.314	-342.21
193.702	-76.98
194.089	-7.11
194.477	-908.24
194.864	-588.13
195.252	7.97
195.639	1295.73
196.027	115.29
196.414	201.05
196.801	-13.88
197.189	123.82
197.576	-13.86
197.963	11.43
198.351	19.76
198.738	41.77
199.125	-26.03
199.512	23.8
199.899	60.73
200.286	-118.4
200.673	13.79
201.06	-25.39
201.447	-91.91
201.833	-51.19
202.22	-19.97
202.607	-15.1
202.994	12.05
203.38	-14.44
203.767	5.59
204.154	9.51
204.54	6.76
204.927	-28.75
205.313	20.79
205.699	-82.31
206.086	64.53
206.472	15.05
206.858	-34.17
207.245	-3.35
207.631	22.39
208.017	-0.82
208.403	15.08
208.789	9.68
209.175	-48.99
209.561	31.57
209.947	-17.06
210.333	5.53
210.719	-21.27
211.105	1.37
211.491	-10.87
211.876	35.83
212.262	-25.36
212.648	30.48
213.034	-54.98
213.419	-17.77
213.805	9.32
214.19	-13.32
214.576	-12.84
214.961	16.01
215.346	-20.51
215.732	34.07
216.117	-25.71
216.502	-3.46
216.888	-41.47
217.273	5.08
217.658	35.67
218.043	7.7
218.428	-13.32
218.813	-16.1
219.198	-1.77
219.583	-23.38
219.968	0.37
220.353	-38.57
220.738	15.95
221.122	4.31
221.507	-18.8
221.892	10.89
222.276	1.57
222.661	-2.88
223.046	-24.03
223.43	-4.21
223.815	15.8
224.199	5.06
224.583	-3.52
224.968	7.56
225.352	-3.47
225.736	-0.28
226.121	4.62
226.505	6.4
226.889	1.73
227.273	7.62
227.657	6.02
228.041	5.38
228.425	6.72
228.809	2.22
229.193	7.16
229.577	6.28
229.961	4.53
230.344	4.62
230.728	4.66
231.112	3.91
231.495	5.1
231.879	5.03
232.263	3.39
232.646	4.93
233.03	3.75
233.413	5.22
233.797	4.92
234.18	3.71
234.563	2.22
234.946	5.1
235.33	4.53
235.713	1.83
236.096	3.5
236.479	4.32
236.862	5.7
237.245	3.63
237.628	6.3
238.011	5.71
238.394	6.21
238.777	5.37
239.16	2.66
239.543	3.3
239.925	5.26
240.308	3.53
240.691	4.62
241.073	2.84
241.456	4.88
241.838	4.79
242.221	5.21
242.603	4.89
242.986	4.98
243.368	4.4
243.75	3.94
244.133	4.21
244.515	4.27
244.897	4.76
245.279	4.25
245.661	4.29
246.043	4.5
246.425	3.62
246.807	4.38
247.189	4.41
247.571	4.81
247.953	4.46
248.335	4.56
248.717	3.91
249.098	4.31
249.48	4.25
249.862	4.39
250.243	4.61
250.625	4.29
251.006	4.26
251.388	4.13
251.769	4.3
252.151	3.22
252.532	3.09
252.913	4.32
253.295	3.41
253.676	4.27
254.057	4.02
254.438	3.92
254.819	4.53
255.2	4.91
255.581	4.43
255.962	3.84
256.343	5.02
256.724	4.13
257.105	3.72
257.486	4.22
257.867	3.71
258.247	3.21
258.628	5.41
259.009	3.95
259.389	2.98
259.77	4.44
260.15	3.23
260.531	3.62
260.911	3.91
261.292	3.98
261.672	3.66
262.052	3.68
262.432	3.59
262.813	4.19
263.193	3.91
263.573	3.38
263.953	4.26
264.333	3.76
264.713	3.71
265.093	3.76
265.473	3.53
265.853	3.49
266.233	3.66
266.612	4.15
266.992	2.92
267.372	4.08
267.752	4.14
268.131	4.35
268.511	3.49
268.89	4.05
269.27	3.16
269.649	3.55
270.029	3.64
270.408	3.76
270.787	3.59
271.167	3.64
271.546	3.37
271.925	3.9
272.304	3.77
272.683	3.6
273.062	3.79
273.441	3.86
273.82	3.43
274.199	3.55
274.578	3.63
274.957	3.7
275.336	3.94
275.715	4.05
276.093	3.64
276.472	3.12
276.851	3.18
277.229	4.14
277.608	3.08
277.986	3.7
278.365	3.76
278.743	3.6
279.122	3.19
279.5	3.66
279.878	3.51
280.257	3.5
280.635	3.6
281.013	3.24
281.391	3
281.769	3.15
282.147	3.58
282.525	3.72
282.903	3.25
283.281	3.07
283.659	3.44
284.037	4.06
284.415	3.2
284.792	3.49
285.17	3.32
285.548	3.22
285.925	3.66
286.303	3.8
286.68	4
287.058	3.53
287.435	3.33
287.813	3.42
288.19	3.76
288.567	3.8
288.945	3.5
289.322	3.6
289.699	3.85
290.076	3.9
290.453	3.31
290.83	3
291.207	3.51
291.584	3.42
291.961	3.85
292.338	3.14
292.715	3.18
293.092	3.57
293.469	3.79
293.845	3.5
294.222	3.43
294.599	3.31
294.975	3.06
295.352	2.88
295.728	3.84
296.105	3.72
296.481	3.31
296.858	3.76
297.234	3.42
297.61	3.77
297.986	3.63
298.363	3.64
298.739	3.1
299.115	3.11
299.491	3.75
299.867	3.38
300.243	3.83
300.619	3.6
300.995	3.84
301.371	3.66
301.746	3.51
302.122	3.66
302.498	2.87
302.874	3.59
303.249	3.31
303.625	3.38
304	3.36
304.376	3.17
304.751	3.47
305.127	3.32
305.502	3.22
305.878	2.71
306.253	3.22
306.628	3.35
307.003	3.55
307.378	3.31
307.754	4.03
308.129	3.48
308.504	3.96
308.879	3.87
309.254	3.88
309.629	3.7
310.003	3.33
310.378	3.49
310.753	3.5
311.128	3.85
311.502	3.63
311.877	3.2
312.252	3.67
312.626	3.59
313.001	3.21
313.375	3.85
313.75	3.81
314.124	3.79
314.498	3.68
314.873	3.86
315.247	3.95
315.621	3.63
315.995	3.9
316.369	3.63
316.743	3.03
317.117	3.91
317.491	3.05
317.865	3.35
318.239	3.11
318.613	3.62
318.987	3.7
319.361	3.53
319.734	3.78
320.108	3.23
320.482	3.75
320.855	3.33
321.229	2.98
321.602	3.38
321.976	3.08
322.349	3.97
322.723	3.52
323.096	3.98
323.469	2.76
323.843	2.81
324.216	3.49
324.589	3.68
324.962	4.44
325.335	3.41
325.708	3.25
326.081	3.43
326.454	3.69
326.827	4.01
327.2	2.89
327.573	3.29
327.945	3.9
328.318	3.95
328.691	3.38
329.063	3.03
329.436	3.37
329.809	4.3
330.181	3.56
330.553	3.33
330.926	3.5
331.298	3.71
331.671	3.2
332.043	3.2
332.415	3.98
332.787	3.42
333.159	3.92
333.532	3.43
333.904	3.72
334.276	3.24
334.648	3.94
335.02	3.81
335.391	3.44
335.763	2.79
336.135	4.2
336.507	3.08
336.879	3.46
337.25	3.64
337.622	3.58
337.993	3.5
338.365	3.54
338.736	3.86
339.108	2.96
339.479	3.08
339.851	3.87
340.222	3.59
340.593	3.88
340.964	3.71
341.336	3.73
341.707	3.27
342.078	2.93
342.449	3.14
342.82	3.5
343.191	3.27
343.562	3.2
343.933	3.5
344.303	3.35
344.674	3.9
345.045	3.77
345.416	3.59
345.786	3.7
346.157	3.63
346.527	3.21
346.898	3.45
347.268	3.42
347.639	2.89
348.009	3.47
348.38	3.79
348.75	3.8
349.12	4.18
349.49	3.45
349.861	2.84
350.231	3.39
350.601	3.73
350.971	4.05
351.341	3.5
351.711	3.56
352.081	3.61
352.45	3.64
352.82	3.69
353.19	4.14
353.56	3.87
353.929	3.62
354.299	3.21
354.669	3.59
355.038	3.8
355.408	3.59
355.777	3.67
356.147	3.59
356.516	3.9
356.885	3.83
357.254	3.72
357.624	3.49
357.993	4.04
358.362	3.64
358.731	3.67
359.1	3.72
359.469	3.7
359.838	3.38
360.207	3.53
360.576	3.74
360.945	3.6
361.314	3.47
361.682	3.29
362.051	3.71
362.42	3.73
362.788	3.75
363.157	3.73
363.525	3.53
363.894	3.66
364.262	3.68
364.631	3.57
364.999	3.6
365.367	3.79
365.735	3.47
366.104	3.45
366.472	3.71
366.84	3.43
367.208	3.83
367.576	3.58
367.944	3.89
368.312	3.85
368.68	3.54
369.048	3.85
369.416	3.72
369.783	3.78
370.151	3.73
370.519	3.92
370.886	3.62
371.254	3.8
371.621	3.86
371.989	3.65
372.356	3.58
372.724	4.22
373.091	3.77
373.458	3.74
373.826	3.98
374.193	3.94
374.56	3.71
374.927	3.77
375.294	3.93
375.661	4.03
376.028	3.69
376.395	3.29
376.762	4.24
377.129	3.66
377.496	3.67
377.863	3.96
378.229	3.71
378.596	3.99
378.963	4.01
379.329	4.02
379.696	3.55
380.062	3.44
380.429	3.53
380.795	3.95
381.161	3.56
381.528	3.97
381.894	3.78
382.26	3.64
382.626	3.86
382.993	3.91
383.359	3.97
383.725	4.04
384.091	3.84
384.457	3.82
384.823	3.81
385.188	3.93
385.554	3.77
385.92	3.67
386.286	4.06
386.651	4.04
387.017	3.89
387.383	3.67
387.748	3.94
388.114	3.83
388.479	3.85
388.845	3.84
389.21	3.96
389.575	3.91
389.94	3.64
390.306	3.69
390.671	3.98
391.036	3.75
391.401	3.85
391.766	3.82
392.131	3.83
392.496	3.83
392.861	3.95
393.226	3.74
393.591	3.77
393.956	3.91
394.32	3.72
394.685	3.84
395.05	4.05
395.414	3.81
395.779	3.79
396.143	3.89
396.508	3.58
396.872	4.21
397.236	3.95
397.601	3.97
397.965	3.82
398.329	4.01
398.694	4.05
399.058	3.95
399.422	3.79
399.786	4.18
400.15	4.16
400.514	4.12
400.878	3.99
401.242	3.91
401.605	4.16
401.969	3.91
402.333	3.93
402.697	3.76
403.06	4
403.424	4.04
403.787	3.94
404.151	3.79
404.514	4.21
404.878	3.82
405.241	3.89
405.604	4.2
405.968	3.88
406.331	4.09
406.694	3.83
407.057	4.1
407.42	3.87
407.783	4.02
408.146	4.08
408.509	4.14
408.872	3.94
409.235	4.16
409.598	4.19
409.961	3.94
410.323	4.18
410.686	4.21
411.049	4.19
411.411	4.24
411.774	4.1
412.136	3.65
412.499	3.94
412.861	4.14
413.223	3.77
413.586	3.87
413.948	3.93
414.31	3.98
414.672	4.09
415.035	4.14
415.397	3.95
415.759	4
416.121	3.99
416.483	3.62
416.845	4.25
417.206	4.29
417.568	3.94
417.93	3.87
418.292	4.14
418.653	3.91
419.015	3.96
419.377	3.83
419.738	4.08
420.1	4.02
420.461	3.91
420.822	4.04
421.184	4.03
421.545	4.01
421.906	3.95
422.267	4.1
422.629	3.84
422.99	3.87
423.351	3.95
423.712	3.9
424.073	4
424.434	4.08
424.795	3.94
425.155	3.89
425.516	3.83
425.877	3.87
426.238	3.82
426.598	3.94
426.959	3.95
427.32	3.99
427.68	4.01
428.041	4.05
428.401	4.19
428.761	4.05
429.122	3.99
429.482	4.1
429.842	4.22
430.202	4.13
430.563	4.12
430.923	4.33
431.283	4.06
431.643	4.21
432.003	4.18
432.363	4.08
432.722	4.11
433.082	4.06
433.442	4.3
433.802	4.15
434.161	4.15
434.521	3.99
434.881	4.06
435.24	4.03
435.6	4.19
435.959	4.15
436.319	4.12
436.678	4.16
437.037	4.02
437.396	4.2
437.756	4.04
438.115	4.29
438.474	4.42
438.833	4.01
439.192	4.33
439.551	4.13
439.91	4.25
440.269	4.07
440.628	3.91
440.987	4.09
441.345	4.14
441.704	4.08
442.063	4.06
442.421	4.07
442.78	4.05
443.138	4.05
443.497	4.01
443.855	4.11
444.214	4.3
444.572	4.23
444.93	4.32
445.288	4.17
445.647	4.2
446.005	4.19
446.363	4.3
446.721	4.2
447.079	4.19
447.437	3.92
447.795	3.91
448.153	4.17
448.51	4.04
448.868	4.1
449.226	4.07
449.584	4.07
449.941	4.22
450.299	4.17
450.656	4.2
451.014	4.13
451.371	4.17
451.729	4
452.086	4.17
452.443	4.35
452.801	4.33
453.158	4.41
453.515	4.16
453.872	4.03
454.229	4.19
454.586	4.27
454.943	4.07
455.3	4.26
455.657	4.24
456.014	4.34
456.371	4.34
456.727	4.2
457.084	4.08
457.441	4.32
457.797	4.25
458.154	4.31
458.51	4.44
458.867	4.16
459.223	4.36
459.58	4
459.936	4.3
460.292	4.31
460.648	4.16
461.005	4.18
461.361	4.09
461.717	4.09
462.073	4.08
462.429	4.03
462.785	4.19
463.141	4.32
463.496	4.35
463.852	4.25
464.208	4.32
464.564	4.28
464.919	4.32
465.275	4.43
465.631	4.39
465.986	4.38
466.342	4.24
466.697	4.22
467.052	4.29
467.408	4.12
467.763	4.3
468.118	4.24
468.473	4.24
468.829	4.4
469.184	4.18
469.539	4.35
469.894	4.26
470.249	4.26
470.603	4.3
470.958	4.15
471.313	4.41
471.668	4.31
472.023	4.14
472.377	4.42
472.732	4.22
473.086	4.36
473.441	4.35
473.795	4.33
474.15	4.43
474.504	4.28
474.859	4.37
475.213	4.33
475.567	4.44
475.921	4.53
476.275	4.54
476.63	4.38
476.984	4.47
477.338	4.4
477.692	4.33
478.045	4.46
478.399	4.24
478.753	4.3
479.107	4.24
479.461	4.31
479.814	4.4
480.168	4.39
480.521	4.26
480.875	4.27
481.228	4.31
481.582	4.36
481.935	4.3
482.289	4.39
482.642	4.39
482.995	4.42
483.348	4.25
483.701	4.37
484.055	4.26
484.408	4.22
484.761	4.12
485.114	4.16
485.466	3.96
485.819	3.86
486.172	3.82
486.525	3.88
486.878	4.1
487.23	4.24
487.583	4.39
487.936	4.44
488.288	4.37
488.641	4.23
488.993	4.15
489.345	4.04
489.698	4.05
490.05	3.96
490.402	4.07
490.754	4.18
491.107	4.27
491.459	4.28
491.811	4.34
492.163	4.44
492.515	4.4
492.866	4.36
493.218	4.19
493.57	4.09
493.922	3.94
494.274	4.11
494.625	4.2
494.977	4.39
495.328	4.54
495.68	4.62
496.031	4.56
496.383	4.38
496.734	4.37
497.086	4.51
497.437	4.48
497.788	4.34
498.139	4.38
498.49	4.24
498.842	4.2
499.193	4.2
499.544	4.31
499.894	4.3
500.245	4.4
500.596	4.27
500.947	4.36
501.298	4.52
501.648	4.42
501.999	4.4
502.35	4.27
502.7	4.45
503.051	4.45
503.401	4.46
503.752	4.42
504.102	4.4
504.452	4.37
504.803	4.42
505.153	4.36
505.503	4.23
505.853	4.44
506.203	4.35
506.553	4.33
506.903	4.5
507.253	4.44
507.603	4.38
507.953	4.47
508.303	4.54
508.652	4.6
509.002	4.58
509.352	4.23
509.701	4.26
510.051	4.43
510.4	4.32
510.75	4.37
511.099	4.39
511.449	4.25
511.798	4.29
512.147	4.36
512.496	4.46
512.846	4.35
513.195	4.43
513.544	4.38
513.893	4.3
514.242	4.4
514.591	4.44
514.939	4.27
515.288	4.49
515.637	4.53
515.986	4.43
516.334	4.54
516.683	4.54
517.032	4.52
517.38	4.5
517.729	4.58
518.077	4.38
518.426	4.39
518.774	4.45
519.122	4.51
519.47	4.35
519.819	4.33
520.167	4.26
520.515	4.34
520.863	4.19
521.211	4.23
521.559	4.25
521.907	4.36
522.255	4.38
522.602	4.45
522.95	4.62
523.298	4.46
523.645	4.54
523.993	4.38
524.341	4.47
524.688	4.56
525.036	4.49
525.383	4.6
525.73	4.41
526.078	4.58
526.425	4.39
526.772	4.48
527.119	4.38
527.466	4.23
527.814	4.19
528.161	4.22
528.508	4.29
528.854	4.35
529.201	4.45
529.548	4.39
529.895	4.3
530.242	4.15
530.588	4.03
530.935	3.97
531.282	4.06
531.628	4.24
531.975	4.34
532.321	4.45
532.667	4.42
533.014	4.54
533.36	4.45
533.706	4.39
534.052	4.34
534.399	4.34
534.745	4.33
535.091	4.19
535.437	4.1
535.783	4.15
536.129	4.25
536.474	4.38
536.82	4.45
537.166	4.57
537.512	4.54
537.857	4.55
538.203	4.42
538.549	4.34
538.894	4.23
539.239	4.28
539.585	4.35
539.93	4.39
540.276	4.51
540.621	4.62
540.966	4.53
541.311	4.64
541.656	4.49
542.001	4.38
542.346	4.3
542.691	4.3
543.036	4.19
543.381	4.16
543.726	4.02
544.071	4.16
544.415	4.33
544.76	4.38
545.105	4.4
545.449	4.35
545.794	4.49
546.138	4.45
546.483	4.46
546.827	4.46
547.171	4.53
547.516	4.56
547.86	4.47
548.204	4.54
548.548	4.46
548.892	4.26
549.236	4.33
549.58	4.38
549.924	4.4
550.268	4.62
550.612	4.52
550.956	4.65
551.3	4.54
551.643	4.58
551.987	4.43
552.33	4.56
552.674	4.57
553.017	4.56
553.361	4.47
553.704	4.45
554.048	4.42
554.391	4.36
554.734	4.57
555.077	4.42
555.42	4.36
555.764	4.55
556.107	4.47
556.45	4.56
556.793	4.53
557.135	4.64
557.478	4.49
557.821	4.35
558.164	4.69
558.507	4.57
558.849	4.59
559.192	4.56
559.534	4.39
559.877	4.59
560.219	4.58
560.562	4.57
560.904	4.64
561.246	4.46
561.589	4.54
561.931	4.58
562.273	4.37
562.615	4.47
562.957	4.59
563.299	4.62
563.641	4.47
563.983	4.5
564.325	4.54
564.667	4.4
565.008	4.35
565.35	4.84
565.692	4.66
566.033	4.49
566.375	4.64
566.716	4.45
567.058	4.4
567.399	4.4
567.741	4.58
568.082	4.45
568.423	4.45
568.764	4.39
569.105	4.62
569.447	4.55
569.788	4.48
570.129	4.56
570.47	4.57
570.811	4.56
571.151	4.45
571.492	4.56
571.833	4.44
572.174	4.61
572.514	4.66
572.855	4.44
573.195	4.72
573.536	4.53
573.876	4.37
574.217	4.52
574.557	4.51
574.898	4.58
575.238	4.41
575.578	4.47
575.918	4.6
576.258	4.55
576.598	4.4
576.938	4.4
577.278	4.39
577.618	4.37
577.958	4.52
578.298	4.61
578.638	4.57
578.977	4.54
579.317	4.45
579.657	4.52
579.996	4.62
580.336	4.43
580.675	4.56
581.014	4.69
581.354	4.56
581.693	4.7
582.032	4.6
582.372	4.65
582.711	4.91
583.05	4.41
583.389	4.86
583.728	4.36
584.067	4.83
584.406	4.52
584.745	4.52
585.083	4.74
585.422	4.48
585.761	4.6
586.1	4.77
586.438	4.44
586.777	4.41
587.115	4.7
587.454	4.58
587.792	4.74
588.13	4.76
588.469	4.62
588.807	4.54
589.145	4.71
589.483	4.77
589.821	4.69
590.159	4.73
590.497	4.69
590.835	4.79
591.173	4.6
591.511	4.63
591.849	4.53
592.187	4.51
592.524	4.65
592.862	4.74
593.2	4.45
593.537	4.43
593.875	4.7
594.212	4.63
594.55	4.78
594.887	4.49
595.224	4.57
595.561	4.46
595.899	4.37
596.236	4.5
596.573	4.69
596.91	4.46
597.247	4.71
597.584	4.75
597.921	4.61
598.258	4.63
598.594	4.52
598.931	4.38
599.268	4.37
599.604	4.51
599.941	4.67
600.277	4.43
600.614	4.86
600.95	4.91
601.287	4.86
601.623	4.68
601.959	4.72
602.296	4.66
602.632	4.53
602.968	4.65
603.304	4.77
603.64	4.63
603.976	4.62
604.312	4.61
604.648	4.66
604.984	4.39
605.319	4.55
605.655	4.6
605.991	4.64
606.326	4.51
606.662	4.56
606.998	4.58
607.333	4.54
607.668	4.7
608.004	4.55
608.339	4.77
608.674	4.58
609.01	4.64
609.345	4.97
609.68	4.58
610.015	4.71
610.35	4.93
610.685	4.6
611.02	4.57
611.355	4.75
611.689	4.45
612.024	4.6
612.359	4.62
612.694	4.66
613.028	4.77
613.363	4.68
613.697	4.51
614.032	4.86
614.366	4.56
614.7	4.69
615.035	4.66
615.369	4.86
615.703	4.61
616.037	4.45
616.371	4.34
616.705	4.78
617.039	4.59
617.373	4.74
617.707	4.67
618.041	4.54
618.375	4.72
618.709	4.82
619.042	4.7
619.376	4.66
619.71	4.53
620.043	4.69
620.377	4.81
620.71	4.73
621.043	4.96
621.377	4.95
621.71	4.75
622.043	4.6
622.376	4.86
622.709	4.79
623.043	4.79
623.376	4.9
623.709	4.86
624.041	4.93
624.374	4.65
624.707	4.26
625.04	4.63
625.373	4.79
625.705	4.71
626.038	4.55
626.37	4.9
626.703	4.84
627.035	4.81
627.368	4.94
627.7	4.83
628.032	5.03
628.365	4.82
628.697	4.88
629.029	4.73
629.361	4.93
629.693	4.68
630.025	4.69
630.357	4.54
630.689	4.95
631.021	4.66
631.353	4.63
631.684	4.86
632.016	4.59
632.348	4.56
632.679	5.08
633.011	4.51
633.342	4.75
633.674	4.76
634.005	4.71
634.336	4.75
634.668	4.99
634.999	4.86
635.33	4.82
635.661	4.82
635.992	4.66
636.323	4.85
636.654	4.57
636.985	4.88
637.316	4.65
637.647	4.75
637.977	4.43
638.308	5.1
638.639	4.54
638.969	4.81
639.3	4.4
639.63	4.68
639.961	4.83
640.291	4.88
640.622	4.66
640.952	4.55
641.282	4.82
641.612	4.82
641.943	4.82
642.273	5.24
642.603	4.58
642.933	4.57
643.263	5.2
643.592	4.45
643.922	4.81
644.252	4.86
644.582	4.23
644.911	4.97
645.241	5.05
645.571	4.46
645.9	4.69
646.23	4.46
646.559	5
646.888	4.93
647.218	4.5
647.547	4.83
647.876	4.76
648.205	4.67
648.534	5.21
648.863	4.78
649.192	4.96
649.521	4.99
649.85	4.8
650.179	5.04
650.508	4.97
650.837	4.59
651.165	4.78
651.494	4.8
651.822	4.74
652.151	4.71
652.479	5.3
652.808	4.73
653.136	4.69
653.465	4.71
653.793	5.4
654.121	4.59
654.449	5.02
654.777	4.63
655.105	4.86
655.433	4.63
655.761	4.76
656.089	4.83
656.417	4.52
656.745	5.3
657.073	4.63
657.4	4.83
657.728	5.04
658.056	4.95
658.383	4.58
658.711	5.08
659.038	5.42
659.365	5.38
659.693	5.06
660.02	5.04
660.347	5.04
660.674	5.1
661.001	5.38
661.329	4.85
661.656	4.92
661.982	4.82
662.309	5.2
662.636	5.03
662.963	5.28
663.29	5.3
663.616	4.67
663.943	4.87
664.27	5.06
664.596	4.93
664.923	5.5
665.249	5.08
665.576	5.09
665.902	4.68
666.228	4.67
666.554	4.47
666.881	5.13
667.207	4.81
667.533	5.45
667.859	4.95
668.185	4.88
668.511	4.83
668.837	4.45
669.162	4.89
669.488	4.21
669.814	5.2
670.139	4.63
670.465	5.15
670.791	5.2
671.116	5.08
671.442	4.84
671.767	4.99
672.092	5.43
672.418	4.96
672.743	5.7
673.068	4.81
673.393	5.06
673.718	3.99
674.043	5.52
674.368	4.98
674.693	5.09
675.018	5.3
675.343	4.96
675.667	5.16
675.992	5.39
676.317	4.23
676.641	5.71
676.966	5.59
677.29	4.77
677.615	5.67
677.939	5.15
678.264	4.92
678.588	5.17
678.912	5.36
679.236	4.68
679.56	4.24
679.885	5.25
680.209	4.45
680.532	5.19
680.856	4.6
681.18	5.33
681.504	4.84
681.828	5.03
682.152	5.36
682.475	4.83
682.799	5.12
683.122	5.37
683.446	4.58
683.769	5.48
684.093	5.32
684.416	5.78
684.739	5.38
685.062	5.43
685.386	4.95
685.709	5.19
686.032	4.71
686.355	4.65
686.678	5.15
687.001	5.26
687.324	5.31
687.646	5.27
687.969	5.92
688.292	5.72
688.614	5.51
688.937	5.45
689.26	5.53
689.582	4.85
689.904	5.53
690.227	5.84
690.549	4.88
690.871	5.3
691.194	5.31
691.516	5.28
691.838	5.69
692.16	5.57
692.482	5.45
