Data from 0177_forehead_Reflection__4__060.txt Node

Date: Mon Aug 28 19:06:37 CDT 2023
User: ToomeyLab
Spectrometer: FLMS14357
Trigger mode: 0
Integration Time (sec): 1.000000E-2
Scans to average: 100
Electric dark correction enabled: true
Nonlinearity correction enabled: false
Boxcar width: 0
XAxis mode: Wavelengths
Number of Pixels in Spectrum: 2048
>>>>>Begin Spectral Data<<<<<
189.047	-58.04
189.435	-58.04
189.823	-58.04
190.211	-3806.98
190.599	-108.74
190.987	298.71
191.375	-46.29
191.763	36.58
192.151	-59.35
192.538	230.4
192.926	193.5
193.314	1067.95
193.702	141.74
194.089	95.99
194.477	156.47
194.864	131.66
195.252	40.93
195.639	1864.1
196.027	103.44
196.414	705.83
196.801	-8.47
197.189	-8.67
197.576	-345.7
197.963	94.23
198.351	27.31
198.738	102.95
199.125	-12.84
199.512	61.26
199.899	-11.18
200.286	-12.64
200.673	5.92
201.06	9.7
201.447	-1.69
201.833	-25.61
202.22	50.38
202.607	38.69
202.994	40.69
203.38	83.27
203.767	40.03
204.154	-1.2
204.54	1.78
204.927	5.67
205.313	18.1
205.699	-11.21
206.086	8.98
206.472	16.4
206.858	37.37
207.245	-1.55
207.631	20.18
208.017	35.11
208.403	5.94
208.789	6.96
209.175	-22.52
209.561	38.37
209.947	21.67
210.333	-9.39
210.719	18.56
211.105	26.32
211.491	-10.23
211.876	27.36
212.262	58.99
212.648	11.57
213.034	-31.03
213.419	38.57
213.805	36.87
214.19	16.54
214.576	23.56
214.961	30.37
215.346	-12.89
215.732	28.76
216.117	-7.08
216.502	13.6
216.888	6.06
217.273	1.86
217.658	18.41
218.043	16.51
218.428	23.96
218.813	7.19
219.198	-13.23
219.583	13.7
219.968	-0.43
220.353	12.85
220.738	6.76
221.122	24.63
221.507	27.87
221.892	-2.51
222.276	-16.26
222.661	12.41
223.046	10.89
223.43	2.07
223.815	22.28
224.199	16.18
224.583	-4.11
224.968	6.68
225.352	15.37
225.736	10.3
226.121	6.82
226.505	12.64
226.889	8.16
227.273	3.65
227.657	10.66
228.041	6.43
228.425	3.4
228.809	2.76
229.193	3.13
229.577	5.76
229.961	1.62
230.344	2.75
230.728	3.07
231.112	1.83
231.495	3.45
231.879	2.76
232.263	3.07
232.646	3.53
233.03	3.63
233.413	4.54
233.797	3.06
234.18	4.07
234.563	4.19
234.946	5.54
235.33	3.05
235.713	2.14
236.096	4.8
236.479	2.94
236.862	5.13
237.245	3.37
237.628	4.3
238.011	3.98
238.394	2.33
238.777	5.54
239.16	2.85
239.543	0.93
239.925	6.24
240.308	4.55
240.691	2.16
241.073	0.38
241.456	1.27
241.838	2.25
242.221	4.69
242.603	3.29
242.986	4.08
243.368	3.22
243.75	2.95
244.133	3.16
244.515	2.68
244.897	3.12
245.279	3.37
245.661	2.83
246.043	3.37
246.425	2.72
246.807	5.12
247.189	3.63
247.571	4.2
247.953	3.17
248.335	2.96
248.717	3.24
249.098	3.08
249.48	3.16
249.862	2.89
250.243	2.98
250.625	3.41
251.006	3.41
251.388	3.4
251.769	3.59
252.151	3.12
252.532	2.68
252.913	3.87
253.295	2.87
253.676	3.27
254.057	3.55
254.438	3.01
254.819	3.16
255.2	4.16
255.581	3.71
255.962	2.74
256.343	5.28
256.724	2.8
257.105	3.55
257.486	3.45
257.867	3.23
258.247	2.93
258.628	4.12
259.009	2.69
259.389	2.11
259.77	3.57
260.15	3.16
260.531	2.79
260.911	3.36
261.292	2.8
261.672	2.84
262.052	2.68
262.432	2.93
262.813	2.95
263.193	2.88
263.573	2.9
263.953	3.62
264.333	2.29
264.713	2.9
265.093	3.44
265.473	3.32
265.853	2.64
266.233	2.87
266.612	4.02
266.992	2.5
267.372	2.63
267.752	4.02
268.131	3.45
268.511	3.14
268.89	3.37
269.27	2.91
269.649	3.04
270.029	3.68
270.408	3.14
270.787	3.35
271.167	3.64
271.546	3.07
271.925	3.3
272.304	3.18
272.683	2.78
273.062	2.63
273.441	3.14
273.82	2.66
274.199	2.57
274.578	3.09
274.957	3.34
275.336	3.19
275.715	3.41
276.093	2.86
276.472	3.24
276.851	2.72
277.229	3.28
277.608	3.28
277.986	3.02
278.365	3.27
278.743	3.08
279.122	3.17
279.5	2.61
279.878	2.9
280.257	2.14
280.635	2.73
281.013	3.03
281.391	2.71
281.769	2.91
282.147	2.5
282.525	3.03
282.903	2.87
283.281	3.11
283.659	3.36
284.037	3.15
284.415	2.93
284.792	2.75
285.17	2.64
285.548	2.84
285.925	3.13
286.303	2.77
286.68	3.36
287.058	3.33
287.435	2.88
287.813	2.43
288.19	3.13
288.567	2.95
288.945	2.76
289.322	3.25
289.699	3.36
290.076	3.24
290.453	3.59
290.83	2.39
291.207	3.05
291.584	3.21
291.961	3.46
292.338	3.21
292.715	2.88
293.092	3.34
293.469	3.37
293.845	3.12
294.222	2.61
294.599	3.16
294.975	3.62
295.352	3.01
295.728	3.68
296.105	3.68
296.481	3.69
296.858	3.8
297.234	3.81
297.61	3.49
297.986	3.11
298.363	3.83
298.739	3.31
299.115	3.3
299.491	3.87
299.867	3.42
300.243	3.77
300.619	3.95
300.995	4.31
301.371	3.75
301.746	3.5
302.122	3.63
302.498	3.69
302.874	3.71
303.249	4.3
303.625	3.83
304	3.81
304.376	3.63
304.751	4.16
305.127	4.22
305.502	4.39
305.878	4.1
306.253	3.62
306.628	4.24
307.003	4.07
307.378	4.35
307.754	4.31
308.129	4.01
308.504	5.19
308.879	4.47
309.254	4.39
309.629	4.13
310.003	4.39
310.378	4.26
310.753	4.95
311.128	4.98
311.502	5.24
311.877	4.36
312.252	4.66
312.626	4.65
313.001	4.83
313.375	4.64
313.75	4.63
314.124	4.93
314.498	5.02
314.873	5.01
315.247	4.98
315.621	5.1
315.995	5.86
316.369	5.06
316.743	4.67
317.117	5.3
317.491	4.95
317.865	5.05
318.239	5.2
318.613	5.66
318.987	5.02
319.361	5.93
319.734	5.54
320.108	5.87
320.482	6.06
320.855	5.54
321.229	5.34
321.602	6.17
321.976	5.14
322.349	6.03
322.723	5.88
323.096	5.84
323.469	5.84
323.843	6.12
324.216	6.37
324.589	5.62
324.962	6.59
325.335	5.68
325.708	5.76
326.081	5.6
326.454	6.23
326.827	6.08
327.2	5.72
327.573	6.02
327.945	6.11
328.318	6.58
328.691	5.78
329.063	5.88
329.436	6.05
329.809	7.03
330.181	6.1
330.553	5.79
330.926	7.14
331.298	6.64
331.671	6.45
332.043	6.82
332.415	7.27
332.787	6.59
333.159	6.38
333.532	7.05
333.904	6.94
334.276	6.49
334.648	6.95
335.02	7.03
335.391	6.87
335.763	6.38
336.135	6.59
336.507	7.12
336.879	6.2
337.25	6.79
337.622	7.16
337.993	6.77
338.365	6.78
338.736	7.37
339.108	6.68
339.479	6.56
339.851	7.27
340.222	7.19
340.593	7.08
340.964	7.29
341.336	6.74
341.707	6.56
342.078	6.83
342.449	7.55
342.82	7.23
343.191	7.13
343.562	7.13
343.933	7.29
344.303	7.23
344.674	7.67
345.045	7.49
345.416	7.97
345.786	7.69
346.157	7.56
346.527	7.16
346.898	7.56
347.268	7.42
347.639	7.34
348.009	7.41
348.38	8.04
348.75	7.69
349.12	7.88
349.49	7.82
349.861	7.24
350.231	7.73
350.601	8.05
350.971	8.29
351.341	8.05
351.711	7.86
352.081	7.87
352.45	7.88
352.82	8.14
353.19	8.38
353.56	8.42
353.929	8.27
354.299	7.99
354.669	8.49
355.038	8.6
355.408	8.14
355.777	8.03
356.147	8.17
356.516	8.59
356.885	8.23
357.254	7.77
357.624	8.45
357.993	8.57
358.362	8.3
358.731	8.3
359.1	8.49
359.469	8.67
359.838	8.35
360.207	8.43
360.576	8.64
360.945	8.53
361.314	8.5
361.682	8.64
362.051	8.79
362.42	9.11
362.788	8.61
363.157	8.6
363.525	8.61
363.894	8.84
364.262	8.72
364.631	8.58
364.999	8.91
365.367	9.13
365.735	8.74
366.104	8.82
366.472	8.93
366.84	9
367.208	9.24
367.576	9.02
367.944	9.22
368.312	9.42
368.68	9.36
369.048	9.4
369.416	9.41
369.783	9.04
370.151	9.12
370.519	9.5
370.886	9.33
371.254	9.65
371.621	9.5
371.989	9.5
372.356	9.42
372.724	10.09
373.091	9.91
373.458	9.79
373.826	9.91
374.193	9.64
374.56	9.66
374.927	9.58
375.294	9.85
375.661	9.89
376.028	9.64
376.395	9.77
376.762	9.93
377.129	9.87
377.496	9.83
377.863	10.01
378.229	9.87
378.596	10.18
378.963	10.36
379.329	10.23
379.696	10.37
380.062	9.99
380.429	9.9
380.795	10.14
381.161	10.19
381.528	10.63
381.894	10.07
382.26	10.36
382.626	10.5
382.993	10.73
383.359	10.47
383.725	10.5
384.091	10.56
384.457	10.41
384.823	10.37
385.188	10.82
385.554	10.49
385.92	10.64
386.286	10.82
386.651	10.6
387.017	10.94
387.383	10.85
387.748	10.73
388.114	10.81
388.479	10.35
388.845	10.98
389.21	10.68
389.575	11.06
389.94	10.82
390.306	11.05
390.671	10.99
391.036	10.7
391.401	11.26
391.766	11.19
392.131	10.99
392.496	10.87
392.861	10.93
393.226	11.07
393.591	10.85
393.956	11.1
394.32	11
394.685	11.13
395.05	11.2
395.414	11.36
395.779	11.46
396.143	11.32
396.508	10.96
396.872	11.4
397.236	11.06
397.601	11.12
397.965	11.13
398.329	11.43
398.694	11.29
399.058	11.13
399.422	11.38
399.786	11.61
400.15	11.54
400.514	11.53
400.878	11.63
401.242	11.49
401.605	11.54
401.969	11.4
402.333	11.54
402.697	11.45
403.06	11.82
403.424	11.76
403.787	11.54
404.151	11.26
404.514	11.6
404.878	11.73
405.241	11.98
405.604	11.87
405.968	11.56
406.331	12.04
406.694	11.67
407.057	11.76
407.42	11.52
407.783	11.48
408.146	11.53
408.509	11.82
408.872	11.8
409.235	11.85
409.598	11.88
409.961	11.75
410.323	12.06
410.686	12.07
411.049	12.11
411.411	12.03
411.774	12.09
412.136	11.74
412.499	11.66
412.861	12
413.223	12.03
413.586	11.79
413.948	12.03
414.31	12.28
414.672	12.31
415.035	12.08
415.397	12.01
415.759	12.06
416.121	12.17
416.483	11.99
416.845	12.32
417.206	12.24
417.568	12.17
417.93	12.08
418.292	12.08
418.653	12.22
419.015	12.22
419.377	12.16
419.738	12.44
420.1	12.21
420.461	12.34
420.822	12.17
421.184	12.19
421.545	12.24
421.906	12.32
422.267	12.38
422.629	12.2
422.99	12.29
423.351	12.39
423.712	12.31
424.073	12.47
424.434	12.58
424.795	12.63
425.155	12.51
425.516	12.59
425.877	12.65
426.238	12.56
426.598	12.63
426.959	12.73
427.32	12.7
427.68	12.92
428.041	12.88
428.401	13.16
428.761	13.17
429.122	13.24
429.482	13.33
429.842	13.54
430.202	13.44
430.563	13.45
430.923	13.65
431.283	13.44
431.643	13.37
432.003	13.59
432.363	13.84
432.722	13.72
433.082	13.77
433.442	13.76
433.802	13.71
434.161	14.03
434.521	13.79
434.881	13.72
435.24	13.82
435.6	13.79
435.959	13.83
436.319	13.98
436.678	13.8
437.037	13.89
437.396	14.08
437.756	14.06
438.115	14.34
438.474	14.33
438.833	14.12
439.192	14.44
439.551	14.22
439.91	14.31
440.269	14.53
440.628	14.41
440.987	14.66
441.345	14.21
441.704	14.39
442.063	14.33
442.421	14.38
442.78	14.52
443.138	14.44
443.497	14.47
443.855	14.62
444.214	14.75
444.572	14.82
444.93	14.89
445.288	14.65
445.647	14.92
446.005	14.88
446.363	14.98
446.721	14.89
447.079	14.87
447.437	14.81
447.795	14.7
448.153	14.91
448.51	14.7
448.868	14.74
449.226	14.78
449.584	14.88
449.941	14.85
450.299	15.12
450.656	15.05
451.014	15.07
451.371	15.21
451.729	15.29
452.086	15.34
452.443	15.61
452.801	15.59
453.158	15.76
453.515	15.58
453.872	15.54
454.229	15.65
454.586	15.79
454.943	15.5
455.3	15.66
455.657	15.64
456.014	15.66
456.371	15.58
456.727	15.7
457.084	15.67
457.441	15.74
457.797	15.72
458.154	15.92
458.51	16.03
458.867	15.97
459.223	16.06
459.58	15.97
459.936	16.23
460.292	16.05
460.648	16.12
461.005	15.93
461.361	15.98
461.717	15.87
462.073	15.7
462.429	15.77
462.785	15.75
463.141	15.99
463.496	16.12
463.852	16.24
464.208	16.41
464.564	16.45
464.919	16.57
465.275	16.64
465.631	16.61
465.986	16.68
466.342	16.78
466.697	16.58
467.052	16.62
467.408	16.63
467.763	16.6
468.118	16.67
468.473	16.7
468.829	16.7
469.184	16.61
469.539	16.77
469.894	16.7
470.249	16.8
470.603	16.71
470.958	16.92
471.313	17.02
471.668	16.97
472.023	16.99
472.377	17.06
472.732	17.04
473.086	16.99
473.441	17.17
473.795	17.17
474.15	17.33
474.504	17.35
474.859	17.2
475.213	17.3
475.567	17.25
475.921	17.35
476.275	17.43
476.63	17.67
476.984	17.26
477.338	17.68
477.692	17.35
478.045	17.58
478.399	17.39
478.753	17.41
479.107	17.48
479.461	17.59
479.814	17.6
480.168	17.72
480.521	17.64
480.875	17.64
481.228	17.54
481.582	17.45
481.935	17.47
482.289	17.65
482.642	17.83
482.995	17.88
483.348	17.7
483.701	17.68
484.055	17.51
484.408	17.55
484.761	17.52
485.114	17.48
485.466	17.18
485.819	16.94
486.172	16.75
486.525	16.79
486.878	16.82
487.23	16.9
487.583	17.15
487.936	17.27
488.288	17.55
488.641	17.55
488.993	17.53
489.345	17.44
489.698	17.28
490.05	17.23
490.402	17.22
490.754	17.37
491.107	17.44
491.459	17.61
491.811	17.81
492.163	17.98
492.515	18.1
492.866	18.18
493.218	17.94
493.57	17.81
493.922	17.5
494.274	17.6
494.625	17.53
494.977	17.76
495.328	18.02
495.68	18.2
496.031	18.5
496.383	18.5
496.734	18.62
497.086	18.78
497.437	18.9
497.788	18.85
498.139	18.73
498.49	18.61
498.842	18.6
499.193	18.51
499.544	18.56
499.894	18.65
500.245	18.57
500.596	18.66
500.947	18.76
501.298	18.8
501.648	18.83
501.999	18.89
502.35	18.86
502.7	19.01
503.051	19.18
503.401	19.13
503.752	18.95
504.102	19.15
504.452	19.25
504.803	19.19
505.153	19.21
505.503	18.98
505.853	19.31
506.203	19.25
506.553	19.12
506.903	19.31
507.253	19.26
507.603	19.21
507.953	19.32
508.303	19.33
508.652	19.52
509.002	19.56
509.352	19.42
509.701	19.3
510.051	19.46
510.4	19.28
510.75	19.33
511.099	19.49
511.449	19.38
511.798	19.37
512.147	19.42
512.496	19.53
512.846	19.48
513.195	19.39
513.544	19.58
513.893	19.49
514.242	19.63
514.591	19.51
514.939	19.49
515.288	19.64
515.637	19.65
515.986	19.79
516.334	19.75
516.683	19.87
517.032	19.85
517.38	19.95
517.729	19.99
518.077	19.86
518.426	19.82
518.774	20.03
519.122	19.92
519.47	19.91
519.819	19.89
520.167	19.83
520.515	19.74
520.863	19.57
521.211	19.57
521.559	19.59
521.907	19.6
522.255	19.64
522.602	19.8
522.95	20.05
523.298	20.1
523.645	20.09
523.993	20.19
524.341	20.23
524.688	20.39
525.036	20.33
525.383	20.33
525.73	20.35
526.078	20.54
526.425	20.51
526.772	20.26
527.119	20.28
527.466	19.99
527.814	19.95
528.161	19.91
528.508	19.94
528.854	19.9
529.201	20.16
529.548	20.07
529.895	20.11
530.242	20
530.588	19.55
530.935	19.4
531.282	19.37
531.628	19.42
531.975	19.46
532.321	19.66
532.667	19.79
533.014	20.15
533.36	20.14
533.706	20.29
534.052	20.27
534.399	20.43
534.745	20.31
535.091	20.26
535.437	20
535.783	19.95
536.129	20.02
536.474	20.03
536.82	20.33
537.166	20.53
537.512	20.51
537.857	20.65
538.203	20.7
538.549	20.56
538.894	20.44
539.239	20.41
539.585	20.46
539.93	20.51
540.276	20.68
540.621	20.92
540.966	20.96
541.311	21.28
541.656	21.24
542.001	21.13
542.346	21.28
542.691	20.97
543.036	20.78
543.381	20.4
543.726	20.22
544.071	20.37
544.415	20.41
544.76	20.54
545.105	20.61
545.449	20.57
545.794	20.83
546.138	20.94
546.483	21.05
546.827	20.95
547.171	21.3
547.516	21.17
547.86	21.31
548.204	21.43
548.548	21.29
548.892	21.2
549.236	21.04
549.58	21.23
549.924	21.24
550.268	21.45
550.612	21.51
550.956	21.67
551.3	21.75
551.643	22.12
551.987	21.66
552.33	21.98
552.674	21.94
553.017	22.05
553.361	21.99
553.704	21.91
554.048	22.05
554.391	22.02
554.734	21.97
555.077	21.8
555.42	21.85
555.764	22.08
556.107	22.07
556.45	22.02
556.793	22.1
557.135	22.28
557.478	22.02
557.821	22.27
558.164	22.44
558.507	22.3
558.849	22.48
559.192	22.4
559.534	22.37
559.877	22.39
560.219	22.51
560.562	22.34
560.904	22.58
561.246	22.53
561.589	22.62
561.931	22.51
562.273	22.28
562.615	22.41
562.957	22.72
563.299	22.7
563.641	22.48
563.983	22.51
564.325	22.72
564.667	22.6
565.008	22.69
565.35	22.75
565.692	22.92
566.033	22.65
566.375	22.72
566.716	22.86
567.058	22.79
567.399	22.82
567.741	22.78
568.082	22.68
568.423	22.6
568.764	22.49
569.105	22.62
569.447	22.66
569.788	22.8
570.129	22.84
570.47	22.94
570.811	22.87
571.151	22.99
571.492	22.87
571.833	23.09
572.174	23.07
572.514	22.95
572.855	22.8
573.195	23.23
573.536	23.1
573.876	22.89
574.217	22.8
574.557	22.9
574.898	22.91
575.238	22.97
575.578	22.97
575.918	23.09
576.258	23.16
576.598	23.11
576.938	23.22
577.278	23.18
577.618	23.2
577.958	23.17
578.298	23.38
578.638	23.21
578.977	23.26
579.317	23.1
579.657	23.42
579.996	23.56
580.336	23.36
580.675	23.67
581.014	23.8
581.354	23.51
581.693	23.58
582.032	23.48
582.372	23.55
582.711	23.78
583.05	23.76
583.389	23.88
583.728	23.6
584.067	24.03
584.406	23.83
584.745	23.52
585.083	23.58
585.422	23.73
585.761	23.99
586.1	24.06
586.438	23.79
586.777	23.68
587.115	24.11
587.454	24.12
587.792	24.31
588.13	23.98
588.469	24.19
588.807	24.18
589.145	24.09
589.483	23.89
589.821	23.97
590.159	24.28
590.497	24.38
590.835	24.12
591.173	23.94
591.511	24
591.849	24.2
592.187	24.23
592.524	24.25
592.862	24.24
593.2	23.91
593.537	24.3
593.875	24.56
594.212	24.11
594.55	24.48
594.887	24.41
595.224	24.68
595.561	24.5
595.899	24.39
596.236	24.53
596.573	24.61
596.91	24.66
597.247	24.41
597.584	24.38
597.921	24.6
598.258	24.54
598.594	24.39
598.931	24.36
599.268	24.36
599.604	24.17
599.941	24.31
600.277	24.28
600.614	24.6
600.95	24.77
601.287	24.48
601.623	25.08
601.959	24.87
602.296	24.73
602.632	24.74
602.968	25.02
603.304	24.97
603.64	24.75
603.976	25.05
604.312	25
604.648	25.01
604.984	24.6
605.319	24.86
605.655	24.85
605.991	24.82
606.326	25.09
606.662	24.74
606.998	24.71
607.333	24.54
607.668	24.75
608.004	24.74
608.339	24.76
608.674	25.08
609.01	25.02
609.345	25.47
609.68	25.31
610.015	25.26
610.35	25.33
610.685	25.26
611.02	25.26
611.355	25.17
611.689	25.09
612.024	25.17
612.359	25.25
612.694	25.42
613.028	25.3
613.363	25.41
613.697	25.15
614.032	25.62
614.366	25.24
614.7	25.49
615.035	25.39
615.369	25.84
615.703	25.44
616.037	25.34
616.371	25.56
616.705	25.65
617.039	25.84
617.373	25.53
617.707	25.81
618.041	25.71
618.375	25.72
618.709	25.99
619.042	26.01
619.376	26.14
619.71	25.62
620.043	25.76
620.377	26.35
620.71	26.06
621.043	26.09
621.377	25.9
621.71	25.76
622.043	25.59
622.376	26.01
622.709	25.89
623.043	26.07
623.376	25.99
623.709	26.08
624.041	26.09
624.374	25.93
624.707	25.67
625.04	26.24
625.373	26.44
625.705	26.21
626.038	26.21
626.37	26.38
626.703	26.51
627.035	26.67
627.368	26.5
627.7	26.31
628.032	26.42
628.365	26.18
628.697	26.33
629.029	26.41
629.361	26.03
629.693	26.08
630.025	25.94
630.357	26.39
630.689	26.19
631.021	26.44
631.353	26.25
631.684	26.47
632.016	26.83
632.348	26.09
632.679	26.53
633.011	26.62
633.342	26.5
633.674	26.24
634.005	26.4
634.336	26.48
634.668	26.87
634.999	26.91
635.33	26.77
635.661	26.6
635.992	26.41
636.323	27.01
636.654	26.33
636.985	26.71
637.316	26.58
637.647	26.73
637.977	26.73
638.308	27.14
638.639	26.82
638.969	27.25
639.3	26.98
639.63	26.71
639.961	26.94
640.291	27.3
640.622	27.01
640.952	26.96
641.282	27.25
641.612	27.25
641.943	27.1
642.273	27.47
642.603	26.93
642.933	27.08
643.263	27.5
643.592	27.46
643.922	27.28
644.252	27.32
644.582	27.69
644.911	27.35
645.241	27.37
645.571	27.22
645.9	27.74
646.23	27.13
646.559	27.4
646.888	27.67
647.218	27.48
647.547	27.34
647.876	27.74
648.205	27.21
648.534	27.86
648.863	27.1
649.192	27.72
649.521	27.65
649.85	27.69
650.179	27.99
650.508	27.3
650.837	27.63
651.165	27.78
651.494	27.49
651.822	27.58
652.151	27.36
652.479	27.66
652.808	27.7
653.136	27.46
653.465	27.52
653.793	28.25
654.121	28.46
654.449	27.8
654.777	27.54
655.105	27.67
655.433	27.46
655.761	27.6
656.089	27.45
656.417	27.7
656.745	28.32
657.073	27.6
657.4	28.12
657.728	27.97
658.056	27.94
658.383	28.09
658.711	28.52
659.038	27.98
659.365	28.63
659.693	27.88
660.02	28.3
660.347	28.54
660.674	28.15
661.001	28.22
661.329	28.03
661.656	27.85
661.982	27.67
662.309	28.18
662.636	28.09
662.963	28.64
663.29	28.01
663.616	28.13
663.943	28.88
664.27	28.94
664.596	28.38
664.923	28.96
665.249	28.32
665.576	28.37
665.902	27.7
666.228	28.03
666.554	28.43
666.881	28.67
667.207	28
667.533	29.06
667.859	28.82
668.185	28.9
668.511	28.8
668.837	28.3
669.162	28.64
669.488	28.09
669.814	28.81
670.139	28.8
670.465	28.9
670.791	28.56
671.116	28.9
671.442	28.72
671.767	28.37
672.092	28.94
672.418	28.57
672.743	29.11
