Data from 0177_crown_Reflection__3__054.txt Node

Date: Mon Aug 28 19:05:04 CDT 2023
User: ToomeyLab
Spectrometer: FLMS14357
Trigger mode: 0
Integration Time (sec): 1.000000E-2
Scans to average: 100
Electric dark correction enabled: true
Nonlinearity correction enabled: false
Boxcar width: 0
XAxis mode: Wavelengths
Number of Pixels in Spectrum: 2048
>>>>>Begin Spectral Data<<<<<
189.047	153.53
189.435	153.53
189.823	153.53
190.211	-37.21
190.599	-10.25
190.987	-171.8
191.375	-70.53
191.763	64.93
192.151	-12.2
192.538	109.77
192.926	110.71
193.314	-718.74
193.702	-29.04
194.089	14.82
194.477	2145.88
194.864	-72.64
195.252	63.75
195.639	-3719.66
196.027	65.18
196.414	264.08
196.801	76.29
197.189	52.08
197.576	-462.13
197.963	29.29
198.351	-7.81
198.738	66.56
199.125	10.67
199.512	52.44
199.899	-23.14
200.286	-122.37
200.673	15.5
201.06	-11.14
201.447	57.03
201.833	-38.41
202.22	23.47
202.607	10.35
202.994	5.62
203.38	48.78
203.767	-9.27
204.154	-15.79
204.54	-23.29
204.927	-12.91
205.313	-5.14
205.699	-14.39
206.086	31.85
206.472	-28.34
206.858	-21.19
207.245	0.18
207.631	38.63
208.017	8.25
208.403	22.33
208.789	-24.22
209.175	-2.05
209.561	-21.4
209.947	1.86
210.333	3.63
210.719	22.09
211.105	3.8
211.491	5.88
211.876	29.46
212.262	-56.12
212.648	33.49
213.034	-49.97
213.419	-0.7
213.805	27.68
214.19	22.23
214.576	14.06
214.961	-11.19
215.346	6.02
215.732	18.11
216.117	-19.53
216.502	5.54
216.888	-4.11
217.273	-29.35
217.658	20.72
218.043	-12.41
218.428	8.42
218.813	11.71
219.198	4.89
219.583	-15.68
219.968	12.75
220.353	-17.71
220.738	10.07
221.122	13.94
221.507	-0
221.892	6.78
222.276	5.72
222.661	2.01
223.046	7.8
223.43	4.43
223.815	7.58
224.199	3.61
224.583	7.53
224.968	8.22
225.352	7.27
225.736	11.27
226.121	9.3
226.505	-3.5
226.889	8.77
227.273	5.7
227.657	5.21
228.041	7.85
228.425	2.14
228.809	1.43
229.193	2.81
229.577	2.45
229.961	0.9
230.344	4.84
230.728	1.9
231.112	2.23
231.495	2.65
231.879	1.82
232.263	4.24
232.646	1.84
233.03	3.79
233.413	4.85
233.797	3.1
234.18	2.24
234.563	1.42
234.946	6.65
235.33	2.06
235.713	1.77
236.096	4.77
236.479	2.35
236.862	3.65
237.245	2.48
237.628	2.77
238.011	5.83
238.394	3.09
238.777	3
239.16	1.74
239.543	2.51
239.925	3.66
240.308	2.38
240.691	2.98
241.073	1.62
241.456	2.59
241.838	3.68
242.221	3.05
242.603	3.99
242.986	4.48
243.368	2.5
243.75	2.41
244.133	2.53
244.515	2.45
244.897	3.21
245.279	2.89
245.661	1.99
246.043	3.04
246.425	2.52
246.807	4.1
247.189	2.07
247.571	2.46
247.953	2.65
248.335	2.82
248.717	2.57
249.098	2.34
249.48	2.57
249.862	2.61
250.243	2.3
250.625	2.9
251.006	2.39
251.388	2.71
251.769	3.21
252.151	3.46
252.532	2.85
252.913	2.72
253.295	1.24
253.676	2.18
254.057	2.42
254.438	2.14
254.819	1.78
255.2	2.82
255.581	2.59
255.962	2.98
256.343	2.54
256.724	1.33
257.105	2.08
257.486	2.96
257.867	2.85
258.247	2.89
258.628	3.22
259.009	1.34
259.389	2.5
259.77	3.31
260.15	2.01
260.531	2.33
260.911	2.42
261.292	2.57
261.672	2.3
262.052	2.12
262.432	2.28
262.813	2.32
263.193	2.15
263.573	2.01
263.953	2.92
264.333	1.97
264.713	2.52
265.093	2.69
265.473	2.65
265.853	1.24
266.233	2.29
266.612	2.1
266.992	2.52
267.372	2.87
267.752	2.65
268.131	2.46
268.511	1.9
268.89	2.48
269.27	2.14
269.649	2.33
270.029	2.43
270.408	2.77
270.787	2.31
271.167	2.22
271.546	1.84
271.925	2.54
272.304	2.17
272.683	2.13
273.062	2.1
273.441	2.19
273.82	2
274.199	1.88
274.578	2.15
274.957	2.83
275.336	2.55
275.715	2.67
276.093	2.13
276.472	1.94
276.851	1.79
277.229	2.29
277.608	2.42
277.986	1.45
278.365	2.6
278.743	2.14
279.122	2.52
279.5	2.11
279.878	1.49
280.257	1.93
280.635	1.94
281.013	1.85
281.391	2.16
281.769	2.34
282.147	2.15
282.525	2.12
282.903	1.95
283.281	2.24
283.659	2.53
284.037	2.6
284.415	2.21
284.792	2.38
285.17	2.21
285.548	1.94
285.925	2.64
286.303	1.94
286.68	1.93
287.058	2.21
287.435	1.85
287.813	1.83
288.19	2.48
288.567	2.44
288.945	2.21
289.322	1.83
289.699	2.42
290.076	2.36
290.453	2.18
290.83	1.86
291.207	2
291.584	1.99
291.961	2.5
292.338	2.11
292.715	1.86
293.092	2.01
293.469	2.27
293.845	1.78
294.222	2.13
294.599	2.31
294.975	2.69
295.352	2.4
295.728	2.45
296.105	2.66
296.481	2.53
296.858	2.28
297.234	2.55
297.61	2.52
297.986	2.33
298.363	2.51
298.739	2.36
299.115	1.79
299.491	2.2
299.867	2.61
300.243	2.34
300.619	2.4
300.995	2.37
301.371	1.92
301.746	2.59
302.122	2.53
302.498	1.88
302.874	2.64
303.249	2.28
303.625	2.41
304	2.33
304.376	2.46
304.751	2
305.127	2.66
305.502	2.45
305.878	2.17
306.253	2.15
306.628	2.38
307.003	2.42
307.378	2.61
307.754	2.18
308.129	2.43
308.504	2.93
308.879	2.6
309.254	2.38
309.629	2.45
310.003	2.12
310.378	1.69
310.753	2.36
311.128	2.23
311.502	2.54
311.877	1.81
312.252	2.69
312.626	2.47
313.001	2.36
313.375	2.59
313.75	2.23
314.124	2.38
314.498	2.23
314.873	2.6
315.247	2.68
315.621	2.07
315.995	2.97
316.369	2.57
316.743	1.97
317.117	2.45
317.491	1.81
317.865	2.26
318.239	2.67
318.613	2.41
318.987	2.21
319.361	2.16
319.734	2.73
320.108	2.35
320.482	3.17
320.855	1.73
321.229	2.25
321.602	2.43
321.976	2.52
322.349	2.53
322.723	1.88
323.096	2.73
323.469	2.14
323.843	2.03
324.216	2.89
324.589	2.66
324.962	2.59
325.335	2.99
325.708	2.74
326.081	2.15
326.454	2.45
326.827	2.52
327.2	2.46
327.573	2.4
327.945	2.3
328.318	2.59
328.691	2.35
329.063	2.09
329.436	2.01
329.809	2.57
330.181	2.09
330.553	2.01
330.926	1.72
331.298	2.36
331.671	2.34
332.043	1.92
332.415	3.51
332.787	1.83
333.159	2.6
333.532	2.33
333.904	2.12
334.276	2
334.648	2.52
335.02	2.88
335.391	2.59
335.763	2.08
336.135	3.13
336.507	2.23
336.879	2.37
337.25	2.8
337.622	2.33
337.993	2.18
338.365	1.98
338.736	2.63
339.108	1.88
339.479	2.01
339.851	2.7
340.222	2.71
340.593	2.12
340.964	2.22
341.336	2.31
341.707	2.17
342.078	2.25
342.449	2.57
342.82	2.38
343.191	2.52
343.562	2.19
343.933	2.27
344.303	2.41
344.674	2.24
345.045	2.22
345.416	2.68
345.786	2.95
346.157	2.14
346.527	1.92
346.898	1.93
347.268	2.3
347.639	2.15
348.009	1.99
348.38	2.76
348.75	2.51
349.12	2.52
349.49	2.13
349.861	1.88
350.231	1.94
350.601	2.45
350.971	2.75
351.341	2.55
351.711	2.23
352.081	2.39
352.45	2.63
352.82	2.49
353.19	2.8
353.56	2.21
353.929	2.4
354.299	2.17
354.669	2.2
355.038	2.66
355.408	2.46
355.777	2.37
356.147	2.3
356.516	2.76
356.885	2.37
357.254	2.29
357.624	2.32
357.993	2.81
358.362	2.11
358.731	2.38
359.1	2.47
359.469	2.33
359.838	2.07
360.207	2.51
360.576	2.66
360.945	2.77
361.314	2.1
361.682	2.22
362.051	2.37
362.42	2.18
362.788	2.14
363.157	2.25
363.525	2.14
363.894	2.36
364.262	2.29
364.631	2.38
364.999	2.45
365.367	2.14
365.735	2.47
366.104	2.3
366.472	2.13
366.84	2.42
367.208	2.25
367.576	2.03
367.944	2.48
368.312	2.54
368.68	2.12
369.048	2.37
369.416	2.3
369.783	2.04
370.151	2.29
370.519	2.77
370.886	2.2
371.254	2.02
371.621	1.91
371.989	2.31
372.356	2.33
372.724	2.56
373.091	2.57
373.458	2.36
373.826	2.31
374.193	2.25
374.56	2.18
374.927	2.27
375.294	2.46
375.661	2.66
376.028	2.08
376.395	2.18
376.762	2.97
377.129	2.41
377.496	2.27
377.863	2.48
378.229	2.44
378.596	2.31
378.963	2.59
379.329	2.51
379.696	2.3
380.062	2.31
380.429	2.21
380.795	2.46
381.161	2.26
381.528	2.72
381.894	2.3
382.26	2.44
382.626	2.65
382.993	2.35
383.359	2.58
383.725	2.67
384.091	2.18
384.457	2.16
384.823	2.35
385.188	2.48
385.554	2.42
385.92	2.41
386.286	2.71
386.651	2.23
387.017	2.37
387.383	2.35
387.748	2.47
388.114	2.26
388.479	2.15
388.845	2.43
389.21	2.2
389.575	2.85
389.94	2.25
390.306	2.43
390.671	2.31
391.036	2.26
391.401	2.55
391.766	2.77
392.131	2.37
392.496	2.28
392.861	2.46
393.226	2.49
393.591	2.11
393.956	2.31
394.32	2.17
394.685	2.41
395.05	2.5
395.414	2.54
395.779	2.5
396.143	2.18
396.508	2.24
396.872	2.5
397.236	2.4
397.601	2.42
397.965	2.39
398.329	2.42
398.694	2.2
399.058	2.27
399.422	2.72
399.786	2.2
400.15	2.75
400.514	2.54
400.878	2.4
401.242	2.34
401.605	2.5
401.969	2.37
402.333	2.31
402.697	2.4
403.06	2.51
403.424	2.3
403.787	2.42
404.151	2.28
404.514	2.59
404.878	2.27
405.241	2.5
405.604	2.42
405.968	2.17
406.331	2.52
406.694	2.67
407.057	2.73
407.42	2.35
407.783	2.47
408.146	2.25
408.509	2.73
408.872	2.57
409.235	2.51
409.598	2.44
409.961	2.22
410.323	2.54
410.686	2.52
411.049	2.68
411.411	2.46
411.774	2.57
412.136	2.33
412.499	2.5
412.861	2.28
413.223	2.5
413.586	2.39
413.948	2.47
414.31	2.44
414.672	2.41
415.035	2.48
415.397	2.39
415.759	2.4
416.121	2.61
416.483	2.39
416.845	2.46
417.206	2.7
417.568	2.53
417.93	2.38
418.292	2.45
418.653	2.33
419.015	2.44
419.377	2.29
419.738	2.58
420.1	2.52
420.461	2.57
420.822	2.6
421.184	2.49
421.545	2.45
421.906	2.36
422.267	2.37
422.629	2.42
422.99	2.45
423.351	2.43
423.712	2.4
424.073	2.39
424.434	2.56
424.795	2.42
425.155	2.34
425.516	2.45
425.877	2.47
426.238	2.31
426.598	2.32
426.959	2.42
427.32	2.5
427.68	2.51
428.041	2.49
428.401	2.54
428.761	2.37
429.122	2.49
429.482	2.61
429.842	2.54
430.202	2.51
430.563	2.64
430.923	2.53
431.283	2.49
431.643	2.44
432.003	2.54
432.363	2.73
432.722	2.56
433.082	2.51
433.442	2.61
433.802	2.48
434.161	2.51
434.521	2.49
434.881	2.48
435.24	2.44
435.6	2.55
435.959	2.54
436.319	2.56
436.678	2.55
437.037	2.51
437.396	2.6
437.756	2.55
438.115	2.53
438.474	2.71
438.833	2.44
439.192	2.57
439.551	2.45
439.91	2.52
440.269	2.52
440.628	2.55
440.987	2.53
441.345	2.47
441.704	2.57
442.063	2.46
442.421	2.39
442.78	2.51
443.138	2.46
443.497	2.5
443.855	2.54
444.214	2.6
444.572	2.54
444.93	2.6
445.288	2.51
445.647	2.51
446.005	2.65
446.363	2.72
446.721	2.66
447.079	2.58
447.437	2.48
447.795	2.38
448.153	2.49
448.51	2.55
448.868	2.53
449.226	2.39
449.584	2.47
449.941	2.58
450.299	2.53
450.656	2.52
451.014	2.44
451.371	2.59
451.729	2.47
452.086	2.48
452.443	2.65
452.801	2.59
453.158	2.52
453.515	2.51
453.872	2.51
454.229	2.59
454.586	2.77
454.943	2.47
455.3	2.48
455.657	2.64
456.014	2.71
456.371	2.55
456.727	2.52
457.084	2.58
457.441	2.77
457.797	2.68
458.154	2.59
458.51	2.69
458.867	2.52
459.223	2.64
459.58	2.45
459.936	2.55
460.292	2.66
460.648	2.61
461.005	2.48
461.361	2.56
461.717	2.46
462.073	2.53
462.429	2.47
462.785	2.63
463.141	2.55
463.496	2.66
463.852	2.64
464.208	2.62
464.564	2.71
464.919	2.66
465.275	2.78
465.631	2.71
465.986	2.86
466.342	2.65
466.697	2.5
467.052	2.58
467.408	2.65
467.763	2.5
468.118	2.52
468.473	2.54
468.829	2.59
469.184	2.5
469.539	2.69
469.894	2.64
470.249	2.52
470.603	2.73
470.958	2.55
471.313	2.78
471.668	2.59
472.023	2.54
472.377	2.62
472.732	2.67
473.086	2.64
473.441	2.61
473.795	2.64
474.15	2.75
474.504	2.6
474.859	2.6
475.213	2.71
475.567	2.72
475.921	2.83
476.275	2.76
476.63	2.82
476.984	2.76
477.338	2.67
477.692	2.68
478.045	2.87
478.399	2.62
478.753	2.6
479.107	2.67
479.461	2.69
479.814	2.86
480.168	2.71
480.521	2.55
480.875	2.72
481.228	2.64
481.582	2.64
481.935	2.55
482.289	2.71
482.642	2.84
482.995	2.81
483.348	2.64
483.701	2.68
484.055	2.53
484.408	2.55
484.761	2.6
485.114	2.56
485.466	2.58
485.819	2.43
486.172	2.36
486.525	2.44
486.878	2.51
487.23	2.61
487.583	2.7
487.936	2.67
488.288	2.67
488.641	2.61
488.993	2.61
489.345	2.54
489.698	2.56
490.05	2.51
490.402	2.53
490.754	2.57
491.107	2.62
491.459	2.64
491.811	2.68
492.163	2.73
492.515	2.67
492.866	2.67
493.218	2.56
493.57	2.56
493.922	2.44
494.274	2.53
494.625	2.57
494.977	2.67
495.328	2.8
495.68	2.73
496.031	2.77
496.383	2.67
496.734	2.7
497.086	2.84
497.437	2.87
497.788	2.76
498.139	2.68
498.49	2.65
498.842	2.7
499.193	2.7
499.544	2.81
499.894	2.66
500.245	2.7
500.596	2.68
500.947	2.79
501.298	2.8
501.648	2.69
501.999	2.72
502.35	2.76
502.7	2.75
503.051	2.9
503.401	2.84
503.752	2.7
504.102	2.74
504.452	2.65
504.803	2.79
505.153	2.75
505.503	2.74
505.853	2.69
506.203	2.79
506.553	2.64
506.903	2.84
507.253	2.82
507.603	2.74
507.953	2.83
508.303	2.96
508.652	2.78
509.002	2.83
509.352	2.66
509.701	2.71
510.051	2.77
510.4	2.64
510.75	2.81
511.099	2.76
511.449	2.81
511.798	2.78
512.147	2.69
512.496	2.8
512.846	2.78
513.195	2.79
513.544	2.74
513.893	2.68
514.242	2.79
514.591	2.82
514.939	2.7
515.288	2.83
515.637	2.79
515.986	2.78
516.334	2.9
516.683	2.83
517.032	2.84
517.38	2.86
517.729	2.91
518.077	2.86
518.426	2.78
518.774	2.79
519.122	2.89
519.47	2.73
519.819	2.69
520.167	2.78
520.515	2.79
520.863	2.66
521.211	2.72
521.559	2.77
521.907	2.83
522.255	2.74
522.602	2.77
522.95	2.89
523.298	2.95
523.645	2.84
523.993	2.78
524.341	2.83
524.688	2.87
525.036	2.86
525.383	2.87
525.73	2.87
526.078	3.04
526.425	2.91
526.772	2.86
527.119	2.8
527.466	2.74
527.814	2.76
528.161	2.67
528.508	2.72
528.854	2.7
529.201	2.81
529.548	2.78
529.895	2.83
530.242	2.72
530.588	2.6
530.935	2.58
531.282	2.63
531.628	2.68
531.975	2.73
532.321	2.78
532.667	2.79
533.014	2.91
533.36	2.83
533.706	2.88
534.052	2.8
534.399	2.79
534.745	2.83
535.091	2.78
535.437	2.75
535.783	2.7
536.129	2.78
536.474	2.78
536.82	2.85
537.166	2.91
537.512	2.86
537.857	2.86
538.203	2.9
538.549	2.77
538.894	2.78
539.239	2.69
539.585	2.92
539.93	2.85
540.276	2.95
540.621	2.89
540.966	2.88
541.311	2.97
541.656	2.91
542.001	2.89
542.346	2.97
542.691	2.81
543.036	2.83
543.381	2.74
543.726	2.68
544.071	2.76
544.415	2.81
544.76	2.89
545.105	2.85
545.449	2.86
545.794	2.89
546.138	2.88
546.483	2.96
546.827	2.86
547.171	2.87
547.516	2.83
547.86	2.9
548.204	3.01
548.548	2.8
548.892	2.85
549.236	2.73
549.58	2.74
549.924	2.87
550.268	2.99
550.612	2.92
550.956	2.97
551.3	3.04
551.643	3.11
551.987	2.92
552.33	3.04
552.674	2.91
553.017	3.01
553.361	2.97
553.704	2.82
554.048	3.01
554.391	3.08
554.734	3.1
555.077	2.99
555.42	3.03
555.764	2.98
556.107	2.95
556.45	3.02
556.793	3.08
557.135	3.11
557.478	2.96
557.821	2.96
558.164	3.3
558.507	3.09
558.849	3.09
559.192	2.94
559.534	3.01
559.877	3.03
560.219	3.22
560.562	3.11
560.904	3.03
561.246	2.94
561.589	3.03
561.931	2.96
562.273	2.93
562.615	3.07
562.957	3.19
563.299	3.09
563.641	3.04
563.983	3.07
564.325	3.04
564.667	3
565.008	2.88
565.35	3.19
565.692	3.04
566.033	2.97
566.375	3
566.716	3.01
567.058	3
567.399	2.87
567.741	2.95
568.082	2.94
568.423	3.08
568.764	3.01
569.105	3.1
569.447	2.97
569.788	3.14
570.129	3.01
570.47	3.01
570.811	3.04
571.151	2.92
571.492	2.93
571.833	2.88
572.174	3.23
572.514	3.07
572.855	2.91
573.195	3.12
573.536	3.29
573.876	2.87
574.217	3.06
574.557	3.11
574.898	3.21
575.238	2.95
575.578	3.07
575.918	3.07
576.258	3.07
576.598	2.88
576.938	3
577.278	3.06
577.618	2.95
577.958	3.08
578.298	3.11
578.638	3.06
578.977	3.07
579.317	3.03
579.657	3.08
579.996	3.13
580.336	2.99
580.675	2.99
581.014	3.29
581.354	3.1
581.693	3.12
582.032	3.2
582.372	3.15
582.711	3.34
583.05	2.95
583.389	3.28
583.728	3.17
584.067	3.26
584.406	3.06
584.745	3.11
585.083	3.06
585.422	3.07
585.761	3.2
586.1	3.28
586.438	3.17
586.777	3.04
587.115	3.12
587.454	3.1
587.792	3.35
588.13	3.2
588.469	3.12
588.807	3.24
589.145	3.22
589.483	3.22
589.821	3.18
590.159	3.29
590.497	3.16
590.835	3.19
591.173	2.79
591.511	3.03
591.849	3.18
592.187	3.05
592.524	3.26
592.862	3.14
593.2	3.13
593.537	3.22
593.875	3.46
594.212	3.45
594.55	3.39
594.887	3.16
595.224	3.11
595.561	3.17
595.899	2.98
596.236	3.35
596.573	3.23
596.91	3.03
597.247	3.35
597.584	3.17
597.921	3.25
598.258	3.24
598.594	3.19
598.931	3.06
599.268	3.1
599.604	3.13
599.941	3.11
600.277	3.11
600.614	3.32
600.95	3.13
601.287	3.36
601.623	3.43
601.959	3.34
602.296	3.27
602.632	3.24
602.968	3.42
603.304	3.26
603.64	3.17
603.976	3.42
604.312	3.37
604.648	3
604.984	3.26
605.319	3.35
605.655	3.17
605.991	3.29
606.326	3.25
606.662	3.04
606.998	3.08
607.333	3.21
607.668	3.21
608.004	3.27
608.339	3.26
608.674	3.19
609.01	3.36
609.345	3.23
609.68	3.16
610.015	3.52
610.35	3.43
610.685	3.34
611.02	3.3
611.355	3.33
611.689	3.05
612.024	3.27
612.359	3.28
612.694	3.35
613.028	3.13
613.363	3.21
613.697	3.44
614.032	3.24
614.366	3.35
614.7	3.33
615.035	3
615.369	3.11
615.703	3.17
616.037	3.04
616.371	3.26
616.705	3.29
617.039	3.2
617.373	3.37
617.707	3.13
618.041	3.27
618.375	3.26
618.709	3.37
619.042	3.37
619.376	3.28
619.71	2.97
620.043	3.25
620.377	3.56
620.71	3.3
621.043	3.45
621.377	3.67
621.71	3.46
622.043	2.86
622.376	3.11
622.709	3.31
623.043	3.37
623.376	3.58
623.709	3.87
624.041	3.37
624.374	3.25
624.707	2.91
625.04	2.97
625.373	3.49
625.705	3.65
626.038	3.34
626.37	3.25
626.703	3.59
627.035	3.12
627.368	3.74
627.7	3.53
628.032	3.3
628.365	3.04
628.697	3.33
629.029	3.6
629.361	3.34
629.693	3.45
630.025	3.38
630.357	3.12
630.689	3.52
631.021	3.64
631.353	3.32
631.684	3.49
632.016	3.32
632.348	3.33
632.679	3.48
633.011	3.35
633.342	3.44
633.674	3.58
634.005	3.12
634.336	3.5
634.668	3.67
634.999	3.63
635.33	3.29
635.661	3.63
635.992	3.23
636.323	3.65
636.654	3.39
636.985	3.14
637.316	3.49
637.647	3.79
637.977	3.62
638.308	3.33
638.639	3.57
638.969	3.74
639.3	3.45
639.63	3.15
639.961	3.36
640.291	3.53
640.622	3.6
640.952	2.98
641.282	3.22
641.612	3.57
641.943	3.35
642.273	3.61
642.603	3.01
642.933	2.88
643.263	3.63
643.592	3.21
643.922	3.73
644.252	3.38
644.582	3.29
644.911	3.72
645.241	3.76
645.571	3.85
645.9	3.25
646.23	3.02
646.559	3.59
646.888	3.6
647.218	3.07
647.547	3.55
647.876	3.88
648.205	3.07
648.534	3.87
648.863	3.56
649.192	4
649.521	3.57
649.85	3.5
650.179	3.66
650.508	3.68
650.837	3.37
651.165	3.54
651.494	3.97
651.822	3.42
652.151	3.74
652.479	3.92
652.808	3.37
653.136	3.57
653.465	3.73
653.793	3.4
654.121	3.84
654.449	3.59
654.777	3.39
655.105	3.98
655.433	3.2
655.761	3.07
656.089	3.98
656.417	2.96
656.745	3.78
657.073	3.21
657.4	3.69
657.728	3.93
658.056	4.18
658.383	3.59
658.711	4.03
659.038	3.44
659.365	3.9
659.693	3.64
660.02	3.59
660.347	4.19
660.674	4.11
661.001	4.06
661.329	3.1
661.656	3.61
661.982	3.6
662.309	3.78
662.636	3.81
662.963	3.73
663.29	3.69
663.616	3.26
663.943	3.97
664.27	3.69
664.596	3.51
664.923	3.81
665.249	3.74
665.576	3.86
665.902	3.61
666.228	3.69
666.554	3.96
666.881	3.94
667.207	3.85
667.533	3.62
667.859	2.74
668.185	3.17
668.511	3.85
668.837	3.49
669.162	3.74
669.488	3.59
669.814	3.56
670.139	3.8
670.465	3.82
670.791	3.61
671.116	3.52
671.442	3.8
671.767	3.38
672.092	3.82
672.418	3.49
672.743	3.99
673.068	3.3
673.393	3.44
673.718	3.46
674.043	3.4
674.368	3.34
674.693	3.9
675.018	4.51
675.343	3.96
675.667	4.13
675.992	4.17
676.317	3.51
676.641	3.71
676.966	3.24
677.29	3.36
677.615	4.23
677.939	3.96
678.264	3.78
678.588	4.23
678.912	4.51
679.236	3.27
679.56	3.62
679.885	4.04
680.209	3.43
680.532	4.05
680.856	3.4
681.18	4.1
681.504	3.3
681.828	3.67
682.152	3.88
682.475	4.05
682.799	4.07
683.122	3.26
683.446	3.7
683.769	4.37
684.093	3.59
684.416	4.05
684.739	3.58
685.062	4.23
685.386	3.59
685.709	3.91
686.032	3.43
686.355	4.04
686.678	3.49
687.001	3.52
687.324	3.63
687.646	3.72
687.969	3.68
688.292	4.68
688.614	4.74
688.937	3.87
689.26	3.94
689.582	3.07
689.904	4.14
690.227	4.48
690.549	3.68
690.871	3.83
691.194	4.29
691.516	3.88
691.838	4.48
692.16	3.99
692.482	4.2
692.804	3.69
