Data from 0178_crown_Reflection__4__050.txt Node

Date: Mon Aug 28 19:01:45 CDT 2023
User: ToomeyLab
Spectrometer: FLMS14357
Trigger mode: 0
Integration Time (sec): 1.000000E-2
Scans to average: 100
Electric dark correction enabled: true
Nonlinearity correction enabled: false
Boxcar width: 0
XAxis mode: Wavelengths
Number of Pixels in Spectrum: 2048
>>>>>Begin Spectral Data<<<<<
189.047	-67.61
189.435	-67.61
189.823	-67.61
190.211	-5776.74
190.599	87.83
190.987	128.85
191.375	-24.93
191.763	108.13
192.151	17.41
192.538	-123.58
192.926	157.64
193.314	-755.76
193.702	-137.77
194.089	-16.92
194.477	4352.94
194.864	-54.48
195.252	18.8
195.639	30.77
196.027	87.13
196.414	109.63
196.801	55.92
197.189	256.78
197.576	237.74
197.963	24.08
198.351	5.86
198.738	40.69
199.125	-20.94
199.512	0.77
199.899	15.41
200.286	-14.72
200.673	20.13
201.06	-5.87
201.447	-27.19
201.833	2.79
202.22	-12.5
202.607	15.49
202.994	20.48
203.38	33.52
203.767	-27.39
204.154	43.29
204.54	-9.08
204.927	27.84
205.313	33.77
205.699	40.24
206.086	24.9
206.472	39.65
206.858	-1.45
207.245	34.37
207.631	32.66
208.017	32.62
208.403	10.12
208.789	24.92
209.175	-24.73
209.561	-1.56
209.947	-0.22
210.333	-28.74
210.719	28.48
211.105	31.22
211.491	9.02
211.876	48.57
212.262	-41.86
212.648	5.8
213.034	-11.4
213.419	-13.12
213.805	-10.98
214.19	-12.97
214.576	5.67
214.961	-1.58
215.346	-8.16
215.732	24.6
216.117	14.74
216.502	-9.06
216.888	-62.27
217.273	-9.21
217.658	7.25
218.043	-0.99
218.428	23.07
218.813	-1.03
219.198	10.85
219.583	-4.75
219.968	15.61
220.353	5.65
220.738	-2.86
221.122	4.83
221.507	-17.64
221.892	12.51
222.276	5.04
222.661	4.78
223.046	-0.04
223.43	15.21
223.815	7.5
224.199	7.96
224.583	-2.5
224.968	7.51
225.352	7.46
225.736	10.67
226.121	0.01
226.505	-0.15
226.889	4.95
227.273	8.44
227.657	5.21
228.041	3.31
228.425	4.07
228.809	0.7
229.193	4.06
229.577	6.58
229.961	1.03
230.344	3.82
230.728	2.23
231.112	1.92
231.495	3.24
231.879	2.26
232.263	1.9
232.646	1.87
233.03	3.69
233.413	5.17
233.797	3.14
234.18	3.01
234.563	0.87
234.946	4.69
235.33	2.43
235.713	1.64
236.096	3.84
236.479	2.54
236.862	3.82
237.245	3.69
237.628	4.08
238.011	4.19
238.394	4.23
238.777	4.43
239.16	2.63
239.543	-0.87
239.925	4.57
240.308	2.5
240.691	1.84
241.073	2.2
241.456	4.43
241.838	2.9
242.221	4.27
242.603	3.49
242.986	3.75
243.368	2.47
243.75	2.87
244.133	2.02
244.515	2.28
244.897	2.94
245.279	3.41
245.661	1.64
246.043	2.53
246.425	2.45
246.807	3.25
247.189	1.96
247.571	2.5
247.953	2.85
248.335	2.63
248.717	2.31
249.098	2.45
249.48	2.7
249.862	2.83
250.243	2.77
250.625	3.06
251.006	2.92
251.388	2.65
251.769	3.13
252.151	2.76
252.532	1.42
252.913	2.72
253.295	2.47
253.676	2.61
254.057	2.44
254.438	1.94
254.819	1.98
255.2	2.77
255.581	2.8
255.962	2.71
256.343	2.66
256.724	1.72
257.105	2.54
257.486	3.51
257.867	1.68
258.247	2.96
258.628	2.92
259.009	2.93
259.389	2.63
259.77	2.51
260.15	2.37
260.531	1.92
260.911	2.56
261.292	2.5
261.672	2.38
262.052	2.13
262.432	2.34
262.813	2.52
263.193	2.26
263.573	2.73
263.953	2.44
264.333	1.82
264.713	2.44
265.093	2.86
265.473	3.19
265.853	2.57
266.233	1.99
266.612	2.31
266.992	2.95
267.372	1.85
267.752	3.16
268.131	2.16
268.511	2.15
268.89	2.83
269.27	2.28
269.649	1.77
270.029	2.63
270.408	2.62
270.787	2.67
271.167	2.69
271.546	2.29
271.925	2.79
272.304	2.09
272.683	2.32
273.062	2.16
273.441	2.55
273.82	2
274.199	1.83
274.578	2.51
274.957	2.12
275.336	2.49
275.715	2.77
276.093	1.88
276.472	2.25
276.851	2.36
277.229	2.42
277.608	2.22
277.986	2.93
278.365	2.83
278.743	2.26
279.122	2.53
279.5	1.77
279.878	1.38
280.257	2.13
280.635	2.19
281.013	2.43
281.391	2.33
281.769	2.23
282.147	2.24
282.525	2.48
282.903	2.44
283.281	2.39
283.659	2.85
284.037	2.97
284.415	1.98
284.792	2.54
285.17	1.76
285.548	2.06
285.925	2.75
286.303	2.22
286.68	2.52
287.058	2.41
287.435	2.11
287.813	2.08
288.19	2.57
288.567	2.29
288.945	2.78
289.322	2.49
289.699	2.5
290.076	2.67
290.453	2.18
290.83	2.09
291.207	2.28
291.584	2.35
291.961	2.65
292.338	2.01
292.715	1.9
293.092	2.37
293.469	2.68
293.845	2.23
294.222	2.08
294.599	2.61
294.975	2.83
295.352	2.39
295.728	2.55
296.105	2.06
296.481	2.48
296.858	2.6
297.234	2.61
297.61	2.5
297.986	2.51
298.363	2.71
298.739	2.26
299.115	2.57
299.491	2.7
299.867	2.66
300.243	2.49
300.619	2.51
300.995	2.94
301.371	2.39
301.746	2.35
302.122	2.48
302.498	2.83
302.874	2.53
303.249	2.48
303.625	2.51
304	2.65
304.376	2.27
304.751	2.7
305.127	3.14
305.502	2.72
305.878	3
306.253	2.38
306.628	2.66
307.003	3.05
307.378	3.13
307.754	2.75
308.129	2.82
308.504	3.83
308.879	3.09
309.254	3.38
309.629	2.44
310.003	2.66
310.378	2.58
310.753	2.85
311.128	2.66
311.502	3.15
311.877	2.7
312.252	2.95
312.626	2.8
313.001	2.69
313.375	2.89
313.75	2.59
314.124	2.45
314.498	2.83
314.873	2.94
315.247	2.54
315.621	2.27
315.995	3.05
316.369	2.75
316.743	2.4
317.117	2.83
317.491	2.4
317.865	2.62
318.239	2.59
318.613	2.6
318.987	2.99
319.361	2.69
319.734	2.76
320.108	3
320.482	3.26
320.855	2.84
321.229	2.79
321.602	3.34
321.976	2.62
322.349	2.95
322.723	2.68
323.096	2.81
323.469	2.33
323.843	2.54
324.216	2.68
324.589	2.91
324.962	3.24
325.335	3.09
325.708	2.33
326.081	2.48
326.454	3.1
326.827	3.04
327.2	2.53
327.573	2.85
327.945	3.38
328.318	3
328.691	2.38
329.063	2.36
329.436	2.51
329.809	3.41
330.181	2.87
330.553	2.53
330.926	3.16
331.298	2.64
331.671	2.67
332.043	2.72
332.415	3.91
332.787	2.98
333.159	2.83
333.532	2.97
333.904	2.57
334.276	2.81
334.648	2.99
335.02	3.4
335.391	2.64
335.763	3.02
336.135	3.38
336.507	2.6
336.879	2.94
337.25	3.1
337.622	3.04
337.993	3.36
338.365	2.76
338.736	3.18
339.108	2.56
339.479	2.55
339.851	3.03
340.222	3.22
340.593	3.04
340.964	3.15
341.336	3
341.707	3.05
342.078	2.35
342.449	2.49
342.82	3.08
343.191	3.06
343.562	3.01
343.933	2.66
344.303	2.34
344.674	2.85
345.045	2.89
345.416	3.12
345.786	3.43
346.157	3.26
346.527	2.76
346.898	2.69
347.268	3.04
347.639	2.51
348.009	2.58
348.38	3.09
348.75	3.07
349.12	2.99
349.49	2.94
349.861	2.94
350.231	2.85
350.601	3.38
350.971	3
351.341	2.94
351.711	2.8
352.081	3.07
352.45	3.26
352.82	2.84
353.19	3.41
353.56	3.47
353.929	3.09
354.299	2.49
354.669	3.24
355.038	2.86
355.408	3.12
355.777	2.94
356.147	2.87
356.516	3.38
356.885	3.13
357.254	3.08
357.624	3.06
357.993	2.69
358.362	2.76
358.731	3.17
359.1	3.29
359.469	3.23
359.838	2.68
360.207	3.13
360.576	3.41
360.945	3.39
361.314	2.52
361.682	2.75
362.051	3.1
362.42	3.08
362.788	2.63
363.157	3.07
363.525	2.67
363.894	3.05
364.262	2.91
364.631	2.89
364.999	2.87
365.367	3.09
365.735	3.04
366.104	3.19
366.472	2.9
366.84	2.92
367.208	3.25
367.576	2.75
367.944	3.07
368.312	3.37
368.68	3.01
369.048	3.24
369.416	2.93
369.783	2.93
370.151	3.2
370.519	3.02
370.886	3.02
371.254	3.01
371.621	3.03
371.989	3.04
372.356	3.15
372.724	3.52
373.091	3.31
373.458	2.71
373.826	3.12
374.193	3.01
374.56	3.26
374.927	2.86
375.294	3.16
375.661	3.25
376.028	2.87
376.395	2.74
376.762	3.51
377.129	3.11
377.496	3.06
377.863	3.18
378.229	3.09
378.596	3.45
378.963	3.26
379.329	3.33
379.696	2.92
380.062	3.13
380.429	3.2
380.795	3.02
381.161	3.12
381.528	3.33
381.894	3.15
382.26	3.3
382.626	3.59
382.993	3.12
383.359	3.3
383.725	3.26
384.091	3.25
384.457	2.96
384.823	3.05
385.188	2.95
385.554	3.01
385.92	2.98
386.286	3.31
386.651	3.01
387.017	3.32
387.383	3.1
387.748	3.39
388.114	3.18
388.479	3.2
388.845	3.23
389.21	2.87
389.575	3.31
389.94	3.36
390.306	3.24
390.671	3.3
391.036	3.02
391.401	3.25
391.766	3.43
392.131	3.3
392.496	3.1
392.861	3.39
393.226	3.24
393.591	3.14
393.956	3.22
394.32	3.16
394.685	3.18
395.05	3.24
395.414	3.21
395.779	3.38
396.143	3.05
396.508	2.94
396.872	3.34
397.236	3
397.601	3.13
397.965	3.29
398.329	3.32
398.694	3.2
399.058	2.93
399.422	3.32
399.786	3.03
400.15	3.39
400.514	3.29
400.878	3.01
401.242	3.17
401.605	3.12
401.969	3.31
402.333	3.24
402.697	3.25
403.06	3.27
403.424	3.48
403.787	3.2
404.151	2.99
404.514	3.32
404.878	3.14
405.241	3.27
405.604	3.52
405.968	3.11
406.331	3.48
406.694	3.4
407.057	3.33
407.42	3.18
407.783	3.35
408.146	3.21
408.509	3.28
408.872	3.26
409.235	3.26
409.598	3.34
409.961	3.22
410.323	3.37
410.686	3.42
411.049	3.37
411.411	3.36
411.774	3.42
412.136	3.21
412.499	3.36
412.861	3.31
413.223	3.27
413.586	3.37
413.948	3.31
414.31	3.45
414.672	3.31
415.035	3.44
415.397	3.01
415.759	3.35
416.121	3.32
416.483	3.47
416.845	3.37
417.206	3.36
417.568	3.48
417.93	3.25
418.292	3.42
418.653	3.2
419.015	3.36
419.377	3.1
419.738	3.36
420.1	3.45
420.461	3.41
420.822	3.32
421.184	3.34
421.545	3.36
421.906	3.29
422.267	3.3
422.629	3.28
422.99	3.31
423.351	3.36
423.712	3.23
424.073	3.34
424.434	3.38
424.795	3.39
425.155	3.44
425.516	3.41
425.877	3.28
426.238	3.25
426.598	3.27
426.959	3.36
427.32	3.28
427.68	3.41
428.041	3.38
428.401	3.41
428.761	3.35
429.122	3.35
429.482	3.44
429.842	3.61
430.202	3.49
430.563	3.64
430.923	3.61
431.283	3.44
431.643	3.4
432.003	3.55
432.363	3.63
432.722	3.67
433.082	3.42
433.442	3.6
433.802	3.4
434.161	3.67
434.521	3.45
434.881	3.41
435.24	3.51
435.6	3.58
435.959	3.53
436.319	3.52
436.678	3.4
437.037	3.63
437.396	3.72
437.756	3.57
438.115	3.7
438.474	3.68
438.833	3.59
439.192	3.6
439.551	3.56
439.91	3.62
440.269	3.56
440.628	3.49
440.987	3.58
441.345	3.46
441.704	3.46
442.063	3.55
442.421	3.62
442.78	3.66
443.138	3.54
443.497	3.55
443.855	3.57
444.214	3.73
444.572	3.65
444.93	3.7
445.288	3.51
445.647	3.73
446.005	3.61
446.363	3.77
446.721	3.61
447.079	3.62
447.437	3.47
447.795	3.52
448.153	3.51
448.51	3.58
448.868	3.64
449.226	3.6
449.584	3.53
449.941	3.64
450.299	3.71
450.656	3.77
451.014	3.59
451.371	3.73
451.729	3.49
452.086	3.72
452.443	3.71
452.801	3.77
453.158	3.7
453.515	3.75
453.872	3.71
454.229	3.75
454.586	3.82
454.943	3.74
455.3	3.66
455.657	3.77
456.014	3.87
456.371	3.77
456.727	3.8
457.084	3.78
457.441	3.8
457.797	3.79
458.154	3.74
458.51	3.96
458.867	3.74
459.223	3.87
459.58	3.79
459.936	3.95
460.292	3.75
460.648	3.81
461.005	3.7
461.361	3.84
461.717	3.78
462.073	3.69
462.429	3.75
462.785	3.8
463.141	3.77
463.496	3.93
463.852	3.79
464.208	3.87
464.564	3.8
464.919	3.8
465.275	3.96
465.631	3.96
465.986	4.11
466.342	3.88
466.697	3.81
467.052	3.71
467.408	3.86
467.763	3.76
468.118	3.72
468.473	3.9
468.829	3.82
469.184	3.74
469.539	3.97
469.894	3.92
470.249	3.85
470.603	3.96
470.958	3.92
471.313	4.09
471.668	3.8
472.023	3.93
472.377	3.82
472.732	4.05
473.086	3.89
473.441	3.9
473.795	4.03
474.15	4.08
474.504	3.92
474.859	4
475.213	4.01
475.567	3.98
475.921	4.19
476.275	4.08
476.63	4.11
476.984	3.98
477.338	4.25
477.692	4.1
478.045	4.11
478.399	4.03
478.753	3.87
479.107	4.06
479.461	3.96
479.814	4.17
480.168	4.14
480.521	4.09
480.875	4.08
481.228	4.01
481.582	4.04
481.935	4.07
482.289	4.01
482.642	4.08
482.995	4.17
483.348	4.04
483.701	4.1
484.055	4.01
484.408	3.97
484.761	3.93
485.114	3.96
485.466	3.9
485.819	3.76
486.172	3.71
486.525	3.75
486.878	3.81
487.23	3.89
487.583	3.97
487.936	4.07
488.288	4.07
488.641	3.98
488.993	4.05
489.345	3.92
489.698	3.96
490.05	3.87
490.402	3.87
490.754	3.93
491.107	4.01
491.459	4.05
491.811	4.11
492.163	4.11
492.515	4.19
492.866	4.21
493.218	4.05
493.57	4.03
493.922	3.92
494.274	3.99
494.625	3.95
494.977	4.13
495.328	4.27
495.68	4.16
496.031	4.24
496.383	4.17
496.734	4.23
497.086	4.32
497.437	4.4
497.788	4.27
498.139	4.27
498.49	4.21
498.842	4.23
499.193	4.16
499.544	4.2
499.894	4.18
500.245	4.22
500.596	4.3
500.947	4.26
501.298	4.34
501.648	4.3
501.999	4.33
502.35	4.25
502.7	4.44
503.051	4.46
503.401	4.39
503.752	4.3
504.102	4.38
504.452	4.35
504.803	4.45
505.153	4.39
505.503	4.36
505.853	4.55
506.203	4.44
506.553	4.31
506.903	4.53
507.253	4.46
507.603	4.37
507.953	4.55
508.303	4.55
508.652	4.5
509.002	4.68
509.352	4.36
509.701	4.43
510.051	4.5
510.4	4.45
510.75	4.51
511.099	4.42
511.449	4.47
511.798	4.4
512.147	4.53
512.496	4.55
512.846	4.45
513.195	4.59
513.544	4.61
513.893	4.63
514.242	4.47
514.591	4.53
514.939	4.39
515.288	4.57
515.637	4.61
515.986	4.42
516.334	4.63
516.683	4.6
517.032	4.64
517.38	4.74
517.729	4.62
518.077	4.73
518.426	4.73
518.774	4.68
519.122	4.81
519.47	4.68
519.819	4.64
520.167	4.57
520.515	4.58
520.863	4.52
521.211	4.52
521.559	4.63
521.907	4.68
522.255	4.54
522.602	4.68
522.95	4.78
523.298	4.81
523.645	4.85
523.993	4.76
524.341	4.76
524.688	4.82
525.036	4.87
525.383	4.94
525.73	4.9
526.078	4.97
526.425	4.85
526.772	4.88
527.119	4.88
527.466	4.74
527.814	4.75
528.161	4.74
528.508	4.77
528.854	4.76
529.201	4.85
529.548	4.74
529.895	4.8
530.242	4.64
530.588	4.57
530.935	4.56
531.282	4.62
531.628	4.66
531.975	4.72
532.321	4.82
532.667	4.85
533.014	4.98
533.36	4.9
533.706	5
534.052	4.88
534.399	4.92
534.745	5.05
535.091	4.91
535.437	4.8
535.783	4.85
536.129	4.89
536.474	4.96
536.82	5.05
537.166	5.07
537.512	5.12
537.857	5.23
538.203	5.1
538.549	5.01
538.894	5.05
539.239	5.07
539.585	5.18
539.93	5.13
540.276	5.21
540.621	5.23
540.966	5.27
541.311	5.44
541.656	5.33
542.001	5.22
542.346	5.35
542.691	5.19
543.036	5.17
543.381	5.08
543.726	5.01
544.071	5.12
544.415	5.17
544.76	5.23
545.105	5.31
545.449	5.2
545.794	5.28
546.138	5.47
546.483	5.39
546.827	5.31
547.171	5.42
547.516	5.5
547.86	5.46
548.204	5.55
548.548	5.43
548.892	5.42
549.236	5.4
549.58	5.42
549.924	5.59
550.268	5.57
550.612	5.55
550.956	5.67
551.3	5.79
551.643	5.76
551.987	5.49
552.33	5.8
552.674	5.73
553.017	5.74
553.361	5.7
553.704	5.73
554.048	5.75
554.391	5.79
554.734	5.75
555.077	5.74
555.42	5.74
555.764	6
556.107	5.81
556.45	5.83
556.793	5.92
557.135	6.11
557.478	6.02
557.821	5.92
558.164	6.35
558.507	6.09
558.849	6.07
559.192	6.06
559.534	6.05
559.877	6.2
560.219	6.3
560.562	6.24
560.904	6.31
561.246	5.99
561.589	6.11
561.931	6.12
562.273	6.03
562.615	6.1
562.957	6.34
563.299	6.28
563.641	6.16
563.983	6.3
564.325	6.32
564.667	6.17
565.008	6.19
565.35	6.51
565.692	6.41
566.033	6.37
566.375	6.29
566.716	6.26
567.058	6.3
567.399	6.38
567.741	6.5
568.082	6.38
568.423	6.29
568.764	6.38
569.105	6.52
569.447	6.55
569.788	6.64
570.129	6.55
570.47	6.58
570.811	6.66
571.151	6.55
571.492	6.59
571.833	6.72
572.174	6.73
572.514	6.59
572.855	6.67
573.195	6.71
573.536	6.8
573.876	6.7
574.217	6.67
574.557	6.68
574.898	7.03
575.238	6.77
575.578	6.83
575.918	6.79
576.258	6.89
576.598	6.84
576.938	6.72
577.278	6.94
577.618	6.86
577.958	6.9
578.298	7.15
578.638	6.91
578.977	6.97
579.317	7.11
579.657	6.91
579.996	7.29
580.336	7.19
580.675	7.1
581.014	7.37
581.354	7.11
581.693	7.36
582.032	7.54
582.372	7.4
582.711	7.6
583.05	7.48
583.389	7.44
583.728	7.29
584.067	7.6
584.406	7.52
584.745	7.33
585.083	7.4
585.422	7.42
585.761	7.75
586.1	7.5
586.438	7.56
586.777	7.43
587.115	7.53
587.454	7.84
587.792	7.78
588.13	7.64
588.469	7.67
588.807	7.79
589.145	7.51
589.483	7.82
589.821	7.68
590.159	7.92
590.497	7.7
590.835	7.86
591.173	7.59
591.511	7.64
591.849	7.76
592.187	7.89
592.524	7.97
592.862	8.09
593.2	7.8
593.537	7.96
593.875	8.22
594.212	8.11
594.55	8.23
594.887	8.01
595.224	7.91
595.561	8.03
595.899	7.91
596.236	8.35
596.573	8.33
596.91	8.29
597.247	8.27
597.584	8.07
597.921	8.16
598.258	8.21
598.594	8.23
598.931	8.06
599.268	8.35
599.604	8.28
599.941	8.28
600.277	8.43
600.614	8.51
600.95	8.51
601.287	8.33
601.623	8.62
601.959	8.48
602.296	8.71
602.632	8.61
602.968	8.65
603.304	8.61
603.64	8.61
603.976	8.55
604.312	8.76
604.648	8.81
604.984	8.69
605.319	8.81
605.655	8.82
605.991	8.99
606.326	8.7
606.662	8.7
606.998	8.74
607.333	8.65
607.668	8.84
608.004	8.63
608.339	8.81
608.674	8.91
609.01	9.09
609.345	9.14
609.68	9.14
610.015	9.27
610.35	9.13
610.685	9.37
611.02	9.04
611.355	9.45
611.689	9.03
612.024	9.22
612.359	9.05
612.694	9.25
613.028	9.15
613.363	9.2
613.697	9.14
614.032	9.52
614.366	9.42
614.7	9.48
615.035	9.37
615.369	9.48
615.703	9.53
616.037	9.25
616.371	9.2
616.705	9.65
617.039	9.54
617.373	9.66
617.707	9.51
618.041	9.79
618.375	9.48
618.709	9.98
619.042	10.2
619.376	9.91
619.71	9.8
620.043	9.79
620.377	9.99
620.71	10.04
621.043	10.05
621.377	9.96
621.71	9.82
622.043	9.73
622.376	10.23
622.709	10.22
623.043	10.01
623.376	10.2
623.709	9.88
624.041	10.29
624.374	10.13
624.707	9.93
625.04	10.03
625.373	10.04
625.705	10.66
626.038	10.43
626.37	10.59
626.703	10.36
627.035	10.31
627.368	10.81
627.7	10.99
628.032	10.44
628.365	10.15
628.697	10.63
629.029	10.35
629.361	10.5
629.693	10.38
630.025	10.51
630.357	10.31
630.689	10.31
631.021	10.6
631.353	10.73
631.684	10.93
632.016	10.69
632.348	10.77
632.679	10.67
633.011	10.6
633.342	10.58
633.674	11.14
634.005	10.81
634.336	10.69
634.668	11.13
634.999	10.93
635.33	11.08
635.661	11.3
635.992	11.03
636.323	10.94
636.654	11
636.985	10.74
637.316	11.19
637.647	11.24
637.977	11.09
638.308	11.51
638.639	11.07
638.969	11.64
639.3	11.23
639.63	10.77
639.961	11.51
640.291	11.61
640.622	11.28
640.952	11.27
641.282	11.65
641.612	11.42
641.943	11.69
642.273	11.67
642.603	11.41
642.933	11.26
643.263	12.15
643.592	12.08
643.922	11.67
644.252	11.68
644.582	11.6
644.911	11.76
645.241	11.97
645.571	11.53
645.9	11.75
646.23	11.87
646.559	11.52
646.888	12.31
647.218	11.91
647.547	11.92
647.876	12.14
648.205	12.09
648.534	12.64
648.863	12.14
649.192	12.19
649.521	12.3
649.85	12.79
650.179	12.48
650.508	11.96
650.837	11.86
651.165	11.89
651.494	12.15
651.822	12.09
652.151	12.16
652.479	12.8
652.808	11.97
653.136	12.06
653.465	12.32
653.793	12.53
654.121	12.97
654.449	12.89
654.777	12.23
655.105	12.06
655.433	12.37
655.761	12.55
656.089	12.53
656.417	12.3
656.745	13.07
657.073	12.27
657.4	12.84
657.728	13.01
658.056	12.77
658.383	12.32
658.711	12.78
659.038	13.34
659.365	12.44
659.693	12.57
660.02	12.71
660.347	13.24
660.674	12.72
661.001	13.24
661.329	12.95
661.656	12.84
661.982	12.91
662.309	12.81
662.636	12.85
662.963	13.09
663.29	13.25
663.616	13.08
663.943	13.53
664.27	13.69
664.596	12.95
664.923	13.37
665.249	12.91
665.576	13.29
665.902	12.99
666.228	13.39
666.554	13.14
666.881	12.96
667.207	13.52
667.533	13.36
667.859	12.95
668.185	12.94
668.511	13.9
668.837	13.18
669.162	13.8
669.488	12.98
669.814	13.52
670.139	13.96
670.465	13.74
670.791	13.66
671.116	13.61
671.442	13.46
671.767	13.01
672.092	13.62
672.418	13.55
672.743	14.06
673.068	13.62
673.393	14.06
673.718	13.51
674.043	13.67
674.368	14.05
674.693	14.34
675.018	14.27
675.343	14.32
675.667	14.4
675.992	13.9
676.317	13.98
676.641	14.47
676.966	14.85
677.29	13.44
677.615	15.07
677.939	13.96
678.264	14.3
678.588	14.86
678.912	14.29
679.236	14.13
679.56	13.89
679.885	14.76
680.209	14.26
680.532	14.33
680.856	14.53
681.18	14.2
681.504	14.06
681.828	14.26
682.152	15.1
682.475	14.67
682.799	14.83
683.122	14.36
683.446	14.61
683.769	14.93
684.093	14.72
684.416	14.87
684.739	14.35
685.062	15.16
685.386	15.08
685.709	15.19
686.032	14.97
686.355	14.73
686.678	15.43
687.001	14.65
687.324	15.23
687.646	14.98
687.969	15.36
