Data from 0178_crown_Reflection__2__048.txt Node

Date: Mon Aug 28 19:01:21 CDT 2023
User: ToomeyLab
Spectrometer: FLMS14357
Trigger mode: 0
Integration Time (sec): 1.000000E-2
Scans to average: 100
Electric dark correction enabled: true
Nonlinearity correction enabled: false
Boxcar width: 0
XAxis mode: Wavelengths
Number of Pixels in Spectrum: 2048
>>>>>Begin Spectral Data<<<<<
189.047	51.08
189.435	51.08
189.823	51.08
190.211	-3155.81
190.599	87.42
190.987	684.73
191.375	-37.8
191.763	65.58
192.151	105.38
192.538	-52.68
192.926	174.43
193.314	-432.73
193.702	119.66
194.089	17.7
194.477	-5650.59
194.864	-148.66
195.252	48.37
195.639	544.44
196.027	70.94
196.414	316.88
196.801	190.56
197.189	-134.62
197.576	-743.13
197.963	-14.29
198.351	19.59
198.738	84
199.125	-16.46
199.512	16.73
199.899	-44.38
200.286	-13.92
200.673	22.19
201.06	16.48
201.447	-44.96
201.833	-35.31
202.22	34.51
202.607	-11.29
202.994	36.69
203.38	8.68
203.767	12.14
204.154	9.72
204.54	-25.34
204.927	-48.33
205.313	33.09
205.699	1.53
206.086	31.83
206.472	-1.15
206.858	-6.41
207.245	11.81
207.631	51.98
208.017	-4.39
208.403	11.15
208.789	30.59
209.175	-27.14
209.561	47.71
209.947	-12.95
210.333	11.58
210.719	0.36
211.105	15.07
211.491	9.66
211.876	26.67
212.262	-4.37
212.648	39.86
213.034	-42.19
213.419	-4.37
213.805	-8.05
214.19	-19.88
214.576	24.57
214.961	-17.25
215.346	-23.96
215.732	30.47
216.117	-36.92
216.502	-2.98
216.888	-32.92
217.273	-10.22
217.658	18.25
218.043	3.24
218.428	1.49
218.813	-12.08
219.198	29.77
219.583	13.2
219.968	23.48
220.353	9.67
220.738	14.06
221.122	-2.8
221.507	-7.31
221.892	16.41
222.276	19.96
222.661	6.58
223.046	5.22
223.43	-11.85
223.815	10.1
224.199	8.09
224.583	6.66
224.968	-0.41
225.352	3.95
225.736	-5.45
226.121	0.63
226.505	-9.43
226.889	-1.4
227.273	4.96
227.657	2.55
228.041	-0.83
228.425	2.69
228.809	0.83
229.193	3.49
229.577	6.38
229.961	1.71
230.344	3.17
230.728	3.59
231.112	2
231.495	3.33
231.879	1.74
232.263	2.05
232.646	1.45
233.03	3.67
233.413	5.33
233.797	2.45
234.18	3.86
234.563	3.34
234.946	2.36
235.33	1.63
235.713	1.69
236.096	3.26
236.479	2.21
236.862	3.08
237.245	1.13
237.628	3.46
238.011	4.2
238.394	3.64
238.777	5.58
239.16	3.12
239.543	1.18
239.925	4.48
240.308	2.98
240.691	0.58
241.073	1.83
241.456	2.6
241.838	2.34
242.221	4.18
242.603	4.23
242.986	3.32
243.368	2.94
243.75	2.38
244.133	2.13
244.515	2.38
244.897	3.18
245.279	3.5
245.661	2.33
246.043	3.56
246.425	2.22
246.807	3.61
247.189	3.71
247.571	2.58
247.953	3.5
248.335	2.43
248.717	2.46
249.098	2.59
249.48	2.79
249.862	3.12
250.243	2.98
250.625	3.11
251.006	2.82
251.388	2.94
251.769	3.59
252.151	2.97
252.532	2.78
252.913	3.12
253.295	1.35
253.676	3.65
254.057	2.94
254.438	2.34
254.819	2.27
255.2	2.87
255.581	3.17
255.962	3.14
256.343	4.82
256.724	1.96
257.105	2.27
257.486	3.16
257.867	2.11
258.247	3.34
258.628	4.04
259.009	2.32
259.389	1.86
259.77	2.9
260.15	2.54
260.531	2.46
260.911	3.02
261.292	2.8
261.672	2.47
262.052	2.62
262.432	2.4
262.813	2.52
263.193	2.4
263.573	2.34
263.953	2.84
264.333	1.66
264.713	2.42
265.093	2.68
265.473	3.24
265.853	2.46
266.233	2.77
266.612	2.93
266.992	2.59
267.372	2.7
267.752	3.39
268.131	3.02
268.511	2.42
268.89	2.67
269.27	2.22
269.649	2.41
270.029	2.95
270.408	2.55
270.787	3.44
271.167	2.73
271.546	2.21
271.925	3.45
272.304	2.37
272.683	2.76
273.062	2.59
273.441	2.81
273.82	2.35
274.199	2.33
274.578	2.67
274.957	2.57
275.336	3.32
275.715	3.05
276.093	2.25
276.472	2.53
276.851	2.06
277.229	2.34
277.608	2.42
277.986	2.44
278.365	2.37
278.743	2.66
279.122	2.76
279.5	2.46
279.878	2.08
280.257	2.09
280.635	2.4
281.013	2.97
281.391	3.16
281.769	3.09
282.147	3.04
282.525	2.32
282.903	2.84
283.281	2.27
283.659	3.11
284.037	2.8
284.415	2.5
284.792	2.96
285.17	2.66
285.548	2.13
285.925	3.29
286.303	2.58
286.68	3.03
287.058	2.91
287.435	2.41
287.813	2.63
288.19	2.92
288.567	2.61
288.945	2.67
289.322	2.6
289.699	2.8
290.076	3.32
290.453	2.57
290.83	2.23
291.207	2.66
291.584	2.48
291.961	3.14
292.338	2.49
292.715	2.65
293.092	3.11
293.469	2.98
293.845	2.32
294.222	2.72
294.599	2.94
294.975	2.88
295.352	2.74
295.728	3.04
296.105	2.98
296.481	3.04
296.858	3.3
297.234	3.31
297.61	2.86
297.986	3.25
298.363	3.16
298.739	3.17
299.115	2.7
299.491	3.19
299.867	3.01
300.243	3.18
300.619	3.27
300.995	3.44
301.371	2.99
301.746	3.29
302.122	3.27
302.498	3.41
302.874	3.18
303.249	2.98
303.625	3.25
304	3.4
304.376	3.34
304.751	3.4
305.127	3.15
305.502	3.62
305.878	3.09
306.253	3.25
306.628	3.51
307.003	3.38
307.378	3.29
307.754	3.72
308.129	3.26
308.504	3.75
308.879	2.9
309.254	3.46
309.629	3.75
310.003	3.32
310.378	3.05
310.753	3.69
311.128	3.77
311.502	3.64
311.877	3.59
312.252	3.81
312.626	3.56
313.001	3.73
313.375	3.49
313.75	3.57
314.124	3.84
314.498	3.78
314.873	3.88
315.247	3.98
315.621	2.98
315.995	3.88
316.369	3.65
316.743	3.58
317.117	3.97
317.491	3.23
317.865	3.5
318.239	3.64
318.613	3.93
318.987	3.42
319.361	3.91
319.734	3.55
320.108	4.25
320.482	3.87
320.855	3.77
321.229	3.59
321.602	3.56
321.976	3.3
322.349	3.33
322.723	3.46
323.096	4.11
323.469	3.63
323.843	3.32
324.216	3.81
324.589	4.12
324.962	4.03
325.335	3.86
325.708	3.54
326.081	3.55
326.454	4.2
326.827	4.27
327.2	3.5
327.573	3.85
327.945	4.4
328.318	4.19
328.691	3.68
329.063	3.39
329.436	3.17
329.809	4.4
330.181	4.12
330.553	3.59
330.926	3.67
331.298	3.9
331.671	3.78
332.043	4.03
332.415	4.3
332.787	3.85
333.159	3.38
333.532	4.48
333.904	3.74
334.276	3.31
334.648	3.47
335.02	4.42
335.391	4.2
335.763	3.51
336.135	3.83
336.507	3.84
336.879	3.75
337.25	4.17
337.622	3.87
337.993	4.09
338.365	3.95
338.736	4.46
339.108	3.34
339.479	3.39
339.851	4.35
340.222	4.25
340.593	3.83
340.964	4.23
341.336	3.94
341.707	3.67
342.078	3.85
342.449	3.86
342.82	4.13
343.191	3.99
343.562	3.84
343.933	3.81
344.303	4.22
344.674	4.36
345.045	4.15
345.416	4.29
345.786	4.27
346.157	4.2
346.527	3.55
346.898	3.85
347.268	4.01
347.639	3.89
348.009	3.84
348.38	4.34
348.75	4.22
349.12	4.5
349.49	3.95
349.861	3.54
350.231	4.03
350.601	4.35
350.971	4.35
351.341	3.98
351.711	4.02
352.081	3.9
352.45	4.11
352.82	4.16
353.19	4.74
353.56	4.22
353.929	4.11
354.299	3.77
354.669	4.4
355.038	4.57
355.408	4.41
355.777	3.94
356.147	4.08
356.516	4.25
356.885	4.04
357.254	4.21
357.624	4.21
357.993	4.1
358.362	3.8
358.731	4.12
359.1	4.34
359.469	4.14
359.838	3.65
360.207	4.13
360.576	4.24
360.945	4
361.314	3.75
361.682	3.82
362.051	4.1
362.42	4.07
362.788	4
363.157	4.21
363.525	3.99
363.894	4.38
364.262	4.22
364.631	4.01
364.999	4.09
365.367	4.46
365.735	4.13
366.104	3.9
366.472	3.88
366.84	4.03
367.208	4.18
367.576	4
367.944	4.49
368.312	4.52
368.68	4.13
369.048	4.29
369.416	4.14
369.783	4.24
370.151	4.41
370.519	4.22
370.886	4.08
371.254	4.14
371.621	4.05
371.989	4.25
372.356	4.24
372.724	4.57
373.091	4.19
373.458	4.12
373.826	4.11
374.193	4.2
374.56	4.37
374.927	3.87
375.294	4.26
375.661	4.27
376.028	4.08
376.395	4.15
376.762	4.27
377.129	4.37
377.496	4.22
377.863	4.48
378.229	4.46
378.596	4.68
378.963	4.35
379.329	4.76
379.696	4.21
380.062	4.4
380.429	4.15
380.795	4.68
381.161	4.52
381.528	4.53
381.894	4.46
382.26	4.4
382.626	4.59
382.993	4.59
383.359	4.66
383.725	4.61
384.091	4.38
384.457	4.57
384.823	4.36
385.188	4.68
385.554	4.2
385.92	4.28
386.286	4.54
386.651	4.16
387.017	4.52
387.383	4.24
387.748	4.33
388.114	4.45
388.479	4.22
388.845	4.3
389.21	4.27
389.575	4.61
389.94	4.37
390.306	4.45
390.671	4.49
391.036	4.61
391.401	4.5
391.766	4.7
392.131	4.46
392.496	4.32
392.861	4.38
393.226	4.45
393.591	4.06
393.956	4.67
394.32	4.49
394.685	4.65
395.05	4.46
395.414	4.63
395.779	4.49
396.143	4.31
396.508	4.16
396.872	4.61
397.236	4.29
397.601	4.42
397.965	4.62
398.329	4.49
398.694	4.46
399.058	4.5
399.422	4.38
399.786	4.62
400.15	4.85
400.514	4.46
400.878	4.34
401.242	4.67
401.605	4.61
401.969	4.39
402.333	4.56
402.697	4.46
403.06	4.67
403.424	4.43
403.787	4.23
404.151	4.14
404.514	4.63
404.878	4.53
405.241	4.68
405.604	4.8
405.968	4.46
406.331	4.76
406.694	4.66
407.057	4.62
407.42	4.52
407.783	4.44
408.146	4.51
408.509	4.69
408.872	4.6
409.235	4.65
409.598	4.8
409.961	4.71
410.323	4.84
410.686	4.75
411.049	4.8
411.411	4.52
411.774	4.56
412.136	4.49
412.499	4.66
412.861	4.7
413.223	4.54
413.586	4.6
413.948	4.83
414.31	4.79
414.672	4.52
415.035	4.53
415.397	4.6
415.759	4.55
416.121	4.7
416.483	4.64
416.845	4.83
417.206	4.78
417.568	4.7
417.93	4.59
418.292	4.7
418.653	4.6
419.015	4.52
419.377	4.46
419.738	4.81
420.1	4.65
420.461	4.63
420.822	4.68
421.184	4.62
421.545	4.68
421.906	4.61
422.267	4.69
422.629	4.56
422.99	4.58
423.351	4.62
423.712	4.52
424.073	4.64
424.434	4.77
424.795	4.69
425.155	4.68
425.516	4.71
425.877	4.59
426.238	4.53
426.598	4.57
426.959	4.65
427.32	4.68
427.68	4.77
428.041	4.7
428.401	4.79
428.761	4.76
429.122	4.88
429.482	4.81
429.842	4.99
430.202	4.92
430.563	5.04
430.923	4.92
431.283	4.85
431.643	4.92
432.003	4.86
432.363	4.89
432.722	4.89
433.082	4.88
433.442	5.04
433.802	5.05
434.161	4.93
434.521	4.98
434.881	4.94
435.24	4.86
435.6	5.01
435.959	4.93
436.319	5.07
436.678	4.94
437.037	5.03
437.396	5.21
437.756	5.11
438.115	5.17
438.474	5.2
438.833	5.07
439.192	5.19
439.551	4.89
439.91	5.19
440.269	5.1
440.628	5.07
440.987	5.1
441.345	5.06
441.704	5.01
442.063	5.06
442.421	5.01
442.78	5.06
443.138	5
443.497	4.97
443.855	5.2
444.214	5.24
444.572	5.26
444.93	5.27
445.288	5.07
445.647	5.22
446.005	5.35
446.363	5.34
446.721	5.19
447.079	5.24
447.437	5.02
447.795	5.04
448.153	5.19
448.51	5
448.868	5.13
449.226	5.14
449.584	5.11
449.941	5.16
450.299	5.23
450.656	5.23
451.014	5.21
451.371	5.2
451.729	5.16
452.086	5.34
452.443	5.5
452.801	5.37
453.158	5.33
453.515	5.42
453.872	5.32
454.229	5.44
454.586	5.44
454.943	5.32
455.3	5.37
455.657	5.5
456.014	5.23
456.371	5.31
456.727	5.52
457.084	5.42
457.441	5.64
457.797	5.44
458.154	5.51
458.51	5.7
458.867	5.43
459.223	5.41
459.58	5.45
459.936	5.69
460.292	5.52
460.648	5.49
461.005	5.24
461.361	5.35
461.717	5.37
462.073	5.35
462.429	5.27
462.785	5.35
463.141	5.48
463.496	5.55
463.852	5.53
464.208	5.58
464.564	5.58
464.919	5.62
465.275	5.71
465.631	5.57
465.986	5.7
466.342	5.73
466.697	5.43
467.052	5.6
467.408	5.61
467.763	5.51
468.118	5.57
468.473	5.67
468.829	5.71
469.184	5.46
469.539	5.57
469.894	5.65
470.249	5.69
470.603	5.78
470.958	5.73
471.313	5.56
471.668	5.66
472.023	5.82
472.377	5.61
472.732	5.75
473.086	5.75
473.441	5.73
473.795	5.82
474.15	5.75
474.504	5.83
474.859	5.79
475.213	5.9
475.567	5.79
475.921	5.97
476.275	5.9
476.63	5.96
476.984	5.94
477.338	5.99
477.692	5.83
478.045	6.03
478.399	5.63
478.753	5.84
479.107	5.78
479.461	5.92
479.814	6.08
480.168	5.97
480.521	5.92
480.875	5.88
481.228	5.99
481.582	5.92
481.935	5.82
482.289	5.89
482.642	5.91
482.995	5.95
483.348	5.96
483.701	5.88
484.055	5.93
484.408	5.83
484.761	5.74
485.114	5.75
485.466	5.59
485.819	5.45
486.172	5.36
486.525	5.45
486.878	5.63
487.23	5.75
487.583	5.93
487.936	6.05
488.288	5.91
488.641	5.88
488.993	5.79
489.345	5.71
489.698	5.7
490.05	5.66
490.402	5.72
490.754	5.85
491.107	5.92
491.459	5.94
491.811	6.07
492.163	6.17
492.515	6.14
492.866	6.1
493.218	6.01
493.57	5.84
493.922	5.68
494.274	5.78
494.625	5.92
494.977	6.07
495.328	6.26
495.68	6.33
496.031	6.26
496.383	6.15
496.734	6.24
497.086	6.31
497.437	6.42
497.788	6.32
498.139	6.28
498.49	6.23
498.842	6.3
499.193	6.11
499.544	6.22
499.894	6.18
500.245	6.22
500.596	6.27
500.947	6.31
501.298	6.39
501.648	6.25
501.999	6.46
502.35	6.36
502.7	6.44
503.051	6.48
503.401	6.46
503.752	6.46
504.102	6.45
504.452	6.39
504.803	6.5
505.153	6.49
505.503	6.35
505.853	6.48
506.203	6.5
506.553	6.41
506.903	6.64
507.253	6.61
507.603	6.42
507.953	6.57
508.303	6.6
508.652	6.58
509.002	6.63
509.352	6.42
509.701	6.55
510.051	6.52
510.4	6.51
510.75	6.59
511.099	6.55
511.449	6.58
511.798	6.68
512.147	6.67
512.496	6.77
512.846	6.71
513.195	6.66
513.544	6.78
513.893	6.77
514.242	6.76
514.591	6.75
514.939	6.6
515.288	6.74
515.637	6.77
515.986	6.78
516.334	6.86
516.683	6.96
517.032	6.8
517.38	6.85
517.729	6.85
518.077	6.95
518.426	6.74
518.774	6.89
519.122	6.95
519.47	6.77
519.819	6.78
520.167	6.81
520.515	6.89
520.863	6.73
521.211	6.83
521.559	6.81
521.907	6.9
522.255	6.85
522.602	7.06
522.95	7.13
523.298	7.13
523.645	7.1
523.993	7.08
524.341	7.17
524.688	7.18
525.036	7.24
525.383	7.22
525.73	7.09
526.078	7.27
526.425	7.21
526.772	7.23
527.119	7.21
527.466	7.09
527.814	7
528.161	6.89
528.508	6.97
528.854	7.03
529.201	7.19
529.548	7.13
529.895	7.03
530.242	6.98
530.588	6.77
530.935	6.71
531.282	6.82
531.628	6.91
531.975	7.09
532.321	7.19
532.667	7.16
533.014	7.41
533.36	7.36
533.706	7.3
534.052	7.35
534.399	7.36
534.745	7.33
535.091	7.2
535.437	7.08
535.783	7.1
536.129	7.22
536.474	7.38
536.82	7.52
537.166	7.56
537.512	7.66
537.857	7.57
538.203	7.56
538.549	7.52
538.894	7.37
539.239	7.35
539.585	7.59
539.93	7.65
540.276	7.62
540.621	7.71
540.966	7.71
541.311	7.91
541.656	7.85
542.001	7.77
542.346	7.8
542.691	7.7
543.036	7.59
543.381	7.35
543.726	7.33
544.071	7.52
544.415	7.68
544.76	7.78
545.105	7.83
545.449	7.84
545.794	7.88
546.138	7.96
546.483	8.02
546.827	8.07
547.171	8.02
547.516	7.98
547.86	8.11
548.204	8.21
548.548	8.06
548.892	7.93
549.236	8.07
549.58	8.08
549.924	8.15
550.268	8.24
550.612	8.34
550.956	8.33
551.3	8.4
551.643	8.58
551.987	8.49
552.33	8.52
552.674	8.47
553.017	8.49
553.361	8.59
553.704	8.35
554.048	8.58
554.391	8.59
554.734	8.45
555.077	8.53
555.42	8.42
555.764	8.62
556.107	8.71
556.45	8.5
556.793	8.62
557.135	8.74
557.478	8.7
557.821	8.75
558.164	8.94
558.507	8.85
558.849	9.05
559.192	8.89
559.534	8.67
559.877	8.95
560.219	9
560.562	8.85
560.904	9.18
561.246	8.93
561.589	8.95
561.931	8.98
562.273	8.99
562.615	8.93
562.957	9.13
563.299	9.27
563.641	8.98
563.983	9.1
564.325	9.23
564.667	9.04
565.008	9.24
565.35	9.35
565.692	9.36
566.033	9.32
566.375	9.15
566.716	9.38
567.058	9.38
567.399	9.18
567.741	9.34
568.082	9.28
568.423	9.21
568.764	9.26
569.105	9.47
569.447	9.37
569.788	9.28
570.129	9.49
570.47	9.7
570.811	9.61
571.151	9.5
571.492	9.61
571.833	9.55
572.174	9.76
572.514	9.8
572.855	9.52
573.195	9.75
573.536	9.77
573.876	9.56
574.217	9.64
574.557	9.63
574.898	9.93
575.238	9.82
575.578	9.86
575.918	9.88
576.258	10.02
576.598	9.98
576.938	9.8
577.278	9.9
577.618	9.93
577.958	9.99
578.298	10.19
578.638	10.16
578.977	9.93
579.317	10.1
579.657	10.09
579.996	10.26
580.336	10.07
580.675	10.21
581.014	10.56
581.354	10.3
581.693	10.51
582.032	10.72
582.372	10.65
582.711	10.63
583.05	10.48
583.389	10.48
583.728	10.62
584.067	10.67
584.406	10.78
584.745	10.37
585.083	10.82
585.422	10.73
585.761	10.69
586.1	10.93
586.438	10.69
586.777	10.66
587.115	10.78
587.454	10.86
587.792	10.84
588.13	10.82
588.469	11.01
588.807	11.06
589.145	10.88
589.483	10.91
589.821	10.98
590.159	11.05
590.497	11.23
590.835	11.26
591.173	11
591.511	10.91
591.849	11.07
592.187	11.09
592.524	11.36
592.862	11.29
593.2	11.08
593.537	11.36
593.875	11.57
594.212	11.31
594.55	11.64
594.887	11.43
595.224	11.42
595.561	11.28
595.899	11.38
596.236	11.53
596.573	11.54
596.91	11.29
597.247	11.53
597.584	11.56
597.921	11.59
598.258	11.68
598.594	11.73
598.931	11.62
599.268	11.55
599.604	11.48
599.941	11.58
600.277	11.66
600.614	11.82
600.95	11.93
601.287	11.87
601.623	12.18
601.959	11.97
602.296	11.82
602.632	12.05
602.968	12.02
603.304	12.25
603.64	12.05
603.976	12.15
604.312	12.27
604.648	11.79
604.984	12.08
605.319	12.24
605.655	12.22
605.991	12.11
606.326	12.17
606.662	12.12
606.998	12.14
607.333	12.09
607.668	12.01
608.004	12.1
608.339	12.52
608.674	12.26
609.01	12.57
609.345	12.72
609.68	12.61
610.015	13.01
610.35	13.03
610.685	12.8
611.02	12.77
611.355	12.84
611.689	12.41
612.024	12.66
612.359	12.65
612.694	12.64
613.028	12.75
613.363	12.72
613.697	12.8
614.032	13
614.366	12.85
614.7	13.2
615.035	12.85
615.369	13.16
615.703	13.5
616.037	12.96
616.371	12.93
616.705	13.05
617.039	13.26
617.373	13.07
617.707	13.06
618.041	13.15
618.375	13.3
618.709	13.51
619.042	13.41
619.376	13.49
619.71	13.13
620.043	13.7
620.377	13.79
620.71	13.55
621.043	13.75
621.377	13.64
621.71	13.62
622.043	13.13
622.376	13.57
622.709	13.34
623.043	13.89
623.376	13.71
623.709	14.12
624.041	14.31
624.374	14.07
624.707	13.35
625.04	13.62
625.373	14.1
625.705	14.05
626.038	14.23
626.37	14.02
626.703	14.24
627.035	14.21
627.368	14.6
627.7	14.03
628.032	14.19
628.365	14.15
628.697	13.97
629.029	14.15
629.361	14.22
629.693	14.41
630.025	14.01
630.357	14.3
630.689	14.38
631.021	14.52
631.353	14.34
631.684	14.51
632.016	14.09
632.348	14.8
632.679	14.39
633.011	14.57
633.342	14.33
633.674	14.61
634.005	14.61
634.336	14.36
634.668	14.82
634.999	14.75
635.33	14.77
635.661	14.75
635.992	14.54
636.323	15.13
636.654	14.53
636.985	14.86
637.316	14.86
637.647	15.1
637.977	14.69
638.308	14.84
638.639	14.83
638.969	15.37
639.3	15.08
639.63	14.83
639.961	15.17
640.291	14.96
640.622	15.34
640.952	15.27
641.282	15.18
641.612	15.61
641.943	15.36
642.273	15.59
642.603	14.82
642.933	15.12
643.263	16.09
643.592	15.33
643.922	15.15
644.252	15.44
644.582	15.39
644.911	15.56
645.241	15.86
645.571	15.4
645.9	15.8
646.23	15.74
646.559	15.81
646.888	15.88
647.218	15.59
647.547	15.82
647.876	16.2
648.205	15.55
648.534	16.28
648.863	15.88
649.192	16.15
649.521	15.75
649.85	15.9
650.179	16.29
650.508	16.29
650.837	16.15
651.165	16.19
651.494	16.2
651.822	15.86
652.151	15.71
652.479	16.45
652.808	16.19
653.136	16.05
653.465	16.33
653.793	16.72
654.121	16.19
654.449	16.81
654.777	16.53
655.105	16.42
655.433	16.29
655.761	16.22
656.089	16.35
656.417	16.22
656.745	16.75
657.073	16.41
657.4	17.18
657.728	16.51
658.056	16.93
658.383	16.8
658.711	16.76
659.038	16.6
659.365	17.4
659.693	16.58
660.02	16.91
660.347	17.06
660.674	16.61
661.001	17.14
661.329	16.76
661.656	16.79
661.982	16.8
662.309	17.24
662.636	17.01
662.963	17.26
663.29	17.25
663.616	17.49
663.943	17.07
664.27	17.37
664.596	17.08
664.923	17.41
665.249	16.92
665.576	17.39
665.902	17.78
666.228	16.85
666.554	17.41
666.881	17.37
667.207	17.22
667.533	17.66
667.859	17.22
668.185	17.39
668.511	17.32
668.837	17.36
669.162	18.04
669.488	17.45
669.814	17.52
670.139	17.97
670.465	18.33
670.791	17.97
671.116	17.6
671.442	17.76
671.767	16.7
672.092	17.56
672.418	17.4
672.743	17.9
673.068	17.7
673.393	18.06
673.718	17.95
674.043	17.79
674.368	18.32
674.693	18.27
675.018	18.33
675.343	18.35
675.667	18.79
675.992	18.02
676.317	17.87
676.641	18.49
676.966	18.39
677.29	18.26
677.615	18.86
677.939	18.55
678.264	17.67
678.588	18.59
678.912	18.75
679.236	18.1
679.56	18.19
679.885	18.57
680.209	17.78
680.532	18.73
680.856	18.24
681.18	18.98
681.504	17.78
681.828	18.68
682.152	18.35
682.475	18.55
682.799	18.28
683.122	18.87
683.446	18.58
683.769	19.45
684.093	18.68
684.416	19.06
684.739	18.83
