Data from 0178_crown_Reflection__1__047.txt Node

Date: Mon Aug 28 19:01:11 CDT 2023
User: ToomeyLab
Spectrometer: FLMS14357
Trigger mode: 0
Integration Time (sec): 1.000000E-2
Scans to average: 100
Electric dark correction enabled: true
Nonlinearity correction enabled: false
Boxcar width: 0
XAxis mode: Wavelengths
Number of Pixels in Spectrum: 2048
>>>>>Begin Spectral Data<<<<<
189.047	-76.42
189.435	-76.42
189.823	-76.42
190.211	-806.98
190.599	-13.34
190.987	-369.08
191.375	-19.46
191.763	70.73
192.151	-62.67
192.538	156.8
192.926	-22.21
193.314	-468.4
193.702	210.32
194.089	121.88
194.477	3796.47
194.864	-124.21
195.252	75.09
195.639	-4735.9
196.027	73.45
196.414	155.71
196.801	184.92
197.189	176.43
197.576	-260.21
197.963	-63.61
198.351	-16.77
198.738	97.91
199.125	-22.24
199.512	-51.81
199.899	-5.26
200.286	57.18
200.673	-10.04
201.06	-11.31
201.447	-1.59
201.833	-40.04
202.22	-12.08
202.607	30.22
202.994	2
203.38	-30.71
203.767	23.2
204.154	-22.08
204.54	-63.69
204.927	-34.07
205.313	25.92
205.699	-54.33
206.086	21.77
206.472	39.71
206.858	41.76
207.245	3.39
207.631	17.56
208.017	0.17
208.403	-2.82
208.789	-21.87
209.175	-2.68
209.561	16.71
209.947	1.83
210.333	5.89
210.719	5.77
211.105	4.97
211.491	8.27
211.876	14.42
212.262	-29.7
212.648	2.96
213.034	-16.65
213.419	-11.95
213.805	19.79
214.19	-19.9
214.576	-11.61
214.961	-45.39
215.346	-38.82
215.732	28.43
216.117	-55.51
216.502	3.6
216.888	-43.07
217.273	17.29
217.658	23.23
218.043	6.48
218.428	17.7
218.813	-3.17
219.198	5.55
219.583	3.2
219.968	9.04
220.353	-0.12
220.738	-5.09
221.122	13.09
221.507	-10.87
221.892	-1.35
222.276	12
222.661	-2.46
223.046	-8.95
223.43	10.71
223.815	14.71
224.199	9.18
224.583	-6.86
224.968	3.22
225.352	2.02
225.736	2.46
226.121	-9.77
226.505	12.39
226.889	11.14
227.273	2.24
227.657	5.22
228.041	1.46
228.425	1.76
228.809	-0.51
229.193	3.45
229.577	2.74
229.961	1.03
230.344	1.96
230.728	1.83
231.112	0.99
231.495	2.24
231.879	1.38
232.263	1.6
232.646	-0.58
233.03	3.39
233.413	3.42
233.797	1.55
234.18	1.9
234.563	-0.91
234.946	4.76
235.33	0.43
235.713	0.07
236.096	3.8
236.479	1.17
236.862	3.07
237.245	1.21
237.628	0.65
238.011	2.76
238.394	3.1
238.777	3.99
239.16	1.66
239.543	-0.59
239.925	4.49
240.308	1.89
240.691	0.85
241.073	1.12
241.456	-0.31
241.838	0.67
242.221	1.95
242.603	2.12
242.986	2.17
243.368	2.48
243.75	1.29
244.133	1.76
244.515	1.58
244.897	1.9
245.279	1.76
245.661	1.42
246.043	1.02
246.425	1.77
246.807	3.23
247.189	1.58
247.571	2.05
247.953	1.92
248.335	1.67
248.717	1.67
249.098	1.56
249.48	1.71
249.862	1.68
250.243	1.57
250.625	1.95
251.006	1.18
251.388	1.78
251.769	1.75
252.151	1.57
252.532	2.04
252.913	2.68
253.295	0.14
253.676	1.84
254.057	1.76
254.438	1.34
254.819	2.06
255.2	1.76
255.581	2.09
255.962	2.4
256.343	2.94
256.724	0.53
257.105	1.78
257.486	2.69
257.867	0.97
258.247	1.04
258.628	2.49
259.009	0.99
259.389	1.34
259.77	2.28
260.15	2.01
260.531	1.13
260.911	2.02
261.292	1.73
261.672	1.53
262.052	1.49
262.432	1.59
262.813	1.63
263.193	1.33
263.573	1.39
263.953	1.48
264.333	1.46
264.713	1.78
265.093	1.9
265.473	1.37
265.853	1.02
266.233	0.34
266.612	1.54
266.992	0.99
267.372	0.99
267.752	2.37
268.131	1.63
268.511	1.21
268.89	1.64
269.27	1.45
269.649	1.92
270.029	1.7
270.408	1.92
270.787	2.27
271.167	1.81
271.546	1.58
271.925	2.15
272.304	1.35
272.683	2.01
273.062	1.86
273.441	1.97
273.82	0.94
274.199	1.03
274.578	1.26
274.957	1.81
275.336	1.55
275.715	1.81
276.093	1.4
276.472	0.9
276.851	1.15
277.229	0.99
277.608	1.78
277.986	1.44
278.365	1.22
278.743	1.58
279.122	1.44
279.5	1.31
279.878	1.09
280.257	1.24
280.635	1.05
281.013	1.37
281.391	1.72
281.769	1.09
282.147	1.62
282.525	1.85
282.903	1.78
283.281	1.45
283.659	2.06
284.037	1.64
284.415	1.7
284.792	1.71
285.17	1.49
285.548	1.48
285.925	2.09
286.303	1.51
286.68	1.8
287.058	1.6
287.435	1.36
287.813	1.26
288.19	1.87
288.567	1.72
288.945	1.6
289.322	1.38
289.699	1.59
290.076	2.27
290.453	1.67
290.83	1.2
291.207	1.26
291.584	1.41
291.961	1.85
292.338	1.6
292.715	1.17
293.092	1.87
293.469	1.8
293.845	1.41
294.222	1.54
294.599	1.91
294.975	1.62
295.352	1.48
295.728	1.71
296.105	1.81
296.481	1.51
296.858	1.98
297.234	1.81
297.61	1.78
297.986	1.8
298.363	2.1
298.739	1.48
299.115	1.58
299.491	1.98
299.867	1.96
300.243	1.63
300.619	1.72
300.995	1.86
301.371	2.02
301.746	1.48
302.122	1.82
302.498	1.88
302.874	1.84
303.249	1.85
303.625	2.14
304	2.1
304.376	1.84
304.751	1.22
305.127	2.13
305.502	1.4
305.878	1.83
306.253	1.5
306.628	1.95
307.003	1.82
307.378	2.13
307.754	1.71
308.129	1.35
308.504	2.25
308.879	1.83
309.254	1.97
309.629	1.61
310.003	1.84
310.378	1.83
310.753	1.91
311.128	2.18
311.502	2.15
311.877	1.58
312.252	1.82
312.626	1.84
313.001	2.01
313.375	2.11
313.75	1.82
314.124	1.92
314.498	2.3
314.873	2.07
315.247	2.41
315.621	1.93
315.995	2.57
316.369	2.11
316.743	1.34
317.117	1.99
317.491	1.12
317.865	1.18
318.239	1.94
318.613	2.28
318.987	2.1
319.361	1.99
319.734	2
320.108	1.59
320.482	2.25
320.855	2.44
321.229	1.74
321.602	2.37
321.976	1.4
322.349	2.25
322.723	1.66
323.096	2.02
323.469	1.68
323.843	1.79
324.216	2.06
324.589	2.68
324.962	2.28
325.335	2.11
325.708	2.14
326.081	1.76
326.454	2.44
326.827	1.91
327.2	1.88
327.573	1.81
327.945	2.57
328.318	2.55
328.691	1.4
329.063	1.67
329.436	1.72
329.809	2.75
330.181	1.86
330.553	1.96
330.926	2.41
331.298	2.45
331.671	1.94
332.043	1.95
332.415	2.63
332.787	1.95
333.159	2
333.532	2.99
333.904	2.39
334.276	1.63
334.648	2.37
335.02	2.43
335.391	1.99
335.763	1.84
336.135	2.07
336.507	2.25
336.879	1.54
337.25	2.32
337.622	1.71
337.993	2.13
338.365	2.24
338.736	2.39
339.108	1.62
339.479	1.82
339.851	2.23
340.222	2.28
340.593	1.97
340.964	2.12
341.336	1.6
341.707	1.66
342.078	1.48
342.449	2.41
342.82	2.19
343.191	1.91
343.562	1.99
343.933	1.73
344.303	1.93
344.674	1.93
345.045	2.1
345.416	2.06
345.786	2.2
346.157	2.07
346.527	1.51
346.898	2.03
347.268	2.02
347.639	1.97
348.009	1.85
348.38	2.47
348.75	2.27
349.12	2.11
349.49	2.07
349.861	1.83
350.231	1.88
350.601	2.29
350.971	2.3
351.341	2.28
351.711	2.16
352.081	1.96
352.45	1.96
352.82	2.28
353.19	2.86
353.56	2.1
353.929	2.33
354.299	1.95
354.669	2.29
355.038	2.21
355.408	2.26
355.777	2.15
356.147	2.07
356.516	2.32
356.885	2.3
357.254	2.51
357.624	1.86
357.993	2.27
358.362	2.34
358.731	2.18
359.1	2.04
359.469	2.25
359.838	1.93
360.207	1.98
360.576	2.37
360.945	2.29
361.314	2.05
361.682	1.8
362.051	2.73
362.42	2.62
362.788	2.13
363.157	2.15
363.525	2.12
363.894	2.11
364.262	2.29
364.631	2.15
364.999	2.23
365.367	2.5
365.735	2.3
366.104	1.91
366.472	2.11
366.84	2.16
367.208	2.3
367.576	1.99
367.944	2.43
368.312	2.63
368.68	2.07
369.048	1.96
369.416	2.21
369.783	2.14
370.151	1.83
370.519	2.43
370.886	2.11
371.254	2.24
371.621	2.22
371.989	2.08
372.356	2.03
372.724	2.61
373.091	2.12
373.458	2.23
373.826	2.26
374.193	2.29
374.56	2.15
374.927	2.22
375.294	2.08
375.661	2.32
376.028	2.05
376.395	2.12
376.762	2.71
377.129	2.1
377.496	2.16
377.863	2.36
378.229	2.03
378.596	2.33
378.963	1.99
379.329	2.59
379.696	2.14
380.062	2.14
380.429	2.33
380.795	2.28
381.161	2.56
381.528	2.54
381.894	2.19
382.26	2.36
382.626	2.34
382.993	2.32
383.359	2.23
383.725	2.32
384.091	2.41
384.457	2.26
384.823	2.28
385.188	2.31
385.554	1.96
385.92	2.22
386.286	2.52
386.651	2.23
387.017	2.38
387.383	2.29
387.748	2.15
388.114	2.02
388.479	2.31
388.845	2.08
389.21	2.12
389.575	2.51
389.94	2.23
390.306	2.35
390.671	2.29
391.036	2.19
391.401	2.57
391.766	2.45
392.131	2.37
392.496	2.03
392.861	2.18
393.226	2.37
393.591	2.11
393.956	2.36
394.32	2.15
394.685	2.35
395.05	2.34
395.414	2.44
395.779	2.22
396.143	2.24
396.508	2.31
396.872	2.37
397.236	2.41
397.601	2.25
397.965	2.4
398.329	2.52
398.694	2.38
399.058	2.28
399.422	2.43
399.786	2.43
400.15	2.59
400.514	2.52
400.878	2.24
401.242	2.33
401.605	2.36
401.969	2.3
402.333	2.39
402.697	2.25
403.06	2.51
403.424	2.55
403.787	2.38
404.151	2.08
404.514	2.22
404.878	2.4
405.241	2.53
405.604	2.29
405.968	2.24
406.331	2.51
406.694	2.42
407.057	2.37
407.42	2.33
407.783	2.36
408.146	2.35
408.509	2.44
408.872	2.33
409.235	2.25
409.598	2.42
409.961	2.57
410.323	2.52
410.686	2.45
411.049	2.76
411.411	2.42
411.774	2.55
412.136	2.23
412.499	2.38
412.861	2.48
413.223	2.4
413.586	2.39
413.948	2.4
414.31	2.66
414.672	2.59
415.035	2.34
415.397	2.41
415.759	2.52
416.121	2.69
416.483	2.28
416.845	2.34
417.206	2.69
417.568	2.38
417.93	2.3
418.292	2.62
418.653	2.58
419.015	2.44
419.377	2.41
419.738	2.64
420.1	2.41
420.461	2.56
420.822	2.41
421.184	2.54
421.545	2.43
421.906	2.41
422.267	2.39
422.629	2.34
422.99	2.43
423.351	2.48
423.712	2.38
424.073	2.43
424.434	2.47
424.795	2.52
425.155	2.39
425.516	2.42
425.877	2.42
426.238	2.33
426.598	2.51
426.959	2.48
427.32	2.37
427.68	2.59
428.041	2.45
428.401	2.72
428.761	2.52
429.122	2.42
429.482	2.58
429.842	2.66
430.202	2.48
430.563	2.62
430.923	2.65
431.283	2.55
431.643	2.59
432.003	2.59
432.363	2.66
432.722	2.59
433.082	2.53
433.442	2.57
433.802	2.57
434.161	2.68
434.521	2.62
434.881	2.51
435.24	2.56
435.6	2.63
435.959	2.48
436.319	2.61
436.678	2.64
437.037	2.57
437.396	2.68
437.756	2.46
438.115	2.78
438.474	2.81
438.833	2.52
439.192	2.67
439.551	2.55
439.91	2.63
440.269	2.7
440.628	2.54
440.987	2.6
441.345	2.62
441.704	2.66
442.063	2.66
442.421	2.68
442.78	2.6
443.138	2.67
443.497	2.56
443.855	2.6
444.214	2.61
444.572	2.73
444.93	2.66
445.288	2.66
445.647	2.75
446.005	2.79
446.363	2.66
446.721	2.77
447.079	2.8
447.437	2.6
447.795	2.68
448.153	2.66
448.51	2.49
448.868	2.69
449.226	2.63
449.584	2.57
449.941	2.63
450.299	2.74
450.656	2.77
451.014	2.72
451.371	2.63
451.729	2.63
452.086	2.73
452.443	2.95
452.801	2.77
453.158	2.93
453.515	2.67
453.872	2.67
454.229	2.8
454.586	2.83
454.943	2.77
455.3	2.72
455.657	2.87
456.014	2.9
456.371	2.75
456.727	2.79
457.084	2.74
457.441	2.92
457.797	2.85
458.154	2.79
458.51	2.93
458.867	2.78
459.223	2.94
459.58	2.69
459.936	2.87
460.292	2.73
460.648	2.75
461.005	2.73
461.361	2.68
461.717	2.73
462.073	2.71
462.429	2.68
462.785	2.74
463.141	2.9
463.496	2.85
463.852	2.83
464.208	2.73
464.564	2.81
464.919	2.91
465.275	3.05
465.631	2.94
465.986	2.88
466.342	3.02
466.697	2.92
467.052	2.85
467.408	2.98
467.763	2.77
468.118	2.71
468.473	2.88
468.829	2.88
469.184	2.79
469.539	2.96
469.894	2.81
470.249	2.82
470.603	3.06
470.958	2.84
471.313	2.94
471.668	2.81
472.023	3.02
472.377	2.92
472.732	2.99
473.086	2.87
473.441	3.08
473.795	3.03
474.15	2.97
474.504	2.9
474.859	2.87
475.213	2.94
475.567	2.91
475.921	3.04
476.275	3.03
476.63	3.07
476.984	3.05
477.338	3.05
477.692	2.94
478.045	3.05
478.399	2.99
478.753	2.9
479.107	3.01
479.461	2.98
479.814	3.1
480.168	3.21
480.521	3.03
480.875	3.01
481.228	3
481.582	2.98
481.935	3.03
482.289	3.04
482.642	3.08
482.995	3.15
483.348	2.98
483.701	3.05
484.055	2.97
484.408	2.94
484.761	2.98
485.114	2.95
485.466	2.91
485.819	2.85
486.172	2.78
486.525	2.83
486.878	2.86
487.23	2.94
487.583	3.04
487.936	3.06
488.288	3.08
488.641	3.02
488.993	3.03
489.345	2.99
489.698	2.94
490.05	2.91
490.402	2.93
490.754	2.99
491.107	3.04
491.459	3.06
491.811	3.16
492.163	3.13
492.515	3.17
492.866	3.12
493.218	3
493.57	3.02
493.922	2.91
494.274	3.02
494.625	2.99
494.977	3.15
495.328	3.18
495.68	3.21
496.031	3.22
496.383	3.13
496.734	3.13
497.086	3.32
497.437	3.31
497.788	3.21
498.139	3.25
498.49	3.1
498.842	3.17
499.193	3.07
499.544	3.26
499.894	3.2
500.245	3.15
500.596	3.18
500.947	3.23
501.298	3.26
501.648	3.3
501.999	3.36
502.35	3.17
502.7	3.29
503.051	3.3
503.401	3.46
503.752	3.27
504.102	3.37
504.452	3.26
504.803	3.3
505.153	3.3
505.503	3.29
505.853	3.35
506.203	3.36
506.553	3.36
506.903	3.39
507.253	3.64
507.603	3.35
507.953	3.5
508.303	3.5
508.652	3.4
509.002	3.62
509.352	3.38
509.701	3.35
510.051	3.4
510.4	3.38
510.75	3.31
511.099	3.43
511.449	3.36
511.798	3.35
512.147	3.51
512.496	3.37
512.846	3.37
513.195	3.42
513.544	3.54
513.893	3.47
514.242	3.48
514.591	3.54
514.939	3.31
515.288	3.44
515.637	3.55
515.986	3.47
516.334	3.6
516.683	3.61
517.032	3.58
517.38	3.63
517.729	3.56
518.077	3.44
518.426	3.52
518.774	3.62
519.122	3.53
519.47	3.54
519.819	3.6
520.167	3.5
520.515	3.51
520.863	3.5
521.211	3.52
521.559	3.64
521.907	3.53
522.255	3.46
522.602	3.53
522.95	3.65
523.298	3.64
523.645	3.66
523.993	3.65
524.341	3.74
524.688	3.74
525.036	3.6
525.383	3.7
525.73	3.79
526.078	3.74
526.425	3.68
526.772	3.77
527.119	3.8
527.466	3.57
527.814	3.59
528.161	3.57
528.508	3.58
528.854	3.61
529.201	3.75
529.548	3.63
529.895	3.7
530.242	3.6
530.588	3.51
530.935	3.48
531.282	3.52
531.628	3.52
531.975	3.66
532.321	3.7
532.667	3.73
533.014	3.9
533.36	3.86
533.706	3.8
534.052	3.77
534.399	3.86
534.745	3.89
535.091	3.79
535.437	3.74
535.783	3.75
536.129	3.75
536.474	3.77
536.82	3.85
537.166	3.9
537.512	3.92
537.857	3.99
538.203	3.79
538.549	3.85
538.894	3.82
539.239	3.83
539.585	3.88
539.93	3.99
540.276	3.99
540.621	3.99
540.966	3.96
541.311	4.08
541.656	4.02
542.001	4.06
542.346	4.1
542.691	4.03
543.036	3.98
543.381	3.92
543.726	3.82
544.071	3.91
544.415	3.94
544.76	4.01
545.105	4.05
545.449	4.02
545.794	4.12
546.138	4.15
546.483	4.16
546.827	4.12
547.171	4.15
547.516	4.1
547.86	4.16
548.204	4.34
548.548	4.13
548.892	4.1
549.236	4.09
549.58	4.17
549.924	4.14
550.268	4.22
550.612	4.38
550.956	4.38
551.3	4.36
551.643	4.52
551.987	4.49
552.33	4.55
552.674	4.56
553.017	4.46
553.361	4.5
553.704	4.52
554.048	4.56
554.391	4.41
554.734	4.52
555.077	4.45
555.42	4.44
555.764	4.49
556.107	4.52
556.45	4.47
556.793	4.51
557.135	4.57
557.478	4.65
557.821	4.53
558.164	4.78
558.507	4.59
558.849	4.77
559.192	4.6
559.534	4.62
559.877	4.44
560.219	4.85
560.562	4.7
560.904	4.77
561.246	4.71
561.589	4.8
561.931	4.71
562.273	4.81
562.615	4.73
562.957	4.89
563.299	4.96
563.641	4.68
563.983	4.84
564.325	4.79
564.667	4.72
565.008	4.83
565.35	5.01
565.692	4.99
566.033	4.81
566.375	4.94
566.716	5.04
567.058	4.98
567.399	4.83
567.741	5.02
568.082	4.79
568.423	4.91
568.764	4.93
569.105	5.04
569.447	4.91
569.788	5.02
570.129	5.12
570.47	5.02
570.811	5.1
571.151	4.99
571.492	4.94
571.833	4.97
572.174	5.25
572.514	5.04
572.855	5.05
573.195	5.23
573.536	5.29
573.876	5.05
574.217	5.1
574.557	5.21
574.898	5.19
575.238	5.17
575.578	5.03
575.918	5.24
576.258	5.18
576.598	5.42
576.938	5.18
577.278	5.17
577.618	5.26
577.958	5.45
578.298	5.55
578.638	5.46
578.977	5.48
579.317	5.25
579.657	5.53
579.996	5.5
580.336	5.5
580.675	5.54
581.014	5.64
581.354	5.63
581.693	5.63
582.032	5.8
582.372	5.85
582.711	5.96
583.05	5.55
583.389	5.74
583.728	5.84
584.067	5.71
584.406	5.59
584.745	5.8
585.083	5.83
585.422	5.63
585.761	5.9
586.1	6.1
586.438	5.78
586.777	5.82
587.115	5.99
587.454	5.9
587.792	5.96
588.13	6
588.469	5.92
588.807	5.91
589.145	6.04
589.483	6.14
589.821	6.01
590.159	6.06
590.497	5.96
590.835	6.08
591.173	5.98
591.511	5.9
591.849	5.99
592.187	6.11
592.524	6.32
592.862	6.28
593.2	6.11
593.537	6.05
593.875	6.35
594.212	6.38
594.55	6.48
594.887	6.32
595.224	6.18
595.561	6.04
595.899	6.04
596.236	6.38
596.573	6.64
596.91	6.23
597.247	6.38
597.584	6.4
597.921	6.38
598.258	6.58
598.594	6.38
598.931	6.44
599.268	6.47
599.604	6.41
599.941	6.59
600.277	6.47
600.614	6.54
600.95	6.76
601.287	6.69
601.623	6.77
601.959	6.75
602.296	6.68
602.632	6.6
602.968	6.65
603.304	6.8
603.64	6.78
603.976	6.79
604.312	6.58
604.648	6.51
604.984	6.82
605.319	6.82
605.655	6.93
605.991	6.99
606.326	6.8
606.662	6.76
606.998	6.72
607.333	6.79
607.668	6.92
608.004	6.91
608.339	6.94
608.674	6.99
609.01	7.06
609.345	7.15
609.68	7.1
610.015	7.28
610.35	7.4
610.685	7.35
611.02	7.16
611.355	7.21
611.689	7.18
612.024	7.26
612.359	7.08
612.694	7.28
613.028	7.38
613.363	7.06
613.697	7.11
614.032	7.36
614.366	7.36
614.7	7.63
615.035	7.48
615.369	7.65
615.703	7.37
616.037	7.39
616.371	7.47
616.705	7.6
617.039	7.34
617.373	7.59
617.707	7.73
618.041	7.6
618.375	7.61
618.709	7.92
619.042	7.55
619.376	7.67
619.71	7.56
620.043	7.73
620.377	7.87
620.71	7.53
621.043	7.75
621.377	7.96
621.71	7.66
622.043	7.2
622.376	7.92
622.709	7.84
623.043	7.91
623.376	8.05
623.709	8.02
624.041	8.16
624.374	8.04
624.707	7.79
625.04	7.91
625.373	8.37
625.705	8.63
626.038	8.2
626.37	8.39
626.703	8.19
627.035	8.37
627.368	8.29
627.7	8.45
628.032	8.39
628.365	7.95
628.697	8.28
629.029	8.16
629.361	8.48
629.693	8.46
630.025	8.39
630.357	8.22
630.689	8.51
631.021	8.7
631.353	8.62
631.684	8.7
632.016	8.51
632.348	8.67
632.679	8.38
633.011	8.47
633.342	8.4
633.674	8.53
634.005	8.65
634.336	8.48
634.668	8.76
634.999	8.63
635.33	8.98
635.661	8.92
635.992	8.8
636.323	9.01
636.654	8.72
636.985	8.76
637.316	8.72
637.647	8.82
637.977	8.96
638.308	9.18
638.639	8.81
638.969	9.41
639.3	8.92
639.63	9.15
639.961	9.1
640.291	9.28
640.622	8.98
640.952	8.75
641.282	9.27
641.612	9.13
641.943	9.28
642.273	9.62
642.603	9.08
642.933	8.72
643.263	9.43
643.592	9.18
643.922	9.09
644.252	8.82
644.582	9.48
644.911	9.62
645.241	9.81
645.571	9.36
645.9	9.38
646.23	9.26
646.559	9.58
646.888	9.68
647.218	9.11
647.547	9.92
647.876	9.86
648.205	9.65
648.534	9.88
648.863	9.27
649.192	9.59
649.521	9.93
649.85	9.6
650.179	9.78
650.508	9.88
650.837	9.46
651.165	9.46
651.494	9.93
651.822	9.76
652.151	9.54
652.479	10.4
652.808	10.01
653.136	9.97
653.465	9.78
653.793	10.22
654.121	10.38
654.449	10.04
654.777	9.62
655.105	9.54
655.433	9.97
655.761	9.63
656.089	9.93
656.417	9.83
656.745	10.45
657.073	9.98
657.4	10.47
657.728	10.58
658.056	10.36
658.383	10.56
658.711	10.45
659.038	10.88
659.365	10.4
659.693	10.28
660.02	10.46
660.347	11.01
660.674	10.6
661.001	10.65
661.329	10.21
661.656	10.4
661.982	10.55
662.309	10.76
662.636	10.71
662.963	11.1
663.29	10.92
663.616	10.9
663.943	10.91
664.27	10.74
664.596	11.05
664.923	11.73
665.249	10.93
665.576	10.88
665.902	10.48
666.228	10.57
666.554	11.1
666.881	10.75
667.207	10.93
667.533	11.2
667.859	10.84
668.185	10.69
668.511	10.72
668.837	10.17
669.162	11.63
669.488	11.26
669.814	10.96
670.139	11.02
670.465	11.51
670.791	11.28
671.116	11.12
671.442	11.63
671.767	10.34
672.092	11.34
672.418	11.24
672.743	11.87
673.068	11.35
673.393	11.4
673.718	11.23
674.043	11.02
674.368	11.19
674.693	11.9
675.018	12.3
675.343	11.4
675.667	12.22
675.992	11.29
676.317	11.42
676.641	12.6
676.966	11.78
677.29	11.45
677.615	12.57
677.939	11.56
678.264	11.15
678.588	11.56
678.912	12.24
679.236	11.27
679.56	12
679.885	11.99
680.209	11.83
680.532	12.16
680.856	12.33
681.18	11.88
681.504	11.77
681.828	12.04
682.152	12.2
682.475	12.24
682.799	12.23
683.122	11.87
683.446	12.12
683.769	12.56
684.093	12.66
684.416	12.8
684.739	12.04
685.062	12.45
685.386	12.7
685.709	12.38
686.032	12.32
686.355	12.13
686.678	12.64
687.001	11.63
687.324	12.27
687.646	12.3
687.969	12.51
688.292	12.9
688.614	13.01
688.937	12.46
689.26	13.02
689.582	12.8
