Data from 0177_forehead_Reflection__2__058.txt Node

Date: Mon Aug 28 19:06:14 CDT 2023
User: ToomeyLab
Spectrometer: FLMS14357
Trigger mode: 0
Integration Time (sec): 1.000000E-2
Scans to average: 100
Electric dark correction enabled: true
Nonlinearity correction enabled: false
Boxcar width: 0
XAxis mode: Wavelengths
Number of Pixels in Spectrum: 2048
>>>>>Begin Spectral Data<<<<<
189.047	30.73
189.435	30.73
189.823	30.73
190.211	1367.44
190.599	378.57
190.987	-59.51
191.375	0.33
191.763	53.43
192.151	137.28
192.538	54.72
192.926	85.83
193.314	-297.07
193.702	-69.41
194.089	30.34
194.477	1152.94
194.864	-20.95
195.252	5.21
195.639	-1870.09
196.027	94.74
196.414	177.74
196.801	86.02
197.189	-52.21
197.576	-795.38
197.963	35.62
198.351	69.64
198.738	69.36
199.125	-13.22
199.512	70.22
199.899	37.47
200.286	103.04
200.673	17.54
201.06	17.48
201.447	-2.96
201.833	-6.22
202.22	44.54
202.607	-17.52
202.994	20.36
203.38	-19.97
203.767	25.3
204.154	20.02
204.54	32
204.927	48.65
205.313	25.12
205.699	9.42
206.086	39.6
206.472	-16.74
206.858	-8.2
207.245	7.12
207.631	34.33
208.017	32.72
208.403	25.71
208.789	-13.28
209.175	-16.82
209.561	-10.82
209.947	23.16
210.333	15.99
210.719	7.04
211.105	42.33
211.491	1.3
211.876	46.16
212.262	72.85
212.648	19.4
213.034	25.8
213.419	0.54
213.805	13.12
214.19	24.08
214.576	13.03
214.961	7.99
215.346	-5.73
215.732	16.75
216.117	-3.47
216.502	-14.12
216.888	3.68
217.273	-18.45
217.658	40.93
218.043	-16.45
218.428	-4.32
218.813	11.73
219.198	32.15
219.583	21.54
219.968	39.1
220.353	10.91
220.738	39.07
221.122	23.72
221.507	-3.71
221.892	10.05
222.276	14.07
222.661	3.19
223.046	-0.84
223.43	12.27
223.815	10.64
224.199	6.43
224.583	7.97
224.968	12.48
225.352	9.24
225.736	9.89
226.121	4.28
226.505	6.16
226.889	-0.63
227.273	-0.04
227.657	5.61
228.041	3.58
228.425	8.87
228.809	2.25
229.193	4.4
229.577	10.28
229.961	2.17
230.344	3.13
230.728	2.23
231.112	2.44
231.495	2.87
231.879	1.54
232.263	2.04
232.646	2.14
233.03	3.38
233.413	5.96
233.797	2.58
234.18	2.16
234.563	0.53
234.946	4.23
235.33	3.02
235.713	1.81
236.096	5.88
236.479	3.36
236.862	3.68
237.245	2.56
237.628	4.09
238.011	5.08
238.394	3.42
238.777	4.98
239.16	3.33
239.543	1.7
239.925	1.62
240.308	4.97
240.691	2.58
241.073	1.82
241.456	4.71
241.838	0.79
242.221	4.1
242.603	3.16
242.986	3.17
243.368	3
243.75	2.34
244.133	2.3
244.515	2.36
244.897	3
245.279	3
245.661	2.23
246.043	3.69
246.425	1.84
246.807	3.32
247.189	3.08
247.571	3.87
247.953	2.96
248.335	2.72
248.717	2.46
249.098	2.57
249.48	2.63
249.862	2.78
250.243	2.32
250.625	3.07
251.006	2.92
251.388	2.95
251.769	3.04
252.151	2.43
252.532	2.52
252.913	3.28
253.295	2.59
253.676	2.95
254.057	2.83
254.438	2.47
254.819	3.19
255.2	3.11
255.581	2.68
255.962	3.94
256.343	4.29
256.724	2.73
257.105	3.15
257.486	2.66
257.867	2.36
258.247	3.67
258.628	3.95
259.009	3.02
259.389	2.54
259.77	3.1
260.15	2.53
260.531	2.2
260.911	2.79
261.292	2.87
261.672	2.44
262.052	2.37
262.432	2.53
262.813	2.65
263.193	2.85
263.573	2.44
263.953	3
264.333	2.54
264.713	2.15
265.093	3.13
265.473	2.78
265.853	1.8
266.233	1.71
266.612	3.07
266.992	2.76
267.372	2.43
267.752	3.14
268.131	2.62
268.511	1.73
268.89	3.03
269.27	2.1
269.649	2.6
270.029	2.56
270.408	3.18
270.787	2.56
271.167	2.4
271.546	2.83
271.925	2.41
272.304	2.13
272.683	2.92
273.062	2.19
273.441	2.64
273.82	2.22
274.199	2.31
274.578	2.36
274.957	2.87
275.336	2.68
275.715	2.88
276.093	2.25
276.472	2.62
276.851	2.22
277.229	2.82
277.608	3.13
277.986	2.4
278.365	2.45
278.743	2.28
279.122	2.66
279.5	1.98
279.878	2.16
280.257	2.55
280.635	2.84
281.013	3.32
281.391	2.83
281.769	2.33
282.147	2.99
282.525	2.6
282.903	2.83
283.281	2.51
283.659	2.89
284.037	2.95
284.415	2.48
284.792	2.55
285.17	2.32
285.548	2.5
285.925	2.56
286.303	2.24
286.68	3.01
287.058	2.62
287.435	2.34
287.813	2.36
288.19	2.42
288.567	2.86
288.945	2.82
289.322	2.83
289.699	2.73
290.076	3.48
290.453	3.23
290.83	2.37
291.207	2.93
291.584	2.52
291.961	3.33
292.338	2.33
292.715	2.7
293.092	2.58
293.469	2.64
293.845	2.86
294.222	2.51
294.599	3.14
294.975	3.15
295.352	2.56
295.728	3.11
296.105	3.06
296.481	3.37
296.858	3.58
297.234	2.81
297.61	3.46
297.986	2.92
298.363	3.39
298.739	3.24
299.115	2.74
299.491	3.33
299.867	2.99
300.243	3.41
300.619	3.11
300.995	3.62
301.371	3.4
301.746	3.7
302.122	3.66
302.498	3.29
302.874	3.75
303.249	3.36
303.625	3.88
304	3.54
304.376	3.53
304.751	3.54
305.127	3.41
305.502	3.65
305.878	3.55
306.253	3.44
306.628	3.7
307.003	3.98
307.378	3.89
307.754	4.43
308.129	3.42
308.504	4.49
308.879	3.81
309.254	3.94
309.629	4.04
310.003	4.21
310.378	3.59
310.753	4.16
311.128	4.07
311.502	4.52
311.877	4.25
312.252	4.33
312.626	4.26
313.001	4.18
313.375	4.45
313.75	4.42
314.124	3.95
314.498	4.63
314.873	4.65
315.247	4.66
315.621	4.16
315.995	5.22
316.369	4.79
316.743	4.11
317.117	4.74
317.491	4.13
317.865	4.05
318.239	4.74
318.613	5.4
318.987	4.53
319.361	5.16
319.734	4.95
320.108	5.26
320.482	5.39
320.855	5.02
321.229	4.72
321.602	5.52
321.976	4.29
322.349	5.14
322.723	5.06
323.096	5.54
323.469	4.93
323.843	5.4
324.216	5.53
324.589	5.28
324.962	5.79
325.335	5.86
325.708	5.26
326.081	5.15
326.454	5.81
326.827	5.39
327.2	5.26
327.573	5.47
327.945	5.68
328.318	6.02
328.691	5.37
329.063	5.41
329.436	5.44
329.809	5.98
330.181	5.67
330.553	5.39
330.926	5.86
331.298	5.31
331.671	5.68
332.043	5.95
332.415	6.31
332.787	6.22
333.159	6.07
333.532	6.4
333.904	6.46
334.276	5.97
334.648	6.19
335.02	6.38
335.391	6.58
335.763	5.95
336.135	6.64
336.507	6.26
336.879	5.68
337.25	6.56
337.622	5.92
337.993	6.52
338.365	6.03
338.736	6.59
339.108	5.83
339.479	5.74
339.851	6.58
340.222	6.47
340.593	6.52
340.964	6.33
341.336	6.37
341.707	6.38
342.078	6.13
342.449	6.37
342.82	6.6
343.191	6.59
343.562	6.68
343.933	6.6
344.303	6.51
344.674	7.19
345.045	6.93
345.416	7.04
345.786	6.95
346.157	6.72
346.527	6.09
346.898	6.75
347.268	6.62
347.639	6.6
348.009	6.87
348.38	7
348.75	7.13
349.12	7.5
349.49	6.88
349.861	6.76
350.231	6.64
350.601	7.61
350.971	7.35
351.341	7.44
351.711	7.52
352.081	7.43
352.45	7.49
352.82	7.71
353.19	7.82
353.56	7.72
353.929	7.49
354.299	7.18
354.669	7.57
355.038	7.43
355.408	7.32
355.777	7.44
356.147	7.38
356.516	7.68
356.885	7.87
357.254	7.83
357.624	7.7
357.993	8
358.362	7.47
358.731	7.75
359.1	7.51
359.469	8.11
359.838	7.58
360.207	8.11
360.576	8.21
360.945	8.09
361.314	7.81
361.682	7.66
362.051	8.32
362.42	7.81
362.788	7.88
363.157	8
363.525	8.18
363.894	7.86
364.262	8
364.631	8.1
364.999	8.21
365.367	8.64
365.735	8.34
366.104	8.01
366.472	7.97
366.84	8.41
367.208	8.57
367.576	7.84
367.944	8.29
368.312	8.73
368.68	8.52
369.048	8.64
369.416	8.44
369.783	8.7
370.151	8.79
370.519	8.77
370.886	8.63
371.254	8.7
371.621	8.7
371.989	8.87
372.356	8.79
372.724	9.19
373.091	8.82
373.458	8.86
373.826	9.16
374.193	9.26
374.56	8.9
374.927	8.81
375.294	9.19
375.661	9.49
376.028	9.01
376.395	9.13
376.762	9.62
377.129	9.46
377.496	9.21
377.863	9.35
378.229	9.1
378.596	9.71
378.963	9.55
379.329	9.47
379.696	9.38
380.062	9.35
380.429	9.34
380.795	9.72
381.161	9.26
381.528	9.69
381.894	9.89
382.26	9.91
382.626	9.65
382.993	9.63
383.359	9.91
383.725	10
384.091	10.11
384.457	9.88
384.823	9.83
385.188	9.52
385.554	9.93
385.92	9.75
386.286	10.05
386.651	10.35
387.017	10.11
387.383	10.08
387.748	9.97
388.114	9.97
388.479	9.75
388.845	10.12
389.21	10
389.575	10.27
389.94	10.11
390.306	10.27
390.671	10.1
391.036	10.14
391.401	10.41
391.766	10.5
392.131	10.49
392.496	10.48
392.861	10.24
393.226	10.55
393.591	10.26
393.956	10.44
394.32	10.44
394.685	10.47
395.05	10.72
395.414	10.38
395.779	10.56
396.143	10.53
396.508	10.42
396.872	10.59
397.236	10.51
397.601	10.49
397.965	10.82
398.329	10.6
398.694	10.8
399.058	10.72
399.422	10.64
399.786	10.88
400.15	11.1
400.514	10.95
400.878	10.73
401.242	10.7
401.605	10.77
401.969	10.74
402.333	10.81
402.697	10.91
403.06	11
403.424	11.16
403.787	10.98
404.151	10.9
404.514	11.03
404.878	11.06
405.241	11.13
405.604	11.13
405.968	10.71
406.331	11.04
406.694	10.99
407.057	11.08
407.42	10.99
407.783	11.15
408.146	11.31
408.509	11.34
408.872	11.11
409.235	11.11
409.598	11.1
409.961	11.43
410.323	11.54
410.686	11.37
411.049	11.62
411.411	11.5
411.774	11.38
412.136	11.36
412.499	11.37
412.861	11.48
413.223	11.63
413.586	11.37
413.948	11.47
414.31	11.48
414.672	11.48
415.035	11.55
415.397	11.64
415.759	11.78
416.121	11.82
416.483	11.71
416.845	11.82
417.206	11.86
417.568	11.62
417.93	11.54
418.292	11.62
418.653	11.71
419.015	11.72
419.377	11.66
419.738	11.82
420.1	11.83
420.461	11.79
420.822	11.84
421.184	11.9
421.545	11.82
421.906	11.8
422.267	11.96
422.629	11.81
422.99	11.77
423.351	11.85
423.712	11.8
424.073	11.95
424.434	12.06
424.795	12.09
425.155	12.32
425.516	12.11
425.877	12.1
426.238	12.2
426.598	12.15
426.959	12.32
427.32	12.31
427.68	12.5
428.041	12.58
428.401	12.77
428.761	12.78
429.122	12.8
429.482	13.11
429.842	13.24
430.202	13.29
430.563	13.35
430.923	13.48
431.283	13.13
431.643	13.13
432.003	13.31
432.363	13.49
432.722	13.49
433.082	13.41
433.442	13.59
433.802	13.5
434.161	13.72
434.521	13.55
434.881	13.42
435.24	13.48
435.6	13.47
435.959	13.6
436.319	13.83
436.678	13.66
437.037	13.97
437.396	14.04
437.756	14.03
438.115	14.04
438.474	14.13
438.833	14.09
439.192	14.24
439.551	14.01
439.91	14.22
440.269	14.31
440.628	14.22
440.987	14.38
441.345	14.16
441.704	14.3
442.063	14.15
442.421	14.25
442.78	14.31
443.138	14.25
443.497	14.28
443.855	14.41
444.214	14.66
444.572	14.67
444.93	14.93
445.288	14.78
445.647	14.88
446.005	15.07
446.363	14.88
446.721	14.94
447.079	14.85
447.437	14.83
447.795	14.73
448.153	14.73
448.51	14.61
448.868	14.76
449.226	14.69
449.584	14.98
449.941	14.95
450.299	15.13
450.656	15.23
451.014	15.31
451.371	15.27
451.729	15.37
452.086	15.56
452.443	15.74
452.801	15.66
453.158	15.93
453.515	15.75
453.872	15.69
454.229	15.74
454.586	15.82
454.943	15.67
455.3	15.92
455.657	15.95
456.014	15.94
456.371	15.91
456.727	16.01
457.084	15.94
457.441	16.14
457.797	16.12
458.154	16.16
458.51	16.39
458.867	16.3
459.223	16.28
459.58	16.46
459.936	16.35
460.292	16.4
460.648	16.33
461.005	16.35
461.361	16.27
461.717	16.1
462.073	15.85
462.429	16.01
462.785	16.26
463.141	16.36
463.496	16.65
463.852	16.63
464.208	16.86
464.564	16.91
464.919	16.9
465.275	17.31
465.631	16.79
465.986	17.21
466.342	17.35
466.697	16.92
467.052	17.11
467.408	17.02
467.763	17.38
468.118	17.06
468.473	17.21
468.829	17.19
469.184	17.14
469.539	17.24
469.894	17.21
470.249	17.36
470.603	17.32
470.958	17.5
471.313	17.58
471.668	17.59
472.023	17.55
472.377	17.64
472.732	17.64
473.086	17.53
473.441	17.6
473.795	17.91
474.15	17.87
474.504	18.02
474.859	17.9
475.213	17.9
475.567	18.07
475.921	18.24
476.275	18
476.63	18.09
476.984	18.31
477.338	18.27
477.692	18.05
478.045	18.28
478.399	18.3
478.753	18.23
479.107	18.33
479.461	18.31
479.814	18.36
480.168	18.4
480.521	18.33
480.875	18.42
481.228	18.38
481.582	18.31
481.935	18.52
482.289	18.5
482.642	18.65
482.995	18.66
483.348	18.61
483.701	18.46
484.055	18.44
484.408	18.32
484.761	18.31
485.114	18.17
485.466	17.9
485.819	17.58
486.172	17.32
486.525	17.5
486.878	17.74
487.23	17.91
487.583	18.23
487.936	18.47
488.288	18.53
488.641	18.56
488.993	18.36
489.345	18.18
489.698	18.01
490.05	18.02
490.402	18.04
490.754	18.23
491.107	18.5
491.459	18.63
491.811	18.77
492.163	19.15
492.515	19.13
492.866	19.15
493.218	18.94
493.57	18.65
493.922	18.38
494.274	18.48
494.625	18.62
494.977	19.05
495.328	19.28
495.68	19.57
496.031	19.69
496.383	19.66
496.734	19.77
497.086	19.98
497.437	20.05
497.788	19.78
498.139	19.9
498.49	19.78
498.842	19.7
499.193	19.74
499.544	19.71
499.894	19.75
500.245	19.82
500.596	19.92
500.947	19.97
501.298	20.07
501.648	20.04
501.999	20.16
502.35	20.25
502.7	20.42
503.051	20.46
503.401	20.37
503.752	20.51
504.102	20.66
504.452	20.6
504.803	20.56
505.153	20.65
505.503	20.47
505.853	20.46
506.203	20.63
506.553	20.5
506.903	20.58
507.253	20.68
507.603	20.81
507.953	20.81
508.303	20.83
508.652	20.99
509.002	20.88
509.352	20.71
509.701	20.79
510.051	20.72
510.4	20.68
510.75	20.63
511.099	20.64
511.449	20.64
511.798	20.74
512.147	20.84
512.496	20.96
512.846	20.82
513.195	21.01
513.544	21.05
513.893	21.09
514.242	21.15
514.591	21.05
514.939	20.89
515.288	21.2
515.637	21.38
515.986	21.3
516.334	21.46
516.683	21.47
517.032	21.33
517.38	21.64
517.729	21.63
518.077	21.59
518.426	21.62
518.774	21.58
519.122	21.59
519.47	21.56
519.819	21.51
520.167	21.25
520.515	21.15
520.863	20.96
521.211	21.15
521.559	21.25
521.907	21.28
522.255	21.34
522.602	21.54
522.95	21.71
523.298	21.81
523.645	22.03
523.993	21.93
524.341	22.07
524.688	22.12
525.036	22.07
525.383	22.15
525.73	22.19
526.078	22.27
526.425	22.18
526.772	22.01
527.119	22
527.466	21.72
527.814	21.6
528.161	21.6
528.508	21.59
528.854	21.8
529.201	21.88
529.548	21.88
529.895	21.87
530.242	21.45
530.588	21.12
530.935	20.92
531.282	21
531.628	21.19
531.975	21.41
532.321	21.66
532.667	21.76
533.014	22.11
533.36	22.17
533.706	22.19
534.052	22.16
534.399	22.21
534.745	22.22
535.091	21.86
535.437	21.63
535.783	21.62
536.129	21.86
536.474	22.06
536.82	22.34
537.166	22.52
537.512	22.62
537.857	22.8
538.203	22.75
538.549	22.51
538.894	22.25
539.239	22.2
539.585	22.46
539.93	22.62
540.276	22.75
540.621	23.05
540.966	23.12
541.311	23.3
541.656	23.31
542.001	23.18
542.346	23.18
542.691	22.99
543.036	22.65
543.381	22.17
543.726	22.01
544.071	22.27
544.415	22.43
544.76	22.53
545.105	22.74
545.449	22.76
545.794	22.83
546.138	23.13
546.483	23.17
546.827	23.26
547.171	23.38
547.516	23.37
547.86	23.39
548.204	23.46
548.548	23.39
548.892	23.18
549.236	23.27
549.58	23.23
549.924	23.32
550.268	23.76
550.612	23.9
550.956	24.08
551.3	24.14
551.643	24.35
551.987	24.16
552.33	24.33
552.674	24.41
553.017	24.24
553.361	24.44
553.704	24.24
554.048	24.37
554.391	24.29
554.734	24.28
555.077	24.13
555.42	24.34
555.764	24.18
556.107	24.12
556.45	24.55
556.793	24.43
557.135	24.69
557.478	24.67
557.821	24.86
558.164	24.91
558.507	24.81
558.849	24.93
559.192	24.86
559.534	24.57
559.877	24.95
560.219	25.09
560.562	25.17
560.904	24.9
561.246	24.86
561.589	24.97
561.931	25.02
562.273	24.79
562.615	24.95
562.957	25.16
563.299	25.14
563.641	24.96
563.983	25.21
564.325	25.13
564.667	25.14
565.008	25.12
565.35	25.45
565.692	25.21
566.033	25.18
566.375	25.39
566.716	25.42
567.058	25.45
567.399	25.05
567.741	25.32
568.082	25.25
568.423	25.03
568.764	25.13
569.105	25.08
569.447	25.18
569.788	25.49
570.129	25.6
570.47	25.69
570.811	25.78
571.151	25.5
571.492	25.46
571.833	25.51
572.174	25.49
572.514	25.74
572.855	25.64
573.195	25.79
573.536	25.8
573.876	25.67
574.217	25.39
574.557	25.53
574.898	25.86
575.238	25.75
575.578	25.67
575.918	25.59
576.258	25.98
576.598	25.93
576.938	25.69
577.278	25.98
577.618	25.9
577.958	25.83
578.298	26.09
578.638	26.02
578.977	26.06
579.317	26.2
579.657	26.09
579.996	26.16
580.336	26.14
580.675	26.48
581.014	26.6
581.354	26.85
581.693	26.53
582.032	26.67
582.372	26.68
582.711	26.9
583.05	26.8
583.389	26.7
583.728	26.68
584.067	26.9
584.406	27.02
584.745	26.63
585.083	26.93
585.422	26.72
585.761	26.85
586.1	27.22
586.438	27.09
586.777	26.95
587.115	26.94
587.454	27.14
587.792	27.25
588.13	27.03
588.469	27.28
588.807	27.14
589.145	27.45
589.483	27.34
589.821	27.06
590.159	27.25
590.497	27.18
590.835	27.43
591.173	27.28
591.511	27.22
591.849	27.13
592.187	27.13
592.524	27.24
592.862	27.45
593.2	27.25
593.537	27.19
593.875	27.52
594.212	27.64
594.55	27.38
594.887	27.55
595.224	27.74
595.561	27.39
595.899	27.44
596.236	27.84
596.573	27.72
596.91	27.62
597.247	27.76
597.584	27.76
597.921	27.79
598.258	27.69
598.594	27.74
598.931	27.52
599.268	27.25
599.604	27.21
599.941	27.47
600.277	27.58
600.614	27.85
600.95	27.84
601.287	27.87
601.623	28.07
601.959	28.08
602.296	28.03
602.632	28.17
602.968	28.44
603.304	28.08
603.64	28.19
603.976	28.44
604.312	28.17
604.648	28.37
604.984	28.2
605.319	28.11
605.655	28.01
605.991	28.09
606.326	28
606.662	27.93
606.998	27.76
607.333	27.68
607.668	27.99
608.004	28.05
608.339	28.35
608.674	28.27
609.01	28.67
609.345	28.46
609.68	28.5
610.015	28.82
610.35	28.67
610.685	28.85
611.02	28.84
611.355	28.67
611.689	28.46
612.024	28.3
612.359	28.74
612.694	28.66
613.028	28.84
613.363	28.58
613.697	28.91
614.032	29.12
614.366	28.97
614.7	29.1
615.035	28.83
615.369	29.01
615.703	28.95
616.037	29.32
616.371	29
616.705	29.36
617.039	28.93
617.373	29.54
617.707	29.31
618.041	29.31
618.375	29.19
618.709	29.27
619.042	29.48
619.376	29.43
619.71	29.25
620.043	29.58
620.377	29.92
620.71	29.33
621.043	30
621.377	29.33
621.71	29.28
622.043	29.41
622.376	29.69
622.709	29.38
623.043	29.78
623.376	30.05
623.709	29.81
624.041	30.02
624.374	29.55
624.707	29.54
625.04	30.06
625.373	29.78
625.705	30.23
626.038	30.27
626.37	30.2
626.703	29.95
627.035	29.92
627.368	30.34
627.7	30.09
628.032	30.17
628.365	29.77
628.697	29.97
629.029	29.83
629.361	29.92
629.693	29.97
630.025	30.14
630.357	30.05
630.689	29.94
631.021	30.3
631.353	30.18
631.684	30.25
632.016	30.3
632.348	30.38
632.679	30.59
633.011	30.37
633.342	29.99
633.674	30.26
634.005	30.54
634.336	30.37
634.668	30.86
634.999	30.53
635.33	30.65
635.661	30.52
635.992	30.07
636.323	30.57
636.654	30.54
636.985	30.69
637.316	30.8
637.647	30.9
637.977	30.59
638.308	30.81
638.639	30.69
638.969	31.07
639.3	30.71
639.63	30.95
639.961	30.89
640.291	30.6
640.622	31.22
640.952	30.82
641.282	30.92
641.612	31.34
641.943	30.88
642.273	31.7
642.603	30.62
642.933	30.73
643.263	31.37
643.592	31.25
643.922	31.32
644.252	31.42
644.582	31.38
644.911	31.61
645.241	31.67
645.571	31.29
645.9	31.53
646.23	31.38
646.559	30.88
646.888	31.7
647.218	31.16
647.547	31.55
647.876	32.12
648.205	31.45
648.534	31.91
648.863	31.36
649.192	32.18
649.521	31.83
649.85	31.74
650.179	31.99
650.508	31.81
650.837	31.61
651.165	31.86
651.494	31.47
651.822	31.97
652.151	32.37
652.479	31.87
652.808	31.8
653.136	31.47
653.465	32.35
653.793	32.2
654.121	32.42
654.449	31.94
654.777	32.05
655.105	31.61
655.433	31.7
655.761	31.71
656.089	32.13
656.417	31.84
656.745	32.63
657.073	32.25
657.4	32.22
657.728	31.96
658.056	32.42
658.383	32.29
658.711	32.76
659.038	32.35
659.365	32.43
659.693	33.04
660.02	32.55
660.347	32.4
660.674	32.73
661.001	32.09
661.329	32.32
661.656	32.32
661.982	31.84
662.309	32.23
662.636	32.32
662.963	32.56
663.29	32.96
663.616	32.63
663.943	32.78
664.27	33.15
664.596	32.78
664.923	32.84
665.249	33.1
665.576	32.97
665.902	32.92
666.228	32.47
666.554	32.68
666.881	33.04
667.207	32.96
667.533	33.44
667.859	32.8
668.185	33.14
668.511	33.57
668.837	33.26
669.162	33.11
669.488	32.76
669.814	33.42
670.139	32.73
670.465	33.27
670.791	33.32
671.116	33.34
671.442	33.02
671.767	32.89
672.092	33.24
672.418	32.84
672.743	33.72
673.068	32.78
673.393	33.8
