Data from 20-4_chest_Reflection__1__76.txt Node

Date: Fri Nov 11 20:45:56 CST 2022
User: ToomeyLab
Spectrometer: FLMS14357
Trigger mode: 0
Integration Time (sec): 1.000000E-2
Scans to average: 100
Electric dark correction enabled: true
Nonlinearity correction enabled: false
Boxcar width: 0
XAxis mode: Wavelengths
Number of Pixels in Spectrum: 2048
>>>>>Begin Spectral Data<<<<<
189.047	0.31
189.435	0.31
189.823	0.31
190.211	130.58
190.599	-11.32
190.987	-3.45
191.375	-7.2
191.763	418.45
192.151	2159.39
192.538	49.79
192.926	62.81
193.314	54.06
193.702	-51.12
194.089	6.76
194.477	-33.7
194.864	137.69
195.252	333.38
195.639	34.88
196.027	99.56
196.414	61.09
196.801	293.69
197.189	928.23
197.576	3.81
197.963	51.93
198.351	-21.69
198.738	-57.7
199.125	53.93
199.512	43.01
199.899	-90.58
200.286	-0.5
200.673	-11.21
201.06	38.8
201.447	51.57
201.833	-23.71
202.22	3.28
202.607	39.54
202.994	7.96
203.38	46.24
203.767	18.75
204.154	45.17
204.54	-2.42
204.927	25.1
205.313	-7.9
205.699	-33.15
206.086	15.66
206.472	-7.02
206.858	2.74
207.245	27.3
207.631	-9.26
208.017	43.44
208.403	18.67
208.789	17.45
209.175	14.38
209.561	30.08
209.947	-17.67
210.333	8.04
210.719	32.9
211.105	46.71
211.491	9.39
211.876	38.1
212.262	21.24
212.648	-3.25
213.034	-37.8
213.419	-37.47
213.805	2.64
214.19	-15.68
214.576	11.39
214.961	-40.04
215.346	-15.68
215.732	-23.22
216.117	14.96
216.502	12.69
216.888	22.09
217.273	10.34
217.658	-57.41
218.043	-4.54
218.428	0.69
218.813	6.78
219.198	10.07
219.583	6.27
219.968	-12.36
220.353	-23.26
220.738	8.56
221.122	-0.43
221.507	-4.45
221.892	-8.46
222.276	4.33
222.661	16.31
223.046	-9.29
223.43	-4.76
223.815	5.58
224.199	1.41
224.583	-4.49
224.968	-7.87
225.352	7.7
225.736	-3.85
226.121	-4.22
226.505	5.29
226.889	-6.71
227.273	1.72
227.657	-8.3
228.041	-1.6
228.425	-1.46
228.809	0.12
229.193	3.78
229.577	3.47
229.961	3.88
230.344	2.88
230.728	2.83
231.112	2.02
231.495	3.2
231.879	1.12
232.263	1.45
232.646	1.24
233.03	2.97
233.413	2.34
233.797	3.3
234.18	-1.43
234.563	2.09
234.946	3.56
235.33	2.66
235.713	1.55
236.096	1.22
236.479	2.55
236.862	3.64
237.245	2.27
237.628	3.38
238.011	1.73
238.394	2.79
238.777	3.48
239.16	3.56
239.543	0.63
239.925	3.9
240.308	2.93
240.691	2.99
241.073	1.4
241.456	1.17
241.838	3.77
242.221	3.31
242.603	2.98
242.986	2.93
243.368	3.12
243.75	2.6
244.133	3.04
244.515	2.55
244.897	2.98
245.279	2.66
245.661	2.84
246.043	2.17
246.425	3.03
246.807	1.99
247.189	2.75
247.571	2.96
247.953	3.13
248.335	2.89
248.717	3.01
249.098	3.07
249.48	2.62
249.862	3.26
250.243	2.88
250.625	3.05
251.006	3.75
251.388	3.01
251.769	2.74
252.151	2.6
252.532	3.18
252.913	3.89
253.295	2.77
253.676	2.33
254.057	2.39
254.438	2.9
254.819	2.53
255.2	4.36
255.581	2.72
255.962	2.19
256.343	2.02
256.724	2.49
257.105	2.64
257.486	2.19
257.867	3.39
258.247	2.2
258.628	2.67
259.009	2.52
259.389	2.22
259.77	3.12
260.15	3.12
260.531	2.73
260.911	2.72
261.292	3.14
261.672	2.54
262.052	2.56
262.432	3.06
262.813	2.72
263.193	2.6
263.573	2.9
263.953	2.52
264.333	2.86
264.713	2.67
265.093	3.26
265.473	2.04
265.853	2.56
266.233	2.52
266.612	2.43
266.992	3.23
267.372	3.6
267.752	2.15
268.131	1.88
268.511	2.93
268.89	2.13
269.27	2.64
269.649	2.54
270.029	3.17
270.408	2.53
270.787	2.77
271.167	1.96
271.546	2.89
271.925	2.12
272.304	2.95
272.683	2.83
273.062	2.63
273.441	2.73
273.82	2.5
274.199	2.21
274.578	2.55
274.957	2.67
275.336	2.9
275.715	2.59
276.093	2.26
276.472	2.24
276.851	2.17
277.229	2.41
277.608	3.03
277.986	3.23
278.365	2.14
278.743	2.44
279.122	2.92
279.5	2.86
279.878	2.62
280.257	2.7
280.635	2.49
281.013	2.74
281.391	2.52
281.769	2
282.147	2.5
282.525	2.22
282.903	2.41
283.281	2.6
283.659	2.65
284.037	2.77
284.415	2.53
284.792	2.29
285.17	2.94
285.548	2.53
285.925	1.84
286.303	2.72
286.68	2.79
287.058	2.72
287.435	2.72
287.813	2.62
288.19	2.59
288.567	2.7
288.945	2.59
289.322	3.25
289.699	1.85
290.076	2.8
290.453	2.5
290.83	2.56
291.207	2.38
291.584	2.7
291.961	2.48
292.338	2.76
292.715	2.49
293.092	2.62
293.469	2.38
293.845	2.67
294.222	2.55
294.599	2.45
294.975	2.66
295.352	2.8
295.728	2.29
296.105	2.65
296.481	2.24
296.858	2.33
297.234	2.46
297.61	2.29
297.986	2.84
298.363	2.42
298.739	2.56
299.115	2.69
299.491	2.76
299.867	2.14
300.243	2.88
300.619	2.58
300.995	2.98
301.371	3.35
301.746	2.95
302.122	2.57
302.498	2.99
302.874	2.49
303.249	2.43
303.625	2.52
304	2.24
304.376	3.14
304.751	2.34
305.127	2.65
305.502	2.75
305.878	3.33
306.253	2.57
306.628	2.59
307.003	2.84
307.378	2.45
307.754	2.94
308.129	3.05
308.504	2.78
308.879	3.06
309.254	2.62
309.629	2.6
310.003	2.88
310.378	2.66
310.753	3.15
311.128	3.52
311.502	3.36
311.877	2.78
312.252	3.02
312.626	2.63
313.001	2.8
313.375	2.82
313.75	2.98
314.124	2.47
314.498	2.66
314.873	2.58
315.247	2.93
315.621	3.01
315.995	3.04
316.369	3.24
316.743	2.81
317.117	2.78
317.491	2.67
317.865	2.61
318.239	2.8
318.613	3.01
318.987	2.77
319.361	2.28
319.734	3.43
320.108	2.58
320.482	3.13
320.855	2.96
321.229	3.08
321.602	2.97
321.976	2.43
322.349	3.29
322.723	3.59
323.096	3.12
323.469	3.05
323.843	2.98
324.216	2.35
324.589	2.87
324.962	3.64
325.335	2.89
325.708	2.66
326.081	3.33
326.454	2.86
326.827	2.91
327.2	3.41
327.573	3.7
327.945	2.67
328.318	2.96
328.691	3.27
329.063	3.57
329.436	3.05
329.809	2.9
330.181	2.28
330.553	2.56
330.926	2.81
331.298	2.99
331.671	2.57
332.043	2.78
332.415	3.27
332.787	3.56
333.159	2.74
333.532	3.16
333.904	3.52
334.276	2.94
334.648	2.89
335.02	2.54
335.391	3.28
335.763	3.07
336.135	2.56
336.507	3.03
336.879	2.86
337.25	2.69
337.622	2.94
337.993	3.43
338.365	3.37
338.736	3.34
339.108	3.26
339.479	2.89
339.851	3.18
340.222	2.87
340.593	3.37
340.964	3.05
341.336	3.34
341.707	2.9
342.078	2.23
342.449	3.48
342.82	3.04
343.191	3.03
343.562	2.78
343.933	2.86
344.303	2.73
344.674	2.88
345.045	2.7
345.416	3.05
345.786	2.74
346.157	2.95
346.527	2.95
346.898	2.47
347.268	2.97
347.639	3.06
348.009	2.55
348.38	2.96
348.75	3.25
349.12	3.8
349.49	3.52
349.861	2.9
350.231	3.23
350.601	2.94
350.971	2.77
351.341	3.06
351.711	3.19
352.081	3.03
352.45	3.18
352.82	2.71
353.19	3.36
353.56	2.9
353.929	2.76
354.299	2.76
354.669	3.02
355.038	2.99
355.408	3.42
355.777	3.28
356.147	2.99
356.516	3.12
356.885	3.4
357.254	3.1
357.624	2.68
357.993	3.19
358.362	3.17
358.731	2.74
359.1	3.17
359.469	2.77
359.838	3.12
360.207	3.37
360.576	3.35
360.945	3.02
361.314	2.83
361.682	2.95
362.051	3
362.42	3.12
362.788	3.14
363.157	3
363.525	2.89
363.894	3.07
364.262	3.13
364.631	3.62
364.999	3.14
365.367	2.7
365.735	3.09
366.104	2.94
366.472	2.75
366.84	2.78
367.208	2.88
367.576	3.08
367.944	3.35
368.312	2.74
368.68	3.02
369.048	2.8
369.416	2.94
369.783	3.24
370.151	3.24
370.519	3.12
370.886	2.73
371.254	3.53
371.621	2.92
371.989	2.99
372.356	3.32
372.724	3.06
373.091	3.12
373.458	3.2
373.826	2.9
374.193	2.97
374.56	2.91
374.927	3.23
375.294	3.5
375.661	3.49
376.028	2.33
376.395	3.24
376.762	3.29
377.129	3.23
377.496	3.26
377.863	3.47
378.229	2.95
378.596	3
378.963	3.09
379.329	3.32
379.696	2.85
380.062	3.16
380.429	3.26
380.795	3.4
381.161	3.52
381.528	3.09
381.894	3.46
382.26	3.28
382.626	3.45
382.993	3.15
383.359	3.11
383.725	3.07
384.091	3.37
384.457	3.28
384.823	2.98
385.188	3.32
385.554	2.94
385.92	3.05
386.286	3.06
386.651	3.17
387.017	2.97
387.383	3.33
387.748	3.11
388.114	3.06
388.479	2.93
388.845	3.16
389.21	3.01
389.575	3.12
389.94	3.19
390.306	3.27
390.671	3.11
391.036	3.1
391.401	3.11
391.766	3.18
392.131	3.07
392.496	3.2
392.861	3.1
393.226	2.98
393.591	3.12
393.956	3.33
394.32	3.35
394.685	3.29
395.05	3.34
395.414	3.05
395.779	3.31
396.143	3.09
396.508	3.42
396.872	3.32
397.236	3.07
397.601	3.39
397.965	3.28
398.329	3.34
398.694	3.35
399.058	3.14
399.422	3.3
399.786	2.97
400.15	3.24
400.514	3.25
400.878	3.2
401.242	3.06
401.605	3.25
401.969	3.12
402.333	2.93
402.697	3.39
403.06	3.7
403.424	2.94
403.787	3.53
404.151	3.28
404.514	3
404.878	3.18
405.241	2.95
405.604	3.21
405.968	3.44
406.331	2.97
406.694	2.97
407.057	3.45
407.42	3.38
407.783	3.23
408.146	3.42
408.509	3.32
408.872	3.35
409.235	3.56
409.598	3.2
409.961	3.5
410.323	3.39
410.686	3.29
411.049	3.16
411.411	3.43
411.774	3.29
412.136	3.18
412.499	3.32
412.861	3.35
413.223	3.18
413.586	3.13
413.948	3.64
414.31	3.28
414.672	3.4
415.035	3.32
415.397	3.16
415.759	3.13
416.121	3.12
416.483	3.35
416.845	3.39
417.206	3.29
417.568	3.14
417.93	3.27
418.292	3.19
418.653	3.35
419.015	3.29
419.377	3.26
419.738	3.28
420.1	3.21
420.461	3.32
420.822	3.21
421.184	3.39
421.545	3.24
421.906	3.25
422.267	3.15
422.629	3.11
422.99	3.17
423.351	3.17
423.712	3.18
424.073	3.23
424.434	3.24
424.795	3.31
425.155	3.2
425.516	3.32
425.877	3.26
426.238	3.27
426.598	3.2
426.959	3.23
427.32	3.36
427.68	3.29
428.041	3.46
428.401	3.08
428.761	3.45
429.122	3.2
429.482	3.37
429.842	3.29
430.202	3.3
430.563	3.44
430.923	3.43
431.283	3.36
431.643	3.28
432.003	3.44
432.363	3.32
432.722	3.44
433.082	3.47
433.442	3.41
433.802	3.29
434.161	3.4
434.521	3.32
434.881	3.46
435.24	3.38
435.6	3.35
435.959	3.3
436.319	3.28
436.678	3.4
437.037	3.41
437.396	3.51
437.756	3.33
438.115	3.3
438.474	3.31
438.833	3.43
439.192	3.42
439.551	3.39
439.91	3.41
440.269	3.46
440.628	3.37
440.987	3.37
441.345	3.35
441.704	3.4
442.063	3.33
442.421	3.35
442.78	3.22
443.138	3.37
443.497	3.24
443.855	3.35
444.214	3.35
444.572	3.43
444.93	3.37
445.288	3.3
445.647	3.67
446.005	3.51
446.363	3.57
446.721	3.39
447.079	3.51
447.437	3.31
447.795	3.35
448.153	3.32
448.51	3.29
448.868	3.43
449.226	3.32
449.584	3.36
449.941	3.49
450.299	3.31
450.656	3.47
451.014	3.44
451.371	3.39
451.729	3.45
452.086	3.46
452.443	3.41
452.801	3.45
453.158	3.39
453.515	3.37
453.872	3.4
454.229	3.51
454.586	3.53
454.943	3.42
455.3	3.46
455.657	3.55
456.014	3.52
456.371	3.37
456.727	3.74
457.084	3.23
457.441	3.56
457.797	3.51
458.154	3.51
458.51	3.36
458.867	3.35
459.223	3.53
459.58	3.58
459.936	3.46
460.292	3.38
460.648	3.6
461.005	3.42
461.361	3.38
461.717	3.34
462.073	3.46
462.429	3.41
462.785	3.35
463.141	3.47
463.496	3.42
463.852	3.58
464.208	3.52
464.564	3.46
464.919	3.63
465.275	3.37
465.631	3.59
465.986	3.6
466.342	3.52
466.697	3.47
467.052	3.48
467.408	3.48
467.763	3.5
468.118	3.52
468.473	3.49
468.829	3.58
469.184	3.52
469.539	3.64
469.894	3.59
470.249	3.66
470.603	3.24
470.958	3.53
471.313	3.75
471.668	3.74
472.023	3.49
472.377	3.58
472.732	3.6
473.086	3.33
473.441	3.72
473.795	3.45
474.15	3.5
474.504	3.64
474.859	3.64
475.213	3.7
475.567	3.64
475.921	3.64
476.275	3.56
476.63	3.73
476.984	3.8
477.338	3.65
477.692	3.52
478.045	3.54
478.399	3.56
478.753	3.51
479.107	3.56
479.461	3.64
479.814	3.48
480.168	3.66
480.521	3.64
480.875	3.63
481.228	3.57
481.582	3.6
481.935	3.67
482.289	3.54
482.642	3.6
482.995	3.45
483.348	3.49
483.701	3.54
484.055	3.58
484.408	3.61
484.761	3.4
485.114	3.38
485.466	3.31
485.819	3.32
486.172	3.33
486.525	3.46
486.878	3.45
487.23	3.44
487.583	3.53
487.936	3.54
488.288	3.52
488.641	3.45
488.993	3.4
489.345	3.41
489.698	3.41
490.05	3.44
490.402	3.52
490.754	3.53
491.107	3.53
491.459	3.53
491.811	3.59
492.163	3.64
492.515	3.59
492.866	3.52
493.218	3.47
493.57	3.47
493.922	3.51
494.274	3.52
494.625	3.61
494.977	3.71
495.328	3.78
495.68	3.62
496.031	3.59
496.383	3.73
496.734	3.74
497.086	3.7
497.437	3.82
497.788	3.59
498.139	3.76
498.49	3.63
498.842	3.57
499.193	3.65
499.544	3.76
499.894	3.7
500.245	3.71
500.596	3.81
500.947	3.86
501.298	3.75
501.648	3.7
501.999	3.87
502.35	3.79
502.7	3.81
503.051	3.83
503.401	3.84
503.752	3.76
504.102	3.79
504.452	3.77
504.803	3.72
505.153	3.79
505.503	3.8
505.853	3.74
506.203	3.84
506.553	3.65
506.903	3.81
507.253	3.8
507.603	3.76
507.953	3.9
508.303	3.71
508.652	3.91
509.002	3.88
509.352	3.8
509.701	3.87
510.051	3.8
510.4	3.73
510.75	3.74
511.099	3.7
511.449	3.85
511.798	3.82
512.147	3.78
512.496	3.7
512.846	4.02
513.195	3.78
513.544	3.94
513.893	3.79
514.242	3.9
514.591	3.94
514.939	3.88
515.288	3.84
515.637	3.95
515.986	3.93
516.334	3.79
516.683	3.89
517.032	4.03
517.38	3.93
517.729	4
518.077	3.96
518.426	3.94
518.774	3.98
519.122	4.03
519.47	3.92
519.819	3.92
520.167	3.9
520.515	3.87
520.863	4.02
521.211	3.87
521.559	3.93
521.907	4.02
522.255	3.95
522.602	3.95
522.95	4.07
523.298	4.01
523.645	4.13
523.993	4.08
524.341	4.07
524.688	4.08
525.036	4.11
525.383	4.05
525.73	4.04
526.078	4.03
526.425	4.03
526.772	4.06
527.119	3.92
527.466	3.96
527.814	4
528.161	4.04
528.508	4.06
528.854	4.01
529.201	4.07
529.548	3.91
529.895	3.88
530.242	3.84
530.588	3.87
530.935	3.86
531.282	3.93
531.628	4
531.975	4.03
532.321	4
532.667	4.11
533.014	4.13
533.36	4.07
533.706	4.22
534.052	4.12
534.399	4.11
534.745	4.06
535.091	4.01
535.437	4.07
535.783	4.07
536.129	4.09
536.474	4.12
536.82	4.15
537.166	4.19
537.512	4.28
537.857	4.21
538.203	4.12
538.549	4.24
538.894	4.2
539.239	4.25
539.585	4.23
539.93	4.32
540.276	4.48
540.621	4.4
540.966	4.38
541.311	4.25
541.656	4.35
542.001	4.29
542.346	4.25
542.691	4.16
543.036	4.09
543.381	4.17
543.726	4.15
544.071	4.23
544.415	4.32
544.76	4.35
545.105	4.29
545.449	4.29
545.794	4.42
546.138	4.34
546.483	4.42
546.827	4.49
547.171	4.51
547.516	4.41
547.86	4.3
548.204	4.46
548.548	4.52
548.892	4.53
549.236	4.54
549.58	4.63
549.924	4.58
550.268	4.64
550.612	4.64
550.956	4.88
551.3	4.63
551.643	4.46
551.987	4.77
552.33	4.75
552.674	4.59
553.017	4.81
553.361	4.73
553.704	4.75
554.048	4.69
554.391	4.75
554.734	4.68
555.077	4.8
555.42	4.75
555.764	4.92
556.107	4.79
556.45	4.86
556.793	4.87
557.135	4.89
557.478	4.87
557.821	5.07
558.164	4.83
558.507	4.94
558.849	4.77
559.192	4.91
559.534	4.96
559.877	4.96
560.219	4.99
560.562	4.94
560.904	4.9
561.246	4.75
561.589	5.19
561.931	4.96
562.273	5.19
562.615	4.94
562.957	4.97
563.299	5.16
563.641	4.85
563.983	5.02
564.325	5
564.667	5.17
565.008	5.16
565.35	5.05
565.692	5.06
566.033	4.93
566.375	5.2
566.716	5.11
567.058	5.06
567.399	5.28
567.741	5.09
568.082	5.19
568.423	5.12
568.764	5.29
569.105	5.09
569.447	5.37
569.788	5.12
570.129	5.4
570.47	5.28
570.811	5.32
571.151	5.48
571.492	5.44
571.833	5.2
572.174	5.44
572.514	5.53
572.855	5.42
573.195	5.23
573.536	5.35
573.876	5.36
574.217	5.37
574.557	5.49
574.898	5.41
575.238	5.44
575.578	5.51
575.918	5.42
576.258	5.47
576.598	5.5
576.938	5.57
577.278	5.53
577.618	5.55
577.958	5.54
578.298	5.73
578.638	5.69
578.977	5.76
579.317	5.65
579.657	5.92
579.996	5.68
580.336	5.69
580.675	5.74
581.014	5.96
581.354	5.69
581.693	5.83
582.032	5.72
582.372	5.83
582.711	5.87
583.05	5.85
583.389	5.95
583.728	5.87
584.067	6.07
584.406	5.79
584.745	6.06
585.083	5.95
585.422	5.91
585.761	6.13
586.1	5.93
586.438	5.94
586.777	6.03
587.115	6.01
587.454	6.04
587.792	6.12
588.13	6.22
588.469	6.29
588.807	6.29
589.145	6.26
589.483	6.3
589.821	6.24
590.159	6.2
590.497	6.36
590.835	6.29
591.173	6.35
591.511	6.18
591.849	6.15
592.187	6.27
592.524	6
592.862	6.2
593.2	6.33
593.537	6.6
593.875	6.49
594.212	6.01
594.55	6.37
594.887	6.45
595.224	6.41
595.561	6.39
595.899	6.22
596.236	6.49
596.573	6.39
596.91	6.64
597.247	6.52
597.584	6.56
597.921	6.72
598.258	6.44
598.594	6.64
598.931	6.38
599.268	6.54
599.604	6.57
599.941	6.7
600.277	6.71
600.614	6.62
600.95	6.62
601.287	6.96
601.623	6.91
601.959	7.17
602.296	6.51
602.632	6.77
602.968	6.97
603.304	6.75
603.64	6.92
603.976	7.1
604.312	7.01
604.648	6.88
604.984	6.92
605.319	6.95
605.655	6.91
605.991	7.08
606.326	7.15
606.662	6.95
606.998	7
607.333	7.04
607.668	7.03
608.004	7.28
608.339	7.25
608.674	7.27
609.01	7.22
609.345	7.24
609.68	7.06
610.015	7.44
610.35	7.26
610.685	7.24
611.02	7.16
611.355	7.12
611.689	7.27
612.024	7.21
612.359	7.35
612.694	7.24
613.028	7.38
613.363	7.49
613.697	7.61
614.032	7.52
614.366	7.4
614.7	7.45
615.035	7.52
615.369	7.41
615.703	7.55
616.037	7.82
616.371	7.75
616.705	7.86
617.039	8.08
617.373	7.72
617.707	7.73
618.041	7.87
618.375	7.56
618.709	7.94
619.042	7.81
619.376	7.76
619.71	7.79
620.043	7.89
620.377	8
620.71	7.94
621.043	7.9
621.377	7.94
621.71	8.06
622.043	8.12
622.376	8.25
622.709	8.15
623.043	7.94
623.376	8.26
623.709	8.34
624.041	8.35
624.374	8.09
624.707	8.68
625.04	8
625.373	7.87
625.705	8.24
626.038	8.44
626.37	8.32
626.703	8.36
627.035	8.52
627.368	8.29
627.7	8.34
628.032	8.45
628.365	8.44
628.697	8.31
629.029	8.34
629.361	8.42
629.693	8.35
630.025	8.41
630.357	8.27
630.689	8.43
631.021	8.57
631.353	8.89
631.684	8.38
632.016	8.4
632.348	8.57
632.679	8.53
633.011	8.91
633.342	8.85
633.674	8.67
634.005	8.7
634.336	8.65
634.668	8.99
634.999	8.97
635.33	8.55
635.661	9.14
635.992	8.92
636.323	8.97
636.654	9.13
636.985	8.72
637.316	8.67
637.647	9.28
637.977	9.07
638.308	8.94
638.639	9.07
638.969	8.73
639.3	9.36
639.63	9.11
639.961	9.06
640.291	9.61
640.622	9.44
640.952	9.31
641.282	9.23
641.612	8.99
641.943	9.62
642.273	9.21
642.603	9.27
642.933	10.05
643.263	9.49
643.592	9.39
643.922	9.75
644.252	9.34
644.582	9.52
644.911	9.66
645.241	9.64
645.571	9.41
645.9	9.6
646.23	10.09
646.559	9.97
646.888	9.76
647.218	9.12
647.547	9.54
647.876	9.8
648.205	9.77
648.534	10.07
648.863	9.52
649.192	9.71
649.521	9.95
649.85	9.82
650.179	9.75
650.508	9.91
650.837	10.13
651.165	9.87
651.494	10.23
651.822	9.87
652.151	9.5
652.479	9.89
652.808	9.73
653.136	9.72
653.465	10.57
653.793	10.07
654.121	10.22
654.449	9.68
654.777	10.59
655.105	10.36
655.433	10.07
655.761	10.39
656.089	10.5
656.417	9.93
656.745	10.65
657.073	10.48
657.4	10.39
657.728	10.9
658.056	10.74
658.383	10.16
658.711	9.95
659.038	10.11
659.365	10.65
659.693	10.67
660.02	11.13
660.347	11.24
660.674	10.37
661.001	10.73
661.329	10.62
661.656	10.6
661.982	10.75
662.309	10.67
662.636	11.11
662.963	10.85
663.29	10.68
663.616	10.26
663.943	11.21
664.27	10.7
664.596	11.13
664.923	11.07
665.249	11.31
665.576	11.53
665.902	11.09
666.228	11
666.554	10.71
666.881	10.76
667.207	10.83
667.533	11.76
667.859	11.57
668.185	11.4
668.511	10.81
668.837	11.4
669.162	12.07
669.488	11.7
669.814	11.22
670.139	11.46
670.465	11.32
670.791	11.17
671.116	11.79
671.442	11.59
671.767	11.54
672.092	10.88
672.418	11.79
672.743	11.19
673.068	12.12
673.393	12.5
673.718	11.58
674.043	11.46
674.368	11.27
674.693	11.06
675.018	11.47
675.343	11.69
675.667	12.12
675.992	12.08
676.317	11.88
676.641	11.12
676.966	12.47
677.29	11.75
677.615	11.23
677.939	11.82
678.264	12.62
678.588	11.82
678.912	12.08
679.236	12.49
679.56	11.72
679.885	11.95
680.209	12.01
680.532	12.19
680.856	12.69
681.18	12.45
681.504	11.93
681.828	12.36
682.152	12
682.475	12.38
682.799	12.1
683.122	12.56
683.446	12.74
683.769	12.42
684.093	12.75
684.416	12.79
684.739	12.88
685.062	12.44
685.386	12.82
685.709	12.63
686.032	12.09
686.355	12.17
686.678	13.39
687.001	12.3
687.324	12.24
687.646	11.9
687.969	12.76
688.292	13.13
688.614	12.79
688.937	13.11
689.26	12.06
689.582	13.58
689.904	13.08
690.227	12.34
690.549	13.28
