Data from 20-4_chest_Reflection__3__78.txt Node

Date: Fri Nov 11 20:46:24 CST 2022
User: ToomeyLab
Spectrometer: FLMS14357
Trigger mode: 0
Integration Time (sec): 1.000000E-2
Scans to average: 100
Electric dark correction enabled: true
Nonlinearity correction enabled: false
Boxcar width: 0
XAxis mode: Wavelengths
Number of Pixels in Spectrum: 2048
>>>>>Begin Spectral Data<<<<<
189.047	-303.56
189.435	-303.56
189.823	-303.56
190.211	204.63
190.599	-16.68
190.987	50.7
191.375	33.4
191.763	-162.02
192.151	-565.45
192.538	-25.88
192.926	-3.89
193.314	113.24
193.702	75.97
194.089	59.22
194.477	60.4
194.864	-6.12
195.252	516.17
195.639	87.14
196.027	-29.73
196.414	67.69
196.801	513.56
197.189	623.4
197.576	-380.12
197.963	107.18
198.351	-48.75
198.738	-23.22
199.125	5.18
199.512	21.7
199.899	-62.33
200.286	5.56
200.673	-5.98
201.06	12.14
201.447	13.14
201.833	28.98
202.22	-54.36
202.607	-27.53
202.994	12.3
203.38	33.91
203.767	9.71
204.154	8.64
204.54	9.49
204.927	16.63
205.313	-30.92
205.699	-1.29
206.086	19.41
206.472	-14.3
206.858	5.45
207.245	8.91
207.631	-35.08
208.017	-7.5
208.403	-20.69
208.789	6.07
209.175	-4.88
209.561	24.22
209.947	-27.87
210.333	-22.34
210.719	-15.07
211.105	35.02
211.491	-1.29
211.876	-37.02
212.262	-3.27
212.648	12.51
213.034	-30.13
213.419	-34.84
213.805	-17.77
214.19	-4.95
214.576	1.64
214.961	-76.36
215.346	-41.29
215.732	-3.48
216.117	35.02
216.502	-7.27
216.888	38.41
217.273	8.44
217.658	-40.8
218.043	-0.72
218.428	-5.98
218.813	-0.59
219.198	-8.56
219.583	20.13
219.968	6.18
220.353	-24.2
220.738	-12.24
221.122	0.52
221.507	-15.16
221.892	-17.44
222.276	11.48
222.661	17.06
223.046	-16.97
223.43	-0.54
223.815	3.71
224.199	6.29
224.583	-6.3
224.968	-9.13
225.352	2.07
225.736	-2.03
226.121	4.71
226.505	-1.73
226.889	-5.44
227.273	2.19
227.657	-7.85
228.041	-4.97
228.425	-1.84
228.809	-0.11
229.193	4.57
229.577	3.18
229.961	2.32
230.344	2.24
230.728	0.5
231.112	-0.25
231.495	1.91
231.879	-0.09
232.263	0.21
232.646	-0.46
233.03	1.25
233.413	0.97
233.797	-0.29
234.18	-3.3
234.563	0.3
234.946	-0.82
235.33	2.45
235.713	0.32
236.096	0.68
236.479	0.86
236.862	2.66
237.245	-0.59
237.628	1.02
238.011	0.65
238.394	1.55
238.777	1.36
239.16	1.76
239.543	-1.88
239.925	1.38
240.308	-0.4
240.691	2.31
241.073	1.26
241.456	0.3
241.838	2.48
242.221	1.04
242.603	1.87
242.986	1.39
243.368	1
243.75	1.21
244.133	1.57
244.515	0.93
244.897	1.7
245.279	1.14
245.661	1.05
246.043	1.3
246.425	1.62
246.807	1.23
247.189	0.88
247.571	1.38
247.953	1.51
248.335	1.58
248.717	1.45
249.098	1.47
249.48	1.09
249.862	1.73
250.243	0.93
250.625	1.03
251.006	1.9
251.388	1.37
251.769	1.56
252.151	2.64
252.532	0.97
252.913	1.61
253.295	1.2
253.676	0.74
254.057	1.25
254.438	1.39
254.819	0.68
255.2	1.31
255.581	0.49
255.962	0.87
256.343	0.53
256.724	0.75
257.105	1.76
257.486	0.71
257.867	2.06
258.247	0.6
258.628	0.43
259.009	1.27
259.389	0.6
259.77	1.93
260.15	1.35
260.531	1.63
260.911	1.37
261.292	1.4
261.672	1.12
262.052	1.28
262.432	1.42
262.813	1.06
263.193	1.29
263.573	1.02
263.953	1.71
264.333	1.09
264.713	1.45
265.093	1.17
265.473	0.62
265.853	1.47
266.233	1.26
266.612	0.5
266.992	0.81
267.372	2.22
267.752	0.87
268.131	1.07
268.511	1.23
268.89	1.27
269.27	1.18
269.649	0.67
270.029	1.34
270.408	1.22
270.787	1.01
271.167	0.84
271.546	1.28
271.925	0.98
272.304	1.49
272.683	1.28
273.062	1.01
273.441	1.31
273.82	1.24
274.199	1.21
274.578	1.08
274.957	1.57
275.336	1.33
275.715	1.48
276.093	1.24
276.472	0.75
276.851	1.08
277.229	0.98
277.608	1.23
277.986	1.22
278.365	0.92
278.743	1.42
279.122	1.33
279.5	1
279.878	1.16
280.257	1.43
280.635	0.79
281.013	1.61
281.391	1.12
281.769	0.69
282.147	0.91
282.525	0.59
282.903	1.01
283.281	1
283.659	1.33
284.037	1.4
284.415	0.99
284.792	1.23
285.17	1.6
285.548	0.8
285.925	0.48
286.303	1
286.68	1.25
287.058	1.13
287.435	1.34
287.813	1.29
288.19	1.21
288.567	1.11
288.945	1.1
289.322	1.26
289.699	0.81
290.076	1.27
290.453	1.37
290.83	1.02
291.207	0.99
291.584	1.4
291.961	1.02
292.338	1.5
292.715	1.39
293.092	1.48
293.469	1.06
293.845	1.21
294.222	0.92
294.599	1.33
294.975	1.53
295.352	1.35
295.728	1.17
296.105	1.13
296.481	0.89
296.858	0.85
297.234	1.42
297.61	0.78
297.986	1.49
298.363	1.36
298.739	1.47
299.115	1.37
299.491	1.61
299.867	1.46
300.243	1.17
300.619	1.4
300.995	1.55
301.371	1.8
301.746	1.72
302.122	1.58
302.498	1.43
302.874	1.16
303.249	1.59
303.625	1.29
304	0.65
304.376	1.43
304.751	0.95
305.127	1.5
305.502	1.31
305.878	1.68
306.253	1.14
306.628	1.34
307.003	1.68
307.378	0.92
307.754	1.45
308.129	1.42
308.504	2.26
308.879	1.66
309.254	1.56
309.629	1.42
310.003	1.27
310.378	1.92
310.753	1.5
311.128	1.9
311.502	1.57
311.877	1.16
312.252	1.85
312.626	1.19
313.001	1.23
313.375	1.57
313.75	1.43
314.124	1.29
314.498	1.62
314.873	1.48
315.247	2.17
315.621	1.82
315.995	1.68
316.369	1.78
316.743	1.32
317.117	1.85
317.491	1.72
317.865	1.2
318.239	1.68
318.613	1.56
318.987	1.67
319.361	0.99
319.734	1.78
320.108	1.69
320.482	1.94
320.855	1.32
321.229	1.31
321.602	1.38
321.976	1.61
322.349	1.61
322.723	1.56
323.096	1.26
323.469	1.87
323.843	2.05
324.216	1.41
324.589	1.97
324.962	2.08
325.335	1.28
325.708	1.13
326.081	1.66
326.454	1.99
326.827	1.52
327.2	1.89
327.573	2.55
327.945	2.09
328.318	1.79
328.691	1.79
329.063	2
329.436	1.43
329.809	1.66
330.181	1.17
330.553	1.1
330.926	1.91
331.298	1.59
331.671	2.11
332.043	1.44
332.415	1.6
332.787	1.93
333.159	1.54
333.532	2.13
333.904	1.9
334.276	1.81
334.648	1.63
335.02	1.44
335.391	2.3
335.763	1.68
336.135	1.69
336.507	1.77
336.879	1.74
337.25	1.5
337.622	1.92
337.993	1.98
338.365	1.92
338.736	1.82
339.108	1.85
339.479	1.13
339.851	1.54
340.222	1.77
340.593	1.88
340.964	1.93
341.336	2.01
341.707	1.99
342.078	1.52
342.449	2.01
342.82	1.84
343.191	2.09
343.562	1.85
343.933	1.94
344.303	1.64
344.674	1.92
345.045	1.63
345.416	1.68
345.786	1.63
346.157	1.47
346.527	1.48
346.898	1.14
347.268	1.61
347.639	1.84
348.009	1.62
348.38	1.84
348.75	1.59
349.12	2.29
349.49	1.93
349.861	1.58
350.231	1.68
350.601	1.86
350.971	1.75
351.341	2.12
351.711	1.83
352.081	2.03
352.45	2.14
352.82	1.88
353.19	1.95
353.56	1.82
353.929	2.04
354.299	1.51
354.669	1.67
355.038	1.66
355.408	1.62
355.777	1.83
356.147	1.87
356.516	2.03
356.885	2.16
357.254	1.66
357.624	1.26
357.993	1.89
358.362	1.81
358.731	1.63
359.1	1.49
359.469	1.3
359.838	1.25
360.207	2.07
360.576	1.74
360.945	1.99
361.314	1.44
361.682	1.79
362.051	1.63
362.42	2.04
362.788	2.23
363.157	1.79
363.525	1.56
363.894	1.74
364.262	1.96
364.631	1.89
364.999	1.85
365.367	1.83
365.735	1.93
366.104	1.71
366.472	1.86
366.84	1.07
367.208	1.81
367.576	1.93
367.944	1.62
368.312	1.73
368.68	1.62
369.048	1.85
369.416	1.96
369.783	1.83
370.151	2.21
370.519	1.72
370.886	1.83
371.254	2.27
371.621	1.66
371.989	1.69
372.356	1.98
372.724	2.17
373.091	1.88
373.458	1.85
373.826	1.74
374.193	1.69
374.56	1.78
374.927	1.64
375.294	2.15
375.661	2.35
376.028	1.66
376.395	1.91
376.762	1.94
377.129	1.69
377.496	1.86
377.863	1.64
378.229	1.55
378.596	1.83
378.963	1.78
379.329	1.94
379.696	1.84
380.062	1.96
380.429	2.09
380.795	2.11
381.161	2.01
381.528	1.8
381.894	2
382.26	1.98
382.626	2.17
382.993	1.69
383.359	2.11
383.725	1.86
384.091	1.82
384.457	1.85
384.823	1.91
385.188	1.7
385.554	2.04
385.92	1.68
386.286	1.76
386.651	1.95
387.017	1.83
387.383	1.81
387.748	1.9
388.114	1.71
388.479	1.82
388.845	1.83
389.21	1.68
389.575	1.92
389.94	1.76
390.306	1.76
390.671	1.83
391.036	2.17
391.401	1.8
391.766	1.85
392.131	1.89
392.496	2.06
392.861	1.72
393.226	1.88
393.591	1.78
393.956	2.12
394.32	1.76
394.685	1.94
395.05	2.22
395.414	2.12
395.779	2
396.143	1.79
396.508	2.04
396.872	1.99
397.236	1.82
397.601	1.87
397.965	1.92
398.329	1.81
398.694	1.91
399.058	2.15
399.422	1.92
399.786	1.89
400.15	1.97
400.514	2.13
400.878	1.99
401.242	1.64
401.605	2.13
401.969	1.93
402.333	1.63
402.697	1.87
403.06	2.17
403.424	1.88
403.787	1.96
404.151	1.82
404.514	2.08
404.878	2.1
405.241	1.89
405.604	1.82
405.968	2.23
406.331	1.89
406.694	1.89
407.057	2.09
407.42	1.86
407.783	1.98
408.146	2.02
408.509	2.08
408.872	2.01
409.235	2.14
409.598	2.01
409.961	2.24
410.323	1.96
410.686	1.92
411.049	1.97
411.411	2.21
411.774	2.02
412.136	1.92
412.499	1.96
412.861	2.13
413.223	1.84
413.586	2.08
413.948	2.35
414.31	2.04
414.672	2.09
415.035	2.14
415.397	1.86
415.759	2.09
416.121	2.13
416.483	1.96
416.845	2.1
417.206	1.91
417.568	2.04
417.93	2.04
418.292	1.86
418.653	2.16
419.015	2.07
419.377	2.13
419.738	2.13
420.1	2.02
420.461	2.03
420.822	1.91
421.184	1.95
421.545	1.94
421.906	1.99
422.267	1.97
422.629	1.93
422.99	1.94
423.351	1.95
423.712	1.99
424.073	2.06
424.434	2.14
424.795	2.11
425.155	1.92
425.516	2.01
425.877	2.06
426.238	1.87
426.598	1.98
426.959	1.96
427.32	2.05
427.68	2.1
428.041	2.15
428.401	1.96
428.761	2.17
429.122	1.86
429.482	1.92
429.842	2.2
430.202	2
430.563	2.13
430.923	2.19
431.283	2.03
431.643	1.99
432.003	2.37
432.363	2.1
432.722	2.33
433.082	2.09
433.442	2.18
433.802	2.21
434.161	2.18
434.521	2.18
434.881	2.21
435.24	2.04
435.6	2.01
435.959	2.15
436.319	2.04
436.678	2.15
437.037	2.09
437.396	2.12
437.756	2.06
438.115	2.18
438.474	2.06
438.833	2.11
439.192	2.14
439.551	2.12
439.91	2.15
440.269	2.12
440.628	2.19
440.987	2.07
441.345	2.06
441.704	2.09
442.063	2.07
442.421	2.05
442.78	2.05
443.138	2.21
443.497	2.09
443.855	2.13
444.214	2.08
444.572	2.21
444.93	2.21
445.288	2.1
445.647	2.25
446.005	2.18
446.363	2.11
446.721	2.2
447.079	2.15
447.437	2.06
447.795	2.21
448.153	2.07
448.51	2.13
448.868	2.22
449.226	2.21
449.584	2.06
449.941	2.11
450.299	1.98
450.656	2.23
451.014	2.21
451.371	2.19
451.729	2.17
452.086	2.24
452.443	2.05
452.801	2.34
453.158	2.08
453.515	2.17
453.872	2.06
454.229	2.18
454.586	2.23
454.943	2.26
455.3	2.15
455.657	2.26
456.014	2.27
456.371	2.11
456.727	2.23
457.084	1.91
457.441	2.37
457.797	2.23
458.154	2.19
458.51	2.25
458.867	2.16
459.223	2.33
459.58	2.12
459.936	2.23
460.292	2.21
460.648	2.21
461.005	2.16
461.361	2.08
461.717	2.08
462.073	2.17
462.429	2.13
462.785	2.17
463.141	2.11
463.496	2.22
463.852	2.45
464.208	2.23
464.564	2.22
464.919	2.16
465.275	2.09
465.631	2.3
465.986	2.36
466.342	2.2
466.697	2.03
467.052	2.16
467.408	2.2
467.763	2.17
468.118	2.22
468.473	2.26
468.829	2.19
469.184	2.19
469.539	2.3
469.894	2.4
470.249	2.3
470.603	2.1
470.958	2.19
471.313	2.33
471.668	2.3
472.023	2.19
472.377	2.32
472.732	2.22
473.086	2.2
473.441	2.14
473.795	2.13
474.15	2.16
474.504	2.42
474.859	2.31
475.213	2.37
475.567	2.34
475.921	2.23
476.275	2.38
476.63	2.24
476.984	2.51
477.338	2.23
477.692	2.15
478.045	2.23
478.399	2.35
478.753	2.19
479.107	2.35
479.461	2.29
479.814	2.23
480.168	2.23
480.521	2.46
480.875	2.42
481.228	2.28
481.582	2.35
481.935	2.26
482.289	2.25
482.642	2.31
482.995	2.27
483.348	2.25
483.701	2.29
484.055	2.17
484.408	2.2
484.761	2.13
485.114	2.11
485.466	2.06
485.819	2.1
486.172	2.11
486.525	2.2
486.878	2.21
487.23	2.14
487.583	2.24
487.936	2.23
488.288	2.25
488.641	2.18
488.993	2.22
489.345	2.14
489.698	2.19
490.05	2.12
490.402	2.16
490.754	2.2
491.107	2.23
491.459	2.25
491.811	2.29
492.163	2.36
492.515	2.32
492.866	2.27
493.218	2.17
493.57	2.19
493.922	2.19
494.274	2.26
494.625	2.24
494.977	2.37
495.328	2.34
495.68	2.37
496.031	2.31
496.383	2.38
496.734	2.38
497.086	2.48
497.437	2.45
497.788	2.39
498.139	2.29
498.49	2.31
498.842	2.2
499.193	2.31
499.544	2.41
499.894	2.35
500.245	2.42
500.596	2.45
500.947	2.46
501.298	2.47
501.648	2.39
501.999	2.45
502.35	2.47
502.7	2.44
503.051	2.38
503.401	2.37
503.752	2.31
504.102	2.38
504.452	2.45
504.803	2.21
505.153	2.37
505.503	2.43
505.853	2.39
506.203	2.46
506.553	2.31
506.903	2.35
507.253	2.39
507.603	2.44
507.953	2.32
508.303	2.32
508.652	2.54
509.002	2.38
509.352	2.45
509.701	2.5
510.051	2.35
510.4	2.4
510.75	2.37
511.099	2.28
511.449	2.4
511.798	2.42
512.147	2.37
512.496	2.36
512.846	2.49
513.195	2.41
513.544	2.38
513.893	2.33
514.242	2.45
514.591	2.4
514.939	2.47
515.288	2.49
515.637	2.57
515.986	2.41
516.334	2.46
516.683	2.43
517.032	2.5
517.38	2.49
517.729	2.43
518.077	2.45
518.426	2.59
518.774	2.55
519.122	2.53
519.47	2.52
519.819	2.48
520.167	2.46
520.515	2.43
520.863	2.47
521.211	2.45
521.559	2.43
521.907	2.6
522.255	2.46
522.602	2.53
522.95	2.42
523.298	2.49
523.645	2.53
523.993	2.52
524.341	2.6
524.688	2.66
525.036	2.55
525.383	2.57
525.73	2.56
526.078	2.41
526.425	2.48
526.772	2.51
527.119	2.4
527.466	2.55
527.814	2.47
528.161	2.55
528.508	2.45
528.854	2.48
529.201	2.52
529.548	2.48
529.895	2.41
530.242	2.36
530.588	2.4
530.935	2.41
531.282	2.49
531.628	2.48
531.975	2.51
532.321	2.51
532.667	2.55
533.014	2.56
533.36	2.56
533.706	2.62
534.052	2.55
534.399	2.48
534.745	2.48
535.091	2.54
535.437	2.5
535.783	2.55
536.129	2.59
536.474	2.65
536.82	2.55
537.166	2.58
537.512	2.61
537.857	2.58
538.203	2.55
538.549	2.69
538.894	2.61
539.239	2.6
539.585	2.71
539.93	2.72
540.276	2.69
540.621	2.76
540.966	2.71
541.311	2.73
541.656	2.69
542.001	2.63
542.346	2.65
542.691	2.59
543.036	2.55
543.381	2.57
543.726	2.57
544.071	2.61
544.415	2.71
544.76	2.62
545.105	2.61
545.449	2.61
545.794	2.73
546.138	2.68
546.483	2.74
546.827	2.74
547.171	2.78
547.516	2.69
547.86	2.72
548.204	2.79
548.548	2.71
548.892	2.8
549.236	2.74
549.58	2.77
549.924	2.9
550.268	2.84
550.612	2.89
550.956	2.93
551.3	2.84
551.643	2.9
551.987	2.87
552.33	2.8
552.674	2.88
553.017	2.9
553.361	2.85
553.704	2.84
554.048	2.92
554.391	3.01
554.734	2.89
555.077	3.13
555.42	2.88
555.764	2.96
556.107	3
556.45	2.97
556.793	2.86
557.135	2.85
557.478	2.94
557.821	3.02
558.164	2.98
558.507	2.99
558.849	2.93
559.192	3.05
559.534	3
559.877	3.09
560.219	3.15
560.562	3.02
560.904	3.19
561.246	2.89
561.589	2.98
561.931	3.04
562.273	3.02
562.615	2.99
562.957	3.06
563.299	3
563.641	3.1
563.983	2.89
564.325	2.99
564.667	3.15
565.008	3.09
565.35	3.14
565.692	2.83
566.033	2.99
566.375	3.3
566.716	3.15
567.058	3.22
567.399	3.17
567.741	3.09
568.082	3.06
568.423	3.08
568.764	3.22
569.105	3.11
569.447	3.31
569.788	3.18
570.129	3
570.47	3.14
570.811	3.18
571.151	3.32
571.492	3.22
571.833	3.09
572.174	3.06
572.514	3.27
572.855	3.36
573.195	3
573.536	3.12
573.876	3.1
574.217	3.25
574.557	3.31
574.898	3.31
575.238	3.33
575.578	3.3
575.918	3.42
576.258	3.33
576.598	3.23
576.938	3.36
577.278	3.24
577.618	3.28
577.958	3.22
578.298	3.21
578.638	3.34
578.977	3.4
579.317	3.26
579.657	3.38
579.996	3.42
580.336	3.34
580.675	3.6
581.014	3.46
581.354	3.16
581.693	3.33
582.032	3.44
582.372	3.43
582.711	3.52
583.05	3.42
583.389	3.51
583.728	3.42
584.067	3.36
584.406	3.61
584.745	3.6
585.083	3.58
585.422	3.41
585.761	3.61
586.1	3.53
586.438	3.62
586.777	3.62
587.115	3.52
587.454	3.57
587.792	3.65
588.13	3.61
588.469	3.56
588.807	3.7
589.145	3.62
589.483	3.75
589.821	3.6
590.159	3.59
590.497	3.74
590.835	3.67
591.173	3.65
591.511	3.44
591.849	3.51
592.187	3.61
592.524	3.62
592.862	3.42
593.2	3.8
593.537	3.79
593.875	3.98
594.212	3.69
594.55	3.81
594.887	3.8
595.224	3.75
595.561	3.75
595.899	3.44
596.236	3.74
596.573	3.73
596.91	3.75
597.247	3.87
597.584	3.74
597.921	3.97
598.258	3.7
598.594	3.69
598.931	3.64
599.268	3.89
599.604	3.74
599.941	3.89
600.277	3.94
600.614	4.18
600.95	3.68
601.287	3.9
601.623	4.24
601.959	4.09
602.296	3.81
602.632	3.8
602.968	3.74
603.304	3.95
603.64	4.18
603.976	4.21
604.312	3.88
604.648	3.92
604.984	3.89
605.319	3.99
605.655	4.01
605.991	3.96
606.326	4.22
606.662	4.01
606.998	3.96
607.333	4.1
607.668	3.81
608.004	4.08
608.339	4.17
608.674	4.22
609.01	4.16
609.345	4.03
609.68	4.03
610.015	4.15
610.35	3.94
610.685	4.25
611.02	3.95
611.355	4.05
611.689	3.92
612.024	4.11
612.359	3.96
612.694	4.21
613.028	4.02
613.363	4.21
613.697	4.42
614.032	4.14
614.366	4.19
614.7	3.85
615.035	4.23
615.369	3.86
615.703	4.23
616.037	4.44
616.371	4.27
616.705	4.3
617.039	4.39
617.373	4.22
617.707	4.41
618.041	4.77
618.375	4.07
618.709	4.66
619.042	4.39
619.376	4.55
619.71	4.56
620.043	4.4
620.377	4.41
620.71	4.35
621.043	4.5
621.377	4.14
621.71	4.53
622.043	4.56
622.376	4.72
622.709	4.35
623.043	4.29
623.376	4.78
623.709	4.71
624.041	4.73
624.374	4.13
624.707	4.72
625.04	4.54
625.373	4.46
625.705	4.8
626.038	4.42
626.37	4.98
626.703	4.59
627.035	4.75
627.368	4.51
627.7	4.58
628.032	4.7
628.365	4.85
628.697	4.74
629.029	4.75
629.361	4.5
629.693	4.57
630.025	4.6
630.357	4.85
630.689	4.67
631.021	4.65
631.353	4.84
631.684	4.69
632.016	4.93
632.348	4.81
632.679	4.48
633.011	4.81
633.342	4.88
633.674	4.72
634.005	4.61
634.336	4.97
634.668	4.81
634.999	4.88
635.33	5.02
635.661	5.23
635.992	4.96
636.323	4.8
636.654	4.97
636.985	4.79
637.316	5.03
637.647	5.22
637.977	4.98
638.308	5.1
638.639	5.17
638.969	4.64
639.3	5.13
639.63	5.01
639.961	5.12
640.291	5.63
640.622	5.12
640.952	4.87
641.282	4.98
641.612	4.88
641.943	5.57
642.273	4.99
642.603	5.35
642.933	5.34
643.263	5.04
643.592	5.52
643.922	5.06
644.252	5.62
644.582	5.37
644.911	4.76
645.241	5.26
645.571	5.17
645.9	5.6
646.23	5.34
646.559	5.38
646.888	5.21
647.218	5.4
647.547	5
647.876	5.41
648.205	5.37
648.534	5.34
648.863	5.27
649.192	4.82
649.521	5.13
649.85	5.53
650.179	5.44
650.508	5.49
650.837	5.48
651.165	5.53
651.494	5.83
651.822	5.28
652.151	5.17
652.479	5.28
652.808	5.09
653.136	4.92
653.465	5.74
653.793	5.58
654.121	5.73
654.449	5.11
654.777	6.06
655.105	5.52
655.433	5.54
655.761	5.55
656.089	5.41
656.417	4.89
656.745	5.46
657.073	5.74
657.4	5.87
657.728	5.71
658.056	6.12
658.383	5.57
658.711	5.68
659.038	5.71
659.365	5.35
659.693	5.71
660.02	6.64
660.347	5.54
660.674	5.84
661.001	5.55
661.329	5.66
661.656	5.9
661.982	6.03
662.309	5.74
662.636	6.08
662.963	5.77
663.29	6.03
663.616	5.31
663.943	5.75
664.27	6.28
664.596	6.37
664.923	5.76
665.249	5.93
665.576	5.93
665.902	6.1
666.228	6.05
666.554	5.51
666.881	6.04
667.207	6.42
667.533	6.27
667.859	6.46
668.185	5.77
668.511	5.78
668.837	6.66
669.162	6.54
669.488	6.18
669.814	5.81
670.139	5.93
670.465	5.68
670.791	5.79
671.116	6.16
671.442	6.37
671.767	6.36
672.092	5.99
672.418	6.03
672.743	5.92
673.068	5.87
673.393	6.57
673.718	6.86
674.043	6.38
674.368	6.38
674.693	5.7
675.018	5.82
675.343	6.64
675.667	6.72
675.992	6.64
676.317	6.12
676.641	5.49
676.966	6.22
677.29	6.43
677.615	6.3
677.939	6.34
678.264	6.82
678.588	6.38
678.912	6.11
679.236	6.73
679.56	7.08
679.885	5.83
680.209	6.04
680.532	6.65
680.856	7.31
681.18	6.98
681.504	6.21
681.828	7.21
682.152	6.63
682.475	6.65
682.799	6.39
683.122	6.38
683.446	7.15
683.769	6.38
684.093	6.66
684.416	6.49
684.739	7.47
685.062	6.34
685.386	7.22
685.709	7.07
686.032	6.58
686.355	7.04
686.678	6.46
687.001	6.69
687.324	7.09
687.646	6.26
687.969	7.05
688.292	7.21
688.614	6.13
688.937	6.86
689.26	5.95
689.582	6.75
689.904	7.25
690.227	6.41
690.549	6.88
690.871	6.84
691.194	6.97
691.516	6.73
691.838	7.1
692.16	6.88
