Data from 20-4_forehead_Reflection__4__89.txt Node

Date: Fri Nov 11 20:49:17 CST 2022
User: ToomeyLab
Spectrometer: FLMS14357
Trigger mode: 0
Integration Time (sec): 1.000000E-2
Scans to average: 100
Electric dark correction enabled: true
Nonlinearity correction enabled: false
Boxcar width: 0
XAxis mode: Wavelengths
Number of Pixels in Spectrum: 2048
>>>>>Begin Spectral Data<<<<<
189.047	94.35
189.435	94.35
189.823	94.35
190.211	-73.17
190.599	59.4
190.987	129.3
191.375	-145.05
191.763	315.19
192.151	-57.58
192.538	48.1
192.926	25.31
193.314	72.05
193.702	-801.83
194.089	41.9
194.477	70.29
194.864	74.66
195.252	503.08
195.639	273.23
196.027	-30.87
196.414	43.27
196.801	202.14
197.189	843.53
197.576	-596.6
197.963	85.86
198.351	-18.32
198.738	9.67
199.125	-2.92
199.512	-17.59
199.899	-127.01
200.286	4.03
200.673	-18.13
201.06	50.63
201.447	2.64
201.833	33.96
202.22	-57.65
202.607	70.66
202.994	23.43
203.38	4.62
203.767	18.82
204.154	41.75
204.54	-4.3
204.927	-8.71
205.313	33.74
205.699	-25.23
206.086	29.35
206.472	53.19
206.858	29.38
207.245	38.41
207.631	-20.9
208.017	17.06
208.403	13.87
208.789	13.36
209.175	10.02
209.561	24.47
209.947	27.34
210.333	-20.39
210.719	20.12
211.105	21.93
211.491	0.66
211.876	-5.64
212.262	22.82
212.648	-13.71
213.034	-5.92
213.419	1.18
213.805	16.92
214.19	-27.08
214.576	-7.88
214.961	-107.07
215.346	-16.56
215.732	-18.35
216.117	32.51
216.502	3.84
216.888	-9.8
217.273	-0
217.658	-49.34
218.043	-18.85
218.428	-5.64
218.813	2.8
219.198	14.59
219.583	6.24
219.968	-3.88
220.353	-17.35
220.738	-10.3
221.122	2.7
221.507	-19.1
221.892	16.96
222.276	8.73
222.661	20.84
223.046	-20.51
223.43	-5.24
223.815	9
224.199	-1.62
224.583	-2.04
224.968	-18.82
225.352	-1.06
225.736	-1.21
226.121	6.08
226.505	-0
226.889	-7.37
227.273	1.19
227.657	-2.64
228.041	0.62
228.425	-1.24
228.809	1.52
229.193	4.45
229.577	3.07
229.961	2.42
230.344	2.83
230.728	1.28
231.112	1.88
231.495	1.17
231.879	1.21
232.263	1.93
232.646	2.4
233.03	1.73
233.413	1.87
233.797	-0.22
234.18	1.29
234.563	2.51
234.946	0.61
235.33	2.21
235.713	2.34
236.096	1.64
236.479	1.44
236.862	3.25
237.245	0.93
237.628	3.31
238.011	1.99
238.394	2.75
238.777	3.82
239.16	3.48
239.543	-0.2
239.925	3.06
240.308	2.13
240.691	4.42
241.073	3
241.456	1.92
241.838	3.77
242.221	2.4
242.603	3.07
242.986	2.22
243.368	2.45
243.75	2.61
244.133	2.84
244.515	2.63
244.897	3.06
245.279	3.09
245.661	3.06
246.043	2.61
246.425	3.65
246.807	3.35
247.189	2.71
247.571	2.9
247.953	2.79
248.335	3.16
248.717	3.01
249.098	3.25
249.48	2.9
249.862	3.39
250.243	2.63
250.625	2.84
251.006	3.81
251.388	2.68
251.769	2.87
252.151	2.81
252.532	3.01
252.913	3.54
253.295	3.28
253.676	2.16
254.057	2.88
254.438	3.34
254.819	2.77
255.2	4.22
255.581	2.62
255.962	3.4
256.343	3.34
256.724	2.4
257.105	2.41
257.486	3.08
257.867	3.42
258.247	1.51
258.628	2.16
259.009	2.28
259.389	2.7
259.77	3.95
260.15	2.76
260.531	3.13
260.911	2.83
261.292	3.15
261.672	2.89
262.052	2.98
262.432	3.21
262.813	3.06
263.193	2.47
263.573	2.64
263.953	3.27
264.333	2.97
264.713	3.07
265.093	3.4
265.473	2.03
265.853	2.91
266.233	2.82
266.612	2.98
266.992	2.97
267.372	3.89
267.752	2.31
268.131	2.73
268.511	2.79
268.89	2.94
269.27	3.05
269.649	2.68
270.029	3.12
270.408	2.63
270.787	2.91
271.167	1.96
271.546	3.56
271.925	2.79
272.304	2.79
272.683	2.77
273.062	2.56
273.441	3.08
273.82	3.04
274.199	2.44
274.578	2.92
274.957	3.27
275.336	2.87
275.715	3.24
276.093	2.53
276.472	2.46
276.851	2.39
277.229	2.4
277.608	2.89
277.986	3.1
278.365	2.55
278.743	2.47
279.122	3.01
279.5	3.24
279.878	3.19
280.257	3.04
280.635	3.38
281.013	2.45
281.391	2.63
281.769	2.55
282.147	2.68
282.525	2.64
282.903	2.32
283.281	3.09
283.659	2.8
284.037	3.23
284.415	2.47
284.792	2.99
285.17	3.04
285.548	2.92
285.925	2.16
286.303	2.66
286.68	3.06
287.058	3.09
287.435	2.81
287.813	3.06
288.19	2.88
288.567	2.73
288.945	3.09
289.322	3.63
289.699	2.51
290.076	3.53
290.453	3
290.83	2.68
291.207	3.02
291.584	3.26
291.961	3.23
292.338	3.31
292.715	3.44
293.092	3.6
293.469	3.13
293.845	3.52
294.222	2.92
294.599	3.4
294.975	3.02
295.352	3.5
295.728	3.47
296.105	3.52
296.481	3.01
296.858	3.09
297.234	3.59
297.61	3.06
297.986	3.66
298.363	3.61
298.739	3.55
299.115	3.93
299.491	3.82
299.867	3.46
300.243	3.88
300.619	3.97
300.995	3.85
301.371	4.3
301.746	4.18
302.122	4.18
302.498	3.77
302.874	3.85
303.249	4.18
303.625	3.82
304	3.5
304.376	4.11
304.751	3.57
305.127	3.79
305.502	4.4
305.878	4.69
306.253	4.67
306.628	4.6
307.003	4.82
307.378	4.37
307.754	4.7
308.129	4.78
308.504	4.16
308.879	4.54
309.254	4.64
309.629	4.46
310.003	4.61
310.378	4.98
310.753	4.93
311.128	4.91
311.502	4.59
311.877	4.8
312.252	4.59
312.626	4.84
313.001	4.85
313.375	4.73
313.75	4.98
314.124	4.66
314.498	4.85
314.873	4.74
315.247	5.57
315.621	5.46
315.995	5.4
316.369	5.21
316.743	5.16
317.117	5.41
317.491	5.64
317.865	4.61
318.239	5.49
318.613	5.28
318.987	5.67
319.361	4.88
319.734	5.82
320.108	5.1
320.482	5.51
320.855	5.35
321.229	5.61
321.602	6.19
321.976	5.7
322.349	6.15
322.723	6.17
323.096	5.35
323.469	5.5
323.843	6.1
324.216	5.9
324.589	5.95
324.962	6.13
325.335	5.83
325.708	6.03
326.081	6.19
326.454	5.99
326.827	5.89
327.2	6.36
327.573	7.11
327.945	6.02
328.318	6.2
328.691	6.63
329.063	6.18
329.436	5.83
329.809	6.23
330.181	6.27
330.553	5.83
330.926	6.5
331.298	6.44
331.671	6.06
332.043	6.11
332.415	6.46
332.787	7.3
333.159	6.26
333.532	6.84
333.904	6.56
334.276	5.99
334.648	6.94
335.02	6.49
335.391	6.9
335.763	6.75
336.135	6.43
336.507	6.38
336.879	7.22
337.25	6.97
337.622	7.1
337.993	7.1
338.365	7.12
338.736	7.05
339.108	7.25
339.479	6.69
339.851	6.93
340.222	6.81
340.593	7.46
340.964	7.04
341.336	7.33
341.707	7.19
342.078	6.9
342.449	7.17
342.82	6.89
343.191	7.54
343.562	7.46
343.933	7.19
344.303	7.38
344.674	7.77
345.045	7.37
345.416	7.39
345.786	7.08
346.157	7.31
346.527	7.27
346.898	6.84
347.268	7.39
347.639	7.48
348.009	7.21
348.38	7.5
348.75	7.5
349.12	8.23
349.49	8.01
349.861	7.61
350.231	7.91
350.601	7.2
350.971	7.95
351.341	8.17
351.711	7.77
352.081	7.83
352.45	7.96
352.82	7.73
353.19	7.96
353.56	8.16
353.929	7.81
354.299	7.98
354.669	7.93
355.038	7.78
355.408	7.76
355.777	8.16
356.147	8.33
356.516	8.27
356.885	8.03
357.254	7.99
357.624	7.85
357.993	8.55
358.362	8.19
358.731	7.72
359.1	8.11
359.469	7.63
359.838	7.95
360.207	8.22
360.576	8.09
360.945	8.29
361.314	8
361.682	8.17
362.051	8.28
362.42	8.73
362.788	8.51
363.157	8.42
363.525	8.03
363.894	8.17
364.262	8.68
364.631	8.68
364.999	8.33
365.367	8.51
365.735	8.6
366.104	8.58
366.472	8.5
366.84	8.34
367.208	8.49
367.576	8.73
367.944	9.05
368.312	8.46
368.68	8.85
369.048	9
369.416	8.77
369.783	9.16
370.151	8.54
370.519	8.54
370.886	8.73
371.254	9.28
371.621	8.64
371.989	8.57
372.356	9.36
372.724	9.05
373.091	9.41
373.458	9.14
373.826	8.93
374.193	9.01
374.56	9.21
374.927	9.05
375.294	9.43
375.661	9.45
376.028	8.98
376.395	9.34
376.762	9.21
377.129	9.19
377.496	9.25
377.863	9.59
378.229	9.31
378.596	9.13
378.963	9.4
379.329	9.4
379.696	9.49
380.062	9.55
380.429	9.41
380.795	9.93
381.161	9.75
381.528	9.64
381.894	9.54
382.26	9.61
382.626	9.8
382.993	9.47
383.359	9.88
383.725	9.46
384.091	9.69
384.457	9.49
384.823	9.82
385.188	9.86
385.554	9.51
385.92	9.64
386.286	9.89
386.651	9.83
387.017	9.67
387.383	10.1
387.748	9.81
388.114	9.71
388.479	9.73
388.845	9.69
389.21	9.74
389.575	9.91
389.94	10.16
390.306	10.09
390.671	10.15
391.036	10.18
391.401	10.25
391.766	10.09
392.131	9.96
392.496	10.16
392.861	10.07
393.226	10.09
393.591	10.13
393.956	10.29
394.32	9.98
394.685	10.36
395.05	10.39
395.414	10.29
395.779	10.42
396.143	10.2
396.508	10.42
396.872	10.58
397.236	10.21
397.601	10.49
397.965	10.49
398.329	10.43
398.694	10.67
399.058	10.74
399.422	10.87
399.786	10.73
400.15	10.7
400.514	10.65
400.878	10.62
401.242	10.91
401.605	10.89
401.969	11.01
402.333	10.85
402.697	10.66
403.06	10.85
403.424	10.67
403.787	10.74
404.151	10.77
404.514	10.65
404.878	10.89
405.241	10.75
405.604	10.75
405.968	10.97
406.331	10.86
406.694	10.74
407.057	10.92
407.42	11.17
407.783	11.03
408.146	11.03
408.509	11
408.872	10.74
409.235	11.12
409.598	11.21
409.961	11.1
410.323	11.08
410.686	11.06
411.049	11.15
411.411	11.11
411.774	11.04
412.136	11.1
412.499	11.32
412.861	11.36
413.223	10.96
413.586	11.31
413.948	11.48
414.31	11.33
414.672	11.4
415.035	11.41
415.397	11.26
415.759	11.16
416.121	11.58
416.483	11.41
416.845	11.56
417.206	11.23
417.568	11.35
417.93	11.55
418.292	11.32
418.653	11.57
419.015	11.56
419.377	11.39
419.738	11.59
420.1	11.38
420.461	11.53
420.822	11.41
421.184	11.52
421.545	11.64
421.906	11.59
422.267	11.52
422.629	11.43
422.99	11.5
423.351	11.62
423.712	11.52
424.073	11.82
424.434	11.79
424.795	11.8
425.155	11.7
425.516	11.74
425.877	11.75
426.238	11.71
426.598	11.69
426.959	11.82
427.32	12.02
427.68	12.07
428.041	12.15
428.401	11.85
428.761	12.15
429.122	12.06
429.482	12.21
429.842	12.11
430.202	12.29
430.563	12.44
430.923	12.47
431.283	12.32
431.643	12.38
432.003	12.51
432.363	12.34
432.722	12.54
433.082	12.43
433.442	12.57
433.802	12.57
434.161	12.44
434.521	12.62
434.881	12.68
435.24	12.71
435.6	12.61
435.959	12.61
436.319	12.51
436.678	12.65
437.037	12.68
437.396	12.86
437.756	12.65
438.115	12.93
438.474	12.8
438.833	12.89
439.192	12.87
439.551	12.96
439.91	13.08
440.269	12.99
440.628	12.97
440.987	13.09
441.345	12.96
441.704	12.88
442.063	12.91
442.421	12.96
442.78	12.97
443.138	13.17
443.497	13.1
443.855	13.14
444.214	13.1
444.572	13.24
444.93	13.29
445.288	13.17
445.647	13.37
446.005	13.48
446.363	13.34
446.721	13.38
447.079	13.36
447.437	13.38
447.795	13.32
448.153	13.33
448.51	13.34
448.868	13.38
449.226	13.45
449.584	13.47
449.941	13.49
450.299	13.58
450.656	13.73
451.014	13.81
451.371	13.84
451.729	13.8
452.086	13.81
452.443	13.89
452.801	13.75
453.158	13.84
453.515	14.04
453.872	14.07
454.229	13.97
454.586	13.94
454.943	14.06
455.3	14.06
455.657	14.17
456.014	14.21
456.371	14.11
456.727	14.36
457.084	14.07
457.441	14.56
457.797	14.23
458.154	14.38
458.51	14.42
458.867	14.32
459.223	14.38
459.58	14.36
459.936	14.35
460.292	14.38
460.648	14.53
461.005	14.38
461.361	14.19
461.717	14.24
462.073	14.31
462.429	14.35
462.785	14.37
463.141	14.5
463.496	14.5
463.852	14.65
464.208	14.89
464.564	14.63
464.919	14.78
465.275	14.72
465.631	14.88
465.986	15.12
466.342	14.9
466.697	14.91
467.052	14.91
467.408	15.07
467.763	14.88
468.118	14.91
468.473	15.26
468.829	15.14
469.184	15.03
469.539	15.16
469.894	15.23
470.249	15.16
470.603	15.17
470.958	15.24
471.313	15.32
471.668	15.34
472.023	15.14
472.377	15.39
472.732	15.26
473.086	15.32
473.441	15.53
473.795	15.33
474.15	15.59
474.504	15.59
474.859	15.45
475.213	15.63
475.567	15.64
475.921	15.54
476.275	15.69
476.63	15.7
476.984	15.71
477.338	15.84
477.692	15.68
478.045	15.73
478.399	15.89
478.753	15.72
479.107	15.78
479.461	15.78
479.814	15.69
480.168	16
480.521	15.94
480.875	15.87
481.228	15.98
481.582	15.98
481.935	15.89
482.289	16.06
482.642	16.05
482.995	15.83
483.348	15.99
483.701	15.93
484.055	15.9
484.408	15.79
484.761	15.6
485.114	15.39
485.466	15.29
485.819	15.35
486.172	15.42
486.525	15.58
486.878	15.63
487.23	15.76
487.583	15.95
487.936	15.89
488.288	15.86
488.641	15.86
488.993	15.75
489.345	15.68
489.698	15.8
490.05	15.81
490.402	15.93
490.754	16.01
491.107	16.14
491.459	16.3
491.811	16.32
492.163	16.32
492.515	16.37
492.866	16.17
493.218	16.06
493.57	16.04
493.922	16.16
494.274	16.36
494.625	16.53
494.977	16.72
495.328	16.76
495.68	16.94
496.031	17.11
496.383	16.9
496.734	17.08
497.086	17.11
497.437	17.15
497.788	17.2
498.139	17.27
498.49	17.01
498.842	16.97
499.193	17.09
499.544	17.2
499.894	17.14
500.245	17.31
500.596	17.3
500.947	17.25
501.298	17.47
501.648	17.47
501.999	17.48
502.35	17.62
502.7	17.8
503.051	17.64
503.401	17.64
503.752	17.67
504.102	17.59
504.452	17.84
504.803	17.82
505.153	17.68
505.503	17.78
505.853	17.96
506.203	17.95
506.553	17.84
506.903	17.85
507.253	18.03
507.603	18.12
507.953	18.05
508.303	18.12
508.652	18.13
509.002	18.21
509.352	18.14
509.701	18
510.051	18
510.4	18.11
510.75	17.95
511.099	18.08
511.449	18.19
511.798	18.17
512.147	18.26
512.496	18.18
512.846	18.44
513.195	18.33
513.544	18.34
513.893	18.35
514.242	18.49
514.591	18.42
514.939	18.47
515.288	18.56
515.637	18.61
515.986	18.65
516.334	18.64
516.683	18.75
517.032	18.85
517.38	18.73
517.729	19
518.077	18.83
518.426	18.83
518.774	18.8
519.122	18.85
519.47	18.71
519.819	18.68
520.167	18.63
520.515	18.73
520.863	18.79
521.211	18.91
521.559	18.83
521.907	18.86
522.255	18.98
522.602	19.17
522.95	19.1
523.298	19.31
523.645	19.34
523.993	19.49
524.341	19.46
524.688	19.48
525.036	19.59
525.383	19.57
525.73	19.59
526.078	19.31
526.425	19.44
526.772	19.36
527.119	19.15
527.466	19.24
527.814	19.33
528.161	19.27
528.508	19.3
528.854	19.32
529.201	19.38
529.548	19.13
529.895	18.95
530.242	18.92
530.588	18.98
530.935	19.14
531.282	19.19
531.628	19.27
531.975	19.47
532.321	19.46
532.667	19.75
533.014	19.75
533.36	19.8
533.706	19.85
534.052	19.85
534.399	19.67
534.745	19.58
535.091	19.52
535.437	19.65
535.783	19.75
536.129	19.94
536.474	20.16
536.82	20.16
537.166	20.19
537.512	20.23
537.857	20.19
538.203	20.12
538.549	20.31
538.894	20.21
539.239	20.35
539.585	20.58
539.93	20.52
540.276	20.86
540.621	20.91
540.966	20.75
541.311	20.87
541.656	20.77
542.001	20.76
542.346	20.55
542.691	20.37
543.036	20.26
543.381	20.3
543.726	20.27
544.071	20.45
544.415	20.72
544.76	20.71
545.105	20.8
545.449	20.86
545.794	21.04
546.138	21.06
546.483	21.17
546.827	21.33
547.171	21.23
547.516	21.34
547.86	21.33
548.204	21.35
548.548	21.31
548.892	21.4
549.236	21.41
549.58	21.61
549.924	21.74
550.268	21.87
550.612	21.89
550.956	22.17
551.3	21.96
551.643	22.04
551.987	22.04
552.33	22.15
552.674	22.19
553.017	22.26
553.361	22.22
553.704	22.18
554.048	22.28
554.391	22.28
554.734	22.23
555.077	22.33
555.42	22.3
555.764	22.46
556.107	22.49
556.45	22.59
556.793	22.67
557.135	22.53
557.478	22.47
557.821	22.91
558.164	22.97
558.507	22.88
558.849	22.81
559.192	22.95
559.534	23.16
559.877	23
560.219	22.85
560.562	22.96
560.904	23.21
561.246	23.04
561.589	23.21
561.931	23.19
562.273	23.24
562.615	23.04
562.957	23.18
563.299	23.37
563.641	23.22
563.983	23.37
564.325	23.5
564.667	23.48
565.008	23.54
565.35	23.42
565.692	23.47
566.033	23.47
566.375	23.66
566.716	23.68
567.058	23.46
567.399	23.78
567.741	23.71
568.082	23.77
568.423	23.63
568.764	23.68
569.105	23.78
569.447	24.02
569.788	23.92
570.129	23.92
570.47	24.1
570.811	24.17
571.151	24.21
571.492	23.97
571.833	24.32
572.174	24.19
572.514	24.3
572.855	24.25
573.195	24.21
573.536	24.23
573.876	24.12
574.217	24.35
574.557	24.28
574.898	24.5
575.238	24.19
575.578	24.54
575.918	24.56
576.258	24.7
576.598	24.48
576.938	24.48
577.278	24.38
577.618	24.76
577.958	24.6
578.298	24.74
578.638	25.03
578.977	25.08
579.317	25.11
579.657	25
579.996	25.02
580.336	25.18
580.675	25.33
581.014	25.16
581.354	25.03
581.693	25.37
582.032	25.35
582.372	25.36
582.711	25.67
583.05	25.62
583.389	25.42
583.728	25.64
584.067	25.71
584.406	25.67
584.745	25.74
585.083	25.78
585.422	25.71
585.761	25.97
586.1	25.75
586.438	25.99
586.777	25.69
587.115	25.93
587.454	25.75
587.792	26.11
588.13	26.05
588.469	26.24
588.807	25.96
589.145	26.21
589.483	26.4
589.821	26.24
590.159	26.23
590.497	26.36
590.835	26.22
591.173	26.38
591.511	26.4
591.849	26.49
592.187	26.23
592.524	26.32
592.862	26.35
593.2	26.91
593.537	26.86
593.875	26.79
594.212	26.72
594.55	26.81
594.887	27.12
595.224	26.86
595.561	26.9
595.899	26.75
596.236	26.85
596.573	26.82
596.91	27.33
597.247	26.95
597.584	26.74
597.921	27.3
598.258	26.9
598.594	27.03
598.931	26.85
599.268	27.02
599.604	26.75
599.941	27.16
600.277	27.27
600.614	27.39
600.95	27.44
601.287	27.46
601.623	27.81
601.959	27.74
602.296	27.57
602.632	27.51
602.968	27.92
603.304	27.52
603.64	27.85
603.976	27.91
604.312	27.76
604.648	27.71
604.984	27.7
605.319	27.84
605.655	27.78
605.991	27.55
606.326	27.97
606.662	27.81
606.998	27.75
607.333	27.93
607.668	27.77
608.004	28.04
608.339	27.84
608.674	28.18
609.01	28.24
609.345	28.03
609.68	28.38
610.015	28.54
610.35	28.53
610.685	28.58
611.02	28.26
611.355	28.35
611.689	28.52
612.024	28.51
612.359	28.52
612.694	28.76
613.028	28.67
613.363	28.81
613.697	29.12
614.032	28.78
614.366	28.49
614.7	28.67
615.035	29.22
615.369	29.11
615.703	28.99
616.037	29.01
616.371	29.35
616.705	29.56
617.039	29.28
617.373	29.26
617.707	29.34
618.041	29.32
618.375	29.17
618.709	29.74
619.042	29.58
619.376	29.77
619.71	29.9
620.043	29.7
620.377	29.74
620.71	29.45
621.043	29.38
621.377	30.15
621.71	29.56
622.043	30.17
622.376	29.79
622.709	29.59
623.043	29.71
623.376	30.21
623.709	30.35
624.041	30.13
624.374	29.87
624.707	30.42
625.04	30.18
625.373	29.85
625.705	30.36
626.038	30.38
626.37	30.2
626.703	30.24
627.035	30.24
627.368	30.2
627.7	30.48
628.032	30.59
628.365	30.49
628.697	30.43
629.029	30.67
629.361	30.58
629.693	30.28
630.025	30.69
630.357	30.76
630.689	30.34
631.021	31.15
631.353	30.86
631.684	31.03
632.016	30.79
632.348	30.91
632.679	31.07
633.011	31.29
633.342	31.37
633.674	30.77
634.005	31.07
634.336	31.05
634.668	31.34
634.999	31.19
635.33	31.25
635.661	31.74
635.992	31.57
636.323	31.4
636.654	31.49
636.985	31.52
637.316	31.56
637.647	31.86
637.977	31.98
638.308	32.27
638.639	31.76
638.969	31.67
639.3	32.18
639.63	32.3
639.961	31.88
640.291	32.14
640.622	32.07
640.952	32.01
641.282	32.08
641.612	32.12
641.943	32.85
642.273	32.72
642.603	32.78
642.933	32.34
643.263	32.07
643.592	32.49
643.922	32.56
644.252	32.69
644.582	33.31
644.911	32.48
645.241	33.05
645.571	32.73
645.9	32.96
646.23	32.86
646.559	33.1
646.888	33.38
647.218	33.09
647.547	32.94
647.876	33
648.205	32.97
648.534	33.57
648.863	33.08
649.192	33.01
649.521	33.18
649.85	33.23
650.179	32.9
650.508	32.98
650.837	33.31
651.165	33.36
651.494	33.7
651.822	33.27
652.151	33.48
652.479	33.58
652.808	33.55
653.136	33.12
653.465	33.59
653.793	33.53
654.121	33.57
654.449	33.18
654.777	34.06
655.105	33.76
655.433	33.78
655.761	34.3
656.089	34.16
656.417	33.26
656.745	34.13
657.073	34.24
657.4	34.45
657.728	34.53
658.056	34.5
658.383	33.68
658.711	33.91
659.038	34.17
659.365	34.26
659.693	34.07
660.02	34.72
660.347	34.56
660.674	34.36
661.001	35.04
661.329	33.98
661.656	34.14
661.982	34.89
662.309	34.43
662.636	35.36
662.963	35
663.29	34.95
663.616	34.54
663.943	34.6
664.27	34.6
664.596	34.82
664.923	35.31
665.249	35.04
665.576	35.23
665.902	35
666.228	35.45
666.554	35.05
666.881	35.2
667.207	34.88
667.533	35.58
667.859	35.72
668.185	35.28
668.511	35.15
668.837	35.76
669.162	35.51
669.488	36.01
669.814	35.45
670.139	35.52
670.465	35.04
670.791	35.18
671.116	35.71
671.442	35.81
671.767	35.65
672.092	35.4
672.418	35.9
672.743	35.75
673.068	36.27
673.393	36.07
