Data from 20-4_crown_Reflection__2__82.txt Node

Date: Fri Nov 11 20:47:54 CST 2022
User: ToomeyLab
Spectrometer: FLMS14357
Trigger mode: 0
Integration Time (sec): 1.000000E-2
Scans to average: 100
Electric dark correction enabled: true
Nonlinearity correction enabled: false
Boxcar width: 0
XAxis mode: Wavelengths
Number of Pixels in Spectrum: 2048
>>>>>Begin Spectral Data<<<<<
189.047	-22.13
189.435	-22.13
189.823	-22.13
190.211	14.53
190.599	15.08
190.987	41.51
191.375	269.7
191.763	239.38
192.151	-955.15
192.538	-25.42
192.926	45.37
193.314	78.95
193.702	70.06
194.089	42.57
194.477	100.36
194.864	33.39
195.252	411.81
195.639	-213.28
196.027	255.42
196.414	41.44
196.801	164.16
197.189	547.29
197.576	-363.34
197.963	-72.73
198.351	-63.48
198.738	-36.95
199.125	33.61
199.512	24.16
199.899	-78.43
200.286	-18.42
200.673	26.68
201.06	24.02
201.447	13.83
201.833	64.71
202.22	-66.53
202.607	19.38
202.994	36.22
203.38	1.59
203.767	3.39
204.154	28.79
204.54	-7.55
204.927	-3.77
205.313	5.49
205.699	-55.57
206.086	15.99
206.472	14.4
206.858	25.96
207.245	31.67
207.631	-7.29
208.017	36.17
208.403	26.22
208.789	25.34
209.175	30.81
209.561	28.5
209.947	-19.63
210.333	3.69
210.719	-13.71
211.105	43.9
211.491	-3.27
211.876	23.35
212.262	22.13
212.648	-9.99
213.034	-23.48
213.419	-31
213.805	-14.08
214.19	-12.04
214.576	34.31
214.961	-29.98
215.346	-3.39
215.732	-23.3
216.117	17.27
216.502	13.34
216.888	-35.16
217.273	10.28
217.658	-27.79
218.043	2.75
218.428	-2.71
218.813	-6.1
219.198	-5.37
219.583	1.16
219.968	-24.72
220.353	-30.88
220.738	-29.11
221.122	8.13
221.507	-26.19
221.892	18.23
222.276	6.94
222.661	10.92
223.046	-8.33
223.43	2.37
223.815	4.88
224.199	-0.57
224.583	-4.91
224.968	-10.38
225.352	10.25
225.736	1.07
226.121	0.98
226.505	0.81
226.889	-10.41
227.273	6.71
227.657	-4.1
228.041	-3.66
228.425	-0.55
228.809	-0.8
229.193	1.76
229.577	3.13
229.961	1.74
230.344	1.56
230.728	1.07
231.112	0.68
231.495	2.11
231.879	0.73
232.263	1.51
232.646	1.5
233.03	1.59
233.413	2.56
233.797	1.71
234.18	0.07
234.563	-0.61
234.946	0.43
235.33	2.68
235.713	2.99
236.096	0.24
236.479	0.83
236.862	4.22
237.245	1.5
237.628	2.99
238.011	1.89
238.394	3.02
238.777	1.49
239.16	4.38
239.543	1.17
239.925	1.92
240.308	2.07
240.691	3.75
241.073	1.43
241.456	0.4
241.838	2.5
242.221	1.78
242.603	2.22
242.986	1.64
243.368	2.08
243.75	2.15
244.133	1.95
244.515	1.61
244.897	2.38
245.279	1.88
245.661	2.05
246.043	1.9
246.425	2.54
246.807	1.94
247.189	1.47
247.571	1.96
247.953	2.12
248.335	2.24
248.717	2.21
249.098	2.39
249.48	1.9
249.862	2.32
250.243	2.27
250.625	1.8
251.006	2.62
251.388	1.9
251.769	1.79
252.151	1.88
252.532	1.57
252.913	2.26
253.295	2.3
253.676	1.91
254.057	1.97
254.438	2
254.819	1.68
255.2	2.2
255.581	1.62
255.962	1.58
256.343	1.86
256.724	1.73
257.105	1.93
257.486	1.84
257.867	2.59
258.247	1
258.628	1.29
259.009	1.23
259.389	1.69
259.77	2.34
260.15	1.7
260.531	2.12
260.911	1.74
261.292	1.99
261.672	1.7
262.052	1.82
262.432	2.2
262.813	2.46
263.193	2.02
263.573	1.68
263.953	2.67
264.333	2.1
264.713	1.58
265.093	2.67
265.473	1.61
265.853	1.11
266.233	1.68
266.612	1.69
266.992	1.82
267.372	2.39
267.752	1.53
268.131	1.8
268.511	2.08
268.89	1.88
269.27	1.59
269.649	1.43
270.029	2.44
270.408	1.67
270.787	1.82
271.167	1.55
271.546	1.72
271.925	1.83
272.304	2.06
272.683	1.74
273.062	1.92
273.441	1.84
273.82	2.1
274.199	1.96
274.578	1.69
274.957	2.29
275.336	2.31
275.715	2.05
276.093	1.91
276.472	1.58
276.851	1.63
277.229	1.68
277.608	1.78
277.986	2.55
278.365	1.43
278.743	2.07
279.122	2.02
279.5	1.54
279.878	2.28
280.257	1.93
280.635	1.74
281.013	2.3
281.391	1.67
281.769	1.59
282.147	1.82
282.525	1.22
282.903	1.47
283.281	2.06
283.659	2.04
284.037	2
284.415	1.66
284.792	2.26
285.17	2.28
285.548	1.42
285.925	1.61
286.303	1.75
286.68	2.09
287.058	1.89
287.435	2.03
287.813	1.81
288.19	1.76
288.567	1.76
288.945	2.08
289.322	2.3
289.699	1.73
290.076	2.07
290.453	1.75
290.83	1.88
291.207	1.66
291.584	1.89
291.961	1.92
292.338	1.86
292.715	2
293.092	2.17
293.469	1.89
293.845	1.68
294.222	1.75
294.599	1.79
294.975	2.02
295.352	2.2
295.728	1.5
296.105	2.07
296.481	1.65
296.858	1.96
297.234	1.98
297.61	1.74
297.986	1.96
298.363	1.91
298.739	1.79
299.115	2.02
299.491	2.25
299.867	1.88
300.243	1.9
300.619	2.18
300.995	2.2
301.371	2.67
301.746	2.44
302.122	2.36
302.498	2.19
302.874	2.13
303.249	1.77
303.625	1.65
304	1.35
304.376	2.02
304.751	1.88
305.127	1.98
305.502	2.02
305.878	2.41
306.253	1.9
306.628	2.12
307.003	1.92
307.378	2.01
307.754	2.21
308.129	1.91
308.504	2.36
308.879	2.24
309.254	2.06
309.629	1.8
310.003	2.33
310.378	1.94
310.753	2.45
311.128	2.49
311.502	2.2
311.877	2.17
312.252	2.15
312.626	2.06
313.001	1.87
313.375	2.11
313.75	2.31
314.124	1.88
314.498	1.85
314.873	1.81
315.247	2.39
315.621	2.42
315.995	2.56
316.369	2.24
316.743	1.83
317.117	2.17
317.491	2.44
317.865	1.59
318.239	1.5
318.613	2.11
318.987	1.87
319.361	1.95
319.734	2.01
320.108	2.04
320.482	2.26
320.855	1.92
321.229	2.14
321.602	2.33
321.976	2.4
322.349	2.63
322.723	3.09
323.096	1.96
323.469	2.06
323.843	2
324.216	2.02
324.589	2.64
324.962	2.43
325.335	1.77
325.708	2.1
326.081	2.08
326.454	2.04
326.827	1.81
327.2	2.4
327.573	3
327.945	2.02
328.318	2.22
328.691	2.41
329.063	2.42
329.436	1.82
329.809	1.91
330.181	2.01
330.553	1.29
330.926	2.63
331.298	2.24
331.671	2.16
332.043	1.69
332.415	1.71
332.787	2.38
333.159	1.6
333.532	2.3
333.904	2.17
334.276	2.53
334.648	1.85
335.02	1.86
335.391	2.56
335.763	2.4
336.135	2.17
336.507	2.56
336.879	1.95
337.25	1.92
337.622	2.4
337.993	2.28
338.365	2.12
338.736	2.33
339.108	2.55
339.479	2.11
339.851	2.28
340.222	2.15
340.593	2.67
340.964	2.3
341.336	2.42
341.707	2.11
342.078	1.52
342.449	2.55
342.82	2.48
343.191	2.69
343.562	1.92
343.933	2.08
344.303	1.83
344.674	2.05
345.045	1.81
345.416	2.11
345.786	1.93
346.157	1.74
346.527	2.32
346.898	1.75
347.268	1.9
347.639	2.36
348.009	2.17
348.38	2.38
348.75	2.43
349.12	2.75
349.49	2.43
349.861	2.45
350.231	2.35
350.601	2.52
350.971	1.91
351.341	2.21
351.711	2.42
352.081	2.36
352.45	2.34
352.82	2.23
353.19	2.33
353.56	2.2
353.929	2.15
354.299	2.34
354.669	2.63
355.038	2
355.408	2.18
355.777	2.27
356.147	2.67
356.516	2.62
356.885	2.32
357.254	2.38
357.624	1.92
357.993	2.17
358.362	2.27
358.731	1.78
359.1	2.16
359.469	1.84
359.838	1.9
360.207	2.16
360.576	2.25
360.945	2.22
361.314	2.01
361.682	2.35
362.051	2.15
362.42	2.38
362.788	2.46
363.157	2.1
363.525	2.21
363.894	2.12
364.262	2.39
364.631	2.48
364.999	2.27
365.367	2.21
365.735	2.22
366.104	2.1
366.472	2.37
366.84	2.06
367.208	2.38
367.576	2.39
367.944	2.22
368.312	2.24
368.68	2.23
369.048	2.32
369.416	2.13
369.783	2.44
370.151	2.39
370.519	2.33
370.886	1.92
371.254	2.65
371.621	2.08
371.989	1.9
372.356	2.61
372.724	2.31
373.091	2.38
373.458	2.14
373.826	1.88
374.193	2.05
374.56	2.12
374.927	2.03
375.294	2.24
375.661	2.59
376.028	1.95
376.395	2.37
376.762	2.53
377.129	2.31
377.496	2.25
377.863	2.46
378.229	2.38
378.596	2.19
378.963	2.17
379.329	2.49
379.696	2.4
380.062	2.23
380.429	2.18
380.795	2.37
381.161	2.47
381.528	2.29
381.894	2.29
382.26	2.43
382.626	2.55
382.993	2.28
383.359	2.39
383.725	2.29
384.091	2.63
384.457	2.07
384.823	2.04
385.188	2.32
385.554	1.96
385.92	1.98
386.286	2.12
386.651	2.4
387.017	2.08
387.383	2.37
387.748	2.36
388.114	2.29
388.479	2.18
388.845	2.32
389.21	2.19
389.575	2.55
389.94	2.22
390.306	2.28
390.671	2.63
391.036	2.12
391.401	2.37
391.766	2.26
392.131	2.29
392.496	2.23
392.861	2.24
393.226	2.1
393.591	2.15
393.956	2.17
394.32	2.02
394.685	2.45
395.05	2.43
395.414	2.4
395.779	2.32
396.143	2.28
396.508	2.42
396.872	2.56
397.236	2.21
397.601	2.25
397.965	2.28
398.329	2.14
398.694	2.47
399.058	2.31
399.422	2.26
399.786	2.27
400.15	2.46
400.514	2.42
400.878	2.39
401.242	2.13
401.605	2.52
401.969	2.33
402.333	2.13
402.697	2.16
403.06	2.49
403.424	1.89
403.787	2.38
404.151	2.19
404.514	2.23
404.878	2.27
405.241	2.16
405.604	2.31
405.968	2.39
406.331	2.08
406.694	2.39
407.057	2.24
407.42	2.25
407.783	2.33
408.146	2.5
408.509	2.38
408.872	2.15
409.235	2.45
409.598	2.23
409.961	2.35
410.323	2.22
410.686	2.37
411.049	2.26
411.411	2.21
411.774	2.32
412.136	2.15
412.499	2.42
412.861	2.35
413.223	2.14
413.586	2.25
413.948	2.25
414.31	2.33
414.672	2.32
415.035	2.2
415.397	2.04
415.759	2.29
416.121	2.28
416.483	2.1
416.845	2.25
417.206	2.17
417.568	2.4
417.93	2.23
418.292	2.06
418.653	2.29
419.015	2.27
419.377	2.19
419.738	2.37
420.1	2.21
420.461	2.36
420.822	2.16
421.184	2.32
421.545	2.2
421.906	2.25
422.267	2.15
422.629	2.1
422.99	2.27
423.351	2.19
423.712	2.18
424.073	2.32
424.434	2.27
424.795	2.28
425.155	2.3
425.516	2.29
425.877	2.18
426.238	2.29
426.598	2.12
426.959	2.24
427.32	2.27
427.68	2.27
428.041	2.48
428.401	2.12
428.761	2.38
429.122	2.09
429.482	2.27
429.842	2.31
430.202	2.24
430.563	2.53
430.923	2.45
431.283	2.24
431.643	2.13
432.003	2.39
432.363	2.45
432.722	2.56
433.082	2.38
433.442	2.39
433.802	2.33
434.161	2.25
434.521	2.26
434.881	2.34
435.24	2.2
435.6	2.11
435.959	2.18
436.319	2.25
436.678	2.31
437.037	2.25
437.396	2.44
437.756	2.39
438.115	2.25
438.474	2.15
438.833	2.31
439.192	2.41
439.551	2.23
439.91	2.37
440.269	2.2
440.628	2.39
440.987	2.28
441.345	2.31
441.704	2.35
442.063	2.23
442.421	2.29
442.78	2.24
443.138	2.33
443.497	2.22
443.855	2.4
444.214	2.21
444.572	2.47
444.93	2.23
445.288	2.29
445.647	2.36
446.005	2.43
446.363	2.26
446.721	2.36
447.079	2.33
447.437	2.18
447.795	2.26
448.153	2.33
448.51	2.27
448.868	2.25
449.226	2.34
449.584	2.3
449.941	2.36
450.299	2.29
450.656	2.42
451.014	2.38
451.371	2.38
451.729	2.34
452.086	2.44
452.443	2.37
452.801	2.56
453.158	2.37
453.515	2.34
453.872	2.26
454.229	2.36
454.586	2.47
454.943	2.47
455.3	2.36
455.657	2.44
456.014	2.34
456.371	2.35
456.727	2.4
457.084	2.12
457.441	2.49
457.797	2.33
458.154	2.28
458.51	2.23
458.867	2.32
459.223	2.43
459.58	2.3
459.936	2.26
460.292	2.29
460.648	2.38
461.005	2.32
461.361	2.34
461.717	2.32
462.073	2.36
462.429	2.26
462.785	2.24
463.141	2.21
463.496	2.3
463.852	2.43
464.208	2.36
464.564	2.29
464.919	2.35
465.275	2.35
465.631	2.55
465.986	2.37
466.342	2.32
466.697	2.32
467.052	2.4
467.408	2.31
467.763	2.29
468.118	2.44
468.473	2.4
468.829	2.42
469.184	2.26
469.539	2.5
469.894	2.43
470.249	2.42
470.603	2.21
470.958	2.35
471.313	2.49
471.668	2.47
472.023	2.28
472.377	2.52
472.732	2.35
473.086	2.22
473.441	2.2
473.795	2.42
474.15	2.43
474.504	2.52
474.859	2.4
475.213	2.53
475.567	2.42
475.921	2.47
476.275	2.34
476.63	2.27
476.984	2.51
477.338	2.45
477.692	2.26
478.045	2.34
478.399	2.49
478.753	2.31
479.107	2.41
479.461	2.4
479.814	2.35
480.168	2.26
480.521	2.36
480.875	2.41
481.228	2.4
481.582	2.41
481.935	2.33
482.289	2.27
482.642	2.36
482.995	2.26
483.348	2.3
483.701	2.33
484.055	2.38
484.408	2.32
484.761	2.24
485.114	2.19
485.466	2.18
485.819	2.17
486.172	2.2
486.525	2.26
486.878	2.33
487.23	2.24
487.583	2.32
487.936	2.27
488.288	2.35
488.641	2.27
488.993	2.23
489.345	2.19
489.698	2.24
490.05	2.24
490.402	2.26
490.754	2.31
491.107	2.28
491.459	2.29
491.811	2.32
492.163	2.34
492.515	2.31
492.866	2.33
493.218	2.24
493.57	2.24
493.922	2.28
494.274	2.29
494.625	2.3
494.977	2.47
495.328	2.36
495.68	2.4
496.031	2.39
496.383	2.4
496.734	2.45
497.086	2.43
497.437	2.55
497.788	2.31
498.139	2.34
498.49	2.33
498.842	2.28
499.193	2.46
499.544	2.48
499.894	2.36
500.245	2.47
500.596	2.53
500.947	2.35
501.298	2.42
501.648	2.5
501.999	2.4
502.35	2.5
502.7	2.41
503.051	2.5
503.401	2.44
503.752	2.4
504.102	2.41
504.452	2.45
504.803	2.35
505.153	2.41
505.503	2.43
505.853	2.44
506.203	2.52
506.553	2.43
506.903	2.36
507.253	2.4
507.603	2.4
507.953	2.43
508.303	2.4
508.652	2.42
509.002	2.43
509.352	2.38
509.701	2.35
510.051	2.34
510.4	2.37
510.75	2.35
511.099	2.23
511.449	2.33
511.798	2.33
512.147	2.37
512.496	2.23
512.846	2.47
513.195	2.35
513.544	2.46
513.893	2.32
514.242	2.32
514.591	2.43
514.939	2.32
515.288	2.32
515.637	2.4
515.986	2.42
516.334	2.53
516.683	2.26
517.032	2.28
517.38	2.44
517.729	2.41
518.077	2.37
518.426	2.43
518.774	2.46
519.122	2.4
519.47	2.42
519.819	2.4
520.167	2.27
520.515	2.41
520.863	2.41
521.211	2.35
521.559	2.32
521.907	2.35
522.255	2.39
522.602	2.43
522.95	2.48
523.298	2.49
523.645	2.42
523.993	2.43
524.341	2.49
524.688	2.43
525.036	2.4
525.383	2.4
525.73	2.33
526.078	2.44
526.425	2.3
526.772	2.33
527.119	2.22
527.466	2.36
527.814	2.36
528.161	2.33
528.508	2.36
528.854	2.28
529.201	2.38
529.548	2.3
529.895	2.26
530.242	2.19
530.588	2.26
530.935	2.23
531.282	2.3
531.628	2.34
531.975	2.3
532.321	2.32
532.667	2.44
533.014	2.35
533.36	2.35
533.706	2.44
534.052	2.4
534.399	2.32
534.745	2.29
535.091	2.3
535.437	2.34
535.783	2.36
536.129	2.43
536.474	2.44
536.82	2.39
537.166	2.42
537.512	2.37
537.857	2.39
538.203	2.3
538.549	2.38
538.894	2.37
539.239	2.4
539.585	2.44
539.93	2.37
540.276	2.47
540.621	2.46
540.966	2.45
541.311	2.43
541.656	2.38
542.001	2.31
542.346	2.37
542.691	2.33
543.036	2.25
543.381	2.32
543.726	2.29
544.071	2.31
544.415	2.38
544.76	2.4
545.105	2.36
545.449	2.3
545.794	2.41
546.138	2.35
546.483	2.46
546.827	2.41
547.171	2.41
547.516	2.25
547.86	2.4
548.204	2.42
548.548	2.42
548.892	2.43
549.236	2.43
549.58	2.44
549.924	2.45
550.268	2.47
550.612	2.45
550.956	2.58
551.3	2.29
551.643	2.41
551.987	2.51
552.33	2.51
552.674	2.36
553.017	2.53
553.361	2.56
553.704	2.46
554.048	2.39
554.391	2.52
554.734	2.39
555.077	2.66
555.42	2.36
555.764	2.41
556.107	2.32
556.45	2.57
556.793	2.53
557.135	2.41
557.478	2.42
557.821	2.58
558.164	2.44
558.507	2.49
558.849	2.42
559.192	2.46
559.534	2.57
559.877	2.72
560.219	2.43
560.562	2.4
560.904	2.65
561.246	2.19
561.589	2.49
561.931	2.26
562.273	2.4
562.615	2.44
562.957	2.53
563.299	2.31
563.641	2.49
563.983	2.44
564.325	2.3
564.667	2.61
565.008	2.56
565.35	2.37
565.692	2.27
566.033	2.29
566.375	2.62
566.716	2.5
567.058	2.39
567.399	2.54
567.741	2.5
568.082	2.48
568.423	2.5
568.764	2.63
569.105	2.32
569.447	2.56
569.788	2.45
570.129	2.55
570.47	2.46
570.811	2.41
571.151	2.57
571.492	2.55
571.833	2.45
572.174	2.54
572.514	2.5
572.855	2.42
573.195	2.35
573.536	2.48
573.876	2.59
574.217	2.57
574.557	2.48
574.898	2.37
575.238	2.53
575.578	2.53
575.918	2.52
576.258	2.44
576.598	2.47
576.938	2.53
577.278	2.33
577.618	2.41
577.958	2.5
578.298	2.62
578.638	2.39
578.977	2.6
579.317	2.51
579.657	2.7
579.996	2.41
580.336	2.4
580.675	2.68
581.014	2.48
581.354	2.41
581.693	2.49
582.032	2.33
582.372	2.57
582.711	2.56
583.05	2.38
583.389	2.58
583.728	2.36
584.067	2.51
584.406	2.49
584.745	2.66
585.083	2.51
585.422	2.45
585.761	2.59
586.1	2.54
586.438	2.44
586.777	2.52
587.115	2.46
587.454	2.5
587.792	2.44
588.13	2.64
588.469	2.49
588.807	2.46
589.145	2.61
589.483	2.79
589.821	2.49
590.159	2.53
590.497	2.43
590.835	2.52
591.173	2.75
591.511	2.45
591.849	2.6
592.187	2.6
592.524	2.25
592.862	2.63
593.2	2.61
593.537	2.55
593.875	2.61
594.212	2.44
594.55	2.51
594.887	2.26
595.224	2.26
595.561	2.38
595.899	2.41
596.236	2.57
596.573	2.28
596.91	2.69
597.247	2.44
597.584	2.41
597.921	2.59
598.258	2.34
598.594	2.48
598.931	2.24
599.268	2.5
599.604	2.57
599.941	2.6
600.277	2.7
600.614	2.47
600.95	2.26
601.287	2.84
601.623	2.96
601.959	2.37
602.296	2.41
602.632	2.63
602.968	2.37
603.304	2.67
603.64	2.81
603.976	2.72
604.312	2.56
604.648	2.49
604.984	2.47
605.319	2.75
605.655	2.57
605.991	2.56
606.326	2.63
606.662	2.55
606.998	2.36
607.333	2.53
607.668	2.52
608.004	2.5
608.339	2.51
608.674	2.58
609.01	2.62
609.345	2.58
609.68	2.45
610.015	2.65
610.35	2.43
610.685	2.49
611.02	2.51
611.355	2.47
611.689	2.33
612.024	2.41
612.359	2.31
612.694	2.35
613.028	2.53
613.363	2.68
613.697	2.85
614.032	2.72
614.366	2.51
614.7	2.3
615.035	2.47
615.369	2.17
615.703	2.65
616.037	2.59
616.371	2.65
616.705	2.6
617.039	2.63
617.373	2.6
617.707	2.64
618.041	2.62
618.375	2.43
618.709	2.73
619.042	3.14
619.376	2.67
619.71	2.64
620.043	2.53
620.377	2.38
620.71	2.31
621.043	2.3
621.377	2.67
621.71	2.41
622.043	2.51
622.376	2.58
622.709	2.47
623.043	2.51
623.376	2.71
623.709	2.8
624.041	2.76
624.374	2.15
624.707	2.75
625.04	2.6
625.373	1.93
625.705	2.6
626.038	2.57
626.37	2.81
626.703	2.52
627.035	2.53
627.368	2.1
627.7	2.62
628.032	2.7
628.365	2.65
628.697	2.71
629.029	2.58
629.361	2.44
629.693	2.5
630.025	2.66
630.357	2.47
630.689	2.4
631.021	2.36
631.353	2.74
631.684	2.65
632.016	2.33
632.348	2.45
632.679	2.12
633.011	2.67
633.342	2.65
633.674	2.61
634.005	2.55
634.336	2.4
634.668	2.84
634.999	2.78
635.33	2.41
635.661	2.76
635.992	2.43
636.323	2.38
636.654	2.59
636.985	2.35
637.316	2.3
637.647	2.81
637.977	2.55
638.308	2.52
638.639	2.34
638.969	2.51
639.3	2.75
639.63	2.46
639.961	2.62
640.291	2.61
640.622	2.78
640.952	2.47
641.282	2.6
641.612	2.43
641.943	2.94
642.273	2.36
642.603	2.73
642.933	2.42
643.263	2.28
643.592	2.74
643.922	2.49
644.252	2.88
644.582	2.83
644.911	2.28
645.241	2.56
645.571	2.52
645.9	2.82
646.23	2.51
646.559	2.97
646.888	2.65
647.218	2.66
647.547	2.32
647.876	2.46
648.205	2.81
648.534	2.47
648.863	2.4
649.192	2.19
649.521	2.38
649.85	2.71
650.179	2.12
650.508	2.47
650.837	2.55
651.165	2.36
651.494	2.89
651.822	2.28
652.151	2.11
652.479	2.22
652.808	2.06
653.136	2.33
653.465	2.53
653.793	2.6
654.121	2.62
654.449	2.23
654.777	2.79
655.105	2.51
655.433	2.57
655.761	2.58
656.089	2.81
656.417	2.21
656.745	3.07
657.073	2.56
657.4	2.61
657.728	2.97
658.056	2.89
658.383	2.45
658.711	2.14
659.038	2.71
659.365	2.42
659.693	2.43
660.02	3.2
660.347	2.94
660.674	2.77
661.001	2.53
661.329	2.24
661.656	2.33
661.982	2.68
662.309	2.52
662.636	2.75
662.963	2.92
663.29	2.6
663.616	1.88
663.943	2.3
664.27	2.46
664.596	2.68
664.923	2.58
665.249	2.82
665.576	2.9
665.902	2.76
666.228	2.74
666.554	2.86
666.881	2.48
667.207	2.76
667.533	3.1
667.859	2.83
668.185	3.17
668.511	2.42
668.837	2.9
669.162	3.18
669.488	2.63
669.814	2.15
670.139	2.83
670.465	2.35
670.791	2.3
671.116	2.85
671.442	2.66
671.767	3.05
672.092	2.66
672.418	2.81
672.743	2.75
673.068	2.39
673.393	3.45
673.718	2.94
674.043	2.61
674.368	2.82
674.693	1.8
675.018	2.6
675.343	2.82
675.667	2.94
675.992	3.03
676.317	1.8
676.641	2.15
676.966	2.76
677.29	2.46
677.615	2.76
677.939	2.59
678.264	2.79
678.588	2.29
678.912	2.58
679.236	2.32
679.56	2.65
679.885	2.5
680.209	2.22
680.532	3.18
680.856	3.09
681.18	2.98
681.504	2.8
681.828	2.62
682.152	2.59
682.475	2.54
682.799	2.05
683.122	2.76
683.446	3.05
683.769	2.85
684.093	2.81
684.416	2.75
684.739	3.27
685.062	2.29
685.386	2.87
685.709	2.99
686.032	2.55
686.355	1.94
686.678	3.1
687.001	2.33
687.324	2.68
687.646	2.94
687.969	3.17
688.292	3.15
688.614	2.52
688.937	2.92
689.26	2.25
689.582	3.32
689.904	3.31
690.227	2.91
690.549	2.29
690.871	2.38
691.194	2.07
691.516	2.24
691.838	2.84
692.16	2.63
692.482	2.01
692.804	2.5
