Data from 20-4_forehead_Reflection__0__85.txt Node

Date: Fri Nov 11 20:48:37 CST 2022
User: ToomeyLab
Spectrometer: FLMS14357
Trigger mode: 0
Integration Time (sec): 1.000000E-2
Scans to average: 100
Electric dark correction enabled: true
Nonlinearity correction enabled: false
Boxcar width: 0
XAxis mode: Wavelengths
Number of Pixels in Spectrum: 2048
>>>>>Begin Spectral Data<<<<<
189.047	-75.6
189.435	-75.6
189.823	-75.6
190.211	173.52
190.599	41.57
190.987	-36.29
191.375	-0.73
191.763	-439.38
192.151	-1989.09
192.538	5.48
192.926	91.96
193.314	50.85
193.702	104.68
194.089	-4.66
194.477	78.48
194.864	44.41
195.252	552.76
195.639	183.56
196.027	-9.93
196.414	25.97
196.801	406.87
197.189	224.09
197.576	-59.11
197.963	-67.28
198.351	-24.04
198.738	-14.25
199.125	49.96
199.512	47.99
199.899	-29.56
200.286	4.58
200.673	51.77
201.06	26.17
201.447	50.71
201.833	33.7
202.22	22.31
202.607	56.09
202.994	25.85
203.38	13.6
203.767	27.66
204.154	24.67
204.54	23.83
204.927	18.7
205.313	-4.35
205.699	7.98
206.086	32.39
206.472	12.04
206.858	31.35
207.245	53.65
207.631	16.36
208.017	21.78
208.403	19.44
208.789	-0.23
209.175	22.51
209.561	50.95
209.947	1.01
210.333	10.64
210.719	32.77
211.105	44.1
211.491	27.8
211.876	29.56
212.262	35.28
212.648	-10.5
213.034	-31.71
213.419	-36.31
213.805	-19.43
214.19	37.69
214.576	39.11
214.961	-11.51
215.346	-7.85
215.732	-7.61
216.117	48.51
216.502	11.39
216.888	2.71
217.273	19.62
217.658	33.86
218.043	23.06
218.428	1.2
218.813	8.26
219.198	19.76
219.583	21.23
219.968	11.17
220.353	-46.09
220.738	-12.26
221.122	6.76
221.507	-17.2
221.892	-4.17
222.276	12.96
222.661	19.5
223.046	-7.83
223.43	-7.34
223.815	5.39
224.199	6.2
224.583	-0.65
224.968	-3.12
225.352	13.96
225.736	6.03
226.121	6.78
226.505	0.78
226.889	-5.18
227.273	2.49
227.657	3.98
228.041	1.51
228.425	0.17
228.809	0.68
229.193	5.84
229.577	2.38
229.961	2.63
230.344	3.23
230.728	1.4
231.112	1.41
231.495	1.68
231.879	1.25
232.263	3.14
232.646	0.68
233.03	1.42
233.413	2
233.797	2.86
234.18	2.73
234.563	3.6
234.946	1.14
235.33	3.64
235.713	2.89
236.096	0.84
236.479	2.04
236.862	3.72
237.245	1.33
237.628	3.13
238.011	2.73
238.394	3.84
238.777	2
239.16	2.45
239.543	1.26
239.925	3.67
240.308	1.3
240.691	5.04
241.073	2.27
241.456	2.93
241.838	3.39
242.221	2.53
242.603	2.74
242.986	2.4
243.368	2.39
243.75	2.67
244.133	2.89
244.515	2.48
244.897	3.09
245.279	2.74
245.661	3.55
246.043	3.38
246.425	3.69
246.807	3.28
247.189	2.52
247.571	2.75
247.953	2.5
248.335	2.79
248.717	2.82
249.098	2.9
249.48	2.94
249.862	3.41
250.243	3
250.625	2.8
251.006	3.91
251.388	3.35
251.769	2.59
252.151	3.71
252.532	3.37
252.913	3.12
253.295	2.67
253.676	2.64
254.057	2.81
254.438	3.31
254.819	2.41
255.2	4.32
255.581	2.37
255.962	2.2
256.343	2.72
256.724	2.34
257.105	3.8
257.486	1.92
257.867	4.25
258.247	2.84
258.628	1.8
259.009	2.9
259.389	3
259.77	3.47
260.15	2.79
260.531	2.99
260.911	2.76
261.292	3.01
261.672	2.75
262.052	2.69
262.432	2.96
262.813	3.24
263.193	2.89
263.573	3.04
263.953	3.18
264.333	2.33
264.713	2.95
265.093	3.14
265.473	2.11
265.853	2.67
266.233	3.2
266.612	2.57
266.992	2.73
267.372	4.08
267.752	2.91
268.131	2.48
268.511	2.88
268.89	2.64
269.27	3.33
269.649	2.61
270.029	3.08
270.408	2.32
270.787	2.9
271.167	2.61
271.546	2.8
271.925	2.93
272.304	2.91
272.683	2.75
273.062	2.62
273.441	2.81
273.82	2.82
274.199	2.59
274.578	2.66
274.957	2.78
275.336	2.77
275.715	2.92
276.093	2.66
276.472	2.41
276.851	2.3
277.229	2.78
277.608	2.48
277.986	2.89
278.365	2.47
278.743	2.74
279.122	3.21
279.5	2.89
279.878	3.48
280.257	2.87
280.635	2.96
281.013	2.67
281.391	2.44
281.769	2.67
282.147	2.98
282.525	2.38
282.903	2.6
283.281	2.92
283.659	2.67
284.037	2.89
284.415	2.46
284.792	2.88
285.17	3
285.548	2.43
285.925	2.24
286.303	2.62
286.68	3.02
287.058	3.07
287.435	2.76
287.813	2.76
288.19	2.79
288.567	2.75
288.945	3.02
289.322	2.81
289.699	2.53
290.076	3.24
290.453	2.81
290.83	2.86
291.207	2.61
291.584	2.97
291.961	2.8
292.338	2.95
292.715	3.11
293.092	3.39
293.469	3.08
293.845	2.84
294.222	2.85
294.599	3.12
294.975	3.22
295.352	2.93
295.728	3.17
296.105	3.06
296.481	2.52
296.858	3.19
297.234	3.16
297.61	3.43
297.986	3.67
298.363	3.61
298.739	3.57
299.115	3.73
299.491	3.72
299.867	3.33
300.243	3.14
300.619	3.52
300.995	3.81
301.371	4.39
301.746	3.95
302.122	4.08
302.498	3.88
302.874	3.85
303.249	4.03
303.625	3.83
304	3.49
304.376	4.21
304.751	3.61
305.127	3.65
305.502	4.12
305.878	4.47
306.253	4.52
306.628	4.08
307.003	4.41
307.378	4.14
307.754	4.89
308.129	4.48
308.504	4.27
308.879	4.14
309.254	5.17
309.629	4.45
310.003	4.58
310.378	4.77
310.753	4.92
311.128	4.99
311.502	4.87
311.877	4.76
312.252	4.73
312.626	4.82
313.001	4.64
313.375	4.95
313.75	4.53
314.124	4.78
314.498	5.05
314.873	5
315.247	5.24
315.621	5.45
315.995	5.6
316.369	5.65
316.743	5.17
317.117	5.69
317.491	5.23
317.865	4.77
318.239	5.45
318.613	5.81
318.987	5.74
319.361	5.51
319.734	5.92
320.108	5.71
320.482	6.06
320.855	5.75
321.229	5.9
321.602	5.89
321.976	6.06
322.349	6.75
322.723	6.17
323.096	6.2
323.469	6.11
323.843	6.94
324.216	6.05
324.589	6.15
324.962	6.75
325.335	6.32
325.708	6.45
326.081	6.77
326.454	6.03
326.827	5.99
327.2	6.95
327.573	7.44
327.945	7.06
328.318	6.63
328.691	6.57
329.063	6.63
329.436	6.33
329.809	6.56
330.181	6.53
330.553	6.01
330.926	7.02
331.298	6.86
331.671	7.27
332.043	6.55
332.415	7.03
332.787	7.2
333.159	7.02
333.532	6.9
333.904	7.34
334.276	6.62
334.648	6.95
335.02	6.91
335.391	7.52
335.763	7.42
336.135	7.13
336.507	6.85
336.879	7.07
337.25	7.02
337.622	7.4
337.993	7.66
338.365	7.56
338.736	7.11
339.108	7.72
339.479	7.45
339.851	7.3
340.222	7.32
340.593	7.93
340.964	7.6
341.336	7.78
341.707	7.42
342.078	7.45
342.449	7.75
342.82	7.63
343.191	7.69
343.562	7.38
343.933	7.42
344.303	7.27
344.674	7.54
345.045	7.83
345.416	8.44
345.786	7.65
346.157	7.49
346.527	7.75
346.898	7.56
347.268	7.78
347.639	8.1
348.009	7.77
348.38	8.22
348.75	8.08
349.12	8.45
349.49	8.59
349.861	7.82
350.231	8.15
350.601	8.47
350.971	8.1
351.341	8.42
351.711	8.45
352.081	8.59
352.45	8.28
352.82	8.11
353.19	7.98
353.56	8.24
353.929	8.39
354.299	8.61
354.669	8.25
355.038	8.1
355.408	8.61
355.777	8.83
356.147	8.97
356.516	8.43
356.885	9.01
357.254	8.64
357.624	8.37
357.993	8.62
358.362	8.75
358.731	8.36
359.1	8.47
359.469	8.41
359.838	8.64
360.207	9.02
360.576	9.03
360.945	9.16
361.314	8.49
361.682	8.59
362.051	8.68
362.42	9.04
362.788	9.05
363.157	9.02
363.525	8.82
363.894	8.82
364.262	9.21
364.631	9.21
364.999	9.02
365.367	9.31
365.735	9.37
366.104	9.07
366.472	9.31
366.84	8.87
367.208	9.23
367.576	9.57
367.944	9.49
368.312	9.53
368.68	9.55
369.048	9.52
369.416	9.47
369.783	10.07
370.151	9.43
370.519	9.93
370.886	9.43
371.254	9.78
371.621	10.01
371.989	9.8
372.356	10.2
372.724	10.1
373.091	10.03
373.458	9.85
373.826	9.77
374.193	9.9
374.56	9.91
374.927	10.03
375.294	9.9
375.661	10.19
376.028	9.81
376.395	10.16
376.762	10.07
377.129	10.08
377.496	10.39
377.863	10.29
378.229	10.25
378.596	10.29
378.963	10.21
379.329	10.3
379.696	10.32
380.062	10.25
380.429	10.22
380.795	10.95
381.161	10.75
381.528	10.35
381.894	10.33
382.26	11.03
382.626	10.62
382.993	10.37
383.359	10.79
383.725	10.48
384.091	10.73
384.457	10.7
384.823	10.57
385.188	10.7
385.554	10.58
385.92	10.67
386.286	10.81
386.651	11.08
387.017	10.8
387.383	11.06
387.748	10.81
388.114	10.81
388.479	10.9
388.845	10.69
389.21	10.78
389.575	11.23
389.94	11.05
390.306	11.07
390.671	10.97
391.036	11.06
391.401	11.1
391.766	11.25
392.131	10.91
392.496	11.14
392.861	11.17
393.226	11.12
393.591	11.14
393.956	11.41
394.32	11.34
394.685	11.14
395.05	11.65
395.414	11.41
395.779	11.22
396.143	11.14
396.508	11.36
396.872	11.54
397.236	11.38
397.601	11.64
397.965	11.47
398.329	11.45
398.694	11.69
399.058	11.61
399.422	11.72
399.786	11.85
400.15	11.8
400.514	11.6
400.878	11.7
401.242	11.71
401.605	11.87
401.969	11.87
402.333	11.6
402.697	11.9
403.06	11.98
403.424	11.85
403.787	11.75
404.151	11.82
404.514	11.55
404.878	12.03
405.241	11.98
405.604	11.96
405.968	12.03
406.331	11.8
406.694	11.79
407.057	11.94
407.42	11.94
407.783	11.85
408.146	11.98
408.509	12.07
408.872	11.94
409.235	12.15
409.598	12.23
409.961	12.2
410.323	12.09
410.686	12.31
411.049	12.27
411.411	12.3
411.774	12.24
412.136	12.22
412.499	12.31
412.861	12.42
413.223	12.27
413.586	12.45
413.948	12.63
414.31	12.46
414.672	12.49
415.035	12.45
415.397	12.39
415.759	12.6
416.121	12.47
416.483	12.58
416.845	12.86
417.206	12.44
417.568	12.66
417.93	12.75
418.292	12.35
418.653	12.69
419.015	12.66
419.377	12.64
419.738	12.73
420.1	12.59
420.461	12.87
420.822	12.64
421.184	12.74
421.545	12.59
421.906	12.73
422.267	12.67
422.629	12.59
422.99	12.72
423.351	12.69
423.712	12.85
424.073	12.91
424.434	13.02
424.795	12.98
425.155	12.86
425.516	12.97
425.877	12.99
426.238	13.11
426.598	12.86
426.959	13.01
427.32	13.12
427.68	13.14
428.041	13.35
428.401	13.13
428.761	13.46
429.122	13.31
429.482	13.52
429.842	13.5
430.202	13.86
430.563	13.63
430.923	13.76
431.283	13.56
431.643	13.7
432.003	14
432.363	13.65
432.722	13.89
433.082	13.94
433.442	14.08
433.802	13.97
434.161	13.92
434.521	13.96
434.881	14.03
435.24	13.87
435.6	13.88
435.959	13.99
436.319	13.92
436.678	14.05
437.037	14.1
437.396	14.2
437.756	14.11
438.115	14.4
438.474	14.34
438.833	14.37
439.192	14.41
439.551	14.34
439.91	14.42
440.269	14.48
440.628	14.44
440.987	14.25
441.345	14.43
441.704	14.22
442.063	14.29
442.421	14.4
442.78	14.33
443.138	14.59
443.497	14.51
443.855	14.56
444.214	14.57
444.572	14.8
444.93	14.78
445.288	14.74
445.647	14.83
446.005	14.88
446.363	14.88
446.721	14.75
447.079	14.85
447.437	14.72
447.795	14.74
448.153	14.7
448.51	14.72
448.868	14.76
449.226	14.76
449.584	14.86
449.941	15.07
450.299	15.06
450.656	15.34
451.014	15.15
451.371	15.35
451.729	15.24
452.086	15.26
452.443	15.29
452.801	15.42
453.158	15.47
453.515	15.37
453.872	15.41
454.229	15.52
454.586	15.48
454.943	15.49
455.3	15.62
455.657	15.62
456.014	15.76
456.371	15.58
456.727	15.73
457.084	15.48
457.441	15.85
457.797	15.9
458.154	15.75
458.51	15.84
458.867	15.86
459.223	16.06
459.58	15.83
459.936	15.83
460.292	15.89
460.648	15.95
461.005	15.84
461.361	15.72
461.717	15.68
462.073	15.84
462.429	15.67
462.785	15.98
463.141	15.98
463.496	16.06
463.852	16.28
464.208	16.31
464.564	16.31
464.919	16.36
465.275	16.26
465.631	16.36
465.986	16.66
466.342	16.42
466.697	16.32
467.052	16.51
467.408	16.61
467.763	16.39
468.118	16.85
468.473	16.58
468.829	16.59
469.184	16.68
469.539	16.88
469.894	16.74
470.249	16.58
470.603	16.69
470.958	16.74
471.313	16.98
471.668	17.03
472.023	16.72
472.377	17.12
472.732	17.01
473.086	16.89
473.441	16.94
473.795	16.82
474.15	17.11
474.504	17.26
474.859	17.16
475.213	17.27
475.567	17.2
475.921	17.21
476.275	17.2
476.63	17.64
476.984	17.33
477.338	17.4
477.692	17.39
478.045	17.35
478.399	17.57
478.753	17.34
479.107	17.59
479.461	17.53
479.814	17.38
480.168	17.46
480.521	17.55
480.875	17.62
481.228	17.52
481.582	17.66
481.935	17.57
482.289	17.56
482.642	17.62
482.995	17.58
483.348	17.66
483.701	17.53
484.055	17.31
484.408	17.47
484.761	17.16
485.114	16.98
485.466	17
485.819	17.01
486.172	17.04
486.525	17.17
486.878	17.23
487.23	17.33
487.583	17.5
487.936	17.57
488.288	17.49
488.641	17.42
488.993	17.39
489.345	17.39
489.698	17.39
490.05	17.41
490.402	17.58
490.754	17.71
491.107	17.78
491.459	18.05
491.811	18.02
492.163	18.14
492.515	18.04
492.866	17.86
493.218	17.79
493.57	17.82
493.922	17.88
494.274	17.98
494.625	18.21
494.977	18.31
495.328	18.45
495.68	18.63
496.031	18.69
496.383	18.61
496.734	18.71
497.086	18.91
497.437	18.86
497.788	19.01
498.139	18.71
498.49	18.78
498.842	18.73
499.193	18.79
499.544	18.93
499.894	18.9
500.245	18.96
500.596	19.04
500.947	19.16
501.298	19.17
501.648	19.09
501.999	19.23
502.35	19.4
502.7	19.45
503.051	19.43
503.401	19.44
503.752	19.43
504.102	19.52
504.452	19.45
504.803	19.56
505.153	19.52
505.503	19.66
505.853	19.56
506.203	19.63
506.553	19.51
506.903	19.6
507.253	19.75
507.603	19.83
507.953	19.79
508.303	19.59
508.652	20.04
509.002	19.72
509.352	19.83
509.701	19.8
510.051	19.56
510.4	19.77
510.75	19.81
511.099	19.85
511.449	19.87
511.798	20
512.147	19.85
512.496	19.96
512.846	20.21
513.195	20.1
513.544	20.03
513.893	20.03
514.242	20.11
514.591	20.08
514.939	20.22
515.288	20.23
515.637	20.32
515.986	20.44
516.334	20.39
516.683	20.55
517.032	20.57
517.38	20.53
517.729	20.63
518.077	20.49
518.426	20.59
518.774	20.6
519.122	20.72
519.47	20.58
519.819	20.47
520.167	20.39
520.515	20.45
520.863	20.55
521.211	20.61
521.559	20.52
521.907	20.69
522.255	20.83
522.602	20.9
522.95	20.98
523.298	21.06
523.645	21.09
523.993	21.17
524.341	21.2
524.688	21.3
525.036	21.27
525.383	21.21
525.73	21.11
526.078	21.17
526.425	21.09
526.772	21.16
527.119	20.92
527.466	20.97
527.814	21.1
528.161	21.06
528.508	21.2
528.854	21.12
529.201	21.01
529.548	20.96
529.895	20.76
530.242	20.76
530.588	20.81
530.935	20.85
531.282	20.93
531.628	20.98
531.975	21.1
532.321	21.24
532.667	21.46
533.014	21.56
533.36	21.62
533.706	21.7
534.052	21.66
534.399	21.5
534.745	21.41
535.091	21.4
535.437	21.4
535.783	21.49
536.129	21.64
536.474	21.7
536.82	21.86
537.166	21.92
537.512	22.06
537.857	21.98
538.203	21.96
538.549	22.04
538.894	22
539.239	22.05
539.585	22.31
539.93	22.18
540.276	22.51
540.621	22.63
540.966	22.7
541.311	22.58
541.656	22.68
542.001	22.49
542.346	22.34
542.691	22.18
543.036	22.04
543.381	22.11
543.726	22.05
544.071	22.28
544.415	22.33
544.76	22.46
545.105	22.53
545.449	22.64
545.794	22.78
546.138	22.74
546.483	23
546.827	23.28
547.171	23.13
547.516	23
547.86	23.07
548.204	23.16
548.548	23.05
548.892	23.17
549.236	23.26
549.58	23.34
549.924	23.47
550.268	23.52
550.612	23.62
550.956	23.71
551.3	23.59
551.643	23.84
551.987	23.8
552.33	23.83
552.674	23.95
553.017	24.01
553.361	23.91
553.704	23.86
554.048	23.99
554.391	24.01
554.734	24.15
555.077	24.23
555.42	24.03
555.764	24.21
556.107	24.2
556.45	24.11
556.793	24.27
557.135	24.36
557.478	24.31
557.821	24.52
558.164	24.43
558.507	24.46
558.849	24.51
559.192	24.5
559.534	24.52
559.877	24.88
560.219	24.8
560.562	24.73
560.904	24.89
561.246	24.74
561.589	24.69
561.931	24.7
562.273	24.94
562.615	24.97
562.957	24.96
563.299	24.92
563.641	24.97
563.983	25.15
564.325	24.96
564.667	25.46
565.008	25.26
565.35	25.34
565.692	25.07
566.033	25.01
566.375	25.28
566.716	25.43
567.058	25.47
567.399	25.26
567.741	25.33
568.082	25.41
568.423	25.42
568.764	25.49
569.105	25.49
569.447	25.65
569.788	25.42
570.129	25.53
570.47	25.76
570.811	25.77
571.151	25.96
571.492	25.79
571.833	25.98
572.174	25.9
572.514	25.91
572.855	26.08
573.195	25.75
573.536	26
573.876	26.04
574.217	26.18
574.557	25.95
574.898	25.95
575.238	26.09
575.578	26.2
575.918	26.2
576.258	26.19
576.598	26.24
576.938	26.2
577.278	26.27
577.618	26.34
577.958	26.31
578.298	26.4
578.638	26.41
578.977	26.42
579.317	26.87
579.657	26.84
579.996	26.43
580.336	26.66
580.675	26.8
581.014	26.69
581.354	26.86
581.693	27.06
582.032	26.65
582.372	27.11
582.711	27.26
583.05	27.11
583.389	27.25
583.728	27.21
584.067	27.18
584.406	27.2
584.745	27.49
585.083	27.06
585.422	27.38
585.761	27.5
586.1	27.52
586.438	27.23
586.777	27.47
587.115	27.53
587.454	27.41
587.792	27.61
588.13	27.54
588.469	27.47
588.807	27.52
589.145	27.81
589.483	28.14
589.821	27.92
590.159	27.68
590.497	28.18
590.835	27.97
591.173	27.95
591.511	27.96
591.849	28.1
592.187	27.99
592.524	27.93
592.862	27.94
593.2	28.52
593.537	28.45
593.875	28.55
594.212	28.46
594.55	28.42
594.887	28.4
595.224	28.44
595.561	28.29
595.899	28.22
596.236	28.43
596.573	28.51
596.91	28.5
597.247	28.65
597.584	28.26
597.921	28.62
598.258	28.39
598.594	28.67
598.931	28.57
599.268	28.62
599.604	28.47
599.941	28.79
600.277	28.9
600.614	28.87
600.95	28.58
601.287	29.05
601.623	29.42
601.959	29.24
602.296	29.23
602.632	29.02
602.968	29.08
603.304	29.29
603.64	29.37
603.976	29.29
604.312	29.52
604.648	29.29
604.984	29.28
605.319	29.41
605.655	29.26
605.991	29.46
606.326	29.55
606.662	29.3
606.998	29.27
607.333	29.36
607.668	29.23
608.004	29.62
608.339	29.64
608.674	29.59
609.01	30
609.345	29.44
609.68	29.92
610.015	30.04
610.35	29.84
610.685	29.95
611.02	29.83
611.355	29.82
611.689	29.8
612.024	29.83
612.359	29.89
612.694	29.83
613.028	30.13
613.363	30.02
613.697	30.23
614.032	30.27
614.366	30.27
614.7	30.55
615.035	30.48
615.369	30.48
615.703	30.76
616.037	30.92
616.371	30.66
616.705	31.13
617.039	31.07
617.373	30.98
617.707	30.47
618.041	31.05
618.375	30.78
618.709	31.2
619.042	31.06
619.376	30.53
619.71	31.27
620.043	31
620.377	31.04
620.71	30.99
621.043	30.9
621.377	31.21
621.71	31.23
622.043	31.44
622.376	31.55
622.709	31.11
623.043	31.46
623.376	31.54
623.709	31.38
624.041	31.45
624.374	31.23
624.707	31.59
625.04	31.18
625.373	31.69
625.705	31.6
626.038	31.63
626.37	31.69
626.703	31.25
627.035	31.96
627.368	31.43
627.7	31.47
628.032	31.7
628.365	31.84
628.697	31.87
629.029	31.94
629.361	31.9
629.693	31.93
630.025	32.02
630.357	31.84
630.689	32.21
631.021	32.06
631.353	32.19
631.684	32.21
632.016	32.38
632.348	32.21
632.679	32.42
633.011	32.76
633.342	32.87
633.674	32.25
634.005	32.14
634.336	32.38
634.668	33.16
634.999	32.54
635.33	32.59
635.661	32.66
635.992	32.64
636.323	32.81
636.654	32.82
636.985	32.7
637.316	32.94
637.647	32.93
637.977	33.33
638.308	33.25
638.639	33.04
638.969	33.09
639.3	33.38
639.63	33.19
639.961	33.27
640.291	33.62
640.622	33.48
640.952	33.63
641.282	33.43
641.612	33.6
641.943	33.68
642.273	33.84
642.603	33.76
642.933	34.02
643.263	33.66
643.592	33.53
643.922	33.5
644.252	33.64
644.582	34.03
644.911	33.79
645.241	33.77
645.571	33.81
645.9	33.84
646.23	34.32
646.559	34.28
646.888	34.54
647.218	34.01
647.547	34.1
647.876	33.73
648.205	33.68
648.534	33.68
648.863	34.23
649.192	33.61
649.521	34.38
649.85	34.32
650.179	34.34
650.508	34.3
650.837	34.41
651.165	34.36
651.494	34.65
651.822	34.64
652.151	34.34
652.479	34.1
652.808	34.21
653.136	34.4
653.465	35.08
653.793	34.68
654.121	34.58
654.449	34.75
654.777	35.3
655.105	34.92
655.433	34.76
655.761	34.77
656.089	35.08
656.417	34.61
656.745	35.57
657.073	34.87
657.4	34.94
657.728	35.39
658.056	35.59
658.383	35.38
658.711	35.27
659.038	35.36
659.365	34.63
659.693	35.73
660.02	36.26
660.347	35.35
660.674	35.44
661.001	35.23
661.329	35.34
661.656	35.43
661.982	35.78
662.309	35.67
662.636	35.7
662.963	35.66
663.29	35.84
663.616	35.72
663.943	35.83
664.27	35.56
664.596	36.42
664.923	35.71
665.249	35.95
665.576	36.42
665.902	35.56
666.228	35.81
666.554	36.05
666.881	35.63
667.207	36.29
667.533	36.33
667.859	36.68
668.185	36.23
668.511	36.01
668.837	35.95
669.162	36.41
669.488	36.57
669.814	36.31
670.139	36.98
670.465	36.15
670.791	36.15
671.116	36.55
671.442	36.49
671.767	36.39
672.092	36.88
672.418	36.32
672.743	36.87
