Data from 20-4_crown_Reflection__4__84.txt Node

Date: Fri Nov 11 20:48:12 CST 2022
User: ToomeyLab
Spectrometer: FLMS14357
Trigger mode: 0
Integration Time (sec): 1.000000E-2
Scans to average: 100
Electric dark correction enabled: true
Nonlinearity correction enabled: false
Boxcar width: 0
XAxis mode: Wavelengths
Number of Pixels in Spectrum: 2048
>>>>>Begin Spectral Data<<<<<
189.047	-150.95
189.435	-150.95
189.823	-150.95
190.211	-157
190.599	7.48
190.987	12.65
191.375	83.27
191.763	13.64
192.151	-1595.15
192.538	-51.42
192.926	24.5
193.314	44.61
193.702	676.17
194.089	25.08
194.477	99.45
194.864	34.03
195.252	313.22
195.639	-34.56
196.027	87.48
196.414	20.35
196.801	330.55
197.189	858.44
197.576	-114.52
197.963	16.62
198.351	-26.58
198.738	-20.47
199.125	-14.79
199.512	14.96
199.899	-90.53
200.286	9.82
200.673	17.82
201.06	5.22
201.447	11.18
201.833	13.32
202.22	-11.25
202.607	-38.13
202.994	8.35
203.38	15.54
203.767	-3.39
204.154	45.54
204.54	24.24
204.927	0.17
205.313	-11.05
205.699	-17.08
206.086	27.4
206.472	-11.51
206.858	23.59
207.245	62.56
207.631	-1.07
208.017	-11.56
208.403	13.43
208.789	-5.37
209.175	4.47
209.561	30.64
209.947	-8.71
210.333	6.19
210.719	34.35
211.105	42.37
211.491	4.74
211.876	-3.57
212.262	8.74
212.648	-25.48
213.034	-4.82
213.419	-27.31
213.805	-14.66
214.19	1.56
214.576	-3.44
214.961	-48.14
215.346	-46.27
215.732	-29.82
216.117	9.8
216.502	-13.83
216.888	-19.3
217.273	9.49
217.658	-39.4
218.043	-4.81
218.428	-0.48
218.813	3.99
219.198	12.84
219.583	3.38
219.968	-6.42
220.353	-10.13
220.738	-17.99
221.122	-3.57
221.507	4.86
221.892	-24.19
222.276	12.51
222.661	8.72
223.046	-7.97
223.43	-15.69
223.815	3.76
224.199	11.17
224.583	-4.41
224.968	-5.27
225.352	5.26
225.736	-7.92
226.121	4.88
226.505	1.05
226.889	-13.92
227.273	-5.2
227.657	-1.23
228.041	1.87
228.425	2.49
228.809	2.45
229.193	7.85
229.577	5
229.961	4.12
230.344	3.61
230.728	2.45
231.112	2.03
231.495	3.25
231.879	1.84
232.263	2.21
232.646	2.16
233.03	3.28
233.413	2.72
233.797	2.44
234.18	0.89
234.563	5.83
234.946	4.01
235.33	3.07
235.713	1.92
236.096	1.84
236.479	1.66
236.862	4.49
237.245	2.91
237.628	3.02
238.011	2.77
238.394	3.88
238.777	2.64
239.16	3.47
239.543	2.78
239.925	3.56
240.308	3.25
240.691	3.49
241.073	3.06
241.456	2.34
241.838	4.8
242.221	3.01
242.603	3.53
242.986	3.13
243.368	3.48
243.75	3.37
244.133	3.14
244.515	3.22
244.897	3.85
245.279	2.6
245.661	4.04
246.043	2.9
246.425	4.11
246.807	3.07
247.189	2.92
247.571	3.51
247.953	3.22
248.335	3.24
248.717	3.39
249.098	3.5
249.48	3.01
249.862	3.48
250.243	3.06
250.625	3.24
251.006	3.86
251.388	2.93
251.769	3.86
252.151	3.28
252.532	3.42
252.913	3.99
253.295	3.63
253.676	2.5
254.057	2.77
254.438	3.1
254.819	3.36
255.2	4.1
255.581	2.79
255.962	2.56
256.343	3.7
256.724	2.83
257.105	2.85
257.486	2.85
257.867	3.01
258.247	2.29
258.628	2.47
259.009	2.82
259.389	2.79
259.77	3.96
260.15	2.74
260.531	2.86
260.911	2.77
261.292	3.32
261.672	2.99
262.052	3.22
262.432	3.26
262.813	2.96
263.193	3.38
263.573	3.08
263.953	3.76
264.333	3.02
264.713	3.07
265.093	3.16
265.473	2.35
265.853	2.46
266.233	2.74
266.612	3.11
266.992	2.36
267.372	3.07
267.752	3.34
268.131	2.86
268.511	3.4
268.89	2.73
269.27	3.05
269.649	3.27
270.029	3.23
270.408	3.08
270.787	2.67
271.167	2.55
271.546	2.67
271.925	3.05
272.304	3.24
272.683	2.78
273.062	2.86
273.441	3.46
273.82	2.84
274.199	2.89
274.578	2.68
274.957	2.96
275.336	3.19
275.715	3.19
276.093	2.95
276.472	2.98
276.851	2.82
277.229	2.17
277.608	2.57
277.986	2.87
278.365	2.58
278.743	3.25
279.122	3.15
279.5	2.87
279.878	3.36
280.257	3.38
280.635	2.67
281.013	2.59
281.391	2.93
281.769	2.35
282.147	2.8
282.525	2.15
282.903	2.84
283.281	2.64
283.659	3.01
284.037	3.03
284.415	2.98
284.792	2.86
285.17	3.12
285.548	2.9
285.925	2.74
286.303	2.64
286.68	3.14
287.058	2.71
287.435	2.7
287.813	2.9
288.19	2.92
288.567	2.8
288.945	2.99
289.322	3.39
289.699	2.09
290.076	3.33
290.453	3.16
290.83	2.53
291.207	2.69
291.584	3.1
291.961	2.96
292.338	2.77
292.715	3.22
293.092	3.03
293.469	3.11
293.845	2.91
294.222	2.47
294.599	3.12
294.975	2.8
295.352	2.69
295.728	3.07
296.105	2.84
296.481	2.44
296.858	2.78
297.234	3.08
297.61	2.48
297.986	2.85
298.363	3.11
298.739	2.96
299.115	3.16
299.491	3.04
299.867	2.78
300.243	2.9
300.619	2.77
300.995	3.11
301.371	3.61
301.746	3.24
302.122	2.94
302.498	3.19
302.874	3.03
303.249	3.1
303.625	2.7
304	2.64
304.376	3.43
304.751	3.03
305.127	2.7
305.502	2.98
305.878	3.44
306.253	2.95
306.628	2.89
307.003	3.11
307.378	3.28
307.754	3.6
308.129	2.85
308.504	3.06
308.879	3.11
309.254	2.93
309.629	2.65
310.003	2.89
310.378	3.12
310.753	2.93
311.128	3.52
311.502	3.24
311.877	3.26
312.252	3
312.626	3.25
313.001	2.67
313.375	2.98
313.75	2.98
314.124	2.85
314.498	2.75
314.873	2.92
315.247	3.14
315.621	3.04
315.995	3.41
316.369	2.76
316.743	2.88
317.117	3.11
317.491	3.23
317.865	2.68
318.239	3
318.613	3.27
318.987	3.14
319.361	2.57
319.734	2.79
320.108	2.91
320.482	3.02
320.855	3.1
321.229	2.96
321.602	3.39
321.976	2.23
322.349	3.22
322.723	3.33
323.096	2.84
323.469	2.82
323.843	2.95
324.216	2.84
324.589	3
324.962	3.88
325.335	2.78
325.708	3.33
326.081	3.16
326.454	2.68
326.827	2.6
327.2	3.44
327.573	3.37
327.945	2.97
328.318	2.78
328.691	3.28
329.063	2.94
329.436	3.09
329.809	3.04
330.181	2.92
330.553	2.58
330.926	2.86
331.298	3
331.671	2.64
332.043	3.02
332.415	3.08
332.787	3.6
333.159	3.18
333.532	3.02
333.904	3.8
334.276	2.8
334.648	3.68
335.02	3.34
335.391	3.38
335.763	2.81
336.135	2.73
336.507	2.82
336.879	2.88
337.25	3.31
337.622	3.09
337.993	3.08
338.365	3.19
338.736	3.3
339.108	2.88
339.479	2.79
339.851	3.35
340.222	3.01
340.593	3.49
340.964	3.11
341.336	3.48
341.707	3.08
342.078	2.6
342.449	3.44
342.82	3.48
343.191	3.18
343.562	3.22
343.933	2.82
344.303	2.77
344.674	3.05
345.045	2.95
345.416	3.03
345.786	2.95
346.157	2.72
346.527	2.93
346.898	2.87
347.268	2.74
347.639	2.87
348.009	2.9
348.38	3.22
348.75	3.15
349.12	3.63
349.49	3.14
349.861	2.82
350.231	3.1
350.601	3.06
350.971	3.13
351.341	3.11
351.711	3.11
352.081	3.22
352.45	3.53
352.82	2.78
353.19	3.11
353.56	3.07
353.929	2.96
354.299	3.34
354.669	3.27
355.038	3.12
355.408	3.34
355.777	3.35
356.147	3.45
356.516	3.14
356.885	3.32
357.254	3.06
357.624	2.64
357.993	2.95
358.362	3.06
358.731	2.76
359.1	3.28
359.469	2.81
359.838	3
360.207	3.51
360.576	3.24
360.945	3.16
361.314	2.76
361.682	3.19
362.051	3.03
362.42	3.16
362.788	3.26
363.157	3.15
363.525	2.96
363.894	2.99
364.262	3.27
364.631	3.13
364.999	3.11
365.367	3.21
365.735	2.99
366.104	3.06
366.472	2.83
366.84	2.63
367.208	3.04
367.576	3.49
367.944	3.17
368.312	3.12
368.68	3.15
369.048	3.13
369.416	3.32
369.783	3.29
370.151	3.17
370.519	3.38
370.886	3.11
371.254	3.39
371.621	3.04
371.989	2.85
372.356	3.47
372.724	3.47
373.091	3.4
373.458	3.14
373.826	2.99
374.193	2.77
374.56	3.13
374.927	3.09
375.294	3.11
375.661	3.2
376.028	2.68
376.395	3.08
376.762	3.38
377.129	3.15
377.496	2.99
377.863	3.46
378.229	3.07
378.596	3.12
378.963	2.89
379.329	3.15
379.696	3.1
380.062	2.94
380.429	3.24
380.795	3.69
381.161	3.16
381.528	3.2
381.894	3.21
382.26	3.15
382.626	3.66
382.993	3.27
383.359	3.12
383.725	3.24
384.091	3.11
384.457	2.96
384.823	3.12
385.188	3.15
385.554	3.04
385.92	3.23
386.286	3.03
386.651	3.32
387.017	3.12
387.383	3.07
387.748	2.9
388.114	3.09
388.479	2.95
388.845	3.05
389.21	3.05
389.575	3.36
389.94	3.07
390.306	3.07
390.671	3.13
391.036	3.34
391.401	3.42
391.766	3.45
392.131	3.01
392.496	3.29
392.861	3.18
393.226	3.13
393.591	3.03
393.956	3.17
394.32	3.1
394.685	3.2
395.05	3.52
395.414	3.09
395.779	3.2
396.143	3.19
396.508	3.47
396.872	3.32
397.236	2.99
397.601	3.23
397.965	3.28
398.329	3.28
398.694	3.25
399.058	3.2
399.422	3.22
399.786	3.21
400.15	3.36
400.514	3.33
400.878	3.22
401.242	3.19
401.605	3.38
401.969	3.33
402.333	3.08
402.697	3.35
403.06	3.49
403.424	3.05
403.787	3.23
404.151	3.25
404.514	3.35
404.878	3.18
405.241	3.3
405.604	3.2
405.968	3.25
406.331	2.99
406.694	3.07
407.057	3.26
407.42	3.44
407.783	3.12
408.146	3.23
408.509	3.24
408.872	3.14
409.235	3.32
409.598	3.2
409.961	3.39
410.323	3.3
410.686	3.17
411.049	3.1
411.411	3.22
411.774	3.05
412.136	3.12
412.499	3.28
412.861	3.37
413.223	2.99
413.586	3.44
413.948	3.39
414.31	3.38
414.672	3.31
415.035	3.17
415.397	3.09
415.759	3.12
416.121	3.23
416.483	3.22
416.845	3.32
417.206	3.17
417.568	3.27
417.93	3.16
418.292	3.11
418.653	3.19
419.015	3.06
419.377	3.05
419.738	3.25
420.1	3.18
420.461	3.3
420.822	3.13
421.184	3.16
421.545	3.14
421.906	3.15
422.267	3.12
422.629	3.07
422.99	3.15
423.351	3.08
423.712	3.15
424.073	3.12
424.434	3.27
424.795	3.33
425.155	3.19
425.516	3.16
425.877	3.19
426.238	3.14
426.598	3.1
426.959	3.13
427.32	3.24
427.68	3.27
428.041	3.39
428.401	2.98
428.761	3.32
429.122	3.27
429.482	3.23
429.842	3.33
430.202	3.28
430.563	3.46
430.923	3.32
431.283	2.99
431.643	3.2
432.003	3.42
432.363	3.24
432.722	3.46
433.082	3.32
433.442	3.32
433.802	3.44
434.161	3.23
434.521	3.3
434.881	3.37
435.24	3.27
435.6	3.25
435.959	3.23
436.319	3.27
436.678	3.24
437.037	3.2
437.396	3.41
437.756	3.35
438.115	3.05
438.474	3.1
438.833	3.2
439.192	3.31
439.551	3.06
439.91	3.16
440.269	3.21
440.628	3.38
440.987	3.12
441.345	3.3
441.704	3.22
442.063	3.26
442.421	3.23
442.78	3.27
443.138	3.3
443.497	3.17
443.855	3.33
444.214	3.27
444.572	3.35
444.93	3.18
445.288	3.28
445.647	3.4
446.005	3.34
446.363	3.39
446.721	3.38
447.079	3.34
447.437	3.22
447.795	3.25
448.153	3.19
448.51	3.22
448.868	3.21
449.226	3.26
449.584	3.23
449.941	3.28
450.299	3.22
450.656	3.29
451.014	3.49
451.371	3.26
451.729	3.25
452.086	3.27
452.443	3.37
452.801	3.41
453.158	3.25
453.515	3.35
453.872	3.21
454.229	3.26
454.586	3.17
454.943	3.48
455.3	3.4
455.657	3.43
456.014	3.35
456.371	3.37
456.727	3.31
457.084	3.17
457.441	3.37
457.797	3.44
458.154	3.29
458.51	3.36
458.867	3.31
459.223	3.33
459.58	3.32
459.936	3.27
460.292	3.31
460.648	3.33
461.005	3.16
461.361	3.21
461.717	3.22
462.073	3.35
462.429	3.24
462.785	3.27
463.141	3.28
463.496	3.21
463.852	3.45
464.208	3.43
464.564	3.31
464.919	3.26
465.275	3.3
465.631	3.34
465.986	3.52
466.342	3.34
466.697	3.34
467.052	3.45
467.408	3.52
467.763	3.32
468.118	3.36
468.473	3.51
468.829	3.43
469.184	3.21
469.539	3.51
469.894	3.56
470.249	3.37
470.603	3.26
470.958	3.3
471.313	3.43
471.668	3.56
472.023	3.24
472.377	3.38
472.732	3.46
473.086	3.3
473.441	3.32
473.795	3.46
474.15	3.43
474.504	3.48
474.859	3.22
475.213	3.53
475.567	3.42
475.921	3.39
476.275	3.41
476.63	3.31
476.984	3.47
477.338	3.49
477.692	3.23
478.045	3.28
478.399	3.4
478.753	3.35
479.107	3.46
479.461	3.29
479.814	3.3
480.168	3.36
480.521	3.42
480.875	3.41
481.228	3.29
481.582	3.42
481.935	3.24
482.289	3.26
482.642	3.34
482.995	3.25
483.348	3.4
483.701	3.35
484.055	3.2
484.408	3.32
484.761	3.21
485.114	3.14
485.466	3.14
485.819	3.15
486.172	3.14
486.525	3.21
486.878	3.25
487.23	3.21
487.583	3.34
487.936	3.29
488.288	3.32
488.641	3.16
488.993	3.21
489.345	3.13
489.698	3.22
490.05	3.21
490.402	3.19
490.754	3.3
491.107	3.26
491.459	3.31
491.811	3.35
492.163	3.29
492.515	3.29
492.866	3.26
493.218	3.19
493.57	3.18
493.922	3.21
494.274	3.29
494.625	3.37
494.977	3.46
495.328	3.36
495.68	3.36
496.031	3.34
496.383	3.43
496.734	3.49
497.086	3.43
497.437	3.61
497.788	3.3
498.139	3.39
498.49	3.32
498.842	3.25
499.193	3.39
499.544	3.48
499.894	3.41
500.245	3.46
500.596	3.41
500.947	3.39
501.298	3.32
501.648	3.37
501.999	3.38
502.35	3.51
502.7	3.43
503.051	3.38
503.401	3.44
503.752	3.31
504.102	3.33
504.452	3.58
504.803	3.34
505.153	3.41
505.503	3.43
505.853	3.4
506.203	3.51
506.553	3.36
506.903	3.34
507.253	3.35
507.603	3.35
507.953	3.33
508.303	3.28
508.652	3.47
509.002	3.38
509.352	3.44
509.701	3.51
510.051	3.35
510.4	3.49
510.75	3.39
511.099	3.35
511.449	3.43
511.798	3.45
512.147	3.32
512.496	3.34
512.846	3.45
513.195	3.41
513.544	3.32
513.893	3.38
514.242	3.35
514.591	3.45
514.939	3.32
515.288	3.31
515.637	3.41
515.986	3.42
516.334	3.46
516.683	3.38
517.032	3.43
517.38	3.48
517.729	3.42
518.077	3.35
518.426	3.47
518.774	3.45
519.122	3.5
519.47	3.38
519.819	3.42
520.167	3.32
520.515	3.32
520.863	3.36
521.211	3.36
521.559	3.3
521.907	3.41
522.255	3.34
522.602	3.37
522.95	3.41
523.298	3.46
523.645	3.48
523.993	3.5
524.341	3.49
524.688	3.54
525.036	3.58
525.383	3.4
525.73	3.38
526.078	3.35
526.425	3.39
526.772	3.35
527.119	3.33
527.466	3.42
527.814	3.43
528.161	3.44
528.508	3.34
528.854	3.28
529.201	3.3
529.548	3.28
529.895	3.22
530.242	3.16
530.588	3.19
530.935	3.22
531.282	3.24
531.628	3.27
531.975	3.28
532.321	3.31
532.667	3.41
533.014	3.4
533.36	3.29
533.706	3.44
534.052	3.43
534.399	3.29
534.745	3.31
535.091	3.26
535.437	3.24
535.783	3.22
536.129	3.35
536.474	3.44
536.82	3.35
537.166	3.35
537.512	3.39
537.857	3.34
538.203	3.32
538.549	3.41
538.894	3.33
539.239	3.35
539.585	3.37
539.93	3.49
540.276	3.58
540.621	3.48
540.966	3.49
541.311	3.4
541.656	3.39
542.001	3.36
542.346	3.33
542.691	3.28
543.036	3.21
543.381	3.26
543.726	3.24
544.071	3.31
544.415	3.38
544.76	3.39
545.105	3.26
545.449	3.28
545.794	3.37
546.138	3.36
546.483	3.41
546.827	3.43
547.171	3.5
547.516	3.27
547.86	3.32
548.204	3.41
548.548	3.37
548.892	3.36
549.236	3.23
549.58	3.42
549.924	3.41
550.268	3.5
550.612	3.53
550.956	3.62
551.3	3.41
551.643	3.41
551.987	3.41
552.33	3.59
552.674	3.4
553.017	3.51
553.361	3.48
553.704	3.52
554.048	3.38
554.391	3.49
554.734	3.43
555.077	3.49
555.42	3.5
555.764	3.42
556.107	3.54
556.45	3.69
556.793	3.4
557.135	3.58
557.478	3.5
557.821	3.58
558.164	3.49
558.507	3.49
558.849	3.45
559.192	3.52
559.534	3.56
559.877	3.54
560.219	3.45
560.562	3.53
560.904	3.52
561.246	3.18
561.589	3.48
561.931	3.38
562.273	3.43
562.615	3.45
562.957	3.56
563.299	3.37
563.641	3.32
563.983	3.45
564.325	3.36
564.667	3.57
565.008	3.65
565.35	3.53
565.692	3.3
566.033	3.36
566.375	3.65
566.716	3.39
567.058	3.37
567.399	3.58
567.741	3.58
568.082	3.48
568.423	3.45
568.764	3.66
569.105	3.56
569.447	3.66
569.788	3.5
570.129	3.49
570.47	3.4
570.811	3.58
571.151	3.61
571.492	3.61
571.833	3.46
572.174	3.55
572.514	3.49
572.855	3.61
573.195	3.4
573.536	3.49
573.876	3.49
574.217	3.48
574.557	3.45
574.898	3.49
575.238	3.53
575.578	3.57
575.918	3.66
576.258	3.58
576.598	3.34
576.938	3.57
577.278	3.44
577.618	3.63
577.958	3.49
578.298	3.6
578.638	3.6
578.977	3.7
579.317	3.62
579.657	3.6
579.996	3.51
580.336	3.63
580.675	3.74
581.014	3.65
581.354	3.59
581.693	3.37
582.032	3.38
582.372	3.31
582.711	3.52
583.05	3.48
583.389	3.8
583.728	3.45
584.067	3.67
584.406	3.39
584.745	3.96
585.083	3.43
585.422	3.62
585.761	3.47
586.1	3.28
586.438	3.43
586.777	3.43
587.115	3.55
587.454	3.69
587.792	3.41
588.13	3.35
588.469	3.63
588.807	3.63
589.145	3.57
589.483	3.77
589.821	3.8
590.159	3.8
590.497	3.92
590.835	3.62
591.173	3.53
591.511	3.46
591.849	3.55
592.187	3.33
592.524	3.34
592.862	3.25
593.2	3.59
593.537	3.65
593.875	3.66
594.212	3.48
594.55	3.81
594.887	3.62
595.224	3.46
595.561	3.51
595.899	3.53
596.236	3.6
596.573	3.47
596.91	3.59
597.247	3.56
597.584	3.39
597.921	3.64
598.258	3.76
598.594	3.47
598.931	3.28
599.268	3.62
599.604	3.61
599.941	3.55
600.277	3.49
600.614	3.78
600.95	3.47
601.287	3.57
601.623	3.72
601.959	3.89
602.296	3.4
602.632	3.52
602.968	3.44
603.304	3.75
603.64	3.67
603.976	3.63
604.312	3.59
604.648	3.47
604.984	3.53
605.319	3.54
605.655	3.61
605.991	3.67
606.326	3.69
606.662	3.62
606.998	3.45
607.333	3.63
607.668	3.46
608.004	3.65
608.339	3.69
608.674	3.65
609.01	3.49
609.345	3.49
609.68	3.43
610.015	3.67
610.35	3.58
610.685	3.62
611.02	3.45
611.355	3.52
611.689	3.52
612.024	3.43
612.359	3.39
612.694	3.46
613.028	3.71
613.363	3.72
613.697	3.79
614.032	3.54
614.366	3.45
614.7	3.52
615.035	3.57
615.369	3.44
615.703	3.44
616.037	3.77
616.371	3.31
616.705	4.11
617.039	3.65
617.373	3.39
617.707	3.68
618.041	3.64
618.375	3.4
618.709	3.62
619.042	3.59
619.376	3.71
619.71	3.31
620.043	3.58
620.377	3.55
620.71	3.43
621.043	3.69
621.377	3.58
621.71	3.35
622.043	3.78
622.376	3.72
622.709	3.45
623.043	3.56
623.376	4.1
623.709	3.6
624.041	3.61
624.374	3.66
624.707	3.76
625.04	3.52
625.373	3.47
625.705	3.59
626.038	3.7
626.37	3.71
626.703	3.62
627.035	3.48
627.368	3.51
627.7	3.42
628.032	3.61
628.365	3.78
628.697	3.36
629.029	3.47
629.361	3.46
629.693	3.57
630.025	3.49
630.357	3.45
630.689	3.72
631.021	3.87
631.353	3.82
631.684	3.77
632.016	3.56
632.348	3.43
632.679	3.69
633.011	3.59
633.342	3.77
633.674	3.31
634.005	3.35
634.336	3.36
634.668	3.67
634.999	3.89
635.33	3.72
635.661	3.69
635.992	3.66
636.323	3.27
636.654	3.52
636.985	3.62
637.316	3.46
637.647	3.84
637.977	3.69
638.308	4.02
638.639	3.57
638.969	3.39
639.3	4.16
639.63	4.16
639.961	3.52
640.291	3.72
640.622	3.9
640.952	3.86
641.282	3.45
641.612	3.43
641.943	3.95
642.273	3.45
642.603	3.82
642.933	3.75
643.263	3.38
643.592	3.63
643.922	3.7
644.252	4.02
644.582	4.1
644.911	3.51
645.241	3.58
645.571	3.45
645.9	3.64
646.23	4.07
646.559	3.74
646.888	3.89
647.218	3.53
647.547	3.5
647.876	3.45
648.205	3.7
648.534	3.53
648.863	3.57
649.192	3.45
649.521	3.85
649.85	4.02
650.179	3.86
650.508	3.63
650.837	4.12
651.165	3.55
651.494	4.06
651.822	3.52
652.151	3.36
652.479	3.35
652.808	3.64
653.136	3.01
653.465	4.04
653.793	3.63
654.121	3.64
654.449	3.28
654.777	3.99
655.105	3.91
655.433	4.05
655.761	3.3
656.089	3.73
656.417	3.43
656.745	3.83
657.073	3.17
657.4	3.42
657.728	3.89
658.056	4.27
658.383	3.14
658.711	3.33
659.038	3.94
659.365	3.69
659.693	3.12
660.02	3.94
660.347	4
660.674	3.72
661.001	4.09
661.329	3.47
661.656	3.71
661.982	3.94
662.309	3.53
662.636	3.77
662.963	3.49
663.29	3.31
663.616	3.74
663.943	3.69
664.27	3.78
664.596	4.27
664.923	4.01
665.249	4.33
665.576	4.22
665.902	4.02
666.228	3.8
666.554	3.68
666.881	3.64
667.207	4.01
667.533	4.15
667.859	3.75
668.185	4.11
668.511	3.67
668.837	3.83
669.162	3.82
669.488	3.5
669.814	3.69
670.139	3.73
670.465	3.3
670.791	3.55
671.116	4.01
671.442	4.06
671.767	4.27
672.092	3.55
672.418	3.08
672.743	3.92
673.068	4.35
673.393	4.21
673.718	4.02
674.043	4.14
674.368	3.75
674.693	3.93
675.018	3.91
675.343	4.02
675.667	3.98
675.992	4.2
676.317	3.22
676.641	3.31
676.966	4.23
677.29	4.55
677.615	3.87
677.939	4.02
678.264	3.91
678.588	3.49
678.912	3.46
679.236	4.16
679.56	4.35
679.885	3.67
680.209	3.54
680.532	4.46
680.856	4.1
681.18	4.01
681.504	4
681.828	4.18
682.152	3.83
682.475	3.98
682.799	3.67
683.122	3.8
683.446	4.18
683.769	4.12
684.093	4.35
684.416	3.74
684.739	3.97
685.062	3.5
685.386	4.22
685.709	4.15
686.032	3.59
686.355	3.82
686.678	4.51
687.001	3.89
687.324	4.17
687.646	3.87
687.969	4.57
688.292	4.66
688.614	3.7
688.937	3.77
689.26	3.18
689.582	4.27
689.904	4.4
690.227	4.38
690.549	3.95
690.871	3.82
691.194	3.75
691.516	3.8
691.838	3.88
692.16	3.99
