Data from 20-4_forehead_Reflection__1__86.txt Node

Date: Fri Nov 11 20:48:47 CST 2022
User: ToomeyLab
Spectrometer: FLMS14357
Trigger mode: 0
Integration Time (sec): 1.000000E-2
Scans to average: 100
Electric dark correction enabled: true
Nonlinearity correction enabled: false
Boxcar width: 0
XAxis mode: Wavelengths
Number of Pixels in Spectrum: 2048
>>>>>Begin Spectral Data<<<<<
189.047	-243.88
189.435	-243.88
189.823	-243.88
190.211	-97.48
190.599	81.08
190.987	12.83
191.375	111.86
191.763	-161.24
192.151	533.33
192.538	-13.97
192.926	93.89
193.314	79.97
193.702	547.45
194.089	99.4
194.477	67.52
194.864	126.31
195.252	73.94
195.639	155.11
196.027	-28.11
196.414	56.47
196.801	362.49
197.189	-246.4
197.576	189.5
197.963	-8.63
198.351	11.89
198.738	34.65
199.125	23.26
199.512	19.8
199.899	-70.76
200.286	9.77
200.673	10.67
201.06	15.79
201.447	31.47
201.833	-13.39
202.22	1.71
202.607	16.05
202.994	49.92
203.38	46.21
203.767	19.36
204.154	43.16
204.54	24.79
204.927	36.32
205.313	29.11
205.699	-32.82
206.086	26.32
206.472	49.04
206.858	24.82
207.245	57.35
207.631	-8.17
208.017	15.7
208.403	16.36
208.789	-2.71
209.175	9.14
209.561	45.91
209.947	-9.92
210.333	-17.76
210.719	19.21
211.105	43.78
211.491	56.63
211.876	55.59
212.262	25.98
212.648	8.07
213.034	31.31
213.419	-52
213.805	6.48
214.19	3.24
214.576	28.54
214.961	-29.89
215.346	27.99
215.732	-2.51
216.117	16.25
216.502	7.05
216.888	12.38
217.273	14.77
217.658	5
218.043	26.59
218.428	-22.24
218.813	27.29
219.198	17.6
219.583	16
219.968	20.51
220.353	11.22
220.738	7.86
221.122	17.79
221.507	-10.35
221.892	1.97
222.276	15
222.661	18.79
223.046	3.89
223.43	-5.38
223.815	0.11
224.199	10.13
224.583	8
224.968	2.63
225.352	0.55
225.736	5.62
226.121	7.64
226.505	5.26
226.889	-0.47
227.273	1.49
227.657	-2.51
228.041	2.09
228.425	4.96
228.809	4.87
229.193	4.56
229.577	4.44
229.961	2.8
230.344	2.69
230.728	1.92
231.112	1.66
231.495	2.98
231.879	1.45
232.263	2.16
232.646	2.73
233.03	3.75
233.413	3.38
233.797	2.74
234.18	3.55
234.563	5.93
234.946	1.67
235.33	2.83
235.713	2.34
236.096	2.4
236.479	2.49
236.862	4.05
237.245	2.56
237.628	3.27
238.011	2.98
238.394	3.09
238.777	4.6
239.16	3.51
239.543	1.1
239.925	4.17
240.308	1.9
240.691	3.14
241.073	1.97
241.456	1.55
241.838	4.08
242.221	2.09
242.603	2.75
242.986	2.92
243.368	2.99
243.75	3.09
244.133	2.76
244.515	2.5
244.897	3.24
245.279	3.02
245.661	2.68
246.043	3.58
246.425	4.05
246.807	3.02
247.189	2.29
247.571	2.86
247.953	3.17
248.335	2.93
248.717	3.16
249.098	3.02
249.48	2.76
249.862	3.41
250.243	3.04
250.625	2.97
251.006	3.79
251.388	3.17
251.769	3.62
252.151	2.57
252.532	3.58
252.913	3.37
253.295	3.48
253.676	2.82
254.057	3.05
254.438	2.93
254.819	2.62
255.2	3.77
255.581	3.1
255.962	3.14
256.343	3.13
256.724	3.39
257.105	2.92
257.486	2.97
257.867	4.1
258.247	2.45
258.628	3.43
259.009	2.54
259.389	2.79
259.77	3.72
260.15	3.27
260.531	3.29
260.911	3
261.292	3.12
261.672	2.74
262.052	2.93
262.432	2.97
262.813	2.91
263.193	3.1
263.573	3.27
263.953	3.42
264.333	2.53
264.713	3.14
265.093	2.97
265.473	2.22
265.853	3.24
266.233	2.85
266.612	2.88
266.992	2.86
267.372	3.92
267.752	3.14
268.131	2.94
268.511	3.2
268.89	2.95
269.27	2.82
269.649	2.41
270.029	3.32
270.408	2.48
270.787	2.98
271.167	2.68
271.546	3.55
271.925	3.11
272.304	2.88
272.683	3.19
273.062	2.75
273.441	3.32
273.82	2.64
274.199	2.89
274.578	2.61
274.957	3.08
275.336	3.21
275.715	3.11
276.093	2.63
276.472	3.05
276.851	3.29
277.229	2.69
277.608	2.69
277.986	3.04
278.365	2.73
278.743	2.64
279.122	3.28
279.5	3.01
279.878	3.55
280.257	2.61
280.635	2.99
281.013	2.72
281.391	2.36
281.769	2.73
282.147	2.57
282.525	2.27
282.903	2.61
283.281	3.28
283.659	3.32
284.037	3.1
284.415	2.66
284.792	2.65
285.17	2.86
285.548	2.45
285.925	2.63
286.303	3.23
286.68	3.02
287.058	3.09
287.435	2.88
287.813	3.15
288.19	2.42
288.567	2.94
288.945	3.13
289.322	3.26
289.699	2.79
290.076	3.65
290.453	3.02
290.83	2.46
291.207	2.99
291.584	3.39
291.961	3.06
292.338	3.12
292.715	3.19
293.092	3.41
293.469	2.59
293.845	3.13
294.222	3.21
294.599	3.74
294.975	3.61
295.352	3.49
295.728	3.41
296.105	3.47
296.481	3.05
296.858	3.53
297.234	3.59
297.61	3.41
297.986	3.77
298.363	3.85
298.739	3.55
299.115	3.87
299.491	3.84
299.867	3.61
300.243	3.57
300.619	4.08
300.995	4.03
301.371	4.53
301.746	4.01
302.122	3.94
302.498	4
302.874	4.15
303.249	3.94
303.625	3.93
304	3.86
304.376	4.12
304.751	3.71
305.127	3.93
305.502	4.54
305.878	4.74
306.253	4.06
306.628	4.19
307.003	4.24
307.378	4.09
307.754	4.8
308.129	3.99
308.504	4.71
308.879	4.77
309.254	4.86
309.629	4.38
310.003	4.41
310.378	4.85
310.753	5.15
311.128	5.13
311.502	5.05
311.877	4.85
312.252	4.76
312.626	4.75
313.001	4.89
313.375	5.06
313.75	5
314.124	4.57
314.498	4.81
314.873	4.92
315.247	4.91
315.621	5.84
315.995	5.65
316.369	5.24
316.743	4.81
317.117	5.24
317.491	5.2
317.865	4.97
318.239	5.56
318.613	5.92
318.987	5.29
319.361	5.57
319.734	5.42
320.108	5.43
320.482	6.57
320.855	5.56
321.229	5.81
321.602	6
321.976	5.64
322.349	5.9
322.723	6.34
323.096	6.08
323.469	6.06
323.843	6.38
324.216	5.89
324.589	6.22
324.962	6.81
325.335	6.13
325.708	6.27
326.081	6.42
326.454	5.78
326.827	6.08
327.2	6.3
327.573	6.82
327.945	6.31
328.318	5.99
328.691	6.58
329.063	6.31
329.436	6.2
329.809	6.23
330.181	6.19
330.553	5.78
330.926	6.5
331.298	6.4
331.671	6.23
332.043	6.35
332.415	6.4
332.787	7.08
333.159	6.5
333.532	6.64
333.904	7.36
334.276	6.53
334.648	6.31
335.02	6.56
335.391	6.8
335.763	6.44
336.135	6.46
336.507	6.49
336.879	6.75
337.25	6.83
337.622	6.75
337.993	7.3
338.365	7.08
338.736	6.39
339.108	6.75
339.479	6.97
339.851	6.76
340.222	7.05
340.593	7.57
340.964	6.85
341.336	7.02
341.707	6.84
342.078	6.37
342.449	7.41
342.82	7.49
343.191	7.37
343.562	6.92
343.933	7.14
344.303	7.03
344.674	7.17
345.045	7.41
345.416	7.4
345.786	6.82
346.157	7.01
346.527	7.07
346.898	6.84
347.268	7.18
347.639	6.94
348.009	7.21
348.38	7.41
348.75	7.18
349.12	7.96
349.49	7.89
349.861	7.3
350.231	7.66
350.601	7.39
350.971	7.43
351.341	7.68
351.711	7.38
352.081	7.6
352.45	7.46
352.82	7.64
353.19	7.87
353.56	7.55
353.929	7.74
354.299	7.54
354.669	7.9
355.038	7.33
355.408	7.75
355.777	8.09
356.147	7.71
356.516	7.89
356.885	7.82
357.254	7.63
357.624	7.43
357.993	8.05
358.362	8.1
358.731	7.87
359.1	7.97
359.469	7.69
359.838	7.83
360.207	7.88
360.576	8.18
360.945	8.12
361.314	7.6
361.682	8.12
362.051	8.19
362.42	8.08
362.788	8.16
363.157	8.14
363.525	8.1
363.894	7.96
364.262	8.3
364.631	8.33
364.999	8.2
365.367	8.36
365.735	8.25
366.104	8.36
366.472	8.42
366.84	7.88
367.208	8.17
367.576	8.61
367.944	8.44
368.312	8.47
368.68	8.55
369.048	8.48
369.416	8.42
369.783	8.53
370.151	8.46
370.519	8.5
370.886	8.8
371.254	8.67
371.621	8.9
371.989	8.56
372.356	8.75
372.724	8.94
373.091	8.95
373.458	8.81
373.826	8.84
374.193	8.66
374.56	9.01
374.927	8.7
375.294	9.1
375.661	9.23
376.028	8.7
376.395	9.1
376.762	9.05
377.129	8.92
377.496	8.93
377.863	8.96
378.229	8.72
378.596	9.01
378.963	9.02
379.329	9.03
379.696	9.05
380.062	9.16
380.429	8.98
380.795	9.14
381.161	9.08
381.528	8.9
381.894	9.16
382.26	9.31
382.626	9.2
382.993	9.29
383.359	9.45
383.725	9.54
384.091	9.59
384.457	9.23
384.823	9.08
385.188	9.38
385.554	9.21
385.92	9.06
386.286	9.4
386.651	9.34
387.017	9.57
387.383	9.34
387.748	9.48
388.114	9.67
388.479	9.43
388.845	9.47
389.21	9.43
389.575	9.67
389.94	9.51
390.306	9.78
390.671	9.31
391.036	9.76
391.401	9.85
391.766	9.72
392.131	9.64
392.496	9.64
392.861	9.86
393.226	9.53
393.591	9.54
393.956	9.91
394.32	9.81
394.685	9.9
395.05	10.05
395.414	9.66
395.779	9.89
396.143	9.93
396.508	9.81
396.872	10.05
397.236	9.97
397.601	10.06
397.965	10.02
398.329	9.8
398.694	10.05
399.058	9.79
399.422	10.42
399.786	9.91
400.15	9.95
400.514	10.42
400.878	10.22
401.242	10
401.605	10.41
401.969	10.21
402.333	9.97
402.697	10.17
403.06	10.6
403.424	10.18
403.787	10.25
404.151	10.24
404.514	10.24
404.878	10.44
405.241	10.29
405.604	10.33
405.968	10.45
406.331	10.22
406.694	10.27
407.057	10.49
407.42	10.37
407.783	10.25
408.146	10.71
408.509	10.58
408.872	10.45
409.235	10.49
409.598	10.66
409.961	10.64
410.323	10.42
410.686	10.65
411.049	10.4
411.411	10.48
411.774	10.58
412.136	10.63
412.499	10.73
412.861	10.87
413.223	10.59
413.586	10.81
413.948	11.02
414.31	10.85
414.672	10.81
415.035	10.87
415.397	10.63
415.759	10.71
416.121	10.93
416.483	10.64
416.845	11.23
417.206	10.71
417.568	10.8
417.93	10.88
418.292	10.92
418.653	11.05
419.015	11.08
419.377	11.01
419.738	10.96
420.1	11.02
420.461	11.02
420.822	10.81
421.184	10.93
421.545	10.99
421.906	10.91
422.267	10.93
422.629	10.81
422.99	10.96
423.351	10.97
423.712	11
424.073	11.23
424.434	11.23
424.795	11.27
425.155	11.13
425.516	11.17
425.877	11.15
426.238	11.2
426.598	11.21
426.959	11.21
427.32	11.28
427.68	11.4
428.041	11.75
428.401	11.24
428.761	11.71
429.122	11.49
429.482	11.62
429.842	11.53
430.202	11.8
430.563	11.94
430.923	11.8
431.283	11.58
431.643	11.66
432.003	12.04
432.363	11.82
432.722	12.04
433.082	11.92
433.442	11.93
433.802	12.03
434.161	11.87
434.521	11.97
434.881	12.04
435.24	11.99
435.6	12
435.959	11.96
436.319	12.11
436.678	12.14
437.037	12.2
437.396	12.24
437.756	12.04
438.115	12.12
438.474	12.11
438.833	12.39
439.192	12.35
439.551	12.3
439.91	12.34
440.269	12.38
440.628	12.29
440.987	12.22
441.345	12.29
441.704	12.35
442.063	12.25
442.421	12.23
442.78	12.28
443.138	12.47
443.497	12.35
443.855	12.48
444.214	12.47
444.572	12.61
444.93	12.7
445.288	12.52
445.647	12.88
446.005	12.64
446.363	12.61
446.721	12.78
447.079	12.66
447.437	12.47
447.795	12.61
448.153	12.65
448.51	12.53
448.868	12.74
449.226	12.69
449.584	12.7
449.941	12.76
450.299	12.77
450.656	12.94
451.014	12.96
451.371	12.99
451.729	12.98
452.086	12.96
452.443	13.08
452.801	13.24
453.158	13.14
453.515	13.09
453.872	13.12
454.229	13.17
454.586	13.18
454.943	13.25
455.3	13.27
455.657	13.21
456.014	13.42
456.371	13.26
456.727	13.62
457.084	13.07
457.441	13.6
457.797	13.43
458.154	13.48
458.51	13.6
458.867	13.51
459.223	13.57
459.58	13.62
459.936	13.65
460.292	13.5
460.648	13.58
461.005	13.39
461.361	13.48
461.717	13.46
462.073	13.49
462.429	13.63
462.785	13.58
463.141	13.59
463.496	13.75
463.852	13.95
464.208	13.93
464.564	13.98
464.919	13.97
465.275	13.84
465.631	14.07
465.986	14.22
466.342	13.79
466.697	14
467.052	14.1
467.408	14.09
467.763	13.96
468.118	14.19
468.473	14.2
468.829	14.06
469.184	14.14
469.539	14.33
469.894	14.4
470.249	14.29
470.603	14.32
470.958	14.55
471.313	14.51
471.668	14.48
472.023	14.32
472.377	14.64
472.732	14.46
473.086	14.56
473.441	14.51
473.795	14.61
474.15	14.44
474.504	14.82
474.859	14.56
475.213	14.75
475.567	14.78
475.921	14.75
476.275	14.76
476.63	14.73
476.984	14.69
477.338	15.07
477.692	14.64
478.045	14.6
478.399	14.92
478.753	14.63
479.107	14.86
479.461	14.95
479.814	14.89
480.168	14.95
480.521	15.02
480.875	14.87
481.228	14.97
481.582	15.07
481.935	15.02
482.289	15.02
482.642	15.02
482.995	14.97
483.348	14.94
483.701	15.01
484.055	14.99
484.408	14.81
484.761	14.6
485.114	14.44
485.466	14.32
485.819	14.37
486.172	14.43
486.525	14.63
486.878	14.74
487.23	14.79
487.583	14.96
487.936	14.96
488.288	14.99
488.641	14.81
488.993	14.8
489.345	14.73
489.698	14.84
490.05	14.83
490.402	15.07
490.754	15.13
491.107	15.2
491.459	15.37
491.811	15.52
492.163	15.5
492.515	15.41
492.866	15.2
493.218	15.09
493.57	15.1
493.922	15.2
494.274	15.43
494.625	15.61
494.977	15.85
495.328	15.9
495.68	15.92
496.031	16.03
496.383	15.97
496.734	16.09
497.086	16.09
497.437	16.14
497.788	16.05
498.139	16.02
498.49	16.12
498.842	16.01
499.193	15.99
499.544	16.18
499.894	16.29
500.245	16.34
500.596	16.48
500.947	16.4
501.298	16.5
501.648	16.53
501.999	16.47
502.35	16.55
502.7	16.69
503.051	16.61
503.401	16.68
503.752	16.63
504.102	16.6
504.452	16.88
504.803	16.81
505.153	16.57
505.503	16.87
505.853	16.81
506.203	16.86
506.553	16.91
506.903	16.8
507.253	16.87
507.603	16.96
507.953	17.04
508.303	16.95
508.652	17.12
509.002	17.11
509.352	17
509.701	17.09
510.051	16.96
510.4	17.03
510.75	17.01
511.099	17.11
511.449	17.07
511.798	17.09
512.147	17.13
512.496	17.18
512.846	17.36
513.195	17.22
513.544	17.28
513.893	17.22
514.242	17.29
514.591	17.25
514.939	17.41
515.288	17.47
515.637	17.58
515.986	17.51
516.334	17.59
516.683	17.64
517.032	17.69
517.38	17.81
517.729	17.67
518.077	17.94
518.426	17.75
518.774	17.74
519.122	17.66
519.47	17.71
519.819	17.68
520.167	17.45
520.515	17.55
520.863	17.69
521.211	17.75
521.559	17.77
521.907	17.77
522.255	17.83
522.602	18.13
522.95	18.07
523.298	18.09
523.645	18.2
523.993	18.2
524.341	18.21
524.688	18.38
525.036	18.19
525.383	18.29
525.73	18.15
526.078	18.32
526.425	18.23
526.772	18.22
527.119	18.03
527.466	17.99
527.814	18.11
528.161	18.22
528.508	18.25
528.854	18.13
529.201	18.19
529.548	18
529.895	17.77
530.242	17.68
530.588	17.78
530.935	17.96
531.282	18
531.628	18.1
531.975	18.27
532.321	18.45
532.667	18.52
533.014	18.57
533.36	18.68
533.706	18.67
534.052	18.77
534.399	18.52
534.745	18.44
535.091	18.35
535.437	18.5
535.783	18.58
536.129	18.76
536.474	18.92
536.82	19
537.166	19.03
537.512	19
537.857	19.1
538.203	18.96
538.549	18.95
538.894	19.04
539.239	19.11
539.585	19.26
539.93	19.33
540.276	19.63
540.621	19.55
540.966	19.58
541.311	19.53
541.656	19.56
542.001	19.41
542.346	19.27
542.691	19.07
543.036	18.94
543.381	19.06
543.726	19.11
544.071	19.36
544.415	19.44
544.76	19.57
545.105	19.52
545.449	19.63
545.794	19.73
546.138	19.78
546.483	19.89
546.827	20.01
547.171	20.01
547.516	20
547.86	20.06
548.204	20.04
548.548	20.04
548.892	20.23
549.236	20.28
549.58	20.29
549.924	20.45
550.268	20.45
550.612	20.57
550.956	20.65
551.3	20.85
551.643	20.79
551.987	20.91
552.33	20.9
552.674	20.82
553.017	20.92
553.361	20.91
553.704	20.98
554.048	20.96
554.391	20.98
554.734	20.94
555.077	21.15
555.42	20.98
555.764	21.12
556.107	21.35
556.45	21.23
556.793	21.43
557.135	21.01
557.478	21.41
557.821	21.44
558.164	21.49
558.507	21.31
558.849	21.46
559.192	21.57
559.534	21.65
559.877	21.77
560.219	21.62
560.562	21.51
560.904	21.55
561.246	21.58
561.589	21.85
561.931	21.77
562.273	21.92
562.615	21.74
562.957	22.02
563.299	21.87
563.641	21.87
563.983	22.12
564.325	22.03
564.667	22.2
565.008	22.34
565.35	22.23
565.692	22.04
566.033	21.97
566.375	22.26
566.716	22.34
567.058	22.14
567.399	22.37
567.741	22.4
568.082	22.13
568.423	22.24
568.764	22.41
569.105	22.27
569.447	22.55
569.788	22.58
570.129	22.57
570.47	22.65
570.811	22.51
571.151	22.72
571.492	22.77
571.833	22.89
572.174	22.71
572.514	22.69
572.855	22.81
573.195	22.74
573.536	22.7
573.876	22.71
574.217	23
574.557	22.77
574.898	22.92
575.238	22.89
575.578	22.89
575.918	23.01
576.258	23.22
576.598	23.06
576.938	22.95
577.278	23.02
577.618	23.24
577.958	23.43
578.298	23.36
578.638	23.47
578.977	23.58
579.317	23.49
579.657	23.5
579.996	23.53
580.336	23.54
580.675	23.78
581.014	23.74
581.354	23.63
581.693	23.74
582.032	23.89
582.372	24.12
582.711	24.03
583.05	24.09
583.389	24.23
583.728	24.05
584.067	23.96
584.406	24.07
584.745	24.4
585.083	24.34
585.422	24.17
585.761	24.17
586.1	24.45
586.438	24.05
586.777	24.06
587.115	24.23
587.454	24.55
587.792	24.39
588.13	24.69
588.469	24.39
588.807	24.81
589.145	24.66
589.483	24.97
589.821	24.71
590.159	24.82
590.497	24.91
590.835	24.73
591.173	24.8
591.511	24.93
591.849	25.04
592.187	24.64
592.524	24.64
592.862	24.77
593.2	24.97
593.537	25.27
593.875	25.29
594.212	24.94
594.55	25.34
594.887	25.19
595.224	24.99
595.561	25.09
595.899	25.12
596.236	25.19
596.573	25.2
596.91	25.46
597.247	25.64
597.584	25.38
597.921	25.52
598.258	25.2
598.594	25.39
598.931	25.12
599.268	25.3
599.604	25.55
599.941	25.51
600.277	25.79
600.614	25.75
600.95	25.44
601.287	25.91
601.623	26.18
601.959	25.95
602.296	26.04
602.632	26.28
602.968	26.08
603.304	26.39
603.64	26.33
603.976	26.26
604.312	26.04
604.648	25.84
604.984	26.15
605.319	26.1
605.655	26.08
605.991	26.18
606.326	26.31
606.662	26.11
606.998	26.08
607.333	26.28
607.668	26.25
608.004	26.54
608.339	26.63
608.674	26.6
609.01	26.62
609.345	26.48
609.68	26.71
610.015	26.58
610.35	26.48
610.685	26.93
611.02	26.72
611.355	26.69
611.689	26.56
612.024	26.75
612.359	26.68
612.694	27.02
613.028	26.98
613.363	27.23
613.697	27.31
614.032	27.52
614.366	27.03
614.7	27.16
615.035	27.37
615.369	27.3
615.703	27.55
616.037	27.62
616.371	27.44
616.705	27.67
617.039	27.55
617.373	27.63
617.707	27.92
618.041	27.88
618.375	27.54
618.709	27.87
619.042	27.66
619.376	27.98
619.71	27.78
620.043	27.88
620.377	27.77
620.71	28
621.043	27.4
621.377	28.09
621.71	28.01
622.043	28.24
622.376	28.3
622.709	27.87
623.043	28.07
623.376	28.22
623.709	28.54
624.041	28.39
624.374	27.96
624.707	28.69
625.04	28.45
625.373	28.31
625.705	28.6
626.038	28.59
626.37	29.05
626.703	28.4
627.035	28.53
627.368	28.75
627.7	28.65
628.032	28.58
628.365	28.72
628.697	28.61
629.029	28.78
629.361	28.57
629.693	28.82
630.025	29.24
630.357	28.7
630.689	29.32
631.021	29.13
631.353	29.28
631.684	29.05
632.016	29.38
632.348	29.14
632.679	29.17
633.011	29.54
633.342	29.55
633.674	29.17
634.005	29.66
634.336	29.25
634.668	29.66
634.999	29.65
635.33	29.81
635.661	29.8
635.992	29.41
636.323	29.76
636.654	29.48
636.985	29.79
637.316	29.93
637.647	29.84
637.977	29.92
638.308	30.38
638.639	29.73
638.969	29.87
639.3	30.12
639.63	29.98
639.961	30.5
640.291	30.41
640.622	30.24
640.952	30.41
641.282	30.59
641.612	30.15
641.943	30.68
642.273	30.68
642.603	30.73
642.933	30.66
643.263	30.11
643.592	30.6
643.922	30.16
644.252	30.3
644.582	31.09
644.911	30.73
645.241	30.86
645.571	30.63
645.9	31.1
646.23	31.35
646.559	30.55
646.888	31.66
647.218	30.75
647.547	30.61
647.876	30.63
648.205	31.12
648.534	30.92
648.863	31
649.192	31.25
649.521	31.54
649.85	31.26
650.179	30.77
650.508	30.99
650.837	31.59
651.165	31.27
651.494	32.04
651.822	31.85
652.151	30.99
652.479	31.05
652.808	31.47
653.136	31.25
653.465	31.96
653.793	31.59
654.121	31.54
654.449	31.3
654.777	31.91
655.105	31.48
655.433	32
655.761	31.81
656.089	31.83
656.417	31.77
656.745	31.83
657.073	32.2
657.4	31.93
657.728	31.87
658.056	32.64
658.383	31.95
658.711	32.07
659.038	31.96
659.365	31.99
659.693	31.91
660.02	32.41
660.347	32.37
660.674	32.22
661.001	32.18
661.329	32.33
661.656	32.06
661.982	33.09
662.309	32.44
662.636	32.66
662.963	32.4
663.29	33.18
663.616	32.66
663.943	32.26
664.27	32.44
664.596	33.98
664.923	32.92
665.249	33.28
665.576	33.1
665.902	33.41
666.228	32.25
666.554	32.79
666.881	32.65
667.207	33.87
667.533	33.53
667.859	33.71
668.185	33.46
668.511	32.65
668.837	33.82
669.162	33.59
669.488	33.58
669.814	33.39
670.139	33.21
670.465	33.71
670.791	32.98
671.116	33.65
671.442	33.35
671.767	33.3
672.092	33.99
672.418	33.92
672.743	34.49
673.068	33.79
673.393	33.8
673.718	33.92
674.043	33.84
674.368	33.95
674.693	34.15
