Data from 20-4_crown_Reflection__0__80.txt Node

Date: Fri Nov 11 20:47:32 CST 2022
User: ToomeyLab
Spectrometer: FLMS14357
Trigger mode: 0
Integration Time (sec): 1.000000E-2
Scans to average: 100
Electric dark correction enabled: true
Nonlinearity correction enabled: false
Boxcar width: 0
XAxis mode: Wavelengths
Number of Pixels in Spectrum: 2048
>>>>>Begin Spectral Data<<<<<
189.047	-96.87
189.435	-96.87
189.823	-96.87
190.211	27.65
190.599	9.94
190.987	86.75
191.375	44.33
191.763	-212.09
192.151	-867.88
192.538	2.91
192.926	75.4
193.314	94.54
193.702	-350.31
194.089	100.55
194.477	74.7
194.864	51.95
195.252	364.57
195.639	-452.69
196.027	86.08
196.414	47.62
196.801	642.53
197.189	678.38
197.576	188.67
197.963	-60.64
198.351	-60.07
198.738	-15.03
199.125	22.32
199.512	13.45
199.899	-104.52
200.286	-6.32
200.673	33.72
201.06	11.66
201.447	46.63
201.833	39.51
202.22	-14.46
202.607	21.18
202.994	32.71
203.38	35.74
203.767	20.6
204.154	53.8
204.54	13.69
204.927	11.9
205.313	29.18
205.699	-41.21
206.086	27.88
206.472	26.31
206.858	21.3
207.245	75.79
207.631	10.82
208.017	25.29
208.403	-7.19
208.789	11.1
209.175	32.97
209.561	39.95
209.947	38.05
210.333	9.07
210.719	12.79
211.105	23.19
211.491	11.15
211.876	43.76
212.262	4.94
212.648	-17.5
213.034	-9.48
213.419	-18.63
213.805	-19.2
214.19	12.04
214.576	37.8
214.961	-60.05
215.346	1.25
215.732	-9.97
216.117	33.85
216.502	2.6
216.888	-38.43
217.273	28.62
217.658	17.05
218.043	8.54
218.428	-18.5
218.813	-1.54
219.198	-10.78
219.583	12.88
219.968	2.62
220.353	-14.85
220.738	-32.7
221.122	14.38
221.507	-11.44
221.892	-7.35
222.276	5.46
222.661	8.47
223.046	-2.55
223.43	-5.77
223.815	-0.99
224.199	-1.27
224.583	-12.95
224.968	-5.27
225.352	2.75
225.736	-2.55
226.121	0.98
226.505	8.71
226.889	-4.08
227.273	4.56
227.657	-1.55
228.041	-2.17
228.425	-2.98
228.809	3.7
229.193	3.88
229.577	2.94
229.961	1.08
230.344	1.68
230.728	0.75
231.112	0.94
231.495	1.83
231.879	1.41
232.263	1.71
232.646	0.77
233.03	2.04
233.413	2.75
233.797	1.47
234.18	0.62
234.563	2.63
234.946	1.11
235.33	2.08
235.713	1.35
236.096	2.52
236.479	1.05
236.862	3.38
237.245	1.63
237.628	3.31
238.011	2.3
238.394	1.09
238.777	3.65
239.16	2.05
239.543	1.5
239.925	1.32
240.308	2.04
240.691	1.79
241.073	-0.04
241.456	0.88
241.838	3.32
242.221	2.2
242.603	2.28
242.986	1.92
243.368	2.5
243.75	1.84
244.133	1.96
244.515	2.2
244.897	2.47
245.279	1.72
245.661	1.9
246.043	3.01
246.425	2.86
246.807	1.5
247.189	1.62
247.571	2.34
247.953	2.27
248.335	2.04
248.717	2.54
249.098	2.52
249.48	1.95
249.862	2.75
250.243	2.28
250.625	2.37
251.006	2.84
251.388	2.82
251.769	2.3
252.151	2.6
252.532	2.52
252.913	2.45
253.295	2.11
253.676	1.71
254.057	1.84
254.438	2.32
254.819	1.49
255.2	3.17
255.581	2
255.962	1.21
256.343	1.98
256.724	0.98
257.105	2.36
257.486	2.33
257.867	3.01
258.247	1.35
258.628	1.58
259.009	1.64
259.389	1.73
259.77	3.1
260.15	2.08
260.531	2.14
260.911	1.98
261.292	2.38
261.672	2.11
262.052	2.16
262.432	2.56
262.813	2.28
263.193	1.98
263.573	2.44
263.953	2.8
264.333	1.37
264.713	1.7
265.093	1.97
265.473	1.55
265.853	2.1
266.233	2.84
266.612	1.81
266.992	1.62
267.372	2.49
267.752	2.42
268.131	1.41
268.511	2.34
268.89	2.31
269.27	2.2
269.649	2.1
270.029	2.3
270.408	1.97
270.787	2.24
271.167	1.22
271.546	1.91
271.925	1.54
272.304	1.92
272.683	2
273.062	1.88
273.441	2.06
273.82	2.22
274.199	1.94
274.578	1.82
274.957	2.02
275.336	2.46
275.715	1.95
276.093	1.69
276.472	1.78
276.851	2
277.229	2.07
277.608	1.89
277.986	1.87
278.365	1.65
278.743	1.96
279.122	2.4
279.5	1.77
279.878	2.19
280.257	1.82
280.635	1.45
281.013	1.68
281.391	1.85
281.769	1.94
282.147	2.09
282.525	1.21
282.903	1.53
283.281	2.03
283.659	1.97
284.037	2.06
284.415	1.95
284.792	1.93
285.17	2.3
285.548	1.97
285.925	1.26
286.303	2.08
286.68	2.22
287.058	2.24
287.435	2.08
287.813	2.2
288.19	1.72
288.567	1.98
288.945	2.25
289.322	2.27
289.699	1.66
290.076	2.21
290.453	2.3
290.83	1.95
291.207	2.37
291.584	2.47
291.961	2.03
292.338	2.12
292.715	2.11
293.092	2.35
293.469	2.39
293.845	2.52
294.222	2.15
294.599	2.5
294.975	2.33
295.352	2.6
295.728	1.97
296.105	2.62
296.481	1.94
296.858	2.19
297.234	2.53
297.61	2.43
297.986	2.38
298.363	2.58
298.739	2.61
299.115	2.54
299.491	2.74
299.867	2.28
300.243	2.41
300.619	2.65
300.995	2.61
301.371	3.15
301.746	3.48
302.122	3.2
302.498	2.96
302.874	2.81
303.249	2.73
303.625	2.63
304	1.93
304.376	3.01
304.751	2.31
305.127	2.49
305.502	2.84
305.878	3.18
306.253	2.49
306.628	3.04
307.003	3.19
307.378	2.7
307.754	3.07
308.129	3.19
308.504	2.87
308.879	3.16
309.254	3.23
309.629	2.88
310.003	2.96
310.378	3.14
310.753	3.26
311.128	3.27
311.502	3.07
311.877	2.9
312.252	3.16
312.626	2.7
313.001	2.95
313.375	3.01
313.75	2.77
314.124	2.68
314.498	2.94
314.873	3.08
315.247	3.59
315.621	3.53
315.995	3.46
316.369	2.83
316.743	2.49
317.117	3.2
317.491	3.08
317.865	3.01
318.239	2.95
318.613	2.99
318.987	3.04
319.361	3.01
319.734	3.18
320.108	3.11
320.482	3.41
320.855	2.97
321.229	3.08
321.602	2.97
321.976	3.3
322.349	3.46
322.723	3.71
323.096	3.46
323.469	3.23
323.843	3.14
324.216	2.97
324.589	3.45
324.962	3.47
325.335	3.73
325.708	3.61
326.081	3.13
326.454	3.11
326.827	3.44
327.2	4.01
327.573	3.81
327.945	2.88
328.318	3.1
328.691	3.5
329.063	3.29
329.436	3.48
329.809	3.22
330.181	3.11
330.553	3.4
330.926	3.46
331.298	3.08
331.671	3.41
332.043	2.89
332.415	3.13
332.787	3.89
333.159	3.61
333.532	3.58
333.904	3.55
334.276	2.92
334.648	3.03
335.02	3.18
335.391	4.07
335.763	3.02
336.135	3.17
336.507	2.94
336.879	3.15
337.25	3.24
337.622	3.6
337.993	3.69
338.365	3.69
338.736	3.34
339.108	3.76
339.479	3.14
339.851	3.53
340.222	3.45
340.593	3.88
340.964	3.27
341.336	3.31
341.707	3.12
342.078	2.98
342.449	3.64
342.82	3.54
343.191	3.72
343.562	3.56
343.933	2.94
344.303	2.82
344.674	3.01
345.045	2.99
345.416	2.79
345.786	3.08
346.157	3.12
346.527	3.51
346.898	2.85
347.268	3.21
347.639	3.38
348.009	3.26
348.38	3.8
348.75	3.33
349.12	3.49
349.49	3.61
349.861	3.34
350.231	3.58
350.601	3.05
350.971	3.02
351.341	3.98
351.711	3.6
352.081	3.23
352.45	3.48
352.82	3.27
353.19	3.71
353.56	3.06
353.929	3.26
354.299	3.23
354.669	3.4
355.038	2.96
355.408	3.39
355.777	3.05
356.147	3.26
356.516	3.09
356.885	3.6
357.254	3.23
357.624	2.89
357.993	3.22
358.362	3.34
358.731	2.89
359.1	3.33
359.469	2.78
359.838	3.24
360.207	3.22
360.576	3.27
360.945	3.22
361.314	3.09
361.682	3.27
362.051	3.14
362.42	3.57
362.788	3.19
363.157	3.31
363.525	2.94
363.894	3.27
364.262	3.34
364.631	3.47
364.999	3.45
365.367	3.46
365.735	3.23
366.104	3.49
366.472	3.31
366.84	3.05
367.208	3.41
367.576	3.61
367.944	3.57
368.312	3.27
368.68	3.16
369.048	3.35
369.416	3.17
369.783	3.15
370.151	3.42
370.519	3.64
370.886	3.34
371.254	3.81
371.621	3.19
371.989	3.32
372.356	3.62
372.724	3.63
373.091	3.39
373.458	3.25
373.826	3.34
374.193	3.15
374.56	3.26
374.927	3.39
375.294	3.55
375.661	3.77
376.028	3.05
376.395	3.52
376.762	3.43
377.129	3.23
377.496	3.18
377.863	3.38
378.229	3.53
378.596	3.25
378.963	3.41
379.329	3.71
379.696	3.54
380.062	3.54
380.429	3.29
380.795	3.91
381.161	3.5
381.528	3.36
381.894	3.39
382.26	3.51
382.626	3.33
382.993	3.38
383.359	3.56
383.725	3.25
384.091	3.47
384.457	3.23
384.823	3.41
385.188	3.45
385.554	3.31
385.92	3.24
386.286	3.28
386.651	3.25
387.017	3.33
387.383	3.53
387.748	3.28
388.114	3.37
388.479	3.35
388.845	3.09
389.21	3.25
389.575	3.49
389.94	3.4
390.306	3.32
390.671	3.32
391.036	3.36
391.401	3.28
391.766	3.48
392.131	3.22
392.496	3.47
392.861	3.26
393.226	3.33
393.591	3.17
393.956	3.64
394.32	3.2
394.685	3.36
395.05	3.54
395.414	3.29
395.779	3.4
396.143	3.23
396.508	3.58
396.872	3.33
397.236	3.25
397.601	3.32
397.965	3.5
398.329	3.11
398.694	3.57
399.058	3.45
399.422	3.47
399.786	3.27
400.15	3.57
400.514	3.38
400.878	3.48
401.242	3.51
401.605	3.67
401.969	3.35
402.333	3.21
402.697	3.46
403.06	3.65
403.424	3.2
403.787	3.59
404.151	3.39
404.514	3.33
404.878	3.33
405.241	3.34
405.604	3.56
405.968	3.4
406.331	3.08
406.694	3.25
407.057	3.25
407.42	3.5
407.783	3.48
408.146	3.54
408.509	3.25
408.872	3.35
409.235	3.61
409.598	3.46
409.961	3.63
410.323	3.29
410.686	3.34
411.049	3.1
411.411	3.49
411.774	3.38
412.136	3.21
412.499	3.35
412.861	3.42
413.223	3.3
413.586	3.42
413.948	3.62
414.31	3.5
414.672	3.23
415.035	3.33
415.397	3.43
415.759	3.44
416.121	3.43
416.483	3.32
416.845	3.56
417.206	3.21
417.568	3.4
417.93	3.43
418.292	3.38
418.653	3.45
419.015	3.38
419.377	3.44
419.738	3.48
420.1	3.35
420.461	3.52
420.822	3.35
421.184	3.3
421.545	3.34
421.906	3.31
422.267	3.27
422.629	3.13
422.99	3.29
423.351	3.32
423.712	3.29
424.073	3.39
424.434	3.41
424.795	3.38
425.155	3.3
425.516	3.45
425.877	3.36
426.238	3.26
426.598	3.3
426.959	3.34
427.32	3.38
427.68	3.42
428.041	3.59
428.401	3.18
428.761	3.57
429.122	3.3
429.482	3.47
429.842	3.41
430.202	3.63
430.563	3.59
430.923	3.43
431.283	3.36
431.643	3.43
432.003	3.54
432.363	3.35
432.722	3.81
433.082	3.66
433.442	3.55
433.802	3.51
434.161	3.33
434.521	3.43
434.881	3.58
435.24	3.39
435.6	3.49
435.959	3.42
436.319	3.29
436.678	3.41
437.037	3.54
437.396	3.47
437.756	3.5
438.115	3.43
438.474	3.4
438.833	3.4
439.192	3.56
439.551	3.38
439.91	3.59
440.269	3.4
440.628	3.48
440.987	3.44
441.345	3.4
441.704	3.39
442.063	3.41
442.421	3.42
442.78	3.37
443.138	3.51
443.497	3.44
443.855	3.52
444.214	3.41
444.572	3.48
444.93	3.44
445.288	3.46
445.647	3.62
446.005	3.54
446.363	3.53
446.721	3.5
447.079	3.53
447.437	3.33
447.795	3.51
448.153	3.44
448.51	3.48
448.868	3.47
449.226	3.47
449.584	3.46
449.941	3.47
450.299	3.36
450.656	3.55
451.014	3.58
451.371	3.55
451.729	3.28
452.086	3.59
452.443	3.47
452.801	3.64
453.158	3.68
453.515	3.51
453.872	3.38
454.229	3.57
454.586	3.51
454.943	3.58
455.3	3.55
455.657	3.64
456.014	3.73
456.371	3.55
456.727	3.71
457.084	3.3
457.441	3.6
457.797	3.67
458.154	3.54
458.51	3.59
458.867	3.48
459.223	3.74
459.58	3.46
459.936	3.53
460.292	3.72
460.648	3.56
461.005	3.4
461.361	3.49
461.717	3.49
462.073	3.52
462.429	3.49
462.785	3.43
463.141	3.44
463.496	3.57
463.852	3.59
464.208	3.69
464.564	3.57
464.919	3.5
465.275	3.47
465.631	3.63
465.986	3.83
466.342	3.65
466.697	3.55
467.052	3.6
467.408	3.68
467.763	3.38
468.118	3.6
468.473	3.63
468.829	3.68
469.184	3.65
469.539	3.73
469.894	3.69
470.249	3.62
470.603	3.59
470.958	3.65
471.313	3.69
471.668	3.74
472.023	3.47
472.377	3.71
472.732	3.68
473.086	3.67
473.441	3.54
473.795	3.61
474.15	3.62
474.504	3.76
474.859	3.78
475.213	3.85
475.567	3.76
475.921	3.7
476.275	3.53
476.63	3.86
476.984	3.79
477.338	3.71
477.692	3.46
478.045	3.66
478.399	3.8
478.753	3.55
479.107	3.67
479.461	3.6
479.814	3.57
480.168	3.73
480.521	3.78
480.875	3.76
481.228	3.61
481.582	3.71
481.935	3.56
482.289	3.52
482.642	3.77
482.995	3.62
483.348	3.56
483.701	3.73
484.055	3.62
484.408	3.64
484.761	3.47
485.114	3.42
485.466	3.36
485.819	3.36
486.172	3.4
486.525	3.44
486.878	3.45
487.23	3.51
487.583	3.59
487.936	3.56
488.288	3.57
488.641	3.47
488.993	3.52
489.345	3.46
489.698	3.43
490.05	3.47
490.402	3.5
490.754	3.57
491.107	3.52
491.459	3.53
491.811	3.59
492.163	3.63
492.515	3.58
492.866	3.52
493.218	3.46
493.57	3.46
493.922	3.49
494.274	3.56
494.625	3.59
494.977	3.69
495.328	3.62
495.68	3.69
496.031	3.69
496.383	3.83
496.734	3.62
497.086	3.77
497.437	3.77
497.788	3.66
498.139	3.67
498.49	3.65
498.842	3.64
499.193	3.8
499.544	3.74
499.894	3.78
500.245	3.76
500.596	3.85
500.947	3.72
501.298	3.88
501.648	3.81
501.999	3.73
502.35	3.75
502.7	3.75
503.051	3.7
503.401	3.76
503.752	3.71
504.102	3.78
504.452	3.78
504.803	3.67
505.153	3.8
505.503	3.75
505.853	3.73
506.203	3.79
506.553	3.66
506.903	3.66
507.253	3.77
507.603	3.66
507.953	3.73
508.303	3.67
508.652	3.68
509.002	3.7
509.352	3.62
509.701	3.81
510.051	3.73
510.4	3.9
510.75	3.75
511.099	3.6
511.449	3.7
511.798	3.74
512.147	3.7
512.496	3.67
512.846	3.9
513.195	3.7
513.544	3.66
513.893	3.68
514.242	3.77
514.591	3.74
514.939	3.83
515.288	3.78
515.637	3.78
515.986	3.75
516.334	3.93
516.683	3.86
517.032	3.76
517.38	3.69
517.729	3.85
518.077	3.82
518.426	3.78
518.774	3.8
519.122	3.83
519.47	3.79
519.819	3.72
520.167	3.81
520.515	3.67
520.863	3.73
521.211	3.71
521.559	3.68
521.907	3.8
522.255	3.67
522.602	3.82
522.95	3.78
523.298	3.82
523.645	3.89
523.993	3.88
524.341	3.81
524.688	3.84
525.036	3.97
525.383	3.97
525.73	3.8
526.078	3.7
526.425	3.82
526.772	3.79
527.119	3.68
527.466	3.77
527.814	3.8
528.161	3.81
528.508	3.73
528.854	3.71
529.201	3.73
529.548	3.67
529.895	3.65
530.242	3.6
530.588	3.6
530.935	3.6
531.282	3.67
531.628	3.65
531.975	3.71
532.321	3.7
532.667	3.8
533.014	3.83
533.36	3.76
533.706	3.87
534.052	3.8
534.399	3.69
534.745	3.69
535.091	3.71
535.437	3.69
535.783	3.72
536.129	3.79
536.474	3.82
536.82	3.79
537.166	3.85
537.512	3.76
537.857	3.77
538.203	3.72
538.549	3.83
538.894	3.87
539.239	3.82
539.585	3.84
539.93	3.96
540.276	4.01
540.621	4.06
540.966	3.99
541.311	3.84
541.656	3.91
542.001	3.89
542.346	3.89
542.691	3.73
543.036	3.63
543.381	3.7
543.726	3.73
544.071	3.79
544.415	3.8
544.76	3.87
545.105	3.83
545.449	3.79
545.794	3.88
546.138	3.84
546.483	3.86
546.827	3.91
547.171	3.83
547.516	3.81
547.86	3.76
548.204	3.9
548.548	3.85
548.892	3.94
549.236	3.93
549.58	3.95
549.924	3.96
550.268	3.93
550.612	4.02
550.956	4.21
551.3	3.94
551.643	3.89
551.987	4.09
552.33	4.05
552.674	3.86
553.017	4.09
553.361	4.03
553.704	4.13
554.048	3.91
554.391	4.03
554.734	3.97
555.077	4.15
555.42	4.11
555.764	4.12
556.107	4.16
556.45	4.07
556.793	4.01
557.135	4.12
557.478	4.01
557.821	4.04
558.164	4.03
558.507	4.22
558.849	4.07
559.192	4.08
559.534	4.02
559.877	4.11
560.219	4.02
560.562	4.01
560.904	4.09
561.246	3.95
561.589	4.04
561.931	3.84
562.273	4.17
562.615	4.08
562.957	3.96
563.299	4.02
563.641	3.9
563.983	4.02
564.325	4.06
564.667	4.16
565.008	4.22
565.35	4.13
565.692	3.85
566.033	4.09
566.375	4.14
566.716	4.1
567.058	4.03
567.399	4.33
567.741	4.08
568.082	4.05
568.423	4.07
568.764	4.14
569.105	4.09
569.447	4.11
569.788	4.13
570.129	3.95
570.47	4.17
570.811	4.08
571.151	4.13
571.492	4.11
571.833	4.13
572.174	4.16
572.514	4.22
572.855	4.1
573.195	3.89
573.536	4.28
573.876	4.08
574.217	4.24
574.557	4.13
574.898	4.24
575.238	4.13
575.578	3.89
575.918	4.3
576.258	4.15
576.598	4.12
576.938	4.11
577.278	4.16
577.618	4.21
577.958	4.24
578.298	4.24
578.638	4.31
578.977	4.05
579.317	4.3
579.657	4.37
579.996	3.99
580.336	4.15
580.675	4.29
581.014	4.29
581.354	4.06
581.693	4.03
582.032	3.98
582.372	4.2
582.711	4.31
583.05	4.12
583.389	4.23
583.728	4.25
584.067	4.32
584.406	3.98
584.745	4.41
585.083	4.19
585.422	4.18
585.761	4.32
586.1	4.2
586.438	4.22
586.777	4.17
587.115	4.19
587.454	4.22
587.792	4.24
588.13	4.36
588.469	4.1
588.807	4.25
589.145	4.38
589.483	4.41
589.821	3.98
590.159	4.34
590.497	4.29
590.835	4.39
591.173	4.21
591.511	4.35
591.849	4.05
592.187	4.22
592.524	3.99
592.862	4.13
593.2	4.35
593.537	4.34
593.875	4.55
594.212	4.06
594.55	4.33
594.887	4.15
595.224	4.24
595.561	4.18
595.899	4.17
596.236	4.34
596.573	4.21
596.91	4.21
597.247	4.21
597.584	4.19
597.921	4.41
598.258	4.2
598.594	4.31
598.931	4.06
599.268	4.29
599.604	4.23
599.941	4.23
600.277	4.58
600.614	4.43
600.95	4.05
601.287	4.55
601.623	4.77
601.959	4.6
602.296	4.34
602.632	4.48
602.968	4.46
603.304	4.32
603.64	4.57
603.976	4.49
604.312	4.29
604.648	4.33
604.984	4.61
605.319	4.49
605.655	4.36
605.991	4.45
606.326	4.6
606.662	4.17
606.998	4.32
607.333	4.31
607.668	4.22
608.004	4.58
608.339	4.37
608.674	4.3
609.01	4.46
609.345	4.45
609.68	4.25
610.015	4.56
610.35	4.26
610.685	4.43
611.02	4.31
611.355	4.2
611.689	4.32
612.024	4.33
612.359	4.34
612.694	4.37
613.028	4.49
613.363	4.28
613.697	4.64
614.032	4.46
614.366	4.32
614.7	4.3
615.035	4.28
615.369	4.18
615.703	4.44
616.037	4.75
616.371	4.32
616.705	4.34
617.039	4.58
617.373	4.37
617.707	4.3
618.041	4.62
618.375	4.09
618.709	4.61
619.042	4.65
619.376	4.96
619.71	4.69
620.043	4.7
620.377	4.59
620.71	4.54
621.043	4.26
621.377	4.56
621.71	4.35
622.043	4.67
622.376	4.71
622.709	4.61
623.043	4.5
623.376	4.57
623.709	4.64
624.041	4.53
624.374	4.27
624.707	4.57
625.04	4.74
625.373	4.43
625.705	4.57
626.038	4.16
626.37	4.56
626.703	4.26
627.035	4.55
627.368	4.4
627.7	4.07
628.032	4.55
628.365	4.66
628.697	4.4
629.029	4.41
629.361	4.46
629.693	4.61
630.025	4.81
630.357	4.69
630.689	4.46
631.021	4.68
631.353	4.64
631.684	4.42
632.016	4.48
632.348	4.51
632.679	4.36
633.011	4.74
633.342	4.66
633.674	4.14
634.005	4.33
634.336	4.7
634.668	4.75
634.999	4.82
635.33	4.48
635.661	4.98
635.992	4.64
636.323	4.49
636.654	4.61
636.985	4.61
637.316	4.51
637.647	4.71
637.977	4.96
638.308	4.78
638.639	4.59
638.969	4.37
639.3	4.61
639.63	4.59
639.961	4.63
640.291	5.01
640.622	5.01
640.952	4.91
641.282	4.36
641.612	4.64
641.943	4.98
642.273	4.52
642.603	5.02
642.933	5.04
643.263	4.53
643.592	4.42
643.922	4.84
644.252	5.05
644.582	4.59
644.911	4.58
645.241	5.02
645.571	4.82
645.9	5.34
646.23	4.79
646.559	4.89
646.888	4.75
647.218	4.64
647.547	4.34
647.876	4.54
648.205	4.85
648.534	5.09
648.863	4.67
649.192	4.55
649.521	4.79
649.85	5.12
650.179	4.84
650.508	4.97
650.837	4.63
651.165	4.49
651.494	5.05
651.822	4.69
652.151	4.53
652.479	4.12
652.808	4.49
653.136	4.7
653.465	5.23
653.793	4.88
654.121	4.73
654.449	4.44
654.777	5.41
655.105	4.8
655.433	5.07
655.761	4.88
656.089	4.8
656.417	4.35
656.745	4.69
657.073	4.9
657.4	4.3
657.728	5.22
658.056	4.99
658.383	4.9
658.711	4.75
659.038	4.78
659.365	4.58
659.693	4.8
660.02	5.2
660.347	5.1
660.674	4.74
661.001	4.9
661.329	4.85
661.656	4.83
661.982	4.95
662.309	4.59
662.636	5.16
662.963	4.48
663.29	4.89
663.616	4.13
663.943	4.78
664.27	4.56
664.596	5.2
664.923	4.67
665.249	5.82
665.576	5.24
665.902	5.16
666.228	4.57
666.554	4.56
666.881	4.99
667.207	5.04
667.533	4.83
667.859	5.21
668.185	5.39
668.511	5.07
668.837	5.23
669.162	5.13
669.488	5.08
669.814	4.63
670.139	5.08
670.465	4.38
670.791	5.07
671.116	5.03
671.442	5.12
671.767	5.29
672.092	5.19
672.418	4.85
672.743	4.44
673.068	5.2
673.393	5.68
673.718	5.09
674.043	5.5
674.368	4.99
674.693	4.23
675.018	4.94
675.343	5.05
675.667	5.09
675.992	5.74
676.317	4.9
676.641	4.57
676.966	5.72
677.29	4.8
677.615	5.18
677.939	5.05
678.264	5.27
678.588	4.92
678.912	4.64
679.236	5.42
679.56	5.61
679.885	4.78
680.209	4.79
680.532	5.74
680.856	5.26
681.18	5.14
681.504	4.88
681.828	5.2
682.152	5.14
682.475	5.48
682.799	5.09
683.122	5.24
683.446	5.75
683.769	5.09
684.093	4.82
684.416	5.41
684.739	6
685.062	4.87
685.386	5.07
685.709	5.37
686.032	4.98
686.355	4.93
686.678	5.44
687.001	5.63
687.324	5.28
687.646	4.46
687.969	4.95
688.292	6.54
688.614	5.37
688.937	4.78
689.26	4.27
689.582	5.32
689.904	5.2
690.227	5.01
690.549	5.1
690.871	5.35
691.194	5
691.516	4.79
691.838	5.12
692.16	5
692.482	5.24
