Data from 20-4_chest_Reflection__0__75.txt Node

Date: Fri Nov 11 20:45:46 CST 2022
User: ToomeyLab
Spectrometer: FLMS14357
Trigger mode: 0
Integration Time (sec): 1.000000E-2
Scans to average: 100
Electric dark correction enabled: true
Nonlinearity correction enabled: false
Boxcar width: 0
XAxis mode: Wavelengths
Number of Pixels in Spectrum: 2048
>>>>>Begin Spectral Data<<<<<
189.047	33.07
189.435	33.07
189.823	33.07
190.211	199.3
190.599	70.5
190.987	46.54
191.375	119.01
191.763	-108.22
192.151	-122.42
192.538	15.38
192.926	-1.15
193.314	114.89
193.702	145.42
194.089	108.31
194.477	82.6
194.864	-20.35
195.252	243.65
195.639	-132.56
196.027	-23.63
196.414	35.02
196.801	582.92
197.189	496.54
197.576	175.7
197.963	11.06
198.351	-57.45
198.738	12.85
199.125	43.04
199.512	49.1
199.899	-18.4
200.286	20.67
200.673	31.94
201.06	29.63
201.447	77.63
201.833	36.08
202.22	-8.65
202.607	48.61
202.994	7.9
203.38	32.67
203.767	69.77
204.154	50.91
204.54	16.65
204.927	41.5
205.313	-19.11
205.699	4.9
206.086	34.27
206.472	47.26
206.858	33.08
207.245	47.62
207.631	6.19
208.017	53.74
208.403	40.51
208.789	39.28
209.175	30.62
209.561	45.88
209.947	6.04
210.333	-1.42
210.719	7.56
211.105	57.89
211.491	40.82
211.876	54.04
212.262	31.73
212.648	22.2
213.034	12.82
213.419	-18.74
213.805	2.77
214.19	12.93
214.576	5.07
214.961	-14.45
215.346	-15.65
215.732	-4.95
216.117	31.76
216.502	-4.76
216.888	-4.99
217.273	10.77
217.658	6.2
218.043	29.82
218.428	17.17
218.813	5.93
219.198	-0.29
219.583	4.93
219.968	6.2
220.353	-36.14
220.738	7.23
221.122	19
221.507	-22.76
221.892	1.02
222.276	7.83
222.661	10.93
223.046	-1.18
223.43	-7.74
223.815	0.36
224.199	17.56
224.583	2.91
224.968	-2.19
225.352	6.87
225.736	8.33
226.121	7.02
226.505	3.01
226.889	-2.75
227.273	-1.42
227.657	3.7
228.041	0.83
228.425	5.21
228.809	4.93
229.193	7.3
229.577	7.38
229.961	5.46
230.344	5.94
230.728	3.6
231.112	4.41
231.495	4.91
231.879	4.99
232.263	4.72
232.646	4.66
233.03	6.21
233.413	5.45
233.797	4.96
234.18	3.49
234.563	6.92
234.946	6.62
235.33	5.15
235.713	4.74
236.096	4.81
236.479	5.56
236.862	7.58
237.245	4.97
237.628	5.73
238.011	5.37
238.394	5.3
238.777	5.17
239.16	8.45
239.543	5.35
239.925	3.67
240.308	3.18
240.691	6.75
241.073	4.58
241.456	4.56
241.838	5.68
242.221	5.56
242.603	5.73
242.986	4.97
243.368	5.37
243.75	5.11
244.133	4.94
244.515	4.71
244.897	5.45
245.279	4.45
245.661	5.57
246.043	5.33
246.425	6.81
246.807	5.6
247.189	4.62
247.571	5.18
247.953	5.03
248.335	5.05
248.717	5.08
249.098	5.18
249.48	4.72
249.862	5.45
250.243	4.71
250.625	5.28
251.006	5.81
251.388	5.67
251.769	6.43
252.151	6.16
252.532	5.47
252.913	5.49
253.295	5.16
253.676	4.61
254.057	4.78
254.438	5.26
254.819	5.03
255.2	6.2
255.581	6.22
255.962	5.33
256.343	5.43
256.724	4.98
257.105	5.73
257.486	5.38
257.867	5.77
258.247	4.16
258.628	4.6
259.009	5.07
259.389	4.95
259.77	5.11
260.15	5.4
260.531	4.89
260.911	4.54
261.292	4.98
261.672	4.34
262.052	4.82
262.432	4.99
262.813	4.68
263.193	4.93
263.573	5.13
263.953	5.79
264.333	5.18
264.713	4.87
265.093	5.36
265.473	3.84
265.853	4.78
266.233	5.16
266.612	3.45
266.992	4.71
267.372	5.32
267.752	4.5
268.131	5.06
268.511	4.37
268.89	4.54
269.27	4.35
269.649	4.1
270.029	4.82
270.408	4.6
270.787	4.51
271.167	4.71
271.546	4.67
271.925	4.64
272.304	4.88
272.683	4.87
273.062	4.53
273.441	4.53
273.82	4.7
274.199	4.45
274.578	4.19
274.957	4.84
275.336	4.89
275.715	4.7
276.093	4.62
276.472	4.07
276.851	4.55
277.229	4.46
277.608	4.72
277.986	4.92
278.365	3.83
278.743	4.73
279.122	5.01
279.5	4.59
279.878	4.78
280.257	4.65
280.635	4.47
281.013	4.61
281.391	4.12
281.769	4.33
282.147	4.31
282.525	4.35
282.903	4.15
283.281	4.61
283.659	4.77
284.037	4.53
284.415	4.55
284.792	4.65
285.17	4.95
285.548	4.4
285.925	4.2
286.303	4.49
286.68	4.73
287.058	4.72
287.435	4.55
287.813	4.55
288.19	4.21
288.567	4.39
288.945	5.03
289.322	5.05
289.699	4.01
290.076	4.87
290.453	4.39
290.83	4.57
291.207	4.9
291.584	4.98
291.961	4.84
292.338	4.61
292.715	4.4
293.092	4.53
293.469	4.16
293.845	4.97
294.222	4.52
294.599	5.02
294.975	4.73
295.352	4.68
295.728	4.49
296.105	4.49
296.481	4.08
296.858	4.28
297.234	4.43
297.61	4.85
297.986	4.82
298.363	4.86
298.739	4.73
299.115	4.76
299.491	4.78
299.867	4.62
300.243	4.73
300.619	5.27
300.995	4.96
301.371	4.98
301.746	4.87
302.122	4.85
302.498	5.21
302.874	4.9
303.249	4.83
303.625	4.76
304	4.63
304.376	5.14
304.751	4.64
305.127	4.41
305.502	4.89
305.878	5.12
306.253	4.87
306.628	4.58
307.003	5.29
307.378	5.17
307.754	5.07
308.129	4.9
308.504	4.99
308.879	5.15
309.254	5.36
309.629	4.89
310.003	4.98
310.378	5.15
310.753	5.14
311.128	5.56
311.502	5.62
311.877	4.9
312.252	5.12
312.626	5.22
313.001	5.17
313.375	4.97
313.75	5.1
314.124	4.94
314.498	5.16
314.873	5.21
315.247	5.5
315.621	5.41
315.995	5.34
316.369	5.02
316.743	5.15
317.117	5.31
317.491	5.46
317.865	5.2
318.239	5.44
318.613	5.28
318.987	5.18
319.361	5.31
319.734	5.75
320.108	5.29
320.482	5.36
320.855	5.37
321.229	4.81
321.602	5.21
321.976	5.14
322.349	5.78
322.723	5.32
323.096	5.22
323.469	5.53
323.843	5.73
324.216	5.3
324.589	5.69
324.962	5.76
325.335	5.47
325.708	5.21
326.081	5.1
326.454	5.45
326.827	4.94
327.2	5.97
327.573	5.96
327.945	5.11
328.318	5.27
328.691	5.33
329.063	5.5
329.436	5.02
329.809	5.27
330.181	5.12
330.553	5.24
330.926	5.04
331.298	5.52
331.671	5.37
332.043	5.46
332.415	5.45
332.787	5.91
333.159	5.42
333.532	5.68
333.904	5.9
334.276	5.37
334.648	5.63
335.02	5.12
335.391	5.68
335.763	5.47
336.135	5.38
336.507	5.64
336.879	5.4
337.25	5.05
337.622	5.48
337.993	5.57
338.365	5.74
338.736	5.85
339.108	5.52
339.479	5.17
339.851	5.83
340.222	5.27
340.593	5.87
340.964	5.5
341.336	5.39
341.707	5.25
342.078	5.33
342.449	5.4
342.82	5.78
343.191	5.57
343.562	5.22
343.933	5.03
344.303	5.2
344.674	5.54
345.045	5.36
345.416	5.69
345.786	4.86
346.157	5.19
346.527	5.48
346.898	5.2
347.268	5.1
347.639	5.8
348.009	5.08
348.38	5.53
348.75	5.42
349.12	5.98
349.49	5.66
349.861	5.31
350.231	5.48
350.601	5.31
350.971	5.53
351.341	5.34
351.711	5.54
352.081	5.43
352.45	5.53
352.82	5.09
353.19	5.6
353.56	5.94
353.929	5.59
354.299	5.36
354.669	5.57
355.038	5.68
355.408	5.62
355.777	5.92
356.147	5.33
356.516	5.78
356.885	5.69
357.254	5.44
357.624	5.07
357.993	5.39
358.362	5.72
358.731	5.14
359.1	5.4
359.469	5.19
359.838	5.43
360.207	5.76
360.576	5.57
360.945	5.73
361.314	5.26
361.682	5.56
362.051	5.53
362.42	5.71
362.788	5.7
363.157	5.37
363.525	5.49
363.894	5.22
364.262	5.65
364.631	5.65
364.999	5.38
365.367	5.58
365.735	5.52
366.104	5.27
366.472	5.28
366.84	5.31
367.208	5.49
367.576	5.82
367.944	5.92
368.312	5.42
368.68	5.58
369.048	5.54
369.416	5.22
369.783	5.7
370.151	5.68
370.519	5.88
370.886	5.64
371.254	5.53
371.621	5.73
371.989	5.64
372.356	5.56
372.724	6.05
373.091	5.48
373.458	5.61
373.826	5.45
374.193	5.45
374.56	5.35
374.927	5.74
375.294	5.84
375.661	6.21
376.028	5.26
376.395	5.52
376.762	5.75
377.129	5.61
377.496	5.7
377.863	5.88
378.229	5.47
378.596	5.71
378.963	5.76
379.329	5.74
379.696	5.61
380.062	5.59
380.429	5.9
380.795	6.11
381.161	5.86
381.528	5.51
381.894	5.77
382.26	6.02
382.626	6.02
382.993	5.71
383.359	5.95
383.725	5.61
384.091	5.79
384.457	5.51
384.823	5.6
385.188	5.75
385.554	5.88
385.92	5.63
386.286	5.73
386.651	5.87
387.017	5.65
387.383	5.79
387.748	5.6
388.114	5.76
388.479	5.44
388.845	5.46
389.21	5.75
389.575	5.53
389.94	5.82
390.306	5.4
390.671	5.78
391.036	5.64
391.401	5.71
391.766	5.82
392.131	5.67
392.496	5.71
392.861	5.82
393.226	5.66
393.591	5.76
393.956	5.79
394.32	5.58
394.685	5.8
395.05	5.94
395.414	5.74
395.779	5.65
396.143	5.56
396.508	5.92
396.872	5.93
397.236	5.71
397.601	5.76
397.965	5.65
398.329	5.87
398.694	5.85
399.058	5.93
399.422	5.82
399.786	5.8
400.15	5.92
400.514	5.84
400.878	5.79
401.242	5.71
401.605	5.89
401.969	5.79
402.333	5.4
402.697	5.97
403.06	5.99
403.424	5.58
403.787	5.93
404.151	5.81
404.514	5.61
404.878	5.88
405.241	5.8
405.604	5.71
405.968	5.76
406.331	5.57
406.694	5.86
407.057	5.75
407.42	5.9
407.783	5.73
408.146	5.74
408.509	6.09
408.872	5.88
409.235	5.73
409.598	5.87
409.961	5.97
410.323	5.85
410.686	5.84
411.049	5.89
411.411	5.8
411.774	5.71
412.136	5.83
412.499	5.93
412.861	5.87
413.223	5.68
413.586	5.97
413.948	6.06
414.31	6
414.672	5.73
415.035	5.81
415.397	5.82
415.759	5.8
416.121	5.79
416.483	5.67
416.845	5.89
417.206	5.72
417.568	5.71
417.93	5.79
418.292	5.81
418.653	5.79
419.015	5.92
419.377	5.93
419.738	6.01
420.1	5.81
420.461	5.76
420.822	5.69
421.184	5.76
421.545	5.71
421.906	5.76
422.267	5.64
422.629	5.69
422.99	5.69
423.351	5.69
423.712	5.63
424.073	5.8
424.434	5.83
424.795	5.79
425.155	5.71
425.516	5.76
425.877	5.76
426.238	5.73
426.598	5.62
426.959	5.71
427.32	5.76
427.68	5.91
428.041	5.95
428.401	5.64
428.761	5.98
429.122	5.89
429.482	5.86
429.842	5.91
430.202	6.03
430.563	6.15
430.923	6.07
431.283	5.83
431.643	5.68
432.003	6.1
432.363	5.96
432.722	6.27
433.082	5.93
433.442	6.01
433.802	6.1
434.161	5.92
434.521	6
434.881	6.1
435.24	5.93
435.6	5.77
435.959	5.88
436.319	5.78
436.678	5.94
437.037	5.98
437.396	6.09
437.756	6.01
438.115	6.04
438.474	5.97
438.833	6.17
439.192	6.03
439.551	5.97
439.91	6
440.269	5.98
440.628	5.98
440.987	5.92
441.345	5.92
441.704	6.04
442.063	5.88
442.421	5.88
442.78	5.82
443.138	6.07
443.497	5.96
443.855	6.02
444.214	5.9
444.572	6.11
444.93	6.04
445.288	6.04
445.647	6.17
446.005	6.05
446.363	6.05
446.721	6.03
447.079	6.11
447.437	5.92
447.795	5.99
448.153	5.92
448.51	5.95
448.868	5.99
449.226	5.89
449.584	6
449.941	6
450.299	6.01
450.656	6
451.014	6.19
451.371	6.07
451.729	6.03
452.086	6.13
452.443	6.21
452.801	6.25
453.158	6.08
453.515	6.19
453.872	6.03
454.229	6.01
454.586	6.01
454.943	6.15
455.3	6.02
455.657	6.06
456.014	6.22
456.371	6.21
456.727	6.24
457.084	5.92
457.441	6.39
457.797	6.19
458.154	6.15
458.51	6.31
458.867	6.22
459.223	6.16
459.58	6.14
459.936	6.15
460.292	6.15
460.648	6.2
461.005	6.1
461.361	6.05
461.717	6.01
462.073	6.06
462.429	5.96
462.785	6.11
463.141	6.17
463.496	6.18
463.852	6.33
464.208	6.29
464.564	6.16
464.919	6.24
465.275	6.32
465.631	6.4
465.986	6.42
466.342	6.18
466.697	6.19
467.052	6.28
467.408	6.3
467.763	6.12
468.118	6.33
468.473	6.27
468.829	6.42
469.184	6.33
469.539	6.39
469.894	6.38
470.249	6.31
470.603	6.26
470.958	6.32
471.313	6.53
471.668	6.54
472.023	6.14
472.377	6.42
472.732	6.48
473.086	6.31
473.441	6.34
473.795	6.5
474.15	6.48
474.504	6.5
474.859	6.6
475.213	6.44
475.567	6.44
475.921	6.45
476.275	6.25
476.63	6.41
476.984	6.55
477.338	6.42
477.692	6.14
478.045	6.32
478.399	6.48
478.753	6.44
479.107	6.45
479.461	6.48
479.814	6.35
480.168	6.51
480.521	6.45
480.875	6.54
481.228	6.5
481.582	6.42
481.935	6.39
482.289	6.24
482.642	6.36
482.995	6.32
483.348	6.36
483.701	6.37
484.055	6.33
484.408	6.26
484.761	6.12
485.114	6.03
485.466	5.93
485.819	5.99
486.172	6.03
486.525	6.15
486.878	6.21
487.23	6.17
487.583	6.28
487.936	6.28
488.288	6.29
488.641	6.19
488.993	6.16
489.345	6.09
489.698	6.16
490.05	6.15
490.402	6.25
490.754	6.31
491.107	6.24
491.459	6.32
491.811	6.36
492.163	6.41
492.515	6.35
492.866	6.3
493.218	6.24
493.57	6.16
493.922	6.24
494.274	6.33
494.625	6.42
494.977	6.51
495.328	6.51
495.68	6.42
496.031	6.48
496.383	6.67
496.734	6.72
497.086	6.63
497.437	6.64
497.788	6.6
498.139	6.57
498.49	6.39
498.842	6.5
499.193	6.51
499.544	6.59
499.894	6.54
500.245	6.54
500.596	6.55
500.947	6.54
501.298	6.67
501.648	6.62
501.999	6.64
502.35	6.86
502.7	6.72
503.051	6.75
503.401	6.73
503.752	6.71
504.102	6.63
504.452	6.84
504.803	6.65
505.153	6.75
505.503	6.68
505.853	6.75
506.203	6.82
506.553	6.44
506.903	6.57
507.253	6.72
507.603	6.8
507.953	6.74
508.303	6.7
508.652	6.76
509.002	6.64
509.352	6.7
509.701	6.85
510.051	6.73
510.4	6.81
510.75	6.7
511.099	6.7
511.449	6.73
511.798	6.81
512.147	6.69
512.496	6.73
512.846	6.92
513.195	6.82
513.544	6.83
513.893	6.73
514.242	6.82
514.591	6.83
514.939	6.9
515.288	6.83
515.637	6.88
515.986	6.83
516.334	6.85
516.683	6.91
517.032	6.83
517.38	6.9
517.729	7.02
518.077	6.96
518.426	6.98
518.774	7.02
519.122	6.97
519.47	6.97
519.819	6.88
520.167	6.81
520.515	6.91
520.863	6.88
521.211	6.84
521.559	6.93
521.907	7
522.255	6.9
522.602	7.02
522.95	6.98
523.298	7.1
523.645	7.09
523.993	7.02
524.341	7.22
524.688	7.18
525.036	7.21
525.383	7.14
525.73	7.03
526.078	7.05
526.425	7
526.772	7.04
527.119	6.95
527.466	7
527.814	7.03
528.161	7
528.508	7.09
528.854	7.03
529.201	7.06
529.548	6.94
529.895	6.88
530.242	6.84
530.588	6.8
530.935	6.85
531.282	6.94
531.628	6.95
531.975	7.07
532.321	7.07
532.667	7.18
533.014	7.26
533.36	7.19
533.706	7.29
534.052	7.16
534.399	7.06
534.745	7.12
535.091	7.09
535.437	7.1
535.783	7.14
536.129	7.2
536.474	7.32
536.82	7.27
537.166	7.24
537.512	7.3
537.857	7.27
538.203	7.21
538.549	7.31
538.894	7.3
539.239	7.3
539.585	7.41
539.93	7.46
540.276	7.65
540.621	7.52
540.966	7.6
541.311	7.55
541.656	7.51
542.001	7.47
542.346	7.46
542.691	7.32
543.036	7.18
543.381	7.23
543.726	7.22
544.071	7.32
544.415	7.44
544.76	7.45
545.105	7.45
545.449	7.41
545.794	7.55
546.138	7.62
546.483	7.59
546.827	7.69
547.171	7.7
547.516	7.58
547.86	7.55
548.204	7.73
548.548	7.69
548.892	7.75
549.236	7.72
549.58	7.94
549.924	7.83
550.268	7.88
550.612	7.99
550.956	8.02
551.3	8.05
551.643	8
551.987	7.86
552.33	8
552.674	7.91
553.017	7.97
553.361	8.12
553.704	8.06
554.048	8.07
554.391	8.07
554.734	8
555.077	8.1
555.42	8.19
555.764	8.19
556.107	8.11
556.45	8.24
556.793	8.2
557.135	8.24
557.478	8.37
557.821	8.24
558.164	8.15
558.507	8.27
558.849	8.21
559.192	8.32
559.534	8.4
559.877	8.43
560.219	8.42
560.562	8.19
560.904	8.42
561.246	8.3
561.589	8.47
561.931	8.21
562.273	8.32
562.615	8.27
562.957	8.55
563.299	8.54
563.641	8.39
563.983	8.25
564.325	8.39
564.667	8.65
565.008	8.79
565.35	8.59
565.692	8.38
566.033	8.53
566.375	8.62
566.716	8.78
567.058	8.56
567.399	8.84
567.741	8.72
568.082	8.65
568.423	8.61
568.764	8.62
569.105	8.55
569.447	8.86
569.788	8.87
570.129	8.7
570.47	8.85
570.811	8.81
571.151	8.95
571.492	8.81
571.833	8.97
572.174	8.99
572.514	8.93
572.855	8.94
573.195	8.68
573.536	8.92
573.876	8.97
574.217	9.05
574.557	8.9
574.898	9
575.238	8.95
575.578	9.08
575.918	9.08
576.258	9.25
576.598	9.18
576.938	9.16
577.278	9.04
577.618	9.29
577.958	9.33
578.298	9.27
578.638	9.35
578.977	9.37
579.317	9.27
579.657	9.42
579.996	9.41
580.336	9.46
580.675	9.47
581.014	9.47
581.354	9.41
581.693	9.54
582.032	9.34
582.372	9.61
582.711	9.65
583.05	9.46
583.389	9.57
583.728	9.6
584.067	9.69
584.406	9.58
584.745	9.91
585.083	9.61
585.422	9.67
585.761	9.99
586.1	9.93
586.438	9.57
586.777	9.91
587.115	9.94
587.454	9.69
587.792	9.85
588.13	10.02
588.469	10.12
588.807	10.03
589.145	10.23
589.483	10.27
589.821	10.19
590.159	10.07
590.497	10.18
590.835	10.29
591.173	9.94
591.511	9.82
591.849	10.3
592.187	10.08
592.524	10.22
592.862	10.04
593.2	10.46
593.537	10.31
593.875	10.43
594.212	10.09
594.55	10.27
594.887	10.19
595.224	10.19
595.561	10.32
595.899	10.16
596.236	10.51
596.573	10.43
596.91	10.39
597.247	10.4
597.584	10.32
597.921	10.54
598.258	10.29
598.594	10.44
598.931	10.29
599.268	10.54
599.604	10.54
599.941	10.7
600.277	10.58
600.614	10.73
600.95	10.45
601.287	10.61
601.623	11.03
601.959	10.88
602.296	10.75
602.632	10.81
602.968	10.94
603.304	10.78
603.64	11.24
603.976	10.77
604.312	10.93
604.648	10.69
604.984	10.73
605.319	11
605.655	10.91
605.991	10.84
606.326	11.11
606.662	10.91
606.998	10.99
607.333	10.99
607.668	10.93
608.004	11.18
608.339	11.3
608.674	11.13
609.01	11.35
609.345	10.94
609.68	11.19
610.015	11.25
610.35	11.14
610.685	11.48
611.02	11.42
611.355	11.41
611.689	11.2
612.024	11.28
612.359	11.33
612.694	11.47
613.028	11.48
613.363	11.46
613.697	11.77
614.032	11.86
614.366	11.52
614.7	11.52
615.035	11.67
615.369	11.67
615.703	11.86
616.037	11.84
616.371	12.03
616.705	11.99
617.039	12.12
617.373	11.93
617.707	11.79
618.041	12.16
618.375	11.68
618.709	12.36
619.042	12.44
619.376	12.01
619.71	12.24
620.043	12.04
620.377	11.98
620.71	12.42
621.043	11.79
621.377	12.22
621.71	11.97
622.043	12.33
622.376	12.68
622.709	12.21
623.043	12.51
623.376	12.44
623.709	12.4
624.041	12.63
624.374	12.06
624.707	12.92
625.04	12.69
625.373	12.17
625.705	12.3
626.038	12.35
626.37	12.44
626.703	12.28
627.035	12.52
627.368	12.37
627.7	12.67
628.032	12.72
628.365	12.72
628.697	12.67
629.029	12.66
629.361	12.81
629.693	12.59
630.025	12.52
630.357	12.91
630.689	12.7
631.021	13.14
631.353	13.31
631.684	12.9
632.016	12.91
632.348	12.81
632.679	12.71
633.011	13.45
633.342	13.41
633.674	12.8
634.005	13.26
634.336	13.03
634.668	13.34
634.999	13.2
635.33	13.31
635.661	13.59
635.992	12.92
636.323	13.18
636.654	13.53
636.985	13.29
637.316	13.5
637.647	13.6
637.977	13.57
638.308	13.7
638.639	13.38
638.969	13.66
639.3	13.72
639.63	13.7
639.961	13.19
640.291	13.96
640.622	13.66
640.952	13.93
641.282	13.69
641.612	13.61
641.943	14.21
642.273	13.87
642.603	14.18
642.933	13.79
643.263	13.71
643.592	13.88
643.922	14.18
644.252	14.07
644.582	14.29
644.911	13.99
645.241	14.4
645.571	14.19
645.9	14.24
646.23	14.58
646.559	14.45
646.888	14.14
647.218	13.72
647.547	13.91
647.876	13.94
648.205	14.26
648.534	14.37
648.863	14.28
649.192	14.17
649.521	14.45
649.85	14.6
650.179	14.6
650.508	14.89
650.837	14.53
651.165	14.67
651.494	15.18
651.822	14.31
652.151	14.44
652.479	14.34
652.808	14.4
653.136	14.35
653.465	15
653.793	15.05
654.121	14.57
654.449	14.66
654.777	15.36
655.105	14.91
655.433	14.78
655.761	15.28
656.089	15.21
656.417	14.78
656.745	15.4
657.073	15.42
657.4	15.2
657.728	15.8
658.056	15.46
658.383	15
658.711	15.48
659.038	15.2
659.365	15.57
659.693	15.12
660.02	15.56
660.347	15.36
660.674	15.46
661.001	15.47
661.329	15.56
661.656	15.5
661.982	16.19
662.309	15.49
662.636	15.84
662.963	15.71
663.29	15.72
663.616	15.65
663.943	15.62
664.27	15.88
664.596	16.06
664.923	15.86
665.249	16.37
665.576	16.48
665.902	15.86
666.228	16.03
666.554	15.57
666.881	15.7
667.207	16.1
667.533	16.54
667.859	16.52
668.185	16.33
668.511	16.09
668.837	16.47
669.162	17.01
669.488	16.07
669.814	16.19
670.139	16.22
670.465	16.11
670.791	16.57
671.116	16.56
671.442	16.14
671.767	16.57
672.092	16.4
672.418	16.71
672.743	16.16
673.068	16.82
673.393	16.57
673.718	16.76
674.043	16.92
674.368	16.94
674.693	16.82
675.018	16.93
675.343	17.23
675.667	17.31
675.992	17.66
676.317	17.09
676.641	16.66
676.966	17.55
677.29	16.61
677.615	17.03
677.939	17.04
678.264	16.48
678.588	16.94
678.912	17.21
679.236	16.94
679.56	17.64
679.885	17.34
680.209	17.4
680.532	17.25
680.856	18.26
681.18	17.56
681.504	17.09
681.828	17.34
682.152	17.52
682.475	17.48
682.799	17.27
683.122	17.33
683.446	17.74
683.769	17.74
684.093	17.85
684.416	17.54
684.739	18.39
685.062	17.36
685.386	17.64
685.709	18.08
686.032	17.75
686.355	18.12
686.678	17.95
