Data from 20-4_crown_Reflection__1__81.txt Node

Date: Fri Nov 11 20:47:41 CST 2022
User: ToomeyLab
Spectrometer: FLMS14357
Trigger mode: 0
Integration Time (sec): 1.000000E-2
Scans to average: 100
Electric dark correction enabled: true
Nonlinearity correction enabled: false
Boxcar width: 0
XAxis mode: Wavelengths
Number of Pixels in Spectrum: 2048
>>>>>Begin Spectral Data<<<<<
189.047	-47.2
189.435	-47.2
189.823	-47.2
190.211	52.49
190.599	22.56
190.987	13.54
191.375	-20.71
191.763	-181.09
192.151	930.91
192.538	-95.46
192.926	30.98
193.314	114.08
193.702	-166.19
194.089	31.29
194.477	83.71
194.864	30.94
195.252	248.52
195.639	-79.24
196.027	-172.86
196.414	64.56
196.801	20.8
197.189	401.18
197.576	316.37
197.963	-42.73
198.351	-30.07
198.738	-36.01
199.125	90.13
199.512	-9.2
199.899	-56.23
200.286	22.51
200.673	9.26
201.06	18.8
201.447	11.1
201.833	40.16
202.22	-18.64
202.607	80.41
202.994	10.61
203.38	26.09
203.767	-13.88
204.154	33.38
204.54	-2.09
204.927	5.8
205.313	-8.34
205.699	-44.17
206.086	13.32
206.472	-13.53
206.858	7.79
207.245	20.84
207.631	29.91
208.017	31.53
208.403	-11.2
208.789	11.7
209.175	15.43
209.561	46.32
209.947	8.08
210.333	8.88
210.719	6.78
211.105	26.97
211.491	30.99
211.876	10.14
212.262	26.41
212.648	-16.89
213.034	4.25
213.419	-59.37
213.805	-18.19
214.19	-13.6
214.576	-17.45
214.961	-53.34
215.346	14.77
215.732	5.31
216.117	15.14
216.502	13.22
216.888	-21.27
217.273	11.19
217.658	-31.72
218.043	13.53
218.428	5.78
218.813	-17.02
219.198	17
219.583	-12.32
219.968	3.27
220.353	-22.53
220.738	-14.5
221.122	1.13
221.507	-7.55
221.892	6.39
222.276	20.15
222.661	4.7
223.046	-12.62
223.43	-2.39
223.815	3.25
224.199	-3.89
224.583	-6.89
224.968	-3.47
225.352	2.7
225.736	0.56
226.121	-3.85
226.505	4.7
226.889	-1.69
227.273	4.61
227.657	-1.84
228.041	-0.54
228.425	-0.04
228.809	-2.19
229.193	3.57
229.577	3.75
229.961	0.49
230.344	2.8
230.728	1.84
231.112	1.68
231.495	1.46
231.879	0.5
232.263	1
232.646	0.61
233.03	2.52
233.413	1.4
233.797	2.96
234.18	3.18
234.563	0.19
234.946	-0.79
235.33	1.48
235.713	1.12
236.096	0.73
236.479	1.82
236.862	3.21
237.245	0.38
237.628	2.74
238.011	2.14
238.394	3.13
238.777	3.28
239.16	3.57
239.543	1.53
239.925	2.85
240.308	2.03
240.691	4.13
241.073	1.14
241.456	1.12
241.838	2.23
242.221	2.5
242.603	3.22
242.986	1.93
243.368	2.44
243.75	2.61
244.133	2.5
244.515	2.39
244.897	3.02
245.279	2.1
245.661	2.91
246.043	3.24
246.425	3.34
246.807	2.08
247.189	2.13
247.571	2.15
247.953	2.72
248.335	2.4
248.717	2.57
249.098	2.71
249.48	2.11
249.862	2.71
250.243	2.51
250.625	2.07
251.006	3.27
251.388	2.34
251.769	2.26
252.151	2.98
252.532	2.91
252.913	2.99
253.295	1.9
253.676	1.74
254.057	2.39
254.438	2.42
254.819	2.61
255.2	3.42
255.581	1.75
255.962	2.58
256.343	2.23
256.724	2.83
257.105	1.96
257.486	2.64
257.867	2.98
258.247	1.63
258.628	1.87
259.009	1.79
259.389	1.9
259.77	3.01
260.15	2.65
260.531	2.29
260.911	2.28
261.292	2.37
261.672	2.1
262.052	2.17
262.432	2.3
262.813	2.27
263.193	1.97
263.573	2.03
263.953	2.6
264.333	1.74
264.713	2.03
265.093	2.47
265.473	1.57
265.853	2.41
266.233	2.64
266.612	1.52
266.992	1.51
267.372	2.7
267.752	1.67
268.131	2.15
268.511	2.01
268.89	1.95
269.27	1.92
269.649	1.78
270.029	2.74
270.408	2.42
270.787	2
271.167	2.19
271.546	2.33
271.925	2.26
272.304	2.34
272.683	2.33
273.062	1.9
273.441	2.17
273.82	2.05
274.199	1.88
274.578	1.74
274.957	2.44
275.336	2.24
275.715	2.18
276.093	1.43
276.472	2.16
276.851	2.42
277.229	2.43
277.608	2.33
277.986	2.48
278.365	1.72
278.743	2.15
279.122	2.94
279.5	2.22
279.878	2.5
280.257	2.25
280.635	2
281.013	1.94
281.391	2.32
281.769	2.06
282.147	2.19
282.525	1.58
282.903	1.7
283.281	2.21
283.659	2.43
284.037	2.58
284.415	2.05
284.792	1.74
285.17	2.54
285.548	1.93
285.925	1.98
286.303	1.92
286.68	2.33
287.058	2.12
287.435	1.84
287.813	2.06
288.19	1.81
288.567	2.2
288.945	2.33
289.322	2.4
289.699	1.61
290.076	2.45
290.453	2.25
290.83	1.95
291.207	2.36
291.584	2.56
291.961	2.14
292.338	1.84
292.715	2.41
293.092	2.11
293.469	1.86
293.845	1.99
294.222	1.79
294.599	2.97
294.975	1.67
295.352	2.1
295.728	2.33
296.105	1.97
296.481	1.85
296.858	2.08
297.234	2.24
297.61	1.94
297.986	2.32
298.363	2.54
298.739	2.37
299.115	2.4
299.491	2.53
299.867	2.23
300.243	2.49
300.619	2.43
300.995	2
301.371	2.98
301.746	2.63
302.122	2.83
302.498	2.31
302.874	2.5
303.249	2.5
303.625	2.51
304	1.77
304.376	2.61
304.751	2.27
305.127	2.14
305.502	2.64
305.878	2.65
306.253	2.51
306.628	2.6
307.003	2.63
307.378	2.26
307.754	2.55
308.129	2.38
308.504	2.75
308.879	2.24
309.254	2.63
309.629	2.42
310.003	2.41
310.378	2.62
310.753	2.66
311.128	2.82
311.502	2.64
311.877	2.45
312.252	2.24
312.626	2.53
313.001	2.5
313.375	2.4
313.75	2.44
314.124	2.31
314.498	2.48
314.873	2.02
315.247	2.79
315.621	2.41
315.995	2.79
316.369	2.81
316.743	2.49
317.117	2.7
317.491	2.25
317.865	2.4
318.239	2.75
318.613	3.4
318.987	2.41
319.361	1.91
319.734	2.69
320.108	2.15
320.482	2.85
320.855	2.69
321.229	2.02
321.602	2.52
321.976	2.03
322.349	2.7
322.723	3.11
323.096	2.32
323.469	2.58
323.843	2.73
324.216	2.08
324.589	3.07
324.962	2.81
325.335	2.25
325.708	2.84
326.081	2.76
326.454	2.49
326.827	2.15
327.2	3.13
327.573	3.47
327.945	2.59
328.318	2.84
328.691	2.62
329.063	2.52
329.436	2.66
329.809	2.45
330.181	2.53
330.553	2.2
330.926	2.59
331.298	2.82
331.671	2.63
332.043	2.27
332.415	2.65
332.787	2.51
333.159	2.59
333.532	3.11
333.904	2.67
334.276	2.8
334.648	2.28
335.02	2.59
335.391	2.96
335.763	2.37
336.135	2.45
336.507	2.45
336.879	2.2
337.25	2.65
337.622	2.97
337.993	2.73
338.365	2.95
338.736	2.69
339.108	2.7
339.479	2.61
339.851	2.73
340.222	2.4
340.593	2.98
340.964	2.89
341.336	3.09
341.707	2.47
342.078	2.51
342.449	2.63
342.82	2.82
343.191	2.71
343.562	2.53
343.933	2.39
344.303	2.25
344.674	2.49
345.045	2.63
345.416	2.67
345.786	2.31
346.157	2.44
346.527	2.55
346.898	2.1
347.268	2.51
347.639	2.35
348.009	2.17
348.38	2.62
348.75	2.48
349.12	3.45
349.49	2.69
349.861	2.27
350.231	2.46
350.601	2.93
350.971	2.75
351.341	3
351.711	2.83
352.081	2.75
352.45	2.67
352.82	2.37
353.19	2.52
353.56	2.44
353.929	2.28
354.299	2.76
354.669	2.76
355.038	2.78
355.408	2.6
355.777	3.09
356.147	2.72
356.516	2.48
356.885	2.7
357.254	2.49
357.624	2.28
357.993	2.73
358.362	2.58
358.731	2.35
359.1	2.29
359.469	2.22
359.838	2.35
360.207	2.65
360.576	2.33
360.945	2.59
361.314	2.29
361.682	2.41
362.051	2.47
362.42	2.46
362.788	2.66
363.157	2.57
363.525	2.23
363.894	2.44
364.262	2.62
364.631	2.65
364.999	2.48
365.367	2.4
365.735	2.53
366.104	2.51
366.472	2.25
366.84	2.02
367.208	2.34
367.576	2.77
367.944	2.99
368.312	2.33
368.68	2.37
369.048	2.77
369.416	2.7
369.783	2.77
370.151	2.86
370.519	2.73
370.886	2.58
371.254	3.01
371.621	2.41
371.989	2.55
372.356	2.76
372.724	2.98
373.091	2.74
373.458	2.58
373.826	2.34
374.193	2.59
374.56	2.45
374.927	2.75
375.294	2.48
375.661	2.64
376.028	2.29
376.395	2.55
376.762	2.96
377.129	2.66
377.496	2.55
377.863	2.62
378.229	2.66
378.596	2.4
378.963	2.61
379.329	2.86
379.696	2.65
380.062	2.47
380.429	2.79
380.795	3.07
381.161	2.71
381.528	2.56
381.894	2.65
382.26	2.7
382.626	2.8
382.993	2.59
383.359	2.8
383.725	2.78
384.091	2.47
384.457	2.33
384.823	2.42
385.188	2.59
385.554	2.48
385.92	2.34
386.286	2.54
386.651	2.59
387.017	2.38
387.383	2.69
387.748	2.55
388.114	2.74
388.479	2.23
388.845	2.44
389.21	2.49
389.575	2.67
389.94	2.56
390.306	2.57
390.671	2.41
391.036	2.69
391.401	2.67
391.766	2.56
392.131	2.53
392.496	2.5
392.861	2.42
393.226	2.48
393.591	2.62
393.956	2.41
394.32	2.64
394.685	2.67
395.05	2.52
395.414	2.38
395.779	2.5
396.143	2.51
396.508	2.84
396.872	2.69
397.236	2.56
397.601	2.55
397.965	2.32
398.329	2.64
398.694	2.7
399.058	2.61
399.422	2.56
399.786	2.52
400.15	2.68
400.514	2.67
400.878	2.61
401.242	2.73
401.605	2.64
401.969	2.72
402.333	2.34
402.697	2.71
403.06	3.01
403.424	2.59
403.787	2.73
404.151	2.53
404.514	2.53
404.878	2.9
405.241	2.73
405.604	2.54
405.968	2.67
406.331	2.29
406.694	2.54
407.057	2.61
407.42	2.66
407.783	2.73
408.146	2.72
408.509	2.78
408.872	2.66
409.235	2.71
409.598	2.69
409.961	2.91
410.323	2.69
410.686	2.94
411.049	2.41
411.411	2.49
411.774	2.65
412.136	2.48
412.499	2.67
412.861	2.61
413.223	2.5
413.586	2.46
413.948	2.8
414.31	2.56
414.672	2.78
415.035	2.63
415.397	2.57
415.759	2.54
416.121	2.67
416.483	2.47
416.845	2.81
417.206	2.5
417.568	2.6
417.93	2.59
418.292	2.4
418.653	2.88
419.015	2.59
419.377	2.61
419.738	2.62
420.1	2.64
420.461	2.6
420.822	2.48
421.184	2.55
421.545	2.5
421.906	2.66
422.267	2.47
422.629	2.4
422.99	2.45
423.351	2.53
423.712	2.51
424.073	2.6
424.434	2.59
424.795	2.74
425.155	2.56
425.516	2.48
425.877	2.62
426.238	2.6
426.598	2.46
426.959	2.45
427.32	2.56
427.68	2.64
428.041	2.69
428.401	2.39
428.761	2.64
429.122	2.59
429.482	2.63
429.842	2.44
430.202	2.86
430.563	2.76
430.923	2.69
431.283	2.61
431.643	2.58
432.003	2.85
432.363	2.57
432.722	2.74
433.082	2.71
433.442	2.67
433.802	2.54
434.161	2.53
434.521	2.69
434.881	2.8
435.24	2.57
435.6	2.65
435.959	2.65
436.319	2.5
436.678	2.6
437.037	2.57
437.396	2.76
437.756	2.64
438.115	2.55
438.474	2.53
438.833	2.72
439.192	2.75
439.551	2.51
439.91	2.58
440.269	2.71
440.628	2.66
440.987	2.59
441.345	2.51
441.704	2.58
442.063	2.64
442.421	2.53
442.78	2.45
443.138	2.62
443.497	2.56
443.855	2.6
444.214	2.55
444.572	2.61
444.93	2.59
445.288	2.51
445.647	2.66
446.005	2.65
446.363	2.66
446.721	2.63
447.079	2.59
447.437	2.51
447.795	2.61
448.153	2.51
448.51	2.54
448.868	2.55
449.226	2.58
449.584	2.6
449.941	2.55
450.299	2.48
450.656	2.61
451.014	2.64
451.371	2.64
451.729	2.68
452.086	2.57
452.443	2.65
452.801	2.62
453.158	2.6
453.515	2.69
453.872	2.45
454.229	2.58
454.586	2.63
454.943	2.65
455.3	2.71
455.657	2.8
456.014	2.68
456.371	2.67
456.727	2.85
457.084	2.42
457.441	2.78
457.797	2.56
458.154	2.61
458.51	2.76
458.867	2.57
459.223	2.56
459.58	2.71
459.936	2.55
460.292	2.62
460.648	2.57
461.005	2.57
461.361	2.58
461.717	2.53
462.073	2.63
462.429	2.56
462.785	2.53
463.141	2.54
463.496	2.41
463.852	2.75
464.208	2.73
464.564	2.59
464.919	2.56
465.275	2.58
465.631	2.69
465.986	2.84
466.342	2.63
466.697	2.63
467.052	2.68
467.408	2.62
467.763	2.53
468.118	2.65
468.473	2.6
468.829	2.75
469.184	2.71
469.539	2.57
469.894	2.65
470.249	2.66
470.603	2.57
470.958	2.78
471.313	2.64
471.668	2.78
472.023	2.45
472.377	2.84
472.732	2.66
473.086	2.43
473.441	2.6
473.795	2.62
474.15	2.78
474.504	2.75
474.859	2.76
475.213	2.82
475.567	2.64
475.921	2.54
476.275	2.59
476.63	2.71
476.984	2.75
477.338	2.74
477.692	2.58
478.045	2.54
478.399	2.79
478.753	2.51
479.107	2.67
479.461	2.59
479.814	2.63
480.168	2.63
480.521	2.71
480.875	2.73
481.228	2.7
481.582	2.64
481.935	2.71
482.289	2.58
482.642	2.57
482.995	2.52
483.348	2.64
483.701	2.67
484.055	2.58
484.408	2.57
484.761	2.48
485.114	2.44
485.466	2.42
485.819	2.41
486.172	2.41
486.525	2.52
486.878	2.48
487.23	2.46
487.583	2.5
487.936	2.58
488.288	2.59
488.641	2.49
488.993	2.54
489.345	2.45
489.698	2.47
490.05	2.41
490.402	2.53
490.754	2.52
491.107	2.5
491.459	2.53
491.811	2.58
492.163	2.56
492.515	2.6
492.866	2.51
493.218	2.5
493.57	2.48
493.922	2.51
494.274	2.53
494.625	2.58
494.977	2.72
495.328	2.64
495.68	2.6
496.031	2.64
496.383	2.69
496.734	2.62
497.086	2.69
497.437	2.58
497.788	2.56
498.139	2.68
498.49	2.57
498.842	2.53
499.193	2.64
499.544	2.71
499.894	2.61
500.245	2.61
500.596	2.64
500.947	2.67
501.298	2.6
501.648	2.54
501.999	2.66
502.35	2.69
502.7	2.6
503.051	2.55
503.401	2.69
503.752	2.62
504.102	2.59
504.452	2.66
504.803	2.59
505.153	2.64
505.503	2.77
505.853	2.53
506.203	2.72
506.553	2.52
506.903	2.68
507.253	2.6
507.603	2.68
507.953	2.63
508.303	2.6
508.652	2.64
509.002	2.64
509.352	2.51
509.701	2.68
510.051	2.62
510.4	2.69
510.75	2.57
511.099	2.57
511.449	2.61
511.798	2.53
512.147	2.45
512.496	2.61
512.846	2.72
513.195	2.6
513.544	2.64
513.893	2.55
514.242	2.64
514.591	2.67
514.939	2.69
515.288	2.69
515.637	2.76
515.986	2.58
516.334	2.64
516.683	2.61
517.032	2.7
517.38	2.66
517.729	2.65
518.077	2.67
518.426	2.57
518.774	2.54
519.122	2.73
519.47	2.65
519.819	2.64
520.167	2.56
520.515	2.58
520.863	2.58
521.211	2.63
521.559	2.55
521.907	2.56
522.255	2.52
522.602	2.65
522.95	2.55
523.298	2.73
523.645	2.55
523.993	2.54
524.341	2.68
524.688	2.67
525.036	2.67
525.383	2.61
525.73	2.62
526.078	2.58
526.425	2.67
526.772	2.58
527.119	2.47
527.466	2.57
527.814	2.58
528.161	2.6
528.508	2.58
528.854	2.53
529.201	2.58
529.548	2.52
529.895	2.48
530.242	2.39
530.588	2.48
530.935	2.43
531.282	2.48
531.628	2.51
531.975	2.55
532.321	2.46
532.667	2.61
533.014	2.65
533.36	2.51
533.706	2.64
534.052	2.53
534.399	2.51
534.745	2.53
535.091	2.54
535.437	2.43
535.783	2.56
536.129	2.61
536.474	2.59
536.82	2.49
537.166	2.52
537.512	2.51
537.857	2.55
538.203	2.55
538.549	2.62
538.894	2.53
539.239	2.53
539.585	2.57
539.93	2.62
540.276	2.74
540.621	2.57
540.966	2.74
541.311	2.54
541.656	2.6
542.001	2.56
542.346	2.61
542.691	2.51
543.036	2.43
543.381	2.5
543.726	2.39
544.071	2.45
544.415	2.51
544.76	2.55
545.105	2.54
545.449	2.43
545.794	2.59
546.138	2.55
546.483	2.65
546.827	2.63
547.171	2.62
547.516	2.46
547.86	2.49
548.204	2.63
548.548	2.52
548.892	2.6
549.236	2.61
549.58	2.78
549.924	2.74
550.268	2.69
550.612	2.68
550.956	2.81
551.3	2.68
551.643	2.49
551.987	2.54
552.33	2.77
552.674	2.41
553.017	2.75
553.361	2.78
553.704	2.72
554.048	2.5
554.391	2.67
554.734	2.61
555.077	2.77
555.42	2.76
555.764	2.61
556.107	2.77
556.45	2.74
556.793	2.67
557.135	2.72
557.478	2.67
557.821	2.7
558.164	2.61
558.507	2.74
558.849	2.65
559.192	2.63
559.534	2.69
559.877	2.81
560.219	2.77
560.562	2.65
560.904	2.77
561.246	2.6
561.589	2.6
561.931	2.58
562.273	2.61
562.615	2.67
562.957	2.69
563.299	2.58
563.641	2.58
563.983	2.63
564.325	2.75
564.667	2.79
565.008	2.91
565.35	2.66
565.692	2.69
566.033	2.51
566.375	2.74
566.716	2.49
567.058	2.54
567.399	2.72
567.741	2.77
568.082	2.62
568.423	2.65
568.764	2.8
569.105	2.46
569.447	2.77
569.788	2.72
570.129	2.59
570.47	2.61
570.811	2.64
571.151	2.76
571.492	2.72
571.833	2.63
572.174	2.85
572.514	2.77
572.855	2.72
573.195	2.4
573.536	2.68
573.876	2.68
574.217	2.79
574.557	2.55
574.898	2.75
575.238	2.75
575.578	2.78
575.918	2.75
576.258	2.79
576.598	2.65
576.938	2.8
577.278	2.54
577.618	2.61
577.958	2.66
578.298	2.78
578.638	2.6
578.977	2.79
579.317	2.73
579.657	2.72
579.996	2.73
580.336	2.79
580.675	2.64
581.014	2.77
581.354	2.51
581.693	2.62
582.032	2.69
582.372	2.69
582.711	2.75
583.05	2.57
583.389	2.7
583.728	2.69
584.067	2.82
584.406	2.58
584.745	2.73
585.083	2.63
585.422	2.81
585.761	2.81
586.1	2.64
586.438	2.54
586.777	2.65
587.115	2.6
587.454	2.67
587.792	2.62
588.13	2.75
588.469	3.01
588.807	2.66
589.145	2.64
589.483	2.96
589.821	2.9
590.159	2.61
590.497	2.79
590.835	2.69
591.173	2.75
591.511	2.66
591.849	2.54
592.187	2.69
592.524	2.64
592.862	2.43
593.2	2.75
593.537	2.82
593.875	2.96
594.212	2.56
594.55	2.7
594.887	2.7
595.224	2.72
595.561	2.6
595.899	2.54
596.236	2.53
596.573	2.45
596.91	2.77
597.247	2.87
597.584	2.74
597.921	2.74
598.258	2.58
598.594	2.69
598.931	2.48
599.268	2.71
599.604	2.68
599.941	2.66
600.277	2.77
600.614	2.81
600.95	2.49
601.287	2.88
601.623	3.04
601.959	2.66
602.296	2.48
602.632	2.6
602.968	2.89
603.304	2.67
603.64	2.97
603.976	2.8
604.312	2.53
604.648	2.64
604.984	2.81
605.319	2.64
605.655	2.62
605.991	2.73
606.326	2.89
606.662	2.75
606.998	2.65
607.333	2.78
607.668	2.63
608.004	2.69
608.339	2.64
608.674	2.76
609.01	2.63
609.345	2.73
609.68	2.54
610.015	2.77
610.35	2.61
610.685	2.83
611.02	2.62
611.355	2.58
611.689	2.53
612.024	2.6
612.359	2.59
612.694	2.49
613.028	2.91
613.363	2.89
613.697	2.84
614.032	3.02
614.366	2.51
614.7	2.55
615.035	2.56
615.369	2.69
615.703	2.83
616.037	2.78
616.371	2.65
616.705	2.97
617.039	2.86
617.373	2.54
617.707	2.62
618.041	2.76
618.375	2.39
618.709	3.01
619.042	3.22
619.376	2.95
619.71	2.76
620.043	2.7
620.377	2.61
620.71	2.55
621.043	2.58
621.377	2.72
621.71	2.54
622.043	2.73
622.376	2.68
622.709	2.47
623.043	2.6
623.376	2.82
623.709	2.79
624.041	2.65
624.374	2.5
624.707	2.81
625.04	2.68
625.373	2.39
625.705	2.77
626.038	2.91
626.37	2.82
626.703	2.66
627.035	2.69
627.368	2.35
627.7	2.62
628.032	2.69
628.365	2.84
628.697	2.59
629.029	2.51
629.361	2.61
629.693	2.77
630.025	2.7
630.357	2.8
630.689	2.71
631.021	2.79
631.353	2.99
631.684	2.89
632.016	2.64
632.348	2.75
632.679	2.89
633.011	2.7
633.342	2.44
633.674	2.7
634.005	2.56
634.336	2.76
634.668	2.91
634.999	2.82
635.33	2.95
635.661	2.9
635.992	2.71
636.323	2.55
636.654	2.61
636.985	3.06
637.316	2.6
637.647	3.12
637.977	3.06
638.308	2.95
638.639	2.68
638.969	2.57
639.3	3.31
639.63	3.12
639.961	2.67
640.291	2.8
640.622	3.16
640.952	2.88
641.282	2.79
641.612	2.55
641.943	3.02
642.273	2.7
642.603	2.82
642.933	3.13
643.263	2.58
643.592	2.83
643.922	3.03
644.252	2.93
644.582	2.95
644.911	2.35
645.241	2.54
645.571	2.62
645.9	2.5
646.23	2.77
646.559	2.87
646.888	3.01
647.218	2.8
647.547	2.61
647.876	2.88
648.205	2.95
648.534	2.47
648.863	2.81
649.192	2.75
649.521	3.03
649.85	3.49
650.179	2.85
650.508	3
650.837	3.05
651.165	2.2
651.494	3.26
651.822	2.81
652.151	2.37
652.479	2.29
652.808	2.36
653.136	2.33
653.465	2.83
653.793	2.73
654.121	2.9
654.449	2.35
654.777	2.73
655.105	2.67
655.433	2.85
655.761	3.11
656.089	2.66
656.417	2.47
656.745	3.02
657.073	2.64
657.4	2.73
657.728	2.76
658.056	3.19
658.383	2.75
658.711	3.07
659.038	3.03
659.365	2.64
659.693	3.11
660.02	3.33
660.347	3
660.674	3.02
661.001	2.84
661.329	2.58
661.656	2.6
661.982	3
662.309	2.83
662.636	3.3
662.963	2.85
663.29	2.62
663.616	2.58
663.943	3.13
664.27	2.84
664.596	3.4
664.923	3.16
665.249	2.83
665.576	2.99
665.902	3.6
666.228	3.1
666.554	2.4
666.881	2.44
667.207	2.98
667.533	3.37
667.859	3.49
668.185	3.18
668.511	2.5
668.837	3.47
669.162	2.84
669.488	2.85
669.814	2.62
670.139	3.14
670.465	2.63
670.791	2.43
671.116	2.92
671.442	2.89
671.767	3.52
672.092	2.95
672.418	2.61
672.743	2.24
673.068	2.81
673.393	2.75
673.718	3.43
674.043	3.34
674.368	3.14
674.693	2.44
675.018	2.36
675.343	3.15
675.667	3.36
675.992	3.9
676.317	2.4
676.641	2.2
676.966	2.94
677.29	2.94
677.615	2.69
677.939	2.61
678.264	3.3
678.588	2.31
678.912	2.63
679.236	2.61
679.56	3
679.885	2.88
680.209	2.92
680.532	3.47
680.856	3.42
681.18	2.88
681.504	2.58
681.828	2.61
682.152	2.65
682.475	2.91
682.799	3
683.122	2.94
683.446	2.91
683.769	3.15
684.093	3.02
684.416	2.99
684.739	3.53
685.062	2.54
685.386	2.82
685.709	3.08
686.032	2.74
686.355	2.88
686.678	3.16
687.001	2.3
687.324	2.78
687.646	2.89
687.969	3.66
688.292	3.78
688.614	2.67
688.937	3.06
689.26	2.33
689.582	2.66
689.904	2.75
690.227	3.21
690.549	2.5
690.871	2.26
691.194	2.4
691.516	2.31
691.838	3.18
692.16	2.7
692.482	2.47
692.804	2.6
