Data from 20-4_chest_Reflection__4__79.txt Node

Date: Fri Nov 11 20:46:38 CST 2022
User: ToomeyLab
Spectrometer: FLMS14357
Trigger mode: 0
Integration Time (sec): 1.000000E-2
Scans to average: 100
Electric dark correction enabled: true
Nonlinearity correction enabled: false
Boxcar width: 0
XAxis mode: Wavelengths
Number of Pixels in Spectrum: 2048
>>>>>Begin Spectral Data<<<<<
189.047	-41.36
189.435	-41.36
189.823	-41.36
190.211	-157.53
190.599	11.38
190.987	69.45
191.375	170.64
191.763	-133.8
192.151	-590.91
192.538	-77.25
192.926	20.25
193.314	70.92
193.702	742.77
194.089	51.11
194.477	111.23
194.864	31.14
195.252	367.52
195.639	-122.97
196.027	96.31
196.414	48.38
196.801	524.51
197.189	526.06
197.576	-23.17
197.963	48.31
198.351	-26.39
198.738	14.43
199.125	64.47
199.512	19.32
199.899	-5.13
200.286	-7.23
200.673	-74.71
201.06	16.21
201.447	33.62
201.833	16.11
202.22	-14.58
202.607	32.44
202.994	13.74
203.38	11.32
203.767	35.81
204.154	14.42
204.54	7.6
204.927	16.36
205.313	10.45
205.699	-5.44
206.086	25.2
206.472	-15.04
206.858	38.87
207.245	30.08
207.631	15.78
208.017	-15.09
208.403	-2.09
208.789	30.71
209.175	1.57
209.561	31.57
209.947	-1.99
210.333	14.5
210.719	42.41
211.105	53.94
211.491	31.78
211.876	-2.01
212.262	16.53
212.648	-3.38
213.034	0.82
213.419	-31.21
213.805	-18
214.19	-24.71
214.576	36.5
214.961	-40.49
215.346	-9.42
215.732	-22.96
216.117	14.09
216.502	-0.97
216.888	0.89
217.273	10.87
217.658	-11.87
218.043	2.61
218.428	3.04
218.813	29.74
219.198	6.86
219.583	18.73
219.968	14.2
220.353	-19.05
220.738	-9.15
221.122	9.06
221.507	-12.52
221.892	-8.61
222.276	9.89
222.661	29.44
223.046	-3.47
223.43	-5.29
223.815	1.72
224.199	12.4
224.583	-2
224.968	2.51
225.352	5.72
225.736	-2.69
226.121	8.52
226.505	3.01
226.889	-4.25
227.273	4.43
227.657	-0.86
228.041	4.51
228.425	2.12
228.809	4.29
229.193	5.18
229.577	3.9
229.961	3.85
230.344	3.83
230.728	3.06
231.112	3.46
231.495	3.37
231.879	2.19
232.263	2.95
232.646	3.5
233.03	3.15
233.413	2.47
233.797	5.52
234.18	2.7
234.563	1.49
234.946	4.59
235.33	4.9
235.713	2.85
236.096	1.79
236.479	3.61
236.862	5.2
237.245	2.15
237.628	4.22
238.011	3.68
238.394	4.15
238.777	4.55
239.16	5.27
239.543	1.09
239.925	4.86
240.308	2.01
240.691	4.77
241.073	3.13
241.456	2.38
241.838	4.66
242.221	4
242.603	4.77
242.986	3.09
243.368	3.65
243.75	3.6
244.133	3.6
244.515	3.65
244.897	3.73
245.279	2.7
245.661	3.47
246.043	3.51
246.425	3.79
246.807	4.45
247.189	3.86
247.571	3.9
247.953	3.77
248.335	3.58
248.717	3.84
249.098	3.78
249.48	3.59
249.862	3.9
250.243	3.47
250.625	3.55
251.006	4.32
251.388	3.84
251.769	3.97
252.151	4.04
252.532	4.05
252.913	4.53
253.295	3.31
253.676	2.98
254.057	3.39
254.438	3.88
254.819	2.72
255.2	4.63
255.581	3.4
255.962	2.83
256.343	2.84
256.724	4.43
257.105	3.41
257.486	3.35
257.867	4.86
258.247	2.17
258.628	3.82
259.009	3.69
259.389	2.69
259.77	4.29
260.15	3.69
260.531	3.3
260.911	3.33
261.292	3.6
261.672	3.28
262.052	3.39
262.432	3.5
262.813	3.6
263.193	2.71
263.573	2.82
263.953	3.58
264.333	3.32
264.713	3.56
265.093	3.2
265.473	2.65
265.853	2.93
266.233	3.12
266.612	3.4
266.992	3.67
267.372	3.84
267.752	2.85
268.131	3.16
268.511	3.37
268.89	3.18
269.27	3.36
269.649	2.98
270.029	3.35
270.408	3.11
270.787	3.26
271.167	2.59
271.546	3.09
271.925	3.34
272.304	3.26
272.683	3.52
273.062	2.8
273.441	3.34
273.82	3.61
274.199	3.31
274.578	3.09
274.957	3.42
275.336	4.19
275.715	3.09
276.093	2.49
276.472	3.15
276.851	2.88
277.229	3.08
277.608	3.3
277.986	3.4
278.365	2.65
278.743	3.4
279.122	3.99
279.5	3.25
279.878	3.58
280.257	2.87
280.635	2.84
281.013	2.9
281.391	3.18
281.769	3.36
282.147	3.1
282.525	2.63
282.903	2.9
283.281	3.13
283.659	3.15
284.037	3.25
284.415	2.99
284.792	3.54
285.17	3.41
285.548	2.63
285.925	2.8
286.303	3.35
286.68	3.16
287.058	3.26
287.435	3.15
287.813	3.35
288.19	3.03
288.567	3.08
288.945	3.43
289.322	3.83
289.699	2.35
290.076	3.5
290.453	3.26
290.83	2.95
291.207	3.14
291.584	3.4
291.961	3.11
292.338	3
292.715	3.55
293.092	3.23
293.469	3.58
293.845	3.58
294.222	2.68
294.599	3.75
294.975	3.32
295.352	3.13
295.728	3.35
296.105	3.42
296.481	2.65
296.858	2.89
297.234	3.23
297.61	3.19
297.986	3.66
298.363	3.42
298.739	3.57
299.115	3.53
299.491	3.58
299.867	3.23
300.243	3.09
300.619	3.58
300.995	3.39
301.371	3.9
301.746	3.94
302.122	3.82
302.498	3.95
302.874	3.17
303.249	3.42
303.625	3.4
304	2.84
304.376	3.86
304.751	3.46
305.127	3.12
305.502	3.95
305.878	3.75
306.253	3.47
306.628	3.17
307.003	3.57
307.378	3.2
307.754	3.94
308.129	3.68
308.504	3.57
308.879	3.73
309.254	3.4
309.629	3.32
310.003	3.83
310.378	3.44
310.753	3.94
311.128	3.73
311.502	4
311.877	3.13
312.252	3.71
312.626	3.58
313.001	3.54
313.375	3.52
313.75	3.48
314.124	3.51
314.498	3.55
314.873	3.23
315.247	3.43
315.621	3.78
315.995	3.84
316.369	3.9
316.743	3.45
317.117	3.61
317.491	3.94
317.865	3.35
318.239	3.72
318.613	3.8
318.987	3.98
319.361	3.61
319.734	3.77
320.108	3.64
320.482	3.74
320.855	3.18
321.229	3.63
321.602	3.95
321.976	3.6
322.349	4.01
322.723	4.06
323.096	4.05
323.469	3.95
323.843	3.7
324.216	3.05
324.589	3.89
324.962	4.37
325.335	3.7
325.708	3.53
326.081	3.65
326.454	3.81
326.827	3.3
327.2	3.59
327.573	4.53
327.945	3.7
328.318	3.65
328.691	3.81
329.063	3.8
329.436	4.04
329.809	3.55
330.181	3.3
330.553	3.44
330.926	3.89
331.298	3.64
331.671	3.43
332.043	3.46
332.415	3.37
332.787	4.46
333.159	3.92
333.532	3.5
333.904	4.41
334.276	3.29
334.648	3.99
335.02	3.44
335.391	4.09
335.763	3.73
336.135	3.73
336.507	3.51
336.879	3.74
337.25	3.68
337.622	3.78
337.993	4.3
338.365	3.8
338.736	3.81
339.108	3.54
339.479	3.48
339.851	3.63
340.222	3.71
340.593	3.97
340.964	3.95
341.336	4.07
341.707	3.36
342.078	3.3
342.449	4.25
342.82	3.56
343.191	3.73
343.562	3.55
343.933	3.48
344.303	3.52
344.674	3.63
345.045	3.63
345.416	4.08
345.786	3.51
346.157	3.51
346.527	3.84
346.898	3.47
347.268	3.37
347.639	3.8
348.009	3.79
348.38	3.99
348.75	3.49
349.12	4.36
349.49	3.85
349.861	3.55
350.231	3.79
350.601	3.76
350.971	3.88
351.341	3.8
351.711	3.97
352.081	4.01
352.45	3.76
352.82	3.32
353.19	3.79
353.56	3.81
353.929	4.44
354.299	3.62
354.669	3.99
355.038	4.08
355.408	3.92
355.777	3.68
356.147	4
356.516	3.73
356.885	3.76
357.254	3.7
357.624	3.18
357.993	3.71
358.362	3.91
358.731	3.56
359.1	3.68
359.469	3.43
359.838	3.64
360.207	3.76
360.576	3.73
360.945	3.74
361.314	3.52
361.682	3.75
362.051	3.86
362.42	3.93
362.788	4.04
363.157	3.86
363.525	3.84
363.894	3.56
364.262	3.81
364.631	3.92
364.999	3.89
365.367	3.89
365.735	3.78
366.104	3.86
366.472	3.55
366.84	3.36
367.208	4.13
367.576	3.81
367.944	3.92
368.312	3.86
368.68	3.59
369.048	3.84
369.416	3.82
369.783	3.94
370.151	4.26
370.519	4.29
370.886	3.66
371.254	3.97
371.621	3.57
371.989	3.86
372.356	4.19
372.724	4.17
373.091	3.84
373.458	3.94
373.826	3.62
374.193	3.7
374.56	3.67
374.927	3.72
375.294	3.59
375.661	4.1
376.028	3.4
376.395	4
376.762	4.02
377.129	4.04
377.496	3.83
377.863	4.19
378.229	3.86
378.596	3.7
378.963	3.84
379.329	4.07
379.696	4.29
380.062	3.79
380.429	4.07
380.795	4.11
381.161	3.87
381.528	3.97
381.894	3.96
382.26	3.99
382.626	4.06
382.993	3.81
383.359	3.95
383.725	3.94
384.091	4.04
384.457	3.85
384.823	4.05
385.188	4.25
385.554	3.86
385.92	3.7
386.286	3.79
386.651	4.2
387.017	3.81
387.383	3.98
387.748	3.97
388.114	4.12
388.479	3.99
388.845	4.18
389.21	3.77
389.575	4.21
389.94	3.92
390.306	3.94
390.671	4.02
391.036	4.05
391.401	3.86
391.766	3.94
392.131	4.01
392.496	4.25
392.861	3.83
393.226	3.87
393.591	3.97
393.956	3.98
394.32	3.94
394.685	4.02
395.05	4.24
395.414	4.08
395.779	3.95
396.143	3.87
396.508	4.08
396.872	4.09
397.236	3.78
397.601	4.01
397.965	4.1
398.329	3.93
398.694	4.09
399.058	4.17
399.422	4.25
399.786	4.07
400.15	4.03
400.514	4.09
400.878	4.15
401.242	4
401.605	4.35
401.969	4.24
402.333	3.86
402.697	4.09
403.06	4.47
403.424	3.77
403.787	4.1
404.151	4.06
404.514	3.99
404.878	4.06
405.241	4.12
405.604	3.83
405.968	4.2
406.331	3.87
406.694	4.09
407.057	4.01
407.42	4.17
407.783	4.04
408.146	4.15
408.509	4.05
408.872	3.99
409.235	4.26
409.598	4.14
409.961	4.22
410.323	4.06
410.686	3.98
411.049	3.87
411.411	3.87
411.774	4.08
412.136	4
412.499	4.14
412.861	4.17
413.223	3.87
413.586	4.27
413.948	4.35
414.31	4.07
414.672	4.27
415.035	4.11
415.397	4.15
415.759	3.82
416.121	4.09
416.483	3.98
416.845	4.14
417.206	4.06
417.568	4.02
417.93	4.04
418.292	4.1
418.653	4.19
419.015	4.13
419.377	4.15
419.738	4.03
420.1	4.09
420.461	4.11
420.822	3.96
421.184	4.04
421.545	4.07
421.906	4.06
422.267	3.99
422.629	3.88
422.99	4.03
423.351	4.09
423.712	4.05
424.073	4.13
424.434	4.08
424.795	4.13
425.155	4.1
425.516	4.1
425.877	4.12
426.238	4.1
426.598	4.08
426.959	4.04
427.32	4.22
427.68	4.12
428.041	4.25
428.401	3.96
428.761	4.24
429.122	4.12
429.482	4.2
429.842	4.15
430.202	4.21
430.563	4.44
430.923	4.39
431.283	4.08
431.643	3.95
432.003	4.38
432.363	4.27
432.722	4.37
433.082	4.21
433.442	4.29
433.802	4.21
434.161	4.1
434.521	4.18
434.881	4.24
435.24	4.35
435.6	4.19
435.959	4.13
436.319	4.13
436.678	4.32
437.037	4.31
437.396	4.17
437.756	4.13
438.115	4.23
438.474	3.99
438.833	4.21
439.192	4.39
439.551	4.04
439.91	4.16
440.269	4.19
440.628	4.31
440.987	4.28
441.345	4.23
441.704	4.13
442.063	4.35
442.421	4.31
442.78	4.13
443.138	4.23
443.497	4.17
443.855	4.26
444.214	4.34
444.572	4.3
444.93	4.24
445.288	4.27
445.647	4.43
446.005	4.31
446.363	4.32
446.721	4.31
447.079	4.37
447.437	4.2
447.795	4.29
448.153	4.14
448.51	4.2
448.868	4.21
449.226	4.28
449.584	4.22
449.941	4.29
450.299	4.18
450.656	4.38
451.014	4.4
451.371	4.33
451.729	4.33
452.086	4.28
452.443	4.33
452.801	4.47
453.158	4.25
453.515	4.48
453.872	4.13
454.229	4.27
454.586	4.37
454.943	4.43
455.3	4.36
455.657	4.38
456.014	4.43
456.371	4.58
456.727	4.66
457.084	4.1
457.441	4.61
457.797	4.31
458.154	4.38
458.51	4.43
458.867	4.34
459.223	4.49
459.58	4.3
459.936	4.35
460.292	4.39
460.648	4.46
461.005	4.31
461.361	4.34
461.717	4.36
462.073	4.35
462.429	4.31
462.785	4.36
463.141	4.28
463.496	4.41
463.852	4.45
464.208	4.46
464.564	4.33
464.919	4.51
465.275	4.36
465.631	4.44
465.986	4.71
466.342	4.48
466.697	4.56
467.052	4.5
467.408	4.45
467.763	4.46
468.118	4.55
468.473	4.48
468.829	4.48
469.184	4.56
469.539	4.49
469.894	4.61
470.249	4.41
470.603	4.5
470.958	4.52
471.313	4.59
471.668	4.5
472.023	4.39
472.377	4.54
472.732	4.49
473.086	4.25
473.441	4.57
473.795	4.65
474.15	4.56
474.504	4.62
474.859	4.58
475.213	4.7
475.567	4.65
475.921	4.76
476.275	4.59
476.63	4.69
476.984	4.67
477.338	4.75
477.692	4.41
478.045	4.56
478.399	4.55
478.753	4.55
479.107	4.59
479.461	4.53
479.814	4.57
480.168	4.58
480.521	4.61
480.875	4.67
481.228	4.6
481.582	4.68
481.935	4.5
482.289	4.59
482.642	4.53
482.995	4.54
483.348	4.61
483.701	4.66
484.055	4.59
484.408	4.5
484.761	4.42
485.114	4.31
485.466	4.29
485.819	4.3
486.172	4.35
486.525	4.43
486.878	4.47
487.23	4.47
487.583	4.54
487.936	4.47
488.288	4.55
488.641	4.46
488.993	4.54
489.345	4.39
489.698	4.44
490.05	4.39
490.402	4.51
490.754	4.51
491.107	4.45
491.459	4.56
491.811	4.73
492.163	4.63
492.515	4.59
492.866	4.53
493.218	4.46
493.57	4.49
493.922	4.46
494.274	4.54
494.625	4.64
494.977	4.68
495.328	4.67
495.68	4.71
496.031	4.59
496.383	4.73
496.734	4.68
497.086	4.81
497.437	4.77
497.788	4.75
498.139	4.66
498.49	4.53
498.842	4.63
499.193	4.76
499.544	4.78
499.894	4.76
500.245	4.72
500.596	4.84
500.947	4.78
501.298	4.76
501.648	4.74
501.999	4.75
502.35	4.88
502.7	4.88
503.051	4.94
503.401	4.79
503.752	4.85
504.102	4.68
504.452	4.91
504.803	4.88
505.153	4.87
505.503	4.89
505.853	4.84
506.203	4.99
506.553	4.69
506.903	4.81
507.253	5
507.603	4.94
507.953	4.88
508.303	4.73
508.652	4.96
509.002	4.98
509.352	4.89
509.701	5
510.051	4.86
510.4	4.95
510.75	4.83
511.099	4.9
511.449	4.99
511.798	4.87
512.147	4.82
512.496	4.88
512.846	5.14
513.195	4.95
513.544	5.03
513.893	4.89
514.242	4.98
514.591	5.01
514.939	5.03
515.288	5.05
515.637	5.12
515.986	5.04
516.334	5.07
516.683	5.06
517.032	5.06
517.38	5.06
517.729	5.1
518.077	5
518.426	5.19
518.774	5.14
519.122	5.15
519.47	5.19
519.819	5.09
520.167	5.05
520.515	5.1
520.863	5.12
521.211	5.06
521.559	4.99
521.907	5.09
522.255	5.05
522.602	5.25
522.95	5.17
523.298	5.27
523.645	5.3
523.993	5.21
524.341	5.3
524.688	5.39
525.036	5.41
525.383	5.21
525.73	5.23
526.078	5.12
526.425	5.32
526.772	5.26
527.119	5.11
527.466	5.19
527.814	5.18
528.161	5.29
528.508	5.18
528.854	5.18
529.201	5.24
529.548	5.17
529.895	5.06
530.242	5.08
530.588	5.06
530.935	5.15
531.282	5.2
531.628	5.21
531.975	5.25
532.321	5.22
532.667	5.36
533.014	5.35
533.36	5.33
533.706	5.4
534.052	5.39
534.399	5.35
534.745	5.29
535.091	5.31
535.437	5.29
535.783	5.32
536.129	5.37
536.474	5.41
536.82	5.43
537.166	5.5
537.512	5.52
537.857	5.46
538.203	5.44
538.549	5.56
538.894	5.42
539.239	5.55
539.585	5.53
539.93	5.65
540.276	5.79
540.621	5.68
540.966	5.81
541.311	5.71
541.656	5.72
542.001	5.55
542.346	5.62
542.691	5.53
543.036	5.42
543.381	5.46
543.726	5.52
544.071	5.6
544.415	5.66
544.76	5.66
545.105	5.61
545.449	5.53
545.794	5.78
546.138	5.65
546.483	5.71
546.827	5.78
547.171	5.85
547.516	5.64
547.86	5.79
548.204	5.8
548.548	5.73
548.892	5.87
549.236	5.81
549.58	5.91
549.924	6.02
550.268	6.03
550.612	6.02
550.956	6.18
551.3	6.01
551.643	6.09
551.987	6.1
552.33	6.28
552.674	6.09
553.017	6.28
553.361	6.28
553.704	6.15
554.048	6.08
554.391	6.21
554.734	6.13
555.077	6.27
555.42	6.09
555.764	6.19
556.107	6.24
556.45	6.3
556.793	6.25
557.135	6.2
557.478	6.46
557.821	6.52
558.164	6.41
558.507	6.46
558.849	6.33
559.192	6.39
559.534	6.5
559.877	6.59
560.219	6.42
560.562	6.37
560.904	6.65
561.246	6.36
561.589	6.43
561.931	6.4
562.273	6.59
562.615	6.47
562.957	6.49
563.299	6.42
563.641	6.51
563.983	6.64
564.325	6.57
564.667	6.87
565.008	6.74
565.35	6.49
565.692	6.56
566.033	6.62
566.375	6.79
566.716	6.69
567.058	6.76
567.399	6.91
567.741	6.84
568.082	6.81
568.423	6.88
568.764	7.05
569.105	6.86
569.447	6.9
569.788	6.89
570.129	6.69
570.47	6.86
570.811	6.97
571.151	7.12
571.492	7
571.833	7.01
572.174	7.03
572.514	7.16
572.855	7.16
573.195	6.89
573.536	7.12
573.876	6.99
574.217	7.32
574.557	7.03
574.898	7.16
575.238	7.09
575.578	7.24
575.918	7.21
576.258	7.21
576.598	7.2
576.938	7.19
577.278	7.26
577.618	7.35
577.958	7.37
578.298	7.37
578.638	7.26
578.977	7.34
579.317	7.57
579.657	7.52
579.996	7.46
580.336	7.32
580.675	7.69
581.014	7.63
581.354	7.58
581.693	7.47
582.032	7.55
582.372	7.55
582.711	7.6
583.05	7.55
583.389	7.82
583.728	7.54
584.067	7.71
584.406	7.49
584.745	7.81
585.083	7.64
585.422	7.58
585.761	7.87
586.1	7.74
586.438	7.71
586.777	7.81
587.115	7.81
587.454	7.82
587.792	7.65
588.13	7.94
588.469	8.16
588.807	7.93
589.145	7.96
589.483	8.05
589.821	8.22
590.159	8.11
590.497	8.19
590.835	8
591.173	8.14
591.511	8.06
591.849	8.26
592.187	8.14
592.524	7.98
592.862	7.86
593.2	8.27
593.537	8.62
593.875	8.76
594.212	8.23
594.55	8.24
594.887	8.17
595.224	8.31
595.561	8.31
595.899	8.38
596.236	8.36
596.573	8.36
596.91	8.5
597.247	8.6
597.584	8.37
597.921	8.63
598.258	8.49
598.594	8.55
598.931	8.3
599.268	8.4
599.604	8.53
599.941	8.5
600.277	8.62
600.614	8.81
600.95	8.46
601.287	8.65
601.623	9.04
601.959	9.04
602.296	8.49
602.632	8.97
602.968	8.67
603.304	9
603.64	8.97
603.976	8.78
604.312	8.99
604.648	8.77
604.984	8.85
605.319	8.94
605.655	8.98
605.991	8.95
606.326	9.15
606.662	8.88
606.998	8.96
607.333	9.02
607.668	9.09
608.004	9
608.339	9.09
608.674	9.03
609.01	9.28
609.345	9.16
609.68	9.1
610.015	9.46
610.35	9.19
610.685	9.36
611.02	9.08
611.355	9.36
611.689	9.34
612.024	9.22
612.359	9.35
612.694	9.13
613.028	9.4
613.363	9.56
613.697	9.89
614.032	9.74
614.366	9.55
614.7	9.5
615.035	9.68
615.369	9.48
615.703	9.59
616.037	9.85
616.371	9.54
616.705	9.72
617.039	10.04
617.373	9.85
617.707	9.77
618.041	9.94
618.375	9.35
618.709	9.91
619.042	9.97
619.376	10.02
619.71	9.87
620.043	9.89
620.377	10.03
620.71	10.04
621.043	9.67
621.377	10
621.71	9.8
622.043	10.3
622.376	10.24
622.709	10.2
623.043	10.05
623.376	10.35
623.709	10.65
624.041	10.31
624.374	10.04
624.707	10.57
625.04	10.44
625.373	10.14
625.705	10.4
626.038	10.56
626.37	10.29
626.703	10.41
627.035	10.38
627.368	9.93
627.7	10.5
628.032	10.68
628.365	10.61
628.697	10.38
629.029	10.26
629.361	10.47
629.693	10.74
630.025	10.64
630.357	10.72
630.689	10.48
631.021	11.05
631.353	10.98
631.684	10.69
632.016	10.65
632.348	10.43
632.679	10.62
633.011	10.84
633.342	11
633.674	10.93
634.005	10.83
634.336	10.97
634.668	10.87
634.999	10.63
635.33	10.98
635.661	11.61
635.992	10.89
636.323	11.1
636.654	11.09
636.985	11
637.316	11.01
637.647	11.39
637.977	11.25
638.308	11.45
638.639	11.48
638.969	10.84
639.3	11.39
639.63	11.62
639.961	11.44
640.291	11.35
640.622	11.63
640.952	11.02
641.282	11.48
641.612	11.65
641.943	11.95
642.273	11.49
642.603	12.01
642.933	11.72
643.263	11.17
643.592	11.46
643.922	11.64
644.252	11.48
644.582	12.02
644.911	11.6
645.241	11.65
645.571	11.45
645.9	11.82
646.23	12
646.559	11.98
646.888	11.7
647.218	12.06
647.547	11.8
647.876	11.65
648.205	11.89
648.534	11.94
648.863	11.84
649.192	11.39
649.521	12.04
649.85	12.17
650.179	11.96
650.508	11.81
650.837	12.67
651.165	11.97
651.494	12.44
651.822	12.02
652.151	12.19
652.479	11.83
652.808	11.75
653.136	12.08
653.465	12.44
653.793	12.72
654.121	12.16
654.449	11.73
654.777	12.66
655.105	12.26
655.433	12.37
655.761	12.31
656.089	12.98
656.417	12.08
656.745	12.83
657.073	12.02
657.4	12.41
657.728	12.39
658.056	12.74
658.383	12.48
658.711	12.52
659.038	12.37
659.365	12.51
659.693	12.65
660.02	12.87
660.347	12.51
660.674	12.36
661.001	12.92
661.329	12.75
661.656	12.7
661.982	13.06
662.309	12.83
662.636	13.11
662.963	12.76
663.29	12.74
663.616	12.46
663.943	13.03
664.27	12.78
664.596	13.09
664.923	13.2
665.249	13.39
665.576	13.27
665.902	13.33
666.228	12.77
666.554	13.33
666.881	12.97
667.207	13.76
667.533	13.99
667.859	13.44
668.185	13.06
668.511	12.87
668.837	13.28
669.162	13.36
669.488	13.3
669.814	13.3
670.139	13.52
670.465	13.33
670.791	13.1
671.116	13.16
671.442	13.42
671.767	13.74
672.092	13.46
672.418	13.15
672.743	14.22
673.068	13.89
673.393	14.37
673.718	14.1
674.043	13.48
674.368	14.01
674.693	12.9
675.018	13.4
675.343	13.76
675.667	14.22
675.992	14.49
676.317	13.82
676.641	14.53
676.966	13.68
677.29	13.71
677.615	13.51
677.939	13.71
678.264	14.26
678.588	13.71
678.912	13.79
679.236	14.3
679.56	14.45
679.885	14.09
680.209	13.9
680.532	14.23
680.856	14.63
681.18	14.23
681.504	13.82
681.828	14.43
682.152	14.02
682.475	14.54
682.799	14.19
683.122	14.15
683.446	14.94
683.769	14.13
684.093	14.78
684.416	13.75
684.739	14.5
685.062	13.85
685.386	14.3
685.709	13.93
686.032	14.05
686.355	14.87
686.678	14.66
687.001	14.15
687.324	13.74
687.646	14.26
687.969	14.84
688.292	15.09
688.614	14.14
