Data from 0039_chest_Reflection__1__76.txt Node

Date: Fri Nov 04 15:24:21 CDT 2022
User: ToomeyLab
Spectrometer: FLMS14357
Trigger mode: 0
Integration Time (sec): 1.000000E-2
Scans to average: 100
Electric dark correction enabled: true
Nonlinearity correction enabled: false
Boxcar width: 0
XAxis mode: Wavelengths
Number of Pixels in Spectrum: 2048
>>>>>Begin Spectral Data<<<<<
189.047	49.16
189.435	49.16
189.823	49.16
190.211	1253.92
190.599	85.05
190.987	-62.06
191.375	748.99
191.763	108.47
192.151	178.36
192.538	312.94
192.926	29.3
193.314	240.47
193.702	127.35
194.089	156.35
194.477	223.12
194.864	852.49
195.252	78.71
195.639	1.07
196.027	188.08
196.414	127.87
196.801	30.91
197.189	20.91
197.576	47.39
197.963	725.97
198.351	-7.49
198.738	19.46
199.125	-46
199.512	-58.89
199.899	-31.59
200.286	23.55
200.673	4.72
201.06	15.96
201.447	6.32
201.833	-15.44
202.22	19.01
202.607	2.44
202.994	22.07
203.38	26.96
203.767	7.48
204.154	36.64
204.54	-24.81
204.927	-21.31
205.313	-3.2
205.699	28.94
206.086	12.42
206.472	-3.9
206.858	-28.08
207.245	31.82
207.631	1.42
208.017	-1.26
208.403	-12.7
208.789	22.97
209.175	22.48
209.561	-112.11
209.947	-116.92
210.333	-10.83
210.719	-3.28
211.105	-24.38
211.491	19.46
211.876	-3.69
212.262	-5.6
212.648	-18.39
213.034	19.38
213.419	-9.69
213.805	6.16
214.19	-59.38
214.576	6.48
214.961	33.9
215.346	7.56
215.732	23
216.117	0.88
216.502	15.98
216.888	-1.52
217.273	38.88
217.658	-14.89
218.043	5.12
218.428	20.96
218.813	-10.31
219.198	9.45
219.583	-30.66
219.968	28.91
220.353	-1.47
220.738	-32.22
221.122	-5.66
221.507	8.43
221.892	-5.24
222.276	12.51
222.661	12.38
223.046	-10.4
223.43	-10.58
223.815	-2.45
224.199	9.92
224.583	-1.81
224.968	0.29
225.352	1.31
225.736	2.34
226.121	-10.96
226.505	-3.41
226.889	-0.21
227.273	0.9
227.657	-2.99
228.041	3.76
228.425	3.99
228.809	1.87
229.193	3.2
229.577	2.72
229.961	3.63
230.344	2.96
230.728	2.22
231.112	2.3
231.495	2.42
231.879	3.16
232.263	1.76
232.646	1.63
233.03	1.85
233.413	2.17
233.797	1.12
234.18	1.4
234.563	4.26
234.946	2.06
235.33	4.28
235.713	3.03
236.096	2.79
236.479	0.79
236.862	2.41
237.245	1.87
237.628	2.52
238.011	-0.27
238.394	4.3
238.777	2.87
239.16	3.98
239.543	2.63
239.925	3.18
240.308	2.42
240.691	2.37
241.073	2.48
241.456	2.39
241.838	1.88
242.221	2.91
242.603	2.07
242.986	1.86
243.368	2.6
243.75	2.79
244.133	2.78
244.515	2.96
244.897	2.72
245.279	2.02
245.661	2.25
246.043	2.47
246.425	3.09
246.807	2.54
247.189	2.58
247.571	2.92
247.953	2.3
248.335	2.61
248.717	2.56
249.098	2.73
249.48	2.69
249.862	2.72
250.243	2.45
250.625	2.44
251.006	2.84
251.388	2.4
251.769	2.82
252.151	2.81
252.532	2.65
252.913	2.17
253.295	3.4
253.676	2.69
254.057	2.74
254.438	2.74
254.819	2.98
255.2	1.97
255.581	2.64
255.962	2.54
256.343	2.67
256.724	3.05
257.105	2.56
257.486	2.85
257.867	4.06
258.247	2.54
258.628	2.52
259.009	1.81
259.389	2.95
259.77	2.86
260.15	2.15
260.531	2.69
260.911	2.53
261.292	2.37
261.672	2.73
262.052	2.57
262.432	2.6
262.813	2.31
263.193	2.42
263.573	2.53
263.953	2.14
264.333	2.43
264.713	3.18
265.093	2.53
265.473	2.89
265.853	1.73
266.233	2.97
266.612	3.01
266.992	3.65
267.372	2.31
267.752	2.75
268.131	2.53
268.511	2.53
268.89	2.71
269.27	2.68
269.649	2.7
270.029	2.41
270.408	2.52
270.787	2.9
271.167	2.5
271.546	2.59
271.925	2.33
272.304	1.91
272.683	2.03
273.062	2.79
273.441	2.66
273.82	2.2
274.199	2.43
274.578	2.25
274.957	2.37
275.336	2.17
275.715	2.16
276.093	2.36
276.472	2.23
276.851	2.11
277.229	2.41
277.608	2.12
277.986	2.89
278.365	2.35
278.743	2.63
279.122	2.73
279.5	2.61
279.878	2.37
280.257	2.37
280.635	2.13
281.013	2.28
281.391	2.59
281.769	1.85
282.147	2.22
282.525	2.53
282.903	2.52
283.281	2.76
283.659	2.78
284.037	2.41
284.415	2.28
284.792	2.34
285.17	2.31
285.548	2.87
285.925	2.42
286.303	2.64
286.68	2.51
287.058	2.32
287.435	2.34
287.813	2.36
288.19	2.48
288.567	2.55
288.945	2.39
289.322	2.31
289.699	2.67
290.076	2.69
290.453	2.28
290.83	2.05
291.207	2.99
291.584	2.64
291.961	2.66
292.338	2.6
292.715	2.62
293.092	2.73
293.469	2.78
293.845	2.34
294.222	2.79
294.599	2.44
294.975	2.83
295.352	2.49
295.728	2.76
296.105	3.02
296.481	2.64
296.858	2.88
297.234	2.96
297.61	3.09
297.986	3.02
298.363	2.67
298.739	2.84
299.115	2.63
299.491	2.67
299.867	2.85
300.243	2.73
300.619	3.12
300.995	3.06
301.371	2.87
301.746	2.82
302.122	2.67
302.498	2.46
302.874	2.85
303.249	2.09
303.625	2.73
304	3
304.376	2.49
304.751	3.16
305.127	2.44
305.502	3.26
305.878	2.8
306.253	2.81
306.628	2.56
307.003	2.9
307.378	2.68
307.754	2.63
308.129	2.27
308.504	3.25
308.879	2.95
309.254	3.04
309.629	3.01
310.003	3
310.378	3
310.753	2.71
311.128	2.54
311.502	2.45
311.877	2.88
312.252	2.42
312.626	2.93
313.001	3.15
313.375	3.14
313.75	2.82
314.124	2.7
314.498	2.63
314.873	2.86
315.247	3.02
315.621	3.09
315.995	3.14
316.369	2.8
316.743	3.48
317.117	2.92
317.491	3.26
317.865	2.81
318.239	2.96
318.613	3.75
318.987	3.03
319.361	2.7
319.734	3.4
320.108	2.86
320.482	2.17
320.855	3
321.229	2.89
321.602	2.78
321.976	2.97
322.349	3.26
322.723	2.8
323.096	3.08
323.469	2.32
323.843	2.59
324.216	3.42
324.589	3.15
324.962	3.63
325.335	3.07
325.708	2.58
326.081	2.94
326.454	3.05
326.827	3.26
327.2	3.3
327.573	3.43
327.945	2.9
328.318	2.89
328.691	3.13
329.063	2.97
329.436	3.19
329.809	3.22
330.181	3.25
330.553	2.31
330.926	3.41
331.298	3.19
331.671	3.3
332.043	3.85
332.415	3.16
332.787	2.69
333.159	2.85
333.532	2.75
333.904	3.08
334.276	2.98
334.648	3.2
335.02	2.86
335.391	3.25
335.763	2.98
336.135	3.14
336.507	2.82
336.879	2.97
337.25	3.22
337.622	3.32
337.993	3.52
338.365	3.13
338.736	3.19
339.108	3.58
339.479	3.42
339.851	2.9
340.222	3.23
340.593	3.2
340.964	3.02
341.336	2.66
341.707	2.7
342.078	2.98
342.449	3.24
342.82	3.15
343.191	2.92
343.562	3.21
343.933	3.31
344.303	3.01
344.674	3.31
345.045	2.99
345.416	2.85
345.786	3.29
346.157	3.16
346.527	3.32
346.898	3.17
347.268	2.86
347.639	2.87
348.009	3.38
348.38	3.39
348.75	3.28
349.12	2.88
349.49	3.03
349.861	2.64
350.231	3.12
350.601	3.18
350.971	3.01
351.341	2.91
351.711	3.33
352.081	2.87
352.45	3.31
352.82	3.09
353.19	3.32
353.56	3.35
353.929	3.24
354.299	3.48
354.669	3.23
355.038	3.42
355.408	2.86
355.777	3.12
356.147	2.89
356.516	3.02
356.885	3.12
357.254	3.31
357.624	3.12
357.993	3.11
358.362	3.01
358.731	3.12
359.1	3.08
359.469	3.28
359.838	3.22
360.207	2.99
360.576	3.3
360.945	3.34
361.314	3.54
361.682	2.94
362.051	3.27
362.42	3.41
362.788	3.08
363.157	3.27
363.525	3.19
363.894	3.16
364.262	3.38
364.631	3.53
364.999	3.25
365.367	3.24
365.735	3.41
366.104	3.19
366.472	3.43
366.84	2.9
367.208	3.37
367.576	3.55
367.944	3.57
368.312	2.9
368.68	3.06
369.048	3.14
369.416	2.94
369.783	2.76
370.151	3.1
370.519	3.56
370.886	3.22
371.254	3.29
371.621	3.25
371.989	3.36
372.356	3.19
372.724	3.5
373.091	3.27
373.458	3.43
373.826	3.48
374.193	3.15
374.56	3.14
374.927	3.44
375.294	3.05
375.661	3.19
376.028	3.08
376.395	3.7
376.762	3.41
377.129	3.07
377.496	3.32
377.863	3.02
378.229	2.95
378.596	3.26
378.963	3.24
379.329	3.01
379.696	3.37
380.062	3.47
380.429	3.44
380.795	3.19
381.161	3.27
381.528	3.61
381.894	3.24
382.26	3.43
382.626	3.31
382.993	3.13
383.359	3.17
383.725	3.16
384.091	3.49
384.457	3.53
384.823	3.14
385.188	3.45
385.554	3.06
385.92	3.13
386.286	3.14
386.651	3.15
387.017	3.16
387.383	3.31
387.748	3.18
388.114	3.33
388.479	3.65
388.845	3.49
389.21	3.71
389.575	3.63
389.94	3.45
390.306	3.53
390.671	3.52
391.036	2.97
391.401	3.58
391.766	2.97
392.131	3.3
392.496	3.3
392.861	3.6
393.226	3.38
393.591	3.22
393.956	3.41
394.32	3.41
394.685	3.37
395.05	3.5
395.414	3.34
395.779	3.37
396.143	3.18
396.508	3.33
396.872	3.47
397.236	3.3
397.601	3.23
397.965	3.47
398.329	3.25
398.694	3.33
399.058	3.56
399.422	3.49
399.786	3.19
400.15	3.31
400.514	3.28
400.878	3.23
401.242	3.36
401.605	3.2
401.969	3.75
402.333	3.63
402.697	3.62
403.06	3.53
403.424	3.58
403.787	3.51
404.151	3.54
404.514	3.55
404.878	3.44
405.241	3.5
405.604	3.57
405.968	3.46
406.331	3.35
406.694	3.28
407.057	3.46
407.42	3.24
407.783	3.2
408.146	3.5
408.509	3.44
408.872	3.53
409.235	3.42
409.598	3.45
409.961	3.45
410.323	3.31
410.686	3.32
411.049	3.37
411.411	3.48
411.774	3.49
412.136	3.55
412.499	3.61
412.861	3.73
413.223	3.59
413.586	3.45
413.948	3.74
414.31	3.33
414.672	3.54
415.035	3.55
415.397	3.49
415.759	3.73
416.121	3.48
416.483	3.76
416.845	3.49
417.206	3.36
417.568	3.66
417.93	3.51
418.292	3.44
418.653	3.62
419.015	3.46
419.377	3.49
419.738	3.42
420.1	3.6
420.461	3.44
420.822	3.42
421.184	3.56
421.545	3.34
421.906	3.53
422.267	3.39
422.629	3.56
422.99	3.32
423.351	3.33
423.712	3.41
424.073	3.55
424.434	3.43
424.795	3.59
425.155	3.56
425.516	3.56
425.877	3.31
426.238	3.44
426.598	3.56
426.959	3.41
427.32	3.49
427.68	3.5
428.041	3.47
428.401	3.64
428.761	3.54
429.122	3.42
429.482	3.49
429.842	3.34
430.202	3.53
430.563	3.59
430.923	3.79
431.283	3.63
431.643	3.65
432.003	3.89
432.363	3.7
432.722	3.66
433.082	3.73
433.442	3.61
433.802	3.51
434.161	3.68
434.521	3.52
434.881	3.52
435.24	3.52
435.6	3.7
435.959	3.6
436.319	3.61
436.678	3.59
437.037	3.7
437.396	3.79
437.756	3.59
438.115	3.47
438.474	3.76
438.833	3.87
439.192	3.69
439.551	3.61
439.91	3.76
440.269	3.63
440.628	3.68
440.987	3.58
441.345	3.64
441.704	3.65
442.063	3.54
442.421	3.62
442.78	3.65
443.138	3.65
443.497	3.65
443.855	3.64
444.214	3.72
444.572	3.63
444.93	3.68
445.288	3.75
445.647	3.56
446.005	3.76
446.363	3.66
446.721	3.6
447.079	3.75
447.437	3.64
447.795	3.65
448.153	3.55
448.51	3.64
448.868	3.59
449.226	3.53
449.584	3.67
449.941	3.62
450.299	3.72
450.656	3.61
451.014	3.89
451.371	3.9
451.729	3.72
452.086	3.64
452.443	3.76
452.801	3.75
453.158	3.68
453.515	3.87
453.872	3.66
454.229	3.88
454.586	3.82
454.943	3.9
455.3	3.72
455.657	3.75
456.014	3.66
456.371	3.7
456.727	3.82
457.084	3.74
457.441	3.68
457.797	3.67
458.154	3.77
458.51	3.86
458.867	3.7
459.223	3.85
459.58	3.91
459.936	3.6
460.292	3.77
460.648	3.75
461.005	3.7
461.361	3.76
461.717	3.74
462.073	3.81
462.429	3.89
462.785	3.71
463.141	3.77
463.496	3.8
463.852	4.04
464.208	3.87
464.564	3.74
464.919	3.97
465.275	3.95
465.631	4.07
465.986	3.97
466.342	3.8
466.697	3.86
467.052	3.84
467.408	3.86
467.763	3.85
468.118	3.98
468.473	3.95
468.829	3.88
469.184	3.8
469.539	3.88
469.894	4.05
470.249	3.92
470.603	4
470.958	3.8
471.313	3.87
471.668	3.89
472.023	3.84
472.377	3.94
472.732	4
473.086	4.02
473.441	4.03
473.795	4.04
474.15	3.93
474.504	3.97
474.859	3.86
475.213	3.9
475.567	3.85
475.921	3.93
476.275	4.01
476.63	3.87
476.984	3.91
477.338	4.05
477.692	4.09
478.045	3.97
478.399	3.89
478.753	3.91
479.107	3.95
479.461	4.06
479.814	3.98
480.168	3.99
480.521	3.82
480.875	4.01
481.228	4.06
481.582	3.99
481.935	3.99
482.289	4
482.642	4.12
482.995	3.97
483.348	3.99
483.701	4.03
484.055	3.94
484.408	3.91
484.761	3.88
485.114	3.82
485.466	3.77
485.819	3.7
486.172	3.76
486.525	3.78
486.878	3.87
487.23	3.93
487.583	3.93
487.936	4
488.288	3.95
488.641	3.89
488.993	3.9
489.345	3.8
489.698	3.83
490.05	3.91
490.402	3.86
490.754	3.97
491.107	3.96
491.459	4.02
491.811	4
492.163	4.14
492.515	4.05
492.866	3.98
493.218	3.97
493.57	3.86
493.922	3.97
494.274	3.93
494.625	4.06
494.977	4.05
495.328	4.17
495.68	4.07
496.031	4.21
496.383	4.21
496.734	4.06
497.086	4.26
497.437	4.26
497.788	4.17
498.139	4.16
498.49	4.09
498.842	4.19
499.193	4.12
499.544	4.21
499.894	4.12
500.245	4.23
500.596	4.16
500.947	4.26
501.298	4.2
501.648	4.31
501.999	4.34
502.35	4.29
502.7	4.1
503.051	4.35
503.401	4.27
503.752	4.36
504.102	4.33
504.452	4.37
504.803	4.4
505.153	4.37
505.503	4.28
505.853	4.42
506.203	4.3
506.553	4.43
506.903	4.42
507.253	4.39
507.603	4.25
507.953	4.31
508.303	4.31
508.652	4.39
509.002	4.53
509.352	4.48
509.701	4.34
510.051	4.35
510.4	4.34
510.75	4.37
511.099	4.36
511.449	4.33
511.798	4.35
512.147	4.4
512.496	4.32
512.846	4.34
513.195	4.5
513.544	4.4
513.893	4.45
514.242	4.39
514.591	4.44
514.939	4.45
515.288	4.46
515.637	4.56
515.986	4.48
516.334	4.56
516.683	4.56
517.032	4.46
517.38	4.71
517.729	4.53
518.077	4.61
518.426	4.54
518.774	4.58
519.122	4.51
519.47	4.48
519.819	4.49
520.167	4.57
520.515	4.42
520.863	4.41
521.211	4.47
521.559	4.52
521.907	4.57
522.255	4.56
522.602	4.63
522.95	4.6
523.298	4.62
523.645	4.74
523.993	4.62
524.341	4.72
524.688	4.75
525.036	4.73
525.383	4.75
525.73	4.69
526.078	4.9
526.425	4.73
526.772	4.66
527.119	4.7
527.466	4.65
527.814	4.64
528.161	4.64
528.508	4.68
528.854	4.64
529.201	4.69
529.548	4.71
529.895	4.61
530.242	4.5
530.588	4.48
530.935	4.51
531.282	4.61
531.628	4.56
531.975	4.66
532.321	4.79
532.667	4.78
533.014	4.83
533.36	4.85
533.706	4.95
534.052	4.77
534.399	4.84
534.745	4.8
535.091	4.67
535.437	4.67
535.783	4.69
536.129	4.86
536.474	4.92
536.82	4.95
537.166	4.99
537.512	4.89
537.857	5.01
538.203	4.82
538.549	4.83
538.894	4.96
539.239	5.04
539.585	4.91
539.93	4.98
540.276	5.08
540.621	5.02
540.966	5.11
541.311	4.92
541.656	5.14
542.001	5.25
542.346	5.02
542.691	5.04
543.036	4.94
543.381	4.89
543.726	5
544.071	5.01
544.415	5.02
544.76	5.07
545.105	5.12
545.449	5.15
545.794	5.2
546.138	5.2
546.483	5.28
546.827	5.33
547.171	5.31
547.516	5.4
547.86	5.32
548.204	5.34
548.548	5.25
548.892	5.27
549.236	5.33
549.58	5.34
549.924	5.53
550.268	5.61
550.612	5.34
550.956	5.61
551.3	5.55
551.643	5.52
551.987	5.53
552.33	5.58
552.674	5.49
553.017	5.51
553.361	5.76
553.704	5.63
554.048	5.54
554.391	5.46
554.734	5.64
555.077	5.65
555.42	5.71
555.764	5.87
556.107	5.88
556.45	5.85
556.793	5.98
557.135	5.86
557.478	5.8
557.821	5.86
558.164	5.83
558.507	5.86
558.849	5.91
559.192	6.02
559.534	5.89
559.877	5.84
560.219	5.98
560.562	6.05
560.904	6.11
561.246	5.82
561.589	6
561.931	5.93
562.273	5.94
562.615	6
562.957	5.99
563.299	6.05
563.641	6.1
563.983	6.12
564.325	6.11
564.667	6.08
565.008	6.17
565.35	6.16
565.692	6.52
566.033	6.26
566.375	6.25
566.716	6.08
567.058	6.38
567.399	6.41
567.741	6.31
568.082	6.24
568.423	6.15
568.764	6.3
569.105	6.34
569.447	6.38
569.788	6.41
570.129	6.52
570.47	6.44
570.811	6.53
571.151	6.46
571.492	6.63
571.833	6.45
572.174	6.77
572.514	6.44
572.855	6.5
573.195	6.65
573.536	6.48
573.876	6.52
574.217	6.73
574.557	6.7
574.898	6.64
575.238	6.42
575.578	6.87
575.918	6.72
576.258	6.85
576.598	6.83
576.938	6.88
577.278	6.6
577.618	6.62
577.958	6.68
578.298	7.03
578.638	6.99
578.977	6.87
579.317	6.9
579.657	6.96
579.996	6.92
580.336	7.11
580.675	6.78
581.014	7.23
581.354	6.91
581.693	7.37
582.032	7.09
582.372	7.3
582.711	7.08
583.05	7.2
583.389	7.2
583.728	7.15
584.067	7.56
584.406	7.16
584.745	7.38
585.083	7.25
585.422	7.25
585.761	7.37
586.1	7.29
586.438	7.52
586.777	7.51
587.115	7.6
587.454	7.7
587.792	7.64
588.13	7.69
588.469	7.77
588.807	7.77
589.145	7.78
589.483	7.37
589.821	8.02
590.159	7.69
590.497	7.68
590.835	7.56
591.173	7.6
591.511	7.76
591.849	7.85
592.187	7.78
592.524	7.97
592.862	7.81
593.2	8.06
593.537	7.75
593.875	7.97
594.212	7.86
594.55	7.92
594.887	8.08
595.224	8.03
595.561	7.96
595.899	8.2
596.236	8.18
596.573	8.22
596.91	8.1
597.247	8.1
597.584	7.85
597.921	8.26
598.258	8.04
598.594	8.04
598.931	8.03
599.268	8.25
599.604	8.16
599.941	8.36
600.277	8.22
600.614	8.42
600.95	8.73
601.287	8.51
601.623	8.66
601.959	8.43
602.296	8.46
602.632	8.61
602.968	8.75
603.304	8.68
603.64	8.51
603.976	8.58
604.312	8.74
604.648	8.56
604.984	8.62
605.319	8.61
605.655	8.74
605.991	8.73
606.326	8.8
606.662	8.73
606.998	8.62
607.333	8.57
607.668	8.96
608.004	8.89
608.339	8.91
608.674	9.15
609.01	9.19
609.345	8.96
609.68	9.15
610.015	9.19
610.35	9.05
610.685	9.22
611.02	9.3
611.355	9.02
611.689	9.09
612.024	8.98
612.359	9.14
612.694	9.04
613.028	9.39
613.363	9.42
613.697	9.49
614.032	9.34
614.366	9.39
614.7	9.37
615.035	9.5
615.369	9.33
615.703	9.13
616.037	9.48
616.371	9.71
616.705	9.54
617.039	9.81
617.373	9.85
617.707	10.02
618.041	9.85
618.375	9.85
618.709	9.94
619.042	9.82
619.376	10.18
619.71	10.08
620.043	9.95
620.377	10.55
620.71	10.17
621.043	9.83
621.377	10.1
621.71	10.27
622.043	10.12
622.376	10.24
622.709	10.19
623.043	10.5
623.376	10.54
623.709	9.79
624.041	10.18
624.374	10.49
624.707	10.07
625.04	10.49
625.373	10.3
625.705	10.27
626.038	10.49
626.37	10.56
626.703	10.53
627.035	10.22
627.368	10.19
627.7	10.23
628.032	10.35
628.365	10.92
628.697	10.44
629.029	10.72
629.361	10.48
629.693	10.66
630.025	10.87
630.357	10.76
630.689	10.63
631.021	10.52
631.353	10.72
631.684	10.92
632.016	10.93
632.348	10.67
632.679	10.96
633.011	10.8
633.342	10.89
633.674	10.9
634.005	11.13
634.336	11.01
634.668	11.39
634.999	11.31
635.33	11.08
635.661	11.24
635.992	11.23
636.323	11.25
636.654	10.89
636.985	10.98
637.316	11.15
637.647	11.29
637.977	11.66
638.308	11.44
638.639	11.16
638.969	11.2
639.3	11.6
639.63	10.95
639.961	11.7
640.291	11.87
640.622	11.64
640.952	11.62
641.282	11.68
641.612	11.81
641.943	11.93
642.273	11.4
642.603	11.84
642.933	11.88
643.263	11.37
643.592	11.95
643.922	12.32
644.252	11.96
644.582	12.37
644.911	12.5
645.241	11.54
645.571	11.59
645.9	11.83
646.23	12.05
646.559	12.06
646.888	12.08
647.218	12.17
647.547	12.43
647.876	12.16
648.205	11.81
648.534	12.34
648.863	12.3
649.192	12.39
649.521	11.96
649.85	12.31
650.179	12.16
650.508	12.35
650.837	12.6
651.165	12.49
651.494	12.11
651.822	12.45
652.151	12.85
652.479	12.55
652.808	12.02
653.136	12.62
653.465	13.02
653.793	13.5
654.121	12.51
654.449	12.45
654.777	12.63
655.105	12.43
655.433	12.71
655.761	12.12
656.089	12.77
656.417	12.94
656.745	12.39
657.073	12.68
657.4	12.75
657.728	12.6
658.056	12.51
658.383	12.87
658.711	13.06
659.038	12.78
659.365	13.38
659.693	13.56
660.02	13.18
660.347	13.24
660.674	12.95
661.001	13.17
661.329	13.25
661.656	13.48
661.982	12.82
662.309	13.53
662.636	13.3
662.963	13.14
663.29	13.45
663.616	13.48
663.943	13.98
664.27	13.3
664.596	13.43
664.923	13.82
665.249	14.06
665.576	13.94
665.902	13.39
666.228	13.3
666.554	14.09
666.881	13.24
667.207	13.6
667.533	13.87
667.859	14.24
668.185	14.14
668.511	14.37
668.837	13.84
669.162	14.43
669.488	14.08
669.814	13.96
670.139	14.04
670.465	13.58
670.791	13.5
671.116	13.9
671.442	14.78
671.767	14.47
672.092	14.61
672.418	14.77
672.743	14.58
673.068	13.93
673.393	14.03
673.718	14.37
674.043	14.29
674.368	13.77
674.693	14.18
675.018	13.72
675.343	14.37
675.667	14.34
675.992	14.94
676.317	14.29
676.641	14.84
676.966	14.13
677.29	14.52
677.615	15.15
677.939	14.55
678.264	15.06
678.588	14.33
678.912	15.63
679.236	14.87
679.56	14.97
679.885	14.46
680.209	14.52
680.532	15.27
680.856	15.15
681.18	14.55
681.504	15.08
681.828	14.53
682.152	15.47
682.475	15.16
682.799	15.48
683.122	14.98
683.446	14.65
683.769	14.3
684.093	15.36
684.416	14.94
684.739	15.04
685.062	15.44
685.386	15.32
685.709	15.56
686.032	15.46
686.355	15.98
686.678	15.31
687.001	15.5
687.324	15.38
687.646	15.75
687.969	14.79
