Data from 0039_chest_Reflection__3__78.txt Node

Date: Fri Nov 04 15:24:44 CDT 2022
User: ToomeyLab
Spectrometer: FLMS14357
Trigger mode: 0
Integration Time (sec): 1.000000E-2
Scans to average: 100
Electric dark correction enabled: true
Nonlinearity correction enabled: false
Boxcar width: 0
XAxis mode: Wavelengths
Number of Pixels in Spectrum: 2048
>>>>>Begin Spectral Data<<<<<
189.047	230.78
189.435	230.78
189.823	230.78
190.211	-315.7
190.599	55.55
190.987	275.67
191.375	-137.91
191.763	97.37
192.151	2.61
192.538	-916.83
192.926	82.79
193.314	89.96
193.702	82.42
194.089	12.29
194.477	-132.35
194.864	-124.31
195.252	24.69
195.639	50.37
196.027	44.85
196.414	-49.39
196.801	213.16
197.189	-133.31
197.576	50.28
197.963	-528.86
198.351	-38.2
198.738	14.14
199.125	-63.73
199.512	-18.68
199.899	-58.08
200.286	-25.21
200.673	-7.97
201.06	6.91
201.447	10.32
201.833	3.93
202.22	-27.1
202.607	2.75
202.994	19
203.38	1.4
203.767	38.57
204.154	15.91
204.54	-31.36
204.927	21.59
205.313	38.28
205.699	6.19
206.086	22.72
206.472	-2.86
206.858	-24.19
207.245	31.57
207.631	12.23
208.017	0.08
208.403	-6.68
208.789	23.25
209.175	9.29
209.561	-41.54
209.947	-149.3
210.333	-4.53
210.719	2.46
211.105	-33.05
211.491	22.68
211.876	-5.14
212.262	-10.56
212.648	0.38
213.034	13.42
213.419	24.71
213.805	-23.71
214.19	-44.49
214.576	8.02
214.961	36.65
215.346	-2.72
215.732	-45.21
216.117	-31.01
216.502	9.21
216.888	-6.54
217.273	3.87
217.658	-18.01
218.043	0.73
218.428	27.81
218.813	-16.07
219.198	14.67
219.583	-13.2
219.968	8.01
220.353	-15.63
220.738	-37.45
221.122	3.66
221.507	-1.43
221.892	-7.85
222.276	14.26
222.661	13.58
223.046	-3.62
223.43	12.63
223.815	-4.94
224.199	9.54
224.583	9.25
224.968	1.47
225.352	6.16
225.736	-8.29
226.121	1.04
226.505	3.74
226.889	4.02
227.273	3
227.657	1.55
228.041	7.08
228.425	5.87
228.809	3.95
229.193	4.91
229.577	1.84
229.961	4.39
230.344	4.82
230.728	3.83
231.112	4.31
231.495	4.29
231.879	4.21
232.263	4.68
232.646	3.52
233.03	3.63
233.413	2.64
233.797	3.23
234.18	2.58
234.563	3.96
234.946	1.27
235.33	5.65
235.713	4.08
236.096	3.81
236.479	5.02
236.862	3.65
237.245	2.35
237.628	3.29
238.011	1.72
238.394	3.89
238.777	4.65
239.16	4.36
239.543	5.71
239.925	4.3
240.308	5.19
240.691	3.21
241.073	2.44
241.456	4.81
241.838	4.25
242.221	3.66
242.603	3.9
242.986	3.56
243.368	4.18
243.75	4.08
244.133	4.04
244.515	4.03
244.897	4.18
245.279	3.86
245.661	4.56
246.043	5.13
246.425	3.96
246.807	5.15
247.189	3.95
247.571	4.04
247.953	3.45
248.335	3.6
248.717	3.92
249.098	3.88
249.48	4.05
249.862	4.03
250.243	3.79
250.625	3.69
251.006	3.92
251.388	3.73
251.769	4.75
252.151	4.87
252.532	3.6
252.913	3.82
253.295	3.62
253.676	3.8
254.057	3.46
254.438	3.73
254.819	3.53
255.2	3
255.581	3.71
255.962	4.33
256.343	3.68
256.724	4.41
257.105	3.11
257.486	4.77
257.867	5.08
258.247	3.75
258.628	3.84
259.009	3.51
259.389	3.9
259.77	3.94
260.15	3.16
260.531	3.96
260.911	3.42
261.292	3.53
261.672	3.71
262.052	3.65
262.432	3.87
262.813	3.55
263.193	2.96
263.573	3.79
263.953	3.08
264.333	4.04
264.713	3.98
265.093	3.52
265.473	3.99
265.853	2.42
266.233	3.55
266.612	4.18
266.992	3.57
267.372	3.06
267.752	3.82
268.131	4.23
268.511	3.64
268.89	4.01
269.27	3.64
269.649	3.67
270.029	3.27
270.408	3.83
270.787	3.91
271.167	3.92
271.546	4.28
271.925	3.56
272.304	3.6
272.683	3.51
273.062	3.51
273.441	4.02
273.82	3.08
274.199	3.73
274.578	3.77
274.957	3.47
275.336	3.07
275.715	3.67
276.093	3.16
276.472	3.18
276.851	3.31
277.229	3.94
277.608	3.52
277.986	3.73
278.365	3.76
278.743	4.18
279.122	3.62
279.5	3.57
279.878	3.58
280.257	3.84
280.635	3.5
281.013	3.11
281.391	3.88
281.769	3.36
282.147	3.01
282.525	3.64
282.903	3.72
283.281	4.11
283.659	3.69
284.037	3.74
284.415	3.56
284.792	3.84
285.17	3.63
285.548	3.7
285.925	3.55
286.303	3.71
286.68	3.76
287.058	3.54
287.435	3.37
287.813	3.43
288.19	3.53
288.567	3.39
288.945	3.46
289.322	3.69
289.699	3.37
290.076	3.22
290.453	2.92
290.83	3.39
291.207	3.38
291.584	3.87
291.961	3.76
292.338	3.81
292.715	3.7
293.092	3.32
293.469	3.49
293.845	3.58
294.222	3.28
294.599	3.84
294.975	3.47
295.352	3.6
295.728	3.39
296.105	3.58
296.481	3.47
296.858	3.56
297.234	3.85
297.61	3.57
297.986	3.37
298.363	3.34
298.739	3.29
299.115	3.61
299.491	3.38
299.867	3.44
300.243	3.62
300.619	3.82
300.995	3.49
301.371	3.83
301.746	3.51
302.122	3.11
302.498	3.4
302.874	3.88
303.249	3.13
303.625	3.45
304	3.36
304.376	3
304.751	3.34
305.127	3.14
305.502	3.69
305.878	3.5
306.253	3.53
306.628	3.37
307.003	3.59
307.378	3.46
307.754	3.98
308.129	3.06
308.504	3.38
308.879	3.33
309.254	3.67
309.629	3.42
310.003	3.44
310.378	3.47
310.753	3.33
311.128	3.38
311.502	3.15
311.877	3.44
312.252	3.68
312.626	3.41
313.001	3.33
313.375	3.6
313.75	3.44
314.124	3.54
314.498	3.71
314.873	3.59
315.247	3.61
315.621	3.54
315.995	3.5
316.369	3.33
316.743	3.76
317.117	4
317.491	3.79
317.865	3.43
318.239	3.31
318.613	4.05
318.987	3.75
319.361	3.74
319.734	3.9
320.108	3.59
320.482	3.36
320.855	3.74
321.229	3.33
321.602	3.49
321.976	3.76
322.349	4.01
322.723	3.45
323.096	3.66
323.469	3.19
323.843	3.54
324.216	3.63
324.589	3.48
324.962	3.7
325.335	3.73
325.708	3.03
326.081	3.61
326.454	3.15
326.827	3.42
327.2	3.45
327.573	3.39
327.945	3.42
328.318	3.32
328.691	3.54
329.063	3.47
329.436	3.89
329.809	3.27
330.181	3.3
330.553	3.36
330.926	3.21
331.298	3.53
331.671	3.02
332.043	3.99
332.415	3.43
332.787	3.19
333.159	3.66
333.532	2.66
333.904	3.6
334.276	3.67
334.648	4.46
335.02	3.35
335.391	4.08
335.763	3.43
336.135	3.51
336.507	3.46
336.879	3.43
337.25	3.81
337.622	3.53
337.993	3.5
338.365	3.34
338.736	3.95
339.108	3.9
339.479	3.69
339.851	3.69
340.222	3.24
340.593	3.61
340.964	3.7
341.336	3.25
341.707	3.26
342.078	3.75
342.449	3.81
342.82	4.01
343.191	3.32
343.562	3.62
343.933	3.84
344.303	3.99
344.674	3.63
345.045	3.5
345.416	3.43
345.786	3.77
346.157	3.34
346.527	4
346.898	3.85
347.268	3.5
347.639	3.65
348.009	3.83
348.38	3.3
348.75	3.38
349.12	3.25
349.49	3.82
349.861	3.36
350.231	4.04
350.601	3.2
350.971	3.59
351.341	3.47
351.711	3.53
352.081	3.35
352.45	3.68
352.82	3.77
353.19	3.69
353.56	3.97
353.929	3.71
354.299	3.72
354.669	3.6
355.038	4.02
355.408	3.32
355.777	3.85
356.147	3.59
356.516	3.51
356.885	3.63
357.254	3.72
357.624	3.92
357.993	3.59
358.362	3.28
358.731	3.69
359.1	3.65
359.469	3.54
359.838	3.75
360.207	3.75
360.576	3.85
360.945	3.81
361.314	3.93
361.682	3.84
362.051	3.76
362.42	3.77
362.788	3.72
363.157	3.51
363.525	3.66
363.894	3.76
364.262	3.87
364.631	3.88
364.999	3.48
365.367	3.34
365.735	4
366.104	3.51
366.472	3.74
366.84	3.36
367.208	3.78
367.576	3.56
367.944	3.85
368.312	3.74
368.68	3.75
369.048	3.68
369.416	3.75
369.783	3.02
370.151	3.6
370.519	4.15
370.886	3.75
371.254	3.95
371.621	3.83
371.989	3.66
372.356	3.8
372.724	3.84
373.091	3.72
373.458	3.86
373.826	3.71
374.193	3.47
374.56	3.49
374.927	3.73
375.294	3.45
375.661	3.65
376.028	3.61
376.395	3.77
376.762	3.77
377.129	3.97
377.496	4
377.863	3.83
378.229	3.42
378.596	3.7
378.963	3.68
379.329	3.58
379.696	3.46
380.062	4.01
380.429	4.03
380.795	3.59
381.161	3.59
381.528	3.89
381.894	3.39
382.26	3.79
382.626	3.43
382.993	3.84
383.359	3.75
383.725	3.55
384.091	3.63
384.457	3.86
384.823	3.72
385.188	3.92
385.554	3.65
385.92	3.46
386.286	3.96
386.651	3.71
387.017	3.49
387.383	3.95
387.748	3.62
388.114	3.55
388.479	4.22
388.845	3.55
389.21	3.96
389.575	4.07
389.94	3.89
390.306	3.59
390.671	3.98
391.036	3.72
391.401	4.11
391.766	3.67
392.131	3.66
392.496	3.88
392.861	3.86
393.226	3.76
393.591	3.82
393.956	3.94
394.32	3.98
394.685	3.84
395.05	4.03
395.414	3.76
395.779	3.66
396.143	3.69
396.508	3.88
396.872	3.98
397.236	3.94
397.601	3.66
397.965	3.84
398.329	3.99
398.694	4.02
399.058	3.99
399.422	3.85
399.786	3.84
400.15	3.71
400.514	3.8
400.878	3.68
401.242	3.78
401.605	3.74
401.969	3.91
402.333	4.01
402.697	3.91
403.06	3.91
403.424	3.87
403.787	3.81
404.151	3.82
404.514	3.89
404.878	3.91
405.241	3.93
405.604	3.9
405.968	3.78
406.331	3.68
406.694	3.83
407.057	3.76
407.42	4.09
407.783	3.74
408.146	3.9
408.509	3.9
408.872	3.85
409.235	4.04
409.598	3.89
409.961	3.97
410.323	3.84
410.686	3.74
411.049	3.81
411.411	3.77
411.774	4.01
412.136	3.97
412.499	3.87
412.861	3.94
413.223	3.99
413.586	3.83
413.948	3.93
414.31	3.98
414.672	4.12
415.035	4.1
415.397	3.92
415.759	3.98
416.121	3.63
416.483	4.09
416.845	3.88
417.206	3.95
417.568	4.12
417.93	3.85
418.292	3.92
418.653	3.86
419.015	3.8
419.377	3.91
419.738	3.83
420.1	3.98
420.461	3.86
420.822	3.78
421.184	3.91
421.545	3.84
421.906	3.89
422.267	3.79
422.629	3.93
422.99	3.8
423.351	3.75
423.712	3.79
424.073	3.93
424.434	3.79
424.795	3.92
425.155	3.95
425.516	3.9
425.877	3.81
426.238	3.84
426.598	3.9
426.959	3.77
427.32	3.85
427.68	3.89
428.041	3.9
428.401	3.92
428.761	4.05
429.122	3.89
429.482	4
429.842	3.64
430.202	4.09
430.563	3.93
430.923	3.96
431.283	3.83
431.643	4.09
432.003	4.14
432.363	4.04
432.722	4.02
433.082	3.94
433.442	3.98
433.802	3.84
434.161	4
434.521	4.01
434.881	4.1
435.24	3.86
435.6	4.12
435.959	3.91
436.319	4.01
436.678	3.95
437.037	4.02
437.396	4.15
437.756	4.1
438.115	3.85
438.474	4
438.833	3.96
439.192	4.15
439.551	4.02
439.91	3.87
440.269	4.09
440.628	3.98
440.987	4
441.345	3.95
441.704	3.97
442.063	3.89
442.421	3.97
442.78	4.04
443.138	3.95
443.497	3.93
443.855	3.96
444.214	4.14
444.572	3.99
444.93	3.87
445.288	4.05
445.647	3.94
446.005	4.02
446.363	3.88
446.721	3.91
447.079	3.98
447.437	3.99
447.795	3.97
448.153	3.9
448.51	4
448.868	3.95
449.226	3.9
449.584	4.04
449.941	3.96
450.299	4.09
450.656	3.98
451.014	4.11
451.371	4.15
451.729	4.22
452.086	4.1
452.443	4.09
452.801	4.03
453.158	4.12
453.515	4.22
453.872	4.08
454.229	4.03
454.586	4.07
454.943	4.03
455.3	4.06
455.657	3.97
456.014	3.91
456.371	4.1
456.727	4.18
457.084	4.18
457.441	4.11
457.797	4.02
458.154	4.12
458.51	4.27
458.867	4.1
459.223	4.17
459.58	4.3
459.936	4.03
460.292	4.04
460.648	4.27
461.005	3.94
461.361	4.01
461.717	4.02
462.073	4.04
462.429	4.07
462.785	4
463.141	4.08
463.496	4.13
463.852	4.21
464.208	4.19
464.564	3.97
464.919	4.18
465.275	4.24
465.631	4.26
465.986	4.09
466.342	4.02
466.697	4.25
467.052	4.19
467.408	4.07
467.763	4.17
468.118	4.28
468.473	4.16
468.829	3.96
469.184	4.04
469.539	4.11
469.894	4.11
470.249	4.12
470.603	4.22
470.958	4.04
471.313	4.09
471.668	4.05
472.023	4
472.377	4.18
472.732	4.2
473.086	4.22
473.441	4.37
473.795	4.07
474.15	4.23
474.504	4.23
474.859	4.08
475.213	4.25
475.567	4.12
475.921	4.16
476.275	4.15
476.63	4.15
476.984	4.07
477.338	4.23
477.692	4.26
478.045	4.11
478.399	4.05
478.753	4.1
479.107	4.15
479.461	4.32
479.814	4.3
480.168	4.33
480.521	4.08
480.875	4.19
481.228	4.24
481.582	4.18
481.935	4.16
482.289	4.21
482.642	4.19
482.995	4.22
483.348	4.04
483.701	4.17
484.055	4.14
484.408	4.18
484.761	4.12
485.114	3.99
485.466	3.96
485.819	3.91
486.172	3.95
486.525	3.94
486.878	4.08
487.23	4.07
487.583	4.02
487.936	4.12
488.288	4.11
488.641	4.14
488.993	4.04
489.345	4
489.698	4.08
490.05	4.05
490.402	4.03
490.754	4.1
491.107	4.09
491.459	4.16
491.811	4.06
492.163	4.24
492.515	4.21
492.866	4.08
493.218	4.12
493.57	4.08
493.922	4.13
494.274	4.08
494.625	4.16
494.977	4.15
495.328	4.26
495.68	4.09
496.031	4.15
496.383	4.3
496.734	4.28
497.086	4.48
497.437	4.37
497.788	4.27
498.139	4.17
498.49	4.24
498.842	4.34
499.193	4.19
499.544	4.31
499.894	4.2
500.245	4.29
500.596	4.22
500.947	4.28
501.298	4.19
501.648	4.3
501.999	4.46
502.35	4.41
502.7	4.36
503.051	4.36
503.401	4.37
503.752	4.34
504.102	4.38
504.452	4.39
504.803	4.44
505.153	4.34
505.503	4.37
505.853	4.4
506.203	4.43
506.553	4.43
506.903	4.44
507.253	4.41
507.603	4.32
507.953	4.37
508.303	4.36
508.652	4.31
509.002	4.53
509.352	4.4
509.701	4.37
510.051	4.39
510.4	4.46
510.75	4.42
511.099	4.33
511.449	4.32
511.798	4.37
512.147	4.41
512.496	4.29
512.846	4.36
513.195	4.5
513.544	4.35
513.893	4.46
514.242	4.38
514.591	4.38
514.939	4.44
515.288	4.43
515.637	4.41
515.986	4.44
516.334	4.47
516.683	4.49
517.032	4.54
517.38	4.58
517.729	4.52
518.077	4.55
518.426	4.45
518.774	4.64
519.122	4.5
519.47	4.57
519.819	4.52
520.167	4.48
520.515	4.41
520.863	4.41
521.211	4.44
521.559	4.51
521.907	4.49
522.255	4.52
522.602	4.59
522.95	4.51
523.298	4.54
523.645	4.64
523.993	4.68
524.341	4.66
524.688	4.55
525.036	4.55
525.383	4.67
525.73	4.68
526.078	4.67
526.425	4.69
526.772	4.59
527.119	4.52
527.466	4.51
527.814	4.51
528.161	4.56
528.508	4.54
528.854	4.6
529.201	4.55
529.548	4.5
529.895	4.52
530.242	4.46
530.588	4.44
530.935	4.45
531.282	4.54
531.628	4.43
531.975	4.52
532.321	4.58
532.667	4.64
533.014	4.64
533.36	4.6
533.706	4.71
534.052	4.67
534.399	4.65
534.745	4.66
535.091	4.63
535.437	4.62
535.783	4.56
536.129	4.74
536.474	4.71
536.82	4.69
537.166	4.78
537.512	4.78
537.857	4.72
538.203	4.69
538.549	4.66
538.894	4.8
539.239	4.92
539.585	4.81
539.93	4.84
540.276	4.78
540.621	4.82
540.966	4.97
541.311	4.74
541.656	4.81
542.001	5.08
542.346	4.92
542.691	4.91
543.036	4.74
543.381	4.77
543.726	4.78
544.071	4.84
544.415	4.81
544.76	4.86
545.105	4.87
545.449	4.89
545.794	4.96
546.138	4.98
546.483	4.97
546.827	5.03
547.171	5.05
547.516	5
547.86	4.97
548.204	5.04
548.548	5.09
548.892	5.04
549.236	5.05
549.58	5.12
549.924	5.17
550.268	5.25
550.612	5.06
550.956	5.09
551.3	5.14
551.643	5.26
551.987	5.15
552.33	5.21
552.674	5.14
553.017	5.44
553.361	5.44
553.704	5.28
554.048	5.24
554.391	5.37
554.734	5.28
555.077	5.34
555.42	5.37
555.764	5.5
556.107	5.32
556.45	5.37
556.793	5.38
557.135	5.3
557.478	5.39
557.821	5.4
558.164	5.45
558.507	5.5
558.849	5.53
559.192	5.59
559.534	5.47
559.877	5.45
560.219	5.58
560.562	5.61
560.904	5.59
561.246	5.66
561.589	5.51
561.931	5.45
562.273	5.73
562.615	5.51
562.957	5.69
563.299	5.51
563.641	5.67
563.983	5.72
564.325	5.75
564.667	5.73
565.008	5.67
565.35	5.71
565.692	5.84
566.033	5.77
566.375	5.71
566.716	6.03
567.058	5.76
567.399	5.87
567.741	5.95
568.082	5.89
568.423	5.75
568.764	5.76
569.105	5.83
569.447	5.77
569.788	5.79
570.129	5.81
570.47	6.02
570.811	5.98
571.151	5.96
571.492	6.08
571.833	5.96
572.174	6.27
572.514	6.09
572.855	6.01
573.195	6.09
573.536	6
573.876	6.03
574.217	6.09
574.557	5.94
574.898	6.07
575.238	5.96
575.578	6.33
575.918	6.24
576.258	6.15
576.598	6.34
576.938	6.41
577.278	6.19
577.618	6.12
577.958	6.16
578.298	6.24
578.638	6.32
578.977	6.37
579.317	6.27
579.657	6.18
579.996	6.46
580.336	6.33
580.675	6.25
581.014	6.48
581.354	6.46
581.693	6.62
582.032	6.54
582.372	6.71
582.711	6.56
583.05	6.65
583.389	6.47
583.728	6.51
584.067	6.78
584.406	6.53
584.745	6.76
585.083	6.61
585.422	6.74
585.761	6.54
586.1	6.69
586.438	6.43
586.777	6.82
587.115	6.7
587.454	6.92
587.792	7.09
588.13	7.06
588.469	6.77
588.807	7.09
589.145	6.91
589.483	6.79
589.821	7.08
590.159	6.85
590.497	7.2
590.835	7.11
591.173	6.97
591.511	7.3
591.849	7.16
592.187	7.12
592.524	6.85
592.862	7.07
593.2	7.15
593.537	6.89
593.875	7.34
594.212	7.31
594.55	7.11
594.887	7.35
595.224	7.39
595.561	6.93
595.899	7.22
596.236	7.26
596.573	7.6
596.91	7.37
597.247	7.27
597.584	7.3
597.921	7.59
598.258	7.56
598.594	7.26
598.931	7.41
599.268	7.59
599.604	7.51
599.941	7.47
600.277	7.73
600.614	7.6
600.95	7.74
601.287	7.46
601.623	7.74
601.959	7.79
602.296	7.78
602.632	7.79
602.968	7.67
603.304	7.58
603.64	8.02
603.976	7.59
604.312	7.95
604.648	7.71
604.984	7.66
605.319	7.79
605.655	7.84
605.991	7.92
606.326	7.76
606.662	7.82
606.998	7.82
607.333	7.87
607.668	8.03
608.004	8.03
608.339	7.89
608.674	8.08
609.01	8
609.345	7.96
609.68	8.19
610.015	8.16
610.35	8.18
610.685	8.32
611.02	8.28
611.355	8.27
611.689	8.27
612.024	8.35
612.359	8.22
612.694	8.19
613.028	8.58
613.363	8.62
613.697	8.39
614.032	8.53
614.366	8.36
614.7	8.61
615.035	8.72
615.369	8.45
615.703	8.93
616.037	8.61
616.371	9.02
616.705	8.75
617.039	8.92
617.373	8.89
617.707	8.98
618.041	8.91
618.375	8.94
618.709	9.11
619.042	8.74
619.376	8.63
619.71	8.82
620.043	9.21
620.377	8.99
620.71	9.01
621.043	8.72
621.377	9.26
621.71	9.13
622.043	9.36
622.376	9.14
622.709	9.25
623.043	9.21
623.376	9.35
623.709	8.99
624.041	9.21
624.374	9.06
624.707	9.06
625.04	9.21
625.373	9.65
625.705	9.1
626.038	9.34
626.37	9.7
626.703	9.59
627.035	9.41
627.368	9.08
627.7	9.52
628.032	9.43
628.365	9.67
628.697	9.53
629.029	9.44
629.361	9.52
629.693	9.61
630.025	10.05
630.357	9.5
630.689	9.65
631.021	9.66
631.353	9.73
631.684	9.84
632.016	9.79
632.348	9.78
632.679	9.76
633.011	10
633.342	10.11
633.674	10.08
634.005	10.05
634.336	9.73
634.668	9.77
634.999	10.15
635.33	9.77
635.661	10.32
635.992	10.23
636.323	9.96
636.654	9.73
636.985	9.9
637.316	10.11
637.647	10.1
637.977	10.35
638.308	10.45
638.639	10.52
638.969	10.06
639.3	10.78
639.63	10.06
639.961	10.43
640.291	10.68
640.622	10.56
640.952	10.5
641.282	10.62
641.612	10.69
641.943	10.43
642.273	10.31
642.603	10.65
642.933	10.45
643.263	10.52
643.592	10.48
643.922	11.24
644.252	10.82
644.582	10.63
644.911	10.67
645.241	10.41
645.571	10.62
645.9	10.81
646.23	10.75
646.559	11.18
646.888	11.1
647.218	10.95
647.547	10.87
647.876	11.16
648.205	11.02
648.534	11.32
648.863	11.22
649.192	11.38
649.521	11.27
649.85	11.13
650.179	11.45
650.508	11.46
650.837	11.43
651.165	11.75
651.494	11.45
651.822	11.85
652.151	11.97
652.479	11.31
652.808	11.05
653.136	11.67
653.465	11.29
653.793	11.72
654.121	11.46
654.449	11.8
654.777	11.11
655.105	11.32
655.433	11.4
655.761	11.41
656.089	11.53
656.417	11.54
656.745	11.32
657.073	11.47
657.4	11.8
657.728	11.81
658.056	11.37
658.383	11.96
658.711	11.95
659.038	12.24
659.365	12.74
659.693	12.41
660.02	11.89
660.347	12.05
660.674	12.2
661.001	12.13
661.329	12.43
661.656	12.65
661.982	11.66
662.309	12.13
662.636	12.44
662.963	11.76
663.29	12.13
663.616	12.75
663.943	12.39
664.27	12.59
664.596	12.54
664.923	12.32
665.249	12.84
665.576	12.18
665.902	11.5
666.228	12.01
666.554	13.26
666.881	12.44
667.207	12.48
667.533	12.86
667.859	12.52
668.185	12.32
668.511	12.7
668.837	12.69
669.162	12.96
669.488	12.66
669.814	12.69
670.139	12.62
670.465	12.86
670.791	12.81
671.116	13.03
671.442	12.99
671.767	13.53
672.092	12.73
672.418	12.92
672.743	13.1
673.068	13.91
673.393	13.45
673.718	13.36
674.043	13.05
674.368	12.24
674.693	13.03
675.018	13.08
675.343	13.36
675.667	13.2
675.992	13.66
676.317	13.28
676.641	13.01
676.966	13.63
677.29	13.56
677.615	13.78
677.939	13.82
678.264	14.09
678.588	13.86
678.912	14.19
679.236	13.33
679.56	14.12
679.885	14.15
680.209	13.66
680.532	13.6
680.856	13.58
681.18	13.73
681.504	14.23
681.828	13.68
682.152	13.78
682.475	14.07
682.799	14.16
683.122	14.06
683.446	14.19
683.769	13.92
684.093	14.35
684.416	13.41
684.739	13.64
685.062	14.42
685.386	14.21
685.709	14.5
686.032	14.68
686.355	15.82
686.678	14.37
687.001	14.82
687.324	15.15
687.646	14.25
687.969	14.05
688.292	14.1
688.614	15.1
