Data from 0039_forehead_Reflection__0__85.txt Node

Date: Fri Nov 04 15:27:42 CDT 2022
User: ToomeyLab
Spectrometer: FLMS14357
Trigger mode: 0
Integration Time (sec): 1.000000E-2
Scans to average: 100
Electric dark correction enabled: true
Nonlinearity correction enabled: false
Boxcar width: 0
XAxis mode: Wavelengths
Number of Pixels in Spectrum: 2048
>>>>>Begin Spectral Data<<<<<
189.047	207.79
189.435	207.79
189.823	207.79
190.211	-177.47
190.599	2.75
190.987	-282.91
191.375	613.74
191.763	-5.02
192.151	49.63
192.538	4.21
192.926	124.43
193.314	-30.19
193.702	47.6
194.089	15.2
194.477	-123.03
194.864	-143.09
195.252	33.23
195.639	-78.63
196.027	63.68
196.414	67.63
196.801	179.3
197.189	34.3
197.576	96.94
197.963	94.23
198.351	-10.53
198.738	31.07
199.125	25.76
199.512	-25.5
199.899	49.8
200.286	6.18
200.673	24.92
201.06	8.65
201.447	-0.17
201.833	37.85
202.22	11.2
202.607	-22.5
202.994	24.54
203.38	33.4
203.767	18.73
204.154	29.14
204.54	-11.51
204.927	30.4
205.313	59.54
205.699	54.33
206.086	34.76
206.472	1.73
206.858	-19.42
207.245	2.4
207.631	25.94
208.017	21.78
208.403	10.81
208.789	15.04
209.175	-10.6
209.561	-14.03
209.947	-45.07
210.333	21.42
210.719	17.68
211.105	-22.97
211.491	16.6
211.876	14.31
212.262	-20.7
212.648	-11.8
213.034	36.39
213.419	-5.99
213.805	-0.02
214.19	-32.52
214.576	-2.44
214.961	40.29
215.346	13.25
215.732	46.23
216.117	25.56
216.502	26.61
216.888	-10.87
217.273	9.41
217.658	33.02
218.043	11.62
218.428	20.21
218.813	21.55
219.198	24.15
219.583	-14.34
219.968	26.04
220.353	-15.47
220.738	-32.39
221.122	-0.01
221.507	-11.68
221.892	11.61
222.276	2.33
222.661	6.71
223.046	13.01
223.43	14.44
223.815	-3.06
224.199	6.47
224.583	-3.43
224.968	-0.01
225.352	4.4
225.736	3.28
226.121	2.58
226.505	4.38
226.889	-0.98
227.273	5.96
227.657	3.51
228.041	8.15
228.425	4.72
228.809	5.02
229.193	5.9
229.577	2.6
229.961	4.16
230.344	3.95
230.728	3.59
231.112	2.49
231.495	3.16
231.879	3.84
232.263	3.1
232.646	3.88
233.03	2.25
233.413	3.25
233.797	2.12
234.18	4.1
234.563	1.26
234.946	2.52
235.33	4.53
235.713	3.43
236.096	4.21
236.479	2.57
236.862	2.51
237.245	3.73
237.628	4.2
238.011	1.93
238.394	4.61
238.777	3.37
239.16	3.4
239.543	1.53
239.925	3.88
240.308	5.57
240.691	1.88
241.073	3.84
241.456	3.67
241.838	4.22
242.221	4.37
242.603	3.65
242.986	3.42
243.368	3.79
243.75	3.91
244.133	3.63
244.515	3.63
244.897	3.7
245.279	3.61
245.661	4.47
246.043	3.72
246.425	3.36
246.807	4.81
247.189	3.16
247.571	4.4
247.953	3.48
248.335	3.61
248.717	3.5
249.098	3.67
249.48	3.58
249.862	3.97
250.243	3.7
250.625	3.69
251.006	3.92
251.388	4.31
251.769	3.94
252.151	4.82
252.532	4.25
252.913	2.84
253.295	4.56
253.676	3.72
254.057	3.73
254.438	3.93
254.819	4.04
255.2	3.94
255.581	4.29
255.962	5.32
256.343	2.85
256.724	3.83
257.105	3.05
257.486	4.55
257.867	5.73
258.247	3.01
258.628	3.18
259.009	3.68
259.389	4.51
259.77	3.92
260.15	4.33
260.531	3.69
260.911	3.47
261.292	3.42
261.672	3.63
262.052	3.56
262.432	3.7
262.813	3.39
263.193	3.5
263.573	3.75
263.953	3.62
264.333	4.06
264.713	4.26
265.093	3.14
265.473	3.54
265.853	2.53
266.233	3.55
266.612	3.94
266.992	3.96
267.372	3.08
267.752	3.26
268.131	4
268.511	3.56
268.89	3.9
269.27	3.71
269.649	3.89
270.029	3.23
270.408	3.55
270.787	3.78
271.167	3.68
271.546	4.15
271.925	4.03
272.304	3.41
272.683	3.54
273.062	3.95
273.441	3.49
273.82	3.22
274.199	3.76
274.578	3.36
274.957	3.22
275.336	3.26
275.715	3.27
276.093	3.93
276.472	3.71
276.851	3.28
277.229	3.84
277.608	3.35
277.986	3.72
278.365	4.14
278.743	3.58
279.122	3.88
279.5	3.08
279.878	3.88
280.257	3.74
280.635	2.68
281.013	3.69
281.391	4.15
281.769	3.85
282.147	3.02
282.525	3.65
282.903	3.64
283.281	4.29
283.659	3.54
284.037	3.39
284.415	3.26
284.792	3.71
285.17	3.68
285.548	3.6
285.925	3.48
286.303	3.82
286.68	3.91
287.058	3.63
287.435	3.47
287.813	3.82
288.19	3.64
288.567	3.75
288.945	3.59
289.322	4.03
289.699	4.02
290.076	3.98
290.453	3.69
290.83	3.64
291.207	3.67
291.584	3.8
291.961	4.08
292.338	4.2
292.715	3.86
293.092	4.13
293.469	4.39
293.845	3.75
294.222	3.91
294.599	3.61
294.975	4.27
295.352	4.41
295.728	4.17
296.105	4.48
296.481	3.97
296.858	4.58
297.234	4.71
297.61	4.58
297.986	4.55
298.363	4.12
298.739	4.39
299.115	4.36
299.491	4.4
299.867	4.38
300.243	4.28
300.619	4.92
300.995	4.79
301.371	4.84
301.746	4.6
302.122	4.51
302.498	4.6
302.874	4.96
303.249	4.33
303.625	4.62
304	4.58
304.376	4.68
304.751	4.86
305.127	4.78
305.502	5
305.878	5.08
306.253	5.38
306.628	4.83
307.003	5
307.378	4.9
307.754	5.14
308.129	5.01
308.504	5.04
308.879	5.93
309.254	5.48
309.629	5.08
310.003	5.31
310.378	5.39
310.753	5.63
311.128	5.1
311.502	4.99
311.877	5.25
312.252	5.46
312.626	5.47
313.001	5.61
313.375	5.47
313.75	5.41
314.124	5.95
314.498	5.94
314.873	5.86
315.247	5.59
315.621	6.1
315.995	6.28
316.369	5.87
316.743	6.13
317.117	6.31
317.491	6.62
317.865	6.21
318.239	6.17
318.613	6.66
318.987	6.62
319.361	6.52
319.734	6.7
320.108	7.05
320.482	6.05
320.855	6.68
321.229	6.25
321.602	6.65
321.976	6.42
322.349	7.22
322.723	6.98
323.096	7.08
323.469	6.59
323.843	6.64
324.216	7.23
324.589	7.45
324.962	7.7
325.335	6.72
325.708	7.07
326.081	7.11
326.454	6.82
326.827	7.31
327.2	7.12
327.573	7.21
327.945	7.07
328.318	6.44
328.691	7.06
329.063	7.31
329.436	7.58
329.809	7.32
330.181	7.29
330.553	7.04
330.926	7.9
331.298	7.84
331.671	7.67
332.043	7.85
332.415	7.25
332.787	7.17
333.159	7.41
333.532	7.42
333.904	7.63
334.276	7.87
334.648	8.02
335.02	7.48
335.391	7.59
335.763	7.82
336.135	7.96
336.507	8.02
336.879	8.18
337.25	8.33
337.622	8.13
337.993	8.26
338.365	8.24
338.736	8.3
339.108	8.44
339.479	7.93
339.851	8.28
340.222	8.18
340.593	8.57
340.964	8.46
341.336	8.47
341.707	7.76
342.078	7.97
342.449	8.36
342.82	8.33
343.191	8.34
343.562	8.32
343.933	8.59
344.303	9
344.674	8.8
345.045	8.5
345.416	8.21
345.786	8.86
346.157	9.12
346.527	9.07
346.898	8.97
347.268	8.65
347.639	8.73
348.009	8.85
348.38	9.13
348.75	8.84
349.12	8.73
349.49	9.25
349.861	9.08
350.231	9.24
350.601	8.8
350.971	8.92
351.341	9.13
351.711	8.95
352.081	9.46
352.45	9.16
352.82	9.29
353.19	9.15
353.56	9.76
353.929	9.2
354.299	9.88
354.669	9.68
355.038	10.02
355.408	9.37
355.777	9.91
356.147	9.32
356.516	9.5
356.885	9.63
357.254	9.61
357.624	9.9
357.993	9.65
358.362	9.68
358.731	9.53
359.1	9.9
359.469	9.83
359.838	9.81
360.207	9.8
360.576	10
360.945	10.17
361.314	10.31
361.682	9.87
362.051	10.01
362.42	10.37
362.788	9.88
363.157	9.9
363.525	9.96
363.894	10.02
364.262	10.14
364.631	10.29
364.999	10.24
365.367	10.24
365.735	10.51
366.104	10.23
366.472	10.56
366.84	10.31
367.208	10.83
367.576	10.67
367.944	10.9
368.312	10.8
368.68	10.99
369.048	10.56
369.416	10.64
369.783	10.98
370.151	10.69
370.519	11.1
370.886	10.93
371.254	11.45
371.621	11.08
371.989	11.28
372.356	11.14
372.724	11.02
373.091	11.39
373.458	11.25
373.826	11.26
374.193	11.3
374.56	11.11
374.927	11.61
375.294	11.15
375.661	11.5
376.028	11.37
376.395	11.53
376.762	11.95
377.129	11.66
377.496	11.94
377.863	11.71
378.229	11.59
378.596	11.52
378.963	11.63
379.329	11.81
379.696	11.37
380.062	11.89
380.429	11.98
380.795	12.02
381.161	12
381.528	12.1
381.894	11.7
382.26	12.02
382.626	12.01
382.993	12.25
383.359	12.25
383.725	12.41
384.091	12.56
384.457	12.36
384.823	12.63
385.188	12.47
385.554	12.33
385.92	12.34
386.286	12.31
386.651	12.26
387.017	12.54
387.383	12.62
387.748	12.44
388.114	12.68
388.479	13.07
388.845	12.86
389.21	13.02
389.575	13.07
389.94	12.95
390.306	12.89
390.671	13.01
391.036	12.96
391.401	13.19
391.766	12.92
392.131	13.07
392.496	13.32
392.861	13.4
393.226	13.16
393.591	13.14
393.956	13.34
394.32	13.27
394.685	13.5
395.05	13.6
395.414	13.51
395.779	13.52
396.143	13.37
396.508	13.49
396.872	13.56
397.236	13.76
397.601	13.64
397.965	13.75
398.329	13.69
398.694	13.82
399.058	13.96
399.422	13.94
399.786	13.91
400.15	14.1
400.514	13.87
400.878	14.17
401.242	14.25
401.605	14.07
401.969	14.52
402.333	14.13
402.697	14.19
403.06	14.39
403.424	14.48
403.787	14.36
404.151	14.39
404.514	14.34
404.878	14.52
405.241	14.72
405.604	14.41
405.968	14.4
406.331	14.24
406.694	14.3
407.057	14.4
407.42	14.49
407.783	14.48
408.146	14.62
408.509	14.65
408.872	14.7
409.235	15.06
409.598	14.81
409.961	15.04
410.323	15.09
410.686	14.98
411.049	14.98
411.411	14.73
411.774	15
412.136	15.04
412.499	15.04
412.861	15.02
413.223	15.21
413.586	15.08
413.948	15.34
414.31	15.44
414.672	15.33
415.035	15.57
415.397	15.49
415.759	15.61
416.121	15.58
416.483	15.51
416.845	15.55
417.206	15.55
417.568	15.62
417.93	15.51
418.292	15.33
418.653	15.65
419.015	15.58
419.377	15.54
419.738	15.48
420.1	15.58
420.461	15.55
420.822	15.54
421.184	15.54
421.545	15.39
421.906	15.77
422.267	15.66
422.629	15.56
422.99	15.39
423.351	15.38
423.712	15.6
424.073	15.96
424.434	15.81
424.795	15.87
425.155	16.1
425.516	15.95
425.877	15.76
426.238	15.82
426.598	15.94
426.959	16.06
427.32	16.13
427.68	16.25
428.041	16.33
428.401	16.68
428.761	16.69
429.122	16.79
429.482	16.73
429.842	16.62
430.202	17.1
430.563	16.9
430.923	17.07
431.283	16.94
431.643	17.09
432.003	17.39
432.363	17.16
432.722	17.35
433.082	17.22
433.442	17.13
433.802	17.08
434.161	17.34
434.521	17.36
434.881	17.06
435.24	17.04
435.6	17.17
435.959	17.31
436.319	17.35
436.678	17.52
437.037	17.4
437.396	17.67
437.756	17.79
438.115	17.63
438.474	17.79
438.833	17.98
439.192	17.79
439.551	17.92
439.91	18.04
440.269	17.72
440.628	17.95
440.987	17.84
441.345	17.93
441.704	17.83
442.063	17.73
442.421	18.03
442.78	17.89
443.138	18.12
443.497	17.9
443.855	18.2
444.214	18.37
444.572	18.31
444.93	18.4
445.288	18.59
445.647	18.67
446.005	18.59
446.363	18.59
446.721	18.36
447.079	18.44
447.437	18.29
447.795	18.2
448.153	18.26
448.51	18.3
448.868	18.23
449.226	18.36
449.584	18.54
449.941	18.65
450.299	18.9
450.656	18.91
451.014	19.11
451.371	19.09
451.729	19.39
452.086	19.25
452.443	19.42
452.801	19.48
453.158	19.56
453.515	19.51
453.872	19.35
454.229	19.35
454.586	19.53
454.943	19.73
455.3	19.56
455.657	19.54
456.014	19.7
456.371	19.81
456.727	19.75
457.084	19.71
457.441	19.88
457.797	20.07
458.154	19.99
458.51	20.14
458.867	20.12
459.223	20.15
459.58	20.3
459.936	20.07
460.292	20.07
460.648	20.11
461.005	19.89
461.361	19.96
461.717	19.67
462.073	19.81
462.429	20.01
462.785	20.15
463.141	20.55
463.496	20.65
463.852	20.84
464.208	20.72
464.564	20.79
464.919	20.83
465.275	20.94
465.631	20.95
465.986	21.01
466.342	21.03
466.697	21.17
467.052	20.94
467.408	21.25
467.763	21.19
468.118	21.35
468.473	21.38
468.829	21.16
469.184	21.11
469.539	21.15
469.894	21.42
470.249	21.4
470.603	21.76
470.958	21.46
471.313	21.57
471.668	21.59
472.023	21.63
472.377	21.76
472.732	21.93
473.086	21.8
473.441	21.83
473.795	22.06
474.15	22.08
474.504	21.97
474.859	22.01
475.213	22
475.567	22.13
475.921	22.02
476.275	22.06
476.63	22.26
476.984	22.3
477.338	22.52
477.692	22.4
478.045	22.37
478.399	22.32
478.753	22.38
479.107	22.44
479.461	22.54
479.814	22.79
480.168	22.52
480.521	22.4
480.875	22.65
481.228	22.85
481.582	22.87
481.935	22.87
482.289	22.98
482.642	22.97
482.995	22.81
483.348	22.76
483.701	22.73
484.055	22.76
484.408	22.57
484.761	22.44
485.114	22.11
485.466	21.83
485.819	21.67
486.172	21.65
486.525	21.97
486.878	22.34
487.23	22.62
487.583	22.9
487.936	23.02
488.288	22.88
488.641	22.76
488.993	22.43
489.345	22.38
489.698	22.34
490.05	22.51
490.402	22.72
490.754	22.89
491.107	23.12
491.459	23.47
491.811	23.59
492.163	23.73
492.515	23.82
492.866	23.56
493.218	23.24
493.57	22.96
493.922	23
494.274	23.2
494.625	23.55
494.977	24.01
495.328	24.27
495.68	24.35
496.031	24.5
496.383	24.65
496.734	24.71
497.086	24.75
497.437	24.85
497.788	24.73
498.139	24.61
498.49	24.46
498.842	24.43
499.193	24.5
499.544	24.55
499.894	24.62
500.245	24.77
500.596	24.97
500.947	24.93
501.298	25.15
501.648	25.22
501.999	25.4
502.35	25.23
502.7	25.45
503.051	25.58
503.401	25.58
503.752	25.72
504.102	25.59
504.452	25.71
504.803	25.78
505.153	25.72
505.503	25.74
505.853	25.76
506.203	25.77
506.553	25.93
506.903	25.95
507.253	25.94
507.603	26.02
507.953	26.19
508.303	26.15
508.652	26.06
509.002	26.19
509.352	26.22
509.701	26.1
510.051	26.09
510.4	26.17
510.75	26.02
511.099	26.11
511.449	26.07
511.798	26.24
512.147	26.41
512.496	26.34
512.846	26.35
513.195	26.64
513.544	26.75
513.893	26.58
514.242	26.61
514.591	26.84
514.939	26.82
515.288	26.93
515.637	27.1
515.986	27.09
516.334	27.2
516.683	27.44
517.032	27.19
517.38	27.47
517.729	27.48
518.077	27.54
518.426	27.52
518.774	27.25
519.122	27.36
519.47	27.12
519.819	27.26
520.167	26.99
520.515	26.85
520.863	26.95
521.211	27.04
521.559	27.19
521.907	27.32
522.255	27.56
522.602	27.6
522.95	27.74
523.298	27.92
523.645	28.14
523.993	28.15
524.341	28.06
524.688	28.23
525.036	28.23
525.383	28.3
525.73	28.38
526.078	28.38
526.425	28.29
526.772	28.13
527.119	27.97
527.466	27.77
527.814	27.84
528.161	27.84
528.508	27.94
528.854	28.16
529.201	28.12
529.548	28.21
529.895	27.85
530.242	27.3
530.588	27.22
530.935	27.31
531.282	27.65
531.628	27.81
531.975	28.16
532.321	28.26
532.667	28.65
533.014	28.84
533.36	28.82
533.706	28.93
534.052	28.76
534.399	28.7
534.745	28.53
535.091	28.23
535.437	28.23
535.783	28.37
536.129	28.81
536.474	29.02
536.82	29.41
537.166	29.34
537.512	29.59
537.857	29.42
538.203	29.3
538.549	29.07
538.894	29.23
539.239	29.41
539.585	29.52
539.93	29.84
540.276	30.03
540.621	30.2
540.966	30.42
541.311	30.33
541.656	30.25
542.001	30.31
542.346	29.99
542.691	29.79
543.036	29.24
543.381	29.14
543.726	29.17
544.071	29.53
544.415	29.66
544.76	30
545.105	30.08
545.449	30.11
545.794	30.39
546.138	30.56
546.483	30.76
546.827	30.78
547.171	30.98
547.516	30.94
547.86	30.99
548.204	30.99
548.548	30.95
548.892	30.69
549.236	30.81
549.58	31.09
549.924	31.42
550.268	31.56
550.612	31.53
550.956	31.74
551.3	31.78
551.643	32.15
551.987	31.92
552.33	32.11
552.674	32.18
553.017	32.18
553.361	32.46
553.704	32.17
554.048	32.16
554.391	31.98
554.734	31.98
555.077	32.09
555.42	32.22
555.764	32.55
556.107	32.46
556.45	32.68
556.793	32.59
557.135	32.84
557.478	32.68
557.821	32.76
558.164	32.96
558.507	33.02
558.849	33.14
559.192	33.26
559.534	32.98
559.877	33.21
560.219	33.35
560.562	33.09
560.904	33.54
561.246	33.45
561.589	33.39
561.931	33.28
562.273	33.7
562.615	33.39
562.957	33.55
563.299	33.54
563.641	33.57
563.983	33.69
564.325	33.78
564.667	33.73
565.008	33.84
565.35	34.01
565.692	34.06
566.033	34.19
566.375	33.82
566.716	33.92
567.058	34.05
567.399	33.92
567.741	33.97
568.082	33.89
568.423	33.94
568.764	33.89
569.105	34.09
569.447	34.23
569.788	34.32
570.129	34.58
570.47	34.43
570.811	34.47
571.151	34.73
571.492	34.45
571.833	34.77
572.174	34.63
572.514	34.61
572.855	34.6
573.195	34.75
573.536	34.55
573.876	34.51
574.217	34.4
574.557	34.56
574.898	34.56
575.238	34.88
575.578	34.98
575.918	35.03
576.258	35.14
576.598	35.28
576.938	35.16
577.278	35.12
577.618	34.98
577.958	35.34
578.298	35.49
578.638	35.41
578.977	35.69
579.317	35.74
579.657	35.51
579.996	35.64
580.336	35.99
580.675	35.98
581.014	36.25
581.354	36.2
581.693	36.5
582.032	36.42
582.372	36.48
582.711	36.55
583.05	36.39
583.389	36.34
583.728	36.59
584.067	36.61
584.406	36.4
584.745	37
585.083	36.9
585.422	36.81
585.761	36.83
586.1	36.85
586.438	36.68
586.777	37.04
587.115	36.89
587.454	37.5
587.792	37.26
588.13	37.32
588.469	37.12
588.807	37.25
589.145	37.2
589.483	37.14
589.821	37.23
590.159	37.14
590.497	37.74
590.835	37.37
591.173	37.47
591.511	37.73
591.849	37.72
592.187	37.55
592.524	37.84
592.862	37.46
593.2	37.71
593.537	37.86
593.875	38.22
594.212	38.19
594.55	38.03
594.887	38.11
595.224	38.04
595.561	37.81
595.899	38.03
596.236	38.09
596.573	38.08
596.91	38.24
597.247	37.91
597.584	38.18
597.921	38.29
598.258	38.13
598.594	37.71
598.931	37.84
599.268	37.86
599.604	37.93
599.941	38.12
600.277	38.57
600.614	38.6
600.95	38.93
601.287	38.89
601.623	39.24
601.959	38.94
602.296	38.79
602.632	39.35
602.968	39.54
603.304	39.21
603.64	39.7
603.976	39.05
604.312	39.09
604.648	39.12
604.984	39.05
605.319	39.23
605.655	38.77
605.991	38.75
606.326	38.7
606.662	38.86
606.998	38.51
607.333	38.84
607.668	39.16
608.004	39.41
608.339	39.33
608.674	39.76
609.01	40.11
609.345	39.69
609.68	40
610.015	39.7
610.35	40.11
610.685	40.01
611.02	39.67
611.355	39.63
611.689	39.65
612.024	39.66
612.359	39.82
612.694	39.98
613.028	39.89
613.363	40.27
613.697	40.52
614.032	40.42
614.366	40.96
614.7	40.62
615.035	40.82
615.369	40.5
615.703	40.5
616.037	40.71
616.371	40.83
616.705	41.02
617.039	40.78
617.373	41.54
617.707	40.98
618.041	41.39
618.375	41.24
618.709	41.38
619.042	40.96
619.376	41.15
619.71	41.42
620.043	41.28
620.377	41.5
620.71	41.53
621.043	41.41
621.377	41.54
621.71	41.59
622.043	41.8
622.376	41.79
622.709	42
623.043	42.12
623.376	42.15
623.709	41.8
624.041	42.07
624.374	41.92
624.707	41.67
625.04	42.2
625.373	42.02
625.705	42.11
626.038	42.37
626.37	42.28
626.703	42.08
627.035	42.16
627.368	42.58
627.7	41.96
628.032	42.14
628.365	42.3
628.697	42.37
629.029	42.23
629.361	42.25
629.693	42.05
630.025	42.34
630.357	42.3
630.689	42.42
631.021	42.63
631.353	42.46
631.684	42.62
632.016	42.74
632.348	42.82
632.679	42.74
633.011	43.09
633.342	43.2
633.674	43.28
634.005	43.47
634.336	42.86
634.668	43.54
634.999	43.23
635.33	42.94
635.661	43.5
635.992	43.04
636.323	43.03
636.654	43.32
636.985	43.32
637.316	43.26
637.647	43.31
637.977	43.58
638.308	43.97
638.639	43.72
638.969	43.7
639.3	43.63
639.63	43.53
639.961	43.98
640.291	43.7
640.622	44.32
640.952	44.1
641.282	43.98
641.612	44.22
641.943	44.05
642.273	43.79
642.603	44.62
642.933	44.19
643.263	43.7
643.592	44.7
643.922	44.52
644.252	44.8
644.582	44.22
644.911	44.05
645.241	44.27
645.571	44.91
645.9	44.43
646.23	44.49
646.559	44.83
646.888	44.52
647.218	44.85
647.547	45.33
647.876	45.25
648.205	45.19
648.534	45.25
648.863	44.92
649.192	45.34
649.521	45.07
649.85	45.07
650.179	45.29
650.508	45.11
650.837	45.71
651.165	45.17
651.494	45.01
651.822	45.53
652.151	45.14
652.479	44.95
652.808	45.16
653.136	45.4
653.465	45.72
653.793	45.81
654.121	45.47
654.449	45.42
654.777	45.27
655.105	45.4
655.433	45.39
655.761	45.51
656.089	45.84
656.417	45.93
656.745	45.84
657.073	45.31
657.4	46.93
657.728	46.38
658.056	45.71
658.383	46.34
658.711	46.13
659.038	46.52
659.365	46.84
659.693	46.38
660.02	46.06
660.347	46.21
660.674	46.3
661.001	45.67
661.329	46.01
661.656	46.01
661.982	45.96
662.309	46.59
662.636	46.81
662.963	46.58
663.29	46.88
663.616	47.08
663.943	46.72
664.27	46.94
664.596	46.91
664.923	46.48
665.249	46.75
665.576	46.85
665.902	46.23
666.228	46.57
666.554	46.92
666.881	46.62
667.207	47.22
667.533	47.33
667.859	46.48
668.185	46.81
668.511	47.26
668.837	47.13
669.162	47.92
669.488	47.62
669.814	47.31
670.139	48.24
670.465	47.2
670.791	47.12
671.116	47.67
671.442	47.03
671.767	47.21
672.092	47.45
