Data from 0039_crown_Reflection__0__80.txt Node

Date: Fri Nov 04 15:25:54 CDT 2022
User: ToomeyLab
Spectrometer: FLMS14357
Trigger mode: 0
Integration Time (sec): 1.000000E-2
Scans to average: 100
Electric dark correction enabled: true
Nonlinearity correction enabled: false
Boxcar width: 0
XAxis mode: Wavelengths
Number of Pixels in Spectrum: 2048
>>>>>Begin Spectral Data<<<<<
189.047	-47.84
189.435	-47.84
189.823	-47.84
190.211	609.37
190.599	42.01
190.987	-300.58
191.375	179.66
191.763	171.58
192.151	72.39
192.538	505.18
192.926	-13.95
193.314	117.66
193.702	51.14
194.089	25.52
194.477	279.26
194.864	-428.18
195.252	45.63
195.639	7.97
196.027	32.23
196.414	-44.64
196.801	249.89
197.189	-205.42
197.576	25.54
197.963	-47.19
198.351	-21.23
198.738	-11.1
199.125	-7.67
199.512	-6.67
199.899	-91.32
200.286	-6.64
200.673	-0.9
201.06	36.49
201.447	-3.26
201.833	24.41
202.22	33.21
202.607	0.57
202.994	15.57
203.38	19.34
203.767	-3.97
204.154	45.04
204.54	-38.49
204.927	7.84
205.313	42.19
205.699	20.21
206.086	4.54
206.472	-20.55
206.858	-16.93
207.245	6.84
207.631	-4.98
208.017	21.5
208.403	6.84
208.789	13.21
209.175	-32.48
209.561	-39.99
209.947	-79.92
210.333	15.79
210.719	-0.48
211.105	-52.63
211.491	2.57
211.876	4.44
212.262	-7.93
212.648	-24.13
213.034	30.45
213.419	-1.64
213.805	6.37
214.19	-47.5
214.576	-24.96
214.961	19.65
215.346	14.7
215.732	23.02
216.117	-19.5
216.502	8.53
216.888	-3.81
217.273	-5.5
217.658	-35.1
218.043	-11.84
218.428	10.47
218.813	-9.86
219.198	-11.97
219.583	-19.6
219.968	-12.62
220.353	-26.32
220.738	-46.91
221.122	16.45
221.507	6.15
221.892	-17.38
222.276	6.24
222.661	5.19
223.046	1.57
223.43	-8.93
223.815	-7.87
224.199	5.11
224.583	-1.39
224.968	-0.78
225.352	0.25
225.736	-9.31
226.121	-6.31
226.505	-0.42
226.889	3.06
227.273	-7.54
227.657	-2.11
228.041	4.14
228.425	3.54
228.809	6.44
229.193	2.97
229.577	0.08
229.961	3.37
230.344	3.72
230.728	3.78
231.112	2.66
231.495	2.75
231.879	3.68
232.263	3.2
232.646	2.19
233.03	2.48
233.413	1.09
233.797	0.81
234.18	-0.31
234.563	1.95
234.946	1.94
235.33	3
235.713	2.41
236.096	2.55
236.479	1.22
236.862	3.87
237.245	1.51
237.628	1.91
238.011	2.87
238.394	3.77
238.777	4.7
239.16	2.78
239.543	0.04
239.925	1.85
240.308	4.13
240.691	1.86
241.073	0.9
241.456	1.21
241.838	3.4
242.221	3.18
242.603	2.56
242.986	2.55
243.368	2.99
243.75	3.12
244.133	3.03
244.515	3.06
244.897	2.63
245.279	2.33
245.661	2.82
246.043	3.34
246.425	2.88
246.807	3.65
247.189	2.48
247.571	3.34
247.953	2.67
248.335	2.82
248.717	2.53
249.098	2.6
249.48	2.77
249.862	2.77
250.243	2.67
250.625	2.37
251.006	2.65
251.388	2.66
251.769	3.14
252.151	3.32
252.532	2.01
252.913	2.28
253.295	2.9
253.676	2.36
254.057	2.42
254.438	2.42
254.819	2.77
255.2	1.93
255.581	2.8
255.962	2.81
256.343	1.73
256.724	2.88
257.105	2.09
257.486	2.74
257.867	3.63
258.247	3.15
258.628	2.82
259.009	2.67
259.389	3.25
259.77	3.45
260.15	2.99
260.531	2.46
260.911	2.26
261.292	2.58
261.672	2.45
262.052	2.59
262.432	2.7
262.813	2.45
263.193	2
263.573	2.35
263.953	2.34
264.333	2.74
264.713	2.74
265.093	2.65
265.473	3.01
265.853	1.39
266.233	2.73
266.612	2.83
266.992	2.57
267.372	1.73
267.752	2.56
268.131	2.74
268.511	2.33
268.89	2.63
269.27	2.12
269.649	2.29
270.029	2.42
270.408	3.22
270.787	2.63
271.167	1.83
271.546	2.85
271.925	2.03
272.304	2.47
272.683	2.23
273.062	2.55
273.441	2.81
273.82	2.27
274.199	2.26
274.578	2.2
274.957	2
275.336	2.22
275.715	2.31
276.093	2.65
276.472	2
276.851	1.89
277.229	2.62
277.608	2.3
277.986	2.61
278.365	2.58
278.743	2.44
279.122	2.5
279.5	2.31
279.878	2.08
280.257	2.2
280.635	2.34
281.013	1.95
281.391	2.07
281.769	2.17
282.147	2.18
282.525	2.66
282.903	2.37
283.281	2.95
283.659	2.39
284.037	2.15
284.415	2.55
284.792	2.46
285.17	2.12
285.548	2.8
285.925	2.45
286.303	2.3
286.68	2.59
287.058	2.33
287.435	2.21
287.813	2.31
288.19	2.47
288.567	2.16
288.945	2.05
289.322	2.41
289.699	2.56
290.076	2.59
290.453	1.63
290.83	1.51
291.207	2.03
291.584	2.27
291.961	2.14
292.338	2.54
292.715	2.32
293.092	2.67
293.469	2.34
293.845	2.37
294.222	2.19
294.599	2.02
294.975	1.95
295.352	2.19
295.728	2.22
296.105	2.19
296.481	2.32
296.858	2.28
297.234	2.78
297.61	2.44
297.986	2.16
298.363	1.88
298.739	2.11
299.115	2.14
299.491	2.04
299.867	2.15
300.243	2.2
300.619	2.17
300.995	2.21
301.371	2.57
301.746	2.3
302.122	2.52
302.498	2.12
302.874	2.57
303.249	1.96
303.625	2.04
304	2.4
304.376	1.94
304.751	2.14
305.127	1.9
305.502	2.25
305.878	2.2
306.253	2.32
306.628	1.98
307.003	2.07
307.378	2.27
307.754	1.84
308.129	1.55
308.504	2.05
308.879	2
309.254	2.23
309.629	2.09
310.003	2.18
310.378	2.04
310.753	2.17
311.128	2.06
311.502	1.7
311.877	2.13
312.252	2
312.626	2.05
313.001	1.87
313.375	2.18
313.75	1.95
314.124	1.88
314.498	2.22
314.873	2.04
315.247	2.22
315.621	2.25
315.995	2.12
316.369	1.76
316.743	2.37
317.117	2.15
317.491	1.93
317.865	2.14
318.239	2.04
318.613	2.16
318.987	2.38
319.361	1.83
319.734	2.37
320.108	2.33
320.482	1.36
320.855	2.08
321.229	2.25
321.602	2.27
321.976	2.29
322.349	2.65
322.723	2.15
323.096	2.36
323.469	1.74
323.843	1.96
324.216	2.35
324.589	2.04
324.962	2.5
325.335	2.2
325.708	1.78
326.081	2.07
326.454	2.14
326.827	1.95
327.2	1.79
327.573	1.75
327.945	2.32
328.318	1.83
328.691	2.21
329.063	2.36
329.436	1.89
329.809	1.83
330.181	2.36
330.553	1.76
330.926	2.16
331.298	2.24
331.671	1.92
332.043	2.14
332.415	1.98
332.787	1.95
333.159	2.02
333.532	1.75
333.904	2.62
334.276	1.99
334.648	2.3
335.02	1.68
335.391	2.25
335.763	1.89
336.135	1.96
336.507	2.41
336.879	1.95
337.25	2.45
337.622	2.16
337.993	2.48
338.365	1.79
338.736	2.39
339.108	2.93
339.479	1.97
339.851	1.86
340.222	1.59
340.593	2.31
340.964	2.04
341.336	1.99
341.707	1.69
342.078	1.84
342.449	2.04
342.82	1.87
343.191	2.06
343.562	2.04
343.933	2.24
344.303	1.79
344.674	2.27
345.045	2.26
345.416	1.96
345.786	2.18
346.157	1.99
346.527	2.42
346.898	2.31
347.268	2.41
347.639	2.01
348.009	2.61
348.38	1.89
348.75	2.17
349.12	1.73
349.49	2.19
349.861	1.69
350.231	2.29
350.601	2.27
350.971	1.84
351.341	2.59
351.711	1.84
352.081	2.4
352.45	2.12
352.82	2.01
353.19	2.11
353.56	2.13
353.929	1.95
354.299	2.29
354.669	1.96
355.038	2.45
355.408	1.98
355.777	2.18
356.147	1.99
356.516	1.8
356.885	1.94
357.254	2.12
357.624	2.44
357.993	1.89
358.362	1.94
358.731	2.35
359.1	2.1
359.469	2.02
359.838	2.36
360.207	2.04
360.576	2.34
360.945	2.45
361.314	2.34
361.682	1.98
362.051	2.47
362.42	2.3
362.788	2.3
363.157	2.13
363.525	2.18
363.894	2.18
364.262	2.16
364.631	2.34
364.999	2.36
365.367	2.12
365.735	2.21
366.104	2.2
366.472	2.31
366.84	1.77
367.208	2.28
367.576	2.15
367.944	2.45
368.312	2.28
368.68	2.05
369.048	2.29
369.416	2.11
369.783	2
370.151	2.03
370.519	2.47
370.886	2.09
371.254	2.23
371.621	2.31
371.989	2.48
372.356	2.2
372.724	2.33
373.091	2.31
373.458	2.25
373.826	2.45
374.193	2.08
374.56	2.07
374.927	2.35
375.294	2.16
375.661	2.25
376.028	2.31
376.395	2.26
376.762	2.63
377.129	2.45
377.496	2.41
377.863	2.26
378.229	2.22
378.596	2.53
378.963	2.44
379.329	2
379.696	2.28
380.062	2.5
380.429	2.22
380.795	1.93
381.161	2.24
381.528	2.57
381.894	2.05
382.26	2.47
382.626	2.27
382.993	2.65
383.359	2.26
383.725	2.21
384.091	2.45
384.457	2.48
384.823	2.26
385.188	2.64
385.554	2.14
385.92	2.15
386.286	2.02
386.651	2.39
387.017	2.42
387.383	2.49
387.748	2.28
388.114	2.24
388.479	2.89
388.845	2.29
389.21	2.77
389.575	2.66
389.94	2.56
390.306	2.12
390.671	2.5
391.036	2.26
391.401	2.61
391.766	2.2
392.131	2.21
392.496	2.45
392.861	2.36
393.226	2.05
393.591	2.42
393.956	2.84
394.32	2.3
394.685	2.59
395.05	2.86
395.414	2.41
395.779	2.31
396.143	2.49
396.508	2.61
396.872	2.25
397.236	2.73
397.601	2.47
397.965	2.39
398.329	2.53
398.694	2.58
399.058	2.68
399.422	2.59
399.786	2.32
400.15	2.36
400.514	2.54
400.878	2.55
401.242	2.53
401.605	2.26
401.969	2.61
402.333	2.48
402.697	2.42
403.06	2.46
403.424	2.54
403.787	2.52
404.151	2.5
404.514	2.72
404.878	2.36
405.241	2.56
405.604	2.46
405.968	2.23
406.331	2.41
406.694	2.41
407.057	2.46
407.42	2.58
407.783	2.3
408.146	2.46
408.509	2.52
408.872	2.6
409.235	2.48
409.598	2.52
409.961	2.64
410.323	2.28
410.686	2.42
411.049	2.53
411.411	2.53
411.774	2.56
412.136	2.7
412.499	2.65
412.861	2.79
413.223	2.45
413.586	2.46
413.948	2.68
414.31	2.62
414.672	2.6
415.035	2.54
415.397	2.52
415.759	2.94
416.121	2.55
416.483	2.57
416.845	2.62
417.206	2.44
417.568	2.74
417.93	2.64
418.292	2.55
418.653	2.63
419.015	2.5
419.377	2.47
419.738	2.59
420.1	2.66
420.461	2.6
420.822	2.43
421.184	2.62
421.545	2.54
421.906	2.39
422.267	2.52
422.629	2.57
422.99	2.49
423.351	2.39
423.712	2.53
424.073	2.63
424.434	2.53
424.795	2.6
425.155	2.71
425.516	2.55
425.877	2.49
426.238	2.58
426.598	2.53
426.959	2.5
427.32	2.53
427.68	2.5
428.041	2.47
428.401	2.68
428.761	2.61
429.122	2.59
429.482	2.64
429.842	2.41
430.202	2.69
430.563	2.62
430.923	2.68
431.283	2.37
431.643	2.58
432.003	2.88
432.363	2.7
432.722	2.64
433.082	2.72
433.442	2.54
433.802	2.6
434.161	2.62
434.521	2.61
434.881	2.58
435.24	2.47
435.6	2.66
435.959	2.58
436.319	2.68
436.678	2.59
437.037	2.74
437.396	2.81
437.756	2.66
438.115	2.51
438.474	2.65
438.833	2.8
439.192	2.65
439.551	2.62
439.91	2.73
440.269	2.67
440.628	2.77
440.987	2.64
441.345	2.7
441.704	2.67
442.063	2.52
442.421	2.66
442.78	2.66
443.138	2.62
443.497	2.62
443.855	2.55
444.214	2.75
444.572	2.68
444.93	2.63
445.288	2.83
445.647	2.67
446.005	2.62
446.363	2.63
446.721	2.64
447.079	2.68
447.437	2.56
447.795	2.68
448.153	2.55
448.51	2.65
448.868	2.57
449.226	2.57
449.584	2.6
449.941	2.58
450.299	2.68
450.656	2.71
451.014	2.75
451.371	2.85
451.729	2.73
452.086	2.73
452.443	2.65
452.801	2.85
453.158	2.76
453.515	2.82
453.872	2.68
454.229	2.66
454.586	2.71
454.943	2.81
455.3	2.61
455.657	2.6
456.014	2.54
456.371	2.62
456.727	2.86
457.084	2.83
457.441	2.69
457.797	2.65
458.154	2.72
458.51	2.81
458.867	2.56
459.223	2.62
459.58	2.95
459.936	2.52
460.292	2.7
460.648	2.76
461.005	2.65
461.361	2.7
461.717	2.66
462.073	2.69
462.429	2.72
462.785	2.63
463.141	2.72
463.496	2.65
463.852	2.71
464.208	2.76
464.564	2.6
464.919	2.83
465.275	2.76
465.631	2.94
465.986	2.84
466.342	2.71
466.697	2.66
467.052	2.61
467.408	2.79
467.763	2.8
468.118	2.75
468.473	2.69
468.829	2.68
469.184	2.79
469.539	2.61
469.894	2.86
470.249	2.77
470.603	2.8
470.958	2.59
471.313	2.62
471.668	2.59
472.023	2.64
472.377	2.78
472.732	2.8
473.086	2.72
473.441	2.8
473.795	2.64
474.15	2.76
474.504	2.73
474.859	2.61
475.213	2.75
475.567	2.71
475.921	2.66
476.275	2.74
476.63	2.79
476.984	2.68
477.338	2.83
477.692	2.79
478.045	2.78
478.399	2.63
478.753	2.7
479.107	2.79
479.461	2.86
479.814	2.9
480.168	2.73
480.521	2.61
480.875	2.83
481.228	2.79
481.582	2.78
481.935	2.75
482.289	2.73
482.642	2.84
482.995	2.75
483.348	2.6
483.701	2.76
484.055	2.69
484.408	2.74
484.761	2.71
485.114	2.57
485.466	2.57
485.819	2.47
486.172	2.5
486.525	2.55
486.878	2.61
487.23	2.73
487.583	2.69
487.936	2.7
488.288	2.68
488.641	2.63
488.993	2.62
489.345	2.54
489.698	2.56
490.05	2.6
490.402	2.63
490.754	2.63
491.107	2.69
491.459	2.73
491.811	2.64
492.163	2.81
492.515	2.75
492.866	2.64
493.218	2.59
493.57	2.57
493.922	2.63
494.274	2.55
494.625	2.7
494.977	2.74
495.328	2.82
495.68	2.77
496.031	2.76
496.383	2.82
496.734	2.72
497.086	2.95
497.437	2.92
497.788	2.8
498.139	2.7
498.49	2.62
498.842	2.8
499.193	2.72
499.544	2.8
499.894	2.64
500.245	2.77
500.596	2.66
500.947	2.66
501.298	2.64
501.648	2.71
501.999	2.98
502.35	2.85
502.7	2.65
503.051	2.79
503.401	2.74
503.752	2.91
504.102	2.84
504.452	2.75
504.803	2.76
505.153	2.77
505.503	2.81
505.853	2.84
506.203	2.72
506.553	2.83
506.903	2.81
507.253	2.9
507.603	2.75
507.953	2.82
508.303	2.76
508.652	2.78
509.002	2.92
509.352	2.82
509.701	2.75
510.051	2.75
510.4	2.78
510.75	2.79
511.099	2.74
511.449	2.75
511.798	2.74
512.147	2.79
512.496	2.74
512.846	2.71
513.195	2.79
513.544	2.8
513.893	2.79
514.242	2.64
514.591	2.7
514.939	2.86
515.288	2.77
515.637	2.71
515.986	2.75
516.334	2.82
516.683	2.86
517.032	2.89
517.38	2.93
517.729	2.82
518.077	2.81
518.426	2.81
518.774	2.82
519.122	2.63
519.47	2.73
519.819	2.71
520.167	2.79
520.515	2.73
520.863	2.6
521.211	2.66
521.559	2.74
521.907	2.79
522.255	2.77
522.602	2.8
522.95	2.78
523.298	2.77
523.645	2.87
523.993	2.9
524.341	2.82
524.688	2.84
525.036	2.76
525.383	2.79
525.73	2.83
526.078	2.83
526.425	2.84
526.772	2.71
527.119	2.7
527.466	2.73
527.814	2.66
528.161	2.63
528.508	2.73
528.854	2.73
529.201	2.71
529.548	2.68
529.895	2.62
530.242	2.54
530.588	2.51
530.935	2.6
531.282	2.6
531.628	2.59
531.975	2.68
532.321	2.74
532.667	2.81
533.014	2.69
533.36	2.74
533.706	2.73
534.052	2.71
534.399	2.75
534.745	2.7
535.091	2.65
535.437	2.64
535.783	2.63
536.129	2.73
536.474	2.78
536.82	2.69
537.166	2.73
537.512	2.77
537.857	2.72
538.203	2.63
538.549	2.61
538.894	2.73
539.239	2.77
539.585	2.66
539.93	2.78
540.276	2.78
540.621	2.71
540.966	2.84
541.311	2.84
541.656	2.79
542.001	2.83
542.346	2.68
542.691	2.7
543.036	2.6
543.381	2.6
543.726	2.58
544.071	2.66
544.415	2.66
544.76	2.73
545.105	2.69
545.449	2.76
545.794	2.72
546.138	2.74
546.483	2.77
546.827	2.76
547.171	2.8
547.516	2.7
547.86	2.74
548.204	2.75
548.548	2.69
548.892	2.69
549.236	2.76
549.58	2.69
549.924	2.9
550.268	2.91
550.612	2.79
550.956	2.8
551.3	2.92
551.643	2.86
551.987	2.78
552.33	2.69
552.674	2.72
553.017	2.91
553.361	2.89
553.704	2.76
554.048	2.74
554.391	2.59
554.734	2.8
555.077	2.75
555.42	2.74
555.764	2.99
556.107	2.7
556.45	2.83
556.793	2.88
557.135	2.75
557.478	2.72
557.821	2.88
558.164	2.89
558.507	2.92
558.849	2.92
559.192	3
559.534	2.67
559.877	2.79
560.219	2.9
560.562	2.84
560.904	2.99
561.246	2.63
561.589	2.91
561.931	2.72
562.273	2.83
562.615	2.66
562.957	2.74
563.299	2.61
563.641	2.78
563.983	2.74
564.325	2.68
564.667	2.78
565.008	2.8
565.35	2.84
565.692	2.93
566.033	2.98
566.375	2.59
566.716	2.85
567.058	2.93
567.399	2.77
567.741	2.79
568.082	2.78
568.423	2.76
568.764	2.68
569.105	2.75
569.447	2.87
569.788	2.7
570.129	2.74
570.47	2.95
570.811	2.81
571.151	2.81
571.492	2.88
571.833	2.94
572.174	2.98
572.514	2.76
572.855	2.59
573.195	2.71
573.536	2.81
573.876	2.75
574.217	2.63
574.557	2.71
574.898	2.86
575.238	2.75
575.578	2.95
575.918	2.91
576.258	2.83
576.598	2.92
576.938	2.85
577.278	2.74
577.618	2.65
577.958	2.81
578.298	2.83
578.638	2.87
578.977	2.96
579.317	3
579.657	2.88
579.996	2.7
580.336	2.72
580.675	2.77
581.014	2.91
581.354	2.88
581.693	3.01
582.032	2.73
582.372	2.89
582.711	2.86
583.05	2.88
583.389	2.85
583.728	2.91
584.067	2.87
584.406	2.62
584.745	3.03
585.083	2.57
585.422	2.78
585.761	2.83
586.1	2.73
586.438	2.61
586.777	2.89
587.115	2.74
587.454	3.03
587.792	3.21
588.13	2.97
588.469	3.05
588.807	3.04
589.145	2.83
589.483	2.58
589.821	2.88
590.159	2.79
590.497	2.9
590.835	2.76
591.173	2.65
591.511	2.91
591.849	2.97
592.187	2.94
592.524	2.76
592.862	2.88
593.2	2.84
593.537	2.75
593.875	2.9
594.212	2.77
594.55	2.81
594.887	2.95
595.224	2.89
595.561	2.53
595.899	3.01
596.236	2.88
596.573	3
596.91	2.83
597.247	2.83
597.584	2.62
597.921	2.99
598.258	2.76
598.594	2.44
598.931	2.69
599.268	2.87
599.604	2.67
599.941	2.75
600.277	2.85
600.614	2.86
600.95	2.96
601.287	2.56
601.623	2.79
601.959	2.77
602.296	2.8
602.632	3.01
602.968	2.82
603.304	2.93
603.64	2.8
603.976	2.45
604.312	2.91
604.648	2.81
604.984	2.65
605.319	2.81
605.655	2.66
605.991	2.83
606.326	2.66
606.662	2.75
606.998	2.58
607.333	2.53
607.668	2.8
608.004	2.83
608.339	2.7
608.674	2.85
609.01	2.92
609.345	2.75
609.68	3.13
610.015	2.89
610.35	2.86
610.685	2.93
611.02	2.8
611.355	2.82
611.689	2.68
612.024	2.74
612.359	2.73
612.694	2.79
613.028	2.94
613.363	3.09
613.697	2.79
614.032	2.96
614.366	2.65
614.7	2.89
615.035	2.77
615.369	2.88
615.703	3.16
616.037	2.77
616.371	2.74
616.705	2.68
617.039	3.21
617.373	2.72
617.707	2.98
618.041	3.17
618.375	2.79
618.709	2.8
619.042	2.87
619.376	3.02
619.71	2.82
620.043	3.1
620.377	3.25
620.71	2.74
621.043	2.59
621.377	2.55
621.71	3.03
622.043	3.3
622.376	2.97
622.709	2.96
623.043	3.04
623.376	3.32
623.709	2.7
624.041	2.83
624.374	2.74
624.707	2.51
625.04	2.72
625.373	3.18
625.705	2.79
626.038	2.55
626.37	2.6
626.703	2.89
627.035	2.81
627.368	2.78
627.7	2.75
628.032	2.7
628.365	3.2
628.697	2.65
629.029	2.73
629.361	2.56
629.693	2.89
630.025	3.02
630.357	2.85
630.689	2.84
631.021	2.84
631.353	2.6
631.684	2.74
632.016	2.74
632.348	2.92
632.679	2.95
633.011	2.86
633.342	2.95
633.674	2.56
634.005	2.98
634.336	2.97
634.668	2.73
634.999	2.98
635.33	2.65
635.661	3.09
635.992	2.85
636.323	2.8
636.654	2.54
636.985	2.66
637.316	2.86
637.647	2.71
637.977	3.14
638.308	2.79
638.639	2.83
638.969	2.62
639.3	2.81
639.63	2.53
639.961	3.13
640.291	2.72
640.622	2.99
640.952	2.8
641.282	2.44
641.612	2.7
641.943	2.88
642.273	2.45
642.603	2.97
642.933	2.65
643.263	2.76
643.592	2.82
643.922	3.17
644.252	2.91
644.582	2.97
644.911	2.83
645.241	2.91
645.571	2.66
645.9	2.9
646.23	2.63
646.559	3.26
646.888	2.83
647.218	2.89
647.547	2.82
647.876	3.01
648.205	2.32
648.534	2.92
648.863	2.84
649.192	3.03
649.521	2.56
649.85	3.12
650.179	2.72
650.508	2.66
650.837	2.85
651.165	3.4
651.494	2.69
651.822	3.25
652.151	2.92
652.479	2.52
652.808	2.5
653.136	2.72
653.465	3.15
653.793	3.16
654.121	2.87
654.449	2.35
654.777	2.23
655.105	2.74
655.433	2.53
655.761	2.84
656.089	2.73
656.417	2.33
656.745	2.63
657.073	2.51
657.4	2.68
657.728	2.68
658.056	2.79
658.383	3.1
658.711	2.86
659.038	3.05
659.365	3.56
659.693	3.21
660.02	3.17
660.347	2.97
660.674	2.83
661.001	2.82
661.329	3.04
661.656	2.93
661.982	2.67
662.309	2.57
662.636	3.03
662.963	2.62
663.29	2.58
663.616	3.47
663.943	3.16
664.27	3.2
664.596	2.74
664.923	2.78
665.249	3.4
665.576	2.8
665.902	2.36
666.228	2.36
666.554	3.7
666.881	2.72
667.207	2.62
667.533	2.82
667.859	2.63
668.185	2.68
668.511	3.06
668.837	2.74
669.162	3.35
669.488	2.41
669.814	2.91
670.139	2.96
670.465	3.39
670.791	2.46
671.116	2.29
671.442	2.99
671.767	3.07
672.092	3.23
672.418	2.88
672.743	3.43
673.068	2.87
673.393	3.26
673.718	3.08
674.043	2.71
674.368	2.55
674.693	3.16
675.018	2.65
675.343	2.91
675.667	3.34
675.992	2.74
676.317	3.08
676.641	3.01
676.966	2.72
677.29	2.89
677.615	2.7
677.939	2.82
678.264	3.32
678.588	2.81
678.912	3.43
679.236	2.71
679.56	3.33
679.885	2.81
680.209	2.98
680.532	2.78
680.856	2.55
681.18	2.74
681.504	2.68
681.828	2.84
682.152	2.86
682.475	3.07
682.799	3.13
683.122	2.86
683.446	3.03
683.769	2.67
684.093	3.12
684.416	2.52
684.739	3.13
685.062	3.49
685.386	2.81
685.709	2.86
686.032	2.8
686.355	4.24
686.678	3.38
687.001	2.38
687.324	2.62
687.646	3.31
687.969	3.03
688.292	2.97
688.614	3.3
688.937	2.7
689.26	2.92
689.582	3.07
689.904	3.39
690.227	2.53
690.549	3.3
690.871	2.93
691.194	2.96
691.516	3.23
691.838	2.97
692.16	3.01
692.482	2.44
