Data from 0039_forehead_Reflection__3__88.txt Node

Date: Fri Nov 04 15:28:16 CDT 2022
User: ToomeyLab
Spectrometer: FLMS14357
Trigger mode: 0
Integration Time (sec): 1.000000E-2
Scans to average: 100
Electric dark correction enabled: true
Nonlinearity correction enabled: false
Boxcar width: 0
XAxis mode: Wavelengths
Number of Pixels in Spectrum: 2048
>>>>>Begin Spectral Data<<<<<
189.047	58.26
189.435	58.26
189.823	58.26
190.211	-1177.22
190.599	26.11
190.987	3.04
191.375	273.27
191.763	90.72
192.151	46.03
192.538	-1229.13
192.926	123.69
193.314	288.08
193.702	76.77
194.089	54.92
194.477	108.66
194.864	818.78
195.252	64.53
195.639	-24.61
196.027	107.86
196.414	-194.61
196.801	210.92
197.189	-32.96
197.576	47.03
197.963	-414.14
198.351	-44.1
198.738	16.07
199.125	39.37
199.512	-6.44
199.899	18.78
200.286	3.04
200.673	2.61
201.06	-1.14
201.447	7.51
201.833	38.56
202.22	-0.33
202.607	30.22
202.994	36.21
203.38	37.68
203.767	12.22
204.154	45.9
204.54	-12.27
204.927	-1.67
205.313	19.51
205.699	47.23
206.086	36.66
206.472	-8.15
206.858	35.87
207.245	28.35
207.631	2.73
208.017	1.1
208.403	-8.84
208.789	33.3
209.175	30.64
209.561	-39.81
209.947	-89.05
210.333	39.17
210.719	14.65
211.105	-4.15
211.491	25.33
211.876	3.2
212.262	-16.56
212.648	11.86
213.034	43.72
213.419	1.9
213.805	-15
214.19	-48.85
214.576	-11.89
214.961	1.52
215.346	1.99
215.732	18.36
216.117	0.31
216.502	14.89
216.888	31.51
217.273	13.18
217.658	14.36
218.043	15.29
218.428	21.9
218.813	1.07
219.198	10.11
219.583	-1.91
219.968	18.15
220.353	-13.26
220.738	-22.89
221.122	0.56
221.507	3.87
221.892	-3.92
222.276	4.4
222.661	0.27
223.046	0.78
223.43	8.16
223.815	-7.17
224.199	11.71
224.583	-1.55
224.968	2.4
225.352	8.11
225.736	-0.59
226.121	-4.68
226.505	12.85
226.889	4.13
227.273	1.69
227.657	2.01
228.041	4.37
228.425	2.88
228.809	4.26
229.193	5.11
229.577	1.25
229.961	4.02
230.344	3.78
230.728	3.64
231.112	2.89
231.495	3.38
231.879	3.62
232.263	3.43
232.646	2.35
233.03	1.94
233.413	1.05
233.797	3.95
234.18	3.07
234.563	4.4
234.946	2.85
235.33	5.54
235.713	2.68
236.096	3.65
236.479	3.98
236.862	3.88
237.245	2.99
237.628	3.89
238.011	2.38
238.394	4.19
238.777	5.22
239.16	3.19
239.543	2.23
239.925	4.81
240.308	4.65
240.691	3.97
241.073	4.88
241.456	4.82
241.838	3.06
242.221	3.65
242.603	3.39
242.986	3.27
243.368	3.71
243.75	3.52
244.133	3.88
244.515	3.66
244.897	3.8
245.279	3.96
245.661	4.03
246.043	3.96
246.425	3.28
246.807	4.8
247.189	3.67
247.571	3.88
247.953	3.87
248.335	3.51
248.717	3.47
249.098	3.45
249.48	3.64
249.862	3.77
250.243	3.78
250.625	3.39
251.006	3.32
251.388	4.23
251.769	4.34
252.151	4.65
252.532	4.43
252.913	3.64
253.295	3.63
253.676	3.36
254.057	3.34
254.438	3.44
254.819	3.8
255.2	3.95
255.581	4.3
255.962	4.46
256.343	4.16
256.724	3.87
257.105	3.82
257.486	3.95
257.867	5.76
258.247	4.54
258.628	3.79
259.009	3.27
259.389	4.04
259.77	3.74
260.15	3.47
260.531	3.62
260.911	2.97
261.292	3.33
261.672	3.47
262.052	3.32
262.432	3.69
262.813	3.7
263.193	3.45
263.573	3.88
263.953	3.77
264.333	4.06
264.713	4.05
265.093	3.42
265.473	4.13
265.853	3.07
266.233	3.2
266.612	4.05
266.992	4.38
267.372	3.35
267.752	3.72
268.131	3.49
268.511	3.8
268.89	4.27
269.27	3.56
269.649	3.83
270.029	3.13
270.408	3.29
270.787	4.2
271.167	3.76
271.546	4.4
271.925	3.38
272.304	3.49
272.683	3.21
273.062	3.33
273.441	3.84
273.82	3.23
274.199	3.51
274.578	3.11
274.957	3.4
275.336	3.04
275.715	3.24
276.093	3.27
276.472	3.43
276.851	2.94
277.229	3.33
277.608	2.98
277.986	3.92
278.365	3.83
278.743	3.35
279.122	3.44
279.5	3.51
279.878	3.82
280.257	3.67
280.635	3.18
281.013	3.22
281.391	3.5
281.769	3.46
282.147	3.32
282.525	3.7
282.903	3.37
283.281	3.77
283.659	3.31
284.037	3.41
284.415	3.35
284.792	3.83
285.17	3.44
285.548	3.84
285.925	3.72
286.303	3.81
286.68	3.85
287.058	3.38
287.435	3.54
287.813	3.71
288.19	3.6
288.567	3.55
288.945	3.82
289.322	3.69
289.699	3.61
290.076	3.69
290.453	3.43
290.83	3.42
291.207	3.54
291.584	4.04
291.961	3.94
292.338	3.94
292.715	3.92
293.092	4.38
293.469	4
293.845	3.52
294.222	3.85
294.599	3.73
294.975	4.1
295.352	4.22
295.728	3.72
296.105	4.04
296.481	4.16
296.858	3.98
297.234	4.48
297.61	4.15
297.986	4.27
298.363	4.08
298.739	3.92
299.115	4.53
299.491	4.19
299.867	4.45
300.243	4.48
300.619	4.56
300.995	4.55
301.371	4.64
301.746	4.27
302.122	4.69
302.498	4.43
302.874	4.84
303.249	4.67
303.625	4.62
304	4.71
304.376	4.89
304.751	4.99
305.127	4.64
305.502	4.47
305.878	4.99
306.253	5.04
306.628	5.07
307.003	4.66
307.378	5.48
307.754	5.05
308.129	4.22
308.504	4.81
308.879	5.12
309.254	5.44
309.629	5.25
310.003	5.35
310.378	5.35
310.753	5.77
311.128	5.4
311.502	5.27
311.877	5.25
312.252	4.95
312.626	5.62
313.001	5.54
313.375	5.22
313.75	5.38
314.124	5.55
314.498	5.87
314.873	5.76
315.247	6.16
315.621	5.93
315.995	6.26
316.369	6.33
316.743	6.16
317.117	6.26
317.491	6.48
317.865	5.73
318.239	6.38
318.613	7.09
318.987	6.2
319.361	6.38
319.734	6.32
320.108	7
320.482	5.68
320.855	6.39
321.229	6.06
321.602	6.35
321.976	6.66
322.349	6.99
322.723	6.95
323.096	6.64
323.469	6.24
323.843	6.69
324.216	7.15
324.589	6.75
324.962	7.1
325.335	6.84
325.708	6.7
326.081	6.79
326.454	6.84
326.827	7.41
327.2	6.48
327.573	6.91
327.945	7.67
328.318	6.78
328.691	6.98
329.063	7.08
329.436	7.59
329.809	6.87
330.181	7.2
330.553	7.33
330.926	7.57
331.298	7.78
331.671	7.25
332.043	7.47
332.415	7.27
332.787	7.74
333.159	7.18
333.532	6.87
333.904	7.81
334.276	7.7
334.648	7.61
335.02	7.31
335.391	7.68
335.763	8.15
336.135	7.85
336.507	7.93
336.879	7.69
337.25	8.27
337.622	8.07
337.993	8.06
338.365	8.28
338.736	8.65
339.108	8.56
339.479	8.42
339.851	7.86
340.222	8.04
340.593	8.04
340.964	8.54
341.336	8.19
341.707	7.9
342.078	8.41
342.449	8.39
342.82	8.46
343.191	8.05
343.562	8.7
343.933	8.77
344.303	8.86
344.674	8.56
345.045	8.51
345.416	8.34
345.786	8.87
346.157	8.7
346.527	9
346.898	8.84
347.268	8.96
347.639	8.79
348.009	8.98
348.38	8.9
348.75	8.79
349.12	8.46
349.49	8.86
349.861	9.03
350.231	9.69
350.601	9.19
350.971	9.13
351.341	9.03
351.711	9.18
352.081	9.39
352.45	9.43
352.82	9.01
353.19	9.7
353.56	9.71
353.929	9.45
354.299	9.84
354.669	9.66
355.038	9.78
355.408	9.58
355.777	9.95
356.147	9.53
356.516	9.34
356.885	9.42
357.254	9.76
357.624	10.15
357.993	9.67
358.362	9.61
358.731	9.81
359.1	10
359.469	9.94
359.838	9.97
360.207	9.78
360.576	10.06
360.945	10.22
361.314	10.2
361.682	10
362.051	10.06
362.42	10.17
362.788	9.91
363.157	10.03
363.525	10.02
363.894	10.06
364.262	9.97
364.631	10.2
364.999	10.24
365.367	10.13
365.735	10.44
366.104	10.27
366.472	10.82
366.84	10.27
367.208	10.63
367.576	10.68
367.944	10.68
368.312	10.94
368.68	10.68
369.048	11.06
369.416	10.75
369.783	10.56
370.151	10.71
370.519	11.49
370.886	10.95
371.254	11.15
371.621	11.35
371.989	11.23
372.356	11.28
372.724	11.29
373.091	11.12
373.458	11.31
373.826	11.12
374.193	11.16
374.56	11.04
374.927	11.78
375.294	11.63
375.661	12.06
376.028	11.31
376.395	11.85
376.762	11.71
377.129	11.65
377.496	11.79
377.863	11.67
378.229	11.6
378.596	11.49
378.963	11.81
379.329	11.7
379.696	11.62
380.062	12.02
380.429	12.04
380.795	11.96
381.161	12.16
381.528	12.14
381.894	12.06
382.26	12.08
382.626	11.84
382.993	12.31
383.359	12.38
383.725	12.18
384.091	12.37
384.457	12.59
384.823	12.52
385.188	12.63
385.554	12.62
385.92	12.25
386.286	12.34
386.651	12.83
387.017	12.46
387.383	12.59
387.748	12.72
388.114	12.74
388.479	13.12
388.845	13
389.21	13.16
389.575	13.18
389.94	13.11
390.306	12.97
390.671	13.07
391.036	12.96
391.401	13.22
391.766	13.02
392.131	13.24
392.496	13.31
392.861	13.24
393.226	13.31
393.591	13.12
393.956	13.43
394.32	13.24
394.685	13.29
395.05	13.59
395.414	13.58
395.779	13.54
396.143	13.3
396.508	13.52
396.872	13.56
397.236	13.46
397.601	13.58
397.965	13.82
398.329	13.65
398.694	14.04
399.058	14.11
399.422	13.99
399.786	13.89
400.15	13.68
400.514	13.87
400.878	14
401.242	14.28
401.605	14.06
401.969	14.27
402.333	14.26
402.697	14.33
403.06	14.58
403.424	14.3
403.787	14.6
404.151	14.42
404.514	14.44
404.878	14.55
405.241	14.59
405.604	14.5
405.968	14.06
406.331	14.35
406.694	14.54
407.057	14.61
407.42	14.33
407.783	14.35
408.146	14.66
408.509	14.72
408.872	14.65
409.235	14.66
409.598	14.82
409.961	14.93
410.323	15.02
410.686	15.02
411.049	15.01
411.411	14.86
411.774	14.97
412.136	15.07
412.499	15.22
412.861	14.94
413.223	15.17
413.586	15.2
413.948	15.44
414.31	15.16
414.672	15.39
415.035	15.48
415.397	15.33
415.759	15.79
416.121	15.56
416.483	15.42
416.845	15.54
417.206	15.5
417.568	15.59
417.93	15.62
418.292	15.57
418.653	15.71
419.015	15.48
419.377	15.59
419.738	15.47
420.1	15.69
420.461	15.59
420.822	15.47
421.184	15.77
421.545	15.47
421.906	15.61
422.267	15.77
422.629	15.6
422.99	15.53
423.351	15.57
423.712	15.6
424.073	15.84
424.434	15.87
424.795	16.01
425.155	16.08
425.516	15.96
425.877	15.88
426.238	15.87
426.598	16.06
426.959	15.98
427.32	16.08
427.68	16.3
428.041	16.46
428.401	16.54
428.761	16.63
429.122	16.75
429.482	16.99
429.842	16.65
430.202	17.09
430.563	17.02
430.923	17.12
431.283	17.23
431.643	17.08
432.003	17.19
432.363	17.4
432.722	17.28
433.082	17.27
433.442	17.04
433.802	17.23
434.161	17.22
434.521	17.17
434.881	17.28
435.24	17.15
435.6	17.24
435.959	17.27
436.319	17.38
436.678	17.56
437.037	17.5
437.396	17.59
437.756	17.9
438.115	17.69
438.474	17.9
438.833	17.8
439.192	17.85
439.551	17.9
439.91	18.03
440.269	18.02
440.628	17.94
440.987	17.96
441.345	17.85
441.704	17.94
442.063	17.76
442.421	17.82
442.78	17.95
443.138	17.93
443.497	17.97
443.855	18.24
444.214	18.51
444.572	18.31
444.93	18.32
445.288	18.58
445.647	18.67
446.005	18.52
446.363	18.52
446.721	18.42
447.079	18.43
447.437	18.34
447.795	18.33
448.153	18.11
448.51	18.26
448.868	18.31
449.226	18.47
449.584	18.61
449.941	18.54
450.299	18.83
450.656	18.86
451.014	19.19
451.371	19.38
451.729	19.25
452.086	19.28
452.443	19.38
452.801	19.45
453.158	19.64
453.515	19.55
453.872	19.53
454.229	19.47
454.586	19.53
454.943	19.5
455.3	19.6
455.657	19.56
456.014	19.67
456.371	19.63
456.727	19.72
457.084	19.74
457.441	19.89
457.797	19.77
458.154	19.94
458.51	20.27
458.867	20.08
459.223	20.17
459.58	20.26
459.936	20.18
460.292	20.04
460.648	20.01
461.005	20.03
461.361	19.99
461.717	19.78
462.073	19.87
462.429	20.04
462.785	20.14
463.141	20.4
463.496	20.49
463.852	20.49
464.208	20.61
464.564	20.71
464.919	21.18
465.275	21.02
465.631	21.18
465.986	21.12
466.342	21.08
466.697	21.1
467.052	21.14
467.408	21.03
467.763	21.25
468.118	21.21
468.473	21.24
468.829	20.86
469.184	21.24
469.539	21.28
469.894	21.57
470.249	21.47
470.603	21.48
470.958	21.27
471.313	21.39
471.668	21.57
472.023	21.54
472.377	21.9
472.732	21.69
473.086	21.72
473.441	21.89
473.795	21.96
474.15	22.03
474.504	21.86
474.859	22.03
475.213	22.02
475.567	22.07
475.921	22.05
476.275	22.27
476.63	22.25
476.984	22.22
477.338	22.28
477.692	22.47
478.045	22.41
478.399	22.5
478.753	22.61
479.107	22.35
479.461	22.44
479.814	22.67
480.168	22.6
480.521	22.52
480.875	22.71
481.228	22.76
481.582	23
481.935	22.68
482.289	22.78
482.642	22.8
482.995	22.84
483.348	22.76
483.701	22.64
484.055	22.57
484.408	22.72
484.761	22.59
485.114	22.18
485.466	22
485.819	21.72
486.172	21.84
486.525	21.92
486.878	22.29
487.23	22.52
487.583	22.67
487.936	22.88
488.288	22.93
488.641	22.73
488.993	22.54
489.345	22.48
489.698	22.48
490.05	22.57
490.402	22.69
490.754	22.88
491.107	23.12
491.459	23.42
491.811	23.42
492.163	23.85
492.515	23.73
492.866	23.58
493.218	23.23
493.57	23.07
493.922	23.13
494.274	23.22
494.625	23.54
494.977	23.93
495.328	24.18
495.68	24.17
496.031	24.54
496.383	24.66
496.734	24.77
497.086	24.88
497.437	24.85
497.788	24.93
498.139	24.68
498.49	24.4
498.842	24.43
499.193	24.68
499.544	24.66
499.894	24.67
500.245	24.86
500.596	24.98
500.947	25.02
501.298	25.02
501.648	25.27
501.999	25.33
502.35	25.35
502.7	25.41
503.051	25.53
503.401	25.46
503.752	25.81
504.102	25.54
504.452	25.79
504.803	25.85
505.153	25.8
505.503	25.7
505.853	25.83
506.203	25.81
506.553	25.91
506.903	25.89
507.253	25.95
507.603	25.93
507.953	26.19
508.303	26.18
508.652	26.08
509.002	26.11
509.352	26.19
509.701	26.11
510.051	26.08
510.4	26.06
510.75	26.09
511.099	26.11
511.449	26.08
511.798	26.13
512.147	26.39
512.496	26.48
512.846	26.49
513.195	26.56
513.544	26.49
513.893	26.49
514.242	26.55
514.591	26.61
514.939	26.79
515.288	26.95
515.637	26.87
515.986	26.97
516.334	27.14
516.683	27.13
517.032	27.27
517.38	27.52
517.729	27.23
518.077	27.6
518.426	27.42
518.774	27.23
519.122	27.34
519.47	27.23
519.819	27.18
520.167	27.06
520.515	26.82
520.863	26.94
521.211	26.97
521.559	27.23
521.907	27.26
522.255	27.43
522.602	27.62
522.95	27.74
523.298	27.87
523.645	27.94
523.993	27.98
524.341	27.98
524.688	28.23
525.036	28.18
525.383	28.18
525.73	28.3
526.078	28.36
526.425	28.21
526.772	28.15
527.119	28
527.466	27.75
527.814	27.78
528.161	27.87
528.508	27.91
528.854	28.02
529.201	28.12
529.548	28.1
529.895	27.84
530.242	27.37
530.588	27.28
530.935	27.39
531.282	27.6
531.628	27.71
531.975	27.95
532.321	28.15
532.667	28.55
533.014	28.76
533.36	28.71
533.706	28.78
534.052	28.82
534.399	28.76
534.745	28.51
535.091	28.27
535.437	28.31
535.783	28.37
536.129	28.7
536.474	28.97
536.82	29.05
537.166	29.31
537.512	29.55
537.857	29.52
538.203	29.41
538.549	29.08
538.894	29.32
539.239	29.42
539.585	29.49
539.93	29.76
540.276	29.94
540.621	30.08
540.966	30.3
541.311	30.27
541.656	30.39
542.001	30.38
542.346	30.08
542.691	29.75
543.036	29.32
543.381	29.27
543.726	29.25
544.071	29.47
544.415	29.66
544.76	29.85
545.105	29.91
545.449	30.08
545.794	30.31
546.138	30.49
546.483	30.65
546.827	30.73
547.171	30.8
547.516	30.83
547.86	30.8
548.204	30.72
548.548	30.84
548.892	30.68
549.236	30.8
549.58	30.95
549.924	31.31
550.268	31.45
550.612	31.77
550.956	31.57
551.3	31.69
551.643	31.77
551.987	31.69
552.33	31.71
552.674	32.03
553.017	32.19
553.361	32.47
553.704	32.18
554.048	31.9
554.391	31.94
554.734	32.01
555.077	31.92
555.42	32.18
555.764	32.32
556.107	32.25
556.45	32.56
556.793	32.27
557.135	32.43
557.478	32.49
557.821	32.76
558.164	32.78
558.507	32.7
558.849	32.95
559.192	33.19
559.534	32.67
559.877	32.83
560.219	33.06
560.562	33.02
560.904	33.17
561.246	33.15
561.589	33.35
561.931	33.18
562.273	33.33
562.615	33.23
562.957	33.54
563.299	33.2
563.641	33.45
563.983	33.41
564.325	33.34
564.667	33.65
565.008	33.54
565.35	33.72
565.692	33.7
566.033	34.06
566.375	33.82
566.716	33.78
567.058	33.93
567.399	33.86
567.741	33.78
568.082	33.54
568.423	33.73
568.764	33.83
569.105	33.74
569.447	34.03
569.788	34.2
570.129	34.37
570.47	34.11
570.811	34.59
571.151	34.37
571.492	34.37
571.833	34.28
572.174	34.45
572.514	34.36
572.855	34.52
573.195	34.68
573.536	34.39
573.876	34.58
574.217	34.15
574.557	34.3
574.898	34.63
575.238	34.79
575.578	34.82
575.918	34.73
576.258	35.14
576.598	34.91
576.938	34.99
577.278	34.71
577.618	34.89
577.958	35.05
578.298	35.18
578.638	35.28
578.977	35.41
579.317	35.49
579.657	35.42
579.996	35.59
580.336	35.63
580.675	35.76
581.014	36.1
581.354	35.93
581.693	36.03
582.032	36.08
582.372	35.8
582.711	36.08
583.05	36.38
583.389	36.14
583.728	36.14
584.067	36.17
584.406	36.07
584.745	36.91
585.083	36.48
585.422	36.48
585.761	36.57
586.1	36.61
586.438	36.45
586.777	36.78
587.115	36.71
587.454	37.17
587.792	36.93
588.13	36.81
588.469	36.99
588.807	37.43
589.145	37.04
589.483	36.82
589.821	37.2
590.159	37.02
590.497	37.32
590.835	37.24
591.173	37.12
591.511	37.39
591.849	37.34
592.187	37.3
592.524	37.32
592.862	37.31
593.2	37.59
593.537	37.44
593.875	37.67
594.212	37.81
594.55	37.97
594.887	38.31
595.224	37.98
595.561	37.48
595.899	37.8
596.236	37.74
596.573	38.1
596.91	37.79
597.247	37.76
597.584	38
597.921	37.93
598.258	38.03
598.594	37.58
598.931	37.81
599.268	37.88
599.604	37.87
599.941	37.93
600.277	38.22
600.614	38.63
600.95	38.56
601.287	38.46
601.623	38.49
601.959	38.9
602.296	38.37
602.632	39.03
602.968	38.79
603.304	39.09
603.64	38.79
603.976	38.73
604.312	39.09
604.648	38.67
604.984	38.96
605.319	38.68
605.655	38.72
605.991	38.64
606.326	38.47
606.662	38.47
606.998	38.56
607.333	38.71
607.668	38.98
608.004	38.97
608.339	39.21
608.674	39.55
609.01	39.53
609.345	39.54
609.68	39.5
610.015	39.55
610.35	39.59
610.685	39.56
611.02	39.52
611.355	39.33
611.689	39.31
612.024	39.39
612.359	39.43
612.694	39.39
613.028	39.7
613.363	40.09
613.697	40
614.032	40.18
614.366	40.14
614.7	40.33
615.035	40.5
615.369	40.57
615.703	40.62
616.037	40.32
616.371	40.88
616.705	40.26
617.039	40.91
617.373	40.89
617.707	40.87
618.041	40.95
618.375	40.9
618.709	41.18
619.042	41
619.376	40.9
619.71	40.91
620.043	41.32
620.377	41.5
620.71	41.02
621.043	40.87
621.377	40.99
621.71	41.55
622.043	41.37
622.376	41.4
622.709	41.21
623.043	41.5
623.376	41.63
623.709	41.48
624.041	41.24
624.374	41.52
624.707	41.62
625.04	42.01
625.373	41.65
625.705	41.85
626.038	41.84
626.37	41.99
626.703	41.83
627.035	41.7
627.368	41.86
627.7	41.89
628.032	41.49
628.365	41.86
628.697	41.73
629.029	41.99
629.361	41.53
629.693	42.11
630.025	42.18
630.357	41.98
630.689	42.12
631.021	42.55
631.353	42.21
631.684	42.58
632.016	42.18
632.348	43.16
632.679	42.51
633.011	42.59
633.342	42.43
633.674	42.59
634.005	42.75
634.336	42.64
634.668	42.7
634.999	42.88
635.33	42.53
635.661	43.1
635.992	42.57
636.323	42.59
636.654	43.17
636.985	42.82
637.316	43.02
637.647	43.21
637.977	43.36
638.308	43.55
638.639	43.15
638.969	43.23
639.3	43.46
639.63	42.91
639.961	43.54
640.291	43.52
640.622	43.7
640.952	43.36
641.282	43.85
641.612	43.73
641.943	43.9
642.273	43.58
642.603	44.05
642.933	43.62
643.263	43.52
643.592	44.22
643.922	44.64
644.252	44.04
644.582	43.73
644.911	43.91
645.241	44.07
645.571	44.27
645.9	44.15
646.23	44.11
646.559	44.6
646.888	43.72
647.218	43.94
647.547	44.61
647.876	44.78
648.205	44.65
648.534	44.46
648.863	44.54
649.192	44.58
649.521	44.64
649.85	45
650.179	44.52
650.508	44.55
650.837	45.36
651.165	44.84
651.494	44.37
651.822	44.46
652.151	44.84
652.479	44.68
652.808	44.68
653.136	44.98
653.465	44.79
653.793	45.69
654.121	45.02
654.449	44.81
654.777	44.98
655.105	45.17
655.433	44.49
655.761	45.25
656.089	45.3
656.417	45.33
656.745	45.51
657.073	45.52
657.4	45.38
657.728	45.29
658.056	45.07
658.383	45.47
658.711	45.83
659.038	45.62
659.365	46.11
659.693	46.14
660.02	45.4
660.347	45.84
660.674	45.26
661.001	45.41
661.329	46.18
661.656	45.62
661.982	45.5
662.309	46
662.636	46.33
662.963	45.83
663.29	46
663.616	45.64
663.943	46.15
664.27	46.15
664.596	46.28
664.923	46.01
665.249	46.18
665.576	46.45
665.902	46.37
666.228	46.48
666.554	47.11
666.881	46.06
667.207	47.05
667.533	47.19
667.859	46.17
668.185	46.01
668.511	47.26
668.837	45.97
669.162	48.25
669.488	46.87
669.814	46.72
670.139	46.59
670.465	47.08
670.791	45.91
671.116	47.28
671.442	46.99
671.767	46.58
