Data from 0039_crown_Reflection__1__81.txt Node

Date: Fri Nov 04 15:26:04 CDT 2022
User: ToomeyLab
Spectrometer: FLMS14357
Trigger mode: 0
Integration Time (sec): 1.000000E-2
Scans to average: 100
Electric dark correction enabled: true
Nonlinearity correction enabled: false
Boxcar width: 0
XAxis mode: Wavelengths
Number of Pixels in Spectrum: 2048
>>>>>Begin Spectral Data<<<<<
189.047	247.71
189.435	247.71
189.823	247.71
190.211	-90.13
190.599	26.93
190.987	-35.63
191.375	359.11
191.763	-67.31
192.151	69.18
192.538	394.82
192.926	28.97
193.314	50.57
193.702	58.44
194.089	128.63
194.477	337.58
194.864	753.59
195.252	52.36
195.639	-1.88
196.027	123.59
196.414	-154.91
196.801	107.25
197.189	-37.97
197.576	4.59
197.963	-463.49
198.351	-31.09
198.738	-7.31
199.125	50.11
199.512	-32.83
199.899	-42.52
200.286	-3.93
200.673	-9.21
201.06	-11.6
201.447	-27.46
201.833	-6.36
202.22	-1.37
202.607	-13.53
202.994	24.79
203.38	29.75
203.767	-29.37
204.154	22.8
204.54	-17.48
204.927	-12.97
205.313	45.7
205.699	10.1
206.086	-4.88
206.472	-33.73
206.858	-8.71
207.245	5.64
207.631	-6.88
208.017	-13.61
208.403	29.77
208.789	23.81
209.175	0.84
209.561	-0.76
209.947	-104.92
210.333	4.34
210.719	-7.16
211.105	-12.8
211.491	-1.72
211.876	9.3
212.262	-18.41
212.648	-6.64
213.034	8
213.419	-16.41
213.805	-12.7
214.19	-43.34
214.576	-8.1
214.961	7.3
215.346	9.4
215.732	18.79
216.117	-28.14
216.502	17.99
216.888	-16.62
217.273	1.17
217.658	2.46
218.043	-12.6
218.428	34.36
218.813	8.09
219.198	3.69
219.583	-17.01
219.968	4.53
220.353	-15.96
220.738	-37.21
221.122	-7.31
221.507	22.44
221.892	-18.25
222.276	-1.52
222.661	10.76
223.046	-9.83
223.43	-1.11
223.815	-9.9
224.199	5.56
224.583	5.39
224.968	11.29
225.352	-1.35
225.736	1.71
226.121	-6.68
226.505	8.54
226.889	5.32
227.273	5.18
227.657	-1.06
228.041	1.09
228.425	0.76
228.809	4.75
229.193	1.39
229.577	2.76
229.961	4.17
230.344	3.16
230.728	3.28
231.112	2.7
231.495	3.09
231.879	3.89
232.263	2.25
232.646	3.75
233.03	2.17
233.413	1.88
233.797	1.47
234.18	2.51
234.563	4
234.946	3.49
235.33	4.19
235.713	2.48
236.096	2.96
236.479	2.92
236.862	2.41
237.245	1.63
237.628	2.96
238.011	-0.02
238.394	2.11
238.777	4.54
239.16	2.77
239.543	1.89
239.925	3.1
240.308	5.28
240.691	3.07
241.073	2.84
241.456	2.32
241.838	1.77
242.221	3.59
242.603	2.72
242.986	3.03
243.368	3.58
243.75	2.99
244.133	3.02
244.515	2.82
244.897	3.07
245.279	3.19
245.661	3.25
246.043	2.77
246.425	3.09
246.807	3.87
247.189	2.36
247.571	3.97
247.953	3.13
248.335	2.93
248.717	2.96
249.098	2.76
249.48	2.96
249.862	3.34
250.243	2.9
250.625	2.61
251.006	3.24
251.388	3.39
251.769	3.46
252.151	2.6
252.532	3.87
252.913	2.88
253.295	3.46
253.676	3.01
254.057	2.62
254.438	2.99
254.819	3.19
255.2	2.12
255.581	4.19
255.962	2.74
256.343	1.35
256.724	2.75
257.105	3.11
257.486	3.25
257.867	4.04
258.247	3.12
258.628	2.73
259.009	2.25
259.389	3.14
259.77	2.79
260.15	2.84
260.531	3.06
260.911	2.81
261.292	2.72
261.672	2.77
262.052	2.77
262.432	2.86
262.813	2.56
263.193	2.27
263.573	3.35
263.953	3.02
264.333	3.3
264.713	3.06
265.093	2.78
265.473	3.24
265.853	2.88
266.233	2.6
266.612	2.94
266.992	3.02
267.372	2.14
267.752	2.85
268.131	3.54
268.511	2.88
268.89	2.81
269.27	2.77
269.649	2.77
270.029	2.85
270.408	2.98
270.787	3.22
271.167	2.89
271.546	3.34
271.925	2.78
272.304	2.55
272.683	3.13
273.062	2.64
273.441	3.16
273.82	2.62
274.199	2.69
274.578	2.66
274.957	2.77
275.336	2.32
275.715	2.84
276.093	3.03
276.472	2.58
276.851	2.68
277.229	2.73
277.608	2.6
277.986	2.76
278.365	2.91
278.743	2.95
279.122	3.08
279.5	2.72
279.878	3.13
280.257	2.66
280.635	2.56
281.013	2.24
281.391	3.17
281.769	2.65
282.147	2.42
282.525	2.8
282.903	2.45
283.281	2.82
283.659	2.92
284.037	2.67
284.415	2.47
284.792	3.13
285.17	2.74
285.548	2.73
285.925	2.76
286.303	2.58
286.68	3.04
287.058	2.59
287.435	2.6
287.813	2.43
288.19	2.67
288.567	2.25
288.945	2.73
289.322	2.54
289.699	2.88
290.076	2.49
290.453	2.15
290.83	2.43
291.207	2.48
291.584	2.68
291.961	2.89
292.338	2.74
292.715	2.62
293.092	2.64
293.469	2.28
293.845	2.29
294.222	2.39
294.599	2.5
294.975	2.6
295.352	2.61
295.728	2.46
296.105	2.67
296.481	2.49
296.858	2.46
297.234	2.65
297.61	2.7
297.986	2.38
298.363	2.11
298.739	2.35
299.115	2.45
299.491	2.57
299.867	2.38
300.243	2.42
300.619	2.58
300.995	2.87
301.371	3.16
301.746	2.16
302.122	2.46
302.498	2.29
302.874	2.7
303.249	2.51
303.625	2.74
304	2.53
304.376	2.28
304.751	2.14
305.127	1.88
305.502	2.66
305.878	2.76
306.253	2.45
306.628	1.75
307.003	2.16
307.378	2.61
307.754	2.66
308.129	2.12
308.504	2.48
308.879	2.11
309.254	2.5
309.629	2.66
310.003	2.64
310.378	2.23
310.753	2.83
311.128	2.23
311.502	2.03
311.877	2.22
312.252	2.03
312.626	2.34
313.001	2.53
313.375	2.13
313.75	2.01
314.124	2.15
314.498	2.53
314.873	2.09
315.247	2.37
315.621	2.2
315.995	2.18
316.369	2.14
316.743	2.57
317.117	2.58
317.491	2.25
317.865	2.12
318.239	2.65
318.613	2.91
318.987	2.34
319.361	2.06
319.734	2.49
320.108	2.39
320.482	1.63
320.855	2.17
321.229	2.14
321.602	1.94
321.976	2.11
322.349	2.92
322.723	2.26
323.096	2.46
323.469	2.16
323.843	2.18
324.216	2.28
324.589	2.15
324.962	2.84
325.335	2.31
325.708	1.52
326.081	2.36
326.454	2.18
326.827	2.12
327.2	1.72
327.573	2.17
327.945	2.37
328.318	1.93
328.691	2.06
329.063	2.25
329.436	2.46
329.809	2.13
330.181	2.81
330.553	1.71
330.926	2.33
331.298	2.43
331.671	1.97
332.043	2.17
332.415	2.26
332.787	1.9
333.159	2.4
333.532	1.85
333.904	2.4
334.276	2.08
334.648	2.32
335.02	1.29
335.391	2.03
335.763	2.05
336.135	2.23
336.507	2.26
336.879	1.98
337.25	2.43
337.622	2.1
337.993	2.09
338.365	2.15
338.736	2.76
339.108	2.82
339.479	2.35
339.851	2.19
340.222	2.05
340.593	2.02
340.964	2.35
341.336	1.79
341.707	1.96
342.078	2.2
342.449	2.36
342.82	2.28
343.191	1.94
343.562	2.06
343.933	2.09
344.303	2.26
344.674	2.12
345.045	1.66
345.416	1.63
345.786	2.17
346.157	2.34
346.527	2.52
346.898	2.59
347.268	2.37
347.639	2.16
348.009	2.42
348.38	1.59
348.75	2.03
349.12	2.15
349.49	2.16
349.861	1.87
350.231	2.59
350.601	2.15
350.971	1.85
351.341	1.9
351.711	1.77
352.081	1.99
352.45	2.09
352.82	1.9
353.19	2.27
353.56	2.35
353.929	2.25
354.299	2.52
354.669	2.5
355.038	2.62
355.408	2.06
355.777	2.16
356.147	1.98
356.516	1.9
356.885	2.28
357.254	2.36
357.624	2.03
357.993	2.19
358.362	2.16
358.731	2.34
359.1	2.24
359.469	2.07
359.838	2.11
360.207	1.93
360.576	2.41
360.945	2.56
361.314	2.45
361.682	2.02
362.051	2.27
362.42	2.32
362.788	2.15
363.157	2.13
363.525	2.22
363.894	2.04
364.262	2.51
364.631	2.56
364.999	2.5
365.367	2.16
365.735	2.43
366.104	2.22
366.472	2.15
366.84	2.02
367.208	2.41
367.576	1.97
367.944	2.35
368.312	2.4
368.68	2.26
369.048	2.09
369.416	2.05
369.783	2.3
370.151	2.1
370.519	2.72
370.886	2.25
371.254	2.48
371.621	2.37
371.989	2.24
372.356	2.4
372.724	2.42
373.091	2.12
373.458	2.32
373.826	2.51
374.193	2.51
374.56	2.23
374.927	2.74
375.294	2.24
375.661	2.62
376.028	2.23
376.395	2.64
376.762	2.46
377.129	2.64
377.496	2.41
377.863	2.45
378.229	2.37
378.596	2.42
378.963	2.28
379.329	2.14
379.696	2.35
380.062	2.53
380.429	2.5
380.795	2.19
381.161	2.53
381.528	2.52
381.894	2.12
382.26	2.51
382.626	2.26
382.993	2.31
383.359	2.39
383.725	2.25
384.091	2.29
384.457	2.6
384.823	2.45
385.188	2.43
385.554	2.31
385.92	2.16
386.286	2.44
386.651	2.36
387.017	2.49
387.383	2.29
387.748	2.25
388.114	2.23
388.479	2.94
388.845	2.46
389.21	2.66
389.575	2.78
389.94	2.57
390.306	2.66
390.671	2.62
391.036	2.48
391.401	2.71
391.766	2.22
392.131	2.4
392.496	2.58
392.861	2.51
393.226	2.36
393.591	2.31
393.956	2.75
394.32	2.5
394.685	2.7
395.05	2.81
395.414	2.49
395.779	2.5
396.143	2.41
396.508	2.74
396.872	2.63
397.236	2.58
397.601	2.57
397.965	2.51
398.329	2.62
398.694	2.72
399.058	2.64
399.422	2.71
399.786	2.61
400.15	2.58
400.514	2.48
400.878	2.69
401.242	2.68
401.605	2.47
401.969	2.79
402.333	2.68
402.697	2.69
403.06	2.74
403.424	2.7
403.787	2.49
404.151	2.89
404.514	2.59
404.878	2.6
405.241	2.62
405.604	2.49
405.968	2.4
406.331	2.59
406.694	2.35
407.057	2.64
407.42	2.57
407.783	2.61
408.146	2.58
408.509	2.71
408.872	2.84
409.235	2.66
409.598	2.76
409.961	2.66
410.323	2.74
410.686	2.66
411.049	2.7
411.411	2.66
411.774	2.68
412.136	2.81
412.499	2.97
412.861	2.59
413.223	2.71
413.586	2.67
413.948	2.93
414.31	2.51
414.672	2.85
415.035	2.88
415.397	2.71
415.759	2.9
416.121	2.7
416.483	2.79
416.845	2.74
417.206	2.71
417.568	2.82
417.93	2.77
418.292	2.72
418.653	2.87
419.015	2.7
419.377	2.64
419.738	2.65
420.1	2.84
420.461	2.75
420.822	2.68
421.184	2.77
421.545	2.57
421.906	2.72
422.267	2.7
422.629	2.78
422.99	2.65
423.351	2.54
423.712	2.7
424.073	2.81
424.434	2.82
424.795	2.73
425.155	2.89
425.516	2.73
425.877	2.74
426.238	2.75
426.598	2.7
426.959	2.68
427.32	2.71
427.68	2.8
428.041	2.73
428.401	2.82
428.761	2.81
429.122	2.89
429.482	2.94
429.842	2.67
430.202	3.07
430.563	2.97
430.923	2.95
431.283	2.85
431.643	2.92
432.003	3.04
432.363	2.93
432.722	2.91
433.082	3.03
433.442	2.75
433.802	2.76
434.161	2.95
434.521	2.82
434.881	2.85
435.24	2.72
435.6	2.92
435.959	2.86
436.319	2.89
436.678	3.03
437.037	2.9
437.396	3
437.756	2.94
438.115	2.82
438.474	2.82
438.833	3.03
439.192	2.81
439.551	2.89
439.91	2.98
440.269	2.91
440.628	3
440.987	2.92
441.345	2.93
441.704	2.88
442.063	2.77
442.421	2.96
442.78	2.93
443.138	2.94
443.497	2.88
443.855	2.81
444.214	2.98
444.572	2.87
444.93	2.97
445.288	3.06
445.647	2.78
446.005	2.83
446.363	2.84
446.721	2.92
447.079	2.97
447.437	2.87
447.795	2.95
448.153	2.79
448.51	2.86
448.868	2.83
449.226	2.87
449.584	2.93
449.941	2.85
450.299	2.86
450.656	2.92
451.014	3.08
451.371	3.09
451.729	3.09
452.086	2.98
452.443	3.02
452.801	3.04
453.158	3.05
453.515	2.99
453.872	2.74
454.229	3.06
454.586	2.96
454.943	3.07
455.3	2.97
455.657	2.95
456.014	3.1
456.371	3.05
456.727	3.14
457.084	2.92
457.441	2.84
457.797	2.89
458.154	2.95
458.51	3.06
458.867	2.89
459.223	2.92
459.58	3.1
459.936	2.94
460.292	2.89
460.648	3.01
461.005	2.97
461.361	2.95
461.717	2.93
462.073	2.97
462.429	2.97
462.785	2.98
463.141	3.05
463.496	3.01
463.852	3.14
464.208	2.89
464.564	3.03
464.919	3.1
465.275	3.14
465.631	3.18
465.986	3.14
466.342	3.05
466.697	3.04
467.052	3
467.408	3.06
467.763	2.99
468.118	3.22
468.473	3.14
468.829	2.96
469.184	3.01
469.539	2.99
469.894	3.12
470.249	3.06
470.603	3.05
470.958	2.98
471.313	2.96
471.668	2.92
472.023	2.84
472.377	3.18
472.732	3
473.086	3.03
473.441	3.05
473.795	3.14
474.15	3.08
474.504	3.22
474.859	3
475.213	3.02
475.567	3.05
475.921	3.01
476.275	3.12
476.63	3.01
476.984	2.95
477.338	3.21
477.692	3.11
478.045	3.08
478.399	3.09
478.753	3.1
479.107	3.09
479.461	3.21
479.814	3.16
480.168	3.17
480.521	3.01
480.875	3.05
481.228	3.09
481.582	3.15
481.935	3.08
482.289	3.14
482.642	3.14
482.995	3.08
483.348	3.02
483.701	3.02
484.055	2.99
484.408	3.05
484.761	3.05
485.114	2.9
485.466	2.86
485.819	2.78
486.172	2.77
486.525	2.89
486.878	2.95
487.23	3.03
487.583	3.03
487.936	3.05
488.288	3.07
488.641	3.02
488.993	2.89
489.345	2.85
489.698	2.85
490.05	2.97
490.402	2.96
490.754	3.04
491.107	3.02
491.459	3.13
491.811	3.04
492.163	3.17
492.515	3.13
492.866	3.08
493.218	2.95
493.57	2.88
493.922	2.92
494.274	2.96
494.625	3.07
494.977	3.13
495.328	3.17
495.68	3.1
496.031	3.13
496.383	3.17
496.734	3.19
497.086	3.24
497.437	3.28
497.788	3.26
498.139	3.13
498.49	3.16
498.842	3.1
499.193	3.03
499.544	3.13
499.894	3.04
500.245	3.11
500.596	3.01
500.947	2.95
501.298	3.15
501.648	3.23
501.999	3.3
502.35	3.15
502.7	3.16
503.051	3.19
503.401	3.18
503.752	3.24
504.102	3.13
504.452	3.19
504.803	3.26
505.153	3.12
505.503	3.3
505.853	3.19
506.203	3.1
506.553	3.2
506.903	3.2
507.253	3.18
507.603	3.13
507.953	3.14
508.303	3.34
508.652	3.16
509.002	3.36
509.352	3.2
509.701	3.14
510.051	3.15
510.4	3.1
510.75	3.21
511.099	3.14
511.449	3.12
511.798	3.11
512.147	3.13
512.496	3.17
512.846	3.09
513.195	3.25
513.544	3.11
513.893	3.12
514.242	3.13
514.591	3.11
514.939	3.22
515.288	3.13
515.637	3.18
515.986	3.08
516.334	3.24
516.683	3.15
517.032	3.18
517.38	3.31
517.729	3.2
518.077	3.22
518.426	3.24
518.774	3.19
519.122	3.21
519.47	3.12
519.819	3.08
520.167	3.16
520.515	3.05
520.863	3.05
521.211	3.12
521.559	3.17
521.907	3.12
522.255	3.19
522.602	3.22
522.95	3.23
523.298	3.21
523.645	3.16
523.993	3.14
524.341	3.21
524.688	3.3
525.036	3.13
525.383	3.26
525.73	3.21
526.078	3.22
526.425	3.18
526.772	3.11
527.119	3.04
527.466	3.07
527.814	3.1
528.161	3.05
528.508	3.14
528.854	3.03
529.201	3.08
529.548	3.12
529.895	3.04
530.242	2.99
530.588	2.91
530.935	2.9
531.282	2.99
531.628	3.04
531.975	3.1
532.321	3.17
532.667	3.25
533.014	3.19
533.36	3.18
533.706	3.2
534.052	3.08
534.399	3.2
534.745	3.07
535.091	3.01
535.437	2.98
535.783	3.04
536.129	3.18
536.474	3.26
536.82	3.25
537.166	3.23
537.512	3.27
537.857	3.16
538.203	3.09
538.549	3.09
538.894	3.16
539.239	3.22
539.585	3.12
539.93	3.1
540.276	3.25
540.621	3.22
540.966	3.25
541.311	3.09
541.656	3.19
542.001	3.12
542.346	3.16
542.691	3.05
543.036	3.01
543.381	3
543.726	3.07
544.071	3.05
544.415	3.08
544.76	3.13
545.105	3.16
545.449	3.17
545.794	3.19
546.138	3.13
546.483	3.21
546.827	3.16
547.171	3.25
547.516	3.21
547.86	3.16
548.204	3.29
548.548	3.15
548.892	3.06
549.236	3.21
549.58	3.15
549.924	3.28
550.268	3.39
550.612	3.18
550.956	3.28
551.3	3.26
551.643	3.2
551.987	3.14
552.33	3.32
552.674	3.19
553.017	3.26
553.361	3.45
553.704	3.23
554.048	3.26
554.391	3.06
554.734	3.19
555.077	3.25
555.42	3.36
555.764	3.3
556.107	3.34
556.45	3.17
556.793	3.35
557.135	3.28
557.478	3.27
557.821	3.39
558.164	3.33
558.507	3.29
558.849	3.27
559.192	3.32
559.534	3.05
559.877	3.26
560.219	3.26
560.562	3.29
560.904	3.44
561.246	3.2
561.589	3.25
561.931	3.23
562.273	3.43
562.615	3.07
562.957	3.22
563.299	3.3
563.641	3.31
563.983	3.35
564.325	3.15
564.667	3.03
565.008	3.3
565.35	3.17
565.692	3.44
566.033	3.33
566.375	3.31
566.716	3.25
567.058	3.38
567.399	3.31
567.741	3.29
568.082	3.29
568.423	3.19
568.764	3.08
569.105	3.23
569.447	3.24
569.788	3.41
570.129	3.41
570.47	3.39
570.811	3.39
571.151	3.29
571.492	3.3
571.833	3.17
572.174	3.45
572.514	3.23
572.855	3.02
573.195	3.32
573.536	3.05
573.876	3.19
574.217	3.23
574.557	3.17
574.898	3.2
575.238	3.15
575.578	3.39
575.918	3.39
576.258	3.2
576.598	3.24
576.938	3.22
577.278	3.31
577.618	3.06
577.958	3.37
578.298	3.26
578.638	3.24
578.977	3.35
579.317	3.32
579.657	3.28
579.996	3.26
580.336	3.17
580.675	3.2
581.014	3.45
581.354	3.3
581.693	3.49
582.032	3.29
582.372	3.35
582.711	3.17
583.05	3.38
583.389	3.1
583.728	3.16
584.067	3.36
584.406	3.15
584.745	3.39
585.083	3.29
585.422	3.37
585.761	3.3
586.1	3.36
586.438	3.19
586.777	3.26
587.115	3.25
587.454	3.45
587.792	3.49
588.13	3.38
588.469	3.22
588.807	3.62
589.145	3.27
589.483	3.01
589.821	3.27
590.159	3.05
590.497	3.33
590.835	3.2
591.173	3.06
591.511	3.48
591.849	3.27
592.187	3.32
592.524	3.23
592.862	3.47
593.2	3.36
593.537	3.27
593.875	3.31
594.212	3.08
594.55	3.28
594.887	3.28
595.224	3.22
595.561	2.99
595.899	3.04
596.236	3.15
596.573	3.23
596.91	3.16
597.247	3.3
597.584	3.08
597.921	3.36
598.258	3.25
598.594	2.96
598.931	3.17
599.268	3.23
599.604	3.12
599.941	3.22
600.277	3.25
600.614	3.26
600.95	3.39
601.287	3.16
601.623	3.49
601.959	3.49
602.296	3.34
602.632	3.38
602.968	3.49
603.304	3.2
603.64	3.27
603.976	2.98
604.312	3.28
604.648	3.37
604.984	3.23
605.319	3.18
605.655	3.09
605.991	3.29
606.326	3.14
606.662	3.08
606.998	3.21
607.333	3.04
607.668	3.45
608.004	3.21
608.339	3.14
608.674	3.43
609.01	3.3
609.345	3.42
609.68	3.2
610.015	3.47
610.35	3.13
610.685	3.24
611.02	3.19
611.355	3.32
611.689	3.22
612.024	3.1
612.359	3.13
612.694	3.16
613.028	3.42
613.363	3.44
613.697	3.09
614.032	3.07
614.366	3.31
614.7	3.17
615.035	3.44
615.369	3.12
615.703	3.48
616.037	3.32
616.371	3.48
616.705	3.03
617.039	3.45
617.373	3.46
617.707	3.49
618.041	2.9
618.375	3.04
618.709	3.33
619.042	3.31
619.376	3.29
619.71	3.2
620.043	3.67
620.377	3.24
620.71	3.49
621.043	3.23
621.377	3.34
621.71	3.29
622.043	3.55
622.376	3.52
622.709	3.12
623.043	3.03
623.376	3.57
623.709	3.23
624.041	3.19
624.374	3.14
624.707	2.82
625.04	3.12
625.373	3.44
625.705	3.15
626.038	2.87
626.37	3.43
626.703	3.04
627.035	2.95
627.368	3.22
627.7	3.09
628.032	2.95
628.365	3.54
628.697	3.14
629.029	3.22
629.361	3.12
629.693	3.2
630.025	3.47
630.357	3.2
630.689	3.32
631.021	3.3
631.353	3.06
631.684	3.34
632.016	3.49
632.348	3.23
632.679	3.13
633.011	2.92
633.342	3.04
633.674	3.02
634.005	3.24
634.336	3.48
634.668	3.08
634.999	3.54
635.33	2.81
635.661	3.04
635.992	3.11
636.323	3.21
636.654	2.77
636.985	3.16
637.316	2.95
637.647	3.06
637.977	3.63
638.308	3.03
638.639	3.07
638.969	2.79
639.3	3.59
639.63	3.21
639.961	3.21
640.291	3.3
640.622	3.35
640.952	3.16
641.282	3.25
641.612	3.14
641.943	3.32
642.273	2.79
642.603	3.3
642.933	2.94
643.263	2.84
643.592	2.97
643.922	3.4
644.252	3.43
644.582	3.29
644.911	3.42
645.241	3.12
645.571	3.14
645.9	3.22
646.23	3.26
646.559	3.4
646.888	3.14
647.218	3.34
647.547	3.04
647.876	3.34
648.205	2.83
648.534	3.41
648.863	3.39
649.192	3.45
649.521	3.21
649.85	3.44
650.179	3.18
650.508	3.33
650.837	3.33
651.165	2.93
651.494	3.2
651.822	3.73
652.151	3.75
652.479	3.11
652.808	3.12
653.136	2.87
653.465	3.46
653.793	3.53
654.121	3.36
654.449	2.83
654.777	3.1
655.105	3.28
655.433	2.99
655.761	3.06
656.089	3.13
656.417	3.2
656.745	2.91
657.073	3.28
657.4	3.03
657.728	3.21
658.056	2.96
658.383	3.61
658.711	3.08
659.038	3.32
659.365	3.5
659.693	3.49
660.02	3.54
660.347	2.89
660.674	3.22
661.001	3
661.329	3.51
661.656	3.57
661.982	2.52
662.309	3.01
662.636	3.45
662.963	2.75
663.29	2.75
663.616	3.49
663.943	3.45
664.27	3.64
664.596	2.88
664.923	3.16
665.249	3.48
665.576	3.3
665.902	2.48
666.228	2.48
666.554	3.88
666.881	3.14
667.207	2.99
667.533	3.08
667.859	2.83
668.185	3.25
668.511	3.71
668.837	3.32
669.162	3.05
669.488	2.71
669.814	3.44
670.139	3.18
670.465	2.89
670.791	2.99
671.116	2.87
671.442	3.11
671.767	3.25
672.092	3.12
672.418	3.38
672.743	3.35
673.068	3.33
673.393	3.19
673.718	3.75
674.043	3.37
674.368	2.27
674.693	3.52
675.018	3.3
675.343	2.74
675.667	3.88
675.992	3.04
676.317	3.46
676.641	3.54
676.966	3.32
677.29	3.33
677.615	3.94
677.939	3.22
678.264	3.67
678.588	2.86
678.912	3.84
679.236	3.33
679.56	3.09
679.885	3.21
680.209	3.54
680.532	3.23
680.856	3.11
681.18	3.16
681.504	2.94
681.828	3.16
682.152	3.7
682.475	3.3
682.799	3.36
683.122	3.79
683.446	3.02
683.769	3.45
684.093	3.29
684.416	2.47
684.739	3
685.062	4.32
685.386	3.62
685.709	3.42
686.032	2.93
686.355	4.31
686.678	3.72
687.001	3.52
687.324	3.67
687.646	4.26
687.969	3.45
688.292	3.43
688.614	4.08
688.937	2.94
689.26	3.37
689.582	4.12
689.904	3.46
690.227	2.96
690.549	2.67
690.871	3.74
691.194	3.62
691.516	3.59
691.838	2.84
692.16	3.95
