Data from 0039_chest_Reflection__4__79.txt Node

Date: Fri Nov 04 15:24:56 CDT 2022
User: ToomeyLab
Spectrometer: FLMS14357
Trigger mode: 0
Integration Time (sec): 1.000000E-2
Scans to average: 100
Electric dark correction enabled: true
Nonlinearity correction enabled: false
Boxcar width: 0
XAxis mode: Wavelengths
Number of Pixels in Spectrum: 2048
>>>>>Begin Spectral Data<<<<<
189.047	187.64
189.435	187.64
189.823	187.64
190.211	-183.8
190.599	-14.24
190.987	65.31
191.375	94.78
191.763	149.48
192.151	31.84
192.538	-790.29
192.926	49.91
193.314	47.79
193.702	24.8
194.089	-31.21
194.477	204.95
194.864	471.82
195.252	46.08
195.639	78.88
196.027	48.06
196.414	152.47
196.801	139.03
197.189	224.93
197.576	41.94
197.963	356.42
198.351	4.71
198.738	18.01
199.125	2.92
199.512	-13.29
199.899	-21.44
200.286	30.27
200.673	12.77
201.06	-7.09
201.447	-12.6
201.833	-7.7
202.22	5.25
202.607	14.87
202.994	11.71
203.38	11.35
203.767	34.72
204.154	22.81
204.54	-23.2
204.927	15.72
205.313	17.36
205.699	50.74
206.086	-15.11
206.472	-11.25
206.858	-12.88
207.245	25.03
207.631	8.43
208.017	13.76
208.403	-11.4
208.789	18.84
209.175	5.74
209.561	-46.29
209.947	-124.99
210.333	10.49
210.719	12.27
211.105	-1.72
211.491	20.61
211.876	-9.74
212.262	-17.33
212.648	22.16
213.034	43.7
213.419	19.77
213.805	-2.88
214.19	-17.01
214.576	9.28
214.961	9.95
215.346	13.37
215.732	12.86
216.117	-2.31
216.502	14.78
216.888	19.44
217.273	21.08
217.658	0.99
218.043	5.03
218.428	11.1
218.813	5.75
219.198	10.82
219.583	-12.79
219.968	22.24
220.353	1.81
220.738	-7.58
221.122	6.43
221.507	9.69
221.892	-1.3
222.276	7.09
222.661	23.17
223.046	-4.88
223.43	-6.73
223.815	-5.55
224.199	4.89
224.583	-1.46
224.968	1.72
225.352	9.31
225.736	-3.53
226.121	-7.21
226.505	9.41
226.889	1.98
227.273	3.86
227.657	4.57
228.041	5.87
228.425	9.84
228.809	6.9
229.193	4.27
229.577	4.74
229.961	6.26
230.344	4.15
230.728	5.14
231.112	4.44
231.495	5.25
231.879	4.93
232.263	3.35
232.646	4.83
233.03	3.69
233.413	2.68
233.797	4.47
234.18	5.25
234.563	4.94
234.946	4.63
235.33	7.4
235.713	3.35
236.096	5.76
236.479	4.34
236.862	4.67
237.245	5.54
237.628	4.67
238.011	2.46
238.394	5.8
238.777	5.7
239.16	5.46
239.543	5.72
239.925	2.52
240.308	6.57
240.691	5.16
241.073	4.82
241.456	5.18
241.838	3.98
242.221	4.19
242.603	5.55
242.986	4.58
243.368	5.59
243.75	4.54
244.133	5.23
244.515	4.83
244.897	4.87
245.279	4.82
245.661	5.08
246.043	5.26
246.425	4.26
246.807	6.34
247.189	4.74
247.571	5.16
247.953	4.98
248.335	4.78
248.717	4.98
249.098	4.62
249.48	4.69
249.862	5.05
250.243	4.9
250.625	4.68
251.006	4.75
251.388	4.69
251.769	5.45
252.151	5.29
252.532	4.8
252.913	4.45
253.295	5.48
253.676	4.93
254.057	4.49
254.438	4.75
254.819	4.83
255.2	4.06
255.581	5.5
255.962	5.78
256.343	4.47
256.724	4.47
257.105	3.53
257.486	6.03
257.867	6.21
258.247	5.41
258.628	4.92
259.009	4.03
259.389	4.83
259.77	5.49
260.15	4.39
260.531	4.38
260.911	4.49
261.292	4.44
261.672	4.5
262.052	4.52
262.432	4.51
262.813	4.33
263.193	3.83
263.573	4.66
263.953	4.64
264.333	4.62
264.713	4.97
265.093	4.17
265.473	4.33
265.853	3.59
266.233	4.22
266.612	4.4
266.992	4.74
267.372	3.65
267.752	4.61
268.131	4.88
268.511	4.52
268.89	5.12
269.27	4.73
269.649	4.12
270.029	4.43
270.408	5.08
270.787	4.31
271.167	4.58
271.546	5.31
271.925	4.59
272.304	4.23
272.683	4.27
273.062	4.65
273.441	4.41
273.82	4.48
274.199	4.05
274.578	4.31
274.957	4.39
275.336	4.26
275.715	4.15
276.093	4.52
276.472	4.17
276.851	4.24
277.229	4.2
277.608	4.14
277.986	5.05
278.365	4.79
278.743	4.55
279.122	4.49
279.5	3.97
279.878	4.42
280.257	4.3
280.635	4.14
281.013	4.12
281.391	4.71
281.769	4.55
282.147	4.16
282.525	4.71
282.903	4.38
283.281	5.14
283.659	4.16
284.037	4.07
284.415	4.45
284.792	4.58
285.17	3.91
285.548	4.9
285.925	4.19
286.303	4.33
286.68	4.28
287.058	4.58
287.435	4.26
287.813	3.82
288.19	4.47
288.567	4.16
288.945	4.38
289.322	4.15
289.699	4.29
290.076	4.52
290.453	3.65
290.83	4.25
291.207	4.55
291.584	4.35
291.961	4.68
292.338	4.61
292.715	4.3
293.092	4.73
293.469	4.09
293.845	4.4
294.222	4.53
294.599	4.1
294.975	4.34
295.352	4.66
295.728	4.67
296.105	4.3
296.481	4.4
296.858	4.22
297.234	4.86
297.61	4.91
297.986	4.01
298.363	4.31
298.739	4.29
299.115	4.66
299.491	4.41
299.867	4.41
300.243	4.27
300.619	4.61
300.995	4.85
301.371	4.97
301.746	4.51
302.122	4.22
302.498	4.82
302.874	4.88
303.249	4.28
303.625	4.23
304	4.42
304.376	4.4
304.751	4.6
305.127	4.26
305.502	4.63
305.878	4.52
306.253	4.78
306.628	4.18
307.003	4.5
307.378	5.15
307.754	4.6
308.129	3.99
308.504	4.68
308.879	4.74
309.254	5.05
309.629	4.4
310.003	4.57
310.378	4.75
310.753	4.68
311.128	4.4
311.502	4.58
311.877	4.7
312.252	4.41
312.626	4.67
313.001	4.41
313.375	4.69
313.75	4.43
314.124	4.53
314.498	4.69
314.873	4.73
315.247	4.85
315.621	4.61
315.995	4.74
316.369	4.9
316.743	4.94
317.117	4.75
317.491	4.85
317.865	3.95
318.239	4.72
318.613	4.91
318.987	4.83
319.361	4.75
319.734	4.98
320.108	4.75
320.482	4.12
320.855	4.55
321.229	4.5
321.602	4.34
321.976	4.51
322.349	5.24
322.723	4.81
323.096	5.21
323.469	4.24
323.843	4.63
324.216	4.74
324.589	4.7
324.962	4.52
325.335	4.71
325.708	4.29
326.081	5.05
326.454	4.87
326.827	5.04
327.2	4.12
327.573	4.9
327.945	4.93
328.318	4.22
328.691	4.53
329.063	4.66
329.436	4.99
329.809	4.52
330.181	4.43
330.553	4.36
330.926	5.16
331.298	5.29
331.671	4.76
332.043	4.72
332.415	4.58
332.787	4.5
333.159	4.76
333.532	4.2
333.904	4.92
334.276	4.9
334.648	5.08
335.02	4.46
335.391	5.03
335.763	4.68
336.135	4.53
336.507	4.74
336.879	4.82
337.25	5
337.622	5.08
337.993	4.77
338.365	4.81
338.736	5.02
339.108	5.11
339.479	4.53
339.851	4.56
340.222	4.98
340.593	4.88
340.964	4.69
341.336	4.58
341.707	4.16
342.078	4.73
342.449	4.46
342.82	4.73
343.191	4.78
343.562	4.71
343.933	4.94
344.303	5.03
344.674	5.34
345.045	4.79
345.416	4.6
345.786	4.81
346.157	4.84
346.527	4.9
346.898	5.16
347.268	4.61
347.639	4.56
348.009	5.01
348.38	4.85
348.75	4.38
349.12	4.42
349.49	5.15
349.861	4.39
350.231	4.87
350.601	4.52
350.971	4.42
351.341	4.72
351.711	4.75
352.081	4.81
352.45	5.06
352.82	5.04
353.19	5.07
353.56	4.6
353.929	5.03
354.299	5.35
354.669	5.11
355.038	4.97
355.408	4.73
355.777	4.74
356.147	4.81
356.516	4.61
356.885	4.72
357.254	4.95
357.624	4.98
357.993	4.84
358.362	4.59
358.731	5.09
359.1	5.13
359.469	4.83
359.838	4.78
360.207	4.63
360.576	4.96
360.945	4.97
361.314	5.05
361.682	4.81
362.051	4.77
362.42	4.75
362.788	4.86
363.157	4.83
363.525	4.89
363.894	5.07
364.262	4.81
364.631	5.16
364.999	4.78
365.367	4.84
365.735	5.25
366.104	4.58
366.472	5
366.84	4.77
367.208	5.07
367.576	4.89
367.944	5.27
368.312	5.11
368.68	4.95
369.048	4.89
369.416	4.72
369.783	4.52
370.151	4.72
370.519	5.18
370.886	4.82
371.254	4.94
371.621	4.88
371.989	4.57
372.356	5.08
372.724	5.09
373.091	5.04
373.458	4.95
373.826	5
374.193	4.83
374.56	4.65
374.927	5.15
375.294	5.04
375.661	5.01
376.028	4.97
376.395	5.22
376.762	5.14
377.129	5.02
377.496	5.11
377.863	5.01
378.229	5.18
378.596	4.85
378.963	5
379.329	4.84
379.696	4.69
380.062	5.22
380.429	5.08
380.795	4.84
381.161	4.7
381.528	5.37
381.894	4.68
382.26	4.8
382.626	4.84
382.993	5.08
383.359	4.99
383.725	5.13
384.091	5.02
384.457	5.29
384.823	5.18
385.188	4.95
385.554	5.22
385.92	4.92
386.286	5.18
386.651	5.02
387.017	4.95
387.383	4.98
387.748	4.94
388.114	4.92
388.479	5.5
388.845	5.24
389.21	5.55
389.575	5.51
389.94	5.04
390.306	4.86
390.671	4.9
391.036	4.97
391.401	5.44
391.766	4.97
392.131	4.89
392.496	5.13
392.861	5.08
393.226	5.09
393.591	5.13
393.956	5.37
394.32	4.94
394.685	5.15
395.05	5.26
395.414	5.06
395.779	5.06
396.143	4.99
396.508	5.17
396.872	5.19
397.236	5.2
397.601	4.88
397.965	5.14
398.329	5.21
398.694	5.45
399.058	5.22
399.422	5.26
399.786	5.08
400.15	5.09
400.514	5.06
400.878	5.06
401.242	5.28
401.605	5.13
401.969	5.21
402.333	5.16
402.697	5.3
403.06	5.27
403.424	5.27
403.787	5.26
404.151	5.1
404.514	5.3
404.878	5.09
405.241	5.17
405.604	5.22
405.968	5.12
406.331	5
406.694	5.04
407.057	5.2
407.42	5.12
407.783	5.11
408.146	5.14
408.509	5
408.872	5.13
409.235	5.25
409.598	5.19
409.961	5.24
410.323	5.18
410.686	5.18
411.049	5.17
411.411	5.15
411.774	5.26
412.136	5.17
412.499	5.32
412.861	4.98
413.223	5.03
413.586	5.02
413.948	5.31
414.31	5.13
414.672	5.12
415.035	5.24
415.397	5.15
415.759	5.57
416.121	5.18
416.483	5.29
416.845	5.11
417.206	5.15
417.568	5.44
417.93	5.16
418.292	5.08
418.653	5.43
419.015	5.17
419.377	5.16
419.738	5.22
420.1	5.18
420.461	5.26
420.822	5.11
421.184	5.25
421.545	5.01
421.906	5.09
422.267	5
422.629	5.07
422.99	5.01
423.351	5.05
423.712	5.06
424.073	5.22
424.434	5.13
424.795	5.24
425.155	5.25
425.516	5.13
425.877	5.12
426.238	5.03
426.598	5.19
426.959	5.09
427.32	5.16
427.68	5.18
428.041	5.19
428.401	5.21
428.761	5.14
429.122	5.29
429.482	5.3
429.842	5.11
430.202	5.33
430.563	5.26
430.923	5.47
431.283	5.23
431.643	5.4
432.003	5.5
432.363	5.4
432.722	5.36
433.082	5.4
433.442	5.27
433.802	5.3
434.161	5.22
434.521	5.17
434.881	5.24
435.24	5.19
435.6	5.31
435.959	5.2
436.319	5.23
436.678	5.32
437.037	5.31
437.396	5.42
437.756	5.57
438.115	5.29
438.474	5.36
438.833	5.49
439.192	5.39
439.551	5.43
439.91	5.34
440.269	5.34
440.628	5.4
440.987	5.33
441.345	5.27
441.704	5.24
442.063	5.28
442.421	5.29
442.78	5.31
443.138	5.36
443.497	5.19
443.855	5.32
444.214	5.45
444.572	5.39
444.93	5.32
445.288	5.44
445.647	5.16
446.005	5.37
446.363	5.25
446.721	5.29
447.079	5.43
447.437	5.23
447.795	5.18
448.153	5.25
448.51	5.22
448.868	5.23
449.226	5.21
449.584	5.34
449.941	5.16
450.299	5.31
450.656	5.35
451.014	5.49
451.371	5.45
451.729	5.56
452.086	5.45
452.443	5.35
452.801	5.53
453.158	5.52
453.515	5.46
453.872	5.27
454.229	5.41
454.586	5.47
454.943	5.42
455.3	5.47
455.657	5.31
456.014	5.3
456.371	5.4
456.727	5.57
457.084	5.44
457.441	5.42
457.797	5.41
458.154	5.48
458.51	5.54
458.867	5.45
459.223	5.53
459.58	5.67
459.936	5.37
460.292	5.37
460.648	5.53
461.005	5.37
461.361	5.48
461.717	5.41
462.073	5.48
462.429	5.46
462.785	5.38
463.141	5.52
463.496	5.48
463.852	5.64
464.208	5.62
464.564	5.45
464.919	5.59
465.275	5.6
465.631	5.68
465.986	5.63
466.342	5.51
466.697	5.62
467.052	5.5
467.408	5.67
467.763	5.7
468.118	5.62
468.473	5.69
468.829	5.35
469.184	5.7
469.539	5.63
469.894	5.62
470.249	5.61
470.603	5.69
470.958	5.51
471.313	5.51
471.668	5.64
472.023	5.51
472.377	5.63
472.732	5.49
473.086	5.64
473.441	5.66
473.795	5.73
474.15	5.64
474.504	5.48
474.859	5.56
475.213	5.57
475.567	5.49
475.921	5.62
476.275	5.67
476.63	5.66
476.984	5.69
477.338	5.72
477.692	5.77
478.045	5.63
478.399	5.6
478.753	5.72
479.107	5.53
479.461	5.72
479.814	5.76
480.168	5.74
480.521	5.61
480.875	5.69
481.228	5.63
481.582	5.71
481.935	5.7
482.289	5.49
482.642	5.73
482.995	5.77
483.348	5.63
483.701	5.68
484.055	5.63
484.408	5.7
484.761	5.52
485.114	5.42
485.466	5.34
485.819	5.32
486.172	5.31
486.525	5.31
486.878	5.43
487.23	5.47
487.583	5.58
487.936	5.59
488.288	5.59
488.641	5.55
488.993	5.46
489.345	5.4
489.698	5.43
490.05	5.43
490.402	5.45
490.754	5.54
491.107	5.58
491.459	5.6
491.811	5.62
492.163	5.64
492.515	5.76
492.866	5.64
493.218	5.55
493.57	5.44
493.922	5.51
494.274	5.49
494.625	5.64
494.977	5.77
495.328	5.8
495.68	5.72
496.031	5.81
496.383	5.8
496.734	5.77
497.086	6.04
497.437	5.87
497.788	5.85
498.139	5.73
498.49	5.74
498.842	5.85
499.193	5.8
499.544	5.79
499.894	5.76
500.245	5.79
500.596	5.75
500.947	5.9
501.298	5.94
501.648	5.89
501.999	5.95
502.35	5.83
502.7	5.83
503.051	5.92
503.401	5.99
503.752	5.92
504.102	5.94
504.452	5.95
504.803	6.02
505.153	5.89
505.503	5.89
505.853	5.98
506.203	5.91
506.553	5.96
506.903	5.92
507.253	6.04
507.603	5.94
507.953	6.08
508.303	5.98
508.652	5.99
509.002	6.03
509.352	5.91
509.701	6.02
510.051	6.02
510.4	5.98
510.75	5.97
511.099	6
511.449	5.9
511.798	5.92
512.147	6.08
512.496	5.94
512.846	5.93
513.195	5.97
513.544	6.02
513.893	6.06
514.242	6.02
514.591	6.04
514.939	6.14
515.288	6.05
515.637	6.24
515.986	6.03
516.334	6.11
516.683	6.06
517.032	6.22
517.38	6.19
517.729	6.18
518.077	6.21
518.426	6.2
518.774	6.18
519.122	6.2
519.47	6.1
519.819	6.13
520.167	6.09
520.515	6.06
520.863	5.99
521.211	6.13
521.559	6.12
521.907	6.1
522.255	6.26
522.602	6.18
522.95	6.23
523.298	6.34
523.645	6.2
523.993	6.2
524.341	6.21
524.688	6.39
525.036	6.28
525.383	6.38
525.73	6.34
526.078	6.47
526.425	6.31
526.772	6.27
527.119	6.23
527.466	6.17
527.814	6.14
528.161	6.23
528.508	6.2
528.854	6.26
529.201	6.25
529.548	6.23
529.895	6.13
530.242	6.01
530.588	5.98
530.935	6
531.282	6.11
531.628	6.06
531.975	6.19
532.321	6.29
532.667	6.28
533.014	6.41
533.36	6.41
533.706	6.36
534.052	6.33
534.399	6.39
534.745	6.32
535.091	6.26
535.437	6.24
535.783	6.28
536.129	6.43
536.474	6.47
536.82	6.42
537.166	6.52
537.512	6.57
537.857	6.46
538.203	6.47
538.549	6.34
538.894	6.52
539.239	6.57
539.585	6.56
539.93	6.58
540.276	6.62
540.621	6.59
540.966	6.77
541.311	6.57
541.656	6.69
542.001	6.69
542.346	6.66
542.691	6.61
543.036	6.41
543.381	6.48
543.726	6.5
544.071	6.6
544.415	6.56
544.76	6.69
545.105	6.61
545.449	6.73
545.794	6.82
546.138	6.75
546.483	6.77
546.827	6.76
547.171	6.92
547.516	6.98
547.86	6.81
548.204	6.9
548.548	6.77
548.892	6.83
549.236	6.92
549.58	7.01
549.924	7.05
550.268	7.13
550.612	7.12
550.956	7.12
551.3	7.17
551.643	7.18
551.987	7.07
552.33	7.24
552.674	7.27
553.017	7.15
553.361	7.42
553.704	7.22
554.048	7.22
554.391	7.16
554.734	7.22
555.077	7.4
555.42	7.34
555.764	7.49
556.107	7.33
556.45	7.31
556.793	7.3
557.135	7.5
557.478	7.2
557.821	7.45
558.164	7.56
558.507	7.56
558.849	7.6
559.192	7.7
559.534	7.25
559.877	7.66
560.219	7.61
560.562	7.64
560.904	7.71
561.246	7.55
561.589	7.6
561.931	7.75
562.273	7.64
562.615	7.4
562.957	7.8
563.299	7.64
563.641	7.58
563.983	7.56
564.325	7.73
564.667	7.85
565.008	7.65
565.35	7.81
565.692	7.96
566.033	7.85
566.375	7.77
566.716	7.9
567.058	8.02
567.399	7.98
567.741	7.97
568.082	7.95
568.423	7.85
568.764	7.86
569.105	7.88
569.447	8.11
569.788	8
570.129	8.11
570.47	8.21
570.811	8.21
571.151	8.18
571.492	8.32
571.833	8.1
572.174	8.24
572.514	8.16
572.855	7.96
573.195	8.16
573.536	8.13
573.876	8.14
574.217	8.09
574.557	8.16
574.898	8.2
575.238	8.13
575.578	8.51
575.918	8.48
576.258	8.36
576.598	8.32
576.938	8.57
577.278	8.3
577.618	8.33
577.958	8.45
578.298	8.63
578.638	8.61
578.977	8.67
579.317	8.48
579.657	8.54
579.996	8.47
580.336	8.59
580.675	8.48
581.014	8.89
581.354	8.7
581.693	8.95
582.032	8.47
582.372	9.04
582.711	8.67
583.05	8.99
583.389	8.93
583.728	9.08
584.067	9.03
584.406	8.94
584.745	9.27
585.083	8.93
585.422	9.21
585.761	9.12
586.1	9.02
586.438	8.93
586.777	9.28
587.115	9.15
587.454	9.27
587.792	9.29
588.13	9.38
588.469	9.38
588.807	9.51
589.145	9.27
589.483	9.24
589.821	9.54
590.159	9.23
590.497	9.45
590.835	9.26
591.173	9.43
591.511	9.63
591.849	9.36
592.187	9.48
592.524	9.45
592.862	9.58
593.2	9.64
593.537	9.5
593.875	9.7
594.212	9.51
594.55	9.58
594.887	9.8
595.224	9.72
595.561	9.54
595.899	9.82
596.236	9.76
596.573	9.78
596.91	10.07
597.247	10.01
597.584	9.82
597.921	9.96
598.258	9.89
598.594	9.59
598.931	9.93
599.268	10.05
599.604	10.08
599.941	10.1
600.277	10.1
600.614	10.25
600.95	10.27
601.287	10.19
601.623	10.18
601.959	10.48
602.296	10.46
602.632	10.48
602.968	10.64
603.304	10.51
603.64	10.41
603.976	10.21
604.312	10.34
604.648	10.39
604.984	10.51
605.319	10.37
605.655	10.4
605.991	10.5
606.326	10.65
606.662	10.33
606.998	10.59
607.333	10.7
607.668	10.68
608.004	10.72
608.339	10.83
608.674	10.92
609.01	10.86
609.345	11.25
609.68	10.9
610.015	11.23
610.35	11.14
610.685	11.07
611.02	11
611.355	10.86
611.689	10.89
612.024	10.86
612.359	10.95
612.694	10.92
613.028	11.37
613.363	11.38
613.697	11.26
614.032	11.24
614.366	11.5
614.7	11.14
615.035	11.15
615.369	11.55
615.703	11.74
616.037	11.37
616.371	11.44
616.705	11.5
617.039	11.53
617.373	11.73
617.707	11.89
618.041	11.75
618.375	11.48
618.709	11.84
619.042	12.03
619.376	11.44
619.71	11.56
620.043	12.16
620.377	12.36
620.71	12.13
621.043	12
621.377	12.22
621.71	12.16
622.043	12.38
622.376	11.85
622.709	12.19
623.043	12.29
623.376	12.57
623.709	12.32
624.041	12.06
624.374	12.12
624.707	12.05
625.04	12.34
625.373	12.29
625.705	12.4
626.038	12.26
626.37	12.61
626.703	12.48
627.035	12.32
627.368	12.49
627.7	12.42
628.032	12.09
628.365	12.82
628.697	12.64
629.029	12.47
629.361	12.64
629.693	12.86
630.025	12.76
630.357	12.57
630.689	12.78
631.021	12.89
631.353	12.68
631.684	12.93
632.016	12.97
632.348	12.73
632.679	13.03
633.011	13.13
633.342	13.23
633.674	12.84
634.005	13.16
634.336	13.18
634.668	13.48
634.999	13.47
635.33	12.65
635.661	13.48
635.992	13.31
636.323	13.2
636.654	12.89
636.985	13.07
637.316	12.9
637.647	13.26
637.977	13.38
638.308	13.88
638.639	13.84
638.969	13.42
639.3	13.68
639.63	13.49
639.961	13.75
640.291	14.09
640.622	13.7
640.952	13.93
641.282	13.43
641.612	14.11
641.943	13.74
642.273	13.49
642.603	14.19
642.933	13.87
643.263	13.63
643.592	14.01
643.922	14.6
644.252	14.13
644.582	13.96
644.911	14.25
645.241	13.97
645.571	14.01
645.9	13.92
646.23	14.18
646.559	13.9
646.888	14.38
647.218	14.77
647.547	14.42
647.876	14.65
648.205	14.04
648.534	14.81
648.863	14.52
649.192	14.41
649.521	14.2
649.85	14.93
650.179	14.45
650.508	14.47
650.837	14.64
651.165	14.96
651.494	14.53
651.822	14.5
652.151	14.76
652.479	14.99
652.808	14.66
653.136	15.19
653.465	14.53
653.793	15.13
654.121	15.08
654.449	15.14
654.777	14.55
655.105	14.88
655.433	14.84
655.761	14.83
656.089	15.42
656.417	14.99
656.745	15.01
657.073	15.19
657.4	15.26
657.728	15.39
658.056	15.14
658.383	15.54
658.711	15.2
659.038	15.35
659.365	15.78
659.693	15.93
660.02	16.13
660.347	15.33
660.674	15.5
661.001	15.81
661.329	15.85
661.656	15.69
661.982	15.57
662.309	16.02
662.636	15.73
662.963	15.56
663.29	15.82
663.616	16.29
663.943	16.09
664.27	16.51
664.596	15.75
664.923	16.02
665.249	16.57
665.576	16.22
665.902	16.02
666.228	16.02
666.554	16.57
666.881	15.82
667.207	16.25
667.533	16.6
667.859	16.43
668.185	16.31
668.511	17.06
668.837	16.4
669.162	17.29
669.488	16.54
669.814	16.25
670.139	16.58
670.465	16.57
670.791	16.4
671.116	16.66
671.442	16.61
671.767	16.6
672.092	17.05
672.418	16.58
672.743	17.04
673.068	17.32
673.393	16.68
673.718	17.43
674.043	16.84
674.368	16.32
674.693	17.38
675.018	17.04
675.343	17.26
675.667	17.15
675.992	16.9
676.317	17.01
676.641	17.6
676.966	17.38
677.29	17.68
677.615	17.81
677.939	17.54
678.264	17.9
678.588	17.99
678.912	18.03
679.236	17.48
679.56	17.29
679.885	17.91
680.209	17.95
680.532	17.94
680.856	17.51
681.18	17.86
681.504	18.36
681.828	17.36
682.152	18.24
682.475	17.96
682.799	17.65
683.122	17.62
683.446	17.57
683.769	17.57
684.093	18.45
684.416	16.91
684.739	18.2
685.062	18.44
685.386	17.97
685.709	18.39
686.032	18.73
686.355	19.05
686.678	18.06
