Data from 0039_crown_Reflection__2__82.txt Node

Date: Fri Nov 04 15:26:13 CDT 2022
User: ToomeyLab
Spectrometer: FLMS14357
Trigger mode: 0
Integration Time (sec): 1.000000E-2
Scans to average: 100
Electric dark correction enabled: true
Nonlinearity correction enabled: false
Boxcar width: 0
XAxis mode: Wavelengths
Number of Pixels in Spectrum: 2048
>>>>>Begin Spectral Data<<<<<
189.047	-113.19
189.435	-113.19
189.823	-113.19
190.211	1086.84
190.599	41.42
190.987	-217.02
191.375	-168.16
191.763	-8.36
192.151	-7.18
192.538	-664.4
192.926	76.03
193.314	125.53
193.702	64.8
194.089	42.22
194.477	64.41
194.864	1667.96
195.252	2.69
195.639	13.66
196.027	140.97
196.414	-46.56
196.801	171.43
197.189	-191.32
197.576	61.24
197.963	394.08
198.351	-36.52
198.738	-18.41
199.125	-50.31
199.512	-18.53
199.899	-31.77
200.286	-19.73
200.673	-6.29
201.06	-40.74
201.447	-35.4
201.833	-14.06
202.22	-19.42
202.607	-21.26
202.994	5.45
203.38	16.02
203.767	-52.11
204.154	28.08
204.54	-45.68
204.927	2.52
205.313	44.84
205.699	16.79
206.086	7.33
206.472	-16.37
206.858	-5.19
207.245	16.83
207.631	9.05
208.017	4.4
208.403	-8.63
208.789	5.26
209.175	-9.34
209.561	-93.72
209.947	-151.22
210.333	-1.22
210.719	-18.38
211.105	-48.93
211.491	-2.48
211.876	10.16
212.262	-28.91
212.648	-2.53
213.034	13.95
213.419	-40.22
213.805	-29.76
214.19	-7.21
214.576	-26.63
214.961	20.44
215.346	-1.96
215.732	13.13
216.117	-22.79
216.502	15.82
216.888	-13.55
217.273	11.51
217.658	-15.6
218.043	-15.51
218.428	11.47
218.813	-10.22
219.198	-3.12
219.583	6.99
219.968	14.59
220.353	-9.79
220.738	-22.35
221.122	-1
221.507	18.63
221.892	-15.65
222.276	-5.12
222.661	2.78
223.046	-5.8
223.43	5.09
223.815	-2.9
224.199	4.9
224.583	3.61
224.968	3.63
225.352	-3.58
225.736	-8.82
226.121	-7.89
226.505	6.75
226.889	-3.98
227.273	-0.09
227.657	0.82
228.041	2.83
228.425	4.5
228.809	3.45
229.193	4.37
229.577	0.83
229.961	4.6
230.344	4.68
230.728	4.3
231.112	4.37
231.495	3.92
231.879	5.02
232.263	4.21
232.646	4.06
233.03	2.19
233.413	2.22
233.797	3.9
234.18	3.31
234.563	4.84
234.946	2.59
235.33	6.01
235.713	3.42
236.096	4.84
236.479	2.96
236.862	2.59
237.245	2.6
237.628	3.12
238.011	1.71
238.394	4.37
238.777	4.1
239.16	3.23
239.543	3.83
239.925	4.62
240.308	4.6
240.691	3.56
241.073	3.51
241.456	4.06
241.838	3.01
242.221	4.25
242.603	4.7
242.986	3.97
243.368	4.11
243.75	3.94
244.133	4.19
244.515	4.41
244.897	3.83
245.279	4.04
245.661	4.13
246.043	4.77
246.425	3.63
246.807	4.41
247.189	3.91
247.571	4.92
247.953	4.1
248.335	3.82
248.717	3.95
249.098	3.94
249.48	4.08
249.862	4.33
250.243	3.96
250.625	3.95
251.006	3.8
251.388	4.34
251.769	4.01
252.151	5.18
252.532	4.18
252.913	3.77
253.295	4.11
253.676	3.61
254.057	3.72
254.438	4.13
254.819	3.78
255.2	3.62
255.581	3.72
255.962	3.9
256.343	4.45
256.724	3.2
257.105	3.14
257.486	4.35
257.867	5.26
258.247	4.01
258.628	3.18
259.009	2.93
259.389	3.89
259.77	4.43
260.15	3.86
260.531	4.31
260.911	3.63
261.292	3.68
261.672	3.93
262.052	3.74
262.432	3.86
262.813	3.79
263.193	3.71
263.573	3.58
263.953	4.06
264.333	4.14
264.713	3.9
265.093	3.6
265.473	3.87
265.853	2.8
266.233	3.83
266.612	4.12
266.992	4.51
267.372	3.07
267.752	3.61
268.131	4.08
268.511	3.9
268.89	4.27
269.27	3.74
269.649	3.63
270.029	3.67
270.408	3.46
270.787	4.18
271.167	3.82
271.546	4.23
271.925	4.23
272.304	3.5
272.683	3.6
273.062	3.8
273.441	3.94
273.82	3.63
274.199	4.03
274.578	3.73
274.957	3.5
275.336	3.44
275.715	3.72
276.093	3.7
276.472	3.55
276.851	3.48
277.229	4
277.608	3.58
277.986	3.91
278.365	3.81
278.743	3.92
279.122	3.85
279.5	3.62
279.878	3.63
280.257	3.43
280.635	3.86
281.013	3.19
281.391	3.79
281.769	3.34
282.147	3.52
282.525	3.51
282.903	3.4
283.281	4.01
283.659	3.33
284.037	3.32
284.415	3.59
284.792	3.99
285.17	3.47
285.548	4.07
285.925	3.14
286.303	3.91
286.68	4.09
287.058	3.6
287.435	3.54
287.813	3.53
288.19	3.5
288.567	3.55
288.945	3.54
289.322	3.77
289.699	3.91
290.076	3.45
290.453	3.29
290.83	2.73
291.207	3.2
291.584	3.54
291.961	3.35
292.338	3.55
292.715	3.65
293.092	3.5
293.469	3.58
293.845	3.23
294.222	3.24
294.599	3.5
294.975	3.1
295.352	3.24
295.728	3.27
296.105	3.63
296.481	3.51
296.858	3.39
297.234	3.85
297.61	3.74
297.986	3.39
298.363	3.39
298.739	3.25
299.115	3.43
299.491	3.25
299.867	3.38
300.243	3.04
300.619	3.45
300.995	3.43
301.371	3.97
301.746	3.39
302.122	3.37
302.498	3.28
302.874	3.91
303.249	3.13
303.625	3.37
304	3.61
304.376	3.16
304.751	3.57
305.127	2.81
305.502	3.25
305.878	3.34
306.253	3.48
306.628	3.24
307.003	3.19
307.378	3.06
307.754	3.43
308.129	2.85
308.504	3.54
308.879	3.12
309.254	3.33
309.629	2.95
310.003	3.39
310.378	3.46
310.753	3.4
311.128	3.01
311.502	2.65
311.877	3.26
312.252	3.15
312.626	3.05
313.001	3.02
313.375	3.3
313.75	2.87
314.124	2.86
314.498	3.32
314.873	3.22
315.247	3.14
315.621	2.96
315.995	3.67
316.369	3.18
316.743	3.31
317.117	3.28
317.491	3.55
317.865	2.97
318.239	3.33
318.613	3.44
318.987	2.94
319.361	2.85
319.734	3.42
320.108	3.12
320.482	2.62
320.855	3.08
321.229	2.99
321.602	2.77
321.976	2.77
322.349	3.23
322.723	3.18
323.096	3.55
323.469	2.88
323.843	2.96
324.216	2.98
324.589	3.36
324.962	3.25
325.335	3.32
325.708	2.88
326.081	3.11
326.454	2.66
326.827	3.04
327.2	3.25
327.573	2.67
327.945	3.2
328.318	2.42
328.691	3.17
329.063	2.56
329.436	3.06
329.809	2.8
330.181	3.01
330.553	2.79
330.926	3.01
331.298	3.19
331.671	3.02
332.043	2.86
332.415	3.09
332.787	2.68
333.159	2.68
333.532	2.08
333.904	3.04
334.276	2.97
334.648	3.14
335.02	2.58
335.391	3.24
335.763	2.85
336.135	2.58
336.507	3.23
336.879	2.73
337.25	2.92
337.622	2.8
337.993	2.72
338.365	2.79
338.736	3.22
339.108	3.42
339.479	3.17
339.851	2.63
340.222	2.74
340.593	2.97
340.964	3.07
341.336	2.81
341.707	2.76
342.078	3.22
342.449	2.68
342.82	3
343.191	2.83
343.562	2.99
343.933	3.21
344.303	2.87
344.674	3.08
345.045	2.66
345.416	2.56
345.786	2.95
346.157	3.08
346.527	3.26
346.898	3.21
347.268	2.73
347.639	2.64
348.009	3.17
348.38	2.74
348.75	2.67
349.12	2.58
349.49	3.22
349.861	2.83
350.231	3.18
350.601	2.91
350.971	3.08
351.341	2.98
351.711	2.98
352.081	3.04
352.45	2.49
352.82	2.83
353.19	2.95
353.56	3.11
353.929	2.75
354.299	3.16
354.669	3.33
355.038	2.84
355.408	3.13
355.777	2.9
356.147	2.9
356.516	2.5
356.885	2.78
357.254	2.9
357.624	2.84
357.993	3.16
358.362	2.63
358.731	2.67
359.1	2.71
359.469	3.08
359.838	2.9
360.207	2.73
360.576	2.87
360.945	3.07
361.314	3.44
361.682	3.01
362.051	3.06
362.42	3.22
362.788	2.97
363.157	2.96
363.525	2.94
363.894	2.95
364.262	3.15
364.631	3.18
364.999	3.13
365.367	2.65
365.735	3.41
366.104	2.77
366.472	3.07
366.84	2.75
367.208	3.47
367.576	2.97
367.944	3.16
368.312	3.35
368.68	2.92
369.048	3.02
369.416	2.81
369.783	2.86
370.151	2.86
370.519	3.35
370.886	3.23
371.254	3.02
371.621	3.11
371.989	3.03
372.356	2.95
372.724	2.98
373.091	3.14
373.458	3.14
373.826	3.1
374.193	2.82
374.56	2.76
374.927	3.23
375.294	3.23
375.661	3.33
376.028	3.19
376.395	3.15
376.762	3.18
377.129	3.21
377.496	3.36
377.863	3.28
378.229	2.97
378.596	3.16
378.963	3.06
379.329	3.02
379.696	3.04
380.062	3.14
380.429	3.2
380.795	3.29
381.161	3.1
381.528	3.32
381.894	2.99
382.26	3.3
382.626	3.14
382.993	3.56
383.359	3.33
383.725	3.11
384.091	3.18
384.457	3.3
384.823	3.49
385.188	3.37
385.554	3.25
385.92	3.24
386.286	3.3
386.651	3.2
387.017	3.05
387.383	3.33
387.748	3.23
388.114	3.11
388.479	3.83
388.845	3.19
389.21	3.31
389.575	3.46
389.94	3.31
390.306	3.34
390.671	3.25
391.036	3.06
391.401	3.41
391.766	3.18
392.131	3.27
392.496	3.46
392.861	3.41
393.226	3.33
393.591	3.46
393.956	3.43
394.32	3.36
394.685	3.29
395.05	3.55
395.414	3.52
395.779	3.28
396.143	3.27
396.508	3.46
396.872	3.58
397.236	3.36
397.601	3.22
397.965	3.44
398.329	3.32
398.694	3.74
399.058	3.41
399.422	3.22
399.786	3.19
400.15	3.43
400.514	3.28
400.878	3.51
401.242	3.49
401.605	3.39
401.969	3.67
402.333	3.37
402.697	3.48
403.06	3.58
403.424	3.35
403.787	3.29
404.151	3.3
404.514	3.63
404.878	3.43
405.241	3.48
405.604	3.56
405.968	3.44
406.331	3.46
406.694	3.33
407.057	3.48
407.42	3.35
407.783	3.31
408.146	3.69
408.509	3.61
408.872	3.6
409.235	3.52
409.598	3.44
409.961	3.85
410.323	3.42
410.686	3.51
411.049	3.56
411.411	3.59
411.774	3.67
412.136	3.61
412.499	3.55
412.861	3.56
413.223	3.53
413.586	3.54
413.948	3.76
414.31	3.54
414.672	3.89
415.035	3.69
415.397	3.7
415.759	3.93
416.121	3.62
416.483	3.96
416.845	3.72
417.206	3.72
417.568	3.58
417.93	3.68
418.292	3.62
418.653	3.57
419.015	3.6
419.377	3.66
419.738	3.56
420.1	3.76
420.461	3.65
420.822	3.51
421.184	3.69
421.545	3.53
421.906	3.68
422.267	3.57
422.629	3.69
422.99	3.48
423.351	3.55
423.712	3.59
424.073	3.8
424.434	3.61
424.795	3.73
425.155	3.85
425.516	3.7
425.877	3.58
426.238	3.59
426.598	3.66
426.959	3.58
427.32	3.64
427.68	3.75
428.041	3.81
428.401	3.74
428.761	3.74
429.122	3.74
429.482	3.84
429.842	3.71
430.202	3.97
430.563	3.9
430.923	3.86
431.283	3.71
431.643	3.89
432.003	4.13
432.363	3.92
432.722	3.84
433.082	3.93
433.442	3.8
433.802	3.8
434.161	3.88
434.521	3.79
434.881	3.83
435.24	3.78
435.6	3.83
435.959	3.83
436.319	3.73
436.678	3.87
437.037	3.86
437.396	4.04
437.756	3.85
438.115	3.77
438.474	3.97
438.833	4.08
439.192	3.8
439.551	3.97
439.91	3.91
440.269	3.93
440.628	3.95
440.987	3.86
441.345	3.79
441.704	3.82
442.063	3.85
442.421	3.81
442.78	3.85
443.138	3.83
443.497	3.93
443.855	3.8
444.214	4
444.572	3.86
444.93	3.89
445.288	3.98
445.647	3.92
446.005	3.87
446.363	4
446.721	3.95
447.079	3.84
447.437	3.83
447.795	3.86
448.153	3.77
448.51	3.87
448.868	3.77
449.226	3.77
449.584	3.95
449.941	3.78
450.299	3.84
450.656	3.96
451.014	4.07
451.371	4.2
451.729	4.02
452.086	4
452.443	4.06
452.801	4.08
453.158	4.06
453.515	4.12
453.872	3.84
454.229	4.03
454.586	3.93
454.943	4.1
455.3	4
455.657	3.94
456.014	3.98
456.371	4.02
456.727	4.02
457.084	4.16
457.441	3.92
457.797	3.97
458.154	4.08
458.51	4
458.867	3.79
459.223	4.08
459.58	4.27
459.936	3.84
460.292	3.98
460.648	3.99
461.005	3.92
461.361	3.99
461.717	3.9
462.073	3.94
462.429	4.01
462.785	4.01
463.141	4.19
463.496	4.09
463.852	4.12
464.208	4.02
464.564	4.03
464.919	4.19
465.275	4.22
465.631	4.2
465.986	4.13
466.342	4.06
466.697	4.12
467.052	4.16
467.408	4.11
467.763	4.13
468.118	4.29
468.473	4.13
468.829	4.15
469.184	4.03
469.539	4.05
469.894	4.22
470.249	4.25
470.603	4.26
470.958	3.96
471.313	4.01
471.668	3.89
472.023	4.07
472.377	4.1
472.732	4.14
473.086	4.08
473.441	4.05
473.795	4.19
474.15	4.25
474.504	4.07
474.859	4.14
475.213	4.18
475.567	4.06
475.921	4.27
476.275	4.31
476.63	4.06
476.984	4.11
477.338	4.27
477.692	4.23
478.045	4.03
478.399	4
478.753	4.21
479.107	4.1
479.461	4.26
479.814	4.29
480.168	4.17
480.521	4.16
480.875	4.2
481.228	4.25
481.582	4.13
481.935	4.14
482.289	4.19
482.642	4.11
482.995	4.18
483.348	4.11
483.701	4.08
484.055	4.09
484.408	4.1
484.761	4.05
485.114	3.94
485.466	3.82
485.819	3.72
486.172	3.75
486.525	3.82
486.878	4.01
487.23	4.08
487.583	4.13
487.936	4.21
488.288	4.14
488.641	4.02
488.993	3.91
489.345	3.86
489.698	3.86
490.05	3.94
490.402	3.94
490.754	4.04
491.107	4.1
491.459	4.14
491.811	4.07
492.163	4.21
492.515	4.19
492.866	4.08
493.218	4.01
493.57	3.91
493.922	3.91
494.274	3.96
494.625	4.14
494.977	4.19
495.328	4.29
495.68	4.18
496.031	4.25
496.383	4.24
496.734	4.21
497.086	4.28
497.437	4.26
497.788	4.26
498.139	4.11
498.49	4.16
498.842	4.15
499.193	4.11
499.544	4.24
499.894	4.19
500.245	4.13
500.596	4.09
500.947	4.14
501.298	4.25
501.648	4.17
501.999	4.31
502.35	4.25
502.7	4.27
503.051	4.39
503.401	4.35
503.752	4.34
504.102	4.21
504.452	4.35
504.803	4.32
505.153	4.19
505.503	4.38
505.853	4.28
506.203	4.2
506.553	4.31
506.903	4.2
507.253	4.3
507.603	4.21
507.953	4.23
508.303	4.3
508.652	4.25
509.002	4.37
509.352	4.21
509.701	4.24
510.051	4.32
510.4	4.21
510.75	4.21
511.099	4.18
511.449	4.26
511.798	4.19
512.147	4.22
512.496	4.19
512.846	4.21
513.195	4.39
513.544	4.1
513.893	4.18
514.242	4.1
514.591	4.01
514.939	4.33
515.288	4.31
515.637	4.24
515.986	4.28
516.334	4.21
516.683	4.29
517.032	4.39
517.38	4.37
517.729	4.31
518.077	4.28
518.426	4.28
518.774	4.26
519.122	4.35
519.47	4.22
519.819	4.16
520.167	4.24
520.515	4.17
520.863	4.07
521.211	4.17
521.559	4.26
521.907	4.2
522.255	4.36
522.602	4.29
522.95	4.23
523.298	4.32
523.645	4.29
523.993	4.29
524.341	4.29
524.688	4.42
525.036	4.3
525.383	4.29
525.73	4.31
526.078	4.39
526.425	4.31
526.772	4.14
527.119	4.17
527.466	4.15
527.814	4.15
528.161	4.12
528.508	4.22
528.854	4.23
529.201	4.13
529.548	4.19
529.895	4.09
530.242	3.97
530.588	3.9
530.935	3.93
531.282	4.06
531.628	4.07
531.975	4.22
532.321	4.31
532.667	4.26
533.014	4.25
533.36	4.26
533.706	4.26
534.052	4.25
534.399	4.21
534.745	4.15
535.091	4.08
535.437	3.98
535.783	4.07
536.129	4.2
536.474	4.28
536.82	4.31
537.166	4.35
537.512	4.35
537.857	4.24
538.203	4.22
538.549	4.13
538.894	4.22
539.239	4.22
539.585	4.28
539.93	4.34
540.276	4.3
540.621	4.37
540.966	4.43
541.311	4.27
541.656	4.26
542.001	4.28
542.346	4.22
542.691	4.16
543.036	4.03
543.381	4.05
543.726	4.03
544.071	4.09
544.415	4.17
544.76	4.29
545.105	4.27
545.449	4.3
545.794	4.22
546.138	4.3
546.483	4.35
546.827	4.25
547.171	4.35
547.516	4.3
547.86	4.27
548.204	4.29
548.548	4.19
548.892	4.15
549.236	4.28
549.58	4.26
549.924	4.37
550.268	4.36
550.612	4.41
550.956	4.48
551.3	4.34
551.643	4.4
551.987	4.4
552.33	4.41
552.674	4.2
553.017	4.44
553.361	4.5
553.704	4.31
554.048	4.32
554.391	4.22
554.734	4.28
555.077	4.39
555.42	4.37
555.764	4.47
556.107	4.37
556.45	4.34
556.793	4.39
557.135	4.34
557.478	4.34
557.821	4.47
558.164	4.5
558.507	4.29
558.849	4.44
559.192	4.47
559.534	4.43
559.877	4.43
560.219	4.36
560.562	4.58
560.904	4.55
561.246	4.18
561.589	4.33
561.931	4.3
562.273	4.52
562.615	4.15
562.957	4.44
563.299	4.33
563.641	4.36
563.983	4.24
564.325	4.33
564.667	4.34
565.008	4.27
565.35	4.31
565.692	4.62
566.033	4.47
566.375	4.42
566.716	4.26
567.058	4.3
567.399	4.31
567.741	4.3
568.082	4.37
568.423	4.32
568.764	4.26
569.105	4.39
569.447	4.36
569.788	4.27
570.129	4.15
570.47	4.5
570.811	4.38
571.151	4.51
571.492	4.41
571.833	4.17
572.174	4.59
572.514	4.34
572.855	4.22
573.195	4.26
573.536	4.24
573.876	4.12
574.217	4.27
574.557	4.21
574.898	4.39
575.238	4.16
575.578	4.5
575.918	4.34
576.258	4.33
576.598	4.35
576.938	4.46
577.278	4.23
577.618	4.08
577.958	4.22
578.298	4.43
578.638	4.22
578.977	4.46
579.317	4.48
579.657	4.36
579.996	4.29
580.336	4.32
580.675	4.13
581.014	4.51
581.354	4.17
581.693	4.54
582.032	4.42
582.372	4.39
582.711	4.29
583.05	4.28
583.389	4.23
583.728	4.31
584.067	4.52
584.406	4.31
584.745	4.41
585.083	4.05
585.422	4.52
585.761	4.36
586.1	4.33
586.438	3.97
586.777	4.49
587.115	4.34
587.454	4.47
587.792	4.55
588.13	4.35
588.469	4.32
588.807	4.51
589.145	4.2
589.483	4.15
589.821	4.46
590.159	4.04
590.497	4.58
590.835	4.08
591.173	3.99
591.511	4.45
591.849	4.49
592.187	4.37
592.524	4.43
592.862	4.29
593.2	4.39
593.537	4.19
593.875	4.58
594.212	4.15
594.55	4.32
594.887	4.28
595.224	4.37
595.561	3.99
595.899	4.35
596.236	4.31
596.573	4.31
596.91	4.39
597.247	4.28
597.584	4.3
597.921	4.35
598.258	4.24
598.594	4.1
598.931	4.2
599.268	4.32
599.604	4.25
599.941	4.39
600.277	4.38
600.614	4.37
600.95	4.48
601.287	4.19
601.623	4.4
601.959	4.31
602.296	4.38
602.632	4.45
602.968	4.39
603.304	4.39
603.64	4.2
603.976	3.94
604.312	4.29
604.648	4.13
604.984	4.1
605.319	4.05
605.655	3.99
605.991	4.23
606.326	4.19
606.662	4.15
606.998	4.13
607.333	4.02
607.668	4.12
608.004	4.19
608.339	4.15
608.674	4.45
609.01	4.3
609.345	4.25
609.68	4.4
610.015	4.28
610.35	4.24
610.685	4.45
611.02	4.14
611.355	4.14
611.689	4.28
612.024	4.1
612.359	4.05
612.694	4.31
613.028	4.3
613.363	4.43
613.697	4.22
614.032	4.52
614.366	4.2
614.7	4.27
615.035	4.38
615.369	4.3
615.703	4.49
616.037	4.15
616.371	4.52
616.705	4.26
617.039	4.35
617.373	4.68
617.707	4.44
618.041	4.56
618.375	4.29
618.709	4.2
619.042	4.29
619.376	4.22
619.71	4.23
620.043	4.51
620.377	4.61
620.71	4.49
621.043	4.02
621.377	4.43
621.71	4.29
622.043	4.71
622.376	4.33
622.709	4.32
623.043	4.62
623.376	4.67
623.709	4.17
624.041	4.05
624.374	4.28
624.707	3.65
625.04	4.23
625.373	4.51
625.705	4.24
626.038	4.43
626.37	4.44
626.703	4.64
627.035	4.13
627.368	4.1
627.7	3.91
628.032	3.95
628.365	4.5
628.697	4.06
629.029	4.13
629.361	3.98
629.693	4.07
630.025	4.38
630.357	3.9
630.689	4.39
631.021	3.9
631.353	4.08
631.684	4.52
632.016	4.51
632.348	4.5
632.679	4.18
633.011	4.35
633.342	4.56
633.674	3.69
634.005	4.23
634.336	4.46
634.668	4.17
634.999	4.49
635.33	4.01
635.661	3.96
635.992	4.18
636.323	4.23
636.654	3.67
636.985	4.13
637.316	3.99
637.647	3.92
637.977	4.66
638.308	4.18
638.639	4.33
638.969	3.89
639.3	4.34
639.63	3.92
639.961	4.2
640.291	4.35
640.622	4.3
640.952	4.43
641.282	4.19
641.612	4.11
641.943	4.31
642.273	3.82
642.603	4.36
642.933	4.09
643.263	3.85
643.592	4.13
643.922	4.61
644.252	4.37
644.582	4.28
644.911	4.38
645.241	3.9
645.571	4.14
645.9	4.25
646.23	4.1
646.559	4.18
646.888	4.18
647.218	4.33
647.547	4.56
647.876	4.24
648.205	3.55
648.534	4.36
648.863	4.48
649.192	4.06
649.521	4.24
649.85	4.59
650.179	4.16
650.508	3.95
650.837	4.11
651.165	3.81
651.494	3.93
651.822	4.32
652.151	4.26
652.479	3.89
652.808	4
653.136	4.4
653.465	4.21
653.793	4.19
654.121	3.68
654.449	3.56
654.777	3.62
655.105	3.92
655.433	4.29
655.761	3.7
656.089	4.04
656.417	3.98
656.745	3.8
657.073	3.95
657.4	4.44
657.728	4.19
658.056	3.69
658.383	4.23
658.711	3.63
659.038	4.53
659.365	4.51
659.693	4.75
660.02	4.43
660.347	4
660.674	3.97
661.001	4.14
661.329	4.39
661.656	3.89
661.982	3.55
662.309	3.95
662.636	3.96
662.963	3.96
663.29	3.64
663.616	4.65
663.943	4.22
664.27	4.37
664.596	3.99
664.923	3.95
665.249	4.27
665.576	4.23
665.902	3.89
666.228	3.51
666.554	4.21
666.881	3.97
667.207	4.32
667.533	4.32
667.859	4.04
668.185	4.16
668.511	4.83
668.837	4.18
669.162	4.18
669.488	3.59
669.814	4.1
670.139	3.8
670.465	4.04
670.791	3.96
671.116	3.81
671.442	3.82
671.767	4.19
672.092	3.95
672.418	3.89
672.743	3.97
673.068	4.75
673.393	4.6
673.718	4.38
674.043	3.68
674.368	3.55
674.693	4.06
675.018	3.99
675.343	4.19
675.667	3.99
675.992	4.23
676.317	4.05
676.641	3.61
676.966	3.5
677.29	4.36
677.615	4.27
677.939	4.3
678.264	4.11
678.588	3.67
678.912	4.18
679.236	4.15
679.56	3.71
679.885	3.84
680.209	4.52
680.532	4.19
680.856	4.25
681.18	3.57
681.504	3.96
681.828	4.12
682.152	4.47
682.475	4.33
682.799	4.08
683.122	4.38
683.446	3.93
683.769	3.74
684.093	4.29
684.416	3.44
684.739	4.23
685.062	4.99
685.386	3.41
685.709	4.52
686.032	5.09
686.355	4.74
686.678	3.92
687.001	4.54
687.324	3.9
687.646	4.06
687.969	3.92
688.292	4.25
688.614	4.59
688.937	4.34
689.26	3.84
689.582	4.59
689.904	4.07
690.227	3.64
690.549	4.03
690.871	4.01
691.194	4.26
691.516	4.06
691.838	4.15
692.16	4.55
