Data from 0039_forehead_Reflection__1__86.txt Node

Date: Fri Nov 04 15:27:54 CDT 2022
User: ToomeyLab
Spectrometer: FLMS14357
Trigger mode: 0
Integration Time (sec): 1.000000E-2
Scans to average: 100
Electric dark correction enabled: true
Nonlinearity correction enabled: false
Boxcar width: 0
XAxis mode: Wavelengths
Number of Pixels in Spectrum: 2048
>>>>>Begin Spectral Data<<<<<
189.047	65.31
189.435	65.31
189.823	65.31
190.211	1308.61
190.599	-27.8
190.987	308.11
191.375	553.89
191.763	187.87
192.151	-9.71
192.538	429.45
192.926	83.6
193.314	98.67
193.702	62
194.089	22.5
194.477	233.02
194.864	-1467.96
195.252	44.88
195.639	44.64
196.027	139.35
196.414	387.35
196.801	163.24
197.189	-131.45
197.576	1.83
197.963	-85.57
198.351	-11.36
198.738	24.88
199.125	-25.23
199.512	-19.32
199.899	-13.32
200.286	-6.23
200.673	40.64
201.06	20.07
201.447	-11.65
201.833	34.54
202.22	29.05
202.607	10.92
202.994	56.05
203.38	64.19
203.767	26.7
204.154	46.31
204.54	21.34
204.927	1.15
205.313	19.54
205.699	35.42
206.086	4.79
206.472	-5.27
206.858	6.94
207.245	-8.63
207.631	30.88
208.017	28.31
208.403	8.8
208.789	39.09
209.175	-0.36
209.561	-15.3
209.947	-75.76
210.333	21.21
210.719	-1.62
211.105	-43.16
211.491	19.64
211.876	13.58
212.262	-1.29
212.648	-7.2
213.034	24.32
213.419	17.65
213.805	-2.92
214.19	-24.23
214.576	21.65
214.961	19.99
215.346	2.71
215.732	48.58
216.117	12.02
216.502	26.62
216.888	3.21
217.273	2.11
217.658	23.08
218.043	10.89
218.428	31.78
218.813	23.25
219.198	35.6
219.583	-2.07
219.968	31.77
220.353	-21.67
220.738	-37.98
221.122	-0.92
221.507	15.61
221.892	5.61
222.276	-2.59
222.661	21.06
223.046	10.06
223.43	5.92
223.815	-1.32
224.199	9.08
224.583	-0.03
224.968	10.24
225.352	5.61
225.736	-3.02
226.121	-9.87
226.505	10.68
226.889	7.29
227.273	-0.04
227.657	4.91
228.041	3.88
228.425	4.75
228.809	3.89
229.193	5.32
229.577	-0.01
229.961	4.99
230.344	3.15
230.728	3
231.112	2.76
231.495	3.3
231.879	4.02
232.263	1.3
232.646	2.66
233.03	1.53
233.413	1.94
233.797	1.63
234.18	3.33
234.563	2.46
234.946	3.02
235.33	5.89
235.713	2.06
236.096	4.69
236.479	2.13
236.862	2.93
237.245	2.47
237.628	2.42
238.011	1.09
238.394	3.35
238.777	3.76
239.16	3.32
239.543	2.83
239.925	4.15
240.308	3.85
240.691	3.81
241.073	3.29
241.456	2.88
241.838	2.42
242.221	2.96
242.603	2.7
242.986	2.78
243.368	3.47
243.75	2.94
244.133	3.26
244.515	3.16
244.897	3.4
245.279	3.45
245.661	3.6
246.043	3.19
246.425	3.99
246.807	4.13
247.189	2.98
247.571	3.91
247.953	3.34
248.335	3.37
248.717	3.42
249.098	3.23
249.48	3.34
249.862	3.55
250.243	3.16
250.625	3.22
251.006	3.39
251.388	3.82
251.769	4.18
252.151	4.15
252.532	4
252.913	3.23
253.295	3.87
253.676	3.76
254.057	3.45
254.438	3.44
254.819	3.78
255.2	3.39
255.581	4.4
255.962	3.66
256.343	3.13
256.724	3.66
257.105	3.45
257.486	4.34
257.867	4.96
258.247	4.52
258.628	2.64
259.009	3.37
259.389	3.51
259.77	3.99
260.15	3.55
260.531	3.51
260.911	3.5
261.292	3.19
261.672	3.35
262.052	3.47
262.432	3.51
262.813	3.09
263.193	3.15
263.573	3.79
263.953	3.55
264.333	3.49
264.713	4.01
265.093	2.96
265.473	3.93
265.853	2.76
266.233	3.36
266.612	3.85
266.992	4.04
267.372	2.7
267.752	3.52
268.131	3.36
268.511	3.8
268.89	3.83
269.27	3.51
269.649	3.61
270.029	2.94
270.408	3.48
270.787	3.74
271.167	3.23
271.546	4.51
271.925	3.62
272.304	3.18
272.683	3.1
273.062	3.03
273.441	3.35
273.82	3
274.199	3.43
274.578	3.08
274.957	3.49
275.336	2.96
275.715	3.36
276.093	3.03
276.472	2.89
276.851	3.01
277.229	3.59
277.608	3.03
277.986	3.9
278.365	3.7
278.743	3.77
279.122	3.43
279.5	3.17
279.878	3.49
280.257	3.5
280.635	3.19
281.013	3.65
281.391	3.62
281.769	3.47
282.147	3.29
282.525	3.07
282.903	3.35
283.281	3.78
283.659	3.23
284.037	2.9
284.415	3.13
284.792	3.62
285.17	3.06
285.548	3.6
285.925	3.4
286.303	3.24
286.68	3.48
287.058	3.31
287.435	3.23
287.813	3.31
288.19	3.22
288.567	3.09
288.945	3.64
289.322	3.64
289.699	3.52
290.076	3.91
290.453	3.26
290.83	3.37
291.207	3.73
291.584	3.78
291.961	3.72
292.338	3.72
292.715	3.72
293.092	3.71
293.469	3.76
293.845	3.5
294.222	3.93
294.599	3.84
294.975	3.59
295.352	3.9
295.728	4.16
296.105	3.82
296.481	3.81
296.858	4.14
297.234	4.39
297.61	4.41
297.986	4.1
298.363	3.97
298.739	4.2
299.115	4.37
299.491	3.97
299.867	4.17
300.243	4.05
300.619	4.42
300.995	4.7
301.371	4.95
301.746	4.33
302.122	3.89
302.498	4.42
302.874	4.44
303.249	4
303.625	4.36
304	4.75
304.376	4.37
304.751	4.46
305.127	4.18
305.502	4.57
305.878	4.72
306.253	5.29
306.628	4.48
307.003	4.56
307.378	4.79
307.754	4.99
308.129	4.66
308.504	5.25
308.879	5.19
309.254	4.96
309.629	5.23
310.003	5.15
310.378	5.11
310.753	5.09
311.128	5.45
311.502	4.92
311.877	5.2
312.252	5.12
312.626	5.12
313.001	5.13
313.375	5.66
313.75	5.22
314.124	5.11
314.498	5.82
314.873	5.85
315.247	5.81
315.621	5.69
315.995	5.48
316.369	6.04
316.743	6.4
317.117	6.16
317.491	6.17
317.865	6.17
318.239	6.45
318.613	6.56
318.987	6.8
319.361	6.32
319.734	6.04
320.108	6.62
320.482	5.89
320.855	6.19
321.229	6.36
321.602	6.18
321.976	6.34
322.349	7.62
322.723	6.69
323.096	6.5
323.469	6.28
323.843	6.07
324.216	6.58
324.589	6.81
324.962	7.05
325.335	6.65
325.708	6.2
326.081	6.67
326.454	6.52
326.827	6.63
327.2	6.88
327.573	6.64
327.945	7.18
328.318	6.49
328.691	6.83
329.063	6.84
329.436	7.55
329.809	7.32
330.181	6.59
330.553	6.82
330.926	7.48
331.298	6.91
331.671	7.17
332.043	7.02
332.415	7.03
332.787	7.11
333.159	6.93
333.532	7.26
333.904	7.38
334.276	7.38
334.648	7.59
335.02	7.48
335.391	7.73
335.763	7.47
336.135	7.63
336.507	7.63
336.879	7.51
337.25	8.38
337.622	7.98
337.993	7.72
338.365	7.9
338.736	8.1
339.108	8.51
339.479	8.19
339.851	7.65
340.222	7.97
340.593	7.88
340.964	8.07
341.336	8.02
341.707	8.14
342.078	8.07
342.449	8.13
342.82	8.13
343.191	8.01
343.562	8.57
343.933	8.29
344.303	8.42
344.674	8.7
345.045	8.57
345.416	8.06
345.786	8.54
346.157	8.65
346.527	8.68
346.898	8.5
347.268	8.24
347.639	8.66
348.009	9.09
348.38	8.79
348.75	8.27
349.12	8.65
349.49	9
349.861	8.66
350.231	9.06
350.601	8.61
350.971	8.99
351.341	8.99
351.711	9.03
352.081	8.87
352.45	9.16
352.82	8.95
353.19	9.21
353.56	9.1
353.929	8.89
354.299	9.48
354.669	9.36
355.038	9.5
355.408	8.99
355.777	9.57
356.147	9.14
356.516	9.19
356.885	9.41
357.254	9.63
357.624	9.62
357.993	9.41
358.362	9.4
358.731	9.64
359.1	9.64
359.469	9.33
359.838	9.66
360.207	9.62
360.576	9.6
360.945	10.17
361.314	10.14
361.682	9.87
362.051	10
362.42	10.08
362.788	9.95
363.157	9.83
363.525	9.8
363.894	9.81
364.262	9.86
364.631	9.94
364.999	9.97
365.367	10.17
365.735	10.38
366.104	10.44
366.472	10.26
366.84	10.01
367.208	10.6
367.576	10.26
367.944	10.87
368.312	10.65
368.68	10.46
369.048	10.61
369.416	10.62
369.783	10.48
370.151	10.19
370.519	11.16
370.886	10.94
371.254	11.1
371.621	10.69
371.989	11.06
372.356	10.85
372.724	11.13
373.091	10.88
373.458	11.14
373.826	11.08
374.193	11.04
374.56	10.7
374.927	11.27
375.294	11.2
375.661	11.6
376.028	11.33
376.395	11.64
376.762	11.67
377.129	11.42
377.496	11.64
377.863	11.73
378.229	11.58
378.596	11.59
378.963	11.48
379.329	11.77
379.696	11.46
380.062	11.64
380.429	11.82
380.795	11.72
381.161	11.77
381.528	12.26
381.894	11.82
382.26	11.7
382.626	11.75
382.993	12.06
383.359	12.27
383.725	12.18
384.091	12.3
384.457	12.57
384.823	12.3
385.188	12.51
385.554	12.01
385.92	12.19
386.286	12.62
386.651	12.29
387.017	12.32
387.383	12.64
387.748	12.31
388.114	12.4
388.479	12.97
388.845	12.9
389.21	12.75
389.575	13.06
389.94	12.85
390.306	12.98
390.671	12.88
391.036	12.91
391.401	13.29
391.766	12.55
392.131	12.94
392.496	13.16
392.861	13.18
393.226	12.93
393.591	13.02
393.956	13.27
394.32	12.85
394.685	13.44
395.05	13.3
395.414	13.41
395.779	13.13
396.143	13.21
396.508	13.36
396.872	13.63
397.236	13.28
397.601	13.28
397.965	13.6
398.329	13.52
398.694	13.8
399.058	13.63
399.422	13.59
399.786	13.68
400.15	13.5
400.514	13.65
400.878	13.92
401.242	14.03
401.605	13.9
401.969	14.28
402.333	13.9
402.697	14
403.06	14.22
403.424	13.94
403.787	13.94
404.151	14.16
404.514	14.43
404.878	14.23
405.241	14.38
405.604	14.36
405.968	14.05
406.331	14.05
406.694	14.15
407.057	14.25
407.42	14.41
407.783	14.19
408.146	14.42
408.509	14.45
408.872	14.51
409.235	14.63
409.598	14.48
409.961	14.79
410.323	14.9
410.686	14.72
411.049	14.77
411.411	14.71
411.774	14.94
412.136	14.98
412.499	14.79
412.861	14.83
413.223	15.07
413.586	14.88
413.948	15.15
414.31	14.86
414.672	15.26
415.035	15.18
415.397	15.32
415.759	15.42
416.121	15.11
416.483	15.3
416.845	15.25
417.206	15.19
417.568	15.38
417.93	15.24
418.292	15.22
418.653	15.42
419.015	15.41
419.377	15.28
419.738	15.42
420.1	15.38
420.461	15.17
420.822	15.22
421.184	15.35
421.545	15.24
421.906	15.42
422.267	15.32
422.629	15.46
422.99	15.21
423.351	15.25
423.712	15.41
424.073	15.59
424.434	15.66
424.795	15.68
425.155	15.73
425.516	15.78
425.877	15.39
426.238	15.59
426.598	15.73
426.959	15.69
427.32	15.84
427.68	15.95
428.041	16.11
428.401	16.21
428.761	16.42
429.122	16.46
429.482	16.65
429.842	16.21
430.202	16.56
430.563	16.68
430.923	16.86
431.283	16.69
431.643	16.72
432.003	17.07
432.363	16.8
432.722	16.85
433.082	17
433.442	16.89
433.802	16.68
434.161	16.94
434.521	16.89
434.881	16.84
435.24	16.77
435.6	16.97
435.959	16.95
436.319	17.02
436.678	17.06
437.037	17.09
437.396	17.48
437.756	17.47
438.115	17.28
438.474	17.58
438.833	17.65
439.192	17.36
439.551	17.55
439.91	17.59
440.269	17.64
440.628	17.59
440.987	17.58
441.345	17.54
441.704	17.62
442.063	17.56
442.421	17.52
442.78	17.61
443.138	17.63
443.497	17.62
443.855	17.88
444.214	17.87
444.572	18
444.93	18.02
445.288	18.2
445.647	18.22
446.005	18.23
446.363	18.07
446.721	18.03
447.079	18.05
447.437	17.9
447.795	17.86
448.153	17.87
448.51	17.93
448.868	17.85
449.226	17.93
449.584	18.16
449.941	18.15
450.299	18.46
450.656	18.51
451.014	18.69
451.371	18.84
451.729	18.86
452.086	18.84
452.443	18.92
452.801	19.1
453.158	19.01
453.515	19.24
453.872	18.92
454.229	19.23
454.586	19.06
454.943	18.99
455.3	19.36
455.657	19.22
456.014	19.27
456.371	19.03
456.727	19.28
457.084	19.25
457.441	19.42
457.797	19.47
458.154	19.46
458.51	19.8
458.867	19.76
459.223	19.64
459.58	19.79
459.936	19.62
460.292	19.64
460.648	19.55
461.005	19.25
461.361	19.55
461.717	19.24
462.073	19.31
462.429	19.36
462.785	19.62
463.141	19.82
463.496	19.96
463.852	20.14
464.208	20.23
464.564	20.25
464.919	20.52
465.275	20.62
465.631	20.46
465.986	20.48
466.342	20.64
466.697	20.37
467.052	20.51
467.408	20.43
467.763	20.63
468.118	20.81
468.473	20.75
468.829	20.6
469.184	20.59
469.539	20.8
469.894	20.78
470.249	20.68
470.603	20.81
470.958	20.85
471.313	20.88
471.668	20.89
472.023	20.99
472.377	21.31
472.732	21.27
473.086	21.08
473.441	21.43
473.795	21.34
474.15	21.43
474.504	21.25
474.859	21.47
475.213	21.44
475.567	21.35
475.921	21.54
476.275	21.41
476.63	21.6
476.984	21.74
477.338	21.69
477.692	21.56
478.045	21.65
478.399	21.57
478.753	21.69
479.107	21.71
479.461	21.61
479.814	21.84
480.168	21.94
480.521	21.83
480.875	21.84
481.228	21.96
481.582	22.03
481.935	22.05
482.289	22.05
482.642	22.21
482.995	22.01
483.348	22.11
483.701	22.05
484.055	21.9
484.408	21.99
484.761	21.77
485.114	21.44
485.466	21.1
485.819	20.94
486.172	20.99
486.525	21.15
486.878	21.47
487.23	21.68
487.583	21.94
487.936	22.16
488.288	22.08
488.641	21.9
488.993	21.63
489.345	21.6
489.698	21.56
490.05	21.7
490.402	21.79
490.754	21.94
491.107	22.22
491.459	22.57
491.811	22.71
492.163	22.79
492.515	22.8
492.866	22.61
493.218	22.29
493.57	22.1
493.922	22.24
494.274	22.38
494.625	22.67
494.977	22.93
495.328	23.22
495.68	23.36
496.031	23.5
496.383	23.72
496.734	23.82
497.086	23.79
497.437	23.91
497.788	23.96
498.139	23.73
498.49	23.42
498.842	23.55
499.193	23.76
499.544	23.66
499.894	23.64
500.245	24.03
500.596	23.88
500.947	23.95
501.298	24.05
501.648	24.19
501.999	24.27
502.35	24.29
502.7	24.35
503.051	24.44
503.401	24.47
503.752	24.63
504.102	24.61
504.452	24.78
504.803	24.88
505.153	24.78
505.503	24.67
505.853	24.73
506.203	24.72
506.553	24.76
506.903	24.72
507.253	24.83
507.603	24.83
507.953	25.08
508.303	25.06
508.652	25.03
509.002	25.1
509.352	25.09
509.701	25.17
510.051	24.91
510.4	24.82
510.75	24.9
511.099	25.09
511.449	24.94
511.798	25.14
512.147	25.23
512.496	25.2
512.846	25.31
513.195	25.48
513.544	25.29
513.893	25.33
514.242	25.35
514.591	25.45
514.939	25.54
515.288	25.77
515.637	25.67
515.986	25.67
516.334	25.99
516.683	26.11
517.032	26.06
517.38	26.21
517.729	26.19
518.077	26.24
518.426	26.29
518.774	26.21
519.122	26.17
519.47	25.99
519.819	26.07
520.167	25.73
520.515	25.66
520.863	25.71
521.211	25.79
521.559	25.94
521.907	26.13
522.255	26.18
522.602	26.33
522.95	26.39
523.298	26.57
523.645	26.75
523.993	26.75
524.341	26.83
524.688	26.86
525.036	26.77
525.383	26.86
525.73	27.09
526.078	26.8
526.425	26.95
526.772	26.79
527.119	26.54
527.466	26.43
527.814	26.43
528.161	26.56
528.508	26.63
528.854	26.73
529.201	26.68
529.548	26.75
529.895	26.38
530.242	26.02
530.588	25.88
530.935	25.99
531.282	26.2
531.628	26.35
531.975	26.69
532.321	26.86
532.667	27.01
533.014	27.29
533.36	27.23
533.706	27.44
534.052	27.34
534.399	27.32
534.745	27.11
535.091	26.75
535.437	26.87
535.783	26.96
536.129	27.26
536.474	27.55
536.82	27.61
537.166	27.91
537.512	27.93
537.857	27.93
538.203	27.89
538.549	27.66
538.894	27.61
539.239	27.86
539.585	27.92
539.93	28.21
540.276	28.22
540.621	28.49
540.966	28.75
541.311	28.47
541.656	28.79
542.001	28.71
542.346	28.43
542.691	28.25
543.036	27.73
543.381	27.59
543.726	27.72
544.071	27.9
544.415	27.98
544.76	28.23
545.105	28.41
545.449	28.55
545.794	28.66
546.138	28.77
546.483	28.94
546.827	28.98
547.171	29.15
547.516	29.23
547.86	29.13
548.204	29.04
548.548	28.89
548.892	28.99
549.236	29.06
549.58	29.23
549.924	29.53
550.268	29.65
550.612	29.58
550.956	29.95
551.3	29.94
551.643	30.22
551.987	30.05
552.33	30.19
552.674	30.39
553.017	30.23
553.361	30.41
553.704	30.25
554.048	30.34
554.391	30.09
554.734	30.21
555.077	30.16
555.42	30.33
555.764	30.52
556.107	30.58
556.45	30.89
556.793	30.58
557.135	30.73
557.478	30.58
557.821	30.98
558.164	30.91
558.507	30.87
558.849	31.04
559.192	31.11
559.534	30.89
559.877	30.93
560.219	31.19
560.562	31.26
560.904	31.4
561.246	31.34
561.589	31.42
561.931	31.36
562.273	31.66
562.615	31.49
562.957	31.68
563.299	31.48
563.641	31.37
563.983	31.69
564.325	31.66
564.667	31.44
565.008	31.66
565.35	31.86
565.692	32.17
566.033	31.83
566.375	31.74
566.716	31.98
567.058	31.78
567.399	31.93
567.741	31.7
568.082	31.68
568.423	31.74
568.764	31.76
569.105	31.71
569.447	31.96
569.788	32.3
570.129	32.44
570.47	32.39
570.811	32.23
571.151	32.39
571.492	32.34
571.833	32.64
572.174	32.52
572.514	32.54
572.855	32.41
573.195	32.44
573.536	32.4
573.876	32.25
574.217	32.43
574.557	32.41
574.898	32.56
575.238	32.59
575.578	32.74
575.918	32.82
576.258	33
576.598	32.98
576.938	32.74
577.278	32.69
577.618	32.76
577.958	32.86
578.298	33.25
578.638	33.16
578.977	33.15
579.317	33.21
579.657	33.61
579.996	33.18
580.336	33.23
580.675	33.47
581.014	33.97
581.354	33.9
581.693	33.87
582.032	33.82
582.372	33.84
582.711	33.83
583.05	34.22
583.389	34.17
583.728	34.08
584.067	34.23
584.406	33.93
584.745	34.34
585.083	34.17
585.422	34.33
585.761	34.44
586.1	34.33
586.438	34.2
586.777	34.42
587.115	34.68
587.454	34.59
587.792	34.54
588.13	34.5
588.469	34.73
588.807	34.74
589.145	34.72
589.483	34.52
589.821	34.8
590.159	34.7
590.497	34.99
590.835	34.81
591.173	35.04
591.511	34.94
591.849	35
592.187	34.96
592.524	35.17
592.862	34.82
593.2	35.24
593.537	35.21
593.875	35.27
594.212	35.48
594.55	35.12
594.887	35.21
595.224	35.5
595.561	34.99
595.899	35.41
596.236	35.22
596.573	35.49
596.91	35.61
597.247	35.55
597.584	35.52
597.921	35.47
598.258	35.21
598.594	35.17
598.931	34.98
599.268	35.21
599.604	35.35
599.941	35.31
600.277	35.45
600.614	35.91
600.95	36.16
601.287	35.86
601.623	36.09
601.959	36.19
602.296	35.85
602.632	36.48
602.968	36.54
603.304	36.42
603.64	36.28
603.976	36.21
604.312	35.94
604.648	36.2
604.984	36.13
605.319	36.25
605.655	36
605.991	36
606.326	36.17
606.662	35.85
606.998	35.87
607.333	36.01
607.668	36.2
608.004	36.45
608.339	36.54
608.674	36.61
609.01	36.81
609.345	36.74
609.68	36.9
610.015	36.87
610.35	37.01
610.685	37
611.02	36.72
611.355	36.63
611.689	36.7
612.024	36.65
612.359	36.58
612.694	36.53
613.028	36.81
613.363	37.24
613.697	37.2
614.032	37.29
614.366	37.44
614.7	37.29
615.035	37.4
615.369	37.69
615.703	37.83
616.037	37.89
616.371	37.96
616.705	37.39
617.039	37.96
617.373	37.9
617.707	37.82
618.041	38.17
618.375	38.21
618.709	38.23
619.042	37.91
619.376	37.93
619.71	38.13
620.043	38.51
620.377	37.99
620.71	38.45
621.043	38.32
621.377	37.82
621.71	38.47
622.043	38.48
622.376	38.36
622.709	38.31
623.043	38.22
623.376	38.42
623.709	38.17
624.041	38.58
624.374	38.41
624.707	38.88
625.04	38.8
625.373	39.06
625.705	38.37
626.038	38.77
626.37	38.85
626.703	38.68
627.035	38.4
627.368	38.78
627.7	38.97
628.032	38.74
628.365	39.24
628.697	38.62
629.029	39.15
629.361	38.4
629.693	38.53
630.025	38.96
630.357	38.76
630.689	39.12
631.021	38.97
631.353	39.1
631.684	39.03
632.016	39.22
632.348	39.52
632.679	39.08
633.011	39.32
633.342	39.25
633.674	39.09
634.005	39.53
634.336	39.7
634.668	39.46
634.999	39.59
635.33	39.48
635.661	39.03
635.992	39.17
636.323	39.05
636.654	39.19
636.985	39.6
637.316	39.42
637.647	39.37
637.977	39.81
638.308	40.15
638.639	40.01
638.969	39.69
639.3	39.87
639.63	40.14
639.961	39.78
640.291	40.27
640.622	40.54
640.952	39.6
641.282	40.42
641.612	39.85
641.943	39.98
642.273	40.02
642.603	40.21
642.933	39.71
643.263	39.95
643.592	40.79
643.922	41.26
644.252	41.05
644.582	40.54
644.911	40.35
645.241	40.68
645.571	40.62
645.9	40.25
646.23	40.33
646.559	41.04
646.888	40.55
647.218	40.92
647.547	41.29
647.876	41.12
648.205	41
648.534	41.06
648.863	41.29
649.192	40.71
649.521	41.33
649.85	41.2
650.179	41.11
650.508	41.01
650.837	41.09
651.165	41.72
651.494	40.85
651.822	40.74
652.151	41.02
652.479	40.63
652.808	40.66
653.136	41.14
653.465	41.64
653.793	41.69
654.121	40.96
654.449	41.35
654.777	41.43
655.105	41
655.433	41.02
655.761	41.51
656.089	41.95
656.417	42.02
656.745	41.79
657.073	41.86
657.4	41.42
657.728	41.46
658.056	42.19
658.383	41.52
658.711	41.68
659.038	42.06
659.365	42.33
659.693	42.19
660.02	41.82
660.347	41.78
660.674	41.59
661.001	41.57
661.329	41.71
661.656	41.72
661.982	41.44
662.309	41.96
662.636	42.24
662.963	42.19
663.29	42.47
663.616	42.27
663.943	42.22
664.27	42.23
664.596	42.43
664.923	42.24
665.249	42.12
665.576	41.97
665.902	41.63
666.228	42.11
666.554	42.47
666.881	42.22
667.207	43.01
667.533	43.34
667.859	43.14
668.185	42.55
668.511	42.46
668.837	42.33
669.162	43.05
669.488	42.6
669.814	42.55
670.139	42.89
670.465	42.54
670.791	42.47
671.116	43
671.442	42.61
671.767	42.41
672.092	42.76
