Data from 0199_chest_Reflection__3__343.txt Node

Date: Fri Dec 15 19:44:49 CST 2023
User: ToomeyLab
Spectrometer: FLMS14357
Trigger mode: 0
Integration Time (sec): 1.000000E-2
Scans to average: 100
Electric dark correction enabled: true
Nonlinearity correction enabled: false
Boxcar width: 0
XAxis mode: Wavelengths
Number of Pixels in Spectrum: 2048
>>>>>Begin Spectral Data<<<<<
189.047	-331.96
189.435	-331.96
189.823	-331.96
190.211	6.97
190.599	-19.99
190.987	381.64
191.375	238.44
191.763	-16.57
192.151	184.86
192.538	36.32
192.926	-39.26
193.314	109.3
193.702	182.78
194.089	4676.27
194.477	78.5
194.864	-723.96
195.252	167.45
195.639	169.5
196.027	198.21
196.414	73.42
196.801	-243.85
197.189	135.04
197.576	257.97
197.963	-162.02
198.351	-49.02
198.738	-12.66
199.125	-15.53
199.512	-14.63
199.899	2.88
200.286	7.33
200.673	0.31
201.06	-33.89
201.447	-7.72
201.833	12.16
202.22	9.94
202.607	1.82
202.994	-26.81
203.38	9.31
203.767	26.74
204.154	20.9
204.54	3.34
204.927	-41.54
205.313	-24.28
205.699	17.13
206.086	41.24
206.472	1.2
206.858	13.08
207.245	-51.79
207.631	12.76
208.017	-29.33
208.403	-21.2
208.789	34.07
209.175	3.46
209.561	-15.46
209.947	-37.95
210.333	-105.24
210.719	6.19
211.105	32.43
211.491	-35.85
211.876	30.01
212.262	34.44
212.648	-18.28
213.034	27.95
213.419	-24.57
213.805	-3.14
214.19	-30.69
214.576	-10.85
214.961	-25.38
215.346	-80.67
215.732	2.74
216.117	19.85
216.502	-18.41
216.888	-10.48
217.273	17.66
217.658	-19.63
218.043	-23.57
218.428	-79
218.813	-17.75
219.198	-37.36
219.583	5.87
219.968	-5.19
220.353	-19.18
220.738	0.57
221.122	-2.25
221.507	-77.83
221.892	-47.24
222.276	-22.69
222.661	-15.54
223.046	15.21
223.43	-0.07
223.815	0.45
224.199	-7.66
224.583	2.42
224.968	1.7
225.352	10.56
225.736	5.05
226.121	-23.09
226.505	-0.08
226.889	2.1
227.273	-3.73
227.657	9.8
228.041	2.42
228.425	0.9
228.809	4.35
229.193	4.47
229.577	2.08
229.961	3.38
230.344	2.47
230.728	3.2
231.112	4.57
231.495	3.86
231.879	2.51
232.263	4.26
232.646	3.52
233.03	4.32
233.413	2.02
233.797	0.96
234.18	2.94
234.563	1.54
234.946	2.84
235.33	3.32
235.713	3.76
236.096	2.43
236.479	3.72
236.862	1.35
237.245	4.07
237.628	1.63
238.011	4.51
238.394	2.55
238.777	2.54
239.16	1.3
239.543	3.5
239.925	5.5
240.308	3.77
240.691	4.18
241.073	3.65
241.456	1.17
241.838	0.81
242.221	2.59
242.603	2.85
242.986	3.65
243.368	2.74
243.75	4.02
244.133	3.4
244.515	4.05
244.897	3.86
245.279	3.41
245.661	3.36
246.043	2.8
246.425	2.15
246.807	3.94
247.189	4.26
247.571	3.8
247.953	3.57
248.335	3.07
248.717	3.71
249.098	3.77
249.48	3.63
249.862	3.68
250.243	3.52
250.625	3.62
251.006	3.72
251.388	2.92
251.769	3.38
252.151	3.37
252.532	2.52
252.913	2.22
253.295	2.92
253.676	3.18
254.057	3.43
254.438	3.4
254.819	2.19
255.2	2.97
255.581	4.05
255.962	3.07
256.343	2.43
256.724	2.11
257.105	1.62
257.486	1.98
257.867	2.81
258.247	3.45
258.628	3.28
259.009	3.37
259.389	3.59
259.77	2.35
260.15	2.39
260.531	2.17
260.911	3.5
261.292	3.52
261.672	3.59
262.052	3.5
262.432	3.42
262.813	3.18
263.193	2.61
263.573	3.22
263.953	3.08
264.333	3.35
264.713	3.62
265.093	3.04
265.473	2.92
265.853	2.25
266.233	3.97
266.612	2.29
266.992	1.86
267.372	3.13
267.752	2.53
268.131	3.05
268.511	4.3
268.89	2.77
269.27	2.28
269.649	2.89
270.029	2.63
270.408	4.24
270.787	3.86
271.167	4.39
271.546	3.8
271.925	3.3
272.304	3.14
272.683	3.94
273.062	2.86
273.441	2.95
273.82	3.03
274.199	2.83
274.578	3.01
274.957	3.35
275.336	3.72
275.715	2.88
276.093	3.05
276.472	2.81
276.851	3.03
277.229	3.05
277.608	2.73
277.986	2.98
278.365	2.71
278.743	2.65
279.122	3.07
279.5	3.77
279.878	3.9
280.257	2.85
280.635	2.63
281.013	3.17
281.391	2.48
281.769	3.17
282.147	3.19
282.525	3.38
282.903	2.6
283.281	3.51
283.659	3.03
284.037	2.85
284.415	3.22
284.792	3.62
285.17	2.72
285.548	3.05
285.925	3.25
286.303	2.94
286.68	2.99
287.058	3.4
287.435	3.03
287.813	3.14
288.19	2.69
288.567	2.95
288.945	3.74
289.322	2.69
289.699	2.79
290.076	3.05
290.453	3.02
290.83	2.9
291.207	2.78
291.584	3.45
291.961	3.7
292.338	3.43
292.715	3.19
293.092	2.91
293.469	3.47
293.845	3.28
294.222	2.95
294.599	2.47
294.975	2.91
295.352	3.5
295.728	2.61
296.105	2.91
296.481	3.01
296.858	3.18
297.234	2.83
297.61	3.09
297.986	2.75
298.363	3.16
298.739	3.47
299.115	3.18
299.491	3.05
299.867	3.41
300.243	3.02
300.619	2.74
300.995	3.12
301.371	3.07
301.746	3.25
302.122	3.48
302.498	3.47
302.874	2.86
303.249	3.06
303.625	3.37
304	3.54
304.376	2.72
304.751	2.55
305.127	3.53
305.502	2.56
305.878	2.57
306.253	3.35
306.628	3.74
307.003	2.95
307.378	3.46
307.754	3.22
308.129	2.61
308.504	2.93
308.879	2.7
309.254	4.06
309.629	3.19
310.003	3.35
310.378	3.49
310.753	3.54
311.128	3.34
311.502	3.17
311.877	3.75
312.252	2.88
312.626	3.31
313.001	3.3
313.375	3.33
313.75	3
314.124	3.1
314.498	3.28
314.873	3.09
315.247	2.94
315.621	2.79
315.995	2.83
316.369	3.21
316.743	2.85
317.117	3.48
317.491	2.92
317.865	2.97
318.239	3.08
318.613	2.77
318.987	3.51
319.361	2.76
319.734	3.28
320.108	3.06
320.482	3.06
320.855	3.45
321.229	2.87
321.602	3.01
321.976	3.57
322.349	3.02
322.723	3.09
323.096	3.86
323.469	2.78
323.843	2.74
324.216	3.79
324.589	2.62
324.962	3.72
325.335	2.84
325.708	3.26
326.081	3.47
326.454	3.35
326.827	3.22
327.2	3.22
327.573	3.32
327.945	3.23
328.318	3.23
328.691	2.52
329.063	3.08
329.436	3.47
329.809	3.47
330.181	3.41
330.553	2.98
330.926	3.11
331.298	3.4
331.671	2.98
332.043	3.84
332.415	3.13
332.787	2.91
333.159	3.82
333.532	3.27
333.904	2.95
334.276	2.69
334.648	3.7
335.02	3.27
335.391	3.01
335.763	2.89
336.135	3.69
336.507	3.44
336.879	3.67
337.25	2.96
337.622	2.96
337.993	3.35
338.365	3.74
338.736	3.82
339.108	2.75
339.479	3.23
339.851	3.43
340.222	3.2
340.593	3.09
340.964	3.29
341.336	3.66
341.707	2.99
342.078	3.62
342.449	3.57
342.82	3.19
343.191	3.39
343.562	3.16
343.933	3.24
344.303	3.12
344.674	3.26
345.045	3.75
345.416	3.67
345.786	3.12
346.157	3.44
346.527	2.57
346.898	3.09
347.268	3.34
347.639	3.34
348.009	3.41
348.38	2.87
348.75	3.26
349.12	3.25
349.49	3.67
349.861	3.12
350.231	2.9
350.601	3.31
350.971	3.46
351.341	3.12
351.711	3.55
352.081	3.16
352.45	3.2
352.82	3.64
353.19	2.86
353.56	3.06
353.929	3.62
354.299	3.27
354.669	2.85
355.038	3.27
355.408	3.41
355.777	3.08
356.147	3.28
356.516	3
356.885	3.32
357.254	3.25
357.624	3.43
357.993	3.75
358.362	3.17
358.731	3.16
359.1	3.41
359.469	3.68
359.838	3.6
360.207	3.27
360.576	3.24
360.945	3.66
361.314	3.72
361.682	3.21
362.051	3.19
362.42	3.47
362.788	3.16
363.157	3.46
363.525	3.52
363.894	3.37
364.262	3.41
364.631	3.24
364.999	3.24
365.367	2.97
365.735	3.45
366.104	3.69
366.472	3.67
366.84	3.4
367.208	3.41
367.576	3.46
367.944	3.6
368.312	3.48
368.68	3.07
369.048	3.49
369.416	3.6
369.783	3.52
370.151	3.32
370.519	3.62
370.886	3.62
371.254	3.22
371.621	3.56
371.989	3.81
372.356	3.43
372.724	3.73
373.091	3.33
373.458	3.56
373.826	3.49
374.193	3.46
374.56	3.65
374.927	3.68
375.294	3.56
375.661	3.16
376.028	3.26
376.395	3.43
376.762	3.27
377.129	3.31
377.496	3.2
377.863	3.31
378.229	3.55
378.596	3.39
378.963	3.23
379.329	3.25
379.696	3.65
380.062	3.6
380.429	3.51
380.795	3.14
381.161	3.54
381.528	3.54
381.894	3.02
382.26	3.37
382.626	3.91
382.993	3.12
383.359	3.98
383.725	3.5
384.091	3.46
384.457	3.67
384.823	3.4
385.188	3.54
385.554	3.67
385.92	3.69
386.286	3.73
386.651	3.7
387.017	4
387.383	3.37
387.748	3.59
388.114	3.91
388.479	3.54
388.845	3.72
389.21	3.6
389.575	3.17
389.94	3.52
390.306	3.56
390.671	3.81
391.036	3.51
391.401	3.1
391.766	3.36
392.131	3.37
392.496	3.54
392.861	3.38
393.226	3.8
393.591	3.51
393.956	3.57
394.32	3.55
394.685	3.59
395.05	3.64
395.414	3.66
395.779	3.33
396.143	3.52
396.508	3.62
396.872	3.7
397.236	3.67
397.601	3.37
397.965	3.53
398.329	3.59
398.694	3.77
399.058	3.53
399.422	3.24
399.786	3.86
400.15	3.62
400.514	3.86
400.878	3.57
401.242	3.78
401.605	3.89
401.969	3.69
402.333	3.73
402.697	3.7
403.06	3.63
403.424	3.56
403.787	3.46
404.151	3.43
404.514	3.6
404.878	3.49
405.241	3.81
405.604	3.71
405.968	3.52
406.331	3.63
406.694	3.75
407.057	3.69
407.42	3.87
407.783	3.35
408.146	3.66
408.509	3.48
408.872	3.51
409.235	3.47
409.598	3.91
409.961	3.67
410.323	3.62
410.686	3.57
411.049	3.46
411.411	3.68
411.774	3.57
412.136	3.59
412.499	3.59
412.861	3.5
413.223	3.52
413.586	3.63
413.948	3.73
414.31	3.59
414.672	3.31
415.035	3.49
415.397	3.9
415.759	3.74
416.121	3.6
416.483	3.56
416.845	3.81
417.206	3.43
417.568	3.81
417.93	3.45
418.292	3.83
418.653	3.64
419.015	3.5
419.377	3.64
419.738	3.61
420.1	3.56
420.461	3.62
420.822	3.77
421.184	3.57
421.545	3.66
421.906	3.5
422.267	3.63
422.629	3.74
422.99	3.66
423.351	3.53
423.712	3.59
424.073	3.56
424.434	3.59
424.795	3.57
425.155	3.65
425.516	3.59
425.877	3.74
426.238	3.54
426.598	3.65
426.959	3.65
427.32	3.54
427.68	3.63
428.041	3.55
428.401	3.81
428.761	3.77
429.122	3.67
429.482	3.6
429.842	3.89
430.202	3.71
430.563	3.5
430.923	3.62
431.283	3.86
431.643	3.67
432.003	3.72
432.363	3.84
432.722	3.65
433.082	3.73
433.442	3.76
433.802	3.55
434.161	3.69
434.521	3.92
434.881	3.85
435.24	3.52
435.6	3.71
435.959	3.82
436.319	3.82
436.678	3.78
437.037	3.7
437.396	3.79
437.756	3.81
438.115	3.81
438.474	3.76
438.833	3.68
439.192	3.64
439.551	3.89
439.91	3.85
440.269	3.85
440.628	3.61
440.987	3.72
441.345	3.56
441.704	3.66
442.063	3.77
442.421	3.69
442.78	3.64
443.138	3.73
443.497	3.86
443.855	3.69
444.214	3.82
444.572	3.86
444.93	3.8
445.288	3.88
445.647	3.73
446.005	3.77
446.363	3.97
446.721	3.81
447.079	3.58
447.437	3.62
447.795	3.79
448.153	3.57
448.51	3.73
448.868	3.68
449.226	3.67
449.584	3.64
449.941	3.83
450.299	3.83
450.656	3.68
451.014	3.81
451.371	3.73
451.729	3.73
452.086	4.04
452.443	3.75
452.801	3.95
453.158	3.73
453.515	3.61
453.872	3.87
454.229	3.85
454.586	3.75
454.943	3.76
455.3	3.95
455.657	3.76
456.014	3.74
456.371	3.78
456.727	3.8
457.084	4.02
457.441	3.8
457.797	3.89
458.154	4.06
458.51	3.79
458.867	3.94
459.223	4.11
459.58	3.93
459.936	3.92
460.292	3.92
460.648	3.67
461.005	3.8
461.361	3.89
461.717	3.84
462.073	3.75
462.429	3.78
462.785	3.87
463.141	3.81
463.496	3.92
463.852	4.06
464.208	3.92
464.564	3.94
464.919	3.94
465.275	3.95
465.631	3.75
465.986	4.08
466.342	3.95
466.697	3.81
467.052	4.01
467.408	3.93
467.763	3.77
468.118	3.98
468.473	3.84
468.829	3.84
469.184	3.63
469.539	3.99
469.894	3.63
470.249	4.16
470.603	3.81
470.958	3.95
471.313	3.91
471.668	3.95
472.023	4.16
472.377	3.78
472.732	3.84
473.086	3.77
473.441	3.71
473.795	4.22
474.15	4.06
474.504	3.92
474.859	3.93
475.213	3.7
475.567	4
475.921	3.84
476.275	3.96
476.63	4.06
476.984	3.94
477.338	4.01
477.692	3.82
478.045	3.94
478.399	3.97
478.753	4.04
479.107	3.9
479.461	3.88
479.814	3.93
480.168	3.9
480.521	3.97
480.875	4.02
481.228	3.97
481.582	3.98
481.935	3.83
482.289	3.98
482.642	3.9
482.995	3.81
483.348	3.96
483.701	3.98
484.055	4.06
484.408	4.04
484.761	3.78
485.114	3.81
485.466	3.76
485.819	3.71
486.172	3.72
486.525	3.77
486.878	3.83
487.23	3.86
487.583	3.85
487.936	3.92
488.288	3.91
488.641	4
488.993	3.78
489.345	3.77
489.698	3.81
490.05	3.86
490.402	3.86
490.754	3.9
491.107	3.95
491.459	4.07
491.811	4
492.163	3.97
492.515	3.96
492.866	3.96
493.218	3.93
493.57	3.84
493.922	3.88
494.274	3.99
494.625	3.95
494.977	4.04
495.328	3.97
495.68	4.17
496.031	4.15
496.383	4.03
496.734	4.18
497.086	4.12
497.437	4.18
497.788	4.04
498.139	3.93
498.49	4.19
498.842	4.01
499.193	4.07
499.544	4.13
499.894	4.13
500.245	4.12
500.596	4.06
500.947	4.13
501.298	4.04
501.648	4.16
501.999	4.27
502.35	4.09
502.7	4.02
503.051	3.98
503.401	4.14
503.752	4.25
504.102	4.09
504.452	4.2
504.803	4.2
505.153	4.1
505.503	4.21
505.853	4.18
506.203	3.95
506.553	4.12
506.903	4.12
507.253	4.3
507.603	4.12
507.953	4.35
508.303	4.37
508.652	3.99
509.002	4.15
509.352	4.2
509.701	4.17
510.051	4.14
510.4	4.01
510.75	4.16
511.099	4.22
511.449	4.23
511.798	4.15
512.147	4.23
512.496	4.16
512.846	4.22
513.195	4.16
513.544	4.2
513.893	4.22
514.242	4.18
514.591	4.43
514.939	4.26
515.288	4.17
515.637	4.35
515.986	4.22
516.334	4.2
516.683	4.34
517.032	4.27
517.38	4.35
517.729	4.29
518.077	4.23
518.426	4.27
518.774	4.28
519.122	4.28
519.47	4.27
519.819	4.16
520.167	4.2
520.515	4.24
520.863	4.34
521.211	4.27
521.559	4.35
521.907	4.31
522.255	4.32
522.602	4.34
522.95	4.3
523.298	4.31
523.645	4.45
523.993	4.44
524.341	4.56
524.688	4.47
525.036	4.47
525.383	4.35
525.73	4.58
526.078	4.38
526.425	4.41
526.772	4.45
527.119	4.36
527.466	4.34
527.814	4.43
528.161	4.34
528.508	4.43
528.854	4.37
529.201	4.37
529.548	4.3
529.895	4.34
530.242	4.19
530.588	4.21
530.935	4.28
531.282	4.3
531.628	4.35
531.975	4.4
532.321	4.44
532.667	4.42
533.014	4.56
533.36	4.54
533.706	4.53
534.052	4.51
534.399	4.45
534.745	4.41
535.091	4.44
535.437	4.4
535.783	4.4
536.129	4.46
536.474	4.6
536.82	4.6
537.166	4.63
537.512	4.65
537.857	4.55
538.203	4.63
538.549	4.6
538.894	4.52
539.239	4.63
539.585	4.61
539.93	4.56
540.276	4.72
540.621	4.77
540.966	4.77
541.311	4.66
541.656	4.6
542.001	4.59
542.346	4.79
542.691	4.6
543.036	4.6
543.381	4.52
543.726	4.57
544.071	4.65
544.415	4.76
544.76	4.69
545.105	4.67
545.449	4.7
545.794	4.85
546.138	4.75
546.483	4.82
546.827	4.81
547.171	4.8
547.516	4.89
547.86	4.81
548.204	4.75
548.548	4.86
548.892	4.82
549.236	4.83
549.58	4.88
549.924	5
550.268	5.06
550.612	5.06
550.956	5.24
551.3	4.95
551.643	5.31
551.987	5.13
552.33	5.07
552.674	5.06
553.017	4.95
553.361	4.87
553.704	5.17
554.048	4.94
554.391	5.05
554.734	5.03
555.077	5.12
555.42	5.02
555.764	5.03
556.107	4.9
556.45	5.03
556.793	4.99
557.135	5.2
557.478	5.36
557.821	5.25
558.164	4.99
558.507	5.25
558.849	5.18
559.192	5.36
559.534	5.27
559.877	5.44
560.219	5.1
560.562	5.58
560.904	5.37
561.246	5.34
561.589	5.34
561.931	5.38
562.273	5.24
562.615	5.37
562.957	5.44
563.299	5.29
563.641	5.42
563.983	5.41
564.325	5.17
564.667	5.4
565.008	5.41
565.35	5.47
565.692	5.38
566.033	5.56
566.375	5.64
566.716	5.74
567.058	5.38
567.399	5.73
567.741	5.3
568.082	5.55
568.423	5.57
568.764	5.52
569.105	5.66
569.447	5.54
569.788	5.7
570.129	5.73
570.47	5.67
570.811	5.78
571.151	5.73
571.492	5.66
571.833	5.9
572.174	5.67
572.514	5.91
572.855	5.91
573.195	5.8
573.536	5.66
573.876	5.63
574.217	5.89
574.557	5.99
574.898	6.08
575.238	5.93
575.578	5.81
575.918	6.16
576.258	6
576.598	6.04
576.938	5.9
577.278	5.95
577.618	6.01
577.958	6.06
578.298	6
578.638	6.03
578.977	6.05
579.317	6.02
579.657	6.11
579.996	6.12
580.336	6.15
580.675	6.06
581.014	6.12
581.354	6.17
581.693	6.27
582.032	6.2
582.372	6.45
582.711	6.27
583.05	6.31
583.389	6.42
583.728	6.3
584.067	6.32
584.406	6.64
584.745	6.49
585.083	6.63
585.422	6.58
585.761	6.64
586.1	6.53
586.438	6.5
586.777	6.42
587.115	6.57
587.454	6.26
587.792	6.44
588.13	6.68
588.469	6.39
588.807	6.76
589.145	6.64
589.483	6.54
589.821	6.37
590.159	6.56
590.497	6.92
590.835	6.89
591.173	6.72
591.511	6.79
591.849	6.81
592.187	6.92
592.524	6.51
592.862	6.68
593.2	6.95
593.537	6.73
593.875	6.71
594.212	6.6
594.55	6.98
594.887	6.79
595.224	6.73
595.561	6.88
595.899	6.89
596.236	7
596.573	7.11
596.91	6.74
597.247	6.73
597.584	7.44
597.921	6.97
598.258	7.08
598.594	7.18
598.931	7.23
599.268	7.19
599.604	7.11
599.941	7.15
600.277	7.05
600.614	6.98
600.95	7.21
601.287	7.51
601.623	7.36
601.959	7.24
602.296	7.42
602.632	7.39
602.968	7.55
603.304	7.51
603.64	7.65
603.976	7.58
604.312	7.36
604.648	7.35
604.984	7.64
605.319	7.65
605.655	7.48
605.991	7.75
606.326	7.54
606.662	7.6
606.998	7.43
607.333	7.7
607.668	7.81
608.004	7.7
608.339	8
608.674	7.84
609.01	7.86
609.345	7.66
609.68	7.92
610.015	7.59
610.35	7.71
610.685	7.84
611.02	7.95
611.355	7.92
611.689	7.74
612.024	8.02
612.359	8.05
612.694	8.03
613.028	7.91
613.363	8.06
613.697	8.15
614.032	8.39
614.366	8.13
614.7	8.15
615.035	8.02
615.369	8.25
615.703	8.26
616.037	7.94
616.371	7.94
616.705	8.21
617.039	8.56
617.373	8.2
617.707	8.62
618.041	8.14
618.375	8.46
618.709	8.47
619.042	8.34
619.376	8.53
619.71	8.64
620.043	8.68
620.377	8.39
620.71	8.67
621.043	8.49
621.377	8.65
621.71	8.81
622.043	8.71
622.376	8.1
622.709	8.71
623.043	8.94
623.376	9.03
623.709	8.72
624.041	8.94
624.374	8.87
624.707	8.97
625.04	9.31
625.373	8.48
625.705	8.96
626.038	9.02
626.37	8.83
626.703	8.93
627.035	9.35
627.368	9.34
627.7	9.26
628.032	8.95
628.365	9.39
628.697	9
629.029	9.05
629.361	9.01
629.693	9.44
630.025	9.31
630.357	9.27
630.689	9.29
631.021	9.17
631.353	9.39
631.684	9.13
632.016	9.11
632.348	9.53
632.679	9.71
633.011	9.78
633.342	9.8
633.674	9.7
634.005	9.91
634.336	9.64
634.668	10.04
634.999	9.27
635.33	9.66
635.661	10.02
635.992	9.82
636.323	9.75
636.654	10.02
636.985	9.98
637.316	10.04
637.647	9.64
637.977	10.14
638.308	10.08
638.639	9.61
638.969	10.1
639.3	9.75
639.63	9.81
639.961	10.14
640.291	9.9
640.622	10.22
640.952	10.04
641.282	10.55
641.612	10.44
641.943	9.97
642.273	9.7
642.603	10.61
642.933	10.04
643.263	10.68
643.592	10.54
643.922	10.59
644.252	10.53
644.582	10.67
644.911	10.03
645.241	10.33
645.571	10.54
645.9	10.09
646.23	10.75
646.559	10.44
646.888	10.99
647.218	10.23
647.547	11.13
647.876	10.55
648.205	11.14
648.534	10.74
648.863	10.33
649.192	10.66
649.521	10.45
649.85	10.92
650.179	11.05
650.508	10.46
650.837	11
651.165	10.94
651.494	11.11
651.822	11.07
652.151	10.97
652.479	11.16
652.808	10.83
653.136	11.36
653.465	10.64
653.793	10.87
654.121	11.3
654.449	11.34
654.777	11.24
655.105	11.31
655.433	11.09
655.761	11.19
656.089	11.77
656.417	11.8
656.745	11.55
657.073	11.58
657.4	11.72
657.728	11.74
658.056	11.26
658.383	11.57
658.711	12.21
659.038	11.52
659.365	11.91
659.693	11.89
660.02	11.54
660.347	11.84
660.674	11.53
661.001	11.73
661.329	11.21
661.656	11.77
661.982	12.17
662.309	12.19
662.636	11.82
662.963	12.46
663.29	12
663.616	12.53
663.943	11.85
664.27	11.59
664.596	12.48
664.923	12.08
665.249	12.14
665.576	12.13
665.902	12.94
666.228	12.34
666.554	12.4
666.881	12.02
667.207	12.27
667.533	12.02
667.859	12.31
668.185	12.59
668.511	12.15
668.837	12.01
669.162	12.43
669.488	12.04
669.814	12.48
670.139	12.87
670.465	12.86
670.791	13.12
671.116	13.25
671.442	12.32
671.767	13.06
672.092	13.33
672.418	12.87
672.743	13.59
673.068	12.73
673.393	12.54
673.718	13.12
674.043	12.89
674.368	13.09
674.693	14.2
675.018	13.33
675.343	13.22
675.667	13.59
675.992	13.21
676.317	13.93
676.641	12.84
676.966	13.49
677.29	13.48
677.615	13.98
677.939	14.16
678.264	13.99
678.588	13.98
678.912	13.36
679.236	13.96
679.56	13.13
679.885	13.97
680.209	13.72
680.532	13.57
680.856	13.97
681.18	13.83
681.504	14.06
681.828	13.75
682.152	13.78
682.475	13.98
682.799	14.4
683.122	14.02
683.446	13.64
683.769	14.54
684.093	13.59
684.416	14.72
684.739	14.12
685.062	14.4
685.386	14.38
685.709	14.27
686.032	14.44
686.355	13.99
686.678	14.49
687.001	14.1
687.324	14.37
687.646	14.09
687.969	14.48
688.292	14.72
688.614	14.46
