Data from 0199_forehead_Reflection__1__351.txt Node

Date: Fri Dec 15 19:47:07 CST 2023
User: ToomeyLab
Spectrometer: FLMS14357
Trigger mode: 0
Integration Time (sec): 1.000000E-2
Scans to average: 100
Electric dark correction enabled: true
Nonlinearity correction enabled: false
Boxcar width: 0
XAxis mode: Wavelengths
Number of Pixels in Spectrum: 2048
>>>>>Begin Spectral Data<<<<<
189.047	138.52
189.435	138.52
189.823	138.52
190.211	-31.72
190.599	-24.76
190.987	301.98
191.375	92.62
191.763	-6.82
192.151	133.22
192.538	19.95
192.926	138.08
193.314	101.11
193.702	288.72
194.089	-1650.85
194.477	-115.63
194.864	-338.86
195.252	96.84
195.639	106.85
196.027	89.27
196.414	81.99
196.801	-188.77
197.189	121.93
197.576	-28.42
197.963	-54.34
198.351	-51.97
198.738	-22.83
199.125	3.58
199.512	10.27
199.899	36.37
200.286	36.53
200.673	36.19
201.06	0.94
201.447	-5.51
201.833	58.79
202.22	51.99
202.607	-0.89
202.994	7.3
203.38	7.48
203.767	21.64
204.154	40.54
204.54	38.88
204.927	6.78
205.313	17.9
205.699	-11.57
206.086	24.7
206.472	1.11
206.858	22.65
207.245	-70.95
207.631	37.04
208.017	11.8
208.403	-35.93
208.789	21.85
209.175	-1.98
209.561	-3.66
209.947	17.48
210.333	-43.23
210.719	51.32
211.105	-12.28
211.491	-21.68
211.876	10.56
212.262	-20.82
212.648	12.09
213.034	14.82
213.419	-1.79
213.805	12.21
214.19	0.24
214.576	-1.87
214.961	-20.82
215.346	-91.17
215.732	-4.15
216.117	-0.13
216.502	-13.02
216.888	20.18
217.273	20.75
217.658	-16.27
218.043	24.86
218.428	-34.27
218.813	-40.15
219.198	15.06
219.583	18.96
219.968	-13.51
220.353	-11.3
220.738	8.4
221.122	7.58
221.507	-32.16
221.892	-37.14
222.276	-4.39
222.661	-4.58
223.046	1.36
223.43	14.81
223.815	13.01
224.199	-3.46
224.583	-1.8
224.968	-0.66
225.352	5.99
225.736	-0.4
226.121	-14.62
226.505	14.49
226.889	8.91
227.273	-7.56
227.657	10.54
228.041	2
228.425	8.07
228.809	4.06
229.193	2.7
229.577	3.12
229.961	2.95
230.344	2.2
230.728	2.24
231.112	2.95
231.495	2.3
231.879	1.72
232.263	3.76
232.646	4.08
233.03	3.27
233.413	2.84
233.797	2.59
234.18	2.25
234.563	2.88
234.946	2.9
235.33	4.22
235.713	3.42
236.096	3.27
236.479	3.29
236.862	2.55
237.245	5.57
237.628	3.12
238.011	4.22
238.394	3.31
238.777	3.48
239.16	1.07
239.543	4.04
239.925	6.1
240.308	1.68
240.691	6.32
241.073	2.7
241.456	4.92
241.838	2.95
242.221	1.81
242.603	3.64
242.986	3.32
243.368	3.12
243.75	3.38
244.133	2.89
244.515	3.25
244.897	3.25
245.279	2.95
245.661	3.25
246.043	2.55
246.425	1.85
246.807	4.32
247.189	3.29
247.571	3.67
247.953	3.34
248.335	3.17
248.717	3.33
249.098	3.06
249.48	3.31
249.862	3.45
250.243	3.1
250.625	3.03
251.006	2.99
251.388	1.52
251.769	2.95
252.151	3.96
252.532	2.27
252.913	2.28
253.295	3.02
253.676	3.1
254.057	3.61
254.438	3.1
254.819	3.62
255.2	3.07
255.581	3.15
255.962	3.68
256.343	3.17
256.724	3.19
257.105	2.59
257.486	2.63
257.867	3.72
258.247	2.73
258.628	2.85
259.009	3.59
259.389	3.38
259.77	3.29
260.15	2.83
260.531	2.67
260.911	3.61
261.292	3.38
261.672	3.6
262.052	3.43
262.432	3.48
262.813	3.52
263.193	3.41
263.573	2.93
263.953	3.08
264.333	3.44
264.713	3.38
265.093	2.74
265.473	2.98
265.853	2.66
266.233	3.38
266.612	1.89
266.992	1.73
267.372	3.11
267.752	2.83
268.131	3.02
268.511	3.84
268.89	3.84
269.27	3.17
269.649	2.53
270.029	3.44
270.408	4
270.787	3.57
271.167	3.53
271.546	4.05
271.925	2.55
272.304	3.42
272.683	3
273.062	3.17
273.441	3.41
273.82	2.69
274.199	3.34
274.578	3.52
274.957	3.67
275.336	3.23
275.715	3.03
276.093	3.11
276.472	3.23
276.851	3.27
277.229	3.06
277.608	2.66
277.986	2.95
278.365	3.61
278.743	2.6
279.122	2.79
279.5	3.65
279.878	3.18
280.257	3.59
280.635	2.81
281.013	3.36
281.391	3.52
281.769	3.37
282.147	3.62
282.525	3.45
282.903	2.97
283.281	3.38
283.659	4.08
284.037	3.41
284.415	3.31
284.792	3.52
285.17	2.91
285.548	2.98
285.925	2.97
286.303	3.46
286.68	3.38
287.058	3.57
287.435	2.95
287.813	3.13
288.19	3.04
288.567	3.47
288.945	3.93
289.322	3.01
289.699	3.63
290.076	3
290.453	3.09
290.83	3.23
291.207	3.22
291.584	3.93
291.961	4.05
292.338	3.33
292.715	3.79
293.092	3.56
293.469	3.45
293.845	3.69
294.222	3.07
294.599	3.6
294.975	3.73
295.352	4.04
295.728	3.14
296.105	3.68
296.481	4.19
296.858	3.9
297.234	3.56
297.61	3.47
297.986	3.75
298.363	4.17
298.739	4.16
299.115	3.5
299.491	3.76
299.867	3.86
300.243	3.75
300.619	3.82
300.995	4.18
301.371	4.33
301.746	3.61
302.122	4.56
302.498	4.01
302.874	4.31
303.249	4.73
303.625	4.55
304	4.81
304.376	4.32
304.751	4.31
305.127	5.49
305.502	3.96
305.878	4.21
306.253	4.43
306.628	4.9
307.003	4.48
307.378	4.81
307.754	4.56
308.129	4.5
308.504	5.17
308.879	4.16
309.254	5.37
309.629	5.4
310.003	4.51
310.378	5.6
310.753	5.13
311.128	5.25
311.502	4.82
311.877	5.87
312.252	4.71
312.626	5.11
313.001	4.77
313.375	5.19
313.75	5.61
314.124	5.51
314.498	5.39
314.873	5.46
315.247	4.83
315.621	5.59
315.995	5.09
316.369	5.41
316.743	4.88
317.117	5.52
317.491	5.37
317.865	5.25
318.239	5.45
318.613	5.61
318.987	6.1
319.361	5.16
319.734	6.04
320.108	6.1
320.482	6.44
320.855	6.59
321.229	6.03
321.602	6.05
321.976	6.53
322.349	6.04
322.723	5.92
323.096	6.85
323.469	6.2
323.843	6.18
324.216	6.68
324.589	6.35
324.962	6.35
325.335	6.73
325.708	6.43
326.081	6.48
326.454	6.29
326.827	6.7
327.2	6.49
327.573	6.89
327.945	6.44
328.318	6.51
328.691	5.88
329.063	6.92
329.436	6.67
329.809	6.98
330.181	6.87
330.553	6.75
330.926	7.32
331.298	7.15
331.671	6.24
332.043	7.45
332.415	6.83
332.787	7.39
333.159	7.75
333.532	7.57
333.904	6.91
334.276	7.29
334.648	7.66
335.02	7.59
335.391	6.64
335.763	6.99
336.135	7.28
336.507	7.53
336.879	7.14
337.25	7.17
337.622	7.7
337.993	7.75
338.365	7.69
338.736	7.36
339.108	7.12
339.479	7.32
339.851	7.43
340.222	7.72
340.593	7.54
340.964	7.19
341.336	8.14
341.707	7.4
342.078	7.98
342.449	7.65
342.82	7.61
343.191	7.72
343.562	8.08
343.933	8.11
344.303	8.01
344.674	7.93
345.045	7.8
345.416	8.01
345.786	7.63
346.157	8.69
346.527	7.54
346.898	7.7
347.268	8.16
347.639	7.81
348.009	8.34
348.38	8.06
348.75	7.98
349.12	7.85
349.49	8.49
349.861	8.84
350.231	7.71
350.601	8.64
350.971	8.78
351.341	8.47
351.711	7.74
352.081	8.57
352.45	8.66
352.82	8.48
353.19	8.63
353.56	8.31
353.929	8.93
354.299	8.55
354.669	8.35
355.038	8.4
355.408	8.84
355.777	8.77
356.147	8.8
356.516	8.92
356.885	9.4
357.254	9.15
357.624	9.37
357.993	8.99
358.362	8.64
358.731	8.9
359.1	9.08
359.469	9.19
359.838	9.07
360.207	8.88
360.576	8.95
360.945	9.21
361.314	9.35
361.682	8.74
362.051	9.12
362.42	9.36
362.788	9.09
363.157	9.56
363.525	9.35
363.894	9.4
364.262	9.47
364.631	9.4
364.999	9.27
365.367	8.84
365.735	9.91
366.104	9.69
366.472	9.63
366.84	9.31
367.208	9.46
367.576	9.81
367.944	9.85
368.312	9.31
368.68	9.73
369.048	9.64
369.416	9.66
369.783	9.61
370.151	10.17
370.519	10.19
370.886	9.87
371.254	9.8
371.621	10.29
371.989	10.12
372.356	9.55
372.724	10.09
373.091	9.69
373.458	9.93
373.826	10.01
374.193	9.87
374.56	10.55
374.927	10.45
375.294	10.44
375.661	10.19
376.028	10.22
376.395	10.34
376.762	10.79
377.129	10.25
377.496	10.65
377.863	10.49
378.229	10.35
378.596	10.72
378.963	10.81
379.329	10.44
379.696	10.9
380.062	10.48
380.429	10.84
380.795	10.41
381.161	10.69
381.528	10.95
381.894	10.57
382.26	10.6
382.626	11.11
382.993	10.72
383.359	11.09
383.725	10.93
384.091	10.72
384.457	10.77
384.823	11.23
385.188	11.32
385.554	11.12
385.92	11.25
386.286	11.65
386.651	11.4
387.017	11.59
387.383	11.15
387.748	11.03
388.114	11.38
388.479	11.3
388.845	11.51
389.21	11.77
389.575	11.58
389.94	11.47
390.306	11.73
390.671	11.85
391.036	11.37
391.401	11.5
391.766	11.86
392.131	11.74
392.496	11.9
392.861	11.64
393.226	11.81
393.591	11.81
393.956	11.81
394.32	11.57
394.685	11.7
395.05	11.89
395.414	11.96
395.779	11.53
396.143	12.02
396.508	12.13
396.872	12.1
397.236	12.11
397.601	11.7
397.965	12.18
398.329	12.27
398.694	12.41
399.058	11.99
399.422	11.96
399.786	12.51
400.15	12.37
400.514	12.38
400.878	12.18
401.242	12.52
401.605	12.7
401.969	12.48
402.333	12.44
402.697	12.32
403.06	12.55
403.424	12.67
403.787	12.54
404.151	12.75
404.514	12.95
404.878	12.72
405.241	12.76
405.604	12.57
405.968	12.77
406.331	12.75
406.694	13.04
407.057	12.63
407.42	12.95
407.783	12.96
408.146	13.04
408.509	13.02
408.872	12.74
409.235	13.18
409.598	13.44
409.961	12.96
410.323	13.36
410.686	13.15
411.049	13.04
411.411	13.33
411.774	13.11
412.136	13.06
412.499	13.38
412.861	13.21
413.223	13.22
413.586	13.17
413.948	13.31
414.31	13.5
414.672	13.55
415.035	13.35
415.397	13.74
415.759	13.35
416.121	13.51
416.483	13.36
416.845	13.59
417.206	13.45
417.568	13.71
417.93	13.18
418.292	13.65
418.653	13.72
419.015	13.58
419.377	13.82
419.738	13.52
420.1	13.63
420.461	13.75
420.822	13.78
421.184	13.77
421.545	13.6
421.906	13.77
422.267	13.81
422.629	13.64
422.99	13.68
423.351	13.62
423.712	13.65
424.073	13.87
424.434	13.84
424.795	13.7
425.155	13.92
425.516	13.96
425.877	13.89
426.238	13.84
426.598	14.18
426.959	14.04
427.32	13.99
427.68	14.17
428.041	14.17
428.401	14.28
428.761	14.22
429.122	14.41
429.482	14.41
429.842	14.59
430.202	14.69
430.563	14.21
430.923	14.57
431.283	14.74
431.643	14.63
432.003	14.65
432.363	14.7
432.722	14.69
433.082	14.92
433.442	14.64
433.802	14.61
434.161	14.79
434.521	14.95
434.881	14.95
435.24	14.76
435.6	14.93
435.959	14.92
436.319	15.01
436.678	14.9
437.037	15.02
437.396	15.21
437.756	15.06
438.115	15.11
438.474	15.23
438.833	15.16
439.192	15.31
439.551	15.31
439.91	15.31
440.269	15.35
440.628	15.2
440.987	15.41
441.345	15.26
441.704	15.31
442.063	15.34
442.421	15.28
442.78	15.42
443.138	15.37
443.497	15.61
443.855	15.45
444.214	15.53
444.572	15.8
444.93	15.62
445.288	15.86
445.647	15.75
446.005	15.7
446.363	15.89
446.721	15.9
447.079	15.73
447.437	15.67
447.795	15.68
448.153	15.73
448.51	15.68
448.868	15.61
449.226	15.78
449.584	15.84
449.941	16.04
450.299	16.11
450.656	15.86
451.014	16.23
451.371	16.21
451.729	16.3
452.086	16.35
452.443	16.5
452.801	16.29
453.158	16.23
453.515	16.11
453.872	16.45
454.229	16.39
454.586	16.49
454.943	16.55
455.3	16.49
455.657	16.44
456.014	16.5
456.371	16.61
456.727	16.67
457.084	16.56
457.441	16.76
457.797	16.76
458.154	16.96
458.51	16.99
458.867	16.94
459.223	16.95
459.58	17.02
459.936	16.84
460.292	16.97
460.648	16.87
461.005	16.79
461.361	16.9
461.717	16.91
462.073	16.73
462.429	16.81
462.785	16.96
463.141	17.11
463.496	17.09
463.852	17.24
464.208	17.26
464.564	17.45
464.919	17.33
465.275	17.4
465.631	17.56
465.986	17.3
466.342	17.42
466.697	17.48
467.052	17.49
467.408	17.6
467.763	17.57
468.118	17.59
468.473	17.6
468.829	17.77
469.184	17.69
469.539	17.85
469.894	17.59
470.249	17.88
470.603	17.77
470.958	18.13
471.313	17.99
471.668	17.96
472.023	18.16
472.377	18.11
472.732	17.95
473.086	18.09
473.441	18.1
473.795	18.31
474.15	18.3
474.504	18.18
474.859	18.5
475.213	18.22
475.567	18.24
475.921	18.17
476.275	18.49
476.63	18.52
476.984	18.65
477.338	18.59
477.692	18.55
478.045	18.45
478.399	18.51
478.753	18.41
479.107	18.59
479.461	18.63
479.814	18.61
480.168	18.67
480.521	18.79
480.875	18.85
481.228	18.65
481.582	18.77
481.935	18.86
482.289	18.8
482.642	18.87
482.995	18.76
483.348	18.85
483.701	18.82
484.055	18.88
484.408	18.94
484.761	18.72
485.114	18.51
485.466	18.2
485.819	18.22
486.172	18.17
486.525	18.21
486.878	18.26
487.23	18.4
487.583	18.74
487.936	18.83
488.288	18.81
488.641	18.84
488.993	18.76
489.345	18.62
489.698	18.61
490.05	18.59
490.402	18.74
490.754	18.86
491.107	18.91
491.459	19.18
491.811	19.31
492.163	19.36
492.515	19.45
492.866	19.44
493.218	19.17
493.57	19.17
493.922	19.02
494.274	19.26
494.625	19.34
494.977	19.51
495.328	19.64
495.68	19.83
496.031	20.01
496.383	20
496.734	20.2
497.086	20.2
497.437	20.28
497.788	20.16
498.139	20.19
498.49	20.24
498.842	20.39
499.193	20.08
499.544	20.18
499.894	20.19
500.245	20.44
500.596	20.4
500.947	20.39
501.298	20.31
501.648	20.52
501.999	20.63
502.35	20.77
502.7	20.77
503.051	20.8
503.401	20.85
503.752	20.95
504.102	20.8
504.452	20.76
504.803	20.97
505.153	20.99
505.503	21.12
505.853	20.93
506.203	20.9
506.553	21.12
506.903	21.04
507.253	20.94
507.603	21.17
507.953	21.3
508.303	21.29
508.652	21.24
509.002	21.56
509.352	21.53
509.701	21.25
510.051	21.25
510.4	21.35
510.75	21.36
511.099	21.5
511.449	21.3
511.798	21.48
512.147	21.49
512.496	21.48
512.846	21.51
513.195	21.66
513.544	21.54
513.893	21.77
514.242	21.73
514.591	21.78
514.939	21.69
515.288	21.51
515.637	21.74
515.986	21.77
516.334	22.11
516.683	21.95
517.032	21.97
517.38	22.2
517.729	22.18
518.077	22.16
518.426	22.22
518.774	22.16
519.122	22.13
519.47	21.94
519.819	22.08
520.167	22.14
520.515	22.08
520.863	21.91
521.211	22.16
521.559	22.18
521.907	22.17
522.255	22.34
522.602	22.35
522.95	22.42
523.298	22.42
523.645	22.69
523.993	22.69
524.341	22.78
524.688	22.85
525.036	22.85
525.383	22.7
525.73	22.95
526.078	22.81
526.425	22.85
526.772	23.02
527.119	22.76
527.466	22.67
527.814	22.68
528.161	22.57
528.508	22.62
528.854	22.69
529.201	22.82
529.548	22.69
529.895	22.57
530.242	22.42
530.588	22.38
530.935	22.41
531.282	22.44
531.628	22.36
531.975	22.49
532.321	22.62
532.667	22.89
533.014	23.05
533.36	23.24
533.706	23.37
534.052	23.31
534.399	23.26
534.745	23.15
535.091	23.1
535.437	23.08
535.783	23.2
536.129	23.13
536.474	23.22
536.82	23.49
537.166	23.63
537.512	23.69
537.857	23.83
538.203	23.75
538.549	23.73
538.894	23.72
539.239	23.76
539.585	23.72
539.93	23.77
540.276	24.01
540.621	24.1
540.966	24.2
541.311	24.16
541.656	24.22
542.001	24.36
542.346	24.36
542.691	24.13
543.036	23.91
543.381	23.78
543.726	23.76
544.071	23.79
544.415	23.91
544.76	23.98
545.105	24.08
545.449	24.1
545.794	24.42
546.138	24.43
546.483	24.67
546.827	24.67
547.171	24.62
547.516	24.89
547.86	24.72
548.204	24.63
548.548	24.65
548.892	24.97
549.236	24.85
549.58	24.92
549.924	24.98
550.268	25.17
550.612	25.27
550.956	25.43
551.3	25.24
551.643	25.46
551.987	25.55
552.33	25.45
552.674	25.66
553.017	25.52
553.361	25.61
553.704	25.87
554.048	25.57
554.391	25.63
554.734	25.75
555.077	25.78
555.42	25.4
555.764	25.83
556.107	25.65
556.45	25.85
556.793	25.99
557.135	25.92
557.478	26.17
557.821	26.17
558.164	25.87
558.507	26.22
558.849	26.21
559.192	26.51
559.534	26.22
559.877	26.13
560.219	26.15
560.562	26.66
560.904	26.71
561.246	26.45
561.589	26.68
561.931	26.35
562.273	26.39
562.615	26.6
562.957	26.54
563.299	26.44
563.641	26.47
563.983	26.63
564.325	26.61
564.667	26.77
565.008	26.75
565.35	26.94
565.692	26.93
566.033	26.88
566.375	26.96
566.716	27.05
567.058	26.85
567.399	27.03
567.741	26.81
568.082	26.82
568.423	27.12
568.764	26.96
569.105	27.13
569.447	27.02
569.788	27.18
570.129	27.24
570.47	27.15
570.811	27.34
571.151	27.31
571.492	27.4
571.833	27.47
572.174	27.46
572.514	27.7
572.855	27.58
573.195	27.59
573.536	27.58
573.876	27.45
574.217	27.47
574.557	27.54
574.898	27.63
575.238	27.83
575.578	27.53
575.918	27.86
576.258	28.06
576.598	27.98
576.938	27.74
577.278	27.83
577.618	27.91
577.958	27.73
578.298	27.83
578.638	27.75
578.977	28.31
579.317	28.06
579.657	28.41
579.996	28.1
580.336	28.31
580.675	28.28
581.014	28.29
581.354	28.57
581.693	28.58
582.032	28.53
582.372	28.8
582.711	28.44
583.05	28.61
583.389	28.58
583.728	28.51
584.067	28.77
584.406	28.9
584.745	28.62
585.083	29.07
585.422	28.86
585.761	29.07
586.1	28.83
586.438	28.86
586.777	29.07
587.115	28.77
587.454	29.04
587.792	29
588.13	29.08
588.469	28.99
588.807	29.04
589.145	29.11
589.483	29.19
589.821	29.61
590.159	29.08
590.497	29.69
590.835	29.58
591.173	29.18
591.511	29.67
591.849	29.18
592.187	29.29
592.524	29.34
592.862	29.45
593.2	29.43
593.537	29.5
593.875	29.9
594.212	29.48
594.55	29.5
594.887	29.84
595.224	29.61
595.561	29.69
595.899	29.86
596.236	29.69
596.573	29.98
596.91	29.72
597.247	29.77
597.584	29.95
597.921	29.82
598.258	29.95
598.594	29.99
598.931	30.07
599.268	30.11
599.604	29.9
599.941	29.93
600.277	29.69
600.614	29.97
600.95	29.97
601.287	30.43
601.623	30.34
601.959	30.09
602.296	30.41
602.632	30.4
602.968	30.35
603.304	30.39
603.64	30.49
603.976	30.64
604.312	30.46
604.648	30.25
604.984	30.66
605.319	30.46
605.655	30.5
605.991	30.74
606.326	30.58
606.662	30.58
606.998	30.51
607.333	30.44
607.668	30.56
608.004	30.54
608.339	30.74
608.674	30.94
609.01	30.85
609.345	30.63
609.68	31.04
610.015	31.08
610.35	30.94
610.685	31.12
611.02	31.14
611.355	31.25
611.689	30.98
612.024	31.21
612.359	30.83
612.694	31.23
613.028	31.09
613.363	31.28
613.697	31.4
614.032	31.25
614.366	31.31
614.7	31.47
615.035	31.18
615.369	31.16
615.703	31.35
616.037	31.76
616.371	31.39
616.705	31.66
617.039	31.67
617.373	31.4
617.707	31.83
618.041	31.75
618.375	31.81
618.709	31.73
619.042	31.95
619.376	31.93
619.71	32.02
620.043	32.17
620.377	31.62
620.71	32.24
621.043	32.05
621.377	32
621.71	32.64
622.043	31.82
622.376	31.95
622.709	31.85
623.043	32.34
623.376	32.47
623.709	32.02
624.041	32.18
624.374	32.32
624.707	32.21
625.04	32.71
625.373	32.32
625.705	32.48
626.038	31.97
626.37	32.83
626.703	32.67
627.035	32.66
627.368	32.62
627.7	32.72
628.032	32.59
628.365	32.95
628.697	32.61
629.029	32.44
629.361	32.43
629.693	32.49
630.025	32.74
630.357	32.75
630.689	32.87
631.021	32.7
631.353	32.8
631.684	32.77
632.016	33
632.348	33.37
632.679	32.99
633.011	33.22
633.342	33.3
633.674	33.46
634.005	33.52
634.336	32.86
634.668	33.91
634.999	33.26
635.33	33.64
635.661	33.21
635.992	33.23
636.323	33.61
636.654	33.6
636.985	33.24
637.316	33.37
637.647	33.45
637.977	33.27
638.308	33.32
638.639	33.31
638.969	33.32
639.3	33.26
639.63	33.42
639.961	33.62
640.291	33.55
640.622	33.83
640.952	34.11
641.282	33.7
641.612	33.71
641.943	33.87
642.273	33.95
642.603	33.83
642.933	34.24
643.263	34.14
643.592	33.59
643.922	33.58
644.252	34.22
644.582	34.62
644.911	34.48
645.241	34.04
645.571	33.95
645.9	33.69
646.23	34.15
646.559	33.85
646.888	34.35
647.218	34.38
647.547	34.54
647.876	34.02
648.205	34.19
648.534	34.06
648.863	34.18
649.192	34.45
649.521	34.83
649.85	33.95
650.179	34.38
650.508	34.49
650.837	34.18
651.165	34.5
651.494	34.32
651.822	34.8
652.151	34.58
652.479	34.39
652.808	34.47
653.136	34.6
653.465	34.07
653.793	34.27
654.121	34.14
654.449	34.3
654.777	35.09
655.105	34.76
655.433	34.84
655.761	35
656.089	35.23
656.417	35.17
656.745	34.37
657.073	34.83
657.4	35.01
657.728	34.73
658.056	35.01
658.383	35.13
658.711	35.36
659.038	35.79
659.365	35.43
659.693	35.21
660.02	35.28
660.347	35.67
660.674	35.49
661.001	35.81
661.329	35.45
661.656	35.5
661.982	35.61
662.309	35.72
662.636	35.19
662.963	35.31
663.29	35.52
663.616	35.69
663.943	35.32
664.27	35.8
664.596	35.87
664.923	36.41
665.249	35.46
665.576	35.49
665.902	36.32
666.228	36.3
666.554	35.91
666.881	36.43
667.207	35.85
667.533	35.92
667.859	35.77
668.185	36.81
668.511	35.44
668.837	35.18
669.162	35.98
669.488	35.44
669.814	36.18
670.139	35.93
670.465	36.45
670.791	36.75
671.116	36.31
671.442	36.32
671.767	36.6
