Data from 0199_chest_Reflection__1__341.txt Node

Date: Fri Dec 15 19:44:30 CST 2023
User: ToomeyLab
Spectrometer: FLMS14357
Trigger mode: 0
Integration Time (sec): 1.000000E-2
Scans to average: 100
Electric dark correction enabled: true
Nonlinearity correction enabled: false
Boxcar width: 0
XAxis mode: Wavelengths
Number of Pixels in Spectrum: 2048
>>>>>Begin Spectral Data<<<<<
189.047	-36.49
189.435	-36.49
189.823	-36.49
190.211	61.53
190.599	-27.04
190.987	655.88
191.375	42.26
191.763	-71.04
192.151	43.34
192.538	95.45
192.926	-159.18
193.314	47
193.702	-77.78
194.089	2377.97
194.477	126.26
194.864	-170.35
195.252	87.75
195.639	110.38
196.027	132.38
196.414	76.47
196.801	-205.45
197.189	-22.24
197.576	58.51
197.963	56.99
198.351	-143.28
198.738	-11.65
199.125	13.83
199.512	-9.71
199.899	8.52
200.286	46.51
200.673	-0.82
201.06	-11.88
201.447	-20.13
201.833	-27.82
202.22	30.5
202.607	26.79
202.994	-30.25
203.38	-12.23
203.767	20.67
204.154	23.29
204.54	25.62
204.927	-20.36
205.313	-58.32
205.699	31.53
206.086	12.06
206.472	32.48
206.858	-8.44
207.245	-95.35
207.631	-6.77
208.017	16.24
208.403	-18.25
208.789	14.7
209.175	11.53
209.561	-50.92
209.947	-49.8
210.333	-56.64
210.719	19.94
211.105	13.75
211.491	-16.85
211.876	30.53
212.262	35.39
212.648	3.31
213.034	26.77
213.419	-30.19
213.805	-8.97
214.19	-47.6
214.576	-6.81
214.961	-11.89
215.346	-43.3
215.732	-6.06
216.117	23.8
216.502	20.41
216.888	30.4
217.273	-5.27
217.658	15.15
218.043	-8.82
218.428	-10.23
218.813	-37.8
219.198	-41.66
219.583	-4.53
219.968	22.49
220.353	7.89
220.738	16.54
221.122	7.47
221.507	-58.7
221.892	-47.4
222.276	-8.35
222.661	4.91
223.046	13.78
223.43	16.39
223.815	0.1
224.199	-19.06
224.583	4.81
224.968	-6.19
225.352	10.27
225.736	2.96
226.121	-7.66
226.505	3.83
226.889	3.85
227.273	0.86
227.657	10.31
228.041	5.47
228.425	-2.57
228.809	6.92
229.193	5.64
229.577	3.54
229.961	5.57
230.344	3.86
230.728	5.17
231.112	4.13
231.495	3.63
231.879	4.01
232.263	3.96
232.646	4.16
233.03	3.98
233.413	2.64
233.797	5.18
234.18	4.24
234.563	2.77
234.946	4.14
235.33	5.78
235.713	5.51
236.096	4.24
236.479	4.58
236.862	1.9
237.245	6.23
237.628	2.62
238.011	3.98
238.394	4.04
238.777	3.93
239.16	4.09
239.543	4.14
239.925	5.92
240.308	4.87
240.691	2.79
241.073	4.29
241.456	3.46
241.838	2.89
242.221	3.64
242.603	6.06
242.986	4.65
243.368	4.31
243.75	5.17
244.133	3.84
244.515	4.21
244.897	4.28
245.279	4.51
245.661	3.28
246.043	2.95
246.425	2.25
246.807	5.04
247.189	4.52
247.571	4.3
247.953	4.89
248.335	4.44
248.717	4.38
249.098	4.05
249.48	4.42
249.862	4.5
250.243	4.51
250.625	4.11
251.006	4
251.388	4.01
251.769	2.99
252.151	4.48
252.532	3.92
252.913	3.12
253.295	3.09
253.676	3.57
254.057	4.37
254.438	3.6
254.819	3.82
255.2	3.45
255.581	3.46
255.962	4.09
256.343	4.2
256.724	3.09
257.105	4.45
257.486	3.77
257.867	4.15
258.247	4.12
258.628	2.85
259.009	4.02
259.389	4.39
259.77	3.94
260.15	3.31
260.531	3.88
260.911	4.5
261.292	4.02
261.672	4.02
262.052	3.74
262.432	4.13
262.813	3.81
263.193	3.61
263.573	3.63
263.953	3.55
264.333	3.62
264.713	3.95
265.093	3.31
265.473	4.09
265.853	2.24
266.233	3.35
266.612	2.33
266.992	2.12
267.372	3.77
267.752	4.29
268.131	3.94
268.511	4.12
268.89	4.39
269.27	3.68
269.649	2.96
270.029	3.73
270.408	4.84
270.787	3.43
271.167	4.44
271.546	4.41
271.925	3.11
272.304	3.81
272.683	4.06
273.062	3.37
273.441	4.05
273.82	3.39
274.199	3.52
274.578	4.13
274.957	3.75
275.336	3.65
275.715	3.57
276.093	3.47
276.472	3.95
276.851	3.55
277.229	3.66
277.608	3.01
277.986	3.82
278.365	3.43
278.743	3.18
279.122	4.13
279.5	4.63
279.878	4.21
280.257	2.93
280.635	2.84
281.013	3.65
281.391	4.49
281.769	3.38
282.147	3.97
282.525	4.21
282.903	3.34
283.281	3.99
283.659	3.76
284.037	3.51
284.415	4.34
284.792	4.11
285.17	3.8
285.548	3.49
285.925	3.58
286.303	4.06
286.68	3.45
287.058	4.34
287.435	4.07
287.813	3.92
288.19	3.94
288.567	3.93
288.945	3.78
289.322	4.05
289.699	4.06
290.076	3.84
290.453	3.7
290.83	2.96
291.207	3.81
291.584	4.22
291.961	3.81
292.338	3.68
292.715	4.14
293.092	3.69
293.469	3.6
293.845	3.99
294.222	4.01
294.599	3.87
294.975	3.67
295.352	3.67
295.728	3.49
296.105	3.79
296.481	3.89
296.858	3.72
297.234	3.69
297.61	3.93
297.986	4.11
298.363	4.29
298.739	3.8
299.115	3.62
299.491	3.61
299.867	3.98
300.243	4.16
300.619	3.58
300.995	3.91
301.371	4.11
301.746	3.75
302.122	4.45
302.498	4.2
302.874	4.03
303.249	3.9
303.625	3.62
304	4.12
304.376	4.53
304.751	3.19
305.127	4.79
305.502	3.42
305.878	3.14
306.253	4.1
306.628	4.51
307.003	3.98
307.378	3.73
307.754	4.11
308.129	3.86
308.504	4.51
308.879	3.96
309.254	4.59
309.629	4.16
310.003	4.05
310.378	4.47
310.753	4.49
311.128	4.47
311.502	3.83
311.877	4.47
312.252	3.68
312.626	4.2
313.001	3.88
313.375	4.14
313.75	3.88
314.124	3.91
314.498	3.87
314.873	4.09
315.247	3.63
315.621	3.95
315.995	3.48
316.369	4.27
316.743	3.67
317.117	4.24
317.491	3.43
317.865	3.69
318.239	4.09
318.613	4.65
318.987	4.97
319.361	3.76
319.734	4.58
320.108	3.83
320.482	4.56
320.855	4.16
321.229	3.97
321.602	4.05
321.976	4.19
322.349	3.93
322.723	3.95
323.096	4.32
323.469	3.65
323.843	4.19
324.216	4.57
324.589	3.96
324.962	3.79
325.335	4.26
325.708	3.82
326.081	3.97
326.454	4
326.827	4.22
327.2	3.82
327.573	4.12
327.945	4.43
328.318	3.73
328.691	3.43
329.063	4.29
329.436	4
329.809	4.2
330.181	3.62
330.553	4.3
330.926	4.32
331.298	4.01
331.671	3.85
332.043	4.68
332.415	4.55
332.787	4.13
333.159	4.81
333.532	4.08
333.904	4.35
334.276	4.38
334.648	4.21
335.02	3.89
335.391	3.73
335.763	4.36
336.135	4.67
336.507	4.23
336.879	4.03
337.25	3.68
337.622	3.72
337.993	4.13
338.365	4.31
338.736	4.3
339.108	4.32
339.479	3.95
339.851	4.17
340.222	3.95
340.593	4.34
340.964	4.06
341.336	4.49
341.707	3.28
342.078	4.61
342.449	4.68
342.82	4.22
343.191	4.51
343.562	4.39
343.933	4.33
344.303	4.41
344.674	4.24
345.045	3.78
345.416	4.91
345.786	3.95
346.157	4.3
346.527	3.77
346.898	3.76
347.268	4.29
347.639	4.1
348.009	4.45
348.38	4.03
348.75	4.1
349.12	4.23
349.49	4.65
349.861	4.28
350.231	3.75
350.601	4.53
350.971	4.44
351.341	4.53
351.711	4.21
352.081	4.21
352.45	4.09
352.82	4.51
353.19	4.29
353.56	3.77
353.929	4.65
354.299	4.24
354.669	4.12
355.038	4.28
355.408	4.32
355.777	4.57
356.147	4.1
356.516	4.58
356.885	4.52
357.254	4.27
357.624	4.36
357.993	4.61
358.362	4.21
358.731	4.2
359.1	4.48
359.469	4.29
359.838	4.58
360.207	4.46
360.576	4.38
360.945	4.24
361.314	4.62
361.682	3.72
362.051	4.05
362.42	4.32
362.788	4.4
363.157	4.22
363.525	4.67
363.894	4.47
364.262	4.36
364.631	4.36
364.999	4.33
365.367	3.98
365.735	5.11
366.104	4.37
366.472	4.7
366.84	3.97
367.208	4.14
367.576	4.48
367.944	4.39
368.312	3.9
368.68	4.18
369.048	4.33
369.416	4.3
369.783	4.26
370.151	4.25
370.519	4.62
370.886	4.72
371.254	4.35
371.621	4.5
371.989	4.52
372.356	4.19
372.724	4.53
373.091	4.09
373.458	4.45
373.826	4.15
374.193	4.06
374.56	4.44
374.927	4.34
375.294	4.3
375.661	4.21
376.028	4.16
376.395	4.4
376.762	4.53
377.129	4.54
377.496	4.29
377.863	4.42
378.229	3.59
378.596	4.43
378.963	4.14
379.329	4.43
379.696	4.58
380.062	4.41
380.429	4.39
380.795	4.38
381.161	4.56
381.528	4.82
381.894	4.33
382.26	4.31
382.626	4.95
382.993	4.22
383.359	4.58
383.725	4.46
384.091	4.45
384.457	4.6
384.823	4.49
385.188	4.78
385.554	4.45
385.92	4.59
386.286	4.54
386.651	4.48
387.017	4.93
387.383	4.61
387.748	4.57
388.114	4.67
388.479	4.3
388.845	4.9
389.21	4.54
389.575	4.77
389.94	4.46
390.306	4.54
390.671	4.79
391.036	4.26
391.401	4.2
391.766	4.31
392.131	4.32
392.496	4.47
392.861	4.29
393.226	4.64
393.591	4.63
393.956	4.44
394.32	4.77
394.685	4.06
395.05	4.51
395.414	4.72
395.779	4.31
396.143	4.57
396.508	4.71
396.872	4.69
397.236	4.74
397.601	4.58
397.965	4.53
398.329	4.79
398.694	4.6
399.058	4.58
399.422	4.41
399.786	4.69
400.15	4.61
400.514	4.68
400.878	4.58
401.242	4.78
401.605	4.74
401.969	4.6
402.333	4.68
402.697	4.6
403.06	4.7
403.424	4.56
403.787	4.4
404.151	4.59
404.514	4.86
404.878	4.39
405.241	4.94
405.604	4.65
405.968	4.71
406.331	4.59
406.694	4.8
407.057	4.63
407.42	4.9
407.783	4.54
408.146	4.55
408.509	4.56
408.872	4.53
409.235	4.64
409.598	4.99
409.961	4.66
410.323	4.64
410.686	4.58
411.049	4.45
411.411	4.59
411.774	4.64
412.136	4.68
412.499	4.58
412.861	4.6
413.223	4.87
413.586	4.67
413.948	4.65
414.31	4.75
414.672	4.38
415.035	4.54
415.397	5
415.759	4.67
416.121	4.87
416.483	4.54
416.845	4.83
417.206	4.58
417.568	4.76
417.93	4.55
418.292	4.69
418.653	4.8
419.015	4.9
419.377	4.66
419.738	5
420.1	4.77
420.461	4.81
420.822	4.78
421.184	4.67
421.545	4.68
421.906	4.71
422.267	4.7
422.629	4.68
422.99	4.75
423.351	4.62
423.712	4.62
424.073	4.65
424.434	4.63
424.795	4.54
425.155	4.69
425.516	4.58
425.877	4.71
426.238	4.57
426.598	4.71
426.959	4.72
427.32	4.63
427.68	4.52
428.041	4.58
428.401	4.84
428.761	4.81
429.122	4.77
429.482	4.57
429.842	4.78
430.202	4.69
430.563	4.61
430.923	4.6
431.283	4.96
431.643	4.74
432.003	4.72
432.363	4.77
432.722	4.69
433.082	4.76
433.442	4.79
433.802	4.65
434.161	4.69
434.521	4.86
434.881	4.82
435.24	4.68
435.6	4.93
435.959	4.71
436.319	4.67
436.678	4.76
437.037	4.82
437.396	4.96
437.756	4.97
438.115	4.79
438.474	4.96
438.833	4.79
439.192	4.87
439.551	4.78
439.91	4.66
440.269	4.94
440.628	4.79
440.987	4.73
441.345	4.68
441.704	4.83
442.063	4.79
442.421	4.65
442.78	4.76
443.138	4.78
443.497	4.78
443.855	4.82
444.214	4.94
444.572	4.81
444.93	4.96
445.288	4.93
445.647	4.85
446.005	4.72
446.363	4.96
446.721	4.94
447.079	4.7
447.437	4.78
447.795	4.84
448.153	4.71
448.51	4.83
448.868	4.89
449.226	4.74
449.584	4.78
449.941	4.82
450.299	4.84
450.656	4.91
451.014	4.97
451.371	4.86
451.729	4.83
452.086	5.07
452.443	4.77
452.801	4.99
453.158	4.88
453.515	4.88
453.872	4.9
454.229	4.87
454.586	4.87
454.943	4.97
455.3	4.94
455.657	4.85
456.014	4.88
456.371	4.94
456.727	4.75
457.084	5.09
457.441	4.88
457.797	4.89
458.154	5.02
458.51	4.95
458.867	5.07
459.223	5.01
459.58	5.11
459.936	4.87
460.292	5.03
460.648	4.91
461.005	4.83
461.361	4.93
461.717	4.98
462.073	4.92
462.429	4.96
462.785	4.96
463.141	4.85
463.496	4.78
463.852	5.12
464.208	5.01
464.564	5.02
464.919	5.01
465.275	4.94
465.631	5.25
465.986	4.76
466.342	5.21
466.697	4.82
467.052	5.03
467.408	5.13
467.763	4.94
468.118	4.91
468.473	5.04
468.829	5.06
469.184	4.96
469.539	5.11
469.894	4.92
470.249	5.13
470.603	5.18
470.958	5.11
471.313	5.07
471.668	5.18
472.023	5.13
472.377	5.13
472.732	5.05
473.086	5.05
473.441	4.91
473.795	5.04
474.15	5.17
474.504	5.14
474.859	5.12
475.213	4.97
475.567	5.14
475.921	4.87
476.275	4.98
476.63	5.06
476.984	5.21
477.338	5.3
477.692	5.09
478.045	5.07
478.399	5.11
478.753	5.22
479.107	5.07
479.461	5.03
479.814	5.19
480.168	5.18
480.521	5.06
480.875	5.02
481.228	5.15
481.582	5.24
481.935	5.12
482.289	5.21
482.642	5.19
482.995	5.14
483.348	5.1
483.701	5.08
484.055	5.16
484.408	5.3
484.761	5.11
485.114	5.09
485.466	4.91
485.819	4.9
486.172	4.86
486.525	4.88
486.878	4.93
487.23	4.97
487.583	4.97
487.936	5.07
488.288	5.12
488.641	5.08
488.993	4.99
489.345	4.97
489.698	4.99
490.05	4.93
490.402	5.01
490.754	4.98
491.107	5.06
491.459	5.12
491.811	5.04
492.163	5.17
492.515	5.22
492.866	5.28
493.218	5.18
493.57	5.04
493.922	5.03
494.274	5.12
494.625	5.13
494.977	5.25
495.328	5.24
495.68	5.28
496.031	5.24
496.383	5.3
496.734	5.44
497.086	5.29
497.437	5.35
497.788	5.36
498.139	5.18
498.49	5.37
498.842	5.22
499.193	5.3
499.544	5.21
499.894	5.34
500.245	5.31
500.596	5.39
500.947	5.35
501.298	5.26
501.648	5.39
501.999	5.41
502.35	5.32
502.7	5.31
503.051	5.21
503.401	5.34
503.752	5.57
504.102	5.48
504.452	5.47
504.803	5.39
505.153	5.36
505.503	5.54
505.853	5.38
506.203	5.49
506.553	5.46
506.903	5.4
507.253	5.31
507.603	5.38
507.953	5.42
508.303	5.49
508.652	5.32
509.002	5.6
509.352	5.53
509.701	5.42
510.051	5.44
510.4	5.53
510.75	5.45
511.099	5.44
511.449	5.56
511.798	5.59
512.147	5.49
512.496	5.53
512.846	5.46
513.195	5.6
513.544	5.56
513.893	5.69
514.242	5.53
514.591	5.61
514.939	5.61
515.288	5.43
515.637	5.53
515.986	5.53
516.334	5.58
516.683	5.56
517.032	5.55
517.38	5.65
517.729	5.69
518.077	5.55
518.426	5.63
518.774	5.71
519.122	5.65
519.47	5.64
519.819	5.62
520.167	5.69
520.515	5.57
520.863	5.66
521.211	5.59
521.559	5.71
521.907	5.64
522.255	5.7
522.602	5.63
522.95	5.65
523.298	5.81
523.645	5.76
523.993	5.82
524.341	5.92
524.688	5.86
525.036	5.64
525.383	5.9
525.73	5.95
526.078	5.77
526.425	5.71
526.772	5.79
527.119	5.84
527.466	5.78
527.814	5.77
528.161	5.75
528.508	5.75
528.854	5.77
529.201	5.77
529.548	5.75
529.895	5.79
530.242	5.63
530.588	5.66
530.935	5.67
531.282	5.69
531.628	5.6
531.975	5.74
532.321	5.79
532.667	5.92
533.014	5.98
533.36	5.93
533.706	5.93
534.052	5.88
534.399	5.87
534.745	5.89
535.091	5.87
535.437	5.85
535.783	5.87
536.129	5.95
536.474	5.96
536.82	6.01
537.166	6.07
537.512	6.06
537.857	6.09
538.203	6.06
538.549	6
538.894	5.97
539.239	6.04
539.585	6.06
539.93	6.1
540.276	6.16
540.621	6.32
540.966	6.2
541.311	6.04
541.656	6.23
542.001	6.15
542.346	6.35
542.691	6.17
543.036	6.11
543.381	6.05
543.726	6.12
544.071	6.17
544.415	6.12
544.76	6.14
545.105	6.2
545.449	6.21
545.794	6.35
546.138	6.27
546.483	6.35
546.827	6.35
547.171	6.4
547.516	6.5
547.86	6.33
548.204	6.41
548.548	6.34
548.892	6.51
549.236	6.43
549.58	6.45
549.924	6.46
550.268	6.61
550.612	6.76
550.956	6.88
551.3	6.48
551.643	6.67
551.987	6.89
552.33	6.77
552.674	6.65
553.017	6.65
553.361	6.61
553.704	6.89
554.048	6.84
554.391	6.77
554.734	6.75
555.077	6.77
555.42	6.58
555.764	6.81
556.107	6.73
556.45	6.62
556.793	6.83
557.135	6.97
557.478	7.08
557.821	7
558.164	6.87
558.507	6.94
558.849	6.94
559.192	7
559.534	7.17
559.877	6.97
560.219	7.19
560.562	7.22
560.904	6.9
561.246	7.09
561.589	7.1
561.931	7
562.273	6.9
562.615	7.29
562.957	7.16
563.299	7.14
563.641	7.17
563.983	7.15
564.325	7.04
564.667	7.11
565.008	7.12
565.35	7.27
565.692	7.07
566.033	7.23
566.375	7.52
566.716	7.39
567.058	7.29
567.399	7.29
567.741	7.22
568.082	7.28
568.423	7.36
568.764	7.39
569.105	7.46
569.447	7.45
569.788	7.44
570.129	7.33
570.47	7.53
570.811	7.64
571.151	7.49
571.492	7.72
571.833	7.62
572.174	7.45
572.514	7.76
572.855	7.83
573.195	7.71
573.536	7.86
573.876	7.48
574.217	7.66
574.557	7.89
574.898	7.86
575.238	7.95
575.578	7.64
575.918	8.03
576.258	7.94
576.598	7.9
576.938	7.88
577.278	7.72
577.618	7.92
577.958	7.77
578.298	7.99
578.638	7.88
578.977	7.94
579.317	7.92
579.657	8.05
579.996	8.22
580.336	8.23
580.675	8.18
581.014	8.18
581.354	8.19
581.693	8.28
582.032	8.03
582.372	8.25
582.711	8.57
583.05	8.11
583.389	8.57
583.728	8.36
584.067	8.54
584.406	8.56
584.745	8.57
585.083	8.59
585.422	8.51
585.761	8.89
586.1	8.73
586.438	8.54
586.777	8.46
587.115	8.75
587.454	8.66
587.792	8.41
588.13	8.51
588.469	8.54
588.807	8.87
589.145	8.67
589.483	8.69
589.821	8.56
590.159	8.86
590.497	9.03
590.835	9.35
591.173	8.93
591.511	9.18
591.849	9.03
592.187	9.07
592.524	9.1
592.862	9.18
593.2	9.17
593.537	8.98
593.875	9.01
594.212	9.06
594.55	9
594.887	9.33
595.224	8.92
595.561	9.18
595.899	9.27
596.236	9
596.573	9.28
596.91	8.94
597.247	8.94
597.584	9.64
597.921	9.21
598.258	9.25
598.594	9.41
598.931	9.37
599.268	9.45
599.604	9.32
599.941	9.51
600.277	9.32
600.614	9.33
600.95	9.56
601.287	9.64
601.623	9.72
601.959	9.49
602.296	9.55
602.632	9.87
602.968	9.78
603.304	9.74
603.64	9.56
603.976	9.98
604.312	9.7
604.648	9.73
604.984	9.85
605.319	10.05
605.655	10.02
605.991	10.08
606.326	9.98
606.662	9.94
606.998	9.81
607.333	10.17
607.668	10.07
608.004	9.9
608.339	10.32
608.674	10.16
609.01	9.92
609.345	10.18
609.68	10.34
610.015	10.06
610.35	10.16
610.685	10.21
611.02	10.5
611.355	10.42
611.689	10.43
612.024	10.48
612.359	10.34
612.694	10.46
613.028	10.28
613.363	10.51
613.697	10.66
614.032	10.64
614.366	10.58
614.7	10.89
615.035	10.51
615.369	10.67
615.703	10.73
616.037	10.99
616.371	10.48
616.705	10.68
617.039	10.9
617.373	10.47
617.707	10.97
618.041	11.03
618.375	10.83
618.709	11.11
619.042	11.02
619.376	11.31
619.71	11.38
620.043	11.34
620.377	11
620.71	11.43
621.043	10.76
621.377	11.11
621.71	11.36
622.043	11.29
622.376	11.23
622.709	11.22
623.043	11.18
623.376	11.44
623.709	11.16
624.041	11.64
624.374	11.65
624.707	11.36
625.04	11.62
625.373	11.27
625.705	11.67
626.038	11.36
626.37	11.74
626.703	11.42
627.035	11.71
627.368	11.91
627.7	11.95
628.032	11.53
628.365	12.04
628.697	11.7
629.029	11.39
629.361	12.04
629.693	11.76
630.025	11.84
630.357	12.34
630.689	12.3
631.021	11.98
631.353	12.19
631.684	11.71
632.016	11.72
632.348	12.34
632.679	12.29
633.011	12.13
633.342	12.37
633.674	12.21
634.005	12.9
634.336	12.54
634.668	12.84
634.999	12.34
635.33	12.57
635.661	12.63
635.992	12.35
636.323	12.75
636.654	12.56
636.985	12.34
637.316	12.53
637.647	12.41
637.977	12.73
638.308	12.97
638.639	12.28
638.969	12.87
639.3	12.79
639.63	12.33
639.961	12.88
640.291	12.84
640.622	13.33
640.952	13.05
641.282	12.91
641.612	12.8
641.943	13.08
642.273	13.27
642.603	13.59
642.933	13.28
643.263	13.26
643.592	13.13
643.922	12.81
644.252	13.37
644.582	13.63
644.911	13.09
645.241	13.55
645.571	13.46
645.9	12.94
646.23	13.25
646.559	14
646.888	13.28
647.218	13.26
647.547	13.85
647.876	13.49
648.205	13.39
648.534	13.49
648.863	13.3
649.192	13.26
649.521	13.55
649.85	13.77
650.179	13.49
650.508	13.41
650.837	13.35
651.165	13.41
651.494	13.61
651.822	14.16
652.151	13.27
652.479	14.07
652.808	13.36
653.136	14.06
653.465	13.49
653.793	13.88
654.121	14.3
654.449	13.91
654.777	14.24
655.105	14.35
655.433	13.81
655.761	14.1
656.089	14.2
656.417	14.61
656.745	13.99
657.073	14.58
657.4	14.81
657.728	14.52
658.056	14.5
658.383	14.37
658.711	14.85
659.038	14.95
659.365	14.83
659.693	14.96
660.02	14.78
660.347	15.15
660.674	14.73
661.001	14.8
661.329	14.21
661.656	14.91
661.982	14.88
662.309	14.76
662.636	14.89
662.963	15.12
663.29	15.01
663.616	15.38
663.943	14.67
664.27	15.07
664.596	15.2
664.923	14.94
665.249	15.17
665.576	15.18
665.902	15.34
666.228	15.61
666.554	15.91
666.881	15.63
667.207	15.63
667.533	15.05
667.859	15.58
668.185	15.83
668.511	14.67
668.837	15.11
669.162	15.41
669.488	15.37
669.814	15.22
670.139	15.34
670.465	15.95
670.791	15.98
671.116	16.1
671.442	15.62
671.767	16.17
672.092	16.18
672.418	15.43
672.743	16
673.068	16.05
673.393	15.62
673.718	16.11
674.043	16.02
674.368	15.95
674.693	16.77
675.018	16.3
675.343	16.17
675.667	15.67
675.992	16.09
676.317	16.37
676.641	16.52
676.966	16.2
677.29	16.05
677.615	16.67
677.939	16.7
678.264	16.67
678.588	16.12
678.912	17.06
679.236	17.24
679.56	15.82
679.885	16.99
680.209	16.89
680.532	16.26
680.856	17.15
681.18	16.97
681.504	16.97
681.828	16.86
682.152	16.81
682.475	16.68
682.799	16.99
683.122	17.32
683.446	16.55
683.769	17.62
684.093	16.97
684.416	17.75
684.739	16.46
685.062	16.61
685.386	17.05
685.709	16.29
686.032	16.53
686.355	17.41
