Data from 0199_crown_Reflection__2__347.txt Node

Date: Fri Dec 15 19:46:08 CST 2023
User: ToomeyLab
Spectrometer: FLMS14357
Trigger mode: 0
Integration Time (sec): 1.000000E-2
Scans to average: 100
Electric dark correction enabled: true
Nonlinearity correction enabled: false
Boxcar width: 0
XAxis mode: Wavelengths
Number of Pixels in Spectrum: 2048
>>>>>Begin Spectral Data<<<<<
189.047	300.68
189.435	300.68
189.823	300.68
190.211	40.27
190.599	-53.4
190.987	757.86
191.375	59.98
191.763	27.26
192.151	42.93
192.538	74.77
192.926	-161.53
193.314	75.26
193.702	108.1
194.089	4296.61
194.477	40.42
194.864	23.2
195.252	98.13
195.639	175
196.027	10.04
196.414	69.91
196.801	-74.96
197.189	161.73
197.576	12.48
197.963	-42.72
198.351	-1.51
198.738	-48.67
199.125	-2.18
199.512	-15.34
199.899	-3.26
200.286	-36.72
200.673	-17.61
201.06	-1.01
201.447	6.45
201.833	-16.9
202.22	3.64
202.607	16.03
202.994	-30.89
203.38	40.52
203.767	38.36
204.154	9.05
204.54	48.59
204.927	-23.56
205.313	-60.12
205.699	65.25
206.086	39.67
206.472	22.37
206.858	0.38
207.245	-25.16
207.631	-5.71
208.017	-9.61
208.403	-17.68
208.789	17.26
209.175	2.25
209.561	-9.01
209.947	-53.21
210.333	-13.64
210.719	7.48
211.105	30.74
211.491	-11.4
211.876	43.65
212.262	13.24
212.648	17.62
213.034	9.67
213.419	-45.95
213.805	-34.28
214.19	18.12
214.576	-10.62
214.961	-46.48
215.346	-52.27
215.732	6.04
216.117	-22.17
216.502	-32.85
216.888	5.09
217.273	0.87
217.658	-3.94
218.043	13.9
218.428	-39.15
218.813	-27.98
219.198	-24.53
219.583	-15.6
219.968	14.04
220.353	-33.91
220.738	3.04
221.122	-6.91
221.507	-37.62
221.892	-48.98
222.276	-15.47
222.661	-9.94
223.046	0.98
223.43	1.73
223.815	15.4
224.199	-2.83
224.583	1.22
224.968	1.37
225.352	14.62
225.736	8.29
226.121	1.15
226.505	-2.82
226.889	7.43
227.273	-0.04
227.657	11.65
228.041	5.32
228.425	6.15
228.809	5.58
229.193	7.01
229.577	7.77
229.961	9.02
230.344	8.62
230.728	7.96
231.112	8.13
231.495	7.49
231.879	6.35
232.263	7.55
232.646	7.11
233.03	7.02
233.413	6.09
233.797	8.13
234.18	6.64
234.563	7.91
234.946	7.94
235.33	8.26
235.713	6.5
236.096	6.83
236.479	7.54
236.862	5.7
237.245	8.72
237.628	5.39
238.011	7.91
238.394	8.73
238.777	8.43
239.16	6.56
239.543	8.88
239.925	5.84
240.308	7.72
240.691	6.8
241.073	7.8
241.456	6.47
241.838	6.81
242.221	6.76
242.603	8.29
242.986	7.12
243.368	7.35
243.75	7.54
244.133	6.71
244.515	7.42
244.897	6.97
245.279	7.43
245.661	6.67
246.043	5.9
246.425	6.74
246.807	7.57
247.189	6.56
247.571	7.48
247.953	7.56
248.335	7.2
248.717	7.41
249.098	7.08
249.48	6.91
249.862	6.59
250.243	6.43
250.625	7.39
251.006	6.95
251.388	5.44
251.769	5.91
252.151	6.92
252.532	7.35
252.913	6.31
253.295	6.07
253.676	6.46
254.057	6.89
254.438	5.99
254.819	6.44
255.2	5.63
255.581	6.35
255.962	5.61
256.343	6.42
256.724	6.89
257.105	6.58
257.486	6.16
257.867	6.59
258.247	7.36
258.628	6.97
259.009	5.62
259.389	6.7
259.77	5.85
260.15	5.67
260.531	5.47
260.911	6.9
261.292	6.73
261.672	6.53
262.052	6.51
262.432	6.52
262.813	6.31
263.193	5.9
263.573	6
263.953	5.59
264.333	6.76
264.713	6.3
265.093	5.36
265.473	6.06
265.853	5.32
266.233	6.74
266.612	4.04
266.992	5.11
267.372	6.57
267.752	6.04
268.131	6.13
268.511	6.34
268.89	6.73
269.27	5.98
269.649	5.73
270.029	6.01
270.408	7.26
270.787	7.1
271.167	6.07
271.546	5.97
271.925	5.33
272.304	5.62
272.683	6.34
273.062	5.83
273.441	5.86
273.82	6.01
274.199	5.85
274.578	5.82
274.957	6.17
275.336	5.41
275.715	5.53
276.093	5.2
276.472	5.7
276.851	5.52
277.229	5.19
277.608	5.4
277.986	6.07
278.365	5.94
278.743	5.13
279.122	5.55
279.5	5.6
279.878	5.38
280.257	5.7
280.635	5.2
281.013	5.85
281.391	5.67
281.769	5.52
282.147	6.02
282.525	6.38
282.903	5.28
283.281	6.35
283.659	6.09
284.037	6.11
284.415	5.9
284.792	6.15
285.17	5.36
285.548	5.9
285.925	5.57
286.303	5.95
286.68	5.52
287.058	5.89
287.435	5.64
287.813	5.85
288.19	5.56
288.567	5.31
288.945	5.84
289.322	5.44
289.699	5.49
290.076	5.49
290.453	5.62
290.83	5.46
291.207	5.61
291.584	5.98
291.961	5.78
292.338	5.2
292.715	5.99
293.092	5.4
293.469	5.75
293.845	5.25
294.222	4.99
294.599	5.52
294.975	5.07
295.352	5.98
295.728	5.13
296.105	5.53
296.481	5.52
296.858	5.56
297.234	5.35
297.61	5.01
297.986	5.22
298.363	5.4
298.739	5.69
299.115	5.39
299.491	5.13
299.867	5.24
300.243	5.34
300.619	5.15
300.995	4.94
301.371	5.53
301.746	5.19
302.122	6.15
302.498	5.35
302.874	5.44
303.249	5.36
303.625	5.39
304	5.76
304.376	5.65
304.751	4.95
305.127	6.33
305.502	4.85
305.878	4.72
306.253	4.97
306.628	5.18
307.003	5.05
307.378	5.6
307.754	5.05
308.129	4.54
308.504	4.78
308.879	4.34
309.254	5.46
309.629	5.51
310.003	5.46
310.378	5.48
310.753	5.48
311.128	4.85
311.502	5.13
311.877	5.98
312.252	5.1
312.626	5.24
313.001	5.22
313.375	5.25
313.75	4.91
314.124	5.05
314.498	4.75
314.873	5.35
315.247	4.89
315.621	5.03
315.995	4.43
316.369	4.67
316.743	5.06
317.117	5.5
317.491	4.56
317.865	4.61
318.239	5.09
318.613	5.18
318.987	5.74
319.361	4.22
319.734	5.83
320.108	5.19
320.482	5.1
320.855	5.02
321.229	4.87
321.602	4.28
321.976	5.03
322.349	5.57
322.723	5.43
323.096	5.59
323.469	4.58
323.843	5.33
324.216	5.68
324.589	4.52
324.962	4.58
325.335	5.16
325.708	4.76
326.081	4.92
326.454	5.12
326.827	4.93
327.2	4.82
327.573	5.33
327.945	5.25
328.318	4.6
328.691	4.65
329.063	4.57
329.436	4.84
329.809	4.97
330.181	5.05
330.553	4.75
330.926	4.98
331.298	5.06
331.671	4.82
332.043	5.26
332.415	5.54
332.787	5.31
333.159	5.83
333.532	5.63
333.904	4.64
334.276	5.16
334.648	4.8
335.02	4.75
335.391	5.12
335.763	4.75
336.135	5.06
336.507	5.31
336.879	4.28
337.25	4.68
337.622	5.21
337.993	4.91
338.365	5.22
338.736	5.63
339.108	5.35
339.479	4.85
339.851	4.77
340.222	4.95
340.593	5.33
340.964	5.41
341.336	5.64
341.707	4.91
342.078	4.88
342.449	5.33
342.82	5.28
343.191	4.86
343.562	4.97
343.933	5.2
344.303	5.15
344.674	4.93
345.045	4.63
345.416	5.15
345.786	4.67
346.157	5.29
346.527	4.45
346.898	4.93
347.268	5.01
347.639	5.09
348.009	5.28
348.38	4.93
348.75	5.04
349.12	4.81
349.49	5.55
349.861	5.32
350.231	4.87
350.601	5.33
350.971	5.69
351.341	5.34
351.711	5.01
352.081	5.46
352.45	5.1
352.82	5.44
353.19	5.2
353.56	4.41
353.929	5.5
354.299	5.32
354.669	4.46
355.038	5.39
355.408	4.84
355.777	4.96
356.147	4.96
356.516	4.95
356.885	5.1
357.254	5.08
357.624	5.11
357.993	5.25
358.362	5.13
358.731	4.93
359.1	5.22
359.469	5.19
359.838	5.27
360.207	4.96
360.576	4.81
360.945	5.14
361.314	5.72
361.682	4.89
362.051	5.15
362.42	5.32
362.788	5.1
363.157	5.3
363.525	5.77
363.894	5.42
364.262	5.26
364.631	5.17
364.999	4.79
365.367	5.06
365.735	5.69
366.104	5.5
366.472	5.49
366.84	4.86
367.208	4.97
367.576	5.62
367.944	5.55
368.312	5.19
368.68	5.03
369.048	5.49
369.416	5.16
369.783	5
370.151	5.76
370.519	5.51
370.886	5.44
371.254	5.23
371.621	5.45
371.989	5.03
372.356	4.89
372.724	5.26
373.091	5.03
373.458	5.4
373.826	5.39
374.193	5.06
374.56	5.45
374.927	5.59
375.294	5.22
375.661	5.15
376.028	4.9
376.395	5.3
376.762	5.28
377.129	5.45
377.496	5.39
377.863	5.13
378.229	5.25
378.596	5.31
378.963	5.16
379.329	5.12
379.696	5.41
380.062	5.25
380.429	5.39
380.795	5.24
381.161	5.42
381.528	5.63
381.894	5.25
382.26	5.27
382.626	5.36
382.993	5.38
383.359	5.7
383.725	5.13
384.091	5.09
384.457	5.56
384.823	5.43
385.188	5.6
385.554	5.37
385.92	5.41
386.286	5.83
386.651	5.82
387.017	5.52
387.383	5.36
387.748	5.15
388.114	5.71
388.479	5.32
388.845	5.55
389.21	5.4
389.575	5.57
389.94	5.4
390.306	5.48
390.671	5.66
391.036	5.29
391.401	5.19
391.766	5.59
392.131	5.36
392.496	5.68
392.861	5.39
393.226	5.41
393.591	5.57
393.956	5.56
394.32	5.47
394.685	5.29
395.05	5.25
395.414	5.55
395.779	5.37
396.143	5.48
396.508	5.7
396.872	5.88
397.236	5.45
397.601	5.39
397.965	5.77
398.329	5.8
398.694	5.4
399.058	5.61
399.422	5.63
399.786	5.6
400.15	5.88
400.514	5.75
400.878	5.72
401.242	5.91
401.605	5.83
401.969	5.82
402.333	5.47
402.697	5.69
403.06	5.64
403.424	5.57
403.787	5.55
404.151	5.93
404.514	5.81
404.878	5.43
405.241	5.67
405.604	5.61
405.968	5.85
406.331	5.74
406.694	5.9
407.057	5.66
407.42	5.88
407.783	5.54
408.146	5.48
408.509	5.58
408.872	5.54
409.235	5.6
409.598	5.76
409.961	5.65
410.323	5.63
410.686	5.58
411.049	5.68
411.411	5.57
411.774	5.69
412.136	5.72
412.499	5.63
412.861	5.55
413.223	5.47
413.586	5.7
413.948	5.64
414.31	5.72
414.672	5.27
415.035	5.68
415.397	6.15
415.759	5.75
416.121	5.9
416.483	5.81
416.845	5.98
417.206	5.62
417.568	5.76
417.93	5.37
418.292	5.74
418.653	5.7
419.015	5.79
419.377	5.78
419.738	5.87
420.1	5.82
420.461	5.82
420.822	5.83
421.184	5.76
421.545	5.6
421.906	5.56
422.267	5.71
422.629	5.68
422.99	5.72
423.351	5.49
423.712	5.67
424.073	5.65
424.434	5.63
424.795	5.59
425.155	5.72
425.516	5.66
425.877	5.61
426.238	5.58
426.598	5.74
426.959	5.59
427.32	5.58
427.68	5.63
428.041	5.67
428.401	5.7
428.761	5.75
429.122	5.75
429.482	5.63
429.842	5.82
430.202	5.73
430.563	5.7
430.923	5.66
431.283	5.88
431.643	5.73
432.003	5.82
432.363	5.86
432.722	5.8
433.082	5.8
433.442	5.81
433.802	5.75
434.161	5.91
434.521	6.09
434.881	5.88
435.24	5.82
435.6	5.89
435.959	5.83
436.319	5.66
436.678	5.67
437.037	5.69
437.396	5.83
437.756	5.76
438.115	5.69
438.474	5.8
438.833	5.6
439.192	5.88
439.551	5.86
439.91	5.94
440.269	5.95
440.628	5.78
440.987	5.93
441.345	5.76
441.704	5.88
442.063	5.76
442.421	5.7
442.78	5.81
443.138	5.73
443.497	5.73
443.855	5.8
444.214	5.61
444.572	5.97
444.93	5.82
445.288	6
445.647	6.02
446.005	5.8
446.363	5.75
446.721	5.95
447.079	5.71
447.437	5.84
447.795	5.83
448.153	5.68
448.51	5.87
448.868	5.82
449.226	5.78
449.584	5.74
449.941	5.96
450.299	5.72
450.656	5.69
451.014	5.82
451.371	5.77
451.729	5.88
452.086	6.06
452.443	5.83
452.801	5.84
453.158	5.81
453.515	5.92
453.872	5.98
454.229	5.69
454.586	5.95
454.943	5.83
455.3	6.04
455.657	5.73
456.014	5.86
456.371	5.95
456.727	5.92
457.084	5.93
457.441	6.05
457.797	5.91
458.154	6.11
458.51	6.03
458.867	6.25
459.223	6.07
459.58	5.98
459.936	6.09
460.292	5.98
460.648	6.02
461.005	5.87
461.361	6.09
461.717	5.94
462.073	5.84
462.429	5.85
462.785	5.88
463.141	5.83
463.496	5.83
463.852	5.97
464.208	5.9
464.564	6
464.919	6.01
465.275	5.95
465.631	6
465.986	5.8
466.342	5.8
466.697	5.76
467.052	6.1
467.408	6.09
467.763	5.79
468.118	6
468.473	6.04
468.829	6.13
469.184	5.88
469.539	6.06
469.894	5.92
470.249	6.08
470.603	6.13
470.958	6.14
471.313	6.03
471.668	6.19
472.023	6.01
472.377	5.95
472.732	6
473.086	6.03
473.441	5.84
473.795	6.06
474.15	6.1
474.504	6.1
474.859	6.18
475.213	6.04
475.567	5.96
475.921	5.88
476.275	6.04
476.63	5.88
476.984	6.1
477.338	6.24
477.692	5.88
478.045	6.03
478.399	6.04
478.753	6.07
479.107	6.06
479.461	6.07
479.814	6.03
480.168	5.91
480.521	5.91
480.875	6.11
481.228	6.05
481.582	6.12
481.935	6.09
482.289	6.12
482.642	5.89
482.995	5.99
483.348	5.95
483.701	6.02
484.055	5.95
484.408	6.11
484.761	5.97
485.114	5.96
485.466	5.87
485.819	5.85
486.172	5.71
486.525	5.66
486.878	5.64
487.23	5.68
487.583	5.76
487.936	5.83
488.288	5.87
488.641	6.01
488.993	5.94
489.345	5.86
489.698	5.83
490.05	5.73
490.402	5.82
490.754	5.73
491.107	5.86
491.459	5.86
491.811	5.94
492.163	5.89
492.515	6.03
492.866	5.97
493.218	6.05
493.57	5.93
493.922	5.87
494.274	5.78
494.625	5.91
494.977	5.86
495.328	5.89
495.68	5.94
496.031	6.11
496.383	5.98
496.734	6.18
497.086	6.17
497.437	6.01
497.788	6.12
498.139	6.09
498.49	6.14
498.842	5.98
499.193	6.03
499.544	5.99
499.894	6.06
500.245	6.03
500.596	6.02
500.947	6.03
501.298	6.02
501.648	6.25
501.999	6.19
502.35	6.04
502.7	6.17
503.051	5.92
503.401	6.06
503.752	6.2
504.102	6.14
504.452	6.18
504.803	6.13
505.153	6.05
505.503	6.3
505.853	6.12
506.203	6.17
506.553	5.83
506.903	6.08
507.253	6.1
507.603	6
507.953	6.22
508.303	6.18
508.652	6.07
509.002	6.17
509.352	6.29
509.701	6.13
510.051	6.19
510.4	6.01
510.75	6.21
511.099	6.15
511.449	6.11
511.798	6.05
512.147	6.2
512.496	6.08
512.846	6.14
513.195	6.02
513.544	6.09
513.893	6.15
514.242	6.07
514.591	6.17
514.939	6.12
515.288	5.98
515.637	6.17
515.986	6.08
516.334	6.25
516.683	6.14
517.032	6.19
517.38	6.2
517.729	6.16
518.077	6.13
518.426	6.15
518.774	6.21
519.122	6.19
519.47	6.12
519.819	6.05
520.167	6.1
520.515	6.12
520.863	6.14
521.211	6.13
521.559	6.16
521.907	5.96
522.255	6.13
522.602	6.17
522.95	6.06
523.298	6.13
523.645	6.13
523.993	6.1
524.341	6.25
524.688	6.24
525.036	6.14
525.383	6.18
525.73	6.38
526.078	6.25
526.425	6.24
526.772	6.32
527.119	6.24
527.466	6.18
527.814	6.13
528.161	6.08
528.508	6.09
528.854	6.12
529.201	6.11
529.548	6.05
529.895	6.11
530.242	6.07
530.588	6.01
530.935	5.95
531.282	5.85
531.628	5.89
531.975	5.91
532.321	5.94
532.667	5.97
533.014	6.05
533.36	6.08
533.706	6.04
534.052	6.06
534.399	5.95
534.745	6.06
535.091	6.11
535.437	6.07
535.783	6.05
536.129	5.99
536.474	5.94
536.82	6.09
537.166	6.05
537.512	6.11
537.857	6.18
538.203	6.19
538.549	6.09
538.894	6.09
539.239	6.18
539.585	6.09
539.93	6.09
540.276	6.14
540.621	6.27
540.966	6.13
541.311	6.16
541.656	6.2
542.001	6.29
542.346	6.35
542.691	6.17
543.036	6.13
543.381	5.99
543.726	5.97
544.071	5.98
544.415	5.97
544.76	5.95
545.105	6.06
545.449	6.07
545.794	6.2
546.138	6.05
546.483	6.1
546.827	6.12
547.171	6.04
547.516	6.28
547.86	6.12
548.204	6.22
548.548	6.06
548.892	6.21
549.236	6.13
549.58	6.06
549.924	6.24
550.268	6.27
550.612	6.22
550.956	6.44
551.3	6.21
551.643	6.36
551.987	6.37
552.33	6.36
552.674	6.14
553.017	6.04
553.361	6.16
553.704	6.39
554.048	6.06
554.391	6.25
554.734	6.14
555.077	6.29
555.42	6.08
555.764	6.34
556.107	6.23
556.45	6.11
556.793	5.96
557.135	6.16
557.478	6.23
557.821	6.27
558.164	6.24
558.507	6.21
558.849	6.23
559.192	6.41
559.534	6.46
559.877	6.43
560.219	6.3
560.562	6.32
560.904	6.22
561.246	6.42
561.589	6.25
561.931	6.31
562.273	6.14
562.615	6.31
562.957	6.22
563.299	6.24
563.641	6.21
563.983	6.35
564.325	6.09
564.667	6.14
565.008	6.25
565.35	6.24
565.692	6.02
566.033	6.29
566.375	6.22
566.716	6.43
567.058	6.22
567.399	6.27
567.741	6.14
568.082	6.09
568.423	6.04
568.764	6.08
569.105	6.14
569.447	6.17
569.788	6.11
570.129	6.33
570.47	6.18
570.811	6.37
571.151	6.28
571.492	6.37
571.833	6.32
572.174	6.27
572.514	6.29
572.855	6.19
573.195	6.26
573.536	6.29
573.876	6.09
574.217	6.06
574.557	6.27
574.898	6.41
575.238	6.3
575.578	6.12
575.918	6.38
576.258	6.32
576.598	6.3
576.938	6.1
577.278	6.25
577.618	6.34
577.958	6.12
578.298	6.19
578.638	6.09
578.977	6.16
579.317	6.14
579.657	6.17
579.996	6.4
580.336	6.18
580.675	6.05
581.014	6.37
581.354	6.14
581.693	6.36
582.032	6.08
582.372	6.26
582.711	6.12
583.05	6.37
583.389	6.34
583.728	6.03
584.067	6.47
584.406	6.11
584.745	6.4
585.083	6.35
585.422	6.42
585.761	6.6
586.1	6.23
586.438	6.16
586.777	6.39
587.115	6.45
587.454	6.23
587.792	6.19
588.13	6.6
588.469	6.2
588.807	6.34
589.145	6.07
589.483	6.44
589.821	6.38
590.159	6.21
590.497	6.6
590.835	6.58
591.173	6.37
591.511	6.4
591.849	5.96
592.187	6.34
592.524	6.21
592.862	6.28
593.2	6.22
593.537	6.22
593.875	6.26
594.212	6.29
594.55	6.1
594.887	6.26
595.224	6.25
595.561	6.27
595.899	6.24
596.236	6.1
596.573	6.35
596.91	6.08
597.247	5.75
597.584	6.34
597.921	6.41
598.258	6.22
598.594	6.39
598.931	6.26
599.268	6.27
599.604	6.28
599.941	6.26
600.277	6.27
600.614	6.1
600.95	6.27
601.287	6.44
601.623	6.54
601.959	6.07
602.296	6.28
602.632	6.35
602.968	6.2
603.304	6.09
603.64	6.45
603.976	6.53
604.312	6.05
604.648	6.11
604.984	6.28
605.319	6.37
605.655	6.51
605.991	6.27
606.326	6.41
606.662	6.21
606.998	6.17
607.333	6.25
607.668	6.27
608.004	6.43
608.339	6.46
608.674	6.31
609.01	5.98
609.345	6.18
609.68	6.51
610.015	6.2
610.35	6.27
610.685	6.15
611.02	6.5
611.355	6.29
611.689	6.34
612.024	6.19
612.359	6.17
612.694	6.22
613.028	5.97
613.363	6.34
613.697	6.38
614.032	6.23
614.366	5.97
614.7	6.15
615.035	6.05
615.369	6.18
615.703	6.29
616.037	6.22
616.371	6.04
616.705	6.2
617.039	6.29
617.373	5.97
617.707	5.97
618.041	6.35
618.375	6.29
618.709	6.41
619.042	6.1
619.376	6.34
619.71	6.5
620.043	6.37
620.377	6.2
620.71	6.45
621.043	6.02
621.377	6.45
621.71	6.21
622.043	6.05
622.376	6.07
622.709	6.31
623.043	6.68
623.376	6.48
623.709	5.99
624.041	6.73
624.374	6.24
624.707	6.17
625.04	6.78
625.373	6.19
625.705	6.51
626.038	6.37
626.37	6.32
626.703	6.44
627.035	6.7
627.368	6.85
627.7	6.33
628.032	6.41
628.365	6.8
628.697	6.33
629.029	6.39
629.361	6.12
629.693	6.31
630.025	6.09
630.357	6.57
630.689	6.16
631.021	6.37
631.353	6.28
631.684	6.16
632.016	6.4
632.348	6.42
632.679	6.39
633.011	6.28
633.342	6.51
633.674	6.06
634.005	6.43
634.336	6.26
634.668	6.8
634.999	6.32
635.33	6.55
635.661	6.72
635.992	6.23
636.323	6.31
636.654	6.74
636.985	6.14
637.316	6.22
637.647	5.86
637.977	6.33
638.308	6.57
638.639	6.01
638.969	6.54
639.3	6.38
639.63	5.83
639.961	6.35
640.291	6.34
640.622	6.63
640.952	6.2
641.282	6.56
641.612	6.6
641.943	6.22
642.273	6.97
642.603	6.63
642.933	6.76
643.263	6.51
643.592	6.37
643.922	5.89
644.252	6.31
644.582	6.89
644.911	6.07
645.241	6.5
645.571	6.34
645.9	5.88
646.23	6.41
646.559	6.78
646.888	6.19
647.218	6.37
647.547	6.81
647.876	6.1
648.205	6.08
648.534	6.15
648.863	6.06
649.192	6.65
649.521	6.42
649.85	6.39
650.179	6.57
650.508	6.29
650.837	5.84
651.165	5.79
651.494	6.65
651.822	6.86
652.151	6.12
652.479	6.43
652.808	5.63
653.136	6.69
653.465	5.99
653.793	6.13
654.121	6.26
654.449	6.47
654.777	6.44
655.105	6.69
655.433	6.27
655.761	6.39
656.089	6.86
656.417	6.29
656.745	6.44
657.073	5.95
657.4	6.6
657.728	6.56
658.056	6.32
658.383	6.22
658.711	6.59
659.038	6.56
659.365	7.03
659.693	6.36
660.02	6.18
660.347	6.85
660.674	6.81
661.001	6.38
661.329	5.85
661.656	6.32
661.982	6.52
662.309	6.25
662.636	6.03
662.963	6.57
663.29	6.55
663.616	6.68
663.943	6.51
664.27	5.87
664.596	6.55
664.923	6.23
665.249	5.7
665.576	6.28
665.902	6.95
666.228	6.87
666.554	6.63
666.881	6.5
667.207	6.33
667.533	6.61
667.859	6.67
668.185	6.36
668.511	5.89
668.837	5.41
669.162	6.78
669.488	5.88
669.814	6.81
670.139	6.41
670.465	6.44
670.791	6.55
671.116	6.98
671.442	6.21
671.767	6.78
672.092	6.82
672.418	6.99
672.743	6.48
673.068	6.29
673.393	6.7
673.718	6.55
674.043	6.7
674.368	6.06
674.693	6.94
675.018	6.86
675.343	6.42
675.667	6.13
675.992	6.95
676.317	6.98
676.641	6.8
676.966	6.4
677.29	6.89
677.615	6.99
677.939	6.56
678.264	7.25
678.588	7.21
678.912	6.42
679.236	7.2
679.56	6.37
679.885	6.63
680.209	6.62
680.532	6.35
680.856	6.35
681.18	6.7
681.504	6.72
681.828	6.95
682.152	6.52
682.475	6.47
682.799	6.63
683.122	7.01
683.446	6.26
683.769	7.13
684.093	6.72
684.416	6.94
684.739	6.48
685.062	6.83
685.386	6.81
685.709	6.74
686.032	6.42
686.355	6.75
686.678	6.31
687.001	6.57
687.324	6.83
687.646	5.98
687.969	6.26
688.292	6.19
688.614	6.13
688.937	7.37
689.26	6.42
689.582	6.62
689.904	6.22
690.227	6.42
690.549	6.65
690.871	7.36
691.194	7.28
691.516	6.81
691.838	7.01
692.16	6.69
