Data from 0199_chest_Reflection__0__340.txt Node

Date: Fri Dec 15 19:44:20 CST 2023
User: ToomeyLab
Spectrometer: FLMS14357
Trigger mode: 0
Integration Time (sec): 1.000000E-2
Scans to average: 100
Electric dark correction enabled: true
Nonlinearity correction enabled: false
Boxcar width: 0
XAxis mode: Wavelengths
Number of Pixels in Spectrum: 2048
>>>>>Begin Spectral Data<<<<<
189.047	-72.71
189.435	-72.71
189.823	-72.71
190.211	51.36
190.599	-15.71
190.987	409.78
191.375	117.11
191.763	28.42
192.151	134.3
192.538	123.67
192.926	88.96
193.314	25.74
193.702	140.02
194.089	5155.93
194.477	15.02
194.864	-363.44
195.252	44.26
195.639	135.53
196.027	197.4
196.414	9.23
196.801	-236.38
197.189	53.79
197.576	83.95
197.963	-27.71
198.351	-95.52
198.738	30.02
199.125	8.4
199.512	-4.46
199.899	17.93
200.286	30.97
200.673	-6.84
201.06	3.32
201.447	-8.19
201.833	48.25
202.22	22.6
202.607	7.58
202.994	-15.35
203.38	24.03
203.767	25.18
204.154	51.32
204.54	68.78
204.927	-72.11
205.313	-18.87
205.699	23.22
206.086	24.61
206.472	48.09
206.858	39.27
207.245	30.29
207.631	-13.17
208.017	7.7
208.403	-15.09
208.789	21.97
209.175	22.98
209.561	-27.32
209.947	6.28
210.333	-71.59
210.719	-19.44
211.105	30.9
211.491	-30.38
211.876	13.35
212.262	-23.04
212.648	-36.33
213.034	14.4
213.419	-27.39
213.805	-6.83
214.19	4.14
214.576	-23
214.961	-43.52
215.346	-99.44
215.732	0.97
216.117	-4.81
216.502	-7.67
216.888	35.75
217.273	8.51
217.658	-11.46
218.043	33.87
218.428	-69.14
218.813	-53.02
219.198	-33.69
219.583	-6.96
219.968	-13.03
220.353	-27.1
220.738	28.21
221.122	0.64
221.507	-29.64
221.892	-25.35
222.276	-16.21
222.661	-26.08
223.046	-6.1
223.43	3.15
223.815	3.46
224.199	-12.78
224.583	2.75
224.968	4.61
225.352	5.02
225.736	-2.56
226.121	-19.39
226.505	2.9
226.889	-1.34
227.273	-0.86
227.657	8.63
228.041	0.29
228.425	0.27
228.809	5.6
229.193	1.79
229.577	-0.55
229.961	1.35
230.344	1.57
230.728	1.51
231.112	2.08
231.495	1.52
231.879	1.92
232.263	3.95
232.646	2.78
233.03	2.28
233.413	0.53
233.797	1.4
234.18	5.81
234.563	0.2
234.946	2.93
235.33	2.53
235.713	3.84
236.096	1.97
236.479	2.8
236.862	1.17
237.245	2.84
237.628	2.12
238.011	3.61
238.394	1.15
238.777	1.1
239.16	0.89
239.543	0.87
239.925	2.65
240.308	1.91
240.691	3.06
241.073	3.8
241.456	1.49
241.838	1.1
242.221	1.22
242.603	1.78
242.986	1.67
243.368	2.64
243.75	2.13
244.133	2.02
244.515	2.86
244.897	2.45
245.279	2.67
245.661	1.84
246.043	0.71
246.425	0.85
246.807	2.71
247.189	2.71
247.571	2.49
247.953	2.78
248.335	2.47
248.717	2.62
249.098	2.23
249.48	2.72
249.862	2.32
250.243	1.97
250.625	1.96
251.006	2.47
251.388	1.29
251.769	2.39
252.151	2.28
252.532	1.23
252.913	1.72
253.295	2.52
253.676	2.19
254.057	2.28
254.438	2.32
254.819	2.15
255.2	1.6
255.581	2.06
255.962	1.76
256.343	1.91
256.724	1.64
257.105	1.86
257.486	1.95
257.867	1.55
258.247	1.76
258.628	1.78
259.009	2.28
259.389	2.21
259.77	1.87
260.15	1.1
260.531	1.64
260.911	3
261.292	2.35
261.672	2.64
262.052	2.49
262.432	2.34
262.813	2.47
263.193	2.16
263.573	1.22
263.953	1.7
264.333	2.52
264.713	2.35
265.093	2.24
265.473	1.75
265.853	0.73
266.233	2.14
266.612	1.3
266.992	0.69
267.372	1.98
267.752	2.06
268.131	2.18
268.511	2.64
268.89	2.32
269.27	1.63
269.649	1.52
270.029	1.39
270.408	3.25
270.787	2.07
271.167	2.18
271.546	2.57
271.925	1.73
272.304	1.95
272.683	2.43
273.062	2.2
273.441	2.15
273.82	1.79
274.199	2.33
274.578	2.32
274.957	1.85
275.336	1.96
275.715	1.42
276.093	2.32
276.472	2
276.851	1.81
277.229	2.03
277.608	1.5
277.986	1.74
278.365	2.35
278.743	2.25
279.122	2.14
279.5	1.91
279.878	2.09
280.257	2.19
280.635	1.5
281.013	2.3
281.391	2.73
281.769	1.95
282.147	2.5
282.525	2.41
282.903	1.75
283.281	2.56
283.659	2.64
284.037	2.06
284.415	2.2
284.792	2.02
285.17	1.78
285.548	1.45
285.925	2.28
286.303	2.09
286.68	2.11
287.058	1.87
287.435	2.25
287.813	2.4
288.19	2.44
288.567	2.01
288.945	2.38
289.322	2
289.699	2.01
290.076	1.88
290.453	2.69
290.83	2.15
291.207	2.12
291.584	2.32
291.961	2.66
292.338	2.29
292.715	2.25
293.092	2.01
293.469	2.02
293.845	2.33
294.222	1.58
294.599	1.86
294.975	2.08
295.352	2.44
295.728	1.96
296.105	1.85
296.481	2.61
296.858	2.58
297.234	2.38
297.61	2.1
297.986	1.95
298.363	2.48
298.739	2.56
299.115	1.88
299.491	2.1
299.867	2.39
300.243	2.6
300.619	2.06
300.995	2.33
301.371	2.37
301.746	2.19
302.122	3.02
302.498	2.34
302.874	3.03
303.249	3.12
303.625	2.62
304	3
304.376	2.78
304.751	1.82
305.127	3.08
305.502	1.93
305.878	1.99
306.253	2.42
306.628	2.87
307.003	2.61
307.378	2.85
307.754	2.62
308.129	1.93
308.504	2.52
308.879	2.23
309.254	3.3
309.629	3.18
310.003	2.5
310.378	2.83
310.753	2.77
311.128	2.75
311.502	2.45
311.877	2.64
312.252	1.99
312.626	2.72
313.001	2.35
313.375	2.99
313.75	2.01
314.124	2.54
314.498	2.61
314.873	2.37
315.247	2.09
315.621	2.36
315.995	1.78
316.369	2.56
316.743	2.31
317.117	2.47
317.491	2.33
317.865	2.1
318.239	2.51
318.613	2.18
318.987	2.88
319.361	2.31
319.734	2.85
320.108	2.69
320.482	2.63
320.855	2.65
321.229	2.22
321.602	2.07
321.976	2.97
322.349	2.08
322.723	2.72
323.096	3.36
323.469	2.46
323.843	2.71
324.216	2.86
324.589	2.66
324.962	2.65
325.335	2.63
325.708	1.98
326.081	2.53
326.454	2.89
326.827	2.8
327.2	2.83
327.573	2.87
327.945	2.5
328.318	2.45
328.691	2.46
329.063	2.92
329.436	2.6
329.809	3.06
330.181	3.05
330.553	2.54
330.926	3.04
331.298	3.28
331.671	2.43
332.043	3.47
332.415	3.58
332.787	2.99
333.159	3.21
333.532	2.39
333.904	2.66
334.276	2.42
334.648	2.92
335.02	2.57
335.391	3.09
335.763	2.33
336.135	2.53
336.507	3.43
336.879	2.74
337.25	2.61
337.622	2.39
337.993	3.02
338.365	2.66
338.736	2.84
339.108	2.49
339.479	2.38
339.851	2.72
340.222	2.69
340.593	3.25
340.964	2.38
341.336	3
341.707	2.66
342.078	2.93
342.449	3.25
342.82	2.65
343.191	2.96
343.562	2.65
343.933	2.87
344.303	2.93
344.674	2.97
345.045	2.85
345.416	2.72
345.786	2.41
346.157	2.79
346.527	1.8
346.898	2.65
347.268	2.94
347.639	2.52
348.009	3.11
348.38	2.91
348.75	2.87
349.12	2.65
349.49	2.9
349.861	2.57
350.231	2.94
350.601	3.28
350.971	3.02
351.341	2.99
351.711	2.92
352.081	2.95
352.45	3.18
352.82	2.87
353.19	2.92
353.56	2.14
353.929	2.5
354.299	2.87
354.669	2.46
355.038	3.03
355.408	2.71
355.777	3.01
356.147	2.73
356.516	2.72
356.885	2.75
357.254	3.05
357.624	3.39
357.993	2.96
358.362	2.9
358.731	2.87
359.1	2.86
359.469	2.88
359.838	3.33
360.207	2.75
360.576	3
360.945	3.01
361.314	3.23
361.682	2.7
362.051	2.7
362.42	2.99
362.788	2.77
363.157	3.1
363.525	3.11
363.894	3.1
364.262	3.24
364.631	2.87
364.999	3.11
365.367	2.72
365.735	3.67
366.104	3.45
366.472	3.11
366.84	2.9
367.208	2.84
367.576	3.35
367.944	3.37
368.312	2.98
368.68	2.78
369.048	2.98
369.416	3.18
369.783	2.73
370.151	3.07
370.519	3.36
370.886	3.13
371.254	2.83
371.621	3.08
371.989	2.95
372.356	2.3
372.724	3.2
373.091	2.85
373.458	3.22
373.826	2.88
374.193	2.88
374.56	3.26
374.927	3.12
375.294	2.94
375.661	2.86
376.028	2.94
376.395	2.85
376.762	3.14
377.129	2.92
377.496	2.97
377.863	3.05
378.229	2.53
378.596	3.14
378.963	2.95
379.329	2.93
379.696	3.23
380.062	2.97
380.429	2.88
380.795	2.72
381.161	3.18
381.528	3.32
381.894	3.03
382.26	2.8
382.626	3.27
382.993	2.85
383.359	3.55
383.725	2.91
384.091	3.11
384.457	3.5
384.823	3.19
385.188	3.12
385.554	3.15
385.92	3.21
386.286	3.73
386.651	3.34
387.017	3.26
387.383	3.21
387.748	2.71
388.114	3.15
388.479	2.86
388.845	3.42
389.21	3.35
389.575	3.35
389.94	3.24
390.306	3.42
390.671	3.54
391.036	2.68
391.401	2.8
391.766	3.19
392.131	3.09
392.496	3.64
392.861	3.26
393.226	3.57
393.591	3.38
393.956	3.24
394.32	3.35
394.685	2.97
395.05	3.18
395.414	3.01
395.779	3.06
396.143	3.38
396.508	3.22
396.872	3.35
397.236	3.48
397.601	3.12
397.965	3.38
398.329	3.3
398.694	3.5
399.058	3.14
399.422	3.01
399.786	3.6
400.15	3.45
400.514	3.41
400.878	3.41
401.242	3.52
401.605	3.34
401.969	3.43
402.333	3.53
402.697	3.34
403.06	3.24
403.424	3.31
403.787	3.37
404.151	3.54
404.514	3.32
404.878	2.97
405.241	3.28
405.604	3.38
405.968	3.53
406.331	3.15
406.694	3.65
407.057	3.37
407.42	3.65
407.783	3.41
408.146	3.42
408.509	3.27
408.872	3.42
409.235	3.59
409.598	3.65
409.961	3.55
410.323	3.48
410.686	3.27
411.049	3.25
411.411	3.34
411.774	3.45
412.136	3.32
412.499	3.48
412.861	3.38
413.223	3.41
413.586	3.49
413.948	3.41
414.31	3.49
414.672	3.57
415.035	3.26
415.397	3.67
415.759	3.37
416.121	3.62
416.483	3.33
416.845	3.51
417.206	3.48
417.568	3.59
417.93	3.35
418.292	3.31
418.653	3.44
419.015	3.42
419.377	3.49
419.738	3.6
420.1	3.47
420.461	3.45
420.822	3.56
421.184	3.48
421.545	3.49
421.906	3.35
422.267	3.42
422.629	3.36
422.99	3.44
423.351	3.41
423.712	3.47
424.073	3.49
424.434	3.41
424.795	3.48
425.155	3.58
425.516	3.27
425.877	3.51
426.238	3.36
426.598	3.6
426.959	3.47
427.32	3.45
427.68	3.42
428.041	3.39
428.401	3.71
428.761	3.46
429.122	3.53
429.482	3.35
429.842	3.57
430.202	3.72
430.563	3.45
430.923	3.3
431.283	3.87
431.643	3.57
432.003	3.53
432.363	3.67
432.722	3.62
433.082	3.61
433.442	3.61
433.802	3.53
434.161	3.74
434.521	3.74
434.881	3.73
435.24	3.71
435.6	3.52
435.959	3.61
436.319	3.55
436.678	3.62
437.037	3.62
437.396	3.75
437.756	3.69
438.115	3.53
438.474	3.88
438.833	3.56
439.192	3.45
439.551	3.75
439.91	3.66
440.269	3.67
440.628	3.61
440.987	3.67
441.345	3.59
441.704	3.66
442.063	3.61
442.421	3.59
442.78	3.64
443.138	3.63
443.497	3.71
443.855	3.81
444.214	3.77
444.572	3.76
444.93	3.72
445.288	3.78
445.647	3.87
446.005	3.74
446.363	3.91
446.721	3.77
447.079	3.67
447.437	3.8
447.795	3.79
448.153	3.7
448.51	3.68
448.868	3.75
449.226	3.74
449.584	3.65
449.941	3.86
450.299	3.77
450.656	3.92
451.014	3.85
451.371	3.74
451.729	3.7
452.086	4.07
452.443	3.8
452.801	3.89
453.158	3.82
453.515	3.71
453.872	3.85
454.229	3.97
454.586	3.8
454.943	3.88
455.3	3.95
455.657	3.93
456.014	3.89
456.371	3.79
456.727	3.78
457.084	4
457.441	3.85
457.797	3.93
458.154	4.26
458.51	4.03
458.867	4.02
459.223	4.02
459.58	3.95
459.936	4.01
460.292	4.09
460.648	3.93
461.005	3.91
461.361	4.04
461.717	3.88
462.073	3.78
462.429	3.96
462.785	3.97
463.141	3.86
463.496	4
463.852	4.07
464.208	4.02
464.564	4.07
464.919	4.07
465.275	3.95
465.631	4.09
465.986	4.16
466.342	4.16
466.697	3.93
467.052	4.09
467.408	4.08
467.763	3.96
468.118	4.03
468.473	4.02
468.829	3.95
469.184	3.98
469.539	4.06
469.894	3.99
470.249	4.24
470.603	4.03
470.958	4.24
471.313	4.11
471.668	4.09
472.023	4.28
472.377	4.1
472.732	3.98
473.086	4.03
473.441	3.89
473.795	3.98
474.15	4.13
474.504	4.02
474.859	4.14
475.213	3.9
475.567	4.03
475.921	3.99
476.275	4.13
476.63	4.18
476.984	4.16
477.338	4.17
477.692	3.99
478.045	4.05
478.399	4.23
478.753	4.13
479.107	4.14
479.461	4.1
479.814	4.18
480.168	4.14
480.521	4.1
480.875	4.17
481.228	4.2
481.582	4.22
481.935	4.13
482.289	4.15
482.642	4.07
482.995	4.08
483.348	4
483.701	4.24
484.055	4.14
484.408	4.24
484.761	4.02
485.114	4.06
485.466	3.93
485.819	3.93
486.172	3.92
486.525	4.01
486.878	4.07
487.23	4.07
487.583	4.14
487.936	4.13
488.288	4.09
488.641	4.16
488.993	4.05
489.345	4.02
489.698	4.06
490.05	4.08
490.402	4.14
490.754	4.11
491.107	4.15
491.459	4.28
491.811	4.19
492.163	4.21
492.515	4.23
492.866	4.27
493.218	4.2
493.57	4.09
493.922	4.15
494.274	4.28
494.625	4.32
494.977	4.32
495.328	4.29
495.68	4.45
496.031	4.45
496.383	4.51
496.734	4.47
497.086	4.36
497.437	4.52
497.788	4.37
498.139	4.35
498.49	4.46
498.842	4.36
499.193	4.36
499.544	4.43
499.894	4.41
500.245	4.48
500.596	4.52
500.947	4.52
501.298	4.37
501.648	4.46
501.999	4.63
502.35	4.54
502.7	4.47
503.051	4.41
503.401	4.54
503.752	4.61
504.102	4.59
504.452	4.63
504.803	4.46
505.153	4.51
505.503	4.55
505.853	4.51
506.203	4.49
506.553	4.58
506.903	4.49
507.253	4.49
507.603	4.64
507.953	4.8
508.303	4.74
508.652	4.51
509.002	4.68
509.352	4.74
509.701	4.65
510.051	4.61
510.4	4.54
510.75	4.71
511.099	4.63
511.449	4.6
511.798	4.6
512.147	4.64
512.496	4.71
512.846	4.69
513.195	4.6
513.544	4.73
513.893	4.77
514.242	4.57
514.591	4.81
514.939	4.68
515.288	4.62
515.637	4.72
515.986	4.84
516.334	4.85
516.683	4.92
517.032	4.86
517.38	4.89
517.729	4.91
518.077	4.67
518.426	4.83
518.774	4.89
519.122	4.75
519.47	4.8
519.819	4.69
520.167	4.74
520.515	4.73
520.863	4.85
521.211	4.83
521.559	4.91
521.907	4.77
522.255	4.79
522.602	4.92
522.95	4.93
523.298	4.88
523.645	4.89
523.993	4.94
524.341	5.11
524.688	4.99
525.036	4.92
525.383	5.01
525.73	5.09
526.078	4.91
526.425	4.97
526.772	5.1
527.119	4.94
527.466	4.95
527.814	4.99
528.161	4.92
528.508	5.01
528.854	4.91
529.201	4.99
529.548	4.9
529.895	4.92
530.242	4.83
530.588	4.79
530.935	4.84
531.282	4.89
531.628	4.91
531.975	4.94
532.321	4.99
532.667	5.11
533.014	5.16
533.36	5.11
533.706	5.11
534.052	5.1
534.399	5.06
534.745	5.05
535.091	5.09
535.437	5.11
535.783	5.11
536.129	5.16
536.474	5.18
536.82	5.22
537.166	5.29
537.512	5.29
537.857	5.33
538.203	5.23
538.549	5.23
538.894	5.24
539.239	5.19
539.585	5.24
539.93	5.14
540.276	5.47
540.621	5.51
540.966	5.34
541.311	5.43
541.656	5.39
542.001	5.51
542.346	5.52
542.691	5.37
543.036	5.23
543.381	5.15
543.726	5.28
544.071	5.35
544.415	5.41
544.76	5.32
545.105	5.42
545.449	5.38
545.794	5.51
546.138	5.45
546.483	5.61
546.827	5.63
547.171	5.52
547.516	5.58
547.86	5.54
548.204	5.54
548.548	5.53
548.892	5.58
549.236	5.57
549.58	5.63
549.924	5.71
550.268	5.8
550.612	5.69
550.956	6.06
551.3	5.66
551.643	5.84
551.987	5.9
552.33	5.85
552.674	5.92
553.017	5.78
553.361	5.62
553.704	5.99
554.048	5.88
554.391	5.77
554.734	5.98
555.077	5.94
555.42	5.85
555.764	5.88
556.107	5.79
556.45	5.79
556.793	5.97
557.135	5.91
557.478	6.32
557.821	5.97
558.164	5.98
558.507	6.16
558.849	6.02
559.192	6.16
559.534	6.02
559.877	6.24
560.219	6.07
560.562	6.41
560.904	6.14
561.246	6.2
561.589	6.22
561.931	6.17
562.273	6.08
562.615	6.18
562.957	6.28
563.299	6
563.641	6.29
563.983	6.46
564.325	6.21
564.667	6.21
565.008	6.28
565.35	6.25
565.692	6.16
566.033	6.28
566.375	6.6
566.716	6.58
567.058	6.38
567.399	6.36
567.741	6.21
568.082	6.52
568.423	6.42
568.764	6.29
569.105	6.61
569.447	6.54
569.788	6.4
570.129	6.59
570.47	6.4
570.811	6.68
571.151	6.63
571.492	6.72
571.833	6.53
572.174	6.41
572.514	6.66
572.855	6.66
573.195	6.7
573.536	6.7
573.876	6.46
574.217	6.55
574.557	6.86
574.898	6.91
575.238	6.73
575.578	6.62
575.918	6.95
576.258	6.99
576.598	6.97
576.938	6.78
577.278	7.08
577.618	6.94
577.958	6.91
578.298	6.99
578.638	6.96
578.977	7.03
579.317	6.91
579.657	6.98
579.996	6.96
580.336	7.07
580.675	7.09
581.014	6.87
581.354	6.98
581.693	7.1
582.032	7.18
582.372	7.06
582.711	7.1
583.05	6.99
583.389	7.4
583.728	7.02
584.067	7.45
584.406	7.19
584.745	7.25
585.083	7.26
585.422	7.42
585.761	7.27
586.1	7.25
586.438	7.3
586.777	7.75
587.115	7.39
587.454	7.28
587.792	7.26
588.13	7.46
588.469	7.39
588.807	7.66
589.145	7.52
589.483	7.55
589.821	7.52
590.159	7.51
590.497	7.7
590.835	7.77
591.173	7.5
591.511	7.84
591.849	7.6
592.187	7.95
592.524	7.78
592.862	7.81
593.2	7.75
593.537	7.67
593.875	7.71
594.212	8.01
594.55	7.63
594.887	8.08
595.224	7.95
595.561	8.04
595.899	7.97
596.236	8
596.573	8.17
596.91	7.79
597.247	8
597.584	8.06
597.921	8.11
598.258	7.92
598.594	7.88
598.931	7.91
599.268	8.15
599.604	7.97
599.941	8.26
600.277	7.96
600.614	7.99
600.95	7.94
601.287	8.22
601.623	8.17
601.959	8.04
602.296	8.17
602.632	8.26
602.968	8.21
603.304	8.28
603.64	8.03
603.976	8.37
604.312	8.12
604.648	8.24
604.984	8.52
605.319	8.5
605.655	8.4
605.991	8.35
606.326	8.47
606.662	8.35
606.998	8.22
607.333	8.37
607.668	8.6
608.004	8.67
608.339	8.7
608.674	8.69
609.01	8.4
609.345	8.41
609.68	9.07
610.015	8.36
610.35	8.77
610.685	8.98
611.02	8.47
611.355	8.62
611.689	8.68
612.024	8.9
612.359	8.77
612.694	8.98
613.028	8.74
613.363	9.08
613.697	8.86
614.032	9.06
614.366	8.98
614.7	9.04
615.035	9.05
615.369	8.84
615.703	9.05
616.037	9.25
616.371	8.54
616.705	8.74
617.039	9.17
617.373	9.16
617.707	8.8
618.041	9.04
618.375	9.3
618.709	9.15
619.042	9.28
619.376	9.35
619.71	9.51
620.043	9.23
620.377	9.06
620.71	9.4
621.043	9.44
621.377	9.2
621.71	9.44
622.043	9.44
622.376	9.25
622.709	9.49
623.043	9.51
623.376	9.53
623.709	9.45
624.041	10.01
624.374	9.76
624.707	9.56
625.04	9.97
625.373	9.25
625.705	9.79
626.038	9.62
626.37	9.72
626.703	9.7
627.035	9.87
627.368	10.07
627.7	9.7
628.032	9.58
628.365	10.04
628.697	9.82
629.029	9.76
629.361	10.05
629.693	9.88
630.025	9.8
630.357	10.04
630.689	10.02
631.021	9.66
631.353	9.96
631.684	10.04
632.016	10.21
632.348	10.27
632.679	10.14
633.011	10.19
633.342	10.24
633.674	10.2
634.005	10.6
634.336	10.1
634.668	10.66
634.999	9.9
635.33	10.51
635.661	10.4
635.992	10.49
636.323	10.53
636.654	10.66
636.985	10.28
637.316	10.28
637.647	10.39
637.977	10.75
638.308	10.44
638.639	10.3
638.969	10.5
639.3	10.56
639.63	10.28
639.961	10.41
640.291	10.51
640.622	10.6
640.952	10.57
641.282	10.81
641.612	10.83
641.943	10.44
642.273	10.73
642.603	11.03
642.933	11.14
643.263	10.76
643.592	10.83
643.922	10.51
644.252	10.89
644.582	11.05
644.911	10.47
645.241	10.39
645.571	10.37
645.9	10.9
646.23	11.02
646.559	11.07
646.888	10.71
647.218	11.11
647.547	11.17
647.876	11.06
648.205	10.75
648.534	10.75
648.863	10.89
649.192	11.36
649.521	10.94
649.85	10.75
650.179	10.95
650.508	11
650.837	10.99
651.165	10.42
651.494	11.05
651.822	11.43
652.151	11.07
652.479	11.53
652.808	10.93
653.136	11.38
653.465	11.53
653.793	11.66
654.121	10.73
654.449	11.34
654.777	11.76
655.105	11.5
655.433	11.4
655.761	11.37
656.089	11.61
656.417	11.45
656.745	11.27
657.073	11.34
657.4	11.84
657.728	11.42
658.056	11.71
658.383	11.47
658.711	11.52
659.038	11.95
659.365	12.37
659.693	11.85
660.02	11.68
660.347	11.91
660.674	11.81
661.001	12.37
661.329	11.78
661.656	11.71
661.982	11.88
662.309	11.72
662.636	11.76
662.963	12.12
663.29	12.39
663.616	12.55
663.943	11.44
664.27	12.17
664.596	12.82
664.923	11.92
665.249	12.12
665.576	11.95
665.902	12.73
666.228	12.82
666.554	12.09
666.881	12.22
667.207	12.62
667.533	12.77
667.859	12.39
668.185	12.71
668.511	12.07
668.837	11.79
669.162	12.75
669.488	12.33
669.814	12.55
670.139	12.86
670.465	12.46
670.791	12.83
671.116	13.44
671.442	12.96
671.767	12.62
672.092	13.49
672.418	12.73
672.743	12.99
673.068	12.17
673.393	12.54
673.718	12.4
674.043	13.28
674.368	12.33
674.693	13.23
675.018	13.29
675.343	12.86
675.667	12.6
675.992	13.46
676.317	13.43
676.641	12.89
676.966	13.52
677.29	13.39
677.615	13.48
677.939	13.03
678.264	13.58
678.588	12.89
678.912	13.07
679.236	13.78
679.56	12.86
679.885	13.66
680.209	13.52
680.532	12.98
680.856	13.34
681.18	13.29
681.504	13.71
681.828	13.98
682.152	12.5
682.475	13.74
682.799	13.62
683.122	13.6
683.446	13.42
683.769	14.23
684.093	13.26
684.416	13.94
684.739	13.36
685.062	13.44
685.386	13.95
685.709	13.12
686.032	13.68
686.355	13.92
686.678	12.95
687.001	13.26
687.324	14.36
687.646	13.78
687.969	13.51
688.292	13.57
