Data from 0199_crown_Reflection__0__345.txt Node

Date: Fri Dec 15 19:45:51 CST 2023
User: ToomeyLab
Spectrometer: FLMS14357
Trigger mode: 0
Integration Time (sec): 1.000000E-2
Scans to average: 100
Electric dark correction enabled: true
Nonlinearity correction enabled: false
Boxcar width: 0
XAxis mode: Wavelengths
Number of Pixels in Spectrum: 2048
>>>>>Begin Spectral Data<<<<<
189.047	-31.62
189.435	-31.62
189.823	-31.62
190.211	9.32
190.599	76.16
190.987	718.23
191.375	82.07
191.763	82.16
192.151	67.35
192.538	137.31
192.926	54.54
193.314	100.61
193.702	1.2
194.089	493.22
194.477	72.1
194.864	-191.24
195.252	45.77
195.639	159.05
196.027	135.13
196.414	77.95
196.801	-232.85
197.189	34.14
197.576	116.86
197.963	-121.95
198.351	-66.07
198.738	-22.84
199.125	16.36
199.512	-21.69
199.899	17.15
200.286	5.18
200.673	-20.26
201.06	18.8
201.447	0.49
201.833	32.6
202.22	32.11
202.607	13.85
202.994	30.45
203.38	-5.66
203.767	-0.02
204.154	6.96
204.54	60.1
204.927	20.06
205.313	-52.31
205.699	10.84
206.086	18.31
206.472	14.51
206.858	-11.88
207.245	-6.11
207.631	20.18
208.017	-3.04
208.403	15.52
208.789	-19.74
209.175	5.34
209.561	11.72
209.947	-2.07
210.333	-69
210.719	6.92
211.105	12.01
211.491	-10.21
211.876	32.83
212.262	45.99
212.648	36.69
213.034	-6.08
213.419	21.9
213.805	-37.07
214.19	-43.64
214.576	-15.23
214.961	-43.68
215.346	-72.34
215.732	-42.65
216.117	-0.26
216.502	-19.09
216.888	11.55
217.273	-5.14
217.658	-7.24
218.043	-0.52
218.428	-83.63
218.813	2.51
219.198	-46.1
219.583	6.72
219.968	25.3
220.353	-16.09
220.738	33.54
221.122	16.39
221.507	-23.09
221.892	-29.58
222.276	-17.6
222.661	-7.03
223.046	20.11
223.43	9.37
223.815	8.14
224.199	1.47
224.583	-12.11
224.968	-10.83
225.352	8
225.736	0.75
226.121	-13.11
226.505	-5.39
226.889	17.1
227.273	-12.33
227.657	9.71
228.041	3.68
228.425	0.44
228.809	7.13
229.193	1.97
229.577	3.08
229.961	4.78
230.344	5.83
230.728	5.23
231.112	5.33
231.495	5.03
231.879	5.81
232.263	6.58
232.646	6.17
233.03	4.48
233.413	3.28
233.797	4.7
234.18	3.4
234.563	3.55
234.946	4.15
235.33	7.13
235.713	6.45
236.096	4.29
236.479	5.56
236.862	2.66
237.245	5.12
237.628	3.83
238.011	5.84
238.394	4.96
238.777	5.72
239.16	2.37
239.543	7.34
239.925	5.9
240.308	3.61
240.691	5.4
241.073	5.77
241.456	4.02
241.838	4.13
242.221	4.13
242.603	5.67
242.986	5.79
243.368	4.81
243.75	5.86
244.133	4.45
244.515	5.51
244.897	5.32
245.279	5.71
245.661	5.46
246.043	4.05
246.425	4.3
246.807	6.08
247.189	4.45
247.571	6
247.953	4.96
248.335	5.17
248.717	5.32
249.098	4.87
249.48	5.07
249.862	4.81
250.243	4.9
250.625	5.19
251.006	5.57
251.388	3.33
251.769	4.47
252.151	4.77
252.532	6.23
252.913	4.44
253.295	4.23
253.676	4.39
254.057	4.66
254.438	4.83
254.819	4.56
255.2	4.3
255.581	4.37
255.962	2.78
256.343	5.05
256.724	3.5
257.105	3.6
257.486	4.45
257.867	4.44
258.247	4.61
258.628	4.15
259.009	3.64
259.389	5
259.77	4.72
260.15	4
260.531	3.76
260.911	5.26
261.292	4.4
261.672	4.64
262.052	4.88
262.432	4.82
262.813	4.53
263.193	4.72
263.573	4.76
263.953	4.17
264.333	4.58
264.713	4.73
265.093	4.61
265.473	3.85
265.853	3.4
266.233	4.51
266.612	1.82
266.992	2.91
267.372	4.42
267.752	4.15
268.131	4.57
268.511	4.82
268.89	4.5
269.27	3.92
269.649	3.82
270.029	4.29
270.408	5.07
270.787	4.88
271.167	4.83
271.546	4.88
271.925	3.32
272.304	4.49
272.683	4.67
273.062	4.42
273.441	4.83
273.82	3.69
274.199	4.48
274.578	4.58
274.957	4.01
275.336	4.24
275.715	4.06
276.093	4.17
276.472	4.26
276.851	4.03
277.229	4.2
277.608	3.65
277.986	4.02
278.365	4.11
278.743	3.82
279.122	4.16
279.5	4.63
279.878	4.68
280.257	3.58
280.635	4.1
281.013	4.26
281.391	3.98
281.769	4.37
282.147	4.24
282.525	4.58
282.903	4.03
283.281	4.37
283.659	3.8
284.037	4.26
284.415	4.27
284.792	4.68
285.17	3.72
285.548	3.55
285.925	4.57
286.303	4.1
286.68	4.33
287.058	4.16
287.435	4.46
287.813	4.32
288.19	3.75
288.567	4.01
288.945	4.6
289.322	3.85
289.699	3.87
290.076	3.82
290.453	4.24
290.83	3.49
291.207	3.82
291.584	4.42
291.961	4.15
292.338	4.34
292.715	4.69
293.092	4.18
293.469	4.06
293.845	3.82
294.222	4.12
294.599	4.07
294.975	4
295.352	4.19
295.728	3.54
296.105	4.02
296.481	4.07
296.858	3.92
297.234	3.45
297.61	3.7
297.986	3.57
298.363	4.11
298.739	3.93
299.115	4.01
299.491	3.66
299.867	3.98
300.243	4.26
300.619	3.83
300.995	3.88
301.371	3.96
301.746	3.43
302.122	4.55
302.498	3.92
302.874	4.02
303.249	4.05
303.625	3.72
304	3.92
304.376	3.96
304.751	3.42
305.127	4.68
305.502	3.08
305.878	3.04
306.253	3.6
306.628	4.13
307.003	3.49
307.378	3.68
307.754	3.76
308.129	2.72
308.504	4.1
308.879	3.22
309.254	4.78
309.629	4.23
310.003	4.16
310.378	4.22
310.753	4.24
311.128	4.01
311.502	4.12
311.877	4.11
312.252	3.36
312.626	3.56
313.001	3.77
313.375	3.87
313.75	3.45
314.124	4.05
314.498	3.56
314.873	3.89
315.247	3.62
315.621	3.64
315.995	3.93
316.369	3.76
316.743	3.34
317.117	3.99
317.491	3.85
317.865	3.44
318.239	3.73
318.613	3.78
318.987	3.64
319.361	3.12
319.734	3.5
320.108	3.96
320.482	3.56
320.855	4.15
321.229	3.65
321.602	3.76
321.976	4.27
322.349	3.77
322.723	3.72
323.096	3.93
323.469	3.01
323.843	3.32
324.216	3.9
324.589	3.26
324.962	3.86
325.335	3.4
325.708	3.63
326.081	3.04
326.454	3.5
326.827	3.66
327.2	4.03
327.573	4.08
327.945	3.84
328.318	3.71
328.691	3.23
329.063	3.12
329.436	3.69
329.809	3.99
330.181	3.48
330.553	3.39
330.926	3.64
331.298	4.05
331.671	3.73
332.043	4.04
332.415	3.89
332.787	4.11
333.159	4.42
333.532	4.08
333.904	3.55
334.276	3.7
334.648	3.63
335.02	3.67
335.391	3.51
335.763	3.22
336.135	4.54
336.507	4.11
336.879	3.72
337.25	3.58
337.622	4.11
337.993	3.77
338.365	3.51
338.736	3.62
339.108	3.55
339.479	3.24
339.851	3.88
340.222	3.63
340.593	3.94
340.964	3.67
341.336	4.42
341.707	3.01
342.078	3.92
342.449	3.25
342.82	3.46
343.191	3.83
343.562	3.74
343.933	3.44
344.303	3.28
344.674	3.65
345.045	3.7
345.416	3.99
345.786	3.45
346.157	4.05
346.527	3.68
346.898	3.42
347.268	3.71
347.639	3.46
348.009	3.88
348.38	3.75
348.75	3.65
349.12	3.56
349.49	4.29
349.861	4.02
350.231	3.78
350.601	3.7
350.971	4.21
351.341	4.15
351.711	3.8
352.081	3.99
352.45	3.75
352.82	3.89
353.19	3.63
353.56	3.65
353.929	4.33
354.299	3.79
354.669	3.71
355.038	3.86
355.408	3.43
355.777	3.62
356.147	3.64
356.516	3.83
356.885	3.7
357.254	3.53
357.624	4.05
357.993	4.13
358.362	3.56
358.731	3.64
359.1	3.57
359.469	3.98
359.838	4.03
360.207	3.54
360.576	4.06
360.945	3.57
361.314	4.16
361.682	3.74
362.051	3.55
362.42	3.93
362.788	3.71
363.157	3.71
363.525	4.12
363.894	4.04
364.262	3.93
364.631	4.05
364.999	4.06
365.367	3.79
365.735	4.29
366.104	4.06
366.472	3.97
366.84	3.91
367.208	3.9
367.576	3.9
367.944	4.21
368.312	3.42
368.68	3.49
369.048	4.08
369.416	4.01
369.783	3.68
370.151	4.03
370.519	4.3
370.886	4.14
371.254	3.72
371.621	3.95
371.989	4.19
372.356	3.87
372.724	4.12
373.091	3.86
373.458	3.76
373.826	3.95
374.193	3.85
374.56	4
374.927	4.03
375.294	4.02
375.661	3.91
376.028	4.16
376.395	3.66
376.762	4.07
377.129	3.97
377.496	3.66
377.863	4
378.229	3.66
378.596	4.02
378.963	3.88
379.329	3.8
379.696	4.16
380.062	4.33
380.429	4.12
380.795	3.98
381.161	3.92
381.528	3.91
381.894	3.97
382.26	3.66
382.626	4.23
382.993	4.06
383.359	4.37
383.725	3.78
384.091	3.91
384.457	4.51
384.823	3.85
385.188	4.21
385.554	3.9
385.92	4.22
386.286	4.28
386.651	4.1
387.017	4.3
387.383	4.12
387.748	4.13
388.114	4.29
388.479	3.86
388.845	4.59
389.21	4.03
389.575	4.24
389.94	4
390.306	3.95
390.671	4.26
391.036	3.67
391.401	3.66
391.766	3.93
392.131	4.03
392.496	4.21
392.861	4.31
393.226	4.11
393.591	4.17
393.956	4.11
394.32	4.1
394.685	3.9
395.05	4.17
395.414	4.24
395.779	3.96
396.143	4.16
396.508	4.26
396.872	4.11
397.236	4.19
397.601	4.01
397.965	4.25
398.329	4.11
398.694	4.27
399.058	4.14
399.422	3.98
399.786	4.51
400.15	4.18
400.514	4.21
400.878	4.28
401.242	4.51
401.605	4.31
401.969	4.26
402.333	4.11
402.697	4.07
403.06	4.13
403.424	4.11
403.787	4.33
404.151	4.21
404.514	4.44
404.878	4.22
405.241	4.49
405.604	4.17
405.968	4.23
406.331	4.19
406.694	4.26
407.057	4.34
407.42	4.5
407.783	4.08
408.146	4.37
408.509	4.22
408.872	4.12
409.235	4.22
409.598	4.29
409.961	4.06
410.323	4.35
410.686	4.17
411.049	4.16
411.411	4.17
411.774	4.3
412.136	4.2
412.499	4.15
412.861	4.29
413.223	4.28
413.586	4.2
413.948	4.33
414.31	4.27
414.672	4.05
415.035	3.96
415.397	4.47
415.759	3.92
416.121	4.25
416.483	4.2
416.845	4.4
417.206	4.11
417.568	4.35
417.93	4.09
418.292	4.24
418.653	4.24
419.015	4.38
419.377	4.3
419.738	4.29
420.1	4.34
420.461	4.41
420.822	4.38
421.184	4.31
421.545	4.33
421.906	4.21
422.267	4.08
422.629	4.16
422.99	4.24
423.351	4.09
423.712	4.22
424.073	4.3
424.434	4.22
424.795	4.14
425.155	4.3
425.516	4.16
425.877	4.19
426.238	4.25
426.598	4.34
426.959	4.33
427.32	4.23
427.68	4.19
428.041	4.13
428.401	4.37
428.761	4.22
429.122	4.38
429.482	4.26
429.842	4.22
430.202	4.25
430.563	4.33
430.923	4.24
431.283	4.31
431.643	4.41
432.003	4.43
432.363	4.56
432.722	4.21
433.082	4.3
433.442	4.36
433.802	4.21
434.161	4.22
434.521	4.56
434.881	4.39
435.24	4.26
435.6	4.31
435.959	4.45
436.319	4.34
436.678	4.4
437.037	4.35
437.396	4.4
437.756	4.39
438.115	4.3
438.474	4.58
438.833	4.27
439.192	4.23
439.551	4.54
439.91	4.43
440.269	4.45
440.628	4.31
440.987	4.3
441.345	4.24
441.704	4.37
442.063	4.38
442.421	4.34
442.78	4.29
443.138	4.33
443.497	4.38
443.855	4.33
444.214	4.38
444.572	4.54
444.93	4.36
445.288	4.47
445.647	4.57
446.005	4.37
446.363	4.5
446.721	4.5
447.079	4.23
447.437	4.31
447.795	4.37
448.153	4.16
448.51	4.38
448.868	4.3
449.226	4.35
449.584	4.38
449.941	4.47
450.299	4.55
450.656	4.36
451.014	4.29
451.371	4.23
451.729	4.37
452.086	4.7
452.443	4.38
452.801	4.39
453.158	4.33
453.515	4.21
453.872	4.63
454.229	4.52
454.586	4.28
454.943	4.4
455.3	4.48
455.657	4.4
456.014	4.36
456.371	4.48
456.727	4.59
457.084	4.49
457.441	4.58
457.797	4.62
458.154	4.59
458.51	4.55
458.867	4.71
459.223	4.66
459.58	4.5
459.936	4.43
460.292	4.44
460.648	4.3
461.005	4.32
461.361	4.49
461.717	4.41
462.073	4.22
462.429	4.4
462.785	4.45
463.141	4.44
463.496	4.45
463.852	4.43
464.208	4.57
464.564	4.61
464.919	4.47
465.275	4.43
465.631	4.52
465.986	4.32
466.342	4.42
466.697	4.28
467.052	4.65
467.408	4.58
467.763	4.45
468.118	4.5
468.473	4.41
468.829	4.6
469.184	4.42
469.539	4.45
469.894	4.32
470.249	4.69
470.603	4.53
470.958	4.56
471.313	4.62
471.668	4.56
472.023	4.46
472.377	4.41
472.732	4.48
473.086	4.4
473.441	4.41
473.795	4.62
474.15	4.65
474.504	4.48
474.859	4.61
475.213	4.47
475.567	4.41
475.921	4.49
476.275	4.64
476.63	4.49
476.984	4.63
477.338	4.56
477.692	4.39
478.045	4.51
478.399	4.59
478.753	4.58
479.107	4.39
479.461	4.5
479.814	4.63
480.168	4.43
480.521	4.4
480.875	4.35
481.228	4.52
481.582	4.58
481.935	4.55
482.289	4.56
482.642	4.54
482.995	4.42
483.348	4.45
483.701	4.36
484.055	4.53
484.408	4.54
484.761	4.42
485.114	4.36
485.466	4.24
485.819	4.21
486.172	4.21
486.525	4.3
486.878	4.32
487.23	4.36
487.583	4.37
487.936	4.42
488.288	4.4
488.641	4.47
488.993	4.31
489.345	4.34
489.698	4.3
490.05	4.27
490.402	4.4
490.754	4.34
491.107	4.46
491.459	4.43
491.811	4.49
492.163	4.51
492.515	4.54
492.866	4.55
493.218	4.35
493.57	4.36
493.922	4.35
494.274	4.42
494.625	4.52
494.977	4.6
495.328	4.54
495.68	4.53
496.031	4.7
496.383	4.45
496.734	4.75
497.086	4.66
497.437	4.58
497.788	4.59
498.139	4.56
498.49	4.62
498.842	4.42
499.193	4.5
499.544	4.48
499.894	4.57
500.245	4.65
500.596	4.62
500.947	4.57
501.298	4.41
501.648	4.65
501.999	4.77
502.35	4.68
502.7	4.64
503.051	4.4
503.401	4.57
503.752	4.59
504.102	4.67
504.452	4.68
504.803	4.46
505.153	4.43
505.503	4.6
505.853	4.62
506.203	4.46
506.553	4.5
506.903	4.47
507.253	4.45
507.603	4.4
507.953	4.63
508.303	4.65
508.652	4.55
509.002	4.6
509.352	4.54
509.701	4.49
510.051	4.64
510.4	4.56
510.75	4.55
511.099	4.51
511.449	4.52
511.798	4.53
512.147	4.53
512.496	4.54
512.846	4.64
513.195	4.6
513.544	4.53
513.893	4.66
514.242	4.6
514.591	4.71
514.939	4.51
515.288	4.5
515.637	4.63
515.986	4.56
516.334	4.62
516.683	4.64
517.032	4.56
517.38	4.7
517.729	4.61
518.077	4.5
518.426	4.66
518.774	4.63
519.122	4.45
519.47	4.45
519.819	4.52
520.167	4.59
520.515	4.48
520.863	4.6
521.211	4.58
521.559	4.51
521.907	4.55
522.255	4.6
522.602	4.62
522.95	4.51
523.298	4.58
523.645	4.62
523.993	4.59
524.341	4.66
524.688	4.56
525.036	4.66
525.383	4.63
525.73	4.78
526.078	4.59
526.425	4.53
526.772	4.62
527.119	4.53
527.466	4.46
527.814	4.56
528.161	4.52
528.508	4.58
528.854	4.5
529.201	4.51
529.548	4.45
529.895	4.41
530.242	4.28
530.588	4.34
530.935	4.39
531.282	4.4
531.628	4.37
531.975	4.45
532.321	4.51
532.667	4.55
533.014	4.64
533.36	4.63
533.706	4.56
534.052	4.53
534.399	4.49
534.745	4.47
535.091	4.47
535.437	4.5
535.783	4.46
536.129	4.58
536.474	4.55
536.82	4.71
537.166	4.69
537.512	4.71
537.857	4.44
538.203	4.48
538.549	4.57
538.894	4.49
539.239	4.65
539.585	4.59
539.93	4.54
540.276	4.68
540.621	4.62
540.966	4.5
541.311	4.5
541.656	4.57
542.001	4.55
542.346	4.65
542.691	4.52
543.036	4.5
543.381	4.39
543.726	4.46
544.071	4.45
544.415	4.6
544.76	4.51
545.105	4.57
545.449	4.57
545.794	4.71
546.138	4.5
546.483	4.6
546.827	4.67
547.171	4.53
547.516	4.62
547.86	4.5
548.204	4.56
548.548	4.63
548.892	4.6
549.236	4.54
549.58	4.53
549.924	4.74
550.268	4.72
550.612	4.59
550.956	4.82
551.3	4.71
551.643	4.97
551.987	4.79
552.33	4.68
552.674	4.69
553.017	4.59
553.361	4.52
553.704	4.81
554.048	4.69
554.391	4.51
554.734	4.61
555.077	4.53
555.42	4.7
555.764	4.61
556.107	4.58
556.45	4.69
556.793	4.63
557.135	4.72
557.478	4.76
557.821	4.73
558.164	4.63
558.507	4.59
558.849	4.69
559.192	4.76
559.534	4.74
559.877	4.59
560.219	4.43
560.562	4.88
560.904	4.87
561.246	4.6
561.589	4.73
561.931	4.73
562.273	4.49
562.615	4.83
562.957	4.62
563.299	4.39
563.641	4.62
563.983	4.78
564.325	4.65
564.667	4.6
565.008	4.55
565.35	4.61
565.692	4.54
566.033	4.46
566.375	4.81
566.716	4.9
567.058	4.58
567.399	4.69
567.741	4.63
568.082	4.64
568.423	4.65
568.764	4.69
569.105	4.79
569.447	4.69
569.788	4.73
570.129	4.75
570.47	4.74
570.811	4.82
571.151	4.72
571.492	4.59
571.833	4.65
572.174	4.78
572.514	4.79
572.855	4.57
573.195	4.56
573.536	4.75
573.876	4.52
574.217	4.61
574.557	4.92
574.898	4.73
575.238	4.86
575.578	4.65
575.918	4.78
576.258	4.6
576.598	4.76
576.938	4.54
577.278	4.69
577.618	4.71
577.958	4.63
578.298	4.66
578.638	4.64
578.977	4.7
579.317	4.76
579.657	4.67
579.996	4.76
580.336	4.74
580.675	4.6
581.014	4.57
581.354	4.68
581.693	4.78
582.032	4.38
582.372	4.58
582.711	4.55
583.05	4.77
583.389	4.59
583.728	4.51
584.067	4.69
584.406	4.77
584.745	4.75
585.083	4.79
585.422	4.85
585.761	4.91
586.1	4.8
586.438	4.55
586.777	4.93
587.115	4.92
587.454	4.54
587.792	4.28
588.13	4.91
588.469	4.49
588.807	4.7
589.145	4.56
589.483	4.57
589.821	4.74
590.159	4.78
590.497	5.13
590.835	5.08
591.173	4.74
591.511	5.02
591.849	4.92
592.187	4.79
592.524	4.55
592.862	4.7
593.2	4.79
593.537	4.73
593.875	4.47
594.212	4.54
594.55	4.64
594.887	4.77
595.224	4.7
595.561	4.76
595.899	4.78
596.236	4.56
596.573	4.87
596.91	4.12
597.247	4.41
597.584	4.8
597.921	4.82
598.258	4.6
598.594	4.69
598.931	4.59
599.268	4.7
599.604	4.71
599.941	4.76
600.277	4.68
600.614	4.64
600.95	4.59
601.287	4.81
601.623	4.77
601.959	4.48
602.296	4.76
602.632	4.58
602.968	4.69
603.304	4.56
603.64	4.65
603.976	4.76
604.312	4.65
604.648	4.62
604.984	4.64
605.319	4.72
605.655	4.67
605.991	4.65
606.326	4.57
606.662	4.63
606.998	4.58
607.333	4.69
607.668	4.8
608.004	4.69
608.339	4.85
608.674	4.72
609.01	4.52
609.345	4.47
609.68	4.83
610.015	4.58
610.35	4.47
610.685	4.57
611.02	4.83
611.355	4.85
611.689	4.71
612.024	4.82
612.359	4.63
612.694	4.78
613.028	4.48
613.363	4.69
613.697	4.83
614.032	4.73
614.366	4.62
614.7	4.83
615.035	4.85
615.369	4.48
615.703	4.43
616.037	4.93
616.371	4.51
616.705	4.55
617.039	4.63
617.373	4.85
617.707	4.71
618.041	4.53
618.375	5.09
618.709	4.84
619.042	4.56
619.376	4.72
619.71	4.72
620.043	4.82
620.377	4.67
620.71	4.82
621.043	4.95
621.377	4.79
621.71	4.62
622.043	4.46
622.376	4.48
622.709	4.58
623.043	4.74
623.376	4.61
623.709	4.44
624.041	4.86
624.374	4.92
624.707	4.83
625.04	4.91
625.373	4.11
625.705	4.84
626.038	4.8
626.37	4.62
626.703	4.5
627.035	4.44
627.368	4.92
627.7	4.6
628.032	4.57
628.365	4.83
628.697	4.87
629.029	4.5
629.361	4.8
629.693	4.85
630.025	4.8
630.357	4.73
630.689	4.97
631.021	4.79
631.353	4.93
631.684	4.61
632.016	4.48
632.348	4.52
632.679	5.2
633.011	5.1
633.342	4.96
633.674	4.53
634.005	4.97
634.336	4.55
634.668	4.99
634.999	4.43
635.33	5.12
635.661	4.66
635.992	4.52
636.323	4.88
636.654	4.97
636.985	4.76
637.316	4.71
637.647	4.59
637.977	5.13
638.308	4.95
638.639	4.86
638.969	4.59
639.3	4.92
639.63	4.48
639.961	5.04
640.291	4.77
640.622	5.05
640.952	4.37
641.282	5.13
641.612	4.6
641.943	4.28
642.273	4.78
642.603	4.88
642.933	5.07
643.263	4.7
643.592	4.24
643.922	4.62
644.252	4.5
644.582	4.47
644.911	4.29
645.241	4.86
645.571	4.76
645.9	4.26
646.23	4.72
646.559	4.46
646.888	4.26
647.218	4.81
647.547	4.93
647.876	4.63
648.205	4.63
648.534	4.34
648.863	4.29
649.192	4.82
649.521	4.71
649.85	4.71
650.179	4.79
650.508	4.58
650.837	4.4
651.165	4.2
651.494	5.03
651.822	5.05
652.151	4.49
652.479	4.91
652.808	4.06
653.136	4.59
653.465	3.77
653.793	3.96
654.121	4.45
654.449	4.65
654.777	5.01
655.105	4.99
655.433	4.52
655.761	4.58
656.089	5.27
656.417	5.06
656.745	4.36
657.073	4.07
657.4	4.95
657.728	4.74
658.056	4.23
658.383	4.93
658.711	4.93
659.038	4.78
659.365	5.49
659.693	4.89
660.02	4.73
660.347	5.28
660.674	5.12
661.001	4.94
661.329	4.05
661.656	4.92
661.982	4.9
662.309	5.1
662.636	4.43
662.963	5.22
663.29	5.23
663.616	4.79
663.943	4.08
664.27	4.78
664.596	5.07
664.923	4.92
665.249	4.35
665.576	4.39
665.902	5.37
666.228	4.94
666.554	4.85
666.881	4.62
667.207	4.75
667.533	4.8
667.859	5
668.185	4.99
668.511	3.84
668.837	4.23
669.162	4.77
669.488	4.37
669.814	4.97
670.139	5.34
670.465	4.67
670.791	5.08
671.116	5.48
671.442	4.24
671.767	4.98
672.092	4.91
672.418	4.95
672.743	5.19
673.068	4.85
673.393	5.12
673.718	4.45
674.043	4.59
674.368	4.59
674.693	5.28
675.018	4.8
675.343	4.61
675.667	4.48
675.992	4.43
676.317	5
676.641	4.97
676.966	4.82
677.29	4.82
677.615	4.95
677.939	5.39
678.264	5.67
678.588	5.25
678.912	5.1
679.236	5.88
679.56	4.83
679.885	5.51
680.209	5.44
680.532	5.05
680.856	5.4
681.18	4.94
681.504	4.96
681.828	5.47
682.152	4.16
682.475	5.34
682.799	4.99
683.122	5.17
683.446	4.6
683.769	5.11
684.093	5.16
684.416	5.31
684.739	4.98
685.062	5.82
685.386	5.8
685.709	5.26
686.032	5.29
686.355	4.87
686.678	4.35
687.001	4.92
687.324	5.64
687.646	4.64
687.969	4.47
688.292	4.9
688.614	4.58
688.937	5.76
689.26	4.8
689.582	5.52
689.904	4.89
690.227	5.24
690.549	5.07
690.871	5.27
691.194	4.75
691.516	4.79
691.838	5.12
692.16	4.66
692.482	4.61
692.804	4.76
