Data from 0199_forehead_Reflection__2__352.txt Node

Date: Fri Dec 15 19:47:17 CST 2023
User: ToomeyLab
Spectrometer: FLMS14357
Trigger mode: 0
Integration Time (sec): 1.000000E-2
Scans to average: 100
Electric dark correction enabled: true
Nonlinearity correction enabled: false
Boxcar width: 0
XAxis mode: Wavelengths
Number of Pixels in Spectrum: 2048
>>>>>Begin Spectral Data<<<<<
189.047	-285.99
189.435	-285.99
189.823	-285.99
190.211	56.58
190.599	-20.88
190.987	475.56
191.375	79.61
191.763	-55.44
192.151	-63.68
192.538	126.74
192.926	-189.16
193.314	96.76
193.702	-86.58
194.089	3444.07
194.477	110.96
194.864	-235.94
195.252	158.06
195.639	92.47
196.027	84.31
196.414	76.55
196.801	-144.64
197.189	174.58
197.576	212.64
197.963	89.09
198.351	-108.66
198.738	9.59
199.125	37.36
199.512	-30.36
199.899	-1.56
200.286	21.66
200.673	-1.1
201.06	43.61
201.447	-26.04
201.833	23.8
202.22	-0.48
202.607	5.12
202.994	39.33
203.38	52.7
203.767	42.4
204.154	52.86
204.54	38.74
204.927	-25.27
205.313	-37.32
205.699	27.36
206.086	33.42
206.472	5.64
206.858	-0.64
207.245	-83.57
207.631	18.12
208.017	14.45
208.403	-31.38
208.789	42.46
209.175	9.64
209.561	-38.39
209.947	17.3
210.333	-103.82
210.719	13.66
211.105	1.68
211.491	-8.04
211.876	39.12
212.262	16.15
212.648	32.78
213.034	16.19
213.419	-30.78
213.805	-7.2
214.19	-66.6
214.576	6.39
214.961	-28.95
215.346	-126.77
215.732	-6.61
216.117	27.16
216.502	-55.18
216.888	34.99
217.273	18.44
217.658	5.27
218.043	5.92
218.428	-18.84
218.813	12.65
219.198	-8.34
219.583	-13.38
219.968	-21.74
220.353	-0.99
220.738	25.82
221.122	34.52
221.507	-41.85
221.892	-38.49
222.276	11.75
222.661	1.29
223.046	12.03
223.43	4.52
223.815	7.69
224.199	-28.84
224.583	-5.07
224.968	-9.59
225.352	14.84
225.736	5
226.121	-0.7
226.505	-0.1
226.889	5.1
227.273	-4.55
227.657	1.42
228.041	3.92
228.425	3.02
228.809	5.06
229.193	2.4
229.577	3.21
229.961	2.73
230.344	2.6
230.728	2.82
231.112	3.32
231.495	2.49
231.879	1.78
232.263	2.95
232.646	2.53
233.03	1.84
233.413	1.46
233.797	2.16
234.18	1.44
234.563	1.76
234.946	0.57
235.33	3.09
235.713	2.45
236.096	2.01
236.479	3.69
236.862	2.2
237.245	4.5
237.628	2.6
238.011	3.78
238.394	3.15
238.777	2.29
239.16	1.23
239.543	3.17
239.925	3.81
240.308	0.15
240.691	5.04
241.073	3.48
241.456	3.26
241.838	3.27
242.221	1.05
242.603	4.32
242.986	3.12
243.368	1.93
243.75	2.99
244.133	2.82
244.515	2.7
244.897	3.09
245.279	2.87
245.661	2.63
246.043	2.55
246.425	2.1
246.807	4.52
247.189	3.67
247.571	2.72
247.953	3.39
248.335	3.11
248.717	3.07
249.098	2.94
249.48	2.97
249.862	3.11
250.243	3.01
250.625	2.6
251.006	3.05
251.388	1.76
251.769	3.45
252.151	3.34
252.532	2.8
252.913	2.48
253.295	2.42
253.676	3.04
254.057	3.59
254.438	3.68
254.819	3.25
255.2	2.71
255.581	3.07
255.962	4.11
256.343	3.33
256.724	2.9
257.105	2.22
257.486	2.7
257.867	3.3
258.247	3.44
258.628	3.44
259.009	3.16
259.389	3.44
259.77	2.91
260.15	1.98
260.531	2.51
260.911	3.33
261.292	3.03
261.672	3.17
262.052	3
262.432	3.44
262.813	3.1
263.193	3.21
263.573	2.73
263.953	2.7
264.333	2.97
264.713	3.31
265.093	3.14
265.473	3.26
265.853	2.06
266.233	3.43
266.612	0.93
266.992	1.73
267.372	3.26
267.752	2.55
268.131	3.1
268.511	3.52
268.89	3.29
269.27	2.57
269.649	2.2
270.029	2.62
270.408	3.87
270.787	3.87
271.167	3.91
271.546	3.88
271.925	2.04
272.304	3.14
272.683	3.14
273.062	2.6
273.441	3.41
273.82	2.71
274.199	3.09
274.578	3.28
274.957	2.54
275.336	2.97
275.715	3.15
276.093	2.8
276.472	3.56
276.851	3.02
277.229	2.34
277.608	2.02
277.986	3.34
278.365	2.49
278.743	2.33
279.122	2.92
279.5	3.05
279.878	2.86
280.257	2.1
280.635	2.68
281.013	2.43
281.391	3.23
281.769	3.59
282.147	2.96
282.525	3.31
282.903	3.35
283.281	2.93
283.659	3.05
284.037	2.71
284.415	3.55
284.792	3.59
285.17	2.16
285.548	2.33
285.925	3.15
286.303	2.64
286.68	2.82
287.058	3.14
287.435	2.99
287.813	3.4
288.19	2.83
288.567	2.8
288.945	3.49
289.322	3
289.699	3.29
290.076	3.16
290.453	2.86
290.83	2.97
291.207	2.94
291.584	3.53
291.961	3.64
292.338	3.44
292.715	3.51
293.092	3.59
293.469	3.55
293.845	3.64
294.222	3.79
294.599	3.02
294.975	3.23
295.352	3.83
295.728	2.97
296.105	3.73
296.481	3.45
296.858	3.9
297.234	3.17
297.61	3.84
297.986	3.69
298.363	3.7
298.739	3.66
299.115	3.29
299.491	3.33
299.867	3.76
300.243	3.73
300.619	3.53
300.995	3.38
301.371	4.2
301.746	3.95
302.122	4.04
302.498	3.91
302.874	4.12
303.249	3.65
303.625	3.91
304	4.33
304.376	3.52
304.751	3.82
305.127	4.55
305.502	3.43
305.878	3.47
306.253	3.8
306.628	4.51
307.003	4.28
307.378	4.48
307.754	4.56
308.129	3.44
308.504	3.99
308.879	3.75
309.254	4.75
309.629	4.89
310.003	4.45
310.378	4.77
310.753	4.71
311.128	4.48
311.502	4.5
311.877	5
312.252	4.58
312.626	4.48
313.001	3.95
313.375	4.8
313.75	4.1
314.124	4.38
314.498	4.45
314.873	4.86
315.247	4.74
315.621	4.62
315.995	4.45
316.369	5.05
316.743	4.51
317.117	4.92
317.491	4.84
317.865	4.71
318.239	4.92
318.613	5.14
318.987	5.43
319.361	4.57
319.734	5.41
320.108	4.87
320.482	4.77
320.855	5.82
321.229	4.8
321.602	5.37
321.976	5.6
322.349	4.94
322.723	5.37
323.096	5.97
323.469	4.59
323.843	4.89
324.216	5.72
324.589	5.1
324.962	5.25
325.335	5.1
325.708	5.01
326.081	5.14
326.454	5.23
326.827	5.34
327.2	5.45
327.573	5.67
327.945	5.71
328.318	5.61
328.691	5.14
329.063	5.42
329.436	5.12
329.809	5.63
330.181	4.79
330.553	5.45
330.926	5.72
331.298	5.48
331.671	5.62
332.043	5.83
332.415	5.52
332.787	5.93
333.159	6.11
333.532	5.96
333.904	5.62
334.276	6.05
334.648	6.07
335.02	5.74
335.391	5.75
335.763	5.56
336.135	6.28
336.507	6.48
336.879	5.41
337.25	5.48
337.622	5.57
337.993	5.83
338.365	5.82
338.736	6.2
339.108	5.92
339.479	5.41
339.851	5.8
340.222	6.16
340.593	6.42
340.964	6.14
341.336	6.86
341.707	5.89
342.078	6.44
342.449	6.02
342.82	6.47
343.191	5.85
343.562	6.25
343.933	6.41
344.303	6.03
344.674	6.83
345.045	6.11
345.416	6.45
345.786	6.05
346.157	6.62
346.527	5.93
346.898	6.17
347.268	6.44
347.639	6.25
348.009	6.31
348.38	6.37
348.75	6.81
349.12	6.38
349.49	6.82
349.861	6.56
350.231	6.84
350.601	6.47
350.971	6.51
351.341	6.74
351.711	6.66
352.081	6.4
352.45	5.94
352.82	6.61
353.19	6.49
353.56	6.49
353.929	6.45
354.299	6.61
354.669	6.14
355.038	6.81
355.408	6.58
355.777	6.75
356.147	6.52
356.516	6.98
356.885	6.71
357.254	7.07
357.624	6.78
357.993	6.84
358.362	6.76
358.731	6.64
359.1	6.79
359.469	6.97
359.838	6.97
360.207	6.79
360.576	6.87
360.945	6.94
361.314	7.31
361.682	6.56
362.051	6.77
362.42	7.19
362.788	6.61
363.157	7.05
363.525	7.2
363.894	7.01
364.262	7.11
364.631	7.25
364.999	7.09
365.367	6.66
365.735	7.71
366.104	7.32
366.472	7.31
366.84	7.04
367.208	7.07
367.576	7.43
367.944	7.43
368.312	7.03
368.68	6.79
369.048	7.28
369.416	7.27
369.783	7.32
370.151	7.55
370.519	7.7
370.886	7.6
371.254	7.33
371.621	7.71
371.989	7.87
372.356	6.88
372.724	7.29
373.091	7.12
373.458	7.08
373.826	7.55
374.193	7.33
374.56	7.58
374.927	7.7
375.294	7.54
375.661	7.61
376.028	7.63
376.395	7.23
376.762	7.76
377.129	7.7
377.496	7.37
377.863	7.09
378.229	7.47
378.596	7.64
378.963	7.74
379.329	7.45
379.696	7.74
380.062	7.63
380.429	8.02
380.795	7.64
381.161	7.96
381.528	8.15
381.894	7.48
382.26	7.63
382.626	8.14
382.993	7.51
383.359	8.33
383.725	7.71
384.091	7.87
384.457	8.3
384.823	7.73
385.188	8.22
385.554	7.91
385.92	8.01
386.286	8.47
386.651	8.08
387.017	8.51
387.383	8.15
387.748	8.18
388.114	8.52
388.479	7.92
388.845	8.43
389.21	8.33
389.575	8.47
389.94	8.17
390.306	8.11
390.671	8.43
391.036	8.09
391.401	7.74
391.766	8.39
392.131	8.16
392.496	8.31
392.861	8.29
393.226	8.51
393.591	8.48
393.956	8.49
394.32	8.53
394.685	8.24
395.05	8.37
395.414	8.52
395.779	8.18
396.143	8.47
396.508	8.6
396.872	8.51
397.236	8.78
397.601	8.03
397.965	8.7
398.329	8.74
398.694	8.78
399.058	8.47
399.422	8.47
399.786	8.72
400.15	8.55
400.514	8.73
400.878	8.92
401.242	9.01
401.605	8.91
401.969	8.59
402.333	8.68
402.697	8.72
403.06	8.97
403.424	8.86
403.787	8.75
404.151	8.89
404.514	8.87
404.878	8.74
405.241	8.98
405.604	8.67
405.968	9.06
406.331	8.84
406.694	9.04
407.057	8.89
407.42	9
407.783	8.86
408.146	9.16
408.509	8.77
408.872	8.71
409.235	9.11
409.598	9.18
409.961	9.21
410.323	9.17
410.686	8.97
411.049	8.93
411.411	9.01
411.774	9.17
412.136	9.21
412.499	9.07
412.861	9.17
413.223	9.13
413.586	9.33
413.948	9.34
414.31	9.25
414.672	9.19
415.035	9.06
415.397	9.53
415.759	9.39
416.121	9.45
416.483	9.29
416.845	9.48
417.206	9.09
417.568	9.45
417.93	9.41
418.292	9.55
418.653	9.37
419.015	9.42
419.377	9.31
419.738	9.34
420.1	9.39
420.461	9.39
420.822	9.45
421.184	9.28
421.545	9.4
421.906	9.37
422.267	9.41
422.629	9.31
422.99	9.39
423.351	9.34
423.712	9.48
424.073	9.41
424.434	9.4
424.795	9.46
425.155	9.52
425.516	9.5
425.877	9.47
426.238	9.48
426.598	9.5
426.959	9.6
427.32	9.39
427.68	9.54
428.041	9.77
428.401	9.84
428.761	9.78
429.122	9.81
429.482	9.7
429.842	9.99
430.202	9.94
430.563	9.85
430.923	9.76
431.283	10.06
431.643	9.9
432.003	9.89
432.363	9.98
432.722	9.82
433.082	9.98
433.442	10.03
433.802	10.06
434.161	10.01
434.521	10.17
434.881	9.98
435.24	9.82
435.6	10.04
435.959	9.99
436.319	10.07
436.678	10.16
437.037	10.02
437.396	10.25
437.756	10
438.115	10.1
438.474	10.39
438.833	10.14
439.192	10.15
439.551	10.2
439.91	10.32
440.269	10.22
440.628	10.16
440.987	10.23
441.345	10.09
441.704	10.2
442.063	10.11
442.421	10.26
442.78	10.25
443.138	10.32
443.497	10.27
443.855	10.33
444.214	10.64
444.572	10.51
444.93	10.44
445.288	10.51
445.647	10.62
446.005	10.39
446.363	10.45
446.721	10.49
447.079	10.27
447.437	10.47
447.795	10.37
448.153	10.33
448.51	10.42
448.868	10.24
449.226	10.5
449.584	10.53
449.941	10.67
450.299	10.56
450.656	10.59
451.014	10.68
451.371	10.64
451.729	10.66
452.086	10.88
452.443	10.7
452.801	10.97
453.158	10.9
453.515	10.74
453.872	10.81
454.229	10.63
454.586	10.85
454.943	11.07
455.3	10.93
455.657	10.94
456.014	10.96
456.371	11.02
456.727	10.87
457.084	11.19
457.441	10.99
457.797	11.11
458.154	11.21
458.51	11.13
458.867	11.27
459.223	11.28
459.58	11.34
459.936	11.23
460.292	11.31
460.648	11.07
461.005	11.1
461.361	11.11
461.717	11
462.073	10.96
462.429	11.15
462.785	11.22
463.141	11.27
463.496	11.33
463.852	11.37
464.208	11.54
464.564	11.36
464.919	11.61
465.275	11.44
465.631	11.56
465.986	11.64
466.342	11.59
466.697	11.23
467.052	11.67
467.408	11.7
467.763	11.55
468.118	11.51
468.473	11.5
468.829	11.62
469.184	11.57
469.539	11.69
469.894	11.52
470.249	11.96
470.603	11.86
470.958	11.88
471.313	11.74
471.668	11.82
472.023	11.78
472.377	11.56
472.732	11.93
473.086	11.85
473.441	11.72
473.795	11.95
474.15	11.82
474.504	11.9
474.859	12.12
475.213	11.88
475.567	11.73
475.921	11.81
476.275	12.06
476.63	12.04
476.984	12.27
477.338	11.95
477.692	12.05
478.045	11.83
478.399	11.94
478.753	11.98
479.107	12.11
479.461	12.25
479.814	12.12
480.168	12.1
480.521	12.02
480.875	12.19
481.228	12.17
481.582	12.18
481.935	12.24
482.289	12.03
482.642	12.16
482.995	12.05
483.348	12.09
483.701	12.11
484.055	12.07
484.408	12.16
484.761	11.82
485.114	11.75
485.466	11.48
485.819	11.48
486.172	11.62
486.525	11.77
486.878	11.86
487.23	12.02
487.583	12.14
487.936	12.18
488.288	12.17
488.641	12.14
488.993	11.9
489.345	11.89
489.698	11.88
490.05	11.95
490.402	12.09
490.754	12.15
491.107	12.38
491.459	12.41
491.811	12.48
492.163	12.45
492.515	12.47
492.866	12.41
493.218	12.24
493.57	12.11
493.922	12.12
494.274	12.48
494.625	12.62
494.977	12.67
495.328	12.74
495.68	12.76
496.031	12.94
496.383	12.82
496.734	13.02
497.086	12.92
497.437	12.99
497.788	12.83
498.139	12.82
498.49	13
498.842	12.7
499.193	12.96
499.544	13.07
499.894	13.04
500.245	12.98
500.596	12.85
500.947	13.12
501.298	13.08
501.648	13.3
501.999	13.28
502.35	13.25
502.7	13.25
503.051	13.18
503.401	13.14
503.752	13.39
504.102	13.3
504.452	13.34
504.803	13.32
505.153	13.28
505.503	13.41
505.853	13.44
506.203	13.46
506.553	13.43
506.903	13.53
507.253	13.47
507.603	13.5
507.953	13.62
508.303	13.79
508.652	13.51
509.002	13.62
509.352	13.73
509.701	13.53
510.051	13.7
510.4	13.62
510.75	13.78
511.099	13.64
511.449	13.53
511.798	13.73
512.147	13.71
512.496	13.58
512.846	13.73
513.195	13.67
513.544	13.78
513.893	13.78
514.242	13.77
514.591	14.03
514.939	13.9
515.288	13.79
515.637	14.05
515.986	13.87
516.334	14.05
516.683	14.01
517.032	13.97
517.38	14.03
517.729	14.27
518.077	14.06
518.426	14.16
518.774	14.18
519.122	14.07
519.47	13.97
519.819	13.89
520.167	13.94
520.515	13.89
520.863	14
521.211	14.16
521.559	14.12
521.907	14.2
522.255	14.28
522.602	14.36
522.95	14.34
523.298	14.52
523.645	14.52
523.993	14.35
524.341	14.5
524.688	14.43
525.036	14.39
525.383	14.52
525.73	14.67
526.078	14.31
526.425	14.4
526.772	14.4
527.119	14.39
527.466	14.12
527.814	14.28
528.161	14.36
528.508	14.42
528.854	14.39
529.201	14.38
529.548	14.35
529.895	14.08
530.242	13.87
530.588	13.82
530.935	13.98
531.282	14.15
531.628	14.26
531.975	14.45
532.321	14.49
532.667	14.63
533.014	14.71
533.36	14.66
533.706	14.78
534.052	14.79
534.399	14.6
534.745	14.51
535.091	14.44
535.437	14.41
535.783	14.56
536.129	14.78
536.474	14.88
536.82	14.91
537.166	14.98
537.512	15.05
537.857	14.95
538.203	14.92
538.549	14.82
538.894	14.88
539.239	15.01
539.585	15.06
539.93	15.09
540.276	15.28
540.621	15.29
540.966	15.3
541.311	15.24
541.656	15.16
542.001	15.22
542.346	15.23
542.691	14.99
543.036	14.77
543.381	14.77
543.726	14.87
544.071	15.04
544.415	15.18
544.76	15.22
545.105	15.19
545.449	15.23
545.794	15.41
546.138	15.48
546.483	15.55
546.827	15.68
547.171	15.5
547.516	15.66
547.86	15.63
548.204	15.54
548.548	15.62
548.892	15.62
549.236	15.72
549.58	15.69
549.924	15.95
550.268	15.87
550.612	16.03
550.956	16.08
551.3	15.91
551.643	16.14
551.987	16.22
552.33	16.04
552.674	16.04
553.017	16.15
553.361	15.94
553.704	16.44
554.048	16.2
554.391	16.3
554.734	16.14
555.077	16.24
555.42	16.12
555.764	16.26
556.107	16.27
556.45	16.16
556.793	16.46
557.135	16.4
557.478	16.5
557.821	16.43
558.164	16.38
558.507	16.58
558.849	16.49
559.192	16.72
559.534	16.71
559.877	16.59
560.219	16.72
560.562	17.03
560.904	16.9
561.246	16.74
561.589	17
561.931	16.73
562.273	16.7
562.615	16.86
562.957	16.76
563.299	16.64
563.641	16.67
563.983	16.82
564.325	16.64
564.667	16.83
565.008	17.01
565.35	16.94
565.692	16.75
566.033	16.99
566.375	17.2
566.716	17
567.058	17.09
567.399	16.88
567.741	16.96
568.082	16.85
568.423	16.87
568.764	16.92
569.105	17.07
569.447	17.12
569.788	17.02
570.129	17.17
570.47	17.23
570.811	17.41
571.151	17.19
571.492	17.21
571.833	17.35
572.174	17.23
572.514	17.46
572.855	17.32
573.195	17.23
573.536	17.36
573.876	17.17
574.217	17.05
574.557	17.28
574.898	17.64
575.238	17.43
575.578	17.39
575.918	17.81
576.258	17.56
576.598	17.58
576.938	17.6
577.278	17.44
577.618	17.42
577.958	17.5
578.298	17.61
578.638	17.65
578.977	17.81
579.317	17.74
579.657	17.72
579.996	17.84
580.336	18.03
580.675	18.1
581.014	18.09
581.354	18.01
581.693	18.11
582.032	17.7
582.372	17.97
582.711	18.17
583.05	18.14
583.389	18.3
583.728	18.1
584.067	18.21
584.406	18.04
584.745	18.28
585.083	18.15
585.422	18.19
585.761	18.4
586.1	18.11
586.438	18.15
586.777	18.13
587.115	18.27
587.454	18.3
587.792	18.07
588.13	18.39
588.469	18.34
588.807	18.46
589.145	18.08
589.483	18.32
589.821	18.27
590.159	18.6
590.497	18.75
590.835	19.03
591.173	18.54
591.511	19
591.849	18.56
592.187	18.69
592.524	18.62
592.862	18.44
593.2	18.65
593.537	18.8
593.875	18.62
594.212	18.45
594.55	18.61
594.887	18.77
595.224	18.34
595.561	18.88
595.899	18.71
596.236	18.78
596.573	18.89
596.91	18.71
597.247	18.79
597.584	19.17
597.921	18.84
598.258	18.64
598.594	18.74
598.931	18.63
599.268	18.87
599.604	18.76
599.941	19.12
600.277	18.87
600.614	18.98
600.95	19.12
601.287	19.49
601.623	19.27
601.959	18.79
602.296	19.17
602.632	19.03
602.968	19.36
603.304	19.1
603.64	19.27
603.976	19.48
604.312	18.98
604.648	19.1
604.984	19.09
605.319	19.13
605.655	19.34
605.991	19.21
606.326	19.19
606.662	19.02
606.998	18.86
607.333	19.25
607.668	19.22
608.004	19.69
608.339	19.72
608.674	19.49
609.01	19.34
609.345	19.47
609.68	19.66
610.015	19.55
610.35	19.43
610.685	19.53
611.02	19.59
611.355	19.59
611.689	19.35
612.024	19.34
612.359	19.66
612.694	19.54
613.028	19.71
613.363	19.88
613.697	19.96
614.032	19.89
614.366	19.94
614.7	20.01
615.035	19.77
615.369	19.75
615.703	19.97
616.037	19.95
616.371	19.81
616.705	20.51
617.039	20.1
617.373	19.98
617.707	20.22
618.041	19.74
618.375	20.23
618.709	20.19
619.042	19.88
619.376	20.47
619.71	20.42
620.043	20.37
620.377	20.38
620.71	20.54
621.043	20.38
621.377	20.24
621.71	20.66
622.043	20.11
622.376	20.32
622.709	20.34
623.043	20.73
623.376	20.68
623.709	20.12
624.041	20.46
624.374	20.51
624.707	20.38
625.04	21
625.373	20.22
625.705	20.42
626.038	20.18
626.37	20.6
626.703	20.68
627.035	20.9
627.368	21.15
627.7	20.34
628.032	20.56
628.365	20.69
628.697	20.55
629.029	20.31
629.361	20.78
629.693	20.25
630.025	20.55
630.357	20.76
630.689	20.96
631.021	20.88
631.353	20.97
631.684	20.75
632.016	20.76
632.348	21.4
632.679	21.16
633.011	21.43
633.342	21.19
633.674	20.87
634.005	21.45
634.336	21.48
634.668	21.73
634.999	20.96
635.33	21.22
635.661	20.77
635.992	20.89
636.323	21.07
636.654	21.19
636.985	20.98
637.316	21.05
637.647	20.76
637.977	21.58
638.308	21.16
638.639	21.05
638.969	21.37
639.3	21.03
639.63	21.18
639.961	21.01
640.291	21.41
640.622	21.85
640.952	21.23
641.282	21.51
641.612	21.41
641.943	21.39
642.273	21.22
642.603	21.97
642.933	21.37
643.263	21.64
643.592	21.51
643.922	21.08
644.252	21.28
644.582	21.62
644.911	21.69
645.241	21.61
645.571	21.65
645.9	21.17
646.23	21.62
646.559	22.21
646.888	21.43
647.218	21.54
647.547	22.31
647.876	21.5
648.205	21.86
648.534	21.42
648.863	21.33
649.192	22.2
649.521	21.67
649.85	21.45
650.179	22.31
650.508	21.65
650.837	21.77
651.165	21.59
651.494	21.7
651.822	21.99
652.151	21.91
652.479	21.91
652.808	21.55
653.136	22.07
653.465	21.77
653.793	22.1
654.121	21.8
654.449	21.55
654.777	22.2
655.105	21.87
655.433	21.61
655.761	22.37
656.089	22.47
656.417	22.46
656.745	21.71
657.073	22.38
657.4	22.78
657.728	22.61
658.056	22.17
658.383	22.27
658.711	22.55
659.038	22.67
659.365	22.35
659.693	22.39
660.02	22.09
660.347	22.31
660.674	21.83
661.001	22.04
661.329	21.93
661.656	22.28
661.982	22.39
662.309	22.51
662.636	22
662.963	23.03
663.29	22.78
663.616	23.1
663.943	22.26
664.27	23.07
664.596	23.45
664.923	22.82
665.249	22.78
665.576	22.51
665.902	23.07
666.228	22.97
666.554	22.91
666.881	23.17
667.207	23.14
667.533	22.44
667.859	22.29
668.185	22.77
668.511	22.38
668.837	22.8
669.162	23.28
669.488	22.49
669.814	23.22
670.139	22.46
670.465	23.43
670.791	23.15
671.116	23.39
671.442	23.14
671.767	23.33
672.092	23.75
672.418	23.3
672.743	22.82
673.068	23.26
673.393	23.25
673.718	23.75
674.043	22.71
674.368	22.88
674.693	23.42
675.018	23.47
675.343	23.74
675.667	23.26
