Data from 0199_forehead_Reflection__3__353.txt Node

Date: Fri Dec 15 19:47:27 CST 2023
User: ToomeyLab
Spectrometer: FLMS14357
Trigger mode: 0
Integration Time (sec): 1.000000E-2
Scans to average: 100
Electric dark correction enabled: true
Nonlinearity correction enabled: false
Boxcar width: 0
XAxis mode: Wavelengths
Number of Pixels in Spectrum: 2048
>>>>>Begin Spectral Data<<<<<
189.047	-627.22
189.435	-627.22
189.823	-627.22
190.211	-5.5
190.599	-45.94
190.987	376.22
191.375	-85.73
191.763	74.35
192.151	75.01
192.538	154.56
192.926	-376.22
193.314	124.48
193.702	62.12
194.089	-1383.05
194.477	-75.5
194.864	-258.06
195.252	152.98
195.639	168.45
196.027	150.9
196.414	76.01
196.801	-64.68
197.189	108.54
197.576	261.91
197.963	-98.3
198.351	-116.14
198.738	-65.2
199.125	23.45
199.512	-7.63
199.899	-20.77
200.286	33.52
200.673	2.56
201.06	23.71
201.447	-41.24
201.833	19.55
202.22	34.15
202.607	3.97
202.994	5.62
203.38	2.9
203.767	17.44
204.154	-22.94
204.54	29.13
204.927	-65.93
205.313	-26.97
205.699	30.52
206.086	13.51
206.472	17.54
206.858	-8.15
207.245	-57.21
207.631	18.82
208.017	-5.37
208.403	-26.36
208.789	-10.62
209.175	13.36
209.561	-14.23
209.947	7.33
210.333	-127.5
210.719	-7.54
211.105	8.9
211.491	-39.39
211.876	1.67
212.262	31.5
212.648	-4.08
213.034	-2.4
213.419	-38.13
213.805	-69.6
214.19	-50.63
214.576	0.35
214.961	10.18
215.346	-93.72
215.732	-3.8
216.117	-19.08
216.502	-4.33
216.888	-9.26
217.273	13.97
217.658	0.8
218.043	-9.6
218.428	-67.57
218.813	-50.15
219.198	-44.05
219.583	11.61
219.968	-40.37
220.353	-25.11
220.738	-12.76
221.122	6.88
221.507	-70.46
221.892	-20.36
222.276	-24.8
222.661	-29.42
223.046	7.83
223.43	-0.24
223.815	0.38
224.199	-12.33
224.583	3.16
224.968	-4.78
225.352	9.33
225.736	-15.89
226.121	-10.35
226.505	3.49
226.889	5.95
227.273	-2.67
227.657	4.16
228.041	0.52
228.425	1.71
228.809	0.06
229.193	2.68
229.577	-1.01
229.961	1.32
230.344	1.47
230.728	1.25
231.112	2.05
231.495	2.62
231.879	0.75
232.263	2.82
232.646	1.24
233.03	1.27
233.413	-0.8
233.797	1.91
234.18	1.33
234.563	0.67
234.946	-0.42
235.33	3.6
235.713	2.3
236.096	1.41
236.479	2.63
236.862	-0.55
237.245	2.41
237.628	2.17
238.011	0.59
238.394	1.68
238.777	1.61
239.16	0.97
239.543	1.55
239.925	2.04
240.308	1.84
240.691	1.95
241.073	1.66
241.456	2.58
241.838	0.64
242.221	0.86
242.603	2.59
242.986	2.51
243.368	2.83
243.75	2.98
244.133	2.55
244.515	3.01
244.897	2.1
245.279	2.53
245.661	1.72
246.043	1.67
246.425	0.75
246.807	2.8
247.189	2.71
247.571	2.83
247.953	2.6
248.335	2.8
248.717	2.92
249.098	2.6
249.48	2.71
249.862	2.55
250.243	2.56
250.625	2.76
251.006	2.02
251.388	1
251.769	1.9
252.151	3.01
252.532	2.75
252.913	2.64
253.295	2.49
253.676	2.45
254.057	2.69
254.438	2.68
254.819	2.13
255.2	1.96
255.581	1.64
255.962	1.64
256.343	3.67
256.724	2.26
257.105	2.28
257.486	2.64
257.867	2.09
258.247	2.09
258.628	1.9
259.009	2.06
259.389	2.35
259.77	1.98
260.15	1.47
260.531	1.69
260.911	2.78
261.292	2.45
261.672	2.79
262.052	2.76
262.432	2.76
262.813	2.89
263.193	2.39
263.573	2.57
263.953	2.65
264.333	2.77
264.713	2.55
265.093	1.84
265.473	2.69
265.853	0.81
266.233	2.69
266.612	1.57
266.992	1.26
267.372	2.89
267.752	2.12
268.131	2.36
268.511	3.1
268.89	2.62
269.27	3
269.649	2.17
270.029	2.07
270.408	3.74
270.787	2.86
271.167	2.51
271.546	2.95
271.925	2.43
272.304	2.11
272.683	2.97
273.062	2.56
273.441	2.63
273.82	2
274.199	2.5
274.578	2.78
274.957	2.5
275.336	2.49
275.715	2.58
276.093	2.34
276.472	2.2
276.851	2.42
277.229	1.8
277.608	1.76
277.986	2.96
278.365	2.47
278.743	1.59
279.122	2.47
279.5	2.76
279.878	2.13
280.257	2.95
280.635	2.34
281.013	1.64
281.391	2.97
281.769	2.84
282.147	2.32
282.525	2.75
282.903	2.21
283.281	2.92
283.659	3.01
284.037	2.86
284.415	2.88
284.792	3.11
285.17	2.39
285.548	2.71
285.925	2.67
286.303	3.28
286.68	2.58
287.058	2.51
287.435	2.55
287.813	2.58
288.19	2.84
288.567	2.48
288.945	2.86
289.322	2.46
289.699	1.93
290.076	2.64
290.453	2.92
290.83	2.62
291.207	2.49
291.584	2.65
291.961	3
292.338	2.98
292.715	2.9
293.092	2.68
293.469	2.69
293.845	3.63
294.222	2.12
294.599	2.93
294.975	2.52
295.352	2.68
295.728	2.38
296.105	2.77
296.481	3.1
296.858	3.43
297.234	2.83
297.61	2.89
297.986	3.34
298.363	3
298.739	3.08
299.115	2.91
299.491	3.13
299.867	3.24
300.243	3.49
300.619	2.9
300.995	3.49
301.371	3.69
301.746	2.94
302.122	3.55
302.498	3.31
302.874	3.34
303.249	3.48
303.625	3.22
304	3.95
304.376	3.68
304.751	2.99
305.127	4.24
305.502	3.03
305.878	2.98
306.253	3.63
306.628	4.01
307.003	3.7
307.378	3.51
307.754	4.08
308.129	2.86
308.504	3.91
308.879	3.54
309.254	4.65
309.629	4.39
310.003	3.85
310.378	4.42
310.753	4.32
311.128	4.09
311.502	3.83
311.877	4.54
312.252	3.46
312.626	3.84
313.001	4.03
313.375	4.42
313.75	3.93
314.124	4.37
314.498	4.27
314.873	3.95
315.247	3.62
315.621	4.69
315.995	4.02
316.369	3.51
316.743	3.98
317.117	4.47
317.491	4.24
317.865	4.17
318.239	4.37
318.613	4.12
318.987	4.31
319.361	4.12
319.734	4.88
320.108	4.85
320.482	3.88
320.855	4.03
321.229	4.6
321.602	4.33
321.976	4.7
322.349	4.06
322.723	5.28
323.096	4.64
323.469	4.48
323.843	4.48
324.216	4.61
324.589	4.25
324.962	4.87
325.335	4.54
325.708	4.88
326.081	4.75
326.454	4.69
326.827	5.18
327.2	4.97
327.573	5.47
327.945	5.31
328.318	4.72
328.691	4.7
329.063	5.39
329.436	5.1
329.809	5.46
330.181	4.95
330.553	5.02
330.926	5.28
331.298	5.33
331.671	4.93
332.043	5.39
332.415	4.98
332.787	5.66
333.159	5.65
333.532	5.24
333.904	5.19
334.276	5.2
334.648	5.45
335.02	5.04
335.391	5.25
335.763	5.27
336.135	5.59
336.507	5.39
336.879	5.43
337.25	5.12
337.622	5.41
337.993	5.46
338.365	5.81
338.736	5.69
339.108	5.45
339.479	5.65
339.851	5.72
340.222	5.21
340.593	5.87
340.964	5.5
341.336	6.14
341.707	5.31
342.078	6.2
342.449	6.02
342.82	5.32
343.191	5.6
343.562	5.86
343.933	5.72
344.303	5.8
344.674	5.94
345.045	5.74
345.416	6.31
345.786	5.53
346.157	5.91
346.527	5.59
346.898	5.63
347.268	6.32
347.639	6.12
348.009	6.11
348.38	5.84
348.75	6.58
349.12	5.87
349.49	6.68
349.861	6.22
350.231	6.25
350.601	6.68
350.971	6.39
351.341	5.63
351.711	5.96
352.081	6.56
352.45	6.26
352.82	6.46
353.19	6.76
353.56	6.38
353.929	6.42
354.299	6.39
354.669	6.21
355.038	6.53
355.408	6.26
355.777	6.75
356.147	6.18
356.516	6.42
356.885	6.5
357.254	6.57
357.624	6.84
357.993	6.78
358.362	6.27
358.731	6.41
359.1	6.34
359.469	6.57
359.838	6.55
360.207	6.45
360.576	6.87
360.945	6.86
361.314	7.04
361.682	6.7
362.051	6.5
362.42	6.87
362.788	6.66
363.157	7.27
363.525	7.19
363.894	7.02
364.262	6.77
364.631	7.2
364.999	7.11
365.367	6.8
365.735	7.58
366.104	7.33
366.472	7.54
366.84	6.84
367.208	7.2
367.576	7.17
367.944	7.43
368.312	6.97
368.68	6.88
369.048	7.15
369.416	7.24
369.783	7.27
370.151	7.41
370.519	7.43
370.886	7.31
371.254	7.17
371.621	7.35
371.989	7.73
372.356	7.26
372.724	7.31
373.091	7.26
373.458	7.5
373.826	7.6
374.193	7.42
374.56	7.28
374.927	7.46
375.294	7.3
375.661	7.45
376.028	7.36
376.395	7.64
376.762	7.75
377.129	7.71
377.496	7.56
377.863	7.71
378.229	7.32
378.596	8.07
378.963	7.76
379.329	7.74
379.696	8.03
380.062	7.82
380.429	8.08
380.795	7.83
381.161	7.86
381.528	8.29
381.894	7.73
382.26	7.84
382.626	8.21
382.993	7.49
383.359	8.17
383.725	7.56
384.091	8.16
384.457	8.13
384.823	8.09
385.188	8.23
385.554	8.05
385.92	8.31
386.286	8.33
386.651	8.15
387.017	8.39
387.383	8.42
387.748	8.12
388.114	8.62
388.479	8.01
388.845	8.8
389.21	8.69
389.575	8.4
389.94	8.51
390.306	8.57
390.671	8.65
391.036	8.14
391.401	8.22
391.766	8.49
392.131	8.48
392.496	8.58
392.861	8.55
393.226	8.58
393.591	8.57
393.956	8.63
394.32	8.66
394.685	8.6
395.05	8.52
395.414	8.54
395.779	8.49
396.143	8.62
396.508	8.51
396.872	8.61
397.236	8.97
397.601	8.64
397.965	8.64
398.329	8.69
398.694	9.12
399.058	8.85
399.422	8.68
399.786	9.17
400.15	8.86
400.514	8.88
400.878	9.1
401.242	9.24
401.605	9.27
401.969	9.4
402.333	9.19
402.697	8.82
403.06	8.94
403.424	9.21
403.787	8.73
404.151	9.39
404.514	9.45
404.878	9.2
405.241	9.19
405.604	9.27
405.968	9.18
406.331	9.15
406.694	9.42
407.057	9.37
407.42	9.43
407.783	9.09
408.146	9.55
408.509	9.34
408.872	9.15
409.235	9.32
409.598	10.09
409.961	9.28
410.323	9.53
410.686	9.76
411.049	9.43
411.411	9.28
411.774	9.37
412.136	9.72
412.499	9.77
412.861	9.74
413.223	9.45
413.586	9.72
413.948	9.83
414.31	9.73
414.672	9.77
415.035	9.62
415.397	10.15
415.759	9.57
416.121	9.92
416.483	9.58
416.845	9.8
417.206	9.84
417.568	9.94
417.93	9.71
418.292	9.79
418.653	9.96
419.015	9.77
419.377	9.84
419.738	9.96
420.1	9.89
420.461	9.96
420.822	9.99
421.184	9.89
421.545	10.03
421.906	9.89
422.267	9.91
422.629	9.78
422.99	9.98
423.351	9.89
423.712	10
424.073	9.99
424.434	10.06
424.795	9.96
425.155	10.1
425.516	10.03
425.877	10.16
426.238	10.08
426.598	10.17
426.959	10.26
427.32	10.16
427.68	10.29
428.041	10.29
428.401	10.41
428.761	10.34
429.122	10.47
429.482	10.29
429.842	10.74
430.202	10.49
430.563	10.55
430.923	10.47
431.283	10.54
431.643	10.61
432.003	10.7
432.363	10.79
432.722	10.59
433.082	10.91
433.442	10.57
433.802	10.68
434.161	10.63
434.521	10.82
434.881	10.84
435.24	10.69
435.6	10.79
435.959	10.8
436.319	10.88
436.678	10.91
437.037	10.73
437.396	10.86
437.756	11.03
438.115	10.97
438.474	11.06
438.833	10.81
439.192	11.02
439.551	11.07
439.91	11.08
440.269	10.93
440.628	10.88
440.987	10.98
441.345	10.92
441.704	11.14
442.063	11.03
442.421	11.11
442.78	10.95
443.138	11.07
443.497	11.21
443.855	11.2
444.214	11.34
444.572	11.3
444.93	11.3
445.288	11.18
445.647	11.28
446.005	11.27
446.363	11.44
446.721	11.37
447.079	11.21
447.437	11.4
447.795	11.16
448.153	11.2
448.51	11.29
448.868	11.35
449.226	11.38
449.584	11.38
449.941	11.55
450.299	11.5
450.656	11.52
451.014	11.44
451.371	11.61
451.729	11.54
452.086	11.99
452.443	11.67
452.801	11.78
453.158	11.88
453.515	11.71
453.872	11.83
454.229	11.69
454.586	11.79
454.943	11.87
455.3	11.89
455.657	12.04
456.014	11.71
456.371	11.73
456.727	12.11
457.084	12.14
457.441	11.96
457.797	11.97
458.154	12.16
458.51	12.25
458.867	12.2
459.223	12.4
459.58	12.15
459.936	12.1
460.292	12.1
460.648	12.25
461.005	12.06
461.361	12.24
461.717	12.03
462.073	11.92
462.429	12.14
462.785	12.14
463.141	12.15
463.496	12.24
463.852	12.52
464.208	12.32
464.564	12.5
464.919	12.3
465.275	12.61
465.631	12.63
465.986	12.62
466.342	12.42
466.697	12.19
467.052	12.66
467.408	12.79
467.763	12.78
468.118	12.7
468.473	12.65
468.829	12.65
469.184	12.69
469.539	12.71
469.894	12.79
470.249	12.72
470.603	13.04
470.958	12.86
471.313	12.92
471.668	13.03
472.023	13
472.377	12.96
472.732	12.89
473.086	12.92
473.441	12.86
473.795	13.27
474.15	13.15
474.504	13.12
474.859	13.16
475.213	12.94
475.567	13.15
475.921	13.08
476.275	13.3
476.63	13.24
476.984	13.31
477.338	13.21
477.692	13.1
478.045	13.12
478.399	13.39
478.753	13.29
479.107	13.13
479.461	13.34
479.814	13.37
480.168	13.37
480.521	13.54
480.875	13.32
481.228	13.37
481.582	13.51
481.935	13.61
482.289	13.49
482.642	13.49
482.995	13.45
483.348	13.45
483.701	13.43
484.055	13.55
484.408	13.47
484.761	13.29
485.114	13.19
485.466	12.95
485.819	12.88
486.172	12.98
486.525	13.05
486.878	13.22
487.23	13.26
487.583	13.46
487.936	13.49
488.288	13.51
488.641	13.51
488.993	13.38
489.345	13.28
489.698	13.29
490.05	13.31
490.402	13.41
490.754	13.53
491.107	13.66
491.459	13.74
491.811	13.84
492.163	13.93
492.515	13.95
492.866	13.95
493.218	13.76
493.57	13.69
493.922	13.66
494.274	13.76
494.625	13.98
494.977	14.04
495.328	14.12
495.68	14.24
496.031	14.47
496.383	14.36
496.734	14.49
497.086	14.46
497.437	14.4
497.788	14.47
498.139	14.35
498.49	14.61
498.842	14.41
499.193	14.59
499.544	14.54
499.894	14.61
500.245	14.59
500.596	14.71
500.947	14.69
501.298	14.54
501.648	14.76
501.999	14.9
502.35	14.85
502.7	14.81
503.051	14.87
503.401	14.96
503.752	15.11
504.102	14.97
504.452	15.11
504.803	14.87
505.153	15.12
505.503	15.01
505.853	15.01
506.203	14.96
506.553	15.14
506.903	15.26
507.253	15.25
507.603	15.14
507.953	15.44
508.303	15.42
508.652	15.07
509.002	15.22
509.352	15.47
509.701	15.24
510.051	15.28
510.4	15.35
510.75	15.45
511.099	15.4
511.449	15.4
511.798	15.38
512.147	15.41
512.496	15.47
512.846	15.46
513.195	15.6
513.544	15.54
513.893	15.63
514.242	15.52
514.591	15.74
514.939	15.65
515.288	15.66
515.637	15.74
515.986	15.89
516.334	15.95
516.683	15.91
517.032	15.9
517.38	15.79
517.729	15.84
518.077	15.81
518.426	15.89
518.774	15.95
519.122	15.89
519.47	15.82
519.819	15.84
520.167	15.86
520.515	15.84
520.863	15.87
521.211	15.94
521.559	15.91
521.907	16.06
522.255	16.01
522.602	16.16
522.95	16.18
523.298	16.27
523.645	16.22
523.993	16.2
524.341	16.38
524.688	16.53
525.036	16.45
525.383	16.33
525.73	16.66
526.078	16.42
526.425	16.57
526.772	16.5
527.119	16.31
527.466	16.32
527.814	16.36
528.161	16.29
528.508	16.51
528.854	16.44
529.201	16.39
529.548	16.32
529.895	16.17
530.242	15.98
530.588	15.93
530.935	15.98
531.282	16.1
531.628	16.2
531.975	16.35
532.321	16.44
532.667	16.65
533.014	16.6
533.36	16.73
533.706	16.8
534.052	16.82
534.399	16.73
534.745	16.66
535.091	16.64
535.437	16.63
535.783	16.69
536.129	16.82
536.474	16.92
536.82	17
537.166	17.11
537.512	17.2
537.857	17.14
538.203	17.21
538.549	17.13
538.894	16.96
539.239	17.24
539.585	17.17
539.93	17.24
540.276	17.38
540.621	17.54
540.966	17.56
541.311	17.57
541.656	17.33
542.001	17.42
542.346	17.5
542.691	17.3
543.036	17.18
543.381	17.06
543.726	17.1
544.071	17.34
544.415	17.39
544.76	17.42
545.105	17.35
545.449	17.6
545.794	17.58
546.138	17.71
546.483	17.94
546.827	17.94
547.171	17.88
547.516	18.19
547.86	17.92
548.204	17.95
548.548	17.96
548.892	17.98
549.236	18
549.58	18.13
549.924	18.22
550.268	18.42
550.612	18.35
550.956	18.44
551.3	18.28
551.643	18.63
551.987	18.5
552.33	18.51
552.674	18.67
553.017	18.67
553.361	18.52
553.704	18.72
554.048	18.75
554.391	18.57
554.734	18.65
555.077	18.59
555.42	18.59
555.764	18.78
556.107	18.66
556.45	18.63
556.793	18.87
557.135	19.01
557.478	19.24
557.821	18.97
558.164	18.84
558.507	18.89
558.849	18.98
559.192	19.24
559.534	19.28
559.877	19.46
560.219	19.24
560.562	19.39
560.904	19.22
561.246	19.26
561.589	19.39
561.931	19.39
562.273	19.17
562.615	19.42
562.957	19.24
563.299	19.02
563.641	19.27
563.983	19.41
564.325	19.41
564.667	19.41
565.008	19.5
565.35	19.72
565.692	19.3
566.033	19.58
566.375	19.69
566.716	19.89
567.058	19.57
567.399	19.77
567.741	19.5
568.082	19.45
568.423	19.7
568.764	19.56
569.105	19.63
569.447	19.82
569.788	19.76
570.129	19.92
570.47	19.68
570.811	19.85
571.151	19.91
571.492	19.92
571.833	20.03
572.174	20.02
572.514	20.1
572.855	19.81
573.195	20.05
573.536	20.28
573.876	20
574.217	20.17
574.557	20.31
574.898	20.11
575.238	20.23
575.578	20.36
575.918	20.29
576.258	20.46
576.598	20.45
576.938	20.2
577.278	20.24
577.618	20.28
577.958	20.37
578.298	20.55
578.638	20.34
578.977	20.54
579.317	20.6
579.657	20.72
579.996	20.72
580.336	20.68
580.675	20.83
581.014	20.84
581.354	20.77
581.693	21.09
582.032	20.86
582.372	20.78
582.711	20.95
583.05	20.76
583.389	20.96
583.728	20.81
584.067	21.33
584.406	21.11
584.745	21.24
585.083	21.25
585.422	21.26
585.761	21.18
586.1	21.14
586.438	21.18
586.777	21.31
587.115	21.41
587.454	21.27
587.792	21.03
588.13	21.5
588.469	21.17
588.807	21.29
589.145	21.34
589.483	21.36
589.821	21.74
590.159	21.36
590.497	21.66
590.835	21.52
591.173	21.77
591.511	21.65
591.849	21.65
592.187	21.76
592.524	21.65
592.862	21.76
593.2	21.72
593.537	21.63
593.875	21.88
594.212	21.62
594.55	21.75
594.887	22.15
595.224	21.48
595.561	22.05
595.899	21.88
596.236	21.56
596.573	22.04
596.91	21.75
597.247	21.82
597.584	22.02
597.921	21.8
598.258	21.97
598.594	21.8
598.931	21.72
599.268	21.76
599.604	21.76
599.941	22.02
600.277	21.94
600.614	22.06
600.95	22
601.287	22.04
601.623	22.18
601.959	22.27
602.296	22.19
602.632	22.2
602.968	22.54
603.304	22.63
603.64	22.68
603.976	22.65
604.312	22.31
604.648	22.19
604.984	22.75
605.319	22.63
605.655	22.56
605.991	22.34
606.326	22.37
606.662	22.43
606.998	22.23
607.333	22.2
607.668	22.49
608.004	22.95
608.339	22.84
608.674	22.85
609.01	22.79
609.345	22.61
609.68	23.08
610.015	22.81
610.35	22.76
610.685	22.79
611.02	22.75
611.355	22.97
611.689	22.71
612.024	22.85
612.359	22.9
612.694	22.8
613.028	22.83
613.363	22.99
613.697	23.65
614.032	23.22
614.366	23.31
614.7	23.37
615.035	23.15
615.369	23.14
615.703	23.27
616.037	23.7
616.371	23.04
616.705	23.09
617.039	23.46
617.373	23.25
617.707	23.32
618.041	23.09
618.375	23.37
618.709	23.39
619.042	23.05
619.376	23.44
619.71	23.75
620.043	23.26
620.377	23.67
620.71	23.98
621.043	23.76
621.377	23.62
621.71	24.08
622.043	23.45
622.376	23.67
622.709	23.94
623.043	24.14
623.376	24.32
623.709	23.62
624.041	24.19
624.374	24
624.707	23.73
625.04	23.99
625.373	23.53
625.705	23.99
626.038	23.73
626.37	23.84
626.703	23.96
627.035	24.05
627.368	24.38
627.7	24.29
628.032	24.04
628.365	24.33
628.697	24.07
629.029	24.01
629.361	24.4
629.693	24.53
630.025	24.07
630.357	24.32
630.689	24.35
631.021	24.22
631.353	24.39
631.684	24.44
632.016	24.41
632.348	24.46
632.679	24.41
633.011	24.72
633.342	24.91
633.674	24.72
634.005	24.5
634.336	24.13
634.668	24.77
634.999	24.71
635.33	24.44
635.661	24.37
635.992	24.5
636.323	25.14
636.654	25.09
636.985	24.63
637.316	24.73
637.647	24.58
637.977	25.03
638.308	24.87
638.639	24.36
638.969	24.9
639.3	24.71
639.63	24.5
639.961	24.86
640.291	24.86
640.622	25.38
640.952	24.92
641.282	25.31
641.612	25.02
641.943	25.08
642.273	25.12
642.603	25.54
642.933	25.14
643.263	25.05
643.592	25.21
643.922	25.16
644.252	25.58
644.582	25.47
644.911	24.51
645.241	24.88
645.571	25.79
645.9	24.99
646.23	24.96
646.559	25.53
646.888	25.25
647.218	25.22
647.547	25.61
647.876	25.7
648.205	25.34
648.534	25.49
648.863	25.05
649.192	25.49
649.521	25.12
649.85	25.33
650.179	25.97
650.508	25.64
650.837	25.39
651.165	25.8
651.494	25.99
651.822	25.67
652.151	26.05
652.479	25.97
652.808	25.34
653.136	25.69
653.465	25.5
653.793	25.66
654.121	25.29
654.449	25.85
654.777	26.21
655.105	25.56
655.433	25.92
655.761	25.72
656.089	26
656.417	26.15
656.745	25.65
657.073	26.27
657.4	26.72
657.728	25.85
658.056	25.47
658.383	26.47
658.711	26.02
659.038	26.42
659.365	26.38
659.693	26.41
660.02	25.77
660.347	25.99
660.674	26.56
661.001	26.43
661.329	25.81
661.656	26.38
661.982	26.36
662.309	26.33
662.636	26.32
662.963	26.79
663.29	26.49
663.616	26.83
663.943	26.53
664.27	26.06
664.596	26.53
664.923	26.72
665.249	26.74
665.576	26.24
665.902	26.88
666.228	26.77
666.554	26.81
666.881	26.63
667.207	26.93
667.533	26.67
667.859	26.86
668.185	26.66
668.511	26.41
668.837	25.95
669.162	26.94
669.488	26.37
669.814	27.63
670.139	26.95
670.465	27.23
670.791	26.94
671.116	27.42
671.442	26.76
671.767	27.31
672.092	27.57
672.418	26.82
672.743	27.25
673.068	27.09
673.393	27.24
673.718	27.15
674.043	27.14
674.368	26.67
674.693	27.77
