Data from 0199_chest_Reflection__2__342.txt Node

Date: Fri Dec 15 19:44:39 CST 2023
User: ToomeyLab
Spectrometer: FLMS14357
Trigger mode: 0
Integration Time (sec): 1.000000E-2
Scans to average: 100
Electric dark correction enabled: true
Nonlinearity correction enabled: false
Boxcar width: 0
XAxis mode: Wavelengths
Number of Pixels in Spectrum: 2048
>>>>>Begin Spectral Data<<<<<
189.047	-157.96
189.435	-157.96
189.823	-157.96
190.211	3.94
190.599	-57.36
190.987	336.46
191.375	32.53
191.763	-37.9
192.151	97.23
192.538	114.13
192.926	-331.48
193.314	59.61
193.702	-7.15
194.089	238.98
194.477	21.13
194.864	-580.49
195.252	220.75
195.639	153.14
196.027	98.85
196.414	22.94
196.801	-215.44
197.189	166.08
197.576	489.09
197.963	-77.73
198.351	-126.18
198.738	-18.71
199.125	39.96
199.512	-17.36
199.899	-24.46
200.286	48.55
200.673	12.82
201.06	-45.01
201.447	-27.93
201.833	33.86
202.22	19.3
202.607	17.5
202.994	-6.27
203.38	17.94
203.767	32.85
204.154	20.38
204.54	40.01
204.927	-33.99
205.313	-38.76
205.699	46.36
206.086	47.5
206.472	41.61
206.858	-6.55
207.245	-62.7
207.631	9.95
208.017	-2.62
208.403	-61.96
208.789	-17.54
209.175	1.01
209.561	58.78
209.947	-44.74
210.333	-8.8
210.719	8.74
211.105	9.53
211.491	-18.68
211.876	27.17
212.262	25.88
212.648	-17.52
213.034	31.88
213.419	-5.15
213.805	-2.55
214.19	-40.61
214.576	-5.2
214.961	-36.64
215.346	-83.86
215.732	-7.07
216.117	-18
216.502	-25.83
216.888	-22.75
217.273	22.09
217.658	-27.46
218.043	6.52
218.428	-66.14
218.813	-19.88
219.198	-25.96
219.583	-12.53
219.968	20.8
220.353	0.65
220.738	7.29
221.122	7.39
221.507	-36.78
221.892	-41.45
222.276	-14.81
222.661	1.69
223.046	18.45
223.43	2.54
223.815	9.13
224.199	8.79
224.583	1.85
224.968	-13.06
225.352	12
225.736	0.19
226.121	-5.92
226.505	3.69
226.889	9.07
227.273	-2.06
227.657	9.22
228.041	-2.59
228.425	-2.37
228.809	9.66
229.193	1.29
229.577	2.06
229.961	3.81
230.344	3.9
230.728	3.87
231.112	4.83
231.495	4.69
231.879	2.53
232.263	5.12
232.646	6.26
233.03	4.27
233.413	2.44
233.797	3.58
234.18	3.05
234.563	7.93
234.946	4.11
235.33	6.82
235.713	4.13
236.096	4.99
236.479	4.82
236.862	3.09
237.245	3.91
237.628	2.06
238.011	3.41
238.394	6.01
238.777	3.98
239.16	1.74
239.543	5.6
239.925	4.14
240.308	4.22
240.691	6.15
241.073	5.64
241.456	2.55
241.838	4.39
242.221	3.1
242.603	3.47
242.986	4.11
243.368	4.09
243.75	4.61
244.133	4.17
244.515	4.25
244.897	3.86
245.279	4.4
245.661	3.52
246.043	3.86
246.425	2.83
246.807	3.91
247.189	4.89
247.571	4.33
247.953	4.53
248.335	4.13
248.717	4.21
249.098	4.1
249.48	4.34
249.862	3.78
250.243	4.54
250.625	4.23
251.006	4.07
251.388	3.27
251.769	4.19
252.151	3.89
252.532	3.69
252.913	2.19
253.295	3.41
253.676	3.31
254.057	3.69
254.438	3.68
254.819	4.19
255.2	4.23
255.581	2.74
255.962	2.45
256.343	3.31
256.724	4.03
257.105	4.8
257.486	3.89
257.867	4.48
258.247	3.26
258.628	3.17
259.009	4.44
259.389	4.11
259.77	4.21
260.15	3.68
260.531	3.11
260.911	4.34
261.292	4.14
261.672	3.96
262.052	4
262.432	4.1
262.813	4.25
263.193	4.7
263.573	3.55
263.953	3.57
264.333	4.45
264.713	4.7
265.093	4.34
265.473	4.21
265.853	2.63
266.233	3.16
266.612	2.27
266.992	3.09
267.372	4.8
267.752	4.28
268.131	3.77
268.511	4.2
268.89	4.61
269.27	3.62
269.649	3.37
270.029	3.52
270.408	4.29
270.787	4
271.167	3.89
271.546	3.87
271.925	2.99
272.304	3.88
272.683	4.1
273.062	3.65
273.441	4.17
273.82	3.18
274.199	3.43
274.578	3.65
274.957	3.96
275.336	3.76
275.715	3.68
276.093	4.1
276.472	3.95
276.851	4.08
277.229	3.75
277.608	3.31
277.986	3.39
278.365	3.53
278.743	3.47
279.122	3.81
279.5	4
279.878	4.37
280.257	4.01
280.635	3.56
281.013	3.1
281.391	4.81
281.769	3.48
282.147	3.81
282.525	4.17
282.903	3.84
283.281	3.75
283.659	3.89
284.037	3.78
284.415	3.64
284.792	3.73
285.17	3
285.548	3.88
285.925	3.65
286.303	3.93
286.68	3.77
287.058	3.97
287.435	3.74
287.813	3.76
288.19	3.94
288.567	3.88
288.945	3.89
289.322	3.97
289.699	3.53
290.076	4.03
290.453	3.85
290.83	3.97
291.207	3.69
291.584	3.81
291.961	3.84
292.338	4.02
292.715	4.49
293.092	4.15
293.469	3.89
293.845	4.31
294.222	4.07
294.599	3.85
294.975	4.26
295.352	4.42
295.728	3.81
296.105	4.04
296.481	4.52
296.858	4.22
297.234	3.87
297.61	4.32
297.986	4.33
298.363	4.1
298.739	4.33
299.115	4.13
299.491	4.1
299.867	4.11
300.243	4.16
300.619	4.03
300.995	4.18
301.371	4.51
301.746	4.05
302.122	4.68
302.498	4.23
302.874	4.6
303.249	4.32
303.625	4.43
304	4.45
304.376	4.04
304.751	3.93
305.127	4.53
305.502	3.72
305.878	3.72
306.253	4.26
306.628	4.49
307.003	3.96
307.378	4.7
307.754	4.17
308.129	3.71
308.504	4.15
308.879	4.01
309.254	5.26
309.629	5.1
310.003	4.24
310.378	4.65
310.753	4.88
311.128	4.52
311.502	4.17
311.877	4.83
312.252	3.86
312.626	4.12
313.001	4.19
313.375	4.53
313.75	4.33
314.124	4.77
314.498	4.54
314.873	4.54
315.247	3.71
315.621	4.07
315.995	3.68
316.369	4.33
316.743	4.26
317.117	4.51
317.491	4.46
317.865	4.45
318.239	4.72
318.613	4.3
318.987	4.95
319.361	4.13
319.734	4.95
320.108	4.41
320.482	4.59
320.855	5.29
321.229	4.48
321.602	4.36
321.976	4.14
322.349	4.02
322.723	4.7
323.096	4.45
323.469	3.53
323.843	4.6
324.216	4.95
324.589	4.43
324.962	4.19
325.335	4.67
325.708	4.06
326.081	4.64
326.454	4.74
326.827	4.01
327.2	5.1
327.573	4.85
327.945	4.78
328.318	4.68
328.691	4.21
329.063	4.51
329.436	3.94
329.809	4.39
330.181	3.89
330.553	4.53
330.926	4.61
331.298	4.8
331.671	4.35
332.043	5.44
332.415	4.77
332.787	4.08
333.159	4.77
333.532	5.09
333.904	3.86
334.276	4.47
334.648	4.5
335.02	4.37
335.391	4.54
335.763	4.24
336.135	4.24
336.507	4.89
336.879	4.81
337.25	3.91
337.622	4.8
337.993	4.79
338.365	4.78
338.736	5.02
339.108	4.69
339.479	4.61
339.851	4.74
340.222	4.45
340.593	4.61
340.964	4.39
341.336	5.19
341.707	4.44
342.078	4.85
342.449	4.62
342.82	4.59
343.191	4.74
343.562	4.83
343.933	4.87
344.303	4.37
344.674	4.64
345.045	4.72
345.416	5.03
345.786	4.29
346.157	5.04
346.527	4.17
346.898	4.4
347.268	4.78
347.639	4.43
348.009	4.6
348.38	4.74
348.75	4.99
349.12	4.52
349.49	4.96
349.861	4.53
350.231	4.38
350.601	5.01
350.971	4.75
351.341	4.18
351.711	4.62
352.081	4.75
352.45	4.73
352.82	5
353.19	4.87
353.56	4.49
353.929	4.94
354.299	4.28
354.669	4.64
355.038	4.35
355.408	4.63
355.777	4.64
356.147	4.41
356.516	4.72
356.885	4.68
357.254	4.88
357.624	5.01
357.993	4.68
358.362	4.46
358.731	4.42
359.1	5.1
359.469	4.78
359.838	4.73
360.207	4.76
360.576	4.79
360.945	4.66
361.314	5.17
361.682	4.3
362.051	4.37
362.42	4.84
362.788	4.72
363.157	4.85
363.525	5.23
363.894	4.87
364.262	4.79
364.631	4.97
364.999	4.66
365.367	4.63
365.735	5.49
366.104	4.73
366.472	4.91
366.84	4.97
367.208	4.6
367.576	5.26
367.944	5.11
368.312	4.37
368.68	4.63
369.048	5.03
369.416	4.76
369.783	4.53
370.151	5.06
370.519	4.93
370.886	5.27
371.254	4.65
371.621	4.87
371.989	4.82
372.356	4.59
372.724	4.88
373.091	4.6
373.458	4.93
373.826	4.84
374.193	4.7
374.56	5.28
374.927	4.94
375.294	5.02
375.661	4.53
376.028	4.69
376.395	4.77
376.762	4.76
377.129	4.7
377.496	4.7
377.863	4.8
378.229	4.58
378.596	5.01
378.963	4.65
379.329	4.91
379.696	5.14
380.062	4.93
380.429	4.68
380.795	4.81
381.161	5.01
381.528	5.22
381.894	4.85
382.26	4.69
382.626	4.89
382.993	4.53
383.359	5.35
383.725	4.55
384.091	4.86
384.457	5.21
384.823	4.9
385.188	5.22
385.554	4.9
385.92	4.86
386.286	5.02
386.651	5.1
387.017	5.12
387.383	4.75
387.748	4.71
388.114	5.27
388.479	5.21
388.845	5.51
389.21	4.89
389.575	5.17
389.94	4.97
390.306	5.01
390.671	4.95
391.036	4.62
391.401	4.84
391.766	5.02
392.131	5.07
392.496	5.12
392.861	4.82
393.226	5.13
393.591	5.13
393.956	5.11
394.32	5.19
394.685	4.95
395.05	4.88
395.414	4.83
395.779	4.91
396.143	5.24
396.508	4.96
396.872	5.18
397.236	5.29
397.601	4.85
397.965	5.25
398.329	5.2
398.694	5.36
399.058	5.08
399.422	4.83
399.786	5.25
400.15	5.12
400.514	4.97
400.878	5.2
401.242	5.39
401.605	5.43
401.969	5.2
402.333	5.29
402.697	5.32
403.06	4.96
403.424	5.42
403.787	5.26
404.151	5.49
404.514	5.3
404.878	5.15
405.241	5.21
405.604	5.14
405.968	5.45
406.331	5.21
406.694	5.43
407.057	5.06
407.42	5.2
407.783	4.99
408.146	5.09
408.509	5
408.872	5.1
409.235	5.16
409.598	5.47
409.961	5.28
410.323	5.4
410.686	5.17
411.049	4.93
411.411	5.24
411.774	5.3
412.136	5
412.499	5.06
412.861	5.04
413.223	5.08
413.586	5.23
413.948	5.15
414.31	5.07
414.672	4.84
415.035	4.92
415.397	5.53
415.759	5.07
416.121	5.47
416.483	5.2
416.845	5.35
417.206	5.21
417.568	5.28
417.93	5.12
418.292	5.22
418.653	5.24
419.015	5.26
419.377	5.27
419.738	5.29
420.1	5.12
420.461	5.22
420.822	5.27
421.184	5.21
421.545	5.13
421.906	5.2
422.267	5.16
422.629	5.24
422.99	5.14
423.351	5.1
423.712	5.2
424.073	5.22
424.434	5.13
424.795	5.27
425.155	5.17
425.516	5.08
425.877	5.16
426.238	5.11
426.598	5.27
426.959	5.15
427.32	5.09
427.68	5.13
428.041	5.24
428.401	5.37
428.761	5.34
429.122	5.38
429.482	5.22
429.842	5.45
430.202	5.47
430.563	5.4
430.923	5.43
431.283	5.39
431.643	5.12
432.003	5.36
432.363	5.53
432.722	5.23
433.082	5.45
433.442	5.21
433.802	5.08
434.161	5.2
434.521	5.47
434.881	5.39
435.24	5.22
435.6	5.42
435.959	5.33
436.319	5.3
436.678	5.25
437.037	5.37
437.396	5.44
437.756	5.34
438.115	5.32
438.474	5.71
438.833	5.33
439.192	5.41
439.551	5.46
439.91	5.44
440.269	5.61
440.628	5.36
440.987	5.42
441.345	5.24
441.704	5.28
442.063	5.31
442.421	5.4
442.78	5.25
443.138	5.38
443.497	5.44
443.855	5.37
444.214	5.43
444.572	5.53
444.93	5.49
445.288	5.52
445.647	5.46
446.005	5.56
446.363	5.44
446.721	5.47
447.079	5.37
447.437	5.4
447.795	5.41
448.153	5.3
448.51	5.35
448.868	5.43
449.226	5.31
449.584	5.43
449.941	5.45
450.299	5.47
450.656	5.56
451.014	5.48
451.371	5.48
451.729	5.4
452.086	5.6
452.443	5.53
452.801	5.57
453.158	5.58
453.515	5.39
453.872	5.56
454.229	5.33
454.586	5.47
454.943	5.54
455.3	5.68
455.657	5.51
456.014	5.47
456.371	5.72
456.727	5.54
457.084	5.58
457.441	5.59
457.797	5.55
458.154	5.78
458.51	5.74
458.867	5.85
459.223	5.53
459.58	5.6
459.936	5.64
460.292	5.66
460.648	5.6
461.005	5.48
461.361	5.62
461.717	5.6
462.073	5.49
462.429	5.63
462.785	5.44
463.141	5.61
463.496	5.67
463.852	5.77
464.208	5.7
464.564	5.63
464.919	5.87
465.275	5.83
465.631	5.76
465.986	5.86
466.342	5.64
466.697	5.66
467.052	5.65
467.408	5.8
467.763	5.63
468.118	5.54
468.473	5.45
468.829	5.77
469.184	5.68
469.539	5.86
469.894	5.64
470.249	5.8
470.603	5.8
470.958	5.78
471.313	5.83
471.668	5.83
472.023	5.75
472.377	5.82
472.732	5.9
473.086	5.88
473.441	5.72
473.795	5.65
474.15	5.75
474.504	5.65
474.859	5.85
475.213	5.8
475.567	5.92
475.921	5.8
476.275	5.81
476.63	5.76
476.984	5.97
477.338	5.84
477.692	5.73
478.045	5.66
478.399	5.67
478.753	5.89
479.107	5.73
479.461	5.85
479.814	5.9
480.168	5.88
480.521	5.86
480.875	5.79
481.228	5.7
481.582	5.81
481.935	5.91
482.289	5.94
482.642	5.99
482.995	5.84
483.348	5.72
483.701	5.79
484.055	5.94
484.408	5.86
484.761	5.72
485.114	5.7
485.466	5.51
485.819	5.49
486.172	5.5
486.525	5.57
486.878	5.62
487.23	5.73
487.583	5.8
487.936	5.82
488.288	5.75
488.641	5.79
488.993	5.67
489.345	5.63
489.698	5.61
490.05	5.73
490.402	5.7
490.754	5.74
491.107	5.87
491.459	5.86
491.811	5.91
492.163	5.94
492.515	5.9
492.866	5.84
493.218	5.85
493.57	5.7
493.922	5.74
494.274	5.87
494.625	5.92
494.977	5.99
495.328	6.08
495.68	6
496.031	6.18
496.383	6.06
496.734	6.2
497.086	6.32
497.437	6.02
497.788	6.05
498.139	6.01
498.49	6.14
498.842	5.89
499.193	6.08
499.544	6.07
499.894	5.93
500.245	6.1
500.596	6.04
500.947	6.18
501.298	6.08
501.648	6.3
501.999	6.29
502.35	6.14
502.7	6.14
503.051	6.13
503.401	6.08
503.752	6.26
504.102	6.21
504.452	6.18
504.803	6.03
505.153	6.18
505.503	6.23
505.853	6.35
506.203	6.18
506.553	6.18
506.903	6.21
507.253	6.17
507.603	6.31
507.953	6.44
508.303	6.43
508.652	6.23
509.002	6.43
509.352	6.51
509.701	6.36
510.051	6.22
510.4	6.33
510.75	6.28
511.099	6.31
511.449	6.26
511.798	6.27
512.147	6.35
512.496	6.28
512.846	6.42
513.195	6.27
513.544	6.34
513.893	6.55
514.242	6.36
514.591	6.58
514.939	6.32
515.288	6.39
515.637	6.48
515.986	6.46
516.334	6.44
516.683	6.53
517.032	6.45
517.38	6.52
517.729	6.61
518.077	6.47
518.426	6.48
518.774	6.55
519.122	6.49
519.47	6.4
519.819	6.22
520.167	6.48
520.515	6.41
520.863	6.5
521.211	6.49
521.559	6.72
521.907	6.45
522.255	6.58
522.602	6.61
522.95	6.57
523.298	6.6
523.645	6.62
523.993	6.72
524.341	6.84
524.688	6.78
525.036	6.7
525.383	6.71
525.73	6.81
526.078	6.72
526.425	6.64
526.772	6.73
527.119	6.58
527.466	6.64
527.814	6.66
528.161	6.64
528.508	6.71
528.854	6.61
529.201	6.68
529.548	6.69
529.895	6.61
530.242	6.44
530.588	6.46
530.935	6.51
531.282	6.62
531.628	6.57
531.975	6.72
532.321	6.68
532.667	6.84
533.014	6.87
533.36	6.79
533.706	6.84
534.052	6.9
534.399	6.79
534.745	6.83
535.091	6.77
535.437	6.8
535.783	6.78
536.129	6.88
536.474	6.91
536.82	7.01
537.166	6.99
537.512	6.98
537.857	7.04
538.203	7.05
538.549	6.9
538.894	6.96
539.239	7.04
539.585	7.16
539.93	7.08
540.276	7.24
540.621	7.17
540.966	7.31
541.311	7.29
541.656	7.09
542.001	7.17
542.346	7.32
542.691	7.12
543.036	7.05
543.381	6.92
543.726	7.06
544.071	7.14
544.415	7.11
544.76	7.17
545.105	7.22
545.449	7.23
545.794	7.31
546.138	7.32
546.483	7.47
546.827	7.48
547.171	7.29
547.516	7.48
547.86	7.41
548.204	7.57
548.548	7.34
548.892	7.45
549.236	7.43
549.58	7.55
549.924	7.47
550.268	7.73
550.612	7.74
550.956	7.74
551.3	7.68
551.643	7.82
551.987	7.87
552.33	7.72
552.674	7.62
553.017	7.62
553.361	7.75
553.704	7.74
554.048	7.62
554.391	7.81
554.734	7.71
555.077	7.89
555.42	7.74
555.764	7.72
556.107	7.78
556.45	7.85
556.793	7.81
557.135	8.09
557.478	8.28
557.821	8.08
558.164	8
558.507	8.07
558.849	7.81
559.192	8.23
559.534	8.03
559.877	8.17
560.219	8.08
560.562	8.35
560.904	8.26
561.246	8.22
561.589	8.24
561.931	8.15
562.273	8.01
562.615	8.18
562.957	8.21
563.299	8.06
563.641	8.34
563.983	8.43
564.325	8.29
564.667	8.31
565.008	8.37
565.35	8.21
565.692	8.3
566.033	8.39
566.375	8.7
566.716	8.68
567.058	8.52
567.399	8.56
567.741	8.36
568.082	8.58
568.423	8.36
568.764	8.38
569.105	8.58
569.447	8.74
569.788	8.58
570.129	8.82
570.47	8.66
570.811	8.86
571.151	8.63
571.492	8.69
571.833	8.81
572.174	8.74
572.514	8.83
572.855	8.7
573.195	8.92
573.536	8.89
573.876	8.71
574.217	8.84
574.557	9.08
574.898	9.02
575.238	8.96
575.578	8.93
575.918	9.15
576.258	9.24
576.598	9.18
576.938	9.26
577.278	9.15
577.618	9.1
577.958	9.1
578.298	9.21
578.638	9.03
578.977	9.23
579.317	9.33
579.657	9.27
579.996	9.49
580.336	9.4
580.675	9.46
581.014	9.32
581.354	9.6
581.693	9.71
582.032	9.27
582.372	9.38
582.711	9.68
583.05	9.19
583.389	9.62
583.728	9.52
584.067	9.8
584.406	9.67
584.745	9.81
585.083	9.96
585.422	9.92
585.761	9.87
586.1	9.73
586.438	9.87
586.777	9.91
587.115	10
587.454	9.92
587.792	9.76
588.13	9.91
588.469	9.72
588.807	9.8
589.145	9.83
589.483	9.94
589.821	9.99
590.159	10.08
590.497	10.45
590.835	10.58
591.173	10.21
591.511	10.38
591.849	10.21
592.187	10.35
592.524	10.25
592.862	10.3
593.2	10.11
593.537	10.46
593.875	10.34
594.212	10.09
594.55	10.2
594.887	10.6
595.224	10.24
595.561	10.43
595.899	10.38
596.236	10.6
596.573	10.59
596.91	10.45
597.247	10.41
597.584	11.04
597.921	10.57
598.258	10.49
598.594	10.61
598.931	10.62
599.268	10.89
599.604	10.82
599.941	10.95
600.277	10.65
600.614	10.89
600.95	10.75
601.287	11.15
601.623	10.75
601.959	10.87
602.296	10.93
602.632	11.09
602.968	11.1
603.304	11.27
603.64	10.95
603.976	11.28
604.312	11.14
604.648	11.04
604.984	11.31
605.319	11.3
605.655	11.19
605.991	11.21
606.326	11.23
606.662	11.24
606.998	11.2
607.333	11.32
607.668	11.36
608.004	11.37
608.339	11.68
608.674	11.46
609.01	11.51
609.345	11.46
609.68	11.71
610.015	11.41
610.35	11.59
610.685	11.8
611.02	11.71
611.355	11.66
611.689	11.65
612.024	11.56
612.359	11.64
612.694	11.84
613.028	11.76
613.363	11.97
613.697	12.02
614.032	12.17
614.366	11.68
614.7	12.16
615.035	12.16
615.369	11.94
615.703	12.41
616.037	12.24
616.371	12.12
616.705	12.13
617.039	12.18
617.373	12.26
617.707	12.04
618.041	12.49
618.375	12.45
618.709	12.24
619.042	12.22
619.376	12.5
619.71	12.55
620.043	12.17
620.377	12.43
620.71	12.74
621.043	12.58
621.377	12.28
621.71	12.91
622.043	12.45
622.376	12.14
622.709	12.63
623.043	12.64
623.376	12.75
623.709	12.67
624.041	12.76
624.374	13.02
624.707	12.56
625.04	12.96
625.373	12.94
625.705	12.77
626.038	13.06
626.37	12.9
626.703	13.12
627.035	13.17
627.368	13.45
627.7	13.29
628.032	12.82
628.365	13.33
628.697	13.29
629.029	13.24
629.361	13.3
629.693	13.32
630.025	13.18
630.357	13.46
630.689	13.25
631.021	13.41
631.353	13.6
631.684	13.58
632.016	13.58
632.348	13.86
632.679	13.75
633.011	13.94
633.342	13.89
633.674	13.56
634.005	14.1
634.336	13.65
634.668	14.25
634.999	13.61
635.33	14.16
635.661	13.96
635.992	13.85
636.323	14.06
636.654	14.45
636.985	14.12
637.316	13.72
637.647	13.84
637.977	14.39
638.308	14.24
638.639	13.91
638.969	14.27
639.3	14.32
639.63	13.83
639.961	14.55
640.291	14.29
640.622	14.82
640.952	14.17
641.282	14.96
641.612	14.81
641.943	14.27
642.273	14.24
642.603	14.8
642.933	14.57
643.263	14.7
643.592	14.65
643.922	14.46
644.252	14.31
644.582	15.06
644.911	14.68
645.241	14.95
645.571	14.7
645.9	14.2
646.23	14.51
646.559	14.87
646.888	14.55
647.218	14.92
647.547	15.12
647.876	14.81
648.205	14.79
648.534	15.06
648.863	14.74
649.192	15.1
649.521	14.69
649.85	14.77
650.179	15.39
650.508	15.17
650.837	15.1
651.165	15.13
651.494	15.4
651.822	15.1
652.151	15.17
652.479	15.46
652.808	15.04
653.136	15.46
653.465	15.14
653.793	15.6
654.121	15.46
654.449	15.58
654.777	15.4
655.105	15.74
655.433	15.71
655.761	15.34
656.089	15.78
656.417	15.75
656.745	15.4
657.073	15.39
657.4	16.18
657.728	15.96
658.056	15.96
658.383	16.36
658.711	15.91
659.038	16.08
659.365	16.28
659.693	16.26
660.02	15.93
660.347	16.3
660.674	16.39
661.001	16.28
661.329	16.01
661.656	16.32
661.982	15.97
662.309	16.14
662.636	16.27
662.963	16.96
663.29	16.82
663.616	17.07
663.943	16.43
664.27	16.34
664.596	16.65
664.923	16.45
665.249	16.69
665.576	16.1
665.902	17.3
666.228	16.93
666.554	16.46
666.881	17.14
667.207	16.83
667.533	16.55
667.859	17.84
668.185	16.55
668.511	16.07
668.837	16.24
669.162	16.49
669.488	16.36
669.814	17.12
670.139	17.33
670.465	17.5
670.791	16.91
671.116	17.61
671.442	17.34
671.767	17.35
672.092	17.82
672.418	17.58
672.743	17.63
673.068	16.79
673.393	17.39
673.718	18
674.043	17.14
674.368	17.4
674.693	18.02
675.018	17.71
675.343	17.81
675.667	17.67
675.992	17.17
676.317	17.79
676.641	17.9
676.966	18.69
677.29	16.92
677.615	18.04
677.939	18.4
678.264	18.17
678.588	18
678.912	17.92
679.236	18.78
679.56	17.83
679.885	18.08
680.209	18.06
680.532	18.68
680.856	18.81
681.18	18.06
681.504	18.46
681.828	18.39
682.152	17.82
682.475	18.11
682.799	18.38
683.122	18.73
683.446	18.05
683.769	19.24
684.093	18.75
684.416	19.25
684.739	18.61
685.062	18.6
685.386	18.38
685.709	18.21
