Data from 0199_forehead_Reflection__4__354.txt Node

Date: Fri Dec 15 19:47:36 CST 2023
User: ToomeyLab
Spectrometer: FLMS14357
Trigger mode: 0
Integration Time (sec): 1.000000E-2
Scans to average: 100
Electric dark correction enabled: true
Nonlinearity correction enabled: false
Boxcar width: 0
XAxis mode: Wavelengths
Number of Pixels in Spectrum: 2048
>>>>>Begin Spectral Data<<<<<
189.047	54.84
189.435	54.84
189.823	54.84
190.211	56.78
190.599	-31.8
190.987	400.79
191.375	132.64
191.763	-78.49
192.151	-39.06
192.538	86.42
192.926	1.44
193.314	31.03
193.702	237.01
194.089	8823.73
194.477	231.51
194.864	-146.54
195.252	121.42
195.639	130.12
196.027	-37.04
196.414	140.49
196.801	-65.92
197.189	98.13
197.576	-41.17
197.963	-1.73
198.351	-58.67
198.738	22.29
199.125	22.96
199.512	-31.49
199.899	29.42
200.286	17.38
200.673	-6.63
201.06	20.92
201.447	2.76
201.833	-10.6
202.22	28.16
202.607	26.81
202.994	63.79
203.38	31.49
203.767	27.66
204.154	59.34
204.54	61.77
204.927	1.07
205.313	-39.05
205.699	59.35
206.086	47.27
206.472	43.8
206.858	45.07
207.245	3.86
207.631	-1.2
208.017	6.21
208.403	15.72
208.789	30.16
209.175	32.48
209.561	-24.22
209.947	26.38
210.333	-12.07
210.719	-1.81
211.105	4.77
211.491	-47.82
211.876	70.39
212.262	36.87
212.648	41.84
213.034	32.76
213.419	-10.67
213.805	11.79
214.19	-27.7
214.576	-3.76
214.961	1.25
215.346	-151.4
215.732	-17.9
216.117	0.66
216.502	-28.08
216.888	19.25
217.273	27.17
217.658	-9.55
218.043	5.39
218.428	-72.76
218.813	-55.36
219.198	-39.92
219.583	-13.52
219.968	-17.12
220.353	-25.95
220.738	36.22
221.122	-11.13
221.507	-28.79
221.892	-57.54
222.276	-14.62
222.661	-0.35
223.046	5.34
223.43	9.46
223.815	10.59
224.199	-14.02
224.583	1.46
224.968	5.95
225.352	12.19
225.736	-14.93
226.121	-9.44
226.505	7.4
226.889	13.44
227.273	-1.72
227.657	6.75
228.041	6.79
228.425	4.57
228.809	3.95
229.193	4.86
229.577	0.09
229.961	-0.16
230.344	1.5
230.728	0.82
231.112	1.86
231.495	2.45
231.879	1.99
232.263	4.2
232.646	2.11
233.03	1.41
233.413	2.88
233.797	1.81
234.18	1.92
234.563	3.68
234.946	1.98
235.33	2.5
235.713	4.2
236.096	1.16
236.479	3.07
236.862	1.2
237.245	3.54
237.628	0.41
238.011	4.33
238.394	3.82
238.777	1.05
239.16	0.67
239.543	3.85
239.925	3.75
240.308	1.09
240.691	2.11
241.073	2.98
241.456	2.11
241.838	1.23
242.221	1.98
242.603	2.5
242.986	2.52
243.368	2.93
243.75	2.84
244.133	2.54
244.515	2.61
244.897	2.66
245.279	2.71
245.661	2.61
246.043	1.54
246.425	2.09
246.807	3.36
247.189	3.21
247.571	2.82
247.953	2.45
248.335	2.67
248.717	2.82
249.098	2.41
249.48	2.59
249.862	2.1
250.243	3.06
250.625	3.02
251.006	2.45
251.388	1.69
251.769	1.33
252.151	3.4
252.532	2.14
252.913	2.4
253.295	1.68
253.676	2.41
254.057	2.77
254.438	2.63
254.819	2.32
255.2	1.97
255.581	3.34
255.962	2.68
256.343	2.86
256.724	2.38
257.105	2.38
257.486	2.63
257.867	3.36
258.247	3.12
258.628	2.36
259.009	2.12
259.389	3.46
259.77	2.74
260.15	2.44
260.531	1.95
260.911	3
261.292	2.55
261.672	2.78
262.052	2.58
262.432	2.67
262.813	2.69
263.193	2.76
263.573	2.1
263.953	2.4
264.333	3.26
264.713	2.91
265.093	1.97
265.473	2.33
265.853	2.28
266.233	3.3
266.612	0.41
266.992	2.3
267.372	3.09
267.752	2.41
268.131	2.59
268.511	3.04
268.89	3.02
269.27	2.3
269.649	2.44
270.029	1.97
270.408	3.45
270.787	2.76
271.167	3.19
271.546	2.8
271.925	2.09
272.304	3.03
272.683	2.96
273.062	2.24
273.441	2.86
273.82	1.8
274.199	2.49
274.578	2.43
274.957	2.88
275.336	2.68
275.715	2.52
276.093	2.14
276.472	2.7
276.851	2.34
277.229	2.14
277.608	1.83
277.986	2.15
278.365	2.44
278.743	2.27
279.122	2.66
279.5	3.05
279.878	2.56
280.257	2.52
280.635	1.66
281.013	1.71
281.391	3.36
281.769	2.86
282.147	2.95
282.525	3.15
282.903	2.77
283.281	2.62
283.659	3.02
284.037	2.9
284.415	2.95
284.792	3.11
285.17	2.65
285.548	2.4
285.925	2.72
286.303	3.03
286.68	2.44
287.058	2.85
287.435	2.78
287.813	2.91
288.19	2.54
288.567	2.93
288.945	2.98
289.322	2.51
289.699	2.75
290.076	2.48
290.453	3.22
290.83	2.78
291.207	2.54
291.584	3.16
291.961	3.05
292.338	2.82
292.715	3.23
293.092	3.19
293.469	3.09
293.845	3.47
294.222	3.31
294.599	3.15
294.975	2.57
295.352	2.93
295.728	2.75
296.105	2.97
296.481	3.26
296.858	3.37
297.234	2.88
297.61	2.63
297.986	3.07
298.363	3.52
298.739	3.63
299.115	3.29
299.491	2.7
299.867	3.14
300.243	3.3
300.619	3.09
300.995	3.08
301.371	3.58
301.746	3.42
302.122	3.58
302.498	3.07
302.874	3.67
303.249	3.87
303.625	3.61
304	4.01
304.376	3.64
304.751	3.51
305.127	4.13
305.502	3.72
305.878	2.43
306.253	3.56
306.628	4.45
307.003	3.71
307.378	4.09
307.754	4.3
308.129	3.75
308.504	3.68
308.879	3.5
309.254	4.71
309.629	4.28
310.003	3.59
310.378	4.25
310.753	4.57
311.128	4.17
311.502	4.11
311.877	4.31
312.252	3.76
312.626	4.34
313.001	4.06
313.375	4.41
313.75	4.3
314.124	4.39
314.498	4.43
314.873	3.94
315.247	3.71
315.621	4.45
315.995	3.78
316.369	3.93
316.743	4.3
317.117	4.51
317.491	4.57
317.865	4.53
318.239	4.48
318.613	4.4
318.987	4.78
319.361	4.2
319.734	4.85
320.108	4.83
320.482	5.03
320.855	5.17
321.229	4.33
321.602	4.49
321.976	4.93
322.349	4.47
322.723	5.36
323.096	4.92
323.469	4.16
323.843	4.91
324.216	5.2
324.589	4.81
324.962	4.95
325.335	5.02
325.708	5.09
326.081	4.82
326.454	4.95
326.827	4.77
327.2	5.59
327.573	5.69
327.945	5.37
328.318	4.95
328.691	4.71
329.063	5.14
329.436	5.03
329.809	5.96
330.181	5.3
330.553	4.89
330.926	5.85
331.298	5.47
331.671	5.34
332.043	6.26
332.415	5.66
332.787	5.68
333.159	6.22
333.532	5.59
333.904	6.19
334.276	5.51
334.648	6.42
335.02	6.14
335.391	5.85
335.763	5.48
336.135	5.6
336.507	6.1
336.879	6.3
337.25	5.3
337.622	5.67
337.993	5.37
338.365	6.47
338.736	5.79
339.108	5.94
339.479	5.76
339.851	5.96
340.222	5.82
340.593	5.76
340.964	5.77
341.336	6.35
341.707	5.39
342.078	6.5
342.449	6.23
342.82	5.98
343.191	6.13
343.562	6.13
343.933	5.94
344.303	6.02
344.674	6.43
345.045	6.34
345.416	6.29
345.786	5.51
346.157	5.93
346.527	5.68
346.898	6.27
347.268	6.47
347.639	6.15
348.009	5.96
348.38	6.32
348.75	6.62
349.12	6.68
349.49	6.28
349.861	6.4
350.231	6.03
350.601	6.5
350.971	6.89
351.341	6.58
351.711	6.6
352.081	6.54
352.45	6.72
352.82	6.41
353.19	6.45
353.56	6.86
353.929	7.03
354.299	6.16
354.669	6.33
355.038	7.01
355.408	6.47
355.777	6.74
356.147	6.48
356.516	6.85
356.885	6.89
357.254	6.46
357.624	6.83
357.993	6.66
358.362	6.34
358.731	6.71
359.1	7.25
359.469	6.97
359.838	7.1
360.207	7.1
360.576	7.18
360.945	7.2
361.314	7.81
361.682	6.84
362.051	7.04
362.42	7.45
362.788	6.96
363.157	7.49
363.525	7.4
363.894	6.87
364.262	7.15
364.631	7.4
364.999	7.5
365.367	6.97
365.735	7.62
366.104	7.51
366.472	7.64
366.84	7.11
367.208	7.3
367.576	7.77
367.944	7.63
368.312	7.14
368.68	7.59
369.048	7.64
369.416	7.24
369.783	7.29
370.151	7.55
370.519	7.85
370.886	8.02
371.254	7.46
371.621	8.2
371.989	7.86
372.356	7.06
372.724	7.54
373.091	7.64
373.458	8
373.826	7.71
374.193	7.6
374.56	7.71
374.927	7.87
375.294	7.89
375.661	7.81
376.028	7.81
376.395	7.86
376.762	8
377.129	8.07
377.496	7.85
377.863	7.96
378.229	7.57
378.596	8
378.963	7.74
379.329	8.05
379.696	8.34
380.062	8.19
380.429	8.39
380.795	8.09
381.161	8.39
381.528	8.55
381.894	8.27
382.26	8.39
382.626	8.45
382.993	7.96
383.359	8.61
383.725	8.39
384.091	8.39
384.457	8.65
384.823	8.64
385.188	8.45
385.554	8.24
385.92	8.88
386.286	8.7
386.651	8.79
387.017	9.01
387.383	8.58
387.748	8.46
388.114	8.35
388.479	8.24
388.845	9.16
389.21	8.97
389.575	9.05
389.94	8.76
390.306	8.93
390.671	9.24
391.036	8.83
391.401	8.68
391.766	9.01
392.131	8.74
392.496	8.76
392.861	8.88
393.226	9.44
393.591	9.15
393.956	9.06
394.32	8.96
394.685	8.96
395.05	9.15
395.414	9.07
395.779	8.99
396.143	9.09
396.508	9
396.872	9.2
397.236	9.11
397.601	8.97
397.965	9.36
398.329	9.52
398.694	9.5
399.058	9.4
399.422	9.23
399.786	9.26
400.15	9.54
400.514	9.51
400.878	9.55
401.242	9.69
401.605	9.36
401.969	9.45
402.333	9.65
402.697	9.39
403.06	9.59
403.424	9.45
403.787	9.4
404.151	9.47
404.514	9.7
404.878	9.56
405.241	9.62
405.604	9.5
405.968	9.8
406.331	9.69
406.694	9.84
407.057	9.8
407.42	9.89
407.783	9.64
408.146	9.77
408.509	9.64
408.872	9.64
409.235	10.2
409.598	10.05
409.961	9.88
410.323	10.06
410.686	9.96
411.049	9.83
411.411	9.92
411.774	9.95
412.136	9.97
412.499	10.12
412.861	10.12
413.223	10.07
413.586	10.05
413.948	10.13
414.31	10.16
414.672	10.18
415.035	10.13
415.397	10.52
415.759	9.75
416.121	10.16
416.483	10.38
416.845	10.44
417.206	10.36
417.568	10.4
417.93	10.17
418.292	10.42
418.653	10.25
419.015	10.13
419.377	10.28
419.738	10.28
420.1	10.2
420.461	10.37
420.822	10.34
421.184	10.27
421.545	10.4
421.906	10.34
422.267	10.44
422.629	10.35
422.99	10.4
423.351	10.39
423.712	10.32
424.073	10.61
424.434	10.47
424.795	10.54
425.155	10.59
425.516	10.52
425.877	10.44
426.238	10.43
426.598	10.58
426.959	10.52
427.32	10.52
427.68	10.53
428.041	10.59
428.401	10.8
428.761	10.83
429.122	11
429.482	10.87
429.842	11.14
430.202	11.01
430.563	11.02
430.923	11
431.283	11.14
431.643	10.97
432.003	11.04
432.363	11.3
432.722	11.08
433.082	11.28
433.442	11.06
433.802	11.06
434.161	11.27
434.521	11.42
434.881	11.13
435.24	11.07
435.6	11.26
435.959	11.22
436.319	11.3
436.678	11.32
437.037	11.31
437.396	11.26
437.756	11.23
438.115	11.32
438.474	11.5
438.833	11.33
439.192	11.3
439.551	11.58
439.91	11.58
440.269	11.44
440.628	11.43
440.987	11.61
441.345	11.37
441.704	11.53
442.063	11.45
442.421	11.58
442.78	11.48
443.138	11.59
443.497	11.67
443.855	11.63
444.214	11.9
444.572	11.85
444.93	11.8
445.288	11.93
445.647	12.02
446.005	11.78
446.363	12
446.721	11.8
447.079	11.54
447.437	11.87
447.795	11.97
448.153	11.71
448.51	11.68
448.868	11.79
449.226	11.92
449.584	11.92
449.941	12.08
450.299	12.06
450.656	12.04
451.014	12.2
451.371	12.09
451.729	12.33
452.086	12.36
452.443	12.38
452.801	12.45
453.158	12.08
453.515	12.2
453.872	12.27
454.229	12.29
454.586	12.36
454.943	12.4
455.3	12.51
455.657	12.46
456.014	12.33
456.371	12.42
456.727	12.35
457.084	12.48
457.441	12.57
457.797	12.64
458.154	12.73
458.51	12.88
458.867	12.79
459.223	12.77
459.58	12.76
459.936	12.67
460.292	12.76
460.648	12.66
461.005	12.68
461.361	12.7
461.717	12.56
462.073	12.55
462.429	12.82
462.785	12.84
463.141	12.78
463.496	12.98
463.852	13.09
464.208	13.06
464.564	13.02
464.919	13.07
465.275	13.09
465.631	13.38
465.986	13.1
466.342	13.03
466.697	13.03
467.052	13.17
467.408	13.33
467.763	13.26
468.118	13.28
468.473	13.35
468.829	13.46
469.184	13.46
469.539	13.29
469.894	13.16
470.249	13.63
470.603	13.64
470.958	13.55
471.313	13.58
471.668	13.83
472.023	13.65
472.377	13.68
472.732	13.57
473.086	13.62
473.441	13.49
473.795	13.66
474.15	13.7
474.504	13.87
474.859	13.76
475.213	13.6
475.567	13.73
475.921	13.71
476.275	13.95
476.63	13.9
476.984	13.88
477.338	13.99
477.692	14.03
478.045	13.79
478.399	13.93
478.753	13.93
479.107	14.1
479.461	13.95
479.814	14.05
480.168	13.97
480.521	13.98
480.875	13.82
481.228	14.12
481.582	14.05
481.935	14.02
482.289	14.06
482.642	14.07
482.995	14.09
483.348	13.99
483.701	14.05
484.055	14.08
484.408	14.05
484.761	13.87
485.114	13.71
485.466	13.4
485.819	13.35
486.172	13.51
486.525	13.67
486.878	13.89
487.23	13.97
487.583	14.06
487.936	14.18
488.288	14.04
488.641	14.05
488.993	13.94
489.345	13.9
489.698	13.89
490.05	13.95
490.402	14.09
490.754	14.24
491.107	14.46
491.459	14.49
491.811	14.49
492.163	14.54
492.515	14.62
492.866	14.53
493.218	14.22
493.57	14.22
493.922	14.3
494.274	14.46
494.625	14.75
494.977	14.8
495.328	14.93
495.68	14.99
496.031	15.08
496.383	15.01
496.734	15.26
497.086	15.2
497.437	15.06
497.788	15.11
498.139	15.08
498.49	15.17
498.842	15.13
499.193	15.28
499.544	15.25
499.894	15.3
500.245	15.25
500.596	15.42
500.947	15.46
501.298	15.23
501.648	15.55
501.999	15.61
502.35	15.44
502.7	15.57
503.051	15.51
503.401	15.61
503.752	15.74
504.102	15.76
504.452	15.7
504.803	15.56
505.153	15.62
505.503	15.71
505.853	15.75
506.203	15.77
506.553	15.77
506.903	15.78
507.253	15.91
507.603	15.84
507.953	15.95
508.303	16.12
508.652	15.92
509.002	15.97
509.352	16.09
509.701	15.9
510.051	15.82
510.4	16.01
510.75	15.96
511.099	16.08
511.449	16
511.798	16.11
512.147	16.17
512.496	16.25
512.846	16.36
513.195	16.18
513.544	16.25
513.893	16.31
514.242	16.3
514.591	16.36
514.939	16.3
515.288	16.35
515.637	16.42
515.986	16.53
516.334	16.59
516.683	16.55
517.032	16.65
517.38	16.63
517.729	16.76
518.077	16.52
518.426	16.7
518.774	16.8
519.122	16.59
519.47	16.51
519.819	16.51
520.167	16.56
520.515	16.56
520.863	16.64
521.211	16.72
521.559	16.68
521.907	16.73
522.255	16.94
522.602	16.97
522.95	17.13
523.298	17.02
523.645	17.12
523.993	17.15
524.341	17.1
524.688	17.33
525.036	17.23
525.383	17.06
525.73	17.29
526.078	17.21
526.425	17.22
526.772	17.2
527.119	17.03
527.466	16.91
527.814	17.04
528.161	16.91
528.508	17.18
528.854	17.09
529.201	17.17
529.548	17.05
529.895	16.91
530.242	16.63
530.588	16.53
530.935	16.72
531.282	16.94
531.628	16.99
531.975	17.17
532.321	17.3
532.667	17.5
533.014	17.56
533.36	17.54
533.706	17.48
534.052	17.61
534.399	17.49
534.745	17.43
535.091	17.27
535.437	17.26
535.783	17.42
536.129	17.65
536.474	17.68
536.82	17.93
537.166	17.91
537.512	17.99
537.857	17.89
538.203	17.89
538.549	17.84
538.894	17.91
539.239	18.1
539.585	18.02
539.93	18.16
540.276	18.34
540.621	18.44
540.966	18.49
541.311	18.24
541.656	18.23
542.001	18.2
542.346	18.35
542.691	18.06
543.036	17.74
543.381	17.7
543.726	17.86
544.071	18.03
544.415	18.15
544.76	18.26
545.105	18.25
545.449	18.27
545.794	18.58
546.138	18.54
546.483	18.71
546.827	18.73
547.171	18.64
547.516	18.8
547.86	18.75
548.204	18.83
548.548	18.71
548.892	18.84
549.236	18.81
549.58	18.85
549.924	19.09
550.268	19.14
550.612	19.25
550.956	19.32
551.3	19.22
551.643	19.29
551.987	19.47
552.33	19.43
552.674	19.57
553.017	19.24
553.361	19.26
553.704	19.45
554.048	19.23
554.391	19.44
554.734	19.57
555.077	19.53
555.42	19.32
555.764	19.4
556.107	19.54
556.45	19.61
556.793	19.7
557.135	19.68
557.478	19.97
557.821	19.87
558.164	19.87
558.507	19.82
558.849	19.86
559.192	19.94
559.534	19.83
559.877	20.22
560.219	19.76
560.562	20.16
560.904	20.25
561.246	20.11
561.589	20.18
561.931	20.03
562.273	19.99
562.615	20.18
562.957	20
563.299	20.08
563.641	20.34
563.983	20.36
564.325	20.05
564.667	20.43
565.008	20.38
565.35	20.17
565.692	20.45
566.033	20.49
566.375	20.64
566.716	20.46
567.058	20.59
567.399	20.68
567.741	20.33
568.082	20.29
568.423	20.47
568.764	20.61
569.105	20.58
569.447	20.43
569.788	20.6
570.129	20.7
570.47	20.72
570.811	20.81
571.151	20.86
571.492	20.89
571.833	20.79
572.174	20.79
572.514	21.12
572.855	20.93
573.195	21
573.536	20.98
573.876	20.77
574.217	20.75
574.557	21.03
574.898	21.36
575.238	21.1
575.578	21.11
575.918	21.41
576.258	21.42
576.598	21.32
576.938	21.27
577.278	21.42
577.618	21.15
577.958	21.37
578.298	21.39
578.638	21.27
578.977	21.52
579.317	21.32
579.657	21.49
579.996	21.5
580.336	21.8
580.675	21.54
581.014	21.79
581.354	21.91
581.693	22.07
582.032	21.74
582.372	21.51
582.711	21.89
583.05	21.71
583.389	21.99
583.728	21.75
584.067	22.07
584.406	21.98
584.745	22.22
585.083	22.31
585.422	22.02
585.761	22.53
586.1	22.11
586.438	22.13
586.777	22.25
587.115	22.2
587.454	22.16
587.792	21.97
588.13	22.33
588.469	22.18
588.807	22.14
589.145	22.3
589.483	22.36
589.821	22.5
590.159	22.27
590.497	22.81
590.835	22.76
591.173	22.52
591.511	22.56
591.849	22.31
592.187	22.61
592.524	22.3
592.862	22.79
593.2	22.61
593.537	22.94
593.875	22.73
594.212	22.65
594.55	22.81
594.887	23.06
595.224	22.35
595.561	22.73
595.899	22.79
596.236	22.61
596.573	22.75
596.91	22.73
597.247	22.92
597.584	23.19
597.921	22.83
598.258	22.57
598.594	22.74
598.931	22.7
599.268	22.77
599.604	23.01
599.941	22.97
600.277	23.07
600.614	23.24
600.95	22.93
601.287	23.55
601.623	23.17
601.959	23.17
602.296	23.35
602.632	23.41
602.968	23.39
603.304	23.52
603.64	23.37
603.976	23.6
604.312	23.5
604.648	23.29
604.984	23.57
605.319	23.29
605.655	23.28
605.991	23.45
606.326	23.43
606.662	23.15
606.998	23.29
607.333	23.47
607.668	23.53
608.004	23.86
608.339	23.78
608.674	23.9
609.01	23.54
609.345	23.54
609.68	24.1
610.015	23.62
610.35	23.83
610.685	23.66
611.02	23.91
611.355	23.89
611.689	23.67
612.024	23.97
612.359	23.83
612.694	24.22
613.028	23.71
613.363	24.24
613.697	24.14
614.032	24.07
614.366	24.24
614.7	24.41
615.035	24.32
615.369	24.22
615.703	24.5
616.037	24.56
616.371	24.12
616.705	24.39
617.039	24.45
617.373	24.48
617.707	24.51
618.041	24.44
618.375	24.47
618.709	24.16
619.042	24.48
619.376	24.63
619.71	24.93
620.043	24.69
620.377	24.44
620.71	24.98
621.043	24.82
621.377	24.72
621.71	24.92
622.043	24.29
622.376	24.36
622.709	24.85
623.043	25.03
623.376	25.11
623.709	24.7
624.041	24.87
624.374	25.11
624.707	24.85
625.04	25.34
625.373	25.16
625.705	25.29
626.038	24.93
626.37	24.97
626.703	25.1
627.035	25.22
627.368	25.51
627.7	25.42
628.032	25.31
628.365	25.04
628.697	25.21
629.029	24.97
629.361	24.89
629.693	25.18
630.025	24.99
630.357	25.28
630.689	25.45
631.021	25.33
631.353	25.49
631.684	25.13
632.016	25.52
632.348	25.65
632.679	25.67
633.011	25.46
633.342	25.87
633.674	25.37
634.005	25.99
634.336	25.43
634.668	25.95
634.999	25.88
635.33	25.68
635.661	25.79
635.992	25.71
636.323	25.89
636.654	25.85
636.985	25.7
637.316	25.94
637.647	25.55
637.977	25.7
638.308	26.04
638.639	25.33
638.969	25.61
639.3	25.88
639.63	25.5
639.961	26.07
640.291	26.26
640.622	26.38
640.952	26.01
641.282	26.44
641.612	26.6
641.943	26.05
642.273	26.18
642.603	26.61
642.933	26.26
643.263	25.76
643.592	25.97
643.922	26.18
644.252	26.41
644.582	26.4
644.911	25.92
645.241	26.85
645.571	26.35
645.9	26.1
646.23	26.45
646.559	27.05
646.888	26.49
647.218	26.21
647.547	26.61
647.876	26.51
648.205	27.12
648.534	26.19
648.863	26.15
649.192	26.71
649.521	26.47
649.85	26.1
650.179	26.65
650.508	26.82
650.837	26.93
651.165	26.49
651.494	26.69
651.822	26.69
652.151	26.56
652.479	26.44
652.808	26.3
653.136	26.98
653.465	26.5
653.793	26.36
654.121	26.23
654.449	26.67
654.777	27.4
655.105	26.95
655.433	26.87
655.761	26.7
656.089	27.49
656.417	27.37
656.745	26.77
657.073	27.28
657.4	27.4
657.728	26.88
658.056	27.4
658.383	26.77
658.711	27.78
659.038	27.72
659.365	27.21
659.693	27.66
660.02	27.03
660.347	27.51
660.674	27.31
661.001	27.33
661.329	26.76
661.656	27.53
661.982	26.96
662.309	27.35
662.636	27.31
662.963	27.85
663.29	27.89
663.616	27.71
663.943	27.3
664.27	27.01
664.596	27.83
664.923	27.94
665.249	27.78
665.576	27.45
665.902	28.4
666.228	28.34
666.554	27.87
666.881	28.04
667.207	27.66
667.533	27.51
667.859	27.7
668.185	27.55
668.511	27.51
668.837	27.66
669.162	28.03
669.488	27.32
669.814	27.78
670.139	27.65
670.465	28.4
670.791	28.21
671.116	28.15
671.442	27.92
671.767	28.3
672.092	28.63
672.418	28.29
672.743	28.31
673.068	27.89
673.393	28.35
673.718	28.27
674.043	27.66
674.368	28.04
674.693	28.23
