Data from 0028_forehead_Reflection__0__116.txt Node

Date: Thu Oct 20 21:51:04 CDT 2022
User: ToomeyLab
Spectrometer: FLMS14357
Trigger mode: 0
Integration Time (sec): 1.000000E-2
Scans to average: 100
Electric dark correction enabled: true
Nonlinearity correction enabled: false
Boxcar width: 0
XAxis mode: Wavelengths
Number of Pixels in Spectrum: 2048
>>>>>Begin Spectral Data<<<<<
189.047	57.36
189.435	57.36
189.823	57.36
190.211	-181.25
190.599	-95.28
190.987	79.71
191.375	-0.23
191.763	-67.51
192.151	235.9
192.538	923.99
192.926	17.95
193.314	79.3
193.702	56.27
194.089	161.12
194.477	33.86
194.864	-105.54
195.252	75.86
195.639	-177.02
196.027	-3.77
196.414	76.02
196.801	7.25
197.189	85.43
197.576	257.56
197.963	-30.69
198.351	30.17
198.738	-63.36
199.125	11.91
199.512	37.59
199.899	23.54
200.286	19.02
200.673	29.38
201.06	14.46
201.447	75.07
201.833	15.93
202.22	-7.33
202.607	-7.76
202.994	11.39
203.38	-38.88
203.767	0.71
204.154	8.7
204.54	-13.46
204.927	10.74
205.313	2.82
205.699	-25.02
206.086	-8.29
206.472	22.13
206.858	4.49
207.245	-8.97
207.631	-9.38
208.017	-13.57
208.403	-73.32
208.789	36.31
209.175	4.02
209.561	43.32
209.947	15.14
210.333	25.81
210.719	-13.97
211.105	-0.94
211.491	-4.65
211.876	-17.06
212.262	36.8
212.648	12.38
213.034	1.49
213.419	-1.15
213.805	-19.06
214.19	-23.04
214.576	-24.73
214.961	-4.84
215.346	5.83
215.732	11.65
216.117	-4.11
216.502	30.93
216.888	-4.59
217.273	-2.74
217.658	16.76
218.043	19.13
218.428	11.97
218.813	17.09
219.198	4.09
219.583	11.88
219.968	15.7
220.353	-4.89
220.738	38.94
221.122	16.96
221.507	0.68
221.892	-4.01
222.276	8.39
222.661	5.35
223.046	12.21
223.43	3.31
223.815	4.67
224.199	2.21
224.583	2.95
224.968	8.08
225.352	13.95
225.736	8.05
226.121	-3.52
226.505	4.56
226.889	1.56
227.273	-0.29
227.657	3.23
228.041	0.33
228.425	3.17
228.809	5.63
229.193	3.96
229.577	1.37
229.961	2.94
230.344	2.55
230.728	3.53
231.112	2.13
231.495	2.8
231.879	4.63
232.263	4.5
232.646	2.7
233.03	2.6
233.413	0.68
233.797	2.15
234.18	1.81
234.563	0.6
234.946	2.68
235.33	2.42
235.713	1.75
236.096	2.97
236.479	3.82
236.862	2.48
237.245	2.96
237.628	2.16
238.011	3.88
238.394	4.72
238.777	3.39
239.16	2.41
239.543	2.25
239.925	3.13
240.308	1.64
240.691	4.64
241.073	3.59
241.456	2.74
241.838	3.24
242.221	2.43
242.603	2.84
242.986	3.73
243.368	2.95
243.75	3.5
244.133	3.27
244.515	3.12
244.897	3.06
245.279	2.35
245.661	4
246.043	3.38
246.425	3.93
246.807	2.85
247.189	3.22
247.571	3.32
247.953	2.83
248.335	3.1
248.717	3.1
249.098	3.18
249.48	2.89
249.862	3.35
250.243	2.85
250.625	3.4
251.006	3.43
251.388	2.96
251.769	3.18
252.151	3.69
252.532	3.48
252.913	2.67
253.295	3.35
253.676	3.34
254.057	2.77
254.438	3.25
254.819	3.31
255.2	3.25
255.581	2.72
255.962	3.64
256.343	2.92
256.724	3.9
257.105	3.09
257.486	3.42
257.867	4.16
258.247	3.36
258.628	3
259.009	2.03
259.389	2.95
259.77	2.8
260.15	3.27
260.531	3.08
260.911	2.73
261.292	3.19
261.672	3.23
262.052	3.26
262.432	3.39
262.813	3.14
263.193	3.66
263.573	3.31
263.953	3.01
264.333	3.06
264.713	2.95
265.093	3.37
265.473	3.23
265.853	3.4
266.233	3.03
266.612	2.91
266.992	2.81
267.372	3.58
267.752	2.9
268.131	3.56
268.511	3.02
268.89	2.83
269.27	3.06
269.649	2.85
270.029	2.64
270.408	2.73
270.787	3.11
271.167	2.8
271.546	2.99
271.925	3.1
272.304	3.04
272.683	2.49
273.062	2.55
273.441	2.6
273.82	3.27
274.199	2.8
274.578	2.81
274.957	2.92
275.336	3.04
275.715	3.35
276.093	3.69
276.472	3.14
276.851	3.01
277.229	2.39
277.608	2.78
277.986	2.6
278.365	2.79
278.743	2.49
279.122	3.53
279.5	3.08
279.878	3.57
280.257	2.67
280.635	2.77
281.013	3.25
281.391	3.2
281.769	3.03
282.147	2.85
282.525	2.99
282.903	3.07
283.281	2.89
283.659	2.85
284.037	2.35
284.415	3.16
284.792	2.73
285.17	3.42
285.548	2.56
285.925	2.8
286.303	2.75
286.68	3.23
287.058	3.06
287.435	2.92
287.813	2.94
288.19	2.87
288.567	2.92
288.945	3.09
289.322	2.82
289.699	2.67
290.076	3.1
290.453	2.68
290.83	2.95
291.207	3.58
291.584	3.08
291.961	2.82
292.338	2.6
292.715	3.14
293.092	3.38
293.469	2.88
293.845	2.99
294.222	3.22
294.599	4.06
294.975	3.27
295.352	3.6
295.728	3.41
296.105	3.45
296.481	2.84
296.858	2.96
297.234	3.13
297.61	3.33
297.986	3.17
298.363	3.22
298.739	3.21
299.115	3.32
299.491	3.24
299.867	3.08
300.243	3.45
300.619	3.26
300.995	3.06
301.371	3.17
301.746	2.7
302.122	3.74
302.498	3.42
302.874	3.79
303.249	3.75
303.625	3.21
304	3.71
304.376	2.86
304.751	3.32
305.127	3.65
305.502	3.44
305.878	4.14
306.253	3.36
306.628	3.59
307.003	3.38
307.378	3
307.754	3.58
308.129	3.79
308.504	3.58
308.879	3.32
309.254	4.02
309.629	3.41
310.003	3.71
310.378	3.72
310.753	3.92
311.128	3.6
311.502	3.73
311.877	4.09
312.252	3.56
312.626	3.82
313.001	3.94
313.375	4.11
313.75	3.56
314.124	3.58
314.498	3.37
314.873	4.08
315.247	4.05
315.621	4.05
315.995	3.75
316.369	4.13
316.743	3.51
317.117	4.09
317.491	4.5
317.865	4.24
318.239	4.1
318.613	4.45
318.987	4.67
319.361	4.26
319.734	3.87
320.108	4.08
320.482	4.02
320.855	4.27
321.229	4.4
321.602	3.69
321.976	4.21
322.349	3.97
322.723	4.57
323.096	4.44
323.469	4.16
323.843	4.91
324.216	4.39
324.589	4.83
324.962	3.83
325.335	4.23
325.708	4.4
326.081	4.78
326.454	4.64
326.827	4.06
327.2	4.42
327.573	4.45
327.945	4.71
328.318	4.07
328.691	4.75
329.063	4.68
329.436	3.93
329.809	4.63
330.181	4.18
330.553	4.58
330.926	4.41
331.298	4.13
331.671	4.38
332.043	4.74
332.415	4.6
332.787	4.8
333.159	5.03
333.532	4.91
333.904	5.06
334.276	4.78
334.648	4.37
335.02	4.66
335.391	4.37
335.763	5.08
336.135	5.02
336.507	4.15
336.879	5
337.25	4.27
337.622	4.63
337.993	4.48
338.365	4.87
338.736	4.59
339.108	4.9
339.479	4.93
339.851	4.67
340.222	4.94
340.593	4.93
340.964	5.28
341.336	5.01
341.707	4.71
342.078	4.63
342.449	4.75
342.82	4.85
343.191	4.87
343.562	5.02
343.933	4.96
344.303	4.74
344.674	4.68
345.045	5.1
345.416	5.21
345.786	4.84
346.157	4.82
346.527	4.99
346.898	5.11
347.268	4.74
347.639	4.77
348.009	4.79
348.38	5.12
348.75	4.42
349.12	5.3
349.49	5.08
349.861	5.17
350.231	5.18
350.601	5.37
350.971	5.03
351.341	5.6
351.711	5.05
352.081	4.94
352.45	5.31
352.82	5.12
353.19	5.01
353.56	5.31
353.929	5
354.299	5.76
354.669	5.11
355.038	5.34
355.408	4.88
355.777	5.56
356.147	5.81
356.516	4.95
356.885	5.24
357.254	5.32
357.624	5.43
357.993	4.97
358.362	5.37
358.731	5.56
359.1	5.16
359.469	5.52
359.838	5.58
360.207	5.74
360.576	5.17
360.945	5.56
361.314	5.44
361.682	5.58
362.051	5.38
362.42	5.16
362.788	5.36
363.157	5.31
363.525	5.49
363.894	5.55
364.262	5.91
364.631	5.45
364.999	5.4
365.367	5.77
365.735	5.36
366.104	5.64
366.472	5.22
366.84	5.69
367.208	5.64
367.576	5.65
367.944	5.77
368.312	5.29
368.68	5.85
369.048	5.47
369.416	5.63
369.783	5.72
370.151	6.2
370.519	5.71
370.886	6.07
371.254	5.73
371.621	5.54
371.989	5.8
372.356	5.49
372.724	5.72
373.091	5.83
373.458	5.47
373.826	6.02
374.193	5.71
374.56	5.6
374.927	5.71
375.294	5.98
375.661	6.23
376.028	5.77
376.395	6.19
376.762	5.9
377.129	6.1
377.496	5.8
377.863	5.95
378.229	5.77
378.596	6.03
378.963	5.83
379.329	6.23
379.696	6.2
380.062	6.08
380.429	6.38
380.795	6.12
381.161	6.2
381.528	6.12
381.894	6.17
382.26	5.98
382.626	6.28
382.993	5.92
383.359	6.29
383.725	6.54
384.091	6.21
384.457	5.98
384.823	6.2
385.188	6.33
385.554	6.1
385.92	6.19
386.286	6
386.651	6.04
387.017	6.32
387.383	6.26
387.748	6.65
388.114	6.56
388.479	6.59
388.845	6.33
389.21	6.55
389.575	6.09
389.94	6.77
390.306	6.57
390.671	6.72
391.036	6.6
391.401	6.45
391.766	6.77
392.131	6.8
392.496	6.42
392.861	6.49
393.226	6.72
393.591	6.7
393.956	6.67
394.32	6.78
394.685	6.85
395.05	6.3
395.414	6.69
395.779	6.84
396.143	6.87
396.508	6.97
396.872	7.03
397.236	6.63
397.601	6.8
397.965	7.07
398.329	6.88
398.694	6.86
399.058	6.86
399.422	7.11
399.786	6.88
400.15	7.02
400.514	7.18
400.878	6.9
401.242	7.15
401.605	7.05
401.969	6.95
402.333	7.01
402.697	7.1
403.06	6.98
403.424	6.9
403.787	7.14
404.151	6.94
404.514	6.93
404.878	6.89
405.241	7.05
405.604	7.07
405.968	7.1
406.331	7.01
406.694	7.03
407.057	7.07
407.42	7.37
407.783	7.36
408.146	7.15
408.509	7.18
408.872	7.36
409.235	7.07
409.598	7.43
409.961	7.44
410.323	7.48
410.686	7.37
411.049	7.39
411.411	7.24
411.774	7.21
412.136	7.51
412.499	7.33
412.861	7.43
413.223	7.6
413.586	7.31
413.948	7.47
414.31	7.29
414.672	7.62
415.035	7.44
415.397	7.55
415.759	7.44
416.121	7.67
416.483	7.38
416.845	7.61
417.206	7.39
417.568	7.41
417.93	7.27
418.292	7.77
418.653	7.57
419.015	7.62
419.377	7.44
419.738	7.46
420.1	7.53
420.461	7.56
420.822	7.5
421.184	7.31
421.545	7.51
421.906	7.44
422.267	7.35
422.629	7.42
422.99	7.54
423.351	7.48
423.712	7.61
424.073	7.68
424.434	7.61
424.795	7.61
425.155	7.55
425.516	7.52
425.877	7.62
426.238	7.71
426.598	7.82
426.959	7.77
427.32	7.89
427.68	7.72
428.041	7.89
428.401	8
428.761	7.98
429.122	7.99
429.482	8.04
429.842	7.94
430.202	8.13
430.563	7.85
430.923	8.2
431.283	8.14
431.643	8.01
432.003	8.17
432.363	8.04
432.722	8.36
433.082	8.1
433.442	8.18
433.802	8.07
434.161	8.19
434.521	8.08
434.881	7.98
435.24	8.06
435.6	8.19
435.959	8.46
436.319	8.31
436.678	8.2
437.037	8.29
437.396	8.55
437.756	8.5
438.115	8.39
438.474	8.28
438.833	8.27
439.192	8.43
439.551	8.34
439.91	8.48
440.269	8.44
440.628	8.35
440.987	8.34
441.345	8.47
441.704	8.41
442.063	8.54
442.421	8.41
442.78	8.4
443.138	8.52
443.497	8.67
443.855	8.56
444.214	8.69
444.572	8.81
444.93	8.47
445.288	8.51
445.647	8.66
446.005	8.58
446.363	8.47
446.721	8.5
447.079	8.6
447.437	8.58
447.795	8.58
448.153	8.52
448.51	8.67
448.868	8.7
449.226	8.76
449.584	8.76
449.941	8.93
450.299	8.89
450.656	8.87
451.014	8.98
451.371	9.02
451.729	8.96
452.086	9.17
452.443	8.88
452.801	9.07
453.158	9.03
453.515	9.08
453.872	8.82
454.229	9.03
454.586	9.09
454.943	9.11
455.3	9.16
455.657	9.15
456.014	9.1
456.371	9.23
456.727	9.32
457.084	9.22
457.441	9.41
457.797	9.43
458.154	9.31
458.51	9.27
458.867	9.33
459.223	9.48
459.58	9.27
459.936	9.36
460.292	9.25
460.648	9.16
461.005	8.94
461.361	9.07
461.717	9.32
462.073	9.48
462.429	9.57
462.785	9.71
463.141	9.73
463.496	9.69
463.852	9.61
464.208	9.86
464.564	9.68
464.919	9.73
465.275	9.81
465.631	9.59
465.986	9.63
466.342	9.65
466.697	9.61
467.052	9.77
467.408	9.83
467.763	9.64
468.118	9.73
468.473	10
468.829	9.83
469.184	9.95
469.539	10.09
469.894	9.86
470.249	10.11
470.603	9.97
470.958	10.03
471.313	10.01
471.668	9.94
472.023	10.08
472.377	10.02
472.732	10.12
473.086	10.14
473.441	10.16
473.795	10.27
474.15	10.06
474.504	10.05
474.859	10.3
475.213	10.25
475.567	10.46
475.921	10.3
476.275	10.6
476.63	10.52
476.984	10.41
477.338	10.27
477.692	10.16
478.045	10.41
478.399	10.38
478.753	10.37
479.107	10.35
479.461	10.36
479.814	10.36
480.168	10.41
480.521	10.5
480.875	10.46
481.228	10.35
481.582	10.48
481.935	10.45
482.289	10.34
482.642	10.22
482.995	10.37
483.348	10.42
483.701	10.34
484.055	10.2
484.408	10
484.761	9.89
485.114	9.63
485.466	9.71
485.819	10.03
486.172	10.36
486.525	10.58
486.878	10.59
487.23	10.64
487.583	10.55
487.936	10.46
488.288	10.26
488.641	10.2
488.993	10.19
489.345	10.25
489.698	10.38
490.05	10.56
490.402	10.76
490.754	10.88
491.107	10.95
491.459	10.99
491.811	10.9
492.163	10.67
492.515	10.57
492.866	10.41
493.218	10.41
493.57	10.7
493.922	10.93
494.274	11.07
494.625	11.25
494.977	11.26
495.328	11.31
495.68	11.31
496.031	11.32
496.383	11.42
496.734	11.3
497.086	11.29
497.437	11.33
497.788	11.31
498.139	11.12
498.49	11.25
498.842	11.31
499.193	11.32
499.544	11.48
499.894	11.43
500.245	11.51
500.596	11.54
500.947	11.49
501.298	11.71
501.648	11.67
501.999	11.82
502.35	11.8
502.7	11.76
503.051	11.86
503.401	11.92
503.752	11.83
504.102	11.8
504.452	11.92
504.803	11.83
505.153	11.78
505.503	11.94
505.853	11.78
506.203	11.89
506.553	12.02
506.903	11.94
507.253	12.1
507.603	12.1
507.953	12.23
508.303	12.1
508.652	11.96
509.002	11.93
509.352	12.01
509.701	12.07
510.051	12
510.4	12.02
510.75	12
511.099	12.03
511.449	12.25
511.798	12.22
512.147	12.28
512.496	12.4
512.846	12.36
513.195	12.52
513.544	12.35
513.893	12.27
514.242	12.27
514.591	12.36
514.939	12.48
515.288	12.49
515.637	12.55
515.986	12.6
516.334	12.44
516.683	12.61
517.032	12.54
517.38	12.6
517.729	12.6
518.077	12.65
518.426	12.65
518.774	12.65
519.122	12.6
519.47	12.43
519.819	12.35
520.167	12.4
520.515	12.54
520.863	12.64
521.211	12.74
521.559	12.94
521.907	12.81
522.255	12.85
522.602	13.05
522.95	12.98
523.298	12.97
523.645	13.1
523.993	12.94
524.341	13.24
524.688	13.26
525.036	13.24
525.383	13.1
525.73	13.14
526.078	12.99
526.425	12.96
526.772	12.93
527.119	12.81
527.466	12.92
527.814	13
528.161	13.03
528.508	13.11
528.854	13.03
529.201	12.82
529.548	12.58
529.895	12.4
530.242	12.49
530.588	12.75
530.935	13.03
531.282	13.1
531.628	13.24
531.975	13.4
532.321	13.46
532.667	13.45
533.014	13.49
533.36	13.44
533.706	13.25
534.052	13.21
534.399	13.2
534.745	13.04
535.091	13.17
535.437	13.38
535.783	13.43
536.129	13.7
536.474	13.76
536.82	13.82
537.166	13.8
537.512	13.67
537.857	13.55
538.203	13.52
538.549	13.67
538.894	13.87
539.239	13.93
539.585	14.18
539.93	14.27
540.276	14.38
540.621	14.17
540.966	13.96
541.311	14.12
541.656	14.05
542.001	13.77
542.346	13.57
542.691	13.45
543.036	13.45
543.381	13.81
543.726	13.97
544.071	14.1
544.415	14.13
544.76	13.99
545.105	14.22
545.449	14.33
545.794	14.49
546.138	14.6
546.483	14.5
546.827	14.57
547.171	14.37
547.516	14.48
547.86	14.44
548.204	14.58
548.548	14.48
548.892	14.68
549.236	14.76
549.58	14.89
549.924	15.02
550.268	14.92
550.612	15.25
550.956	15.05
551.3	15.19
551.643	14.82
551.987	15.13
552.33	15.13
552.674	15.13
553.017	15.15
553.361	15.19
553.704	15.22
554.048	15.12
554.391	15.33
554.734	15.17
555.077	15.26
555.42	15.34
555.764	15.39
556.107	15.26
556.45	15.49
556.793	15.46
557.135	15.72
557.478	15.55
557.821	15.55
558.164	15.56
558.507	15.59
558.849	15.85
559.192	15.74
559.534	15.9
559.877	15.95
560.219	15.98
560.562	15.89
560.904	15.83
561.246	15.81
561.589	16.05
561.931	15.92
562.273	16.08
562.615	16.08
562.957	15.74
563.299	15.91
563.641	16
563.983	16.39
564.325	16.15
564.667	16.17
565.008	16.22
565.35	16.25
565.692	16.19
566.033	16
566.375	16.39
566.716	16.18
567.058	16.06
567.399	16.14
567.741	16.18
568.082	16.12
568.423	16.38
568.764	16.37
569.105	16.39
569.447	16.6
569.788	16.56
570.129	16.63
570.47	16.5
570.811	16.46
571.151	16.52
571.492	16.5
571.833	16.45
572.174	16.6
572.514	16.66
572.855	16.61
573.195	16.55
573.536	16.48
573.876	16.68
574.217	16.67
574.557	16.83
574.898	16.92
575.238	17.17
575.578	16.92
575.918	16.87
576.258	16.89
576.598	17
576.938	17.07
577.278	17
577.618	16.98
577.958	17.17
578.298	17.07
578.638	17.14
578.977	17.23
579.317	17.28
579.657	17.3
579.996	17.43
580.336	17.58
580.675	17.66
581.014	17.56
581.354	17.69
581.693	17.58
582.032	17.41
582.372	17.65
582.711	17.61
583.05	17.79
583.389	17.76
583.728	17.96
584.067	17.55
584.406	17.89
584.745	17.95
585.083	17.7
585.422	17.97
585.761	17.9
586.1	18.01
586.438	18
586.777	18.28
587.115	18.05
587.454	18
587.792	17.94
588.13	18.04
588.469	18.24
588.807	18.07
589.145	18.17
589.483	18.2
589.821	18.15
590.159	18.07
590.497	18.48
590.835	18.18
591.173	18.41
591.511	18.4
591.849	18.58
592.187	18.1
592.524	18.39
592.862	18.5
593.2	18.36
593.537	18.64
593.875	18.65
594.212	18.57
594.55	18.67
594.887	18.4
595.224	18.72
595.561	18.5
595.899	18.8
596.236	18.85
596.573	18.92
596.91	18.52
597.247	18.69
597.584	18.67
597.921	18.63
598.258	18.48
598.594	18.6
598.931	18.94
599.268	18.58
599.604	18.95
599.941	19.03
600.277	19.04
600.614	19.19
600.95	19.55
601.287	19.13
601.623	19.25
601.959	19.24
602.296	19.2
602.632	18.93
602.968	19.35
603.304	19
603.64	19.38
603.976	19.24
604.312	19.36
604.648	19.02
604.984	19.26
605.319	19.2
605.655	19.45
605.991	19.34
606.326	19.35
606.662	19.36
606.998	19.64
607.333	19.56
607.668	19.67
608.004	19.56
608.339	19.76
608.674	19.83
609.01	19.65
609.345	20.17
609.68	19.68
610.015	19.82
610.35	19.49
610.685	19.51
611.02	19.43
611.355	19.7
611.689	19.87
612.024	19.83
612.359	19.86
612.694	19.76
613.028	20.07
613.363	20.22
613.697	20.31
614.032	20.52
614.366	20.21
614.7	20.29
615.035	20.15
615.369	20.48
615.703	20.72
616.037	20.47
616.371	20.37
616.705	20.11
617.039	20.54
617.373	20.56
617.707	20.59
618.041	20.43
618.375	20.57
618.709	20.63
619.042	20.47
619.376	20.58
619.71	20.78
620.043	20.33
620.377	20.89
620.71	20.47
621.043	20.82
621.377	20.61
621.71	20.41
622.043	20.49
622.376	21.13
622.709	21.56
623.043	21.04
623.376	21.49
623.709	21.06
624.041	20.88
624.374	20.88
624.707	20.97
625.04	21.11
625.373	21.54
625.705	20.95
626.038	21.33
626.37	21.34
626.703	21.23
627.035	21.46
627.368	21.29
627.7	21.28
628.032	21.31
628.365	21.38
628.697	21.56
629.029	21.31
629.361	21.37
629.693	21.47
630.025	21.93
630.357	21.76
630.689	21.78
631.021	21.69
631.353	22.16
631.684	21.96
632.016	21.44
632.348	22.04
632.679	21.39
633.011	22
633.342	21.81
633.674	21.77
634.005	21.97
634.336	21.82
634.668	21.79
634.999	21.96
635.33	22.01
635.661	21.94
635.992	22.16
636.323	22.49
636.654	22.12
636.985	22.26
637.316	21.83
637.647	22.39
637.977	22.78
638.308	22.23
638.639	22.44
638.969	22.49
639.3	22.6
639.63	22.43
639.961	22.61
640.291	22.17
640.622	22.69
640.952	22.53
641.282	22.66
641.612	22.69
641.943	22.9
642.273	23.13
642.603	22.35
642.933	22.86
643.263	22.99
643.592	22.92
643.922	22.94
644.252	23.11
644.582	22.79
644.911	23.07
645.241	22.78
645.571	22.95
645.9	23.51
646.23	22.98
646.559	23.3
646.888	23.38
647.218	23.16
647.547	23.19
647.876	23.09
648.205	23
648.534	23.07
648.863	22.87
649.192	23.34
649.521	23.15
649.85	23.7
650.179	23.48
650.508	23.06
650.837	23.67
651.165	23.5
651.494	23.46
651.822	23.72
652.151	23.35
652.479	23.31
652.808	23.76
653.136	23.64
653.465	23.83
653.793	23.52
654.121	23.71
654.449	23.59
654.777	23.68
655.105	24.09
655.433	23.48
655.761	23.64
656.089	23.81
656.417	23.81
656.745	24.08
657.073	24.15
657.4	23.73
657.728	24.06
658.056	23.98
658.383	23.38
658.711	24.42
659.038	24.38
659.365	23.99
659.693	24.48
660.02	24.49
660.347	23.74
660.674	24.46
661.001	24.07
661.329	23.93
661.656	23.85
661.982	23.99
662.309	24.09
662.636	24.58
662.963	24.04
663.29	24.42
663.616	24.87
663.943	24.86
664.27	24.82
664.596	24.69
664.923	24.26
665.249	24.46
665.576	24.91
665.902	24.84
666.228	24.7
666.554	24.53
666.881	25
667.207	25.15
667.533	24.98
667.859	24.63
668.185	25.37
668.511	25.29
668.837	25.16
669.162	24.75
669.488	25.06
669.814	25.07
670.139	25.4
670.465	25.22
670.791	25.77
671.116	25.25
671.442	25.3
671.767	25.52
672.092	25.28
672.418	25.34
672.743	25.46
673.068	25.14
673.393	25.39
673.718	25.66
674.043	25.34
674.368	25.43
674.693	25.02
675.018	25.42
675.343	25.25
675.667	25.89
675.992	25.72
676.317	25.68
676.641	25.75
676.966	25.73
677.29	25.62
677.615	25.86
677.939	25.33
678.264	25.45
678.588	25.93
678.912	26
679.236	26.44
679.56	25.72
