Data from 0028_chest_Reflection__0__106.txt Node

Date: Thu Oct 20 21:46:50 CDT 2022
User: ToomeyLab
Spectrometer: FLMS14357
Trigger mode: 0
Integration Time (sec): 1.000000E-2
Scans to average: 100
Electric dark correction enabled: true
Nonlinearity correction enabled: false
Boxcar width: 0
XAxis mode: Wavelengths
Number of Pixels in Spectrum: 2048
>>>>>Begin Spectral Data<<<<<
189.047	94.92
189.435	94.92
189.823	94.92
190.211	-110.22
190.599	-16.35
190.987	-8.72
191.375	30.29
191.763	-5.23
192.151	145.91
192.538	265.32
192.926	24.82
193.314	237.62
193.702	209.38
194.089	145.91
194.477	-17.69
194.864	25.28
195.252	90.4
195.639	-41.18
196.027	39.03
196.414	147.91
196.801	-52.95
197.189	105.23
197.576	294.66
197.963	-76.98
198.351	-11.64
198.738	-91.34
199.125	18.98
199.512	-16.81
199.899	-1.27
200.286	-6.84
200.673	14.88
201.06	21.63
201.447	76.23
201.833	-10.76
202.22	17.09
202.607	24.27
202.994	53.92
203.38	-63.08
203.767	-13.45
204.154	-13.37
204.54	-32.54
204.927	3.7
205.313	45.08
205.699	8.06
206.086	9.76
206.472	9.35
206.858	13.12
207.245	20.13
207.631	8.49
208.017	-8.49
208.403	-41.13
208.789	14.43
209.175	40.73
209.561	21.35
209.947	4.46
210.333	12.53
210.719	14.99
211.105	13.54
211.491	-26.21
211.876	-14.67
212.262	6.58
212.648	3.92
213.034	30.03
213.419	-41.61
213.805	-31.49
214.19	8.01
214.576	-33.42
214.961	-3.48
215.346	-7.77
215.732	2.83
216.117	-5.68
216.502	24.82
216.888	0.12
217.273	-14.68
217.658	4.44
218.043	13.57
218.428	-4.86
218.813	18.62
219.198	7.45
219.583	0.33
219.968	19.15
220.353	-9.19
220.738	7.08
221.122	13.21
221.507	-2.77
221.892	3.46
222.276	11.72
222.661	9.37
223.046	9.6
223.43	-7.7
223.815	0.87
224.199	3.41
224.583	-3.41
224.968	5.52
225.352	9.92
225.736	5.97
226.121	3.73
226.505	2.61
226.889	0.11
227.273	0.69
227.657	3.83
228.041	-0.38
228.425	2.83
228.809	4.95
229.193	3.84
229.577	2.3
229.961	4.23
230.344	3.4
230.728	3.44
231.112	3.14
231.495	3.6
231.879	3.38
232.263	3.4
232.646	2.65
233.03	2.39
233.413	2.56
233.797	3.85
234.18	2.33
234.563	2.55
234.946	2.76
235.33	3.05
235.713	3.18
236.096	2.99
236.479	4.27
236.862	3.68
237.245	4.36
237.628	3.87
238.011	3.68
238.394	6.49
238.777	2.71
239.16	4.16
239.543	3.16
239.925	2.42
240.308	2.5
240.691	4.18
241.073	2.28
241.456	4.85
241.838	2.25
242.221	3.57
242.603	3.66
242.986	3.6
243.368	3.37
243.75	3.63
244.133	4.13
244.515	4.12
244.897	3.32
245.279	2.35
245.661	4.36
246.043	4.42
246.425	4.05
246.807	4.25
247.189	4.23
247.571	4.55
247.953	3.58
248.335	3.8
248.717	3.63
249.098	3.75
249.48	3.6
249.862	3.31
250.243	3.5
250.625	3.95
251.006	4.18
251.388	3.44
251.769	4.04
252.151	3.96
252.532	3.27
252.913	3.73
253.295	4.35
253.676	4.15
254.057	3.01
254.438	3.33
254.819	4.02
255.2	3.67
255.581	3.71
255.962	3.95
256.343	3.4
256.724	3.93
257.105	3.46
257.486	3.85
257.867	4.38
258.247	4.87
258.628	4.19
259.009	3.64
259.389	3.98
259.77	3.71
260.15	3.34
260.531	3.88
260.911	3.64
261.292	3.73
261.672	3.48
262.052	3.62
262.432	3.96
262.813	3.7
263.193	3.63
263.573	3.59
263.953	3.94
264.333	4.01
264.713	3.23
265.093	3.67
265.473	4.38
265.853	4.32
266.233	4.84
266.612	4.2
266.992	2.64
267.372	4.36
267.752	3.61
268.131	4.2
268.511	3.62
268.89	3.41
269.27	3.26
269.649	3.24
270.029	3.04
270.408	2.99
270.787	3.55
271.167	3.71
271.546	2.87
271.925	3.37
272.304	4
272.683	3.69
273.062	3.03
273.441	3.65
273.82	4.17
274.199	3.34
274.578	3.1
274.957	3.42
275.336	3.54
275.715	3.48
276.093	3.69
276.472	3.82
276.851	3.74
277.229	2.99
277.608	3.07
277.986	3.46
278.365	3.25
278.743	3.62
279.122	3.48
279.5	3.65
279.878	3.28
280.257	3.85
280.635	3.71
281.013	3.1
281.391	4.24
281.769	3.93
282.147	3.36
282.525	3.02
282.903	3.13
283.281	3
283.659	3.54
284.037	3.08
284.415	3.22
284.792	3.11
285.17	3.88
285.548	3.12
285.925	3.3
286.303	3.45
286.68	3.97
287.058	3.67
287.435	3.19
287.813	3.29
288.19	3.54
288.567	3.44
288.945	3.7
289.322	3.24
289.699	3.53
290.076	3.66
290.453	3.36
290.83	3.6
291.207	3.77
291.584	3.4
291.961	3.6
292.338	3.13
292.715	3.39
293.092	4.13
293.469	3.33
293.845	3.44
294.222	4.13
294.599	3.9
294.975	3.53
295.352	4.12
295.728	3.71
296.105	3.92
296.481	3.3
296.858	3.87
297.234	3.97
297.61	3.77
297.986	3.74
298.363	3.63
298.739	3.9
299.115	3.98
299.491	3.88
299.867	3.44
300.243	3.67
300.619	4.04
300.995	3.56
301.371	3.69
301.746	3.54
302.122	4.28
302.498	4.04
302.874	4.56
303.249	4.43
303.625	3.63
304	4.38
304.376	3.78
304.751	4.02
305.127	3.56
305.502	4.28
305.878	4.12
306.253	3.7
306.628	3.88
307.003	4.1
307.378	3.71
307.754	4.07
308.129	3.82
308.504	3.89
308.879	4.23
309.254	4.04
309.629	4.02
310.003	3.92
310.378	4.12
310.753	4.56
311.128	4.05
311.502	4.07
311.877	4.36
312.252	3.86
312.626	4.38
313.001	4.09
313.375	4.19
313.75	3.92
314.124	3.8
314.498	4.2
314.873	4.17
315.247	4.03
315.621	3.85
315.995	4.15
316.369	4.3
316.743	3.51
317.117	4.01
317.491	4.33
317.865	4.42
318.239	4.72
318.613	4.6
318.987	4.13
319.361	4.47
319.734	4.11
320.108	4.37
320.482	4.09
320.855	4.42
321.229	4.38
321.602	3.55
321.976	4.07
322.349	4.28
322.723	4.36
323.096	4.64
323.469	4.42
323.843	4.59
324.216	4.13
324.589	4.93
324.962	4.49
325.335	4.79
325.708	4.74
326.081	4.84
326.454	4.4
326.827	4.52
327.2	4.88
327.573	4.7
327.945	4.17
328.318	4.39
328.691	4.93
329.063	4.8
329.436	4.47
329.809	4.54
330.181	4.28
330.553	4.09
330.926	4.63
331.298	4.1
331.671	4.84
332.043	4.66
332.415	4.66
332.787	4.78
333.159	4.41
333.532	4.81
333.904	4.5
334.276	4.73
334.648	4.29
335.02	4.52
335.391	4.45
335.763	4.71
336.135	4.66
336.507	4.21
336.879	4.87
337.25	4.26
337.622	4.54
337.993	4.23
338.365	4.75
338.736	4.28
339.108	4.61
339.479	4.97
339.851	4.1
340.222	4.5
340.593	4.65
340.964	5.03
341.336	4.4
341.707	4.53
342.078	4.64
342.449	4.34
342.82	4.47
343.191	4.36
343.562	4.52
343.933	4.54
344.303	4.65
344.674	4.6
345.045	5.01
345.416	4.68
345.786	4.9
346.157	4.7
346.527	4.47
346.898	4.78
347.268	4.74
347.639	4.82
348.009	4.55
348.38	4.77
348.75	4.43
349.12	4.63
349.49	5.09
349.861	4.77
350.231	4.52
350.601	4.74
350.971	4.78
351.341	4.9
351.711	4.64
352.081	4.52
352.45	4.61
352.82	4.5
353.19	4.7
353.56	4.94
353.929	4.8
354.299	5.01
354.669	5.1
355.038	4.77
355.408	4.02
355.777	4.82
356.147	4.74
356.516	4.62
356.885	4.57
357.254	4.77
357.624	4.52
357.993	4.32
358.362	4.75
358.731	4.96
359.1	4.43
359.469	4.62
359.838	4.64
360.207	5.19
360.576	4.48
360.945	5.01
361.314	4.76
361.682	4.57
362.051	4.8
362.42	4.7
362.788	4.68
363.157	4.5
363.525	4.64
363.894	4.46
364.262	4.98
364.631	4.61
364.999	4.58
365.367	4.85
365.735	4.73
366.104	4.37
366.472	4.25
366.84	4.91
367.208	4.53
367.576	4.81
367.944	4.89
368.312	4.74
368.68	4.96
369.048	4.48
369.416	4.6
369.783	4.73
370.151	5.1
370.519	4.86
370.886	4.4
371.254	4.96
371.621	4.7
371.989	4.92
372.356	4.5
372.724	4.93
373.091	4.87
373.458	4.55
373.826	4.76
374.193	4.81
374.56	4.66
374.927	4.38
375.294	4.84
375.661	5.35
376.028	4.65
376.395	5.14
376.762	4.72
377.129	4.78
377.496	4.45
377.863	4.69
378.229	4.62
378.596	4.75
378.963	4.84
379.329	4.94
379.696	4.7
380.062	4.8
380.429	5.03
380.795	4.72
381.161	5.28
381.528	4.41
381.894	4.51
382.26	4.75
382.626	4.82
382.993	4.73
383.359	5.12
383.725	4.79
384.091	4.88
384.457	4.9
384.823	4.61
385.188	4.77
385.554	4.62
385.92	4.64
386.286	4.76
386.651	4.85
387.017	4.73
387.383	4.89
387.748	5
388.114	4.91
388.479	4.98
388.845	4.9
389.21	5.06
389.575	4.88
389.94	5.01
390.306	5.29
390.671	4.86
391.036	5
391.401	4.7
391.766	5.01
392.131	4.86
392.496	5.01
392.861	4.77
393.226	4.92
393.591	4.95
393.956	5.05
394.32	5.01
394.685	5.03
395.05	5.04
395.414	4.99
395.779	4.89
396.143	5.06
396.508	4.86
396.872	4.93
397.236	4.9
397.601	5.22
397.965	5.24
398.329	4.98
398.694	5.07
399.058	4.97
399.422	5.29
399.786	5.03
400.15	5.04
400.514	5.24
400.878	4.88
401.242	5.04
401.605	5.15
401.969	5.3
402.333	4.93
402.697	5.22
403.06	4.95
403.424	4.91
403.787	4.96
404.151	4.99
404.514	4.93
404.878	4.87
405.241	5.05
405.604	5.12
405.968	5.09
406.331	5.1
406.694	4.94
407.057	5.09
407.42	5.08
407.783	4.94
408.146	4.98
408.509	4.91
408.872	5
409.235	5.01
409.598	5.22
409.961	5.11
410.323	5.23
410.686	4.98
411.049	5.06
411.411	4.86
411.774	4.88
412.136	5.07
412.499	5.19
412.861	4.99
413.223	5.13
413.586	4.98
413.948	4.99
414.31	5.08
414.672	5.14
415.035	5.24
415.397	5.08
415.759	5.41
416.121	5.07
416.483	5.11
416.845	5.16
417.206	5.19
417.568	5.2
417.93	4.98
418.292	5.36
418.653	5.07
419.015	5.26
419.377	5.04
419.738	5.18
420.1	5.17
420.461	5.17
420.822	5.12
421.184	4.99
421.545	5.08
421.906	5.03
422.267	4.94
422.629	5.07
422.99	5.02
423.351	4.96
423.712	5.01
424.073	5.05
424.434	5.12
424.795	5.09
425.155	5.03
425.516	5.07
425.877	5.04
426.238	5.06
426.598	5.05
426.959	5.12
427.32	5.2
427.68	5.15
428.041	5.2
428.401	5.1
428.761	5.23
429.122	5.12
429.482	5.1
429.842	5.14
430.202	5.42
430.563	5.24
430.923	5.31
431.283	5.18
431.643	5.32
432.003	5.38
432.363	5.54
432.722	5.37
433.082	5.23
433.442	5.34
433.802	5.29
434.161	5.35
434.521	5.13
434.881	5.16
435.24	5.2
435.6	5.12
435.959	5.34
436.319	5.18
436.678	5.08
437.037	5.19
437.396	5.3
437.756	5.32
438.115	5.34
438.474	5.12
438.833	5.19
439.192	5.21
439.551	5.28
439.91	5.39
440.269	5.25
440.628	5.3
440.987	5.19
441.345	5.28
441.704	5.25
442.063	5.34
442.421	5.25
442.78	5.26
443.138	5.21
443.497	5.25
443.855	5.23
444.214	5.4
444.572	5.38
444.93	5.25
445.288	5.31
445.647	5.26
446.005	5.34
446.363	5.33
446.721	5.23
447.079	5.25
447.437	5.26
447.795	5.22
448.153	5.26
448.51	5.28
448.868	5.29
449.226	5.31
449.584	5.3
449.941	5.4
450.299	5.35
450.656	5.41
451.014	5.41
451.371	5.43
451.729	5.39
452.086	5.46
452.443	5.44
452.801	5.36
453.158	5.36
453.515	5.46
453.872	5.34
454.229	5.44
454.586	5.5
454.943	5.42
455.3	5.43
455.657	5.35
456.014	5.41
456.371	5.37
456.727	5.31
457.084	5.43
457.441	5.58
457.797	5.56
458.154	5.49
458.51	5.36
458.867	5.31
459.223	5.75
459.58	5.42
459.936	5.57
460.292	5.43
460.648	5.48
461.005	5.37
461.361	5.39
461.717	5.43
462.073	5.5
462.429	5.56
462.785	5.68
463.141	5.66
463.496	5.66
463.852	5.51
464.208	5.64
464.564	5.65
464.919	5.77
465.275	5.73
465.631	5.4
465.986	5.63
466.342	5.39
466.697	5.64
467.052	5.64
467.408	5.77
467.763	5.6
468.118	5.69
468.473	5.78
468.829	5.61
469.184	5.57
469.539	5.65
469.894	5.61
470.249	5.78
470.603	5.52
470.958	5.71
471.313	5.62
471.668	5.58
472.023	5.57
472.377	5.66
472.732	5.58
473.086	5.87
473.441	5.64
473.795	5.83
474.15	5.63
474.504	5.53
474.859	5.76
475.213	5.78
475.567	5.82
475.921	5.53
476.275	5.8
476.63	5.84
476.984	5.69
477.338	5.89
477.692	5.75
478.045	5.85
478.399	5.76
478.753	5.7
479.107	5.77
479.461	5.84
479.814	5.74
480.168	5.87
480.521	5.77
480.875	5.96
481.228	5.76
481.582	5.76
481.935	5.78
482.289	5.72
482.642	5.69
482.995	5.71
483.348	5.83
483.701	5.59
484.055	5.61
484.408	5.52
484.761	5.49
485.114	5.43
485.466	5.4
485.819	5.46
486.172	5.49
486.525	5.55
486.878	5.63
487.23	5.68
487.583	5.62
487.936	5.75
488.288	5.65
488.641	5.58
488.993	5.58
489.345	5.56
489.698	5.59
490.05	5.58
490.402	5.7
490.754	5.67
491.107	5.67
491.459	5.88
491.811	5.73
492.163	5.73
492.515	5.63
492.866	5.7
493.218	5.59
493.57	5.6
493.922	5.72
494.274	5.77
494.625	5.81
494.977	5.95
495.328	5.81
495.68	5.9
496.031	6.05
496.383	6.09
496.734	6.01
497.086	5.96
497.437	5.95
497.788	6.02
498.139	5.91
498.49	6.04
498.842	5.9
499.193	5.96
499.544	6.02
499.894	6.02
500.245	6.05
500.596	6.09
500.947	5.94
501.298	6.06
501.648	6.06
501.999	6.06
502.35	6.12
502.7	6.13
503.051	6.19
503.401	6.19
503.752	6.11
504.102	6.22
504.452	6.14
504.803	6.11
505.153	6.17
505.503	6.3
505.853	6.12
506.203	6.11
506.553	6.28
506.903	6.14
507.253	6.14
507.603	6.22
507.953	6.3
508.303	6.24
508.652	6.3
509.002	6.2
509.352	6.27
509.701	6.22
510.051	6.1
510.4	6.15
510.75	6.07
511.099	6.17
511.449	6.26
511.798	6.26
512.147	6.27
512.496	6.45
512.846	6.36
513.195	6.41
513.544	6.35
513.893	6.25
514.242	6.26
514.591	6.35
514.939	6.41
515.288	6.36
515.637	6.42
515.986	6.38
516.334	6.38
516.683	6.43
517.032	6.37
517.38	6.36
517.729	6.41
518.077	6.38
518.426	6.48
518.774	6.45
519.122	6.44
519.47	6.33
519.819	6.34
520.167	6.26
520.515	6.34
520.863	6.45
521.211	6.49
521.559	6.51
521.907	6.4
522.255	6.49
522.602	6.4
522.95	6.54
523.298	6.61
523.645	6.53
523.993	6.47
524.341	6.66
524.688	6.6
525.036	6.66
525.383	6.62
525.73	6.53
526.078	6.44
526.425	6.6
526.772	6.56
527.119	6.44
527.466	6.56
527.814	6.53
528.161	6.62
528.508	6.57
528.854	6.61
529.201	6.51
529.548	6.47
529.895	6.38
530.242	6.38
530.588	6.42
530.935	6.48
531.282	6.5
531.628	6.54
531.975	6.65
532.321	6.68
532.667	6.73
533.014	6.65
533.36	6.68
533.706	6.66
534.052	6.63
534.399	6.7
534.745	6.66
535.091	6.59
535.437	6.71
535.783	6.71
536.129	6.76
536.474	6.92
536.82	6.86
537.166	6.91
537.512	6.91
537.857	6.78
538.203	6.85
538.549	6.81
538.894	6.89
539.239	6.92
539.585	7.02
539.93	7.07
540.276	7.18
540.621	7.03
540.966	7.02
541.311	7.14
541.656	7.2
542.001	7.04
542.346	6.97
542.691	6.86
543.036	6.81
543.381	6.87
543.726	6.9
544.071	6.99
544.415	7.06
544.76	6.99
545.105	7.1
545.449	7.12
545.794	7.17
546.138	7.26
546.483	7.24
546.827	7.26
547.171	7.2
547.516	7.21
547.86	7.36
548.204	7.34
548.548	7.29
548.892	7.27
549.236	7.46
549.58	7.34
549.924	7.51
550.268	7.5
550.612	7.46
550.956	7.44
551.3	7.64
551.643	7.57
551.987	7.69
552.33	7.66
552.674	7.61
553.017	7.75
553.361	7.77
553.704	7.86
554.048	7.77
554.391	7.57
554.734	7.65
555.077	7.81
555.42	7.61
555.764	7.64
556.107	7.72
556.45	7.63
556.793	7.76
557.135	8.03
557.478	7.82
557.821	8.07
558.164	7.67
558.507	7.97
558.849	7.87
559.192	8.05
559.534	8.1
559.877	8.04
560.219	8.23
560.562	8.15
560.904	8.01
561.246	8.14
561.589	8.28
561.931	7.97
562.273	8.05
562.615	8.1
562.957	8.17
563.299	8.22
563.641	8.12
563.983	8.25
564.325	8.17
564.667	8.24
565.008	8.18
565.35	8.3
565.692	8.36
566.033	8.04
566.375	8.2
566.716	8.42
567.058	8.3
567.399	8.25
567.741	8.24
568.082	8.4
568.423	8.43
568.764	8.27
569.105	8.53
569.447	8.54
569.788	8.49
570.129	8.65
570.47	8.4
570.811	8.48
571.151	8.57
571.492	8.55
571.833	8.59
572.174	8.49
572.514	8.66
572.855	8.76
573.195	8.61
573.536	8.61
573.876	8.44
574.217	8.78
574.557	8.83
574.898	8.71
575.238	8.99
575.578	9.01
575.918	8.83
576.258	8.81
576.598	8.96
576.938	8.76
577.278	8.7
577.618	9
577.958	8.92
578.298	8.91
578.638	9.11
578.977	9.15
579.317	9.11
579.657	9.1
579.996	9.12
580.336	9.21
580.675	9.36
581.014	9.34
581.354	9.44
581.693	9.26
582.032	9.5
582.372	9.54
582.711	9.25
583.05	9.39
583.389	9.35
583.728	9.58
584.067	9.5
584.406	9.46
584.745	9.35
585.083	9.38
585.422	9.51
585.761	9.67
586.1	9.64
586.438	9.91
586.777	9.66
587.115	9.61
587.454	9.71
587.792	9.53
588.13	9.75
588.469	10.01
588.807	9.75
589.145	9.79
589.483	9.74
589.821	9.71
590.159	10
590.497	9.9
590.835	9.89
591.173	9.93
591.511	9.99
591.849	9.9
592.187	9.72
592.524	10.11
592.862	9.82
593.2	10.16
593.537	10.05
593.875	10.29
594.212	10.07
594.55	10.05
594.887	9.9
595.224	10.42
595.561	10.27
595.899	10.41
596.236	10.38
596.573	10.61
596.91	10.26
597.247	10.39
597.584	10.27
597.921	10.36
598.258	10.21
598.594	10.37
598.931	10.34
599.268	10.41
599.604	10.64
599.941	10.38
600.277	10.37
600.614	10.56
600.95	10.56
601.287	10.56
601.623	10.56
601.959	10.48
602.296	10.5
602.632	10.35
602.968	10.96
603.304	10.69
603.64	11.05
603.976	10.92
604.312	10.81
604.648	10.83
604.984	10.76
605.319	10.78
605.655	11.04
605.991	10.69
606.326	10.94
606.662	10.97
606.998	11.12
607.333	10.89
607.668	10.65
608.004	11.11
608.339	11.39
608.674	11.34
609.01	11.41
609.345	11.38
609.68	11.08
610.015	11.21
610.35	11.31
610.685	11.11
611.02	11.12
611.355	11.11
611.689	11.31
612.024	11.18
612.359	11.45
612.694	11.39
613.028	11.42
613.363	11.35
613.697	11.47
614.032	11.56
614.366	11.79
614.7	11.63
615.035	11.38
615.369	11.58
615.703	11.98
616.037	11.81
616.371	11.78
616.705	11.63
617.039	11.79
617.373	11.82
617.707	12.31
618.041	11.79
618.375	11.65
618.709	11.71
619.042	11.77
619.376	11.75
619.71	12.23
620.043	12.2
620.377	11.98
620.71	11.88
621.043	12.25
621.377	11.74
621.71	11.93
622.043	11.92
622.376	12.48
622.709	12.39
623.043	12.35
623.376	12.49
623.709	12.44
624.041	12.38
624.374	12.48
624.707	12.27
625.04	12.53
625.373	12.6
625.705	12.46
626.038	12.89
626.37	12.21
626.703	12.21
627.035	12.7
627.368	12.75
627.7	12.67
628.032	12.57
628.365	12.79
628.697	13.29
629.029	12.83
629.361	12.97
629.693	12.87
630.025	12.76
630.357	12.89
630.689	13.14
631.021	13.04
631.353	13.34
631.684	13.2
632.016	12.96
632.348	13.1
632.679	12.84
633.011	13.3
633.342	13.23
633.674	12.89
634.005	12.79
634.336	13.47
634.668	13.26
634.999	13.41
635.33	13.58
635.661	13.46
635.992	13.42
636.323	13.75
636.654	13.39
636.985	13.52
637.316	13.5
637.647	13.59
637.977	14.01
638.308	13.39
638.639	14.22
638.969	13.45
639.3	13.96
639.63	13.89
639.961	13.68
640.291	13.5
640.622	13.79
640.952	13.97
641.282	13.99
641.612	13.73
641.943	13.74
642.273	14.1
642.603	13.86
642.933	13.89
643.263	14.16
643.592	13.8
643.922	14.3
644.252	14.17
644.582	14.1
644.911	14.63
645.241	14.6
645.571	14.34
645.9	14.5
646.23	14.5
646.559	14.32
646.888	14.34
647.218	13.93
647.547	14.42
647.876	14.28
648.205	13.84
648.534	14.59
648.863	14.73
649.192	14.47
649.521	14.46
649.85	15.01
650.179	14.58
650.508	14.69
650.837	14.53
651.165	13.91
651.494	14.8
651.822	14.81
652.151	15.31
652.479	14.48
652.808	14.49
653.136	14.58
653.465	14.89
653.793	14.83
654.121	15.52
654.449	15.21
654.777	15.15
655.105	15.62
655.433	14.85
655.761	15.33
656.089	14.71
656.417	15.14
656.745	14.93
657.073	15.42
657.4	15.13
657.728	15.14
658.056	15.29
658.383	15.56
658.711	15.46
659.038	15.15
659.365	15.25
659.693	15.57
660.02	15.7
660.347	15.68
660.674	15.71
661.001	15.76
661.329	15.62
661.656	15.62
661.982	15.8
662.309	15.53
662.636	16.01
662.963	15.32
663.29	15.65
663.616	15.78
663.943	16
664.27	16.38
664.596	16
664.923	15.57
665.249	15.66
665.576	16.56
665.902	15.98
666.228	15.95
666.554	16.37
666.881	16.41
667.207	16.56
667.533	16.51
667.859	15.63
668.185	17.06
668.511	16.1
668.837	16.4
669.162	16.76
669.488	16.18
669.814	16.16
670.139	16.6
670.465	16.51
670.791	16.68
671.116	16.68
671.442	16.66
671.767	16.99
672.092	16.74
672.418	16.33
672.743	16.54
673.068	16.11
673.393	16.63
673.718	16.42
674.043	16.21
674.368	16.36
674.693	17.28
675.018	17.16
675.343	16.94
675.667	17.01
675.992	16.74
676.317	17
676.641	17.39
676.966	16.68
677.29	16.78
677.615	17.38
677.939	16.87
678.264	17
678.588	17.22
678.912	17.46
679.236	17.13
679.56	17
679.885	17.21
680.209	16.9
680.532	17.62
680.856	17.47
681.18	17.31
681.504	16.99
681.828	17.6
682.152	17.93
682.475	17.37
682.799	17.83
683.122	17.86
683.446	17.36
683.769	17.78
684.093	18.15
684.416	17.37
684.739	17.84
685.062	17.66
685.386	17.88
685.709	17.3
686.032	18.49
686.355	17.27
686.678	17.87
