Data from 0028_forehead_Reflection__4__120.txt Node

Date: Thu Oct 20 21:51:46 CDT 2022
User: ToomeyLab
Spectrometer: FLMS14357
Trigger mode: 0
Integration Time (sec): 1.000000E-2
Scans to average: 100
Electric dark correction enabled: true
Nonlinearity correction enabled: false
Boxcar width: 0
XAxis mode: Wavelengths
Number of Pixels in Spectrum: 2048
>>>>>Begin Spectral Data<<<<<
189.047	48.9
189.435	48.9
189.823	48.9
190.211	-205
190.599	-72.72
190.987	69.95
191.375	52.39
191.763	-49.6
192.151	-45.25
192.538	905.7
192.926	105.25
193.314	153.36
193.702	143.39
194.089	78.93
194.477	-10.62
194.864	108.5
195.252	-35.69
195.639	69
196.027	99.54
196.414	91.33
196.801	36.32
197.189	85.15
197.576	198.3
197.963	-99.65
198.351	-24.69
198.738	-55.46
199.125	-34.44
199.512	7.97
199.899	-76.18
200.286	5.73
200.673	-10.4
201.06	48.36
201.447	33.97
201.833	16.99
202.22	7.85
202.607	12.85
202.994	15.39
203.38	-27.99
203.767	-18.37
204.154	-28.46
204.54	-10.3
204.927	-16.38
205.313	18.88
205.699	-14.64
206.086	-11.45
206.472	19.35
206.858	32.36
207.245	12.41
207.631	-7.61
208.017	-1.72
208.403	-56.02
208.789	13.78
209.175	10.79
209.561	23.73
209.947	0.68
210.333	13.08
210.719	-0.74
211.105	-2.1
211.491	-45.95
211.876	-31.53
212.262	6.15
212.648	-26.19
213.034	23.1
213.419	-18.08
213.805	-42.42
214.19	-18.67
214.576	-12.85
214.961	-1.07
215.346	0.99
215.732	-3.01
216.117	-19.75
216.502	1.19
216.888	4.85
217.273	-42.79
217.658	2.1
218.043	-1.28
218.428	-16.49
218.813	17.78
219.198	1.07
219.583	8.18
219.968	24.9
220.353	0.92
220.738	3.03
221.122	10.53
221.507	-0.49
221.892	-8.69
222.276	-1
222.661	9.27
223.046	4.14
223.43	-6.11
223.815	4.66
224.199	0.13
224.583	-3.76
224.968	-2.23
225.352	6.59
225.736	7.91
226.121	-1.33
226.505	3.8
226.889	0.84
227.273	-1.14
227.657	-1.11
228.041	1.25
228.425	2.76
228.809	3.24
229.193	1.35
229.577	0.48
229.961	0.58
230.344	0.6
230.728	1.06
231.112	0.69
231.495	1.72
231.879	1.95
232.263	0.49
232.646	0.03
233.03	0.32
233.413	-1.01
233.797	1.05
234.18	-0.49
234.563	0.85
234.946	1.89
235.33	2.06
235.713	1.31
236.096	1.05
236.479	1.79
236.862	1.49
237.245	1.16
237.628	1.88
238.011	0.53
238.394	1.62
238.777	1.34
239.16	0.59
239.543	1.04
239.925	1.3
240.308	1.59
240.691	1.83
241.073	0.48
241.456	0.16
241.838	1.15
242.221	1.16
242.603	1.23
242.986	1.73
243.368	1.2
243.75	1.79
244.133	1.73
244.515	1.2
244.897	1.25
245.279	0.08
245.661	1.54
246.043	1.84
246.425	2.16
246.807	1.25
247.189	1.41
247.571	1.53
247.953	1.18
248.335	1.19
248.717	1.4
249.098	1.31
249.48	1.21
249.862	1.37
250.243	1.02
250.625	1.52
251.006	1.77
251.388	2.43
251.769	1.61
252.151	0.68
252.532	1.45
252.913	0.95
253.295	1
253.676	1.67
254.057	0.71
254.438	1.22
254.819	2.66
255.2	2.22
255.581	0.6
255.962	1.93
256.343	1.14
256.724	2
257.105	0.75
257.486	1.75
257.867	1.48
258.247	1.68
258.628	1.83
259.009	0.67
259.389	1.02
259.77	1.02
260.15	1.36
260.531	1.11
260.911	1.33
261.292	1.6
261.672	1.41
262.052	1.6
262.432	1.59
262.813	0.65
263.193	1.67
263.573	1.72
263.953	1.32
264.333	0.67
264.713	1.27
265.093	1.53
265.473	1.32
265.853	0.99
266.233	1.82
266.612	1.41
266.992	0.43
267.372	1.63
267.752	1.64
268.131	1.79
268.511	1.33
268.89	1.14
269.27	1.25
269.649	0.85
270.029	1.1
270.408	0.78
270.787	1.55
271.167	1.18
271.546	0.95
271.925	1.64
272.304	1.41
272.683	1.14
273.062	1.32
273.441	1.39
273.82	1.69
274.199	1.14
274.578	0.97
274.957	1.18
275.336	1.36
275.715	1.56
276.093	1.31
276.472	1.26
276.851	1.53
277.229	0.85
277.608	0.82
277.986	1.62
278.365	1.22
278.743	1.77
279.122	1.44
279.5	1.19
279.878	1.6
280.257	1.36
280.635	1.5
281.013	0.93
281.391	1.2
281.769	1.58
282.147	0.84
282.525	1.2
282.903	1.47
283.281	0.81
283.659	1.46
284.037	0.78
284.415	1.23
284.792	1.03
285.17	1.82
285.548	1.33
285.925	1.28
286.303	1.42
286.68	1.34
287.058	1.42
287.435	1.22
287.813	1.42
288.19	0.94
288.567	1.45
288.945	1.27
289.322	1.49
289.699	1.17
290.076	1.3
290.453	1.03
290.83	1.53
291.207	1.7
291.584	1.34
291.961	1.45
292.338	1.51
292.715	1.21
293.092	1.98
293.469	1.51
293.845	1.7
294.222	1.57
294.599	2.22
294.975	1.66
295.352	2.11
295.728	1.79
296.105	1.77
296.481	1.41
296.858	1.88
297.234	2.02
297.61	2
297.986	1.45
298.363	1.79
298.739	1.6
299.115	1.82
299.491	1.83
299.867	1.76
300.243	1.96
300.619	1.63
300.995	1.25
301.371	1.7
301.746	1.78
302.122	2.26
302.498	1.72
302.874	2.4
303.249	2.09
303.625	2
304	2.33
304.376	1.84
304.751	2.24
305.127	1.76
305.502	1.86
305.878	2.48
306.253	1.81
306.628	1.95
307.003	2.15
307.378	1.63
307.754	2.14
308.129	1.85
308.504	2.41
308.879	2.01
309.254	2.52
309.629	2.17
310.003	2.2
310.378	2.58
310.753	2.31
311.128	1.94
311.502	2.33
311.877	2.57
312.252	2.47
312.626	2.39
313.001	2.33
313.375	2.4
313.75	2.1
314.124	2.39
314.498	2.25
314.873	2.31
315.247	2.19
315.621	2.7
315.995	2.2
316.369	2.59
316.743	1.77
317.117	2.34
317.491	2.68
317.865	2.51
318.239	2.75
318.613	3.1
318.987	2.72
319.361	2.65
319.734	2.12
320.108	2.91
320.482	2.66
320.855	2.84
321.229	3.06
321.602	2.62
321.976	2.52
322.349	2.46
322.723	2.95
323.096	2.94
323.469	3.03
323.843	3.02
324.216	2.81
324.589	3.2
324.962	2.93
325.335	3.13
325.708	3.08
326.081	3.48
326.454	2.95
326.827	3.01
327.2	3.45
327.573	2.76
327.945	3.03
328.318	2.91
328.691	3.41
329.063	3.58
329.436	2.61
329.809	3.26
330.181	2.87
330.553	2.71
330.926	3.08
331.298	2.33
331.671	3.71
332.043	3.22
332.415	3.17
332.787	3.5
333.159	3.49
333.532	3.2
333.904	3.34
334.276	3.21
334.648	2.85
335.02	3.5
335.391	3.43
335.763	3.42
336.135	3.63
336.507	2.95
336.879	4
337.25	3.14
337.622	3.54
337.993	3.31
338.365	3.45
338.736	3.58
339.108	3.16
339.479	3.46
339.851	3.36
340.222	3.29
340.593	3.78
340.964	3.64
341.336	3.33
341.707	3.34
342.078	3.53
342.449	3.1
342.82	3.9
343.191	3.33
343.562	3.77
343.933	3.46
344.303	3.69
344.674	3.71
345.045	3.36
345.416	3.63
345.786	3.57
346.157	3.52
346.527	3.36
346.898	3.56
347.268	3.59
347.639	3.48
348.009	3.93
348.38	4.25
348.75	3.58
349.12	3.98
349.49	3.85
349.861	3.93
350.231	3.68
350.601	4.11
350.971	4.01
351.341	4.14
351.711	4.26
352.081	3.66
352.45	3.82
352.82	3.99
353.19	4.38
353.56	4
353.929	4.02
354.299	4.15
354.669	3.97
355.038	4.32
355.408	3.86
355.777	4.2
356.147	4.36
356.516	4.13
356.885	4.03
357.254	4.12
357.624	4.04
357.993	3.89
358.362	4.22
358.731	4.25
359.1	3.8
359.469	4.21
359.838	4.19
360.207	4.46
360.576	3.85
360.945	4.16
361.314	4.19
361.682	4.27
362.051	4.1
362.42	4.15
362.788	4.3
363.157	4.21
363.525	4.11
363.894	4.28
364.262	4.41
364.631	3.99
364.999	4.48
365.367	4.44
365.735	4.35
366.104	4.12
366.472	4.31
366.84	4.6
367.208	4.49
367.576	4.64
367.944	4.57
368.312	4.49
368.68	4.63
369.048	4.39
369.416	4.51
369.783	4.82
370.151	4.92
370.519	4.76
370.886	4.49
371.254	4.94
371.621	4.56
371.989	4.66
372.356	4.4
372.724	4.68
373.091	4.7
373.458	4.52
373.826	4.91
374.193	4.9
374.56	4.54
374.927	4.33
375.294	4.74
375.661	5.13
376.028	4.93
376.395	5.05
376.762	4.84
377.129	4.53
377.496	4.62
377.863	4.93
378.229	4.78
378.596	4.81
378.963	5.13
379.329	5.15
379.696	4.91
380.062	4.86
380.429	5.2
380.795	5.13
381.161	5.15
381.528	4.93
381.894	5.04
382.26	4.77
382.626	5
382.993	4.93
383.359	5.03
383.725	5.28
384.091	5.2
384.457	5.06
384.823	5.42
385.188	5.24
385.554	4.88
385.92	5.1
386.286	5.04
386.651	4.87
387.017	5.23
387.383	5.2
387.748	5.64
388.114	5.31
388.479	5.02
388.845	5.18
389.21	5.21
389.575	5.3
389.94	5.45
390.306	5.43
390.671	5.55
391.036	5.45
391.401	5.38
391.766	5.56
392.131	5.53
392.496	5.28
392.861	5.32
393.226	5.25
393.591	5.52
393.956	5.74
394.32	5.72
394.685	5.63
395.05	5.52
395.414	5.53
395.779	5.61
396.143	5.55
396.508	5.45
396.872	5.43
397.236	5.55
397.601	6.12
397.965	5.98
398.329	5.68
398.694	6.01
399.058	5.84
399.422	5.97
399.786	5.72
400.15	5.97
400.514	6.02
400.878	5.94
401.242	6.2
401.605	5.88
401.969	6.04
402.333	6.14
402.697	6.3
403.06	5.75
403.424	5.87
403.787	6.08
404.151	5.79
404.514	5.82
404.878	5.66
405.241	6.14
405.604	6.24
405.968	5.91
406.331	6.04
406.694	6
407.057	6.23
407.42	6.1
407.783	6.1
408.146	6.05
408.509	6.05
408.872	6.16
409.235	5.78
409.598	6.17
409.961	6.31
410.323	6.39
410.686	6.17
411.049	6.34
411.411	6.24
411.774	6.02
412.136	6.2
412.499	6.65
412.861	6.33
413.223	6.41
413.586	6.26
413.948	6.41
414.31	6.2
414.672	6.37
415.035	6.32
415.397	6.36
415.759	6.38
416.121	6.46
416.483	6.24
416.845	6.51
417.206	6.46
417.568	6.35
417.93	6.25
418.292	6.64
418.653	6.42
419.015	6.4
419.377	6.47
419.738	6.47
420.1	6.38
420.461	6.41
420.822	6.36
421.184	6.34
421.545	6.49
421.906	6.38
422.267	6.39
422.629	6.44
422.99	6.39
423.351	6.42
423.712	6.5
424.073	6.6
424.434	6.56
424.795	6.5
425.155	6.55
425.516	6.57
425.877	6.46
426.238	6.65
426.598	6.66
426.959	6.74
427.32	6.73
427.68	6.69
428.041	6.8
428.401	6.68
428.761	6.81
429.122	6.88
429.482	6.87
429.842	6.93
430.202	6.9
430.563	6.94
430.923	7
431.283	6.94
431.643	7.01
432.003	6.99
432.363	7.22
432.722	7.21
433.082	6.92
433.442	7.19
433.802	7.04
434.161	7.21
434.521	6.97
434.881	7.1
435.24	6.95
435.6	6.99
435.959	7.25
436.319	7.01
436.678	6.93
437.037	7.16
437.396	7.54
437.756	7.23
438.115	7.25
438.474	7.13
438.833	7.17
439.192	7.2
439.551	7.3
439.91	7.23
440.269	7.36
440.628	7.29
440.987	7.24
441.345	7.3
441.704	7.26
442.063	7.31
442.421	7.14
442.78	7.32
443.138	7.42
443.497	7.38
443.855	7.5
444.214	7.42
444.572	7.51
444.93	7.3
445.288	7.23
445.647	7.52
446.005	7.36
446.363	7.5
446.721	7.54
447.079	7.4
447.437	7.29
447.795	7.37
448.153	7.45
448.51	7.36
448.868	7.46
449.226	7.6
449.584	7.48
449.941	7.76
450.299	7.68
450.656	7.65
451.014	7.8
451.371	7.87
451.729	7.61
452.086	7.82
452.443	7.85
452.801	7.82
453.158	7.79
453.515	7.97
453.872	7.79
454.229	7.79
454.586	7.93
454.943	7.83
455.3	7.88
455.657	8.12
456.014	7.9
456.371	8.01
456.727	7.99
457.084	7.88
457.441	8.12
457.797	7.98
458.154	8.15
458.51	8.07
458.867	7.95
459.223	8.33
459.58	7.98
459.936	8.16
460.292	7.91
460.648	7.84
461.005	7.78
461.361	7.83
461.717	8.11
462.073	8.2
462.429	8.27
462.785	8.27
463.141	8.35
463.496	8.32
463.852	8.29
464.208	8.44
464.564	8.44
464.919	8.5
465.275	8.42
465.631	8.34
465.986	8.43
466.342	8.25
466.697	8.59
467.052	8.4
467.408	8.5
467.763	8.45
468.118	8.67
468.473	8.6
468.829	8.59
469.184	8.52
469.539	8.67
469.894	8.67
470.249	8.68
470.603	8.47
470.958	8.56
471.313	8.55
471.668	8.65
472.023	8.7
472.377	8.66
472.732	8.79
473.086	8.73
473.441	8.68
473.795	8.58
474.15	8.83
474.504	8.84
474.859	8.84
475.213	8.97
475.567	9.11
475.921	8.89
476.275	8.99
476.63	9.11
476.984	9.12
477.338	8.94
477.692	8.8
478.045	8.97
478.399	9.02
478.753	8.96
479.107	8.85
479.461	9.02
479.814	9.02
480.168	9.1
480.521	9.07
480.875	9.12
481.228	9.19
481.582	9.05
481.935	9.09
482.289	9.02
482.642	8.98
482.995	9.17
483.348	9.03
483.701	8.91
484.055	8.86
484.408	8.74
484.761	8.64
485.114	8.49
485.466	8.47
485.819	8.63
486.172	8.83
486.525	9.01
486.878	9.06
487.23	9.07
487.583	9.05
487.936	9.01
488.288	8.9
488.641	8.91
488.993	8.89
489.345	8.88
489.698	8.96
490.05	8.97
490.402	9.16
490.754	9.31
491.107	9.31
491.459	9.48
491.811	9.36
492.163	9.33
492.515	9.21
492.866	9.04
493.218	9.03
493.57	9.13
493.922	9.36
494.274	9.54
494.625	9.58
494.977	9.75
495.328	9.76
495.68	9.77
496.031	9.87
496.383	9.72
496.734	9.84
497.086	9.71
497.437	9.81
497.788	9.8
498.139	9.54
498.49	9.85
498.842	9.75
499.193	9.81
499.544	9.73
499.894	9.93
500.245	9.93
500.596	9.96
500.947	9.92
501.298	9.92
501.648	10.06
501.999	10.08
502.35	10.06
502.7	10.2
503.051	10.25
503.401	10.12
503.752	10.29
504.102	10.11
504.452	10.35
504.803	10.12
505.153	10.26
505.503	10.17
505.853	10.05
506.203	10.19
506.553	10.39
506.903	10.28
507.253	10.3
507.603	10.36
507.953	10.33
508.303	10.4
508.652	10.4
509.002	10.46
509.352	10.47
509.701	10.31
510.051	10.35
510.4	10.35
510.75	10.29
511.099	10.4
511.449	10.47
511.798	10.6
512.147	10.58
512.496	10.67
512.846	10.63
513.195	10.68
513.544	10.47
513.893	10.6
514.242	10.48
514.591	10.71
514.939	10.58
515.288	10.75
515.637	10.74
515.986	10.83
516.334	10.73
516.683	10.83
517.032	10.8
517.38	10.89
517.729	10.98
518.077	10.74
518.426	10.99
518.774	10.79
519.122	10.9
519.47	10.71
519.819	10.7
520.167	10.71
520.515	10.79
520.863	10.89
521.211	10.94
521.559	11.01
521.907	10.96
522.255	11.1
522.602	11.13
522.95	11.25
523.298	11.17
523.645	11.25
523.993	11.14
524.341	11.26
524.688	11.33
525.036	11.33
525.383	11.25
525.73	11.04
526.078	11.33
526.425	11.23
526.772	11.07
527.119	10.88
527.466	11.06
527.814	11.15
528.161	11.14
528.508	11.21
528.854	11.15
529.201	11.07
529.548	10.85
529.895	10.71
530.242	10.72
530.588	10.85
530.935	11.05
531.282	11.13
531.628	11.24
531.975	11.42
532.321	11.42
532.667	11.5
533.014	11.48
533.36	11.42
533.706	11.38
534.052	11.38
534.399	11.32
534.745	11.14
535.091	11.17
535.437	11.35
535.783	11.48
536.129	11.61
536.474	11.8
536.82	11.69
537.166	11.83
537.512	11.73
537.857	11.52
538.203	11.52
538.549	11.71
538.894	11.86
539.239	11.93
539.585	11.99
539.93	12.19
540.276	12.18
540.621	12.06
540.966	12.11
541.311	12.05
541.656	11.93
542.001	11.75
542.346	11.57
542.691	11.43
543.036	11.46
543.381	11.65
543.726	11.86
544.071	11.91
544.415	12.07
544.76	11.94
545.105	12.19
545.449	12.17
545.794	12.42
546.138	12.34
546.483	12.51
546.827	12.41
547.171	12.32
547.516	12.31
547.86	12.29
548.204	12.25
548.548	12.37
548.892	12.4
549.236	12.58
549.58	12.72
549.924	12.62
550.268	12.69
550.612	12.9
550.956	12.6
551.3	12.87
551.643	12.89
551.987	12.88
552.33	12.87
552.674	12.77
553.017	12.97
553.361	12.93
553.704	13
554.048	12.66
554.391	12.8
554.734	12.86
555.077	12.95
555.42	13.11
555.764	13.09
556.107	13.03
556.45	13.19
556.793	13.2
557.135	13.22
557.478	13.15
557.821	13.14
558.164	13.35
558.507	13.17
558.849	13.42
559.192	13.35
559.534	13.51
559.877	13.48
560.219	13.39
560.562	13.43
560.904	13.33
561.246	13.38
561.589	13.85
561.931	13.23
562.273	13.74
562.615	13.5
562.957	13.49
563.299	13.64
563.641	13.44
563.983	13.73
564.325	13.55
564.667	13.61
565.008	13.67
565.35	13.73
565.692	13.83
566.033	13.61
566.375	13.78
566.716	13.82
567.058	13.67
567.399	13.65
567.741	13.67
568.082	13.72
568.423	13.68
568.764	13.89
569.105	14.05
569.447	13.98
569.788	14.08
570.129	14.02
570.47	13.88
570.811	13.88
571.151	13.97
571.492	14.05
571.833	14.09
572.174	14.12
572.514	14.01
572.855	14.08
573.195	14.03
573.536	13.92
573.876	13.86
574.217	13.83
574.557	14.2
574.898	14.25
575.238	14.38
575.578	14.37
575.918	14.31
576.258	14.12
576.598	14.24
576.938	14.27
577.278	14.37
577.618	14.47
577.958	14.51
578.298	14.37
578.638	14.46
578.977	14.64
579.317	14.53
579.657	14.56
579.996	14.63
580.336	14.78
580.675	15.06
581.014	14.74
581.354	14.69
581.693	14.87
582.032	14.85
582.372	14.64
582.711	14.7
583.05	15.02
583.389	14.86
583.728	14.96
584.067	14.7
584.406	15.16
584.745	15.08
585.083	14.84
585.422	15.04
585.761	15.22
586.1	15.3
586.438	15.26
586.777	15.07
587.115	15.19
587.454	15.31
587.792	15.23
588.13	15.45
588.469	15.47
588.807	15.09
589.145	15.32
589.483	15.06
589.821	14.99
590.159	15.27
590.497	15.3
590.835	15.04
591.173	15.26
591.511	15.3
591.849	15.28
592.187	15.27
592.524	15.5
592.862	15.23
593.2	15.7
593.537	15.5
593.875	15.74
594.212	15.49
594.55	15.52
594.887	15.35
595.224	15.81
595.561	15.44
595.899	15.71
596.236	15.72
596.573	15.76
596.91	15.55
597.247	15.69
597.584	15.63
597.921	15.51
598.258	15.26
598.594	15.62
598.931	15.52
599.268	15.59
599.604	15.79
599.941	16.04
600.277	15.9
600.614	15.84
600.95	16.18
601.287	16.2
601.623	15.83
601.959	15.8
602.296	16.06
602.632	15.83
602.968	16.14
603.304	15.8
603.64	16.24
603.976	16.08
604.312	15.98
604.648	16.04
604.984	15.7
605.319	15.67
605.655	16.1
605.991	15.93
606.326	15.89
606.662	15.95
606.998	16.2
607.333	16.06
607.668	16.23
608.004	16.29
608.339	16.45
608.674	16.61
609.01	16.57
609.345	16.44
609.68	16.3
610.015	16.39
610.35	16.21
610.685	16.31
611.02	16.07
611.355	16.2
611.689	16.48
612.024	16.43
612.359	16.4
612.694	16.67
613.028	16.51
613.363	16.39
613.697	16.83
614.032	16.82
614.366	16.69
614.7	16.42
615.035	16.7
615.369	16.64
615.703	16.57
616.037	16.98
616.371	16.7
616.705	16.88
617.039	16.79
617.373	16.67
617.707	17.04
618.041	16.95
618.375	16.84
618.709	16.66
619.042	16.98
619.376	16.84
619.71	17.16
620.043	16.97
620.377	17.1
620.71	16.69
621.043	17.18
621.377	17.18
621.71	17.1
622.043	16.88
622.376	17.03
622.709	17.68
623.043	17.08
623.376	17.42
623.709	17.57
624.041	17.4
624.374	17.23
624.707	17.21
625.04	17.19
625.373	17.71
625.705	17.32
626.038	17.58
626.37	17.36
626.703	17.37
627.035	17.42
627.368	17.42
627.7	17.36
628.032	17.41
628.365	17.41
628.697	17.26
629.029	17.56
629.361	17.79
629.693	17.52
630.025	17.49
630.357	17.67
630.689	17.42
631.021	17.8
631.353	17.8
631.684	17.62
632.016	17.25
632.348	17.78
632.679	17.38
633.011	17.64
633.342	18.01
633.674	17.54
634.005	17.83
634.336	18.11
634.668	17.75
634.999	17.8
635.33	17.87
635.661	17.69
635.992	17.81
636.323	18.04
636.654	17.82
636.985	18.17
637.316	17.84
637.647	18.02
637.977	18.39
638.308	17.67
638.639	18.27
638.969	18.41
639.3	17.99
639.63	18.24
639.961	17.86
640.291	18.09
640.622	18.37
640.952	18.57
641.282	18.48
641.612	18.8
641.943	18.51
642.273	18.44
642.603	18.01
642.933	18.4
643.263	18.3
643.592	18.39
643.922	18.62
644.252	18.41
644.582	18.23
644.911	18.65
645.241	18.33
645.571	18.14
645.9	18.51
646.23	18.56
646.559	18.91
646.888	18.49
647.218	18.22
647.547	18.32
647.876	18.56
648.205	18.59
648.534	18.69
648.863	18.8
649.192	18.88
649.521	18.63
649.85	18.89
650.179	18.54
650.508	19.14
650.837	18.63
651.165	18.9
651.494	19.08
651.822	19.09
652.151	18.7
652.479	18.52
652.808	18.85
653.136	18.54
653.465	19.26
653.793	18.97
654.121	18.98
654.449	19.26
654.777	19.06
655.105	19.52
655.433	18.74
655.761	19.18
656.089	18.99
656.417	18.97
656.745	19.62
657.073	19.53
657.4	19.62
657.728	19.38
658.056	19.41
658.383	19.02
658.711	19.08
659.038	19.06
659.365	18.67
659.693	19.12
660.02	18.83
660.347	18.96
660.674	19.25
661.001	18.98
661.329	19.03
661.656	19.35
661.982	19.49
662.309	19.33
662.636	20.03
662.963	18.98
663.29	19.15
663.616	19.47
663.943	19.72
664.27	19.93
664.596	19.78
664.923	19.11
665.249	20.26
665.576	19.98
665.902	19.5
666.228	19.38
666.554	19.37
666.881	19.62
667.207	20.06
667.533	19.85
667.859	19.27
668.185	20.48
668.511	19.87
668.837	19.78
669.162	19.77
669.488	19.23
669.814	19.87
670.139	20.06
670.465	19.68
670.791	19.77
671.116	19.77
671.442	20.06
671.767	20.04
672.092	19.56
672.418	20.32
672.743	19.65
673.068	19.4
673.393	19.92
673.718	20.16
674.043	19.68
674.368	20
674.693	20.23
675.018	20.64
675.343	20.13
675.667	20.43
675.992	20.14
676.317	20.18
676.641	20.4
676.966	19.78
677.29	19.95
677.615	20.79
677.939	20.51
678.264	20.28
678.588	20.09
678.912	20.17
679.236	20.73
679.56	20.02
679.885	20.04
680.209	19.85
680.532	19.79
680.856	20.31
