Data from 0028_forehead_Reflection__3__119.txt Node

Date: Thu Oct 20 21:51:36 CDT 2022
User: ToomeyLab
Spectrometer: FLMS14357
Trigger mode: 0
Integration Time (sec): 1.000000E-2
Scans to average: 100
Electric dark correction enabled: true
Nonlinearity correction enabled: false
Boxcar width: 0
XAxis mode: Wavelengths
Number of Pixels in Spectrum: 2048
>>>>>Begin Spectral Data<<<<<
189.047	69.85
189.435	69.85
189.823	69.85
190.211	-137.7
190.599	-0.45
190.987	50.84
191.375	83.82
191.763	83.2
192.151	13.67
192.538	111.88
192.926	75.58
193.314	117.49
193.702	111.07
194.089	138.19
194.477	220.67
194.864	10.25
195.252	120.87
195.639	-214.33
196.027	-84.58
196.414	104.75
196.801	48.12
197.189	60.22
197.576	418.35
197.963	-39.64
198.351	-2.25
198.738	-5.82
199.125	5.85
199.512	52.29
199.899	31.53
200.286	-6.31
200.673	-2.62
201.06	55.15
201.447	50.6
201.833	2.75
202.22	25.89
202.607	22.6
202.994	-28.61
203.38	-67.36
203.767	4.56
204.154	-6.79
204.54	-9.76
204.927	-20.61
205.313	43.08
205.699	-20.83
206.086	3.83
206.472	-6.18
206.858	13.22
207.245	9.1
207.631	-63.42
208.017	-22.36
208.403	-40.8
208.789	-1.48
209.175	5.28
209.561	27.81
209.947	-4.89
210.333	21.12
210.719	3.5
211.105	22.77
211.491	-50.2
211.876	-15.74
212.262	0.36
212.648	10.85
213.034	-8.78
213.419	-58.21
213.805	-7.17
214.19	-2.62
214.576	-30.5
214.961	4.69
215.346	-11.63
215.732	-13.91
216.117	-52.37
216.502	6.35
216.888	-17.73
217.273	-21.89
217.658	-2.15
218.043	8.97
218.428	12.02
218.813	18.87
219.198	17.78
219.583	20.64
219.968	9.5
220.353	-13.41
220.738	25.25
221.122	10.52
221.507	-7.16
221.892	4.87
222.276	7
222.661	14.49
223.046	11.55
223.43	3.66
223.815	-0.33
224.199	-0.54
224.583	-0.88
224.968	2.76
225.352	8.31
225.736	8.09
226.121	-2.78
226.505	9.61
226.889	0.82
227.273	1.08
227.657	-0.32
228.041	1.14
228.425	1.89
228.809	3.97
229.193	1.29
229.577	0.79
229.961	1.36
230.344	1.93
230.728	1.84
231.112	0.74
231.495	2.38
231.879	4.04
232.263	2.56
232.646	1.07
233.03	1.59
233.413	-0.28
233.797	2.47
234.18	0.46
234.563	1.22
234.946	1.64
235.33	1.71
235.713	1.83
236.096	1.31
236.479	3.21
236.862	2.08
237.245	1.51
237.628	2.75
238.011	1.09
238.394	4.65
238.777	2.54
239.16	1.01
239.543	1.11
239.925	1.87
240.308	1.96
240.691	3.84
241.073	2.04
241.456	2.35
241.838	1.62
242.221	1.17
242.603	1.27
242.986	1.95
243.368	1.97
243.75	2.12
244.133	2.01
244.515	1.98
244.897	1.41
245.279	1.38
245.661	2.86
246.043	2.91
246.425	2.49
246.807	2.48
247.189	2.17
247.571	2.16
247.953	2.09
248.335	2.03
248.717	2.2
249.098	1.87
249.48	2.01
249.862	2.03
250.243	1.87
250.625	2.34
251.006	2.34
251.388	2.16
251.769	1.38
252.151	2.61
252.532	1.83
252.913	1.32
253.295	2.02
253.676	1.9
254.057	1.49
254.438	1.78
254.819	1.74
255.2	2.02
255.581	1.6
255.962	3.61
256.343	1.27
256.724	0.99
257.105	1.72
257.486	2.2
257.867	2.3
258.247	2.76
258.628	2.18
259.009	1.61
259.389	1.49
259.77	1.75
260.15	2.17
260.531	1.92
260.911	1.9
261.292	2.13
261.672	2.02
262.052	2.05
262.432	1.96
262.813	2.14
263.193	1.98
263.573	2.03
263.953	2.46
264.333	2.1
264.713	2
265.093	0.91
265.473	2.86
265.853	2.41
266.233	2.26
266.612	2.48
266.992	1.87
267.372	3
267.752	2.54
268.131	2.32
268.511	1.92
268.89	1.8
269.27	1.85
269.649	1.73
270.029	1.45
270.408	1.83
270.787	1.62
271.167	2.14
271.546	1.74
271.925	2.24
272.304	1.89
272.683	2.02
273.062	1.88
273.441	2.12
273.82	2.52
274.199	1.61
274.578	1.73
274.957	2.02
275.336	2
275.715	2.39
276.093	1.98
276.472	2.16
276.851	2.37
277.229	1.77
277.608	2.05
277.986	2.1
278.365	1.6
278.743	2.02
279.122	1.89
279.5	1.52
279.878	2.2
280.257	1.85
280.635	1.59
281.013	1.81
281.391	2.44
281.769	2.11
282.147	1.35
282.525	1.51
282.903	1.99
283.281	1.87
283.659	1.48
284.037	1.93
284.415	1.55
284.792	1.38
285.17	2.4
285.548	2.15
285.925	1.82
286.303	1.9
286.68	2.1
287.058	1.82
287.435	1.83
287.813	1.8
288.19	1.94
288.567	1.89
288.945	2.14
289.322	1.88
289.699	1.25
290.076	1.68
290.453	1.83
290.83	2.15
291.207	2.3
291.584	1.94
291.961	2.19
292.338	1.75
292.715	1.99
293.092	2.62
293.469	2.36
293.845	2.41
294.222	2.24
294.599	2.63
294.975	1.82
295.352	2.34
295.728	2.17
296.105	2.37
296.481	2.16
296.858	1.81
297.234	2.36
297.61	2.42
297.986	2.03
298.363	2.1
298.739	2.18
299.115	2.05
299.491	2.39
299.867	2.27
300.243	2.36
300.619	2.81
300.995	2.2
301.371	2.29
301.746	2.4
302.122	2.85
302.498	2.45
302.874	2.66
303.249	2.67
303.625	2.31
304	2.82
304.376	2.13
304.751	2.93
305.127	2.14
305.502	2.87
305.878	2.76
306.253	2.27
306.628	2.2
307.003	2.37
307.378	2.39
307.754	2.76
308.129	2.67
308.504	2.75
308.879	2.68
309.254	2.95
309.629	2.41
310.003	2.23
310.378	2.76
310.753	2.89
311.128	2.66
311.502	2.43
311.877	2.98
312.252	2.49
312.626	2.67
313.001	2.84
313.375	2.93
313.75	2.46
314.124	2.58
314.498	2.44
314.873	2.63
315.247	3
315.621	2.72
315.995	2.64
316.369	2.92
316.743	2.86
317.117	3.07
317.491	3.15
317.865	2.67
318.239	2.88
318.613	3.11
318.987	2.68
319.361	3.46
319.734	2.52
320.108	2.9
320.482	2.99
320.855	3.21
321.229	2.91
321.602	2.53
321.976	3.18
322.349	2.8
322.723	3.38
323.096	3.08
323.469	2.95
323.843	3.75
324.216	2.91
324.589	3.96
324.962	3.05
325.335	3.04
325.708	3.14
326.081	3.31
326.454	3.19
326.827	3.3
327.2	3.49
327.573	3.54
327.945	3.2
328.318	3.05
328.691	3.55
329.063	3.3
329.436	3.4
329.809	3.35
330.181	3.49
330.553	3.14
330.926	3
331.298	3.25
331.671	4.1
332.043	3.48
332.415	3.45
332.787	3.92
333.159	3.99
333.532	3.15
333.904	3.18
334.276	3.86
334.648	3.1
335.02	3.42
335.391	3.25
335.763	3.47
336.135	3.93
336.507	3.37
336.879	3.94
337.25	3.31
337.622	3.56
337.993	3.07
338.365	3.39
338.736	3.43
339.108	3.21
339.479	3.6
339.851	3.48
340.222	3.32
340.593	4
340.964	4.09
341.336	3.35
341.707	3.2
342.078	3.61
342.449	3.37
342.82	3.83
343.191	3.85
343.562	4
343.933	3.7
344.303	3.47
344.674	3.63
345.045	3.85
345.416	3.79
345.786	3.7
346.157	3.58
346.527	3.61
346.898	3.45
347.268	3.54
347.639	3.65
348.009	4
348.38	4.04
348.75	3.51
349.12	3.63
349.49	3.97
349.861	4.09
350.231	4.04
350.601	3.94
350.971	3.95
351.341	4.09
351.711	3.86
352.081	3.89
352.45	3.89
352.82	3.56
353.19	4.05
353.56	4.03
353.929	3.91
354.299	4.35
354.669	3.99
355.038	3.79
355.408	3.71
355.777	4.17
356.147	4.2
356.516	3.84
356.885	3.89
357.254	3.98
357.624	4.25
357.993	3.9
358.362	4.01
358.731	4.25
359.1	3.81
359.469	4.14
359.838	3.99
360.207	4.7
360.576	3.58
360.945	4.18
361.314	4.09
361.682	4.18
362.051	3.9
362.42	3.94
362.788	3.87
363.157	3.89
363.525	4.12
363.894	4.18
364.262	4.32
364.631	4.05
364.999	4.1
365.367	4.19
365.735	4.29
366.104	3.96
366.472	4.26
366.84	4.56
367.208	4.2
367.576	4.35
367.944	4.38
368.312	4.42
368.68	4.63
369.048	4.25
369.416	4.17
369.783	4.69
370.151	4.62
370.519	4.26
370.886	4.35
371.254	4.47
371.621	4.08
371.989	4.45
372.356	4.12
372.724	4.34
373.091	4.55
373.458	4.22
373.826	4.33
374.193	4.69
374.56	4.13
374.927	4.3
375.294	4.46
375.661	4.79
376.028	4.56
376.395	4.76
376.762	4.4
377.129	4.28
377.496	4.64
377.863	4.54
378.229	4.71
378.596	4.49
378.963	4.55
379.329	5.02
379.696	4.57
380.062	4.59
380.429	4.95
380.795	4.48
381.161	5.1
381.528	4.65
381.894	4.51
382.26	4.59
382.626	4.99
382.993	4.39
383.359	4.95
383.725	5.06
384.091	4.95
384.457	4.58
384.823	4.98
385.188	4.92
385.554	4.47
385.92	4.7
386.286	4.78
386.651	4.51
387.017	4.82
387.383	4.92
387.748	5.13
388.114	5.05
388.479	4.96
388.845	5.11
389.21	5.2
389.575	4.66
389.94	5.18
390.306	4.98
390.671	5
391.036	5.07
391.401	4.86
391.766	5.25
392.131	5.11
392.496	4.74
392.861	4.88
393.226	4.94
393.591	5.16
393.956	5.1
394.32	5.41
394.685	5.15
395.05	4.97
395.414	5.13
395.779	5.12
396.143	5.17
396.508	5.21
396.872	5.22
397.236	5.08
397.601	5.44
397.965	5.37
398.329	5.09
398.694	5.33
399.058	5.33
399.422	5.35
399.786	5.14
400.15	5.29
400.514	5.66
400.878	5.37
401.242	5.44
401.605	5.38
401.969	5.35
402.333	5.32
402.697	5.84
403.06	5.53
403.424	5.28
403.787	5.74
404.151	5.5
404.514	5.38
404.878	5.52
405.241	5.35
405.604	5.61
405.968	5.47
406.331	5.67
406.694	5.36
407.057	5.52
407.42	5.58
407.783	5.41
408.146	5.49
408.509	5.59
408.872	5.7
409.235	5.4
409.598	5.86
409.961	5.56
410.323	5.78
410.686	5.63
411.049	5.68
411.411	5.46
411.774	5.68
412.136	5.81
412.499	5.81
412.861	5.86
413.223	5.79
413.586	5.72
413.948	5.94
414.31	5.53
414.672	5.93
415.035	5.77
415.397	5.77
415.759	5.78
416.121	5.82
416.483	5.72
416.845	6.05
417.206	5.67
417.568	5.92
417.93	5.8
418.292	6.04
418.653	5.85
419.015	5.85
419.377	5.96
419.738	5.82
420.1	5.8
420.461	5.84
420.822	5.86
421.184	5.71
421.545	6
421.906	5.74
422.267	5.84
422.629	5.75
422.99	5.8
423.351	5.88
423.712	5.93
424.073	5.97
424.434	5.9
424.795	5.89
425.155	5.95
425.516	5.94
425.877	5.86
426.238	5.96
426.598	5.98
426.959	6.05
427.32	6.02
427.68	6.14
428.041	6.14
428.401	6.25
428.761	6.3
429.122	6.07
429.482	6.3
429.842	6.3
430.202	6.44
430.563	6.34
430.923	6.33
431.283	6.32
431.643	6.26
432.003	6.33
432.363	6.52
432.722	6.57
433.082	6.35
433.442	6.44
433.802	6.41
434.161	6.4
434.521	6.26
434.881	6.42
435.24	6.33
435.6	6.43
435.959	6.6
436.319	6.56
436.678	6.43
437.037	6.59
437.396	6.67
437.756	6.62
438.115	6.66
438.474	6.42
438.833	6.53
439.192	6.51
439.551	6.53
439.91	6.68
440.269	6.52
440.628	6.53
440.987	6.65
441.345	6.65
441.704	6.56
442.063	6.69
442.421	6.49
442.78	6.8
443.138	6.73
443.497	6.75
443.855	6.68
444.214	6.86
444.572	6.89
444.93	6.64
445.288	6.79
445.647	6.88
446.005	6.66
446.363	6.76
446.721	6.76
447.079	6.75
447.437	6.74
447.795	6.71
448.153	6.7
448.51	6.83
448.868	6.79
449.226	6.95
449.584	6.86
449.941	6.95
450.299	7.05
450.656	7.01
451.014	7.04
451.371	7.07
451.729	7.04
452.086	7.26
452.443	6.97
452.801	7.22
453.158	7.04
453.515	7.16
453.872	7.04
454.229	6.98
454.586	7.08
454.943	7.08
455.3	7.23
455.657	7.28
456.014	7.29
456.371	7.43
456.727	7.34
457.084	7.26
457.441	7.47
457.797	7.44
458.154	7.4
458.51	7.29
458.867	7.31
459.223	7.6
459.58	7.26
459.936	7.51
460.292	7.3
460.648	7.26
461.005	7.07
461.361	7.12
461.717	7.3
462.073	7.39
462.429	7.48
462.785	7.57
463.141	7.55
463.496	7.72
463.852	7.57
464.208	7.78
464.564	7.6
464.919	7.74
465.275	7.6
465.631	7.5
465.986	7.54
466.342	7.64
466.697	7.77
467.052	7.76
467.408	7.77
467.763	7.73
468.118	7.91
468.473	8.02
468.829	7.82
469.184	7.69
469.539	7.87
469.894	7.93
470.249	7.96
470.603	7.76
470.958	7.96
471.313	7.85
471.668	7.88
472.023	7.86
472.377	7.89
472.732	8.09
473.086	8.01
473.441	8.11
473.795	8.09
474.15	7.98
474.504	8.04
474.859	8.06
475.213	8.21
475.567	8.33
475.921	8.1
476.275	8.29
476.63	8.35
476.984	8.19
477.338	8.2
477.692	8.21
478.045	8.16
478.399	8.27
478.753	8.13
479.107	8.07
479.461	8.23
479.814	8.25
480.168	8.51
480.521	8.18
480.875	8.41
481.228	8.32
481.582	8.44
481.935	8.34
482.289	8.21
482.642	8.11
482.995	8.2
483.348	8.24
483.701	8.18
484.055	8.14
484.408	8.01
484.761	7.9
485.114	7.74
485.466	7.73
485.819	7.88
486.172	8.09
486.525	8.26
486.878	8.24
487.23	8.36
487.583	8.33
487.936	8.29
488.288	8.15
488.641	8.11
488.993	8.15
489.345	8.11
489.698	8.2
490.05	8.29
490.402	8.47
490.754	8.64
491.107	8.55
491.459	8.62
491.811	8.62
492.163	8.56
492.515	8.39
492.866	8.29
493.218	8.31
493.57	8.4
493.922	8.55
494.274	8.73
494.625	8.84
494.977	8.9
495.328	8.89
495.68	8.96
496.031	9.03
496.383	8.96
496.734	9.02
497.086	9.1
497.437	8.99
497.788	9.04
498.139	8.89
498.49	8.93
498.842	8.94
499.193	8.98
499.544	9.2
499.894	9.14
500.245	9.21
500.596	9.15
500.947	9.22
501.298	9.34
501.648	9.34
501.999	9.36
502.35	9.38
502.7	9.42
503.051	9.38
503.401	9.38
503.752	9.42
504.102	9.41
504.452	9.48
504.803	9.3
505.153	9.41
505.503	9.42
505.853	9.36
506.203	9.55
506.553	9.7
506.903	9.64
507.253	9.57
507.603	9.63
507.953	9.74
508.303	9.62
508.652	9.53
509.002	9.58
509.352	9.64
509.701	9.62
510.051	9.76
510.4	9.59
510.75	9.55
511.099	9.61
511.449	9.76
511.798	9.77
512.147	9.81
512.496	9.95
512.846	9.88
513.195	9.88
513.544	9.84
513.893	9.78
514.242	9.83
514.591	9.98
514.939	9.93
515.288	10
515.637	9.95
515.986	9.89
516.334	9.95
516.683	10.1
517.032	10.02
517.38	10.11
517.729	10.23
518.077	10.03
518.426	10.15
518.774	10.05
519.122	10.08
519.47	9.92
519.819	9.91
520.167	9.87
520.515	9.95
520.863	10.11
521.211	10.1
521.559	10.23
521.907	10.14
522.255	10.3
522.602	10.29
522.95	10.54
523.298	10.39
523.645	10.31
523.993	10.33
524.341	10.59
524.688	10.59
525.036	10.42
525.383	10.51
525.73	10.41
526.078	10.49
526.425	10.35
526.772	10.31
527.119	10.24
527.466	10.33
527.814	10.41
528.161	10.44
528.508	10.35
528.854	10.39
529.201	10.32
529.548	10.17
529.895	9.97
530.242	10
530.588	10.13
530.935	10.3
531.282	10.43
531.628	10.49
531.975	10.66
532.321	10.81
532.667	10.76
533.014	10.85
533.36	10.78
533.706	10.68
534.052	10.61
534.399	10.56
534.745	10.47
535.091	10.55
535.437	10.67
535.783	10.73
536.129	10.86
536.474	11.02
536.82	11.09
537.166	11.03
537.512	11.03
537.857	10.84
538.203	10.94
538.549	11.01
538.894	11.16
539.239	11.18
539.585	11.26
539.93	11.34
540.276	11.45
540.621	11.32
540.966	11.37
541.311	11.38
541.656	11.25
542.001	11.09
542.346	10.92
542.691	10.78
543.036	10.81
543.381	11.01
543.726	11.09
544.071	11.23
544.415	11.27
544.76	11.27
545.105	11.45
545.449	11.54
545.794	11.61
546.138	11.76
546.483	11.86
546.827	11.64
547.171	11.64
547.516	11.7
547.86	11.59
548.204	11.59
548.548	11.69
548.892	11.72
549.236	12.01
549.58	12.01
549.924	11.99
550.268	12.02
550.612	12.04
550.956	12.05
551.3	12.42
551.643	12.25
551.987	12.31
552.33	12.15
552.674	12.17
553.017	12.22
553.361	12.23
553.704	12.17
554.048	12.14
554.391	12.2
554.734	12.23
555.077	12.23
555.42	12.43
555.764	12.28
556.107	12.29
556.45	12.21
556.793	12.53
557.135	12.68
557.478	12.51
557.821	12.45
558.164	12.64
558.507	12.64
558.849	12.65
559.192	12.92
559.534	12.66
559.877	12.88
560.219	12.76
560.562	12.68
560.904	12.7
561.246	12.81
561.589	13.02
561.931	12.67
562.273	12.98
562.615	12.71
562.957	12.74
563.299	12.81
563.641	12.83
563.983	13.24
564.325	13.05
564.667	13.07
565.008	13.12
565.35	13.13
565.692	13.11
566.033	12.76
566.375	13.12
566.716	13.01
567.058	13.12
567.399	13.06
567.741	12.97
568.082	13.02
568.423	13.19
568.764	13.05
569.105	13.19
569.447	13.24
569.788	13.41
570.129	13.44
570.47	13.38
570.811	13.01
571.151	13.31
571.492	13.42
571.833	13.37
572.174	13.4
572.514	13.33
572.855	13.51
573.195	13.32
573.536	13.28
573.876	13.17
574.217	13.52
574.557	13.49
574.898	13.41
575.238	13.72
575.578	13.67
575.918	13.67
576.258	13.73
576.598	13.74
576.938	13.56
577.278	13.67
577.618	13.9
577.958	13.73
578.298	13.83
578.638	13.92
578.977	13.88
579.317	13.91
579.657	13.87
579.996	14.21
580.336	14.2
580.675	14.37
581.014	14.21
581.354	14.21
581.693	14.25
582.032	14.3
582.372	14.28
582.711	14.14
583.05	14.36
583.389	14.34
583.728	14.48
584.067	14.15
584.406	14.4
584.745	14.56
585.083	14.27
585.422	14.58
585.761	14.48
586.1	14.73
586.438	14.59
586.777	14.86
587.115	14.69
587.454	14.82
587.792	14.67
588.13	14.74
588.469	15
588.807	14.39
589.145	14.63
589.483	14.84
589.821	14.68
590.159	14.54
590.497	14.78
590.835	14.61
591.173	14.85
591.511	14.82
591.849	14.77
592.187	14.66
592.524	15.04
592.862	14.89
593.2	15.13
593.537	14.97
593.875	15.12
594.212	15.03
594.55	15.03
594.887	14.97
595.224	15.27
595.561	15.18
595.899	15.09
596.236	15.27
596.573	15.41
596.91	15.17
597.247	15.32
597.584	15.26
597.921	15.1
598.258	15.22
598.594	14.94
598.931	15.07
599.268	15.21
599.604	15.39
599.941	15.54
600.277	15.55
600.614	15.47
600.95	15.66
601.287	15.64
601.623	15.61
601.959	15.34
602.296	15.59
602.632	15.41
602.968	15.73
603.304	15.46
603.64	15.87
603.976	15.7
604.312	15.61
604.648	15.44
604.984	15.5
605.319	15.59
605.655	15.71
605.991	15.56
606.326	15.58
606.662	15.63
606.998	16.01
607.333	15.98
607.668	15.75
608.004	16.18
608.339	16.14
608.674	16.26
609.01	16.11
609.345	16.4
609.68	16.08
610.015	16.33
610.35	16.27
610.685	15.77
611.02	16.03
611.355	16.03
611.689	16.03
612.024	16.45
612.359	16.09
612.694	16.13
613.028	16.6
613.363	16.4
613.697	16.5
614.032	16.81
614.366	16.54
614.7	16.48
615.035	16.46
615.369	16.44
615.703	16.47
616.037	16.76
616.371	16.58
616.705	16.3
617.039	16.48
617.373	16.61
617.707	16.62
618.041	16.58
618.375	16.73
618.709	16.61
619.042	16.61
619.376	16.76
619.71	16.95
620.043	16.64
620.377	16.87
620.71	16.52
621.043	16.73
621.377	16.65
621.71	16.72
622.043	16.96
622.376	17.2
622.709	17.18
623.043	17.01
623.376	17.25
623.709	17.08
624.041	17.37
624.374	17.31
624.707	17.35
625.04	17.44
625.373	17.26
625.705	16.98
626.038	17.1
626.37	16.98
626.703	17.09
627.035	17.23
627.368	17.34
627.7	17.23
628.032	17.55
628.365	17.5
628.697	17.58
629.029	17.44
629.361	17.42
629.693	17.77
630.025	17.9
630.357	17.39
630.689	17.22
631.021	17.72
631.353	17.73
631.684	17.75
632.016	17.31
632.348	17.6
632.679	17.57
633.011	18.05
633.342	18.02
633.674	17.9
634.005	17.98
634.336	17.78
634.668	17.89
634.999	17.79
635.33	18.18
635.661	17.88
635.992	18.14
636.323	18.04
636.654	17.98
636.985	18.36
637.316	18.17
637.647	18.3
637.977	18.55
638.308	18.05
638.639	18.38
638.969	18.3
639.3	18.19
639.63	18.25
639.961	18.22
640.291	17.76
640.622	18.85
640.952	18.79
641.282	18.28
641.612	18.79
641.943	18.51
642.273	18.45
642.603	18.22
642.933	18.64
643.263	18.53
643.592	18.61
643.922	18.56
644.252	18.79
644.582	18.43
644.911	18.73
645.241	18.6
645.571	18.19
645.9	19.13
646.23	18.95
646.559	18.96
646.888	19.27
647.218	18.77
647.547	18.9
647.876	18.78
648.205	18.89
648.534	18.97
648.863	19.03
649.192	19.34
649.521	18.95
649.85	19.48
650.179	19.23
650.508	19.46
650.837	18.72
651.165	19.22
651.494	19.44
651.822	19.25
652.151	19.52
652.479	19.35
652.808	19.2
653.136	19.06
653.465	19.5
653.793	19.55
654.121	19.47
654.449	19.49
654.777	19.22
655.105	20.06
655.433	19.13
655.761	19.32
656.089	19.92
656.417	19.52
656.745	19.6
657.073	19.82
657.4	19.58
657.728	19.75
658.056	19.79
658.383	19.91
658.711	19.95
659.038	19.67
659.365	19.68
659.693	19.83
660.02	19.83
660.347	19.57
660.674	19.83
661.001	19.65
661.329	19.89
661.656	19.54
661.982	20.05
662.309	19.82
662.636	19.81
662.963	19.59
663.29	19.94
663.616	20.49
663.943	20.52
664.27	20.11
664.596	20.72
664.923	19.72
665.249	20.4
665.576	20.82
665.902	20.18
666.228	20.44
666.554	20.17
666.881	20.43
667.207	20.73
667.533	20.58
667.859	20.23
668.185	20.64
668.511	20.86
668.837	20.67
669.162	20.78
669.488	20.25
669.814	20.97
670.139	20.45
670.465	20.97
670.791	21.05
671.116	20.9
671.442	20.55
671.767	21.07
672.092	21.25
672.418	20.69
672.743	20.7
673.068	20.39
673.393	20.85
673.718	20.36
674.043	21.17
674.368	20.34
674.693	20.32
675.018	21.18
675.343	21.03
675.667	21.3
675.992	21.08
676.317	20.98
676.641	21.28
676.966	21.13
677.29	20.83
677.615	21.66
677.939	21.17
678.264	21.35
678.588	21.09
678.912	21.38
679.236	21.61
679.56	21.36
679.885	20.72
680.209	20.85
680.532	21.05
680.856	21.33
681.18	21.37
681.504	21.25
