Data from 0028_crown_Reflection__2__113.txt Node

Date: Thu Oct 20 21:48:41 CDT 2022
User: ToomeyLab
Spectrometer: FLMS14357
Trigger mode: 0
Integration Time (sec): 1.000000E-2
Scans to average: 100
Electric dark correction enabled: true
Nonlinearity correction enabled: false
Boxcar width: 0
XAxis mode: Wavelengths
Number of Pixels in Spectrum: 2048
>>>>>Begin Spectral Data<<<<<
189.047	69.57
189.435	69.57
189.823	69.57
190.211	-171.25
190.599	-98.51
190.987	71.94
191.375	88.21
191.763	34.87
192.151	132.87
192.538	293.59
192.926	135.27
193.314	67.51
193.702	-127.91
194.089	123.05
194.477	123.04
194.864	-189.22
195.252	70.04
195.639	-143.67
196.027	-38.13
196.414	47.07
196.801	-31.9
197.189	-41.09
197.576	572.03
197.963	-97.36
198.351	1.13
198.738	-49.48
199.125	-2.53
199.512	-31.59
199.899	-3.23
200.286	-4.57
200.673	15.71
201.06	-9.86
201.447	23.81
201.833	-5.35
202.22	5.43
202.607	5.11
202.994	-43.02
203.38	-28.63
203.767	-8.65
204.154	-37.59
204.54	1.77
204.927	13.85
205.313	29.93
205.699	-7.38
206.086	0.29
206.472	-15.77
206.858	-0.31
207.245	24.3
207.631	-7.78
208.017	8.97
208.403	-27.61
208.789	-22.9
209.175	22.53
209.561	16.44
209.947	15.03
210.333	14.88
210.719	8.37
211.105	2.97
211.491	-17.91
211.876	-18.8
212.262	7.72
212.648	-20.1
213.034	24.87
213.419	-32.58
213.805	2.65
214.19	-4.58
214.576	-30.47
214.961	6.7
215.346	-20.63
215.732	-20.79
216.117	-4.37
216.502	3.78
216.888	2.62
217.273	-7.75
217.658	3.85
218.043	13.36
218.428	-17.33
218.813	26.79
219.198	-20.83
219.583	-4.78
219.968	28.8
220.353	-8.99
220.738	11.19
221.122	-7.73
221.507	-12.97
221.892	-15.91
222.276	3.25
222.661	17.07
223.046	5.83
223.43	4.06
223.815	5.64
224.199	3.26
224.583	1.99
224.968	7.99
225.352	7.78
225.736	4.7
226.121	0.56
226.505	5.79
226.889	1.46
227.273	0.76
227.657	0.72
228.041	3.64
228.425	0.7
228.809	5.43
229.193	5.06
229.577	3.48
229.961	5.43
230.344	5.16
230.728	4.57
231.112	5.32
231.495	4.49
231.879	5.14
232.263	5.82
232.646	3.69
233.03	5.07
233.413	3.43
233.797	3.63
234.18	2.96
234.563	3.68
234.946	4.45
235.33	4.75
235.713	4.76
236.096	3.93
236.479	3.97
236.862	4.22
237.245	3.32
237.628	4.73
238.011	4.24
238.394	7.21
238.777	3.65
239.16	4.23
239.543	4.25
239.925	3.34
240.308	4.43
240.691	5.55
241.073	3.9
241.456	4.19
241.838	4.26
242.221	4.58
242.603	4.96
242.986	4.84
243.368	4.36
243.75	4.61
244.133	4.97
244.515	4.52
244.897	4.44
245.279	3.64
245.661	5.37
246.043	5.19
246.425	4.9
246.807	5.43
247.189	4.42
247.571	4.52
247.953	4.33
248.335	4.61
248.717	4.44
249.098	4.47
249.48	4.63
249.862	4.23
250.243	4.67
250.625	4.84
251.006	5.07
251.388	4.35
251.769	4.24
252.151	4
252.532	3.58
252.913	4.41
253.295	4.12
253.676	4.65
254.057	4
254.438	4.12
254.819	4.72
255.2	5.1
255.581	4.75
255.962	5.21
256.343	4.01
256.724	3.78
257.105	4.19
257.486	4.28
257.867	5.31
258.247	4.97
258.628	4.28
259.009	3.8
259.389	3.87
259.77	4
260.15	4.12
260.531	4.2
260.911	3.97
261.292	4.34
261.672	4.09
262.052	4.1
262.432	4.57
262.813	4.05
263.193	4.53
263.573	4.35
263.953	4.11
264.333	4
264.713	4.17
265.093	4.21
265.473	4.45
265.853	5.01
266.233	4.11
266.612	4.03
266.992	3.67
267.372	4.38
267.752	4.08
268.131	3.97
268.511	4.05
268.89	3.92
269.27	4
269.649	3.44
270.029	3.19
270.408	3.43
270.787	3.73
271.167	4.03
271.546	3.62
271.925	4.22
272.304	3.91
272.683	3.85
273.062	3.92
273.441	4.41
273.82	4.05
274.199	3.93
274.578	3.84
274.957	3.61
275.336	3.85
275.715	3.61
276.093	4.29
276.472	4.47
276.851	3.88
277.229	3.42
277.608	3.77
277.986	3.73
278.365	3.64
278.743	4.22
279.122	3.77
279.5	3.94
279.878	4.07
280.257	4
280.635	4.16
281.013	3.4
281.391	3.91
281.769	3.76
282.147	3.77
282.525	3.72
282.903	3.74
283.281	3.41
283.659	3.46
284.037	3.3
284.415	3.54
284.792	3.29
285.17	4.23
285.548	3.47
285.925	3.54
286.303	3.55
286.68	4.03
287.058	3.8
287.435	3.62
287.813	3.49
288.19	3.76
288.567	3.57
288.945	4.01
289.322	3.68
289.699	3.3
290.076	3.6
290.453	3.3
290.83	3.65
291.207	3.46
291.584	3.33
291.961	3.7
292.338	3.56
292.715	3.86
293.092	4.13
293.469	3.83
293.845	3.58
294.222	3.65
294.599	4.23
294.975	3.49
295.352	3.91
295.728	3.82
296.105	4
296.481	3.22
296.858	4
297.234	3.94
297.61	3.76
297.986	3.59
298.363	3.48
298.739	3.79
299.115	3.66
299.491	3.78
299.867	3.75
300.243	3.94
300.619	3.81
300.995	3.63
301.371	3.96
301.746	3.5
302.122	4.22
302.498	4.08
302.874	4.03
303.249	3.75
303.625	3.69
304	4.01
304.376	3.44
304.751	4
305.127	3.09
305.502	4.08
305.878	3.65
306.253	3.41
306.628	3.64
307.003	3.89
307.378	3.08
307.754	3.94
308.129	3.88
308.504	3.7
308.879	3.96
309.254	3.84
309.629	3.51
310.003	3.58
310.378	3.68
310.753	3.76
311.128	3.92
311.502	3.76
311.877	4.11
312.252	3.83
312.626	3.94
313.001	3.84
313.375	4.49
313.75	3.83
314.124	3.92
314.498	4.26
314.873	4
315.247	4.19
315.621	3.91
315.995	3.79
316.369	4.08
316.743	3.62
317.117	3.98
317.491	4.16
317.865	4.33
318.239	4.24
318.613	4.12
318.987	3.65
319.361	3.86
319.734	3.16
320.108	4.13
320.482	4.2
320.855	4.23
321.229	4.01
321.602	3.36
321.976	4.39
322.349	4.04
322.723	4.68
323.096	3.93
323.469	3.69
323.843	4.2
324.216	3.76
324.589	4.61
324.962	4.09
325.335	4.6
325.708	4.26
326.081	4.55
326.454	4
326.827	3.82
327.2	4.45
327.573	4.34
327.945	4.22
328.318	3.98
328.691	4.45
329.063	4.39
329.436	4.3
329.809	4.61
330.181	4.28
330.553	4
330.926	4.09
331.298	4.34
331.671	4.77
332.043	4.62
332.415	4
332.787	4.63
333.159	4.37
333.532	4.48
333.904	4.32
334.276	4.26
334.648	3.94
335.02	4.5
335.391	4.16
335.763	3.94
336.135	4.57
336.507	3.47
336.879	4.57
337.25	4.17
337.622	4.41
337.993	3.88
338.365	4.65
338.736	4.64
339.108	4.17
339.479	4.35
339.851	4.42
340.222	4.3
340.593	4.38
340.964	4.42
341.336	4.29
341.707	3.88
342.078	4.28
342.449	4.43
342.82	4.25
343.191	4.12
343.562	4.16
343.933	4.18
344.303	4.65
344.674	4.45
345.045	4.36
345.416	4.17
345.786	4.46
346.157	4.64
346.527	4.06
346.898	4.31
347.268	4.49
347.639	4.73
348.009	4.39
348.38	4.78
348.75	3.94
349.12	4.73
349.49	4.32
349.861	4.72
350.231	4.37
350.601	4.6
350.971	4.43
351.341	4.78
351.711	4.22
352.081	4.06
352.45	4.28
352.82	4.86
353.19	4.14
353.56	4.54
353.929	4.56
354.299	4.79
354.669	4.57
355.038	4.67
355.408	4.26
355.777	4.86
356.147	4.95
356.516	4.28
356.885	4.6
357.254	4.8
357.624	4.41
357.993	4.15
358.362	4.49
358.731	4.54
359.1	4.3
359.469	4.42
359.838	4.48
360.207	4.81
360.576	4.26
360.945	4.64
361.314	4.53
361.682	4.59
362.051	4.4
362.42	4.42
362.788	4.49
363.157	4.37
363.525	4.51
363.894	4.7
364.262	4.56
364.631	4.64
364.999	4.5
365.367	5.12
365.735	4.47
366.104	4.75
366.472	4.61
366.84	4.76
367.208	4.49
367.576	4.52
367.944	4.81
368.312	4.67
368.68	4.77
369.048	4.81
369.416	4.42
369.783	4.63
370.151	5
370.519	4.87
370.886	4.28
371.254	4.95
371.621	4.63
371.989	4.58
372.356	4.53
372.724	4.54
373.091	4.74
373.458	4.73
373.826	4.8
374.193	4.75
374.56	4.51
374.927	4.64
375.294	4.67
375.661	5.11
376.028	4.48
376.395	5.03
376.762	4.85
377.129	4.64
377.496	4.64
377.863	4.47
378.229	4.62
378.596	4.79
378.963	4.75
379.329	4.77
379.696	4.75
380.062	4.9
380.429	5.11
380.795	4.63
381.161	4.87
381.528	4.78
381.894	4.75
382.26	4.62
382.626	4.7
382.993	4.43
383.359	4.95
383.725	5
384.091	4.64
384.457	4.51
384.823	4.72
385.188	4.84
385.554	4.51
385.92	4.58
386.286	4.72
386.651	4.5
387.017	4.69
387.383	4.55
387.748	4.97
388.114	5.06
388.479	4.76
388.845	4.93
389.21	4.76
389.575	4.49
389.94	5.17
390.306	4.95
390.671	4.92
391.036	4.87
391.401	4.61
391.766	4.86
392.131	4.83
392.496	4.57
392.861	4.65
393.226	4.69
393.591	4.89
393.956	4.92
394.32	4.9
394.685	5.04
395.05	4.6
395.414	4.89
395.779	4.76
396.143	4.89
396.508	4.86
396.872	5.01
397.236	4.77
397.601	4.89
397.965	5.03
398.329	4.87
398.694	4.59
399.058	4.78
399.422	5.06
399.786	4.87
400.15	4.88
400.514	4.95
400.878	4.81
401.242	5.04
401.605	4.9
401.969	5.07
402.333	4.87
402.697	4.99
403.06	4.93
403.424	4.8
403.787	4.93
404.151	4.61
404.514	4.82
404.878	4.61
405.241	4.75
405.604	5.01
405.968	4.67
406.331	4.88
406.694	5.07
407.057	5.04
407.42	4.98
407.783	4.9
408.146	4.83
408.509	4.77
408.872	4.84
409.235	4.75
409.598	5.01
409.961	4.81
410.323	5.23
410.686	4.93
411.049	5.05
411.411	4.83
411.774	4.93
412.136	4.96
412.499	4.95
412.861	4.93
413.223	4.95
413.586	4.68
413.948	4.91
414.31	4.84
414.672	4.85
415.035	4.92
415.397	4.84
415.759	5.01
416.121	4.82
416.483	4.93
416.845	5.03
417.206	4.72
417.568	4.97
417.93	4.55
418.292	4.96
418.653	4.88
419.015	4.94
419.377	4.86
419.738	4.86
420.1	4.94
420.461	4.89
420.822	4.76
421.184	4.74
421.545	4.86
421.906	4.71
422.267	4.78
422.629	4.8
422.99	4.82
423.351	4.83
423.712	4.82
424.073	4.88
424.434	4.79
424.795	4.76
425.155	4.84
425.516	4.71
425.877	4.81
426.238	4.88
426.598	4.78
426.959	4.78
427.32	4.81
427.68	4.88
428.041	4.87
428.401	4.84
428.761	4.8
429.122	4.78
429.482	4.83
429.842	4.89
430.202	4.92
430.563	4.81
430.923	5.22
431.283	4.81
431.643	4.93
432.003	4.82
432.363	5.01
432.722	5.13
433.082	4.9
433.442	4.86
433.802	4.71
434.161	5
434.521	4.65
434.881	4.79
435.24	4.68
435.6	4.89
435.959	4.92
436.319	4.92
436.678	4.89
437.037	4.84
437.396	5.06
437.756	4.95
438.115	4.86
438.474	4.76
438.833	4.86
439.192	4.9
439.551	4.8
439.91	4.87
440.269	4.95
440.628	4.88
440.987	4.83
441.345	4.93
441.704	4.92
442.063	4.86
442.421	4.78
442.78	4.85
443.138	4.94
443.497	4.82
443.855	4.78
444.214	4.84
444.572	5.02
444.93	4.79
445.288	4.84
445.647	4.87
446.005	4.84
446.363	4.72
446.721	4.79
447.079	4.75
447.437	4.82
447.795	4.74
448.153	4.72
448.51	4.72
448.868	4.84
449.226	4.82
449.584	4.72
449.941	4.91
450.299	4.86
450.656	4.88
451.014	4.92
451.371	4.93
451.729	4.77
452.086	5.01
452.443	4.91
452.801	4.83
453.158	4.86
453.515	4.88
453.872	4.8
454.229	4.7
454.586	4.92
454.943	4.86
455.3	4.76
455.657	4.84
456.014	4.79
456.371	4.86
456.727	4.91
457.084	4.66
457.441	4.95
457.797	5.01
458.154	4.96
458.51	4.78
458.867	4.89
459.223	5.03
459.58	4.85
459.936	4.8
460.292	4.83
460.648	4.57
461.005	4.62
461.361	4.72
461.717	4.77
462.073	4.93
462.429	4.94
462.785	4.99
463.141	5.05
463.496	5.18
463.852	4.94
464.208	4.96
464.564	4.9
464.919	4.83
465.275	4.92
465.631	4.88
465.986	4.89
466.342	4.67
466.697	4.87
467.052	4.88
467.408	4.89
467.763	4.79
468.118	4.98
468.473	4.96
468.829	4.8
469.184	4.91
469.539	4.8
469.894	4.83
470.249	4.99
470.603	4.79
470.958	4.97
471.313	4.68
471.668	4.83
472.023	4.86
472.377	4.87
472.732	4.9
473.086	4.89
473.441	4.84
473.795	4.91
474.15	4.97
474.504	4.75
474.859	4.85
475.213	5.02
475.567	4.97
475.921	4.8
476.275	5.02
476.63	4.97
476.984	4.94
477.338	4.93
477.692	4.84
478.045	4.85
478.399	4.92
478.753	4.79
479.107	4.83
479.461	4.87
479.814	4.81
480.168	4.92
480.521	4.89
480.875	4.96
481.228	4.81
481.582	4.83
481.935	4.81
482.289	4.72
482.642	4.57
482.995	4.79
483.348	4.87
483.701	4.8
484.055	4.67
484.408	4.62
484.761	4.6
485.114	4.46
485.466	4.43
485.819	4.48
486.172	4.62
486.525	4.71
486.878	4.76
487.23	4.74
487.583	4.72
487.936	4.73
488.288	4.65
488.641	4.56
488.993	4.57
489.345	4.57
489.698	4.6
490.05	4.6
490.402	4.73
490.754	4.72
491.107	4.73
491.459	4.84
491.811	4.66
492.163	4.72
492.515	4.62
492.866	4.53
493.218	4.52
493.57	4.61
493.922	4.68
494.274	4.74
494.625	4.79
494.977	4.78
495.328	4.78
495.68	4.79
496.031	4.83
496.383	4.88
496.734	4.91
497.086	4.74
497.437	4.82
497.788	4.73
498.139	4.63
498.49	4.81
498.842	4.67
499.193	4.76
499.544	4.7
499.894	4.8
500.245	4.88
500.596	4.82
500.947	4.78
501.298	4.83
501.648	4.73
501.999	4.85
502.35	4.74
502.7	4.91
503.051	4.87
503.401	4.9
503.752	4.79
504.102	4.8
504.452	4.76
504.803	4.74
505.153	4.82
505.503	4.89
505.853	4.79
506.203	4.95
506.553	4.79
506.903	4.86
507.253	4.82
507.603	4.94
507.953	4.92
508.303	4.8
508.652	4.79
509.002	4.74
509.352	4.8
509.701	4.72
510.051	4.67
510.4	4.69
510.75	4.65
511.099	4.79
511.449	4.86
511.798	4.77
512.147	4.81
512.496	4.93
512.846	4.83
513.195	4.89
513.544	4.73
513.893	4.79
514.242	4.69
514.591	4.89
514.939	4.78
515.288	4.85
515.637	4.75
515.986	4.82
516.334	4.84
516.683	4.78
517.032	4.73
517.38	4.71
517.729	4.87
518.077	4.8
518.426	4.83
518.774	4.74
519.122	4.8
519.47	4.72
519.819	4.71
520.167	4.62
520.515	4.64
520.863	4.72
521.211	4.8
521.559	4.78
521.907	4.68
522.255	4.85
522.602	4.74
522.95	4.82
523.298	4.8
523.645	4.96
523.993	4.79
524.341	4.85
524.688	4.84
525.036	4.75
525.383	4.74
525.73	4.7
526.078	4.84
526.425	4.71
526.772	4.67
527.119	4.65
527.466	4.75
527.814	4.74
528.161	4.69
528.508	4.66
528.854	4.68
529.201	4.64
529.548	4.54
529.895	4.45
530.242	4.45
530.588	4.52
530.935	4.61
531.282	4.62
531.628	4.73
531.975	4.75
532.321	4.73
532.667	4.77
533.014	4.78
533.36	4.7
533.706	4.66
534.052	4.65
534.399	4.66
534.745	4.53
535.091	4.58
535.437	4.69
535.783	4.73
536.129	4.73
536.474	4.73
536.82	4.79
537.166	4.71
537.512	4.69
537.857	4.61
538.203	4.6
538.549	4.75
538.894	4.83
539.239	4.71
539.585	4.85
539.93	4.84
540.276	4.95
540.621	4.77
540.966	4.75
541.311	4.74
541.656	4.7
542.001	4.66
542.346	4.59
542.691	4.48
543.036	4.51
543.381	4.6
543.726	4.64
544.071	4.7
544.415	4.72
544.76	4.63
545.105	4.8
545.449	4.76
545.794	4.8
546.138	4.93
546.483	4.9
546.827	4.81
547.171	4.77
547.516	4.73
547.86	4.73
548.204	4.79
548.548	4.68
548.892	4.73
549.236	4.89
549.58	4.85
549.924	4.9
550.268	4.86
550.612	4.96
550.956	4.92
551.3	4.82
551.643	4.89
551.987	4.83
552.33	4.77
552.674	4.71
553.017	4.79
553.361	5
553.704	4.92
554.048	4.82
554.391	4.74
554.734	4.77
555.077	4.77
555.42	4.83
555.764	4.77
556.107	4.89
556.45	4.81
556.793	4.92
557.135	4.98
557.478	4.8
557.821	4.87
558.164	4.83
558.507	4.9
558.849	4.95
559.192	4.87
559.534	4.94
559.877	5.1
560.219	5.01
560.562	4.89
560.904	4.78
561.246	4.82
561.589	5.01
561.931	4.74
562.273	5
562.615	4.89
562.957	4.7
563.299	4.89
563.641	4.98
563.983	5.08
564.325	4.99
564.667	4.78
565.008	4.84
565.35	5.02
565.692	4.78
566.033	4.71
566.375	4.8
566.716	4.89
567.058	4.85
567.399	4.95
567.741	4.9
568.082	4.78
568.423	4.88
568.764	4.74
569.105	4.96
569.447	4.94
569.788	4.92
570.129	5
570.47	4.7
570.811	4.6
571.151	4.9
571.492	4.86
571.833	5.03
572.174	4.83
572.514	4.74
572.855	5
573.195	4.96
573.536	4.7
573.876	4.75
574.217	4.77
574.557	4.91
574.898	4.92
575.238	5.09
575.578	4.82
575.918	4.93
576.258	4.97
576.598	4.83
576.938	4.91
577.278	4.82
577.618	4.98
577.958	4.93
578.298	4.88
578.638	4.9
578.977	5.09
579.317	4.91
579.657	4.83
579.996	5
580.336	5.08
580.675	5.25
581.014	4.89
581.354	5.1
581.693	4.89
582.032	4.93
582.372	5.03
582.711	4.79
583.05	4.94
583.389	4.93
583.728	5.03
584.067	5.05
584.406	5.03
584.745	4.97
585.083	4.94
585.422	5.21
585.761	5.17
586.1	5.02
586.438	5.05
586.777	5.04
587.115	4.94
587.454	5.08
587.792	5.07
588.13	4.91
588.469	5.14
588.807	4.91
589.145	4.97
589.483	4.91
589.821	4.82
590.159	5.1
590.497	4.9
590.835	5
591.173	4.98
591.511	4.95
591.849	5
592.187	4.78
592.524	5.09
592.862	4.77
593.2	5.13
593.537	4.97
593.875	5.13
594.212	4.9
594.55	4.97
594.887	4.95
595.224	4.8
595.561	4.85
595.899	5.23
596.236	5.09
596.573	5.11
596.91	4.79
597.247	4.96
597.584	4.95
597.921	4.94
598.258	5.06
598.594	5.01
598.931	5.03
599.268	4.97
599.604	5.08
599.941	5.13
600.277	5.11
600.614	4.98
600.95	5.14
601.287	5.02
601.623	4.92
601.959	5.1
602.296	5.17
602.632	4.7
602.968	5.25
603.304	5.08
603.64	5.09
603.976	4.96
604.312	5.06
604.648	5.06
604.984	4.9
605.319	4.93
605.655	4.84
605.991	4.78
606.326	5.09
606.662	5.05
606.998	5.27
607.333	5
607.668	4.98
608.004	5.01
608.339	5.1
608.674	5.08
609.01	5.09
609.345	5.2
609.68	4.73
610.015	5.13
610.35	5.04
610.685	5.08
611.02	4.94
611.355	4.83
611.689	5.1
612.024	4.94
612.359	5.05
612.694	4.86
613.028	4.99
613.363	5.11
613.697	5.16
614.032	5.37
614.366	5.27
614.7	4.97
615.035	5.04
615.369	4.88
615.703	5.14
616.037	5.37
616.371	5.18
616.705	5.12
617.039	5
617.373	4.72
617.707	5.3
618.041	5.08
618.375	4.72
618.709	4.97
619.042	4.87
619.376	4.94
619.71	5.14
620.043	4.96
620.377	4.96
620.71	5.11
621.043	5.1
621.377	4.96
621.71	5
622.043	4.93
622.376	5.23
622.709	5.42
623.043	5.05
623.376	5.17
623.709	5.11
624.041	5.21
624.374	5.17
624.707	4.81
625.04	5.12
625.373	5.15
625.705	4.78
626.038	5.38
626.37	4.88
626.703	5.44
627.035	5.16
627.368	5.06
627.7	5.02
628.032	5.08
628.365	5.06
628.697	5.36
629.029	5.19
629.361	5.24
629.693	5.27
630.025	5.13
630.357	5
630.689	5.25
631.021	5.25
631.353	5.2
631.684	5.19
632.016	4.93
632.348	5.19
632.679	4.83
633.011	5.26
633.342	5.22
633.674	4.78
634.005	5.2
634.336	5.28
634.668	5.13
634.999	5.12
635.33	5.47
635.661	5.26
635.992	5.07
636.323	5.5
636.654	5.22
636.985	4.99
637.316	4.96
637.647	5.07
637.977	5.47
638.308	5.09
638.639	5.33
638.969	5.1
639.3	5.13
639.63	4.9
639.961	4.91
640.291	4.83
640.622	5.32
640.952	4.88
641.282	4.84
641.612	5.33
641.943	5.2
642.273	5.58
642.603	4.75
642.933	5.42
643.263	5.22
643.592	5.17
643.922	5.14
644.252	5.56
644.582	4.94
644.911	5.26
645.241	5.32
645.571	5.28
645.9	5.51
646.23	5.16
646.559	5.16
646.888	5.39
647.218	5
647.547	5.24
647.876	5.09
648.205	5.18
648.534	5.19
648.863	5.27
649.192	5.04
649.521	4.95
649.85	5.29
650.179	4.84
650.508	5.62
650.837	5.08
651.165	5.04
651.494	5.21
651.822	5.32
652.151	5.47
652.479	5.11
652.808	5.22
653.136	4.67
653.465	5.13
653.793	5.45
654.121	5.39
654.449	5.45
654.777	5.45
655.105	5.47
655.433	5.02
655.761	5.46
656.089	5.44
656.417	5.4
656.745	5.12
657.073	5.26
657.4	5.33
657.728	5.18
658.056	5.18
658.383	5.27
658.711	5.71
659.038	5.52
659.365	5.2
659.693	5.46
660.02	5.39
660.347	5.27
660.674	5.23
661.001	5.19
661.329	5.18
661.656	4.83
661.982	5.22
662.309	5.25
662.636	5.74
662.963	5.13
663.29	5.06
663.616	5.07
663.943	5.21
664.27	5.75
664.596	5.98
664.923	5.29
665.249	5.25
665.576	5.66
665.902	5.29
666.228	5.38
666.554	5.18
666.881	5.8
667.207	5.51
667.533	5.07
667.859	5.49
668.185	6.41
668.511	5.89
668.837	5.3
669.162	5.66
669.488	5.23
669.814	5.38
670.139	5.75
670.465	5.26
670.791	5.67
671.116	5.22
671.442	5.42
671.767	5.86
672.092	5.86
672.418	4.97
672.743	5.19
673.068	5.53
673.393	5.22
673.718	5.37
674.043	5.5
674.368	4.87
674.693	5.63
675.018	5.46
675.343	5.63
675.667	5.68
675.992	4.98
676.317	5.83
676.641	5.55
676.966	5.33
677.29	5.04
677.615	5.83
677.939	5.65
678.264	5.92
678.588	5.45
678.912	5.07
679.236	5.46
679.56	5.04
679.885	5.41
680.209	4.79
680.532	5.87
680.856	5.91
681.18	5.48
681.504	4.97
681.828	5.54
682.152	5.78
682.475	5.57
682.799	5.91
683.122	5.52
683.446	5.41
683.769	5.37
684.093	5.52
684.416	5.28
684.739	5.83
685.062	5.7
685.386	5.38
685.709	5.09
686.032	6.13
686.355	5.19
686.678	5.76
687.001	5.61
687.324	5.99
687.646	5.46
687.969	5.56
688.292	5.82
688.614	5.52
688.937	5.32
689.26	5.51
689.582	5.27
689.904	6.24
690.227	5.07
690.549	5.86
690.871	5.33
691.194	5.93
691.516	5.74
691.838	5.48
692.16	5.76
692.482	5.6
692.804	5.17
693.126	6.2
693.448	5.41
693.769	5.81
