Data from 0028_crown_Reflection__0__111.txt Node

Date: Thu Oct 20 21:48:21 CDT 2022
User: ToomeyLab
Spectrometer: FLMS14357
Trigger mode: 0
Integration Time (sec): 1.000000E-2
Scans to average: 100
Electric dark correction enabled: true
Nonlinearity correction enabled: false
Boxcar width: 0
XAxis mode: Wavelengths
Number of Pixels in Spectrum: 2048
>>>>>Begin Spectral Data<<<<<
189.047	-4.59
189.435	-4.59
189.823	-4.59
190.211	-275.62
190.599	-220.43
190.987	23.84
191.375	137.88
191.763	-36.24
192.151	132.94
192.538	1045.61
192.926	153.69
193.314	212.04
193.702	-337.85
194.089	168.64
194.477	100.48
194.864	70.62
195.252	29.33
195.639	72.11
196.027	-7.01
196.414	24.98
196.801	-7.08
197.189	59.44
197.576	328.7
197.963	-91.24
198.351	-9.5
198.738	-82.23
199.125	8.27
199.512	-19.86
199.899	-63.05
200.286	-14.54
200.673	-22.67
201.06	7.87
201.447	14.77
201.833	-44.42
202.22	-63.15
202.607	2.1
202.994	-18.82
203.38	-44.67
203.767	19.29
204.154	-16.1
204.54	-35.21
204.927	-9.68
205.313	35.6
205.699	-34.34
206.086	0.72
206.472	-39.12
206.858	15.56
207.245	13.89
207.631	27.69
208.017	-14.53
208.403	-6.53
208.789	-27.29
209.175	15.85
209.561	14.69
209.947	-3.25
210.333	13.7
210.719	11.21
211.105	35.09
211.491	-23.03
211.876	-10.39
212.262	13.82
212.648	-5.29
213.034	3.61
213.419	-36.73
213.805	-9
214.19	0.76
214.576	-36.03
214.961	-7.77
215.346	18.54
215.732	19.4
216.117	-5.35
216.502	9.85
216.888	-27.26
217.273	-15.84
217.658	19.37
218.043	2.69
218.428	4.01
218.813	17.55
219.198	0.47
219.583	-1.85
219.968	6.44
220.353	-17.48
220.738	7
221.122	-1.07
221.507	-8.29
221.892	-13.96
222.276	5.82
222.661	0.61
223.046	2.82
223.43	1.42
223.815	6.75
224.199	-0.92
224.583	-6.53
224.968	-2.54
225.352	4.23
225.736	1.25
226.121	-7.82
226.505	2.3
226.889	0.1
227.273	-1.17
227.657	3.77
228.041	-3.08
228.425	1.13
228.809	2.2
229.193	4
229.577	1.26
229.961	2.91
230.344	3.3
230.728	2.86
231.112	2.62
231.495	2.66
231.879	4.31
232.263	3.13
232.646	3.39
233.03	2.79
233.413	0.22
233.797	1.02
234.18	0.98
234.563	2.69
234.946	2.28
235.33	1.97
235.713	2.45
236.096	1.34
236.479	3.61
236.862	3.02
237.245	1.2
237.628	2.3
238.011	2.84
238.394	5.34
238.777	2.41
239.16	2.76
239.543	2.23
239.925	3.09
240.308	3.11
240.691	3.55
241.073	3.19
241.456	3.64
241.838	3.19
242.221	1.89
242.603	2.95
242.986	2.59
243.368	2.81
243.75	2.98
244.133	3.16
244.515	3.3
244.897	2.92
245.279	2.07
245.661	2.86
246.043	2.7
246.425	3.18
246.807	3.36
247.189	2.96
247.571	2.85
247.953	2.94
248.335	3.03
248.717	2.98
249.098	3.05
249.48	2.99
249.862	2.97
250.243	2.71
250.625	2.97
251.006	3.09
251.388	3.11
251.769	2.92
252.151	2.72
252.532	2.27
252.913	2.08
253.295	2.77
253.676	2.61
254.057	2.48
254.438	3.1
254.819	2.22
255.2	3.07
255.581	2.57
255.962	3.43
256.343	2.13
256.724	2.11
257.105	2.49
257.486	2.79
257.867	3.23
258.247	2.54
258.628	2.2
259.009	2.16
259.389	2.11
259.77	2.24
260.15	2.73
260.531	3.03
260.911	2.43
261.292	2.68
261.672	3.02
262.052	2.98
262.432	3.14
262.813	2.43
263.193	2.48
263.573	2.42
263.953	3.01
264.333	2.38
264.713	2.74
265.093	2.25
265.473	3.13
265.853	2.83
266.233	3.23
266.612	2.82
266.992	2.22
267.372	2.72
267.752	2.53
268.131	3.07
268.511	2.73
268.89	2.61
269.27	2.5
269.649	2.01
270.029	1.91
270.408	2.68
270.787	2.22
271.167	2.19
271.546	2.18
271.925	2.78
272.304	2.57
272.683	2.45
273.062	2.47
273.441	2.38
273.82	2.52
274.199	2.34
274.578	2.25
274.957	2.04
275.336	2.37
275.715	2.74
276.093	2.73
276.472	2.9
276.851	2.93
277.229	2.43
277.608	2.35
277.986	2.36
278.365	2.1
278.743	2.58
279.122	2.65
279.5	2.42
279.878	2.21
280.257	1.96
280.635	2.36
281.013	2.22
281.391	2.6
281.769	2.47
282.147	1.82
282.525	2.42
282.903	2.31
283.281	2.07
283.659	2.07
284.037	1.69
284.415	2.16
284.792	2.19
285.17	2.77
285.548	2.01
285.925	2.33
286.303	2.31
286.68	2.84
287.058	2.15
287.435	2.17
287.813	2.12
288.19	2.17
288.567	2.29
288.945	2.48
289.322	2.25
289.699	2.07
290.076	2.58
290.453	2.24
290.83	2.67
291.207	2.66
291.584	2.07
291.961	2.46
292.338	1.98
292.715	2.43
293.092	2.28
293.469	2.27
293.845	2.39
294.222	2.53
294.599	2.97
294.975	2.24
295.352	2.6
295.728	2.13
296.105	2.65
296.481	2.23
296.858	2.62
297.234	2.53
297.61	2.27
297.986	2.27
298.363	2.2
298.739	2.47
299.115	2.59
299.491	2.27
299.867	2.06
300.243	2.48
300.619	2.44
300.995	1.88
301.371	2.39
301.746	2.26
302.122	2.34
302.498	2.78
302.874	3.08
303.249	2.46
303.625	2.43
304	2.69
304.376	2.28
304.751	2.3
305.127	2
305.502	2.97
305.878	2.24
306.253	2.36
306.628	2.37
307.003	1.85
307.378	2.04
307.754	2.58
308.129	2.08
308.504	2.72
308.879	2.46
309.254	2.78
309.629	2.88
310.003	2.17
310.378	2.63
310.753	2.93
311.128	2.11
311.502	2.62
311.877	2.71
312.252	2.47
312.626	2.52
313.001	2.54
313.375	2.66
313.75	2.46
314.124	2.69
314.498	2.67
314.873	2.35
315.247	2.62
315.621	2.62
315.995	2.35
316.369	2.64
316.743	2.25
317.117	2.55
317.491	2.81
317.865	2.72
318.239	3
318.613	3.33
318.987	2.44
319.361	2.64
319.734	1.81
320.108	2.87
320.482	2.8
320.855	3.16
321.229	2.91
321.602	1.93
321.976	2.33
322.349	3.08
322.723	2.98
323.096	3.16
323.469	2.92
323.843	2.81
324.216	2.94
324.589	2.86
324.962	2.84
325.335	3.09
325.708	2.86
326.081	2.88
326.454	2.73
326.827	2.51
327.2	2.95
327.573	2.88
327.945	3
328.318	2.54
328.691	3.02
329.063	2.74
329.436	3.08
329.809	3.07
330.181	2.93
330.553	2.48
330.926	3.02
331.298	2.66
331.671	2.91
332.043	2.94
332.415	2.43
332.787	3.5
333.159	2.73
333.532	2.74
333.904	3.18
334.276	3.06
334.648	2.23
335.02	2.92
335.391	2.62
335.763	2.8
336.135	2.8
336.507	2.32
336.879	3.3
337.25	2.75
337.622	2.75
337.993	2.5
338.365	3.09
338.736	2.84
339.108	2.85
339.479	3
339.851	2.92
340.222	2.69
340.593	2.93
340.964	3.02
341.336	2.54
341.707	2.46
342.078	3.08
342.449	2.53
342.82	3.06
343.191	3.04
343.562	3.25
343.933	2.79
344.303	2.99
344.674	3.11
345.045	3.15
345.416	2.89
345.786	3.13
346.157	3.17
346.527	2.74
346.898	2.92
347.268	2.51
347.639	3.05
348.009	3.02
348.38	3.56
348.75	2.99
349.12	2.7
349.49	3
349.861	3.03
350.231	2.93
350.601	3.12
350.971	2.9
351.341	3.09
351.711	3.08
352.081	3.03
352.45	2.94
352.82	3.01
353.19	2.92
353.56	2.72
353.929	2.82
354.299	3.22
354.669	2.87
355.038	2.92
355.408	2.52
355.777	3.29
356.147	3.2
356.516	3.08
356.885	2.76
357.254	3.14
357.624	2.92
357.993	2.8
358.362	3.25
358.731	2.87
359.1	2.73
359.469	3.12
359.838	2.94
360.207	3.64
360.576	3.05
360.945	3.34
361.314	3.05
361.682	3.26
362.051	2.89
362.42	3.12
362.788	3.01
363.157	3.01
363.525	3.04
363.894	3.16
364.262	3.39
364.631	2.99
364.999	2.89
365.367	3.38
365.735	3.13
366.104	2.96
366.472	3.2
366.84	3.36
367.208	2.88
367.576	3.2
367.944	3.4
368.312	2.88
368.68	3.04
369.048	2.96
369.416	2.96
369.783	3.35
370.151	3.7
370.519	3.17
370.886	2.97
371.254	3.24
371.621	3.24
371.989	3.09
372.356	3.16
372.724	3.3
373.091	3.11
373.458	3.08
373.826	3.11
374.193	3.14
374.56	2.81
374.927	2.8
375.294	2.9
375.661	3.59
376.028	2.9
376.395	3.34
376.762	3.09
377.129	2.65
377.496	3.14
377.863	3.26
378.229	3.09
378.596	3.33
378.963	3.22
379.329	3.22
379.696	3.28
380.062	3.05
380.429	3.48
380.795	3.31
381.161	3.34
381.528	3.35
381.894	3.17
382.26	3.16
382.626	3.17
382.993	2.9
383.359	3.46
383.725	3.45
384.091	3.32
384.457	3
384.823	3.43
385.188	3.27
385.554	2.94
385.92	3.12
386.286	3.33
386.651	3.07
387.017	3.19
387.383	3.26
387.748	3.45
388.114	3.48
388.479	3.27
388.845	3.44
389.21	3.42
389.575	3.38
389.94	3.42
390.306	3.58
390.671	3.34
391.036	3.34
391.401	3.03
391.766	3.51
392.131	3.34
392.496	3.18
392.861	3.13
393.226	2.97
393.591	3.46
393.956	3.37
394.32	3.36
394.685	3.42
395.05	3.08
395.414	3.31
395.779	3.3
396.143	3.15
396.508	3.3
396.872	3.62
397.236	3.39
397.601	3.76
397.965	3.25
398.329	3.14
398.694	3.31
399.058	3.41
399.422	3.25
399.786	3.11
400.15	3.27
400.514	3.66
400.878	3.36
401.242	3.54
401.605	3.4
401.969	3.36
402.333	3.42
402.697	3.36
403.06	3.17
403.424	3.36
403.787	3.34
404.151	3.2
404.514	3.58
404.878	3.42
405.241	3.46
405.604	3.34
405.968	3.33
406.331	3.31
406.694	3.28
407.057	3.3
407.42	3.36
407.783	3.24
408.146	3.7
408.509	3.43
408.872	3.5
409.235	3.17
409.598	3.46
409.961	3.39
410.323	3.59
410.686	3.32
411.049	3.24
411.411	3.14
411.774	3.27
412.136	3.44
412.499	3.58
412.861	3.45
413.223	3.25
413.586	3.27
413.948	3.32
414.31	3.29
414.672	3.39
415.035	3.38
415.397	3.38
415.759	3.43
416.121	3.49
416.483	3.44
416.845	3.54
417.206	3.22
417.568	3.39
417.93	3.27
418.292	3.39
418.653	3.44
419.015	3.29
419.377	3.34
419.738	3.35
420.1	3.41
420.461	3.3
420.822	3.38
421.184	3.19
421.545	3.4
421.906	3.23
422.267	3.37
422.629	3.31
422.99	3.27
423.351	3.32
423.712	3.31
424.073	3.32
424.434	3.37
424.795	3.27
425.155	3.34
425.516	3.3
425.877	3.27
426.238	3.47
426.598	3.35
426.959	3.24
427.32	3.32
427.68	3.4
428.041	3.4
428.401	3.33
428.761	3.37
429.122	3.2
429.482	3.37
429.842	3.49
430.202	3.36
430.563	3.4
430.923	3.44
431.283	3.37
431.643	3.36
432.003	3.33
432.363	3.5
432.722	3.63
433.082	3.42
433.442	3.41
433.802	3.28
434.161	3.44
434.521	3.34
434.881	3.26
435.24	3.13
435.6	3.27
435.959	3.48
436.319	3.32
436.678	3.28
437.037	3.32
437.396	3.53
437.756	3.47
438.115	3.29
438.474	3.44
438.833	3.39
439.192	3.29
439.551	3.41
439.91	3.49
440.269	3.29
440.628	3.37
440.987	3.26
441.345	3.44
441.704	3.37
442.063	3.54
442.421	3.26
442.78	3.39
443.138	3.36
443.497	3.31
443.855	3.28
444.214	3.37
444.572	3.48
444.93	3.2
445.288	3.31
445.647	3.35
446.005	3.19
446.363	3.27
446.721	3.4
447.079	3.27
447.437	3.28
447.795	3.24
448.153	3.38
448.51	3.32
448.868	3.33
449.226	3.42
449.584	3.37
449.941	3.45
450.299	3.42
450.656	3.26
451.014	3.41
451.371	3.46
451.729	3.36
452.086	3.54
452.443	3.29
452.801	3.38
453.158	3.39
453.515	3.36
453.872	3.22
454.229	3.28
454.586	3.29
454.943	3.29
455.3	3.35
455.657	3.32
456.014	3.39
456.371	3.31
456.727	3.44
457.084	3.25
457.441	3.39
457.797	3.25
458.154	3.47
458.51	3.21
458.867	3.41
459.223	3.67
459.58	3.36
459.936	3.32
460.292	3.27
460.648	3.2
461.005	3.27
461.361	3.29
461.717	3.31
462.073	3.48
462.429	3.36
462.785	3.51
463.141	3.53
463.496	3.48
463.852	3.32
464.208	3.39
464.564	3.6
464.919	3.5
465.275	3.26
465.631	3.35
465.986	3.37
466.342	3.25
466.697	3.39
467.052	3.27
467.408	3.38
467.763	3.38
468.118	3.38
468.473	3.45
468.829	3.51
469.184	3.34
469.539	3.35
469.894	3.39
470.249	3.41
470.603	3.27
470.958	3.34
471.313	3.36
471.668	3.29
472.023	3.34
472.377	3.22
472.732	3.44
473.086	3.32
473.441	3.4
473.795	3.42
474.15	3.5
474.504	3.26
474.859	3.33
475.213	3.43
475.567	3.39
475.921	3.2
476.275	3.65
476.63	3.66
476.984	3.35
477.338	3.28
477.692	3.36
478.045	3.38
478.399	3.35
478.753	3.14
479.107	3.27
479.461	3.4
479.814	3.29
480.168	3.33
480.521	3.33
480.875	3.33
481.228	3.31
481.582	3.29
481.935	3.31
482.289	3.19
482.642	3.19
482.995	3.24
483.348	3.38
483.701	3.24
484.055	3.18
484.408	3.18
484.761	3.13
485.114	3
485.466	3.02
485.819	3.09
486.172	3.23
486.525	3.24
486.878	3.25
487.23	3.29
487.583	3.21
487.936	3.24
488.288	3.16
488.641	3.12
488.993	3.1
489.345	3.11
489.698	3.13
490.05	3.21
490.402	3.29
490.754	3.23
491.107	3.27
491.459	3.33
491.811	3.31
492.163	3.29
492.515	3.14
492.866	3.14
493.218	3.11
493.57	3.17
493.922	3.19
494.274	3.26
494.625	3.22
494.977	3.34
495.328	3.37
495.68	3.22
496.031	3.3
496.383	3.26
496.734	3.12
497.086	3.16
497.437	3.39
497.788	3.33
498.139	3.27
498.49	3.23
498.842	3.13
499.193	3.21
499.544	3.37
499.894	3.32
500.245	3.37
500.596	3.38
500.947	3.24
501.298	3.31
501.648	3.34
501.999	3.4
502.35	3.28
502.7	3.36
503.051	3.35
503.401	3.25
503.752	3.31
504.102	3.26
504.452	3.34
504.803	3.28
505.153	3.16
505.503	3.41
505.853	3.28
506.203	3.3
506.553	3.42
506.903	3.36
507.253	3.47
507.603	3.37
507.953	3.25
508.303	3.41
508.652	3.29
509.002	3.23
509.352	3.37
509.701	3.25
510.051	3.24
510.4	3.24
510.75	3.23
511.099	3.27
511.449	3.28
511.798	3.38
512.147	3.35
512.496	3.35
512.846	3.27
513.195	3.39
513.544	3.23
513.893	3.28
514.242	3.27
514.591	3.38
514.939	3.31
515.288	3.42
515.637	3.42
515.986	3.26
516.334	3.38
516.683	3.44
517.032	3.36
517.38	3.37
517.729	3.22
518.077	3.32
518.426	3.26
518.774	3.25
519.122	3.26
519.47	3.2
519.819	3.14
520.167	3.2
520.515	3.2
520.863	3.19
521.211	3.28
521.559	3.28
521.907	3.19
522.255	3.29
522.602	3.33
522.95	3.29
523.298	3.26
523.645	3.41
523.993	3.17
524.341	3.3
524.688	3.26
525.036	3.3
525.383	3.23
525.73	3.26
526.078	3.25
526.425	3.24
526.772	3.2
527.119	3.11
527.466	3.25
527.814	3.23
528.161	3.19
528.508	3.19
528.854	3.25
529.201	3.19
529.548	3.16
529.895	3.06
530.242	3.1
530.588	3.11
530.935	3.14
531.282	3.15
531.628	3.21
531.975	3.27
532.321	3.3
532.667	3.29
533.014	3.31
533.36	3.21
533.706	3.21
534.052	3.2
534.399	3.24
534.745	3.14
535.091	3.17
535.437	3.19
535.783	3.15
536.129	3.22
536.474	3.34
536.82	3.28
537.166	3.23
537.512	3.29
537.857	3.14
538.203	3.2
538.549	3.21
538.894	3.17
539.239	3.26
539.585	3.26
539.93	3.28
540.276	3.37
540.621	3.28
540.966	3.26
541.311	3.3
541.656	3.34
542.001	3.18
542.346	3.14
542.691	3.05
543.036	3.05
543.381	3.14
543.726	3.13
544.071	3.15
544.415	3.23
544.76	3.16
545.105	3.23
545.449	3.22
545.794	3.32
546.138	3.34
546.483	3.31
546.827	3.18
547.171	3.21
547.516	3.21
547.86	3.25
548.204	3.32
548.548	3.2
548.892	3.32
549.236	3.28
549.58	3.33
549.924	3.3
550.268	3.3
550.612	3.37
550.956	3.3
551.3	3.28
551.643	3.34
551.987	3.38
552.33	3.32
552.674	3.31
553.017	3.33
553.361	3.39
553.704	3.34
554.048	3.35
554.391	3.27
554.734	3.18
555.077	3.31
555.42	3.36
555.764	3.31
556.107	3.16
556.45	3.23
556.793	3.23
557.135	3.47
557.478	3.23
557.821	3.26
558.164	3.29
558.507	3.35
558.849	3.39
559.192	3.42
559.534	3.6
559.877	3.54
560.219	3.35
560.562	3.54
560.904	3.27
561.246	3.27
561.589	3.45
561.931	3.28
562.273	3.24
562.615	3.32
562.957	3.18
563.299	3.27
563.641	3.22
563.983	3.48
564.325	3.14
564.667	3.21
565.008	3.24
565.35	3.35
565.692	3.13
566.033	3.07
566.375	3.32
566.716	3.27
567.058	3.14
567.399	3.39
567.741	3.28
568.082	3.31
568.423	3.29
568.764	3.25
569.105	3.26
569.447	3.37
569.788	3.33
570.129	3.32
570.47	3.12
570.811	3.12
571.151	3.17
571.492	3.16
571.833	3.27
572.174	3.37
572.514	3.24
572.855	3.28
573.195	3.25
573.536	3.13
573.876	3.15
574.217	3.14
574.557	3.21
574.898	3.21
575.238	3.49
575.578	3.32
575.918	3.19
576.258	3.26
576.598	3.28
576.938	3.24
577.278	3.29
577.618	3.52
577.958	3.27
578.298	3.38
578.638	3.39
578.977	3.39
579.317	3.26
579.657	3.26
579.996	3.34
580.336	3.48
580.675	3.53
581.014	3.35
581.354	3.13
581.693	3.21
582.032	3.33
582.372	3.28
582.711	3.26
583.05	3.38
583.389	3.32
583.728	3.47
584.067	3.22
584.406	3.52
584.745	3.42
585.083	3.17
585.422	3.29
585.761	3.3
586.1	3.28
586.438	3.6
586.777	3.28
587.115	3.31
587.454	3.42
587.792	3.23
588.13	3.43
588.469	3.56
588.807	3.1
589.145	3.38
589.483	3.23
589.821	3.13
590.159	3.29
590.497	3.42
590.835	3.12
591.173	3.23
591.511	3.37
591.849	3.29
592.187	3.14
592.524	3.34
592.862	3.29
593.2	3.39
593.537	3.4
593.875	3.33
594.212	3.11
594.55	3.29
594.887	3.16
595.224	3.55
595.561	3.25
595.899	3.58
596.236	3.4
596.573	3.52
596.91	3.41
597.247	3.09
597.584	3.19
597.921	3.28
598.258	3.22
598.594	3.16
598.931	3.38
599.268	3.29
599.604	3.19
599.941	3.4
600.277	3.18
600.614	3.3
600.95	3.19
601.287	3.18
601.623	3.48
601.959	3.55
602.296	3.16
602.632	3.15
602.968	3.38
603.304	3.13
603.64	3.43
603.976	3.12
604.312	3.24
604.648	3.29
604.984	3.29
605.319	3.11
605.655	3.4
605.991	3.12
606.326	3.25
606.662	3.32
606.998	3.54
607.333	3.22
607.668	3.04
608.004	3.41
608.339	3.16
608.674	3.46
609.01	3.22
609.345	3.33
609.68	3.11
610.015	3.43
610.35	3.37
610.685	3.34
611.02	3.33
611.355	3.14
611.689	3.33
612.024	3.32
612.359	3.33
612.694	3.32
613.028	3.33
613.363	3.35
613.697	3.33
614.032	3.39
614.366	3.47
614.7	3.11
615.035	3.22
615.369	3.36
615.703	3.23
616.037	3.36
616.371	3.05
616.705	3.22
617.039	3.23
617.373	3.15
617.707	3.4
618.041	2.97
618.375	2.94
618.709	3.22
619.042	3.05
619.376	3.45
619.71	3.41
620.043	2.91
620.377	3.15
620.71	3.18
621.043	3.64
621.377	3.01
621.71	3.37
622.043	3.15
622.376	3.5
622.709	3.52
623.043	3.02
623.376	3.33
623.709	3.32
624.041	3.31
624.374	3.34
624.707	3.24
625.04	3.22
625.373	3.51
625.705	3.46
626.038	3.54
626.37	3.21
626.703	3.1
627.035	3.5
627.368	3.27
627.7	3.16
628.032	3.21
628.365	3.41
628.697	3.24
629.029	3.44
629.361	3.64
629.693	3.76
630.025	3.44
630.357	3.25
630.689	3.32
631.021	3.51
631.353	3.43
631.684	3.26
632.016	3.17
632.348	3.63
632.679	3.14
633.011	3.49
633.342	3.44
633.674	3.19
634.005	3.38
634.336	3.39
634.668	3.52
634.999	3.4
635.33	3.78
635.661	3.67
635.992	3.54
636.323	3.75
636.654	3.3
636.985	3.68
637.316	3.37
637.647	3.42
637.977	3.74
638.308	3.1
638.639	3.76
638.969	3.43
639.3	3.06
639.63	3.44
639.961	3.51
640.291	3.17
640.622	3.91
640.952	3.66
641.282	3.2
641.612	3.77
641.943	3.35
642.273	3.34
642.603	3.38
642.933	3.31
643.263	3.07
643.592	3.44
643.922	3.38
644.252	3.34
644.582	3.04
644.911	3.53
645.241	3.4
645.571	3.36
645.9	3.34
646.23	3.17
646.559	3.41
646.888	3.7
647.218	3.32
647.547	3.26
647.876	2.98
648.205	3.38
648.534	3.39
648.863	3.51
649.192	3.11
649.521	3.25
649.85	3.53
650.179	3.21
650.508	3.45
650.837	3.33
651.165	3.23
651.494	3.49
651.822	3.25
652.151	3.64
652.479	2.98
652.808	3.21
653.136	3.18
653.465	3.63
653.793	3.5
654.121	3.41
654.449	3.85
654.777	3.26
655.105	3.77
655.433	3.21
655.761	3.5
656.089	3.48
656.417	3.71
656.745	3.33
657.073	3.42
657.4	3.21
657.728	3.45
658.056	3.34
658.383	3.46
658.711	3.71
659.038	3.32
659.365	3.2
659.693	3.57
660.02	3.39
660.347	3.77
660.674	3.99
661.001	3.15
661.329	3.4
661.656	3.35
661.982	3.35
662.309	3.46
662.636	3.65
662.963	3.09
663.29	3.3
663.616	3.54
663.943	3.5
664.27	3.66
664.596	3.68
664.923	2.81
665.249	3.97
665.576	3.92
665.902	3.15
666.228	3.54
666.554	3.27
666.881	3.35
667.207	3.64
667.533	3.52
667.859	3.09
668.185	3.95
668.511	3.97
668.837	3.29
669.162	4.22
669.488	3.14
669.814	3.58
670.139	3.93
670.465	3.16
670.791	3.95
671.116	3.9
671.442	3.66
671.767	3.43
672.092	3.43
672.418	3.16
672.743	3.41
673.068	3.03
673.393	3.33
673.718	3.64
674.043	2.84
674.368	3.48
674.693	3.83
675.018	3.62
675.343	3.82
675.667	3.34
675.992	4.28
676.317	3.99
676.641	3.38
676.966	2.93
677.29	2.97
677.615	3.96
677.939	3.59
678.264	3.69
678.588	3.56
678.912	3.55
679.236	4.24
679.56	3.32
679.885	3.63
680.209	3.21
680.532	3.63
680.856	4.15
681.18	3.17
681.504	3.17
681.828	3.59
682.152	3.96
682.475	3.49
682.799	3.74
683.122	3.69
683.446	3.04
683.769	3.65
684.093	3.25
684.416	3.41
684.739	3.15
685.062	2.97
685.386	3.52
685.709	3.22
686.032	3.86
686.355	3.4
686.678	4.44
687.001	3.16
687.324	4.07
687.646	3.52
687.969	3.43
688.292	4.12
688.614	2.87
688.937	3.4
689.26	3.56
689.582	3.07
689.904	3.74
690.227	3.26
690.549	3.47
690.871	2.97
691.194	3.67
691.516	3.2
691.838	3.18
692.16	3.48
