Data from 0028_chest_Reflection__3__109.txt Node

Date: Thu Oct 20 21:47:21 CDT 2022
User: ToomeyLab
Spectrometer: FLMS14357
Trigger mode: 0
Integration Time (sec): 1.000000E-2
Scans to average: 100
Electric dark correction enabled: true
Nonlinearity correction enabled: false
Boxcar width: 0
XAxis mode: Wavelengths
Number of Pixels in Spectrum: 2048
>>>>>Begin Spectral Data<<<<<
189.047	114.96
189.435	114.96
189.823	114.96
190.211	8.79
190.599	-16.1
190.987	50.42
191.375	95.36
191.763	-35.02
192.151	148.83
192.538	218.76
192.926	117.9
193.314	4.84
193.702	-449.15
194.089	175.89
194.477	55.08
194.864	77.22
195.252	100.08
195.639	-154.39
196.027	46.57
196.414	31.03
196.801	11.47
197.189	8.29
197.576	638.4
197.963	-33.08
198.351	59.57
198.738	-68.68
199.125	15.72
199.512	-23.97
199.899	4.2
200.286	2.25
200.673	30.81
201.06	30.51
201.447	22.27
201.833	-26.04
202.22	13.69
202.607	14.54
202.994	4.44
203.38	-2.34
203.767	-10.87
204.154	-3.69
204.54	9.62
204.927	12.17
205.313	15.59
205.699	10.24
206.086	-27.5
206.472	32.14
206.858	42.35
207.245	15.22
207.631	-6.76
208.017	-10.5
208.403	-12.41
208.789	-8.4
209.175	23.79
209.561	10.77
209.947	0.55
210.333	24.58
210.719	8.14
211.105	18.11
211.491	-43.41
211.876	-18.84
212.262	20.74
212.648	34.35
213.034	1.36
213.419	-7.51
213.805	-20.46
214.19	-17.66
214.576	-0.39
214.961	-31.28
215.346	-8.87
215.732	-15.12
216.117	-44.2
216.502	1.09
216.888	-13.48
217.273	-5.99
217.658	15.86
218.043	3.51
218.428	16.81
218.813	11.48
219.198	3.71
219.583	9.76
219.968	19.16
220.353	-3.74
220.738	13.53
221.122	7.09
221.507	-4.12
221.892	-6.65
222.276	-5.07
222.661	12.44
223.046	16.2
223.43	5.12
223.815	-2.2
224.199	-4.69
224.583	0.23
224.968	3.33
225.352	7.5
225.736	2.99
226.121	-3.51
226.505	1.98
226.889	4.42
227.273	1.24
227.657	3.4
228.041	0.51
228.425	4.96
228.809	7.18
229.193	3.12
229.577	2.05
229.961	2.71
230.344	2.9
230.728	3.35
231.112	2.55
231.495	3.4
231.879	3.83
232.263	2.52
232.646	3.05
233.03	2.77
233.413	2.05
233.797	2.64
234.18	1.58
234.563	4.3
234.946	3.23
235.33	2.73
235.713	1.76
236.096	2.7
236.479	2.48
236.862	3.12
237.245	2.69
237.628	2.88
238.011	3.9
238.394	3.86
238.777	4.57
239.16	2.88
239.543	2.36
239.925	3.41
240.308	2
240.691	4.24
241.073	1.97
241.456	3
241.838	2.87
242.221	2.61
242.603	2.93
242.986	3.54
243.368	3.16
243.75	3.57
244.133	3.57
244.515	2.89
244.897	3.23
245.279	2.25
245.661	3.8
246.043	3.18
246.425	3.21
246.807	3.73
247.189	4.28
247.571	3.57
247.953	3.1
248.335	3.49
248.717	3.27
249.098	3.33
249.48	3.28
249.862	3.26
250.243	3.2
250.625	3.69
251.006	3.35
251.388	3.05
251.769	3.18
252.151	3.74
252.532	3.22
252.913	2.96
253.295	3.44
253.676	3.44
254.057	2.71
254.438	3.18
254.819	3.71
255.2	4.13
255.581	2.53
255.962	3.61
256.343	2.8
256.724	3.69
257.105	2.65
257.486	3.56
257.867	3.99
258.247	4.06
258.628	3.82
259.009	2.8
259.389	2.81
259.77	3.46
260.15	3.34
260.531	3.22
260.911	3.09
261.292	3.39
261.672	3.3
262.052	3.26
262.432	3.42
262.813	3.25
263.193	3.17
263.573	3.34
263.953	3.37
264.333	3.15
264.713	3.23
265.093	3.18
265.473	3.61
265.853	3.26
266.233	2.79
266.612	3.63
266.992	2.05
267.372	3.4
267.752	3.68
268.131	3.6
268.511	3.6
268.89	2.99
269.27	2.84
269.649	2.8
270.029	2.84
270.408	2.88
270.787	3.14
271.167	2.9
271.546	3.19
271.925	3.52
272.304	3.22
272.683	2.95
273.062	3.03
273.441	2.91
273.82	3.33
274.199	3.14
274.578	2.74
274.957	3.12
275.336	3.1
275.715	2.9
276.093	3.27
276.472	3.31
276.851	3.47
277.229	2.98
277.608	3.04
277.986	3.1
278.365	2.72
278.743	2.81
279.122	2.78
279.5	2.27
279.878	3.19
280.257	2.63
280.635	3.26
281.013	3.35
281.391	3.27
281.769	2.88
282.147	2.5
282.525	2.6
282.903	2.63
283.281	2.84
283.659	2.79
284.037	2.5
284.415	2.68
284.792	2.98
285.17	3.19
285.548	3.16
285.925	2.82
286.303	2.7
286.68	3.22
287.058	2.9
287.435	2.9
287.813	3.08
288.19	3.03
288.567	3.23
288.945	2.98
289.322	2.82
289.699	2.75
290.076	2.91
290.453	2.64
290.83	3.18
291.207	3.3
291.584	3.15
291.961	2.96
292.338	2.96
292.715	3.06
293.092	3.59
293.469	3.14
293.845	3.29
294.222	3.28
294.599	3.55
294.975	2.86
295.352	3.63
295.728	3.4
296.105	3.38
296.481	2.97
296.858	3.13
297.234	3.35
297.61	3.34
297.986	3.45
298.363	3.37
298.739	3.29
299.115	3.41
299.491	3.08
299.867	3.27
300.243	3.41
300.619	3.52
300.995	3.24
301.371	3.13
301.746	2.89
302.122	3.69
302.498	2.87
302.874	3.45
303.249	3.66
303.625	3.87
304	3.84
304.376	3.25
304.751	3.84
305.127	3.23
305.502	3.82
305.878	4.11
306.253	3.15
306.628	3.9
307.003	3.29
307.378	3.14
307.754	3.36
308.129	3.69
308.504	3.3
308.879	3.85
309.254	3.91
309.629	3.26
310.003	3.52
310.378	3.89
310.753	4.17
311.128	3.44
311.502	3.45
311.877	3.56
312.252	3.48
312.626	3.81
313.001	3.74
313.375	3.49
313.75	3.48
314.124	3.42
314.498	3.69
314.873	3.58
315.247	3.36
315.621	3.69
315.995	3.58
316.369	4.15
316.743	3.28
317.117	3.87
317.491	3.88
317.865	3.39
318.239	4.09
318.613	4.23
318.987	3.73
319.361	4.15
319.734	3.52
320.108	4.16
320.482	3.88
320.855	3.53
321.229	4.13
321.602	3.23
321.976	3.64
322.349	3.33
322.723	4.43
323.096	3.96
323.469	3.67
323.843	3.93
324.216	3.65
324.589	4.64
324.962	4.04
325.335	4.3
325.708	4.21
326.081	4.28
326.454	3.78
326.827	3.95
327.2	4.22
327.573	4.09
327.945	4.2
328.318	3.82
328.691	4.64
329.063	4.07
329.436	3.96
329.809	3.54
330.181	4.23
330.553	3.36
330.926	3.89
331.298	3.61
331.671	3.86
332.043	3.91
332.415	3.76
332.787	4.32
333.159	4.3
333.532	4.11
333.904	4.36
334.276	4.17
334.648	3.54
335.02	4.54
335.391	4.03
335.763	4.09
336.135	4.14
336.507	3.33
336.879	4.17
337.25	3.74
337.622	4.08
337.993	3.88
338.365	4.21
338.736	4.11
339.108	3.62
339.479	4.04
339.851	3.99
340.222	3.65
340.593	3.77
340.964	4.64
341.336	3.41
341.707	3.86
342.078	3.66
342.449	3.87
342.82	4.07
343.191	3.77
343.562	3.88
343.933	4.11
344.303	4.21
344.674	4.15
345.045	3.87
345.416	4.35
345.786	3.68
346.157	3.98
346.527	3.8
346.898	4.04
347.268	3.81
347.639	3.84
348.009	4.14
348.38	4.18
348.75	3.47
349.12	4.12
349.49	4
349.861	4.2
350.231	4.05
350.601	4.23
350.971	3.99
351.341	4.37
351.711	4.25
352.081	3.76
352.45	4.12
352.82	3.68
353.19	4.12
353.56	4.05
353.929	4.07
354.299	4.37
354.669	4.13
355.038	3.96
355.408	3.78
355.777	4.33
356.147	4.27
356.516	4.23
356.885	4.18
357.254	4.06
357.624	3.79
357.993	3.76
358.362	3.92
358.731	4.1
359.1	3.88
359.469	4.24
359.838	4.02
360.207	4.41
360.576	3.93
360.945	4.27
361.314	4.06
361.682	4.45
362.051	4.2
362.42	4.17
362.788	4.23
363.157	4.09
363.525	4.12
363.894	4.15
364.262	4.17
364.631	3.69
364.999	3.98
365.367	4.31
365.735	4.24
366.104	4.03
366.472	3.9
366.84	4.25
367.208	4.23
367.576	4.02
367.944	4.33
368.312	4.12
368.68	4.18
369.048	4.15
369.416	3.87
369.783	4.31
370.151	4.5
370.519	4.27
370.886	4.15
371.254	4.39
371.621	3.81
371.989	4.26
372.356	4.03
372.724	4.43
373.091	4.29
373.458	3.99
373.826	4.21
374.193	4.35
374.56	3.77
374.927	3.8
375.294	4.1
375.661	4.32
376.028	4.09
376.395	4.57
376.762	4.23
377.129	4.17
377.496	4.15
377.863	4.34
378.229	4.16
378.596	4.22
378.963	4.41
379.329	4.56
379.696	4.13
380.062	4.28
380.429	4.5
380.795	4.25
381.161	4.68
381.528	4.36
381.894	4.26
382.26	4.2
382.626	4.45
382.993	4.14
383.359	4.42
383.725	4.25
384.091	4.29
384.457	4.11
384.823	4.27
385.188	4.27
385.554	4.06
385.92	4.32
386.286	4.02
386.651	4.12
387.017	4.18
387.383	4.19
387.748	4.67
388.114	4.27
388.479	4.33
388.845	4.37
389.21	4.47
389.575	4.06
389.94	4.49
390.306	4.41
390.671	4.17
391.036	4.48
391.401	4.14
391.766	4.45
392.131	4.23
392.496	4.11
392.861	4.16
393.226	4.29
393.591	4.58
393.956	4.48
394.32	4.51
394.685	4.59
395.05	4.28
395.414	4.33
395.779	4.3
396.143	4.5
396.508	4.52
396.872	4.19
397.236	4.36
397.601	4.43
397.965	4.74
398.329	4.32
398.694	4.34
399.058	4.36
399.422	4.58
399.786	4.38
400.15	4.37
400.514	4.68
400.878	4.5
401.242	4.73
401.605	4.35
401.969	4.28
402.333	4.41
402.697	4.5
403.06	4.19
403.424	4.46
403.787	4.55
404.151	4.45
404.514	4.32
404.878	4.39
405.241	4.61
405.604	4.62
405.968	4.41
406.331	4.57
406.694	4.44
407.057	4.53
407.42	4.59
407.783	4.38
408.146	4.48
408.509	4.54
408.872	4.56
409.235	4.32
409.598	4.37
409.961	4.66
410.323	4.83
410.686	4.54
411.049	4.57
411.411	4.37
411.774	4.52
412.136	4.75
412.499	4.56
412.861	4.54
413.223	4.31
413.586	4.56
413.948	4.45
414.31	4.46
414.672	4.83
415.035	4.68
415.397	4.59
415.759	4.75
416.121	4.75
416.483	4.51
416.845	4.67
417.206	4.48
417.568	4.69
417.93	4.59
418.292	4.6
418.653	4.51
419.015	4.68
419.377	4.6
419.738	4.51
420.1	4.55
420.461	4.63
420.822	4.55
421.184	4.49
421.545	4.51
421.906	4.45
422.267	4.56
422.629	4.46
422.99	4.54
423.351	4.4
423.712	4.45
424.073	4.52
424.434	4.53
424.795	4.5
425.155	4.52
425.516	4.46
425.877	4.45
426.238	4.57
426.598	4.59
426.959	4.48
427.32	4.68
427.68	4.6
428.041	4.6
428.401	4.57
428.761	4.76
429.122	4.61
429.482	4.73
429.842	4.67
430.202	4.54
430.563	4.63
430.923	4.79
431.283	4.81
431.643	4.59
432.003	4.75
432.363	4.92
432.722	4.85
433.082	4.52
433.442	4.61
433.802	4.7
434.161	4.78
434.521	4.68
434.881	4.63
435.24	4.64
435.6	4.72
435.959	4.75
436.319	4.72
436.678	4.63
437.037	4.73
437.396	4.91
437.756	4.72
438.115	4.85
438.474	4.6
438.833	4.82
439.192	4.9
439.551	4.71
439.91	4.81
440.269	4.8
440.628	4.83
440.987	4.74
441.345	4.87
441.704	4.77
442.063	4.79
442.421	4.7
442.78	4.76
443.138	4.79
443.497	4.86
443.855	4.75
444.214	4.78
444.572	4.92
444.93	4.82
445.288	4.76
445.647	4.85
446.005	4.81
446.363	4.76
446.721	4.79
447.079	4.77
447.437	4.73
447.795	4.79
448.153	4.69
448.51	4.76
448.868	4.75
449.226	4.78
449.584	4.71
449.941	4.78
450.299	4.87
450.656	4.81
451.014	4.95
451.371	4.9
451.729	4.83
452.086	5.05
452.443	4.88
452.801	4.81
453.158	4.94
453.515	4.99
453.872	4.82
454.229	4.87
454.586	4.9
454.943	4.78
455.3	4.85
455.657	4.77
456.014	4.91
456.371	4.94
456.727	4.99
457.084	4.83
457.441	5.03
457.797	4.96
458.154	4.93
458.51	4.83
458.867	4.98
459.223	5.13
459.58	4.94
459.936	4.96
460.292	4.83
460.648	4.82
461.005	4.86
461.361	4.92
461.717	4.97
462.073	5.04
462.429	5.04
462.785	4.99
463.141	5
463.496	5.09
463.852	5.13
464.208	5.02
464.564	5.14
464.919	5.17
465.275	5.21
465.631	4.99
465.986	5.12
466.342	5.12
466.697	5.22
467.052	5.04
467.408	5.12
467.763	5.05
468.118	5.26
468.473	5.34
468.829	5.23
469.184	5.14
469.539	5.04
469.894	5.17
470.249	5.24
470.603	5.05
470.958	5.07
471.313	5.09
471.668	5.07
472.023	5.09
472.377	5.18
472.732	5.28
473.086	5.21
473.441	5.03
473.795	5.26
474.15	5.16
474.504	5.17
474.859	5.27
475.213	5.27
475.567	5.45
475.921	5.18
476.275	5.25
476.63	5.28
476.984	5.23
477.338	5.22
477.692	5.22
478.045	5.15
478.399	5.32
478.753	5.15
479.107	5.15
479.461	5.23
479.814	5.29
480.168	5.25
480.521	5.32
480.875	5.43
481.228	5.3
481.582	5.14
481.935	5.25
482.289	5.15
482.642	5.17
482.995	5.22
483.348	5.31
483.701	5.21
484.055	5.16
484.408	5.07
484.761	5.04
485.114	4.97
485.466	4.96
485.819	4.98
486.172	5.01
486.525	5.01
486.878	5.09
487.23	5.12
487.583	5.09
487.936	5.19
488.288	5.1
488.641	5.15
488.993	5.13
489.345	5.09
489.698	5.11
490.05	5.12
490.402	5.28
490.754	5.21
491.107	5.21
491.459	5.28
491.811	5.29
492.163	5.27
492.515	5.21
492.866	5.2
493.218	5.2
493.57	5.18
493.922	5.15
494.274	5.25
494.625	5.28
494.977	5.33
495.328	5.27
495.68	5.33
496.031	5.58
496.383	5.55
496.734	5.33
497.086	5.39
497.437	5.54
497.788	5.58
498.139	5.44
498.49	5.49
498.842	5.42
499.193	5.45
499.544	5.51
499.894	5.49
500.245	5.52
500.596	5.59
500.947	5.51
501.298	5.6
501.648	5.48
501.999	5.58
502.35	5.64
502.7	5.79
503.051	5.67
503.401	5.59
503.752	5.53
504.102	5.62
504.452	5.71
504.803	5.66
505.153	5.58
505.503	5.72
505.853	5.75
506.203	5.61
506.553	5.76
506.903	5.64
507.253	5.72
507.603	5.84
507.953	5.72
508.303	5.8
508.652	5.65
509.002	5.71
509.352	5.75
509.701	5.77
510.051	5.7
510.4	5.75
510.75	5.65
511.099	5.68
511.449	5.84
511.798	5.79
512.147	5.92
512.496	5.87
512.846	5.73
513.195	5.9
513.544	5.75
513.893	5.86
514.242	5.75
514.591	5.96
514.939	5.84
515.288	5.9
515.637	5.85
515.986	5.81
516.334	5.83
516.683	5.88
517.032	5.93
517.38	5.91
517.729	5.99
518.077	5.88
518.426	5.9
518.774	5.92
519.122	5.97
519.47	5.84
519.819	5.83
520.167	5.84
520.515	5.87
520.863	5.91
521.211	5.92
521.559	6.01
521.907	5.9
522.255	5.94
522.602	6
522.95	6.1
523.298	6.07
523.645	6.08
523.993	6.06
524.341	6.15
524.688	6.15
525.036	6.08
525.383	6.24
525.73	6.16
526.078	6.1
526.425	6.12
526.772	6.07
527.119	5.97
527.466	6.09
527.814	6.11
528.161	6.08
528.508	6.1
528.854	6.12
529.201	6.07
529.548	6
529.895	5.99
530.242	5.97
530.588	5.98
530.935	5.98
531.282	5.97
531.628	6.02
531.975	6.15
532.321	6.19
532.667	6.17
533.014	6.21
533.36	6.23
533.706	6.15
534.052	6.24
534.399	6.29
534.745	6.18
535.091	6.17
535.437	6.18
535.783	6.23
536.129	6.22
536.474	6.35
536.82	6.31
537.166	6.41
537.512	6.41
537.857	6.27
538.203	6.33
538.549	6.41
538.894	6.41
539.239	6.43
539.585	6.44
539.93	6.51
540.276	6.6
540.621	6.56
540.966	6.53
541.311	6.57
541.656	6.6
542.001	6.52
542.346	6.46
542.691	6.41
543.036	6.39
543.381	6.44
543.726	6.42
544.071	6.46
544.415	6.49
544.76	6.47
545.105	6.62
545.449	6.67
545.794	6.68
546.138	6.83
546.483	6.87
546.827	6.82
547.171	6.73
547.516	6.83
547.86	6.84
548.204	6.84
548.548	6.76
548.892	6.9
549.236	6.73
549.58	6.91
549.924	6.93
550.268	6.93
550.612	7.01
550.956	7.07
551.3	7.05
551.643	7.15
551.987	7.16
552.33	7.03
552.674	7.02
553.017	7.24
553.361	7.14
553.704	7.05
554.048	7.18
554.391	7.07
554.734	7.12
555.077	7.22
555.42	7.23
555.764	7.19
556.107	7.11
556.45	7.22
556.793	7.27
557.135	7.25
557.478	7.28
557.821	7.27
558.164	7.39
558.507	7.28
558.849	7.51
559.192	7.46
559.534	7.54
559.877	7.7
560.219	7.67
560.562	7.4
560.904	7.51
561.246	7.42
561.589	7.73
561.931	7.46
562.273	7.48
562.615	7.73
562.957	7.34
563.299	7.66
563.641	7.68
563.983	7.74
564.325	7.74
564.667	7.66
565.008	7.86
565.35	7.77
565.692	7.74
566.033	7.55
566.375	7.87
566.716	7.82
567.058	7.76
567.399	7.98
567.741	7.81
568.082	7.83
568.423	7.89
568.764	7.74
569.105	7.84
569.447	7.97
569.788	8.17
570.129	8.01
570.47	8.06
570.811	7.8
571.151	8.07
571.492	7.9
571.833	7.97
572.174	8.17
572.514	8.1
572.855	8.25
573.195	8.09
573.536	8.12
573.876	7.99
574.217	8.04
574.557	8.22
574.898	8.26
575.238	8.43
575.578	8.31
575.918	8.31
576.258	8.35
576.598	8.44
576.938	8.31
577.278	8.32
577.618	8.55
577.958	8.46
578.298	8.35
578.638	8.46
578.977	8.6
579.317	8.41
579.657	8.42
579.996	8.49
580.336	8.76
580.675	8.85
581.014	8.64
581.354	8.61
581.693	8.7
582.032	8.85
582.372	8.87
582.711	8.6
583.05	8.8
583.389	8.77
583.728	8.77
584.067	9.18
584.406	9.04
584.745	8.86
585.083	8.77
585.422	9.15
585.761	9.11
586.1	9.05
586.438	9.15
586.777	9.14
587.115	9.08
587.454	8.96
587.792	9.17
588.13	9.4
588.469	9.66
588.807	9.03
589.145	9.24
589.483	9.11
589.821	9.18
590.159	9.31
590.497	9.33
590.835	9.17
591.173	9.44
591.511	9.32
591.849	9.27
592.187	9.22
592.524	9.44
592.862	9.33
593.2	9.58
593.537	9.58
593.875	9.71
594.212	9.59
594.55	9.67
594.887	9.41
595.224	9.7
595.561	9.52
595.899	9.95
596.236	9.72
596.573	9.84
596.91	9.79
597.247	9.79
597.584	9.66
597.921	9.65
598.258	9.71
598.594	9.72
598.931	9.67
599.268	9.8
599.604	9.81
599.941	10.08
600.277	9.88
600.614	9.82
600.95	9.98
601.287	10.08
601.623	9.91
601.959	9.95
602.296	9.97
602.632	9.86
602.968	10.14
603.304	10.14
603.64	10.35
603.976	10.14
604.312	10.24
604.648	10.27
604.984	10.22
605.319	10.11
605.655	10.22
605.991	10.08
606.326	10.28
606.662	10.24
606.998	10.39
607.333	10.28
607.668	10.31
608.004	10.47
608.339	10.54
608.674	10.74
609.01	10.31
609.345	10.84
609.68	10.52
610.015	10.63
610.35	10.62
610.685	10.6
611.02	10.51
611.355	10.53
611.689	10.88
612.024	10.61
612.359	10.61
612.694	10.68
613.028	10.78
613.363	10.92
613.697	10.85
614.032	11.03
614.366	10.72
614.7	10.86
615.035	10.78
615.369	11.09
615.703	11.12
616.037	11.1
616.371	10.79
616.705	10.81
617.039	11.09
617.373	11.45
617.707	11.32
618.041	11
618.375	11.05
618.709	11.19
619.042	11.01
619.376	11.23
619.71	11.43
620.043	11.41
620.377	11.3
620.71	11.24
621.043	11.61
621.377	11.39
621.71	11.28
622.043	11.24
622.376	11.76
622.709	11.8
623.043	11.77
623.376	11.91
623.709	11.4
624.041	11.76
624.374	11.58
624.707	11.48
625.04	11.91
625.373	12.12
625.705	11.74
626.038	11.67
626.37	11.69
626.703	11.55
627.035	11.74
627.368	12.16
627.7	11.75
628.032	12.07
628.365	12.12
628.697	12.17
629.029	12.15
629.361	11.98
629.693	12.04
630.025	12
630.357	12.18
630.689	12.13
631.021	12.21
631.353	12.65
631.684	12.09
632.016	12.36
632.348	12.08
632.679	12.21
633.011	12.54
633.342	12.62
633.674	12.31
634.005	12.6
634.336	12.77
634.668	12.17
634.999	12.67
635.33	12.66
635.661	12.67
635.992	12.62
636.323	12.79
636.654	12.57
636.985	12.98
637.316	12.77
637.647	12.69
637.977	12.69
638.308	12.65
638.639	12.93
638.969	12.9
639.3	12.94
639.63	12.7
639.961	12.72
640.291	12.48
640.622	13.12
640.952	13.15
641.282	13.01
641.612	13.39
641.943	12.82
642.273	13.45
642.603	13.07
642.933	13.43
643.263	13.26
643.592	13.4
643.922	13.51
644.252	13.4
644.582	13.16
644.911	13.47
645.241	13.09
645.571	13.19
645.9	13.63
646.23	13.04
646.559	13.92
646.888	13.84
647.218	13.25
647.547	13.8
647.876	13
648.205	12.88
648.534	13.54
648.863	13.68
649.192	13.66
649.521	13.83
649.85	13.96
650.179	13.53
650.508	14.1
650.837	13.6
651.165	13.8
651.494	13.88
651.822	14.05
652.151	14.04
652.479	13.92
652.808	13.94
653.136	13.63
653.465	14.12
653.793	13.81
654.121	14.15
654.449	14.14
654.777	13.85
655.105	14.29
655.433	14.06
655.761	14.15
656.089	14.68
656.417	14.38
656.745	14.37
657.073	14.43
657.4	14.11
657.728	14
658.056	14.38
658.383	14.32
658.711	14.7
659.038	14.78
659.365	14.37
659.693	14.85
660.02	14.38
660.347	14.56
660.674	15.17
661.001	14.07
661.329	14.44
661.656	14.29
661.982	14.4
662.309	14.44
662.636	14.89
662.963	14.52
663.29	14.21
663.616	15.23
663.943	15.25
664.27	15.11
664.596	14.85
664.923	14.48
665.249	14.74
665.576	15.31
665.902	15
666.228	14.81
666.554	14.87
666.881	15.57
667.207	15.75
667.533	14.7
667.859	14.86
668.185	15.78
668.511	15.19
668.837	14.56
669.162	15.45
669.488	14.85
669.814	15.7
670.139	15.22
670.465	15.33
670.791	15.82
671.116	15.43
671.442	15.25
671.767	15.47
672.092	15.56
672.418	15.32
672.743	15.04
673.068	14.73
673.393	15.67
673.718	15.38
674.043	15.74
674.368	15.42
674.693	15.74
675.018	15.77
675.343	15.08
675.667	15.84
675.992	15.55
676.317	15.53
676.641	15.87
676.966	15.01
677.29	15.46
677.615	15.91
677.939	15.97
678.264	15.74
678.588	16.42
678.912	16.24
679.236	16.33
679.56	16.07
679.885	16.02
680.209	15.73
680.532	16.13
680.856	16.37
681.18	16.29
681.504	15.36
681.828	16.3
682.152	16.14
682.475	15.97
682.799	16.31
683.122	16.96
683.446	15.99
683.769	16.48
684.093	16.9
684.416	16.41
684.739	16.41
685.062	16.81
685.386	16.92
685.709	16.08
686.032	16.43
686.355	16.69
686.678	16.95
