Data from 0028_forehead_Reflection__1__117.txt Node

Date: Thu Oct 20 21:51:15 CDT 2022
User: ToomeyLab
Spectrometer: FLMS14357
Trigger mode: 0
Integration Time (sec): 1.000000E-2
Scans to average: 100
Electric dark correction enabled: true
Nonlinearity correction enabled: false
Boxcar width: 0
XAxis mode: Wavelengths
Number of Pixels in Spectrum: 2048
>>>>>Begin Spectral Data<<<<<
189.047	44.76
189.435	44.76
189.823	44.76
190.211	-124.8
190.599	-96.32
190.987	74.14
191.375	111.72
191.763	-152.03
192.151	165.22
192.538	65.08
192.926	71.2
193.314	205.53
193.702	101.47
194.089	123.99
194.477	-59.4
194.864	19.59
195.252	117.19
195.639	115.29
196.027	55.58
196.414	159.31
196.801	62.52
197.189	18.94
197.576	225.22
197.963	-23.85
198.351	46.21
198.738	-21.88
199.125	6.8
199.512	0.91
199.899	3.16
200.286	56.33
200.673	61.78
201.06	68.91
201.447	39.56
201.833	-42.07
202.22	-13.22
202.607	56.44
202.994	16.26
203.38	26.96
203.767	58.87
204.154	20.84
204.54	15.5
204.927	19.99
205.313	34.89
205.699	23.33
206.086	-5.15
206.472	-4.14
206.858	1.73
207.245	38.94
207.631	36.69
208.017	-12.37
208.403	-5.14
208.789	-16.09
209.175	25.84
209.561	41.44
209.947	17.27
210.333	18.76
210.719	-3.35
211.105	42.21
211.491	-30.88
211.876	7.02
212.262	10.15
212.648	-15.16
213.034	-3.01
213.419	-2.03
213.805	-37.83
214.19	-4.14
214.576	-11.17
214.961	15.32
215.346	-14.26
215.732	28.34
216.117	11.76
216.502	5.32
216.888	-16.38
217.273	13.65
217.658	30.96
218.043	4.31
218.428	15.45
218.813	29.94
219.198	4.22
219.583	9.15
219.968	25.53
220.353	-15.59
220.738	7.86
221.122	-0.36
221.507	6.34
221.892	5.89
222.276	3.75
222.661	14.38
223.046	6.58
223.43	5.78
223.815	7.23
224.199	-2.36
224.583	4.09
224.968	18.1
225.352	12.71
225.736	6.69
226.121	-0.65
226.505	11.04
226.889	2.74
227.273	-4.11
227.657	3.9
228.041	2.74
228.425	5.81
228.809	5.16
229.193	5.59
229.577	2
229.961	3.08
230.344	2.97
230.728	3.37
231.112	2.9
231.495	3.47
231.879	4.04
232.263	4.91
232.646	2.56
233.03	2.51
233.413	0.93
233.797	2
234.18	1.92
234.563	4.31
234.946	4.71
235.33	4.26
235.713	2.02
236.096	1.23
236.479	4.25
236.862	2.63
237.245	3.77
237.628	1.86
238.011	4.53
238.394	4.81
238.777	3.84
239.16	1.85
239.543	1.75
239.925	3.01
240.308	3.89
240.691	5.81
241.073	3.45
241.456	4.25
241.838	2.35
242.221	2.85
242.603	3.28
242.986	3.77
243.368	3.9
243.75	3.45
244.133	3.35
244.515	3.44
244.897	2.94
245.279	2.99
245.661	5.1
246.043	4.44
246.425	4.07
246.807	3.16
247.189	3.35
247.571	3.84
247.953	3.5
248.335	3.43
248.717	3.07
249.098	3.44
249.48	3.18
249.862	3.46
250.243	3.76
250.625	3.96
251.006	3.84
251.388	3.66
251.769	3.65
252.151	3.15
252.532	3.15
252.913	3.72
253.295	3.36
253.676	3.74
254.057	2.7
254.438	3.64
254.819	3.52
255.2	3.83
255.581	2.61
255.962	4.33
256.343	3.7
256.724	3.76
257.105	4
257.486	3.93
257.867	4.05
258.247	4.1
258.628	3.5
259.009	3.3
259.389	3.04
259.77	3.28
260.15	3.51
260.531	3.24
260.911	3.28
261.292	3.56
261.672	3.52
262.052	3.29
262.432	3.63
262.813	3.32
263.193	3.85
263.573	2.92
263.953	3.04
264.333	3.26
264.713	3.86
265.093	2.79
265.473	3.53
265.853	2.84
266.233	3.4
266.612	3.59
266.992	3.1
267.372	4.62
267.752	3.49
268.131	3.56
268.511	3.74
268.89	2.74
269.27	3.08
269.649	3.02
270.029	3.42
270.408	3.25
270.787	3.49
271.167	3.12
271.546	3.65
271.925	3.56
272.304	3.41
272.683	2.94
273.062	3.1
273.441	3.22
273.82	3.55
274.199	2.82
274.578	2.54
274.957	3.13
275.336	3.13
275.715	3.37
276.093	3.47
276.472	3.79
276.851	3.94
277.229	2.71
277.608	3.34
277.986	3.2
278.365	2.78
278.743	3.23
279.122	3.53
279.5	3.21
279.878	3.52
280.257	3.6
280.635	3.41
281.013	3.22
281.391	3.89
281.769	3.35
282.147	2.8
282.525	3.06
282.903	3.5
283.281	3.06
283.659	2.94
284.037	2.74
284.415	3.15
284.792	2.99
285.17	3.81
285.548	3.04
285.925	3
286.303	3.4
286.68	3.59
287.058	3.3
287.435	3.14
287.813	3.41
288.19	3.39
288.567	3.25
288.945	3.54
289.322	3.31
289.699	3.32
290.076	3.16
290.453	2.94
290.83	3.51
291.207	3.55
291.584	3.29
291.961	3.09
292.338	2.86
292.715	3.21
293.092	3.96
293.469	3.81
293.845	3.62
294.222	3.68
294.599	4.24
294.975	3.53
295.352	4.02
295.728	3.67
296.105	3.93
296.481	3.11
296.858	3.75
297.234	4.15
297.61	3.78
297.986	3.44
298.363	3.58
298.739	3.78
299.115	3.69
299.491	3.72
299.867	3.76
300.243	4.11
300.619	4.09
300.995	3.57
301.371	3.68
301.746	3.3
302.122	4.33
302.498	3.73
302.874	4.36
303.249	4.33
303.625	3.96
304	3.92
304.376	3.76
304.751	4.21
305.127	3.91
305.502	4.01
305.878	4.56
306.253	3.77
306.628	3.88
307.003	4.08
307.378	3.53
307.754	4.18
308.129	4.5
308.504	4.11
308.879	4.28
309.254	4.37
309.629	4.32
310.003	4.19
310.378	4.03
310.753	4.87
311.128	4.32
311.502	4.23
311.877	4.52
312.252	4.12
312.626	4.4
313.001	4.27
313.375	4.49
313.75	4.12
314.124	4.32
314.498	4.1
314.873	4.27
315.247	4.67
315.621	4.55
315.995	4.33
316.369	5.08
316.743	4.38
317.117	4.38
317.491	5.14
317.865	4.46
318.239	4.69
318.613	5.08
318.987	4.76
319.361	5.2
319.734	4.71
320.108	4.71
320.482	5.41
320.855	5.5
321.229	5.36
321.602	4.29
321.976	4.75
322.349	5.21
322.723	5.28
323.096	4.82
323.469	4.8
323.843	5.34
324.216	4.97
324.589	5.56
324.962	5.01
325.335	5.16
325.708	5.53
326.081	5.49
326.454	4.81
326.827	4.58
327.2	5.74
327.573	5.27
327.945	4.91
328.318	4.72
328.691	5.12
329.063	4.99
329.436	5.06
329.809	5.3
330.181	5.38
330.553	5.66
330.926	5.37
331.298	5.18
331.671	5.92
332.043	5.48
332.415	5.36
332.787	5.77
333.159	5.49
333.532	5.83
333.904	5.74
334.276	5.48
334.648	5.46
335.02	5.55
335.391	5.58
335.763	5.63
336.135	5.79
336.507	5.44
336.879	6.11
337.25	5.69
337.622	5.89
337.993	5.8
338.365	5.69
338.736	5.24
339.108	5.38
339.479	5.58
339.851	5.67
340.222	5.47
340.593	5.94
340.964	6.22
341.336	5.81
341.707	5.7
342.078	5.67
342.449	5.46
342.82	5.84
343.191	5.7
343.562	5.71
343.933	5.69
344.303	5.66
344.674	5.76
345.045	6.25
345.416	6.1
345.786	5.99
346.157	5.94
346.527	5.82
346.898	5.51
347.268	5.71
347.639	5.8
348.009	6.23
348.38	6.44
348.75	5.86
349.12	6.25
349.49	6.04
349.861	6.57
350.231	5.42
350.601	6.26
350.971	6.23
351.341	6.59
351.711	6.41
352.081	6.17
352.45	6.04
352.82	6.16
353.19	6.48
353.56	6.34
353.929	6.11
354.299	6.41
354.669	6.6
355.038	6.2
355.408	6.18
355.777	6.33
356.147	6.41
356.516	6.31
356.885	6.59
357.254	6.63
357.624	6.5
357.993	6.37
358.362	6.89
358.731	6.68
359.1	6.25
359.469	6.5
359.838	6.48
360.207	6.92
360.576	6.25
360.945	6.73
361.314	6.48
361.682	6.59
362.051	6.58
362.42	6.68
362.788	6.4
363.157	6.76
363.525	6.7
363.894	6.55
364.262	6.74
364.631	6.45
364.999	6.64
365.367	6.99
365.735	7.05
366.104	6.65
366.472	6.33
366.84	7.13
367.208	6.88
367.576	6.93
367.944	7.05
368.312	6.77
368.68	6.97
369.048	6.65
369.416	6.6
369.783	7.15
370.151	7.38
370.519	7.37
370.886	7.25
371.254	7.39
371.621	7.25
371.989	7.06
372.356	7.01
372.724	7.45
373.091	7.06
373.458	7.13
373.826	7.22
374.193	7.2
374.56	6.95
374.927	7.14
375.294	7.39
375.661	7.56
376.028	7.41
376.395	7.4
376.762	7.42
377.129	7.21
377.496	7.22
377.863	7.54
378.229	7.48
378.596	7.76
378.963	7.55
379.329	7.8
379.696	7.58
380.062	7.4
380.429	7.85
380.795	7.49
381.161	7.7
381.528	7.63
381.894	7.8
382.26	7.45
382.626	7.93
382.993	7.29
383.359	7.65
383.725	7.67
384.091	7.77
384.457	7.63
384.823	7.78
385.188	7.92
385.554	7.74
385.92	7.56
386.286	7.95
386.651	7.51
387.017	7.79
387.383	8.06
387.748	8.15
388.114	8.08
388.479	7.8
388.845	8.13
389.21	8.16
389.575	7.93
389.94	8.32
390.306	8.31
390.671	8.24
391.036	8.19
391.401	8.16
391.766	8.23
392.131	8.2
392.496	8.25
392.861	7.92
393.226	8.39
393.591	8.17
393.956	8.18
394.32	8.17
394.685	8.47
395.05	8.24
395.414	8.28
395.779	8.35
396.143	8.59
396.508	8.52
396.872	8.46
397.236	8.27
397.601	8.62
397.965	8.4
398.329	8.66
398.694	8.69
399.058	8.53
399.422	8.73
399.786	8.78
400.15	8.85
400.514	8.75
400.878	8.91
401.242	8.62
401.605	8.68
401.969	8.97
402.333	8.91
402.697	8.85
403.06	8.81
403.424	8.75
403.787	8.93
404.151	8.62
404.514	8.7
404.878	8.93
405.241	8.9
405.604	8.94
405.968	8.99
406.331	8.73
406.694	8.68
407.057	9.07
407.42	8.97
407.783	9.01
408.146	9.27
408.509	8.96
408.872	9.11
409.235	8.73
409.598	9.28
409.961	9.23
410.323	9.3
410.686	9.12
411.049	9.21
411.411	9.26
411.774	9.01
412.136	9.22
412.499	9.34
412.861	9.05
413.223	9.08
413.586	9.08
413.948	9.23
414.31	9.38
414.672	9.3
415.035	9.49
415.397	9.41
415.759	9.63
416.121	9.59
416.483	9.57
416.845	9.46
417.206	9.53
417.568	9.43
417.93	9.44
418.292	9.7
418.653	9.36
419.015	9.56
419.377	9.57
419.738	9.39
420.1	9.47
420.461	9.59
420.822	9.39
421.184	9.58
421.545	9.48
421.906	9.53
422.267	9.48
422.629	9.46
422.99	9.38
423.351	9.39
423.712	9.6
424.073	9.52
424.434	9.55
424.795	9.73
425.155	9.68
425.516	9.66
425.877	9.63
426.238	9.72
426.598	9.69
426.959	9.68
427.32	9.75
427.68	9.72
428.041	9.86
428.401	9.82
428.761	9.92
429.122	9.96
429.482	9.93
429.842	10.27
430.202	10.06
430.563	10.14
430.923	10.24
431.283	10.18
431.643	10.18
432.003	10.2
432.363	10.34
432.722	10.38
433.082	10.23
433.442	10.54
433.802	10.36
434.161	10.4
434.521	10.38
434.881	10.39
435.24	10.3
435.6	10.34
435.959	10.34
436.319	10.33
436.678	10.18
437.037	10.44
437.396	10.63
437.756	10.73
438.115	10.67
438.474	10.53
438.833	10.69
439.192	10.69
439.551	10.73
439.91	10.68
440.269	10.68
440.628	10.67
440.987	10.7
441.345	10.86
441.704	10.66
442.063	10.79
442.421	10.63
442.78	10.45
443.138	10.67
443.497	10.64
443.855	10.73
444.214	10.69
444.572	10.92
444.93	10.82
445.288	10.84
445.647	11.03
446.005	11.05
446.363	11
446.721	11.02
447.079	10.93
447.437	10.95
447.795	10.9
448.153	10.9
448.51	10.88
448.868	10.8
449.226	10.99
449.584	10.96
449.941	11.05
450.299	11.06
450.656	11.12
451.014	11.16
451.371	11.24
451.729	11.17
452.086	11.4
452.443	11.19
452.801	11.53
453.158	11.34
453.515	11.43
453.872	11.45
454.229	11.44
454.586	11.35
454.943	11.29
455.3	11.64
455.657	11.45
456.014	11.58
456.371	11.5
456.727	11.8
457.084	11.46
457.441	11.75
457.797	11.78
458.154	11.83
458.51	11.73
458.867	11.95
459.223	12
459.58	11.9
459.936	11.89
460.292	11.88
460.648	11.72
461.005	11.78
461.361	11.83
461.717	11.7
462.073	11.74
462.429	11.8
462.785	11.79
463.141	11.95
463.496	12.19
463.852	12.19
464.208	12.2
464.564	12.1
464.919	12.41
465.275	12.35
465.631	12.13
465.986	12.31
466.342	12.29
466.697	12.45
467.052	12.32
467.408	12.33
467.763	12.22
468.118	12.67
468.473	12.49
468.829	12.37
469.184	12.5
469.539	12.4
469.894	12.37
470.249	12.47
470.603	12.53
470.958	12.53
471.313	12.3
471.668	12.47
472.023	12.58
472.377	12.61
472.732	12.84
473.086	12.7
473.441	12.85
473.795	12.79
474.15	12.65
474.504	12.77
474.859	12.83
475.213	13.01
475.567	12.95
475.921	12.96
476.275	13.13
476.63	13.16
476.984	12.96
477.338	13.06
477.692	13.13
478.045	13.11
478.399	13.1
478.753	13.03
479.107	13.07
479.461	13.08
479.814	13.1
480.168	13.06
480.521	12.99
480.875	13.26
481.228	13.08
481.582	13.15
481.935	13.24
482.289	13.15
482.642	13.12
482.995	13.26
483.348	13.25
483.701	13.23
484.055	13.17
484.408	13.06
484.761	13.08
485.114	13.03
485.466	12.85
485.819	12.58
486.172	12.46
486.525	12.47
486.878	12.66
487.23	12.73
487.583	12.98
487.936	13.2
488.288	13.19
488.641	13.27
488.993	13.12
489.345	13.05
489.698	12.97
490.05	12.91
490.402	13.02
490.754	13.14
491.107	13.18
491.459	13.3
491.811	13.49
492.163	13.71
492.515	13.72
492.866	13.63
493.218	13.49
493.57	13.3
493.922	13.11
494.274	13.39
494.625	13.45
494.977	13.58
495.328	13.8
495.68	14
496.031	14.07
496.383	14.09
496.734	14.1
497.086	14.19
497.437	14.33
497.788	14.32
498.139	14.22
498.49	14.31
498.842	14.1
499.193	14.11
499.544	14.23
499.894	14.24
500.245	14.34
500.596	14.32
500.947	14.33
501.298	14.51
501.648	14.49
501.999	14.72
502.35	14.63
502.7	14.81
503.051	14.86
503.401	14.71
503.752	14.71
504.102	14.69
504.452	14.78
504.803	14.79
505.153	14.87
505.503	15.02
505.853	14.84
506.203	14.86
506.553	14.91
506.903	14.95
507.253	15.04
507.603	15.15
507.953	15.13
508.303	15.29
508.652	15.02
509.002	15.12
509.352	15.22
509.701	15.14
510.051	15.19
510.4	14.99
510.75	15.08
511.099	15.07
511.449	15.12
511.798	15.14
512.147	15.3
512.496	15.39
512.846	15.22
513.195	15.36
513.544	15.23
513.893	15.42
514.242	15.27
514.591	15.47
514.939	15.39
515.288	15.54
515.637	15.53
515.986	15.48
516.334	15.58
516.683	15.62
517.032	15.6
517.38	15.7
517.729	15.69
518.077	15.76
518.426	15.88
518.774	15.81
519.122	15.75
519.47	15.73
519.819	15.72
520.167	15.59
520.515	15.56
520.863	15.58
521.211	15.67
521.559	15.77
521.907	15.64
522.255	15.75
522.602	15.88
522.95	16.05
523.298	16.02
523.645	16.08
523.993	16.17
524.341	16.25
524.688	16.23
525.036	16.25
525.383	16.29
525.73	16.25
526.078	16.26
526.425	16.37
526.772	16.24
527.119	16.2
527.466	16.2
527.814	16.06
528.161	16.06
528.508	16.07
528.854	16.29
529.201	16.21
529.548	16.25
529.895	16.17
530.242	16.1
530.588	15.93
530.935	15.72
531.282	15.64
531.628	15.75
531.975	15.96
532.321	16.18
532.667	16.29
533.014	16.51
533.36	16.53
533.706	16.59
534.052	16.65
534.399	16.74
534.745	16.6
535.091	16.53
535.437	16.33
535.783	16.3
536.129	16.37
536.474	16.51
536.82	16.6
537.166	16.87
537.512	17.05
537.857	17.09
538.203	17.02
538.549	16.97
538.894	16.94
539.239	16.95
539.585	17
539.93	17.18
540.276	17.31
540.621	17.26
540.966	17.45
541.311	17.55
541.656	17.58
542.001	17.48
542.346	17.36
542.691	17.27
543.036	17.12
543.381	17.05
543.726	16.89
544.071	16.89
544.415	17.09
544.76	17.12
545.105	17.34
545.449	17.29
545.794	17.56
546.138	17.59
546.483	17.69
546.827	17.77
547.171	17.8
547.516	17.83
547.86	17.82
548.204	17.94
548.548	18.02
548.892	17.83
549.236	17.94
549.58	17.85
549.924	17.9
550.268	18.12
550.612	18.23
550.956	18.31
551.3	18.47
551.643	18.36
551.987	18.67
552.33	18.44
552.674	18.59
553.017	18.64
553.361	18.8
553.704	18.8
554.048	18.79
554.391	18.69
554.734	18.52
555.077	18.69
555.42	18.73
555.764	18.59
556.107	18.66
556.45	18.87
556.793	18.92
557.135	18.89
557.478	19
557.821	19.23
558.164	19.07
558.507	19.18
558.849	19.05
559.192	19.2
559.534	19.28
559.877	19.26
560.219	19.35
560.562	19.48
560.904	19.24
561.246	19.42
561.589	19.76
561.931	19.25
562.273	19.34
562.615	19.54
562.957	19.54
563.299	19.36
563.641	19.75
563.983	19.79
564.325	19.66
564.667	19.54
565.008	19.67
565.35	19.72
565.692	19.57
566.033	19.58
566.375	19.71
566.716	19.72
567.058	19.78
567.399	19.96
567.741	19.87
568.082	19.75
568.423	19.64
568.764	19.73
569.105	19.67
569.447	20
569.788	19.91
570.129	19.98
570.47	20.12
570.811	20.1
571.151	20.09
571.492	20.07
571.833	20.08
572.174	20.04
572.514	20.24
572.855	20.37
573.195	20.39
573.536	20.25
573.876	20.22
574.217	20.27
574.557	20.22
574.898	20.22
575.238	20.42
575.578	20.42
575.918	20.47
576.258	20.71
576.598	20.58
576.938	20.49
577.278	20.57
577.618	20.66
577.958	20.73
578.298	20.69
578.638	20.89
578.977	21.02
579.317	20.94
579.657	20.9
579.996	21.09
580.336	21.38
580.675	21.41
581.014	21.12
581.354	21.32
581.693	21.22
582.032	21.31
582.372	21.41
582.711	21.13
583.05	21.38
583.389	21.38
583.728	21.39
584.067	21.46
584.406	21.56
584.745	21.37
585.083	21.57
585.422	21.43
585.761	21.55
586.1	21.52
586.438	21.59
586.777	21.91
587.115	21.72
587.454	21.61
587.792	21.69
588.13	21.93
588.469	22.14
588.807	21.88
589.145	21.67
589.483	21.81
589.821	21.82
590.159	21.97
590.497	21.94
590.835	22.06
591.173	21.96
591.511	22.22
591.849	22.02
592.187	21.86
592.524	22.17
592.862	22.04
593.2	22.07
593.537	22
593.875	22.29
594.212	22.43
594.55	22.14
594.887	22.49
595.224	22.54
595.561	22.33
595.899	22.57
596.236	22.48
596.573	22.73
596.91	22.67
597.247	22.62
597.584	22.42
597.921	22.57
598.258	22.54
598.594	22.67
598.931	22.46
599.268	22.3
599.604	22.43
599.941	22.56
600.277	22.38
600.614	22.49
600.95	22.84
601.287	22.8
601.623	22.84
601.959	22.95
602.296	22.73
602.632	22.82
602.968	23.3
603.304	23.27
603.64	23.35
603.976	23.1
604.312	23.22
604.648	23.27
604.984	23.1
605.319	22.98
605.655	23.26
605.991	23.33
606.326	23.24
606.662	23.28
606.998	23.18
607.333	23.16
607.668	23.08
608.004	23.25
608.339	23.37
608.674	23.54
609.01	23.61
609.345	23.52
609.68	23.84
610.015	23.81
610.35	24.01
610.685	23.77
611.02	23.52
611.355	23.58
611.689	23.59
612.024	23.55
612.359	23.57
612.694	23.55
613.028	23.51
613.363	23.92
613.697	23.9
614.032	24.26
614.366	24.28
614.7	23.96
615.035	24.25
615.369	24.19
615.703	24.45
616.037	24.27
616.371	24.4
616.705	23.98
617.039	24.65
617.373	24.52
617.707	24.36
618.041	24.24
618.375	24.49
618.709	24.42
619.042	24.42
619.376	24.65
619.71	24.42
620.043	24.6
620.377	24.96
620.71	24.4
621.043	24.26
621.377	24.74
621.71	24.62
622.043	24.66
622.376	24.86
622.709	25.04
623.043	25.01
623.376	25.16
623.709	25.28
624.041	25.01
624.374	24.98
624.707	24.88
625.04	25.33
625.373	25.2
625.705	24.99
626.038	25.19
626.37	25.05
626.703	24.98
627.035	25.32
627.368	25.24
627.7	25.22
628.032	25.6
628.365	25.42
628.697	25.72
629.029	25.33
629.361	25.36
629.693	25.35
630.025	25.46
630.357	25.26
630.689	25.57
631.021	25.59
631.353	25.62
631.684	25.57
632.016	25.23
632.348	25.87
632.679	25.37
633.011	25.77
633.342	26.04
633.674	25.76
634.005	25.72
634.336	26.15
634.668	26.47
634.999	26.2
635.33	26.3
635.661	26.15
635.992	25.96
636.323	26.23
636.654	25.98
636.985	26.21
637.316	26.03
637.647	26.05
637.977	26.48
638.308	26.16
638.639	26.69
638.969	26.66
639.3	26.39
639.63	26.37
639.961	25.89
640.291	25.98
640.622	26.97
640.952	26.84
641.282	26.84
641.612	26.62
641.943	26.51
642.273	26.47
642.603	26.46
642.933	26.81
643.263	26.8
643.592	26.67
643.922	26.81
644.252	26.76
644.582	26.9
644.911	26.88
645.241	26.76
645.571	26.93
645.9	27.02
646.23	26.66
646.559	27.42
646.888	27.22
647.218	27.34
647.547	27.07
647.876	26.85
648.205	27.16
648.534	27.12
648.863	27.23
649.192	27.11
649.521	27.27
649.85	27.67
650.179	27.38
650.508	27.6
650.837	27.34
651.165	27.19
651.494	27.79
651.822	27.64
652.151	27.68
652.479	27.2
652.808	28.04
653.136	27.73
653.465	27.9
653.793	27.86
654.121	27.72
654.449	27.52
654.777	27.8
655.105	27.91
655.433	27.64
655.761	27.87
656.089	28.32
656.417	28.33
656.745	28.14
657.073	28.43
657.4	27.99
657.728	28.1
658.056	28.09
658.383	28.16
658.711	28.25
659.038	28.38
659.365	28.23
659.693	28.27
660.02	28.56
660.347	28.26
660.674	28.68
661.001	28.47
661.329	28.28
661.656	28.13
661.982	28.08
662.309	28.36
662.636	28.71
662.963	28.06
663.29	28.49
663.616	28.81
663.943	29.11
664.27	29.12
664.596	28.35
664.923	28.62
665.249	29.33
665.576	29.26
665.902	28.74
666.228	28.5
666.554	28.34
666.881	28.89
667.207	28.79
667.533	29.08
667.859	28.81
668.185	29.45
668.511	29.18
668.837	28.88
669.162	29.31
669.488	28.51
669.814	28.76
670.139	29.26
670.465	29.38
670.791	29.17
671.116	29.53
671.442	29.28
671.767	29.62
672.092	30.06
672.418	28.85
672.743	28.81
673.068	28.69
673.393	29.14
673.718	29.33
674.043	29.47
674.368	29.24
674.693	29.8
675.018	29.84
675.343	29.16
675.667	29.68
675.992	29.65
