Data from 0028_crown_Reflection__4__115.txt Node

Date: Thu Oct 20 21:49:03 CDT 2022
User: ToomeyLab
Spectrometer: FLMS14357
Trigger mode: 0
Integration Time (sec): 1.000000E-2
Scans to average: 100
Electric dark correction enabled: true
Nonlinearity correction enabled: false
Boxcar width: 0
XAxis mode: Wavelengths
Number of Pixels in Spectrum: 2048
>>>>>Begin Spectral Data<<<<<
189.047	-0.63
189.435	-0.63
189.823	-0.63
190.211	38.92
190.599	10.54
190.987	75.18
191.375	7.01
191.763	18.44
192.151	40.17
192.538	1496.67
192.926	54.82
193.314	116.59
193.702	-88.93
194.089	64.63
194.477	-39.89
194.864	416.48
195.252	-29.02
195.639	-172.94
196.027	68.7
196.414	177.76
196.801	32.11
197.189	27.61
197.576	686.58
197.963	-45.81
198.351	4.84
198.738	-3.43
199.125	4.45
199.512	50.62
199.899	-43.54
200.286	32.49
200.673	23.13
201.06	38.8
201.447	9.28
201.833	10.5
202.22	36.37
202.607	7.16
202.994	9.43
203.38	-43.97
203.767	9.25
204.154	-5.48
204.54	-26.44
204.927	11.73
205.313	37.75
205.699	6.29
206.086	-8.99
206.472	22.02
206.858	23.43
207.245	34.85
207.631	-27.68
208.017	-14.73
208.403	-36.42
208.789	-2.24
209.175	7.35
209.561	36.5
209.947	8.71
210.333	30.32
210.719	14.79
211.105	19.74
211.491	-16.31
211.876	-41.1
212.262	11.5
212.648	0.37
213.034	16
213.419	-5.27
213.805	-6.68
214.19	-1.27
214.576	-13.83
214.961	-15.03
215.346	-11.15
215.732	-10.8
216.117	-29.73
216.502	-3.7
216.888	8.15
217.273	-16.84
217.658	28.49
218.043	5.59
218.428	-4.08
218.813	30.89
219.198	1.65
219.583	17.75
219.968	23.21
220.353	-13.13
220.738	4.84
221.122	8.85
221.507	1.9
221.892	-5.38
222.276	-0.63
222.661	8.51
223.046	6.45
223.43	-7.81
223.815	3.12
224.199	-2.2
224.583	-0.03
224.968	1.3
225.352	8
225.736	5.63
226.121	-4.11
226.505	3.23
226.889	0.87
227.273	-1.2
227.657	6.56
228.041	1.34
228.425	0.43
228.809	5.8
229.193	3.97
229.577	3.06
229.961	3.34
230.344	4.12
230.728	3.68
231.112	4.17
231.495	4.99
231.879	3.46
232.263	4.51
232.646	4.01
233.03	4.45
233.413	4.82
233.797	1.97
234.18	4.08
234.563	4.37
234.946	3.8
235.33	4.13
235.713	3.24
236.096	3.27
236.479	6.15
236.862	4.06
237.245	3.5
237.628	4.2
238.011	4.67
238.394	6.81
238.777	3.7
239.16	2.89
239.543	2.2
239.925	4.65
240.308	3.81
240.691	5.36
241.073	2.23
241.456	4.7
241.838	4.26
242.221	4.01
242.603	4.28
242.986	4.04
243.368	4.2
243.75	4.45
244.133	4.47
244.515	4.69
244.897	3.72
245.279	3.95
245.661	4.36
246.043	4.27
246.425	4.44
246.807	4.36
247.189	3.96
247.571	4.39
247.953	3.88
248.335	4.15
248.717	4.16
249.098	4.47
249.48	4.22
249.862	4.09
250.243	4.2
250.625	4.18
251.006	4.1
251.388	4.09
251.769	3.39
252.151	3.75
252.532	3.2
252.913	3.11
253.295	4.13
253.676	4.56
254.057	3.51
254.438	4.34
254.819	4.35
255.2	4.3
255.581	4.34
255.962	4.8
256.343	2.66
256.724	4.03
257.105	4.25
257.486	3.83
257.867	4.14
258.247	3.95
258.628	4.09
259.009	3.12
259.389	3.18
259.77	3.55
260.15	3.56
260.531	3.73
260.911	3.81
261.292	3.82
261.672	3.92
262.052	4.04
262.432	4.16
262.813	3.52
263.193	4.33
263.573	3.54
263.953	4.09
264.333	3.6
264.713	4.16
265.093	3.85
265.473	3.47
265.853	4.21
266.233	3.62
266.612	3.97
266.992	3.04
267.372	4.07
267.752	3.82
268.131	4.2
268.511	4.14
268.89	3.34
269.27	3.85
269.649	3.47
270.029	3.83
270.408	3.73
270.787	3.61
271.167	3.71
271.546	3.59
271.925	3.88
272.304	4.12
272.683	3.53
273.062	3.36
273.441	3.48
273.82	3.88
274.199	3.09
274.578	3.51
274.957	3.45
275.336	3.5
275.715	3.93
276.093	4.04
276.472	3.88
276.851	3.95
277.229	3.37
277.608	3.46
277.986	3.23
278.365	3.54
278.743	3.22
279.122	3.5
279.5	3.2
279.878	3.58
280.257	3.77
280.635	3.9
281.013	4.01
281.391	3.64
281.769	3.59
282.147	2.58
282.525	2.89
282.903	3.68
283.281	3.31
283.659	3.18
284.037	3.07
284.415	3.06
284.792	3.02
285.17	3.89
285.548	3.34
285.925	3.36
286.303	3.05
286.68	3.86
287.058	3.52
287.435	3.15
287.813	3.2
288.19	3.32
288.567	3.6
288.945	3.58
289.322	3.29
289.699	2.92
290.076	3.48
290.453	3.35
290.83	3.21
291.207	3.49
291.584	3.08
291.961	3.3
292.338	3.2
292.715	3.63
293.092	3.49
293.469	3.73
293.845	3.2
294.222	3.24
294.599	4.14
294.975	3.23
295.352	3.9
295.728	3.42
296.105	3.58
296.481	3.05
296.858	3.3
297.234	3.26
297.61	3.36
297.986	3.01
298.363	3.07
298.739	3.32
299.115	3.22
299.491	3.37
299.867	3.34
300.243	3.72
300.619	3.87
300.995	2.94
301.371	3.51
301.746	3.06
302.122	3.34
302.498	3.14
302.874	3.65
303.249	3.58
303.625	3.11
304	3.16
304.376	3.36
304.751	3.31
305.127	3.06
305.502	3.65
305.878	3.58
306.253	2.87
306.628	3.25
307.003	3.49
307.378	2.96
307.754	3.43
308.129	3.14
308.504	3.47
308.879	3.16
309.254	3.76
309.629	3.19
310.003	3.24
310.378	3.25
310.753	3.67
311.128	3.47
311.502	3.32
311.877	3.52
312.252	3.39
312.626	3.53
313.001	3.32
313.375	3.53
313.75	3.41
314.124	3.39
314.498	3.06
314.873	2.99
315.247	3.2
315.621	3.03
315.995	3.64
316.369	3.98
316.743	3.27
317.117	3.3
317.491	3.72
317.865	3.76
318.239	3.42
318.613	3.83
318.987	3.37
319.361	3.85
319.734	2.99
320.108	3.67
320.482	3.84
320.855	3.58
321.229	3.62
321.602	2.9
321.976	3.71
322.349	3.3
322.723	4.17
323.096	4.02
323.469	3.05
323.843	3.71
324.216	3.45
324.589	3.79
324.962	3.31
325.335	3.35
325.708	3.61
326.081	3.81
326.454	3.7
326.827	2.96
327.2	3.93
327.573	3.9
327.945	3.42
328.318	3.11
328.691	3.74
329.063	3.61
329.436	3.58
329.809	3.74
330.181	3.5
330.553	3.18
330.926	3.41
331.298	3.01
331.671	3.41
332.043	4.03
332.415	3.71
332.787	3.73
333.159	3.73
333.532	3.97
333.904	3.41
334.276	4.04
334.648	3.38
335.02	3.18
335.391	3.54
335.763	3.71
336.135	3.82
336.507	3.3
336.879	4.14
337.25	3.26
337.622	4.07
337.993	3.41
338.365	3.72
338.736	3.74
339.108	3.28
339.479	3.74
339.851	3.64
340.222	3.33
340.593	3.63
340.964	4.31
341.336	3.42
341.707	3.41
342.078	3.74
342.449	3.45
342.82	3.91
343.191	3.85
343.562	3.79
343.933	3.82
344.303	3.5
344.674	3.47
345.045	4.1
345.416	3.62
345.786	3.52
346.157	3.36
346.527	3.57
346.898	3.27
347.268	3.48
347.639	3.56
348.009	3.69
348.38	3.82
348.75	3.44
349.12	3.7
349.49	3.96
349.861	3.98
350.231	3.44
350.601	3.81
350.971	3.66
351.341	3.83
351.711	3.88
352.081	3.74
352.45	3.44
352.82	3.57
353.19	3.65
353.56	3.78
353.929	3.73
354.299	4.41
354.669	4.1
355.038	3.82
355.408	3.35
355.777	3.7
356.147	3.98
356.516	3.49
356.885	3.77
357.254	3.96
357.624	3.74
357.993	3.78
358.362	4.1
358.731	3.74
359.1	3.7
359.469	3.86
359.838	3.8
360.207	4.17
360.576	3.97
360.945	3.98
361.314	3.77
361.682	3.49
362.051	3.71
362.42	3.72
362.788	3.84
363.157	3.87
363.525	3.86
363.894	3.85
364.262	4.04
364.631	3.86
364.999	3.81
365.367	4.04
365.735	3.83
366.104	3.8
366.472	3.83
366.84	4.34
367.208	3.81
367.576	4.06
367.944	4.12
368.312	3.88
368.68	4.16
369.048	3.83
369.416	4
369.783	3.87
370.151	4.37
370.519	4.1
370.886	3.78
371.254	4.38
371.621	3.54
371.989	3.97
372.356	3.86
372.724	4.02
373.091	3.97
373.458	3.58
373.826	3.86
374.193	4.02
374.56	3.79
374.927	3.8
375.294	3.9
375.661	4.21
376.028	3.73
376.395	4.2
376.762	3.8
377.129	3.77
377.496	3.85
377.863	3.6
378.229	3.89
378.596	3.89
378.963	4.1
379.329	4.21
379.696	4.15
380.062	3.98
380.429	4.17
380.795	4.07
381.161	4.07
381.528	3.94
381.894	4.04
382.26	3.85
382.626	4.08
382.993	3.89
383.359	4.11
383.725	4.2
384.091	4.02
384.457	3.8
384.823	3.94
385.188	4.15
385.554	3.7
385.92	3.98
386.286	3.85
386.651	4.07
387.017	4.1
387.383	4.07
387.748	4.21
388.114	4.34
388.479	4.27
388.845	4.13
389.21	4.02
389.575	4.09
389.94	4.5
390.306	4.37
390.671	4.14
391.036	3.93
391.401	3.85
391.766	4.3
392.131	4.03
392.496	4.01
392.861	3.84
393.226	4.1
393.591	4.28
393.956	4.38
394.32	4.49
394.685	4.46
395.05	4.18
395.414	4.21
395.779	3.97
396.143	4.07
396.508	4.14
396.872	4.38
397.236	4.15
397.601	4.45
397.965	4.24
398.329	4.31
398.694	4.35
399.058	4.32
399.422	4.29
399.786	4.06
400.15	3.93
400.514	4.25
400.878	4.34
401.242	4.3
401.605	4.27
401.969	4.26
402.333	4.21
402.697	4.44
403.06	4.11
403.424	4.05
403.787	4.19
404.151	4.1
404.514	4.03
404.878	4.02
405.241	4.35
405.604	4.23
405.968	4.28
406.331	4.27
406.694	4.04
407.057	4.14
407.42	4.24
407.783	4.3
408.146	4.26
408.509	4.13
408.872	4.42
409.235	4.15
409.598	4.24
409.961	4.29
410.323	4.53
410.686	4.21
411.049	4.22
411.411	4.15
411.774	4
412.136	4.3
412.499	4.35
412.861	4.34
413.223	4.3
413.586	4.11
413.948	4.16
414.31	4.15
414.672	4.24
415.035	4.29
415.397	4.13
415.759	4.49
416.121	4.33
416.483	4.1
416.845	4.3
417.206	4.19
417.568	4.5
417.93	4.21
418.292	4.37
418.653	4.29
419.015	4.2
419.377	4.12
419.738	4.15
420.1	4.31
420.461	4.24
420.822	4.24
421.184	4.19
421.545	4.34
421.906	4.13
422.267	4.18
422.629	4.12
422.99	4.23
423.351	4.2
423.712	4.22
424.073	4.33
424.434	4.26
424.795	4.27
425.155	4.12
425.516	4.13
425.877	4.17
426.238	4.21
426.598	4.29
426.959	4.32
427.32	4.31
427.68	4.38
428.041	4.48
428.401	4.29
428.761	4.31
429.122	4.25
429.482	4.26
429.842	4.31
430.202	4.36
430.563	4.3
430.923	4.69
431.283	4.36
431.643	4.39
432.003	4.28
432.363	4.54
432.722	4.55
433.082	4.28
433.442	4.24
433.802	4.26
434.161	4.35
434.521	4.21
434.881	4.3
435.24	4.23
435.6	4.32
435.959	4.38
436.319	4.3
436.678	4.19
437.037	4.43
437.396	4.48
437.756	4.35
438.115	4.37
438.474	4.28
438.833	4.3
439.192	4.39
439.551	4.21
439.91	4.41
440.269	4.17
440.628	4.33
440.987	4.22
441.345	4.3
441.704	4.14
442.063	4.3
442.421	4.14
442.78	4.23
443.138	4.28
443.497	4.27
443.855	4.26
444.214	4.4
444.572	4.36
444.93	4.25
445.288	4.42
445.647	4.29
446.005	4.13
446.363	4.19
446.721	4.19
447.079	4.17
447.437	4.17
447.795	4.25
448.153	4.17
448.51	4.28
448.868	4.28
449.226	4.29
449.584	4.25
449.941	4.3
450.299	4.31
450.656	4.29
451.014	4.38
451.371	4.26
451.729	4.23
452.086	4.66
452.443	4.17
452.801	4.37
453.158	4.28
453.515	4.27
453.872	4.32
454.229	4.08
454.586	4.27
454.943	4.34
455.3	4.24
455.657	4.24
456.014	4.24
456.371	4.33
456.727	4.21
457.084	4.29
457.441	4.33
457.797	4.33
458.154	4.42
458.51	4.26
458.867	4.23
459.223	4.35
459.58	4.33
459.936	4.3
460.292	4.14
460.648	4.17
461.005	4.09
461.361	4.1
461.717	4.27
462.073	4.44
462.429	4.43
462.785	4.42
463.141	4.59
463.496	4.5
463.852	4.41
464.208	4.42
464.564	4.34
464.919	4.37
465.275	4.42
465.631	4.2
465.986	4.34
466.342	4.22
466.697	4.43
467.052	4.39
467.408	4.3
467.763	4.34
468.118	4.33
468.473	4.37
468.829	4.34
469.184	4.48
469.539	4.2
469.894	4.19
470.249	4.42
470.603	4.22
470.958	4.26
471.313	4.16
471.668	4.42
472.023	4.3
472.377	4.44
472.732	4.38
473.086	4.41
473.441	4.26
473.795	4.37
474.15	4.34
474.504	4.12
474.859	4.45
475.213	4.33
475.567	4.44
475.921	4.1
476.275	4.36
476.63	4.47
476.984	4.34
477.338	4.21
477.692	4.32
478.045	4.32
478.399	4.45
478.753	4.3
479.107	4.34
479.461	4.28
479.814	4.28
480.168	4.32
480.521	4.28
480.875	4.25
481.228	4.28
481.582	4.28
481.935	4.28
482.289	4.18
482.642	4.11
482.995	4.17
483.348	4.33
483.701	4.14
484.055	4.11
484.408	4
484.761	3.88
485.114	3.78
485.466	3.8
485.819	3.99
486.172	4.2
486.525	4.33
486.878	4.34
487.23	4.32
487.583	4.24
487.936	4.2
488.288	4.01
488.641	3.96
488.993	3.95
489.345	4.03
489.698	4.09
490.05	4.16
490.402	4.34
490.754	4.29
491.107	4.28
491.459	4.36
491.811	4.27
492.163	4.12
492.515	4.01
492.866	3.94
493.218	3.95
493.57	4.06
493.922	4.22
494.274	4.32
494.625	4.39
494.977	4.42
495.328	4.31
495.68	4.27
496.031	4.33
496.383	4.28
496.734	4.26
497.086	4.16
497.437	4.27
497.788	4.27
498.139	4.12
498.49	4.22
498.842	4.22
499.193	4.28
499.544	4.39
499.894	4.33
500.245	4.36
500.596	4.33
500.947	4.26
501.298	4.35
501.648	4.27
501.999	4.38
502.35	4.39
502.7	4.38
503.051	4.4
503.401	4.31
503.752	4.32
504.102	4.38
504.452	4.27
504.803	4.21
505.153	4.28
505.503	4.37
505.853	4.13
506.203	4.25
506.553	4.42
506.903	4.21
507.253	4.38
507.603	4.38
507.953	4.24
508.303	4.3
508.652	4.24
509.002	4.19
509.352	4.23
509.701	4.21
510.051	4.26
510.4	4.23
510.75	4.1
511.099	4.15
511.449	4.35
511.798	4.38
512.147	4.32
512.496	4.36
512.846	4.32
513.195	4.27
513.544	4.3
513.893	4.28
514.242	4.23
514.591	4.34
514.939	4.26
515.288	4.42
515.637	4.25
515.986	4.23
516.334	4.29
516.683	4.41
517.032	4.25
517.38	4.21
517.729	4.34
518.077	4.25
518.426	4.25
518.774	4.21
519.122	4.23
519.47	4.1
519.819	4.13
520.167	4.14
520.515	4.08
520.863	4.24
521.211	4.29
521.559	4.46
521.907	4.26
522.255	4.26
522.602	4.31
522.95	4.35
523.298	4.36
523.645	4.3
523.993	4.27
524.341	4.44
524.688	4.31
525.036	4.22
525.383	4.35
525.73	4.25
526.078	4.21
526.425	4.26
526.772	4.12
527.119	4.04
527.466	4.17
527.814	4.22
528.161	4.23
528.508	4.22
528.854	4.24
529.201	4.1
529.548	3.99
529.895	3.84
530.242	3.93
530.588	4.05
530.935	4.21
531.282	4.24
531.628	4.29
531.975	4.4
532.321	4.35
532.667	4.35
533.014	4.33
533.36	4.27
533.706	4.12
534.052	4.15
534.399	4.08
534.745	4.07
535.091	4.09
535.437	4.23
535.783	4.26
536.129	4.37
536.474	4.4
536.82	4.43
537.166	4.23
537.512	4.19
537.857	4.12
538.203	4.16
538.549	4.26
538.894	4.32
539.239	4.33
539.585	4.41
539.93	4.3
540.276	4.45
540.621	4.3
540.966	4.3
541.311	4.28
541.656	4.26
542.001	4.2
542.346	4.03
542.691	3.94
543.036	3.94
543.381	4.16
543.726	4.22
544.071	4.23
544.415	4.36
544.76	4.18
545.105	4.29
545.449	4.28
545.794	4.41
546.138	4.42
546.483	4.36
546.827	4.36
547.171	4.26
547.516	4.24
547.86	4.31
548.204	4.19
548.548	4.2
548.892	4.26
549.236	4.33
549.58	4.34
549.924	4.44
550.268	4.42
550.612	4.58
550.956	4.28
551.3	4.32
551.643	4.33
551.987	4.59
552.33	4.26
552.674	4.32
553.017	4.45
553.361	4.27
553.704	4.49
554.048	4.48
554.391	4.29
554.734	4.34
555.077	4.14
555.42	4.55
555.764	4.34
556.107	4.36
556.45	4.28
556.793	4.26
557.135	4.42
557.478	4.25
557.821	4.43
558.164	4.33
558.507	4.51
558.849	4.48
559.192	4.5
559.534	4.54
559.877	4.54
560.219	4.54
560.562	4.68
560.904	4.4
561.246	4.29
561.589	4.41
561.931	4.18
562.273	4.37
562.615	4.4
562.957	4.33
563.299	4.47
563.641	4.29
563.983	4.56
564.325	4.36
564.667	4.37
565.008	4.55
565.35	4.42
565.692	4.4
566.033	4.17
566.375	4.33
566.716	4.34
567.058	4.31
567.399	4.27
567.741	4.21
568.082	4.4
568.423	4.41
568.764	4.28
569.105	4.47
569.447	4.47
569.788	4.5
570.129	4.41
570.47	4.3
570.811	4.17
571.151	4.37
571.492	4.26
571.833	4.57
572.174	4.4
572.514	4.33
572.855	4.35
573.195	4.28
573.536	4.22
573.876	4.15
574.217	4.42
574.557	4.38
574.898	4.52
575.238	4.65
575.578	4.38
575.918	4.34
576.258	4.45
576.598	4.44
576.938	4.42
577.278	4.27
577.618	4.55
577.958	4.26
578.298	4.48
578.638	4.32
578.977	4.53
579.317	4.31
579.657	4.48
579.996	4.55
580.336	4.58
580.675	4.66
581.014	4.53
581.354	4.72
581.693	4.46
582.032	4.35
582.372	4.37
582.711	4.01
583.05	4.3
583.389	4.32
583.728	4.35
584.067	4.51
584.406	4.42
584.745	4.4
585.083	4.09
585.422	4.46
585.761	4.46
586.1	4.46
586.438	4.71
586.777	4.44
587.115	4.35
587.454	4.58
587.792	4.42
588.13	4.45
588.469	4.8
588.807	4.51
589.145	4.26
589.483	4.36
589.821	4.33
590.159	4.49
590.497	4.3
590.835	4.2
591.173	4.19
591.511	4.33
591.849	4.39
592.187	4.09
592.524	4.38
592.862	4.46
593.2	4.45
593.537	4.31
593.875	4.37
594.212	4.36
594.55	4.54
594.887	4.12
595.224	4.5
595.561	4.39
595.899	4.53
596.236	4.34
596.573	4.48
596.91	4.25
597.247	4.33
597.584	4.39
597.921	4.31
598.258	4.27
598.594	4.34
598.931	4.46
599.268	4.2
599.604	4.38
599.941	4.51
600.277	4.44
600.614	4.55
600.95	4.43
601.287	4.26
601.623	4.42
601.959	4.39
602.296	4.08
602.632	4.13
602.968	4.71
603.304	4.51
603.64	4.61
603.976	4.39
604.312	4.27
604.648	4.42
604.984	4.23
605.319	4.31
605.655	4.4
605.991	4.06
606.326	4.38
606.662	4.35
606.998	4.41
607.333	4.27
607.668	4.14
608.004	4.41
608.339	4.6
608.674	4.49
609.01	4.43
609.345	4.47
609.68	4.08
610.015	4.54
610.35	4.46
610.685	4.26
611.02	4.31
611.355	4.21
611.689	4.48
612.024	4.4
612.359	4.34
612.694	4.24
613.028	4.42
613.363	4.5
613.697	4.51
614.032	4.49
614.366	4.71
614.7	4.06
615.035	4.49
615.369	4.56
615.703	4.5
616.037	4.61
616.371	4.36
616.705	4.34
617.039	4.44
617.373	4.09
617.707	4.32
618.041	4.32
618.375	4.1
618.709	4.33
619.042	4.14
619.376	4.44
619.71	4.35
620.043	4.34
620.377	4.21
620.71	4.52
621.043	4.79
621.377	4.33
621.71	4.53
622.043	4.59
622.376	4.33
622.709	4.67
623.043	4.51
623.376	4.4
623.709	4.38
624.041	4.31
624.374	4.54
624.707	4.46
625.04	4.54
625.373	4.48
625.705	4.35
626.038	4.8
626.37	4.17
626.703	4.28
627.035	4.46
627.368	4.51
627.7	4.52
628.032	4.61
628.365	4.23
628.697	4.65
629.029	4.31
629.361	4.57
629.693	4.62
630.025	4.51
630.357	4.49
630.689	4.37
631.021	4.48
631.353	4.71
631.684	4.55
632.016	4.21
632.348	4.6
632.679	4.32
633.011	4.78
633.342	4.38
633.674	4.86
634.005	4.49
634.336	4.26
634.668	4.58
634.999	4.59
635.33	4.7
635.661	4.56
635.992	4.56
636.323	4.81
636.654	4.3
636.985	4.51
637.316	4.43
637.647	4.19
637.977	4.68
638.308	4.57
638.639	4.79
638.969	4.45
639.3	4.54
639.63	4.6
639.961	4.47
640.291	4.14
640.622	4.93
640.952	4.6
641.282	4.76
641.612	4.63
641.943	4.49
642.273	4.43
642.603	4.18
642.933	4.42
643.263	4.43
643.592	4.41
643.922	4.67
644.252	4.16
644.582	4.05
644.911	4.68
645.241	4.5
645.571	4.07
645.9	4.73
646.23	4.57
646.559	4.75
646.888	4.9
647.218	4.43
647.547	4.22
647.876	4.12
648.205	4.68
648.534	4.55
648.863	4.55
649.192	4.59
649.521	4.39
649.85	4.7
650.179	4.45
650.508	4.68
650.837	4.39
651.165	4.53
651.494	4.58
651.822	4.62
652.151	4.68
652.479	4.14
652.808	4.77
653.136	3.86
653.465	4.69
653.793	4.69
654.121	4.73
654.449	4.67
654.777	4.38
655.105	4.71
655.433	4.32
655.761	4.78
656.089	4.35
656.417	4.61
656.745	4.71
657.073	4.65
657.4	4.25
657.728	4.45
658.056	4.38
658.383	4.68
658.711	4.87
659.038	4.77
659.365	4.26
659.693	4.8
660.02	4.74
660.347	4.52
660.674	4.57
661.001	4.58
661.329	4.36
661.656	4.04
661.982	4.68
662.309	4.54
662.636	4.81
662.963	4.3
663.29	4.46
663.616	4.72
663.943	4.95
664.27	4.92
664.596	5.01
664.923	4.5
665.249	4.95
665.576	5.08
665.902	4.56
666.228	4.39
666.554	4.58
666.881	4.96
667.207	4.39
667.533	4.71
667.859	4.87
668.185	5.2
668.511	4.81
668.837	4.82
669.162	4.61
669.488	3.86
669.814	5.13
670.139	4.67
670.465	4.44
670.791	5.28
671.116	4.7
671.442	5
671.767	4.88
672.092	4.48
672.418	4.71
672.743	4.23
673.068	4.14
673.393	4.16
673.718	4.63
674.043	4.53
674.368	4.22
674.693	4.64
675.018	4.78
675.343	4.21
675.667	4.77
675.992	4.41
676.317	5.14
676.641	4.71
676.966	4.43
677.29	4.21
677.615	5.42
677.939	4.99
678.264	4.5
678.588	5.05
678.912	4.96
679.236	5.15
679.56	4.71
679.885	4
680.209	4.7
680.532	5.09
680.856	4.97
681.18	4.27
681.504	4.11
681.828	4.79
682.152	5.48
682.475	4.58
682.799	5.28
683.122	4.81
683.446	4.64
683.769	4.72
684.093	5.07
684.416	4.95
684.739	4.78
685.062	4.43
685.386	4.72
685.709	4.77
686.032	4.83
686.355	4.35
686.678	4.83
687.001	4.6
687.324	4.71
687.646	4.59
687.969	4.06
688.292	5.65
688.614	4.83
688.937	3.97
689.26	4.65
689.582	3.97
689.904	5.1
690.227	4.13
690.549	5.31
690.871	4.66
691.194	4.88
691.516	4.42
691.838	4.68
692.16	5
692.482	5.36
692.804	4.95
693.126	5.02
693.448	4.65
