Data from 0028_crown_Reflection__3__114.txt Node

Date: Thu Oct 20 21:48:50 CDT 2022
User: ToomeyLab
Spectrometer: FLMS14357
Trigger mode: 0
Integration Time (sec): 1.000000E-2
Scans to average: 100
Electric dark correction enabled: true
Nonlinearity correction enabled: false
Boxcar width: 0
XAxis mode: Wavelengths
Number of Pixels in Spectrum: 2048
>>>>>Begin Spectral Data<<<<<
189.047	88.73
189.435	88.73
189.823	88.73
190.211	-245.6
190.599	-181.51
190.987	52.19
191.375	51.4
191.763	3.8
192.151	271.86
192.538	1354.87
192.926	96.18
193.314	94.67
193.702	196.16
194.089	187.9
194.477	-11.1
194.864	18.83
195.252	67.2
195.639	-79.17
196.027	36.4
196.414	118.21
196.801	54.24
197.189	31.55
197.576	241.23
197.963	-132.13
198.351	14.37
198.738	-108.15
199.125	-26.85
199.512	7.49
199.899	-43.3
200.286	-8.04
200.673	-2.02
201.06	25.66
201.447	97.38
201.833	-1.17
202.22	-60.59
202.607	-5.18
202.994	-44.91
203.38	-57.73
203.767	12.81
204.154	7.94
204.54	-1.73
204.927	-20.21
205.313	7.47
205.699	0.34
206.086	2.67
206.472	-12.3
206.858	-26.28
207.245	14.31
207.631	-58.22
208.017	-6.54
208.403	-35.54
208.789	13.4
209.175	25.26
209.561	32.77
209.947	7.83
210.333	33.33
210.719	17.75
211.105	10.89
211.491	-22.44
211.876	2.78
212.262	7.23
212.648	-27.36
213.034	-23.09
213.419	-13.44
213.805	-8.38
214.19	-15
214.576	-56.43
214.961	-36.29
215.346	-10.71
215.732	-24.99
216.117	-41.34
216.502	-1.66
216.888	-41.02
217.273	-31.32
217.658	30.5
218.043	17.79
218.428	3.13
218.813	7.65
219.198	-22.21
219.583	-2.45
219.968	29.83
220.353	-4.05
220.738	14.62
221.122	13.28
221.507	13.92
221.892	17.82
222.276	1.36
222.661	14.49
223.046	7.22
223.43	-3.19
223.815	7.12
224.199	-4.76
224.583	1.28
224.968	6.05
225.352	19.06
225.736	9.58
226.121	1.18
226.505	6.07
226.889	0.05
227.273	4.2
227.657	7.19
228.041	0.88
228.425	4.15
228.809	9.47
229.193	6.96
229.577	7.92
229.961	7.92
230.344	7.75
230.728	7.01
231.112	7.06
231.495	6.79
231.879	7.12
232.263	6.99
232.646	6.28
233.03	5.51
233.413	4.68
233.797	4.39
234.18	6.29
234.563	7.79
234.946	6.66
235.33	7.99
235.713	8.52
236.096	5.86
236.479	8.23
236.862	7.45
237.245	7.57
237.628	7.8
238.011	6.83
238.394	8.35
238.777	5.83
239.16	6.08
239.543	5.18
239.925	4.86
240.308	6.4
240.691	8.68
241.073	5.3
241.456	7.78
241.838	5.3
242.221	6.33
242.603	7.44
242.986	6.93
243.368	7.09
243.75	7.36
244.133	7.04
244.515	6.28
244.897	6.7
245.279	5.5
245.661	6.9
246.043	7.39
246.425	6.41
246.807	6
247.189	6.49
247.571	6.91
247.953	6.68
248.335	6.91
248.717	6.48
249.098	6.41
249.48	6.36
249.862	6.46
250.243	6.16
250.625	6.58
251.006	6.5
251.388	5.94
251.769	6.17
252.151	6.65
252.532	5.84
252.913	6.39
253.295	6.79
253.676	6.62
254.057	5.55
254.438	5.88
254.819	6.32
255.2	7.06
255.581	6.25
255.962	6.47
256.343	5.32
256.724	6.88
257.105	5.91
257.486	6.2
257.867	5.63
258.247	6.44
258.628	6.56
259.009	4.81
259.389	6.22
259.77	5.72
260.15	5.36
260.531	5.83
260.911	6.03
261.292	6.17
261.672	5.55
262.052	5.61
262.432	5.64
262.813	5.53
263.193	6.05
263.573	5.57
263.953	5.84
264.333	5.53
264.713	6.06
265.093	5.43
265.473	5.6
265.853	5.64
266.233	4.95
266.612	5.23
266.992	5.09
267.372	6.16
267.752	5.52
268.131	5.96
268.511	5.96
268.89	5.21
269.27	5.25
269.649	5.33
270.029	5.24
270.408	5.04
270.787	5.74
271.167	5.73
271.546	4.9
271.925	5.83
272.304	5.68
272.683	5.37
273.062	5.16
273.441	5.56
273.82	6.22
274.199	5.52
274.578	5.23
274.957	5.14
275.336	4.99
275.715	5.51
276.093	5.15
276.472	5.24
276.851	5.73
277.229	5.2
277.608	4.57
277.986	5.08
278.365	4.98
278.743	5.35
279.122	5.03
279.5	5.33
279.878	5.39
280.257	4.97
280.635	5.07
281.013	4.74
281.391	5.93
281.769	5.36
282.147	4.72
282.525	4.67
282.903	5.13
283.281	4.96
283.659	5.01
284.037	4.74
284.415	4.97
284.792	4.81
285.17	5.68
285.548	5.12
285.925	4.89
286.303	4.88
286.68	5.34
287.058	5
287.435	5.14
287.813	4.96
288.19	5.11
288.567	4.84
288.945	5.04
289.322	5.44
289.699	4.51
290.076	4.8
290.453	4.87
290.83	5.61
291.207	5.22
291.584	5.32
291.961	5.24
292.338	4.95
292.715	5.03
293.092	5.25
293.469	5.09
293.845	5.12
294.222	4.97
294.599	5.64
294.975	4.84
295.352	5.48
295.728	4.84
296.105	5.11
296.481	4.53
296.858	5.23
297.234	5.18
297.61	5.41
297.986	5.22
298.363	5.29
298.739	5.37
299.115	5.38
299.491	4.81
299.867	5.05
300.243	4.82
300.619	5.14
300.995	4.85
301.371	5.39
301.746	4.75
302.122	5.3
302.498	4.89
302.874	5.31
303.249	5.41
303.625	4.91
304	5.13
304.376	5.22
304.751	5.3
305.127	4.8
305.502	5.41
305.878	5.42
306.253	4.71
306.628	4.58
307.003	4.96
307.378	4.91
307.754	5.42
308.129	5.42
308.504	5.26
308.879	5.52
309.254	5.33
309.629	5.08
310.003	5.1
310.378	5.3
310.753	5.21
311.128	4.85
311.502	5.43
311.877	5.68
312.252	4.87
312.626	5.3
313.001	5.56
313.375	5.49
313.75	5.23
314.124	5.2
314.498	5.19
314.873	5.27
315.247	4.72
315.621	5.29
315.995	5.11
316.369	5.57
316.743	4.77
317.117	5.12
317.491	5.42
317.865	4.68
318.239	5.66
318.613	5.69
318.987	5.46
319.361	5.48
319.734	4.94
320.108	5.8
320.482	5.26
320.855	5.4
321.229	5.78
321.602	4.82
321.976	5.19
322.349	5.59
322.723	6.08
323.096	5.5
323.469	5.52
323.843	5.26
324.216	5.01
324.589	5.74
324.962	5.94
325.335	5.71
325.708	5.56
326.081	5.68
326.454	5.76
326.827	5.53
327.2	5.76
327.573	5.54
327.945	5.65
328.318	5.51
328.691	5.95
329.063	5.42
329.436	5.55
329.809	5.24
330.181	5.45
330.553	4.88
330.926	5.76
331.298	5.11
331.671	6.02
332.043	5.65
332.415	5.28
332.787	6.16
333.159	5.64
333.532	6.1
333.904	5.43
334.276	5.67
334.648	5.59
335.02	5.48
335.391	5.88
335.763	5.67
336.135	5.52
336.507	5.46
336.879	6.29
337.25	5.39
337.622	6.02
337.993	5.61
338.365	6.07
338.736	5.85
339.108	5.43
339.479	5.9
339.851	5.74
340.222	5.21
340.593	5.94
340.964	6.03
341.336	6.03
341.707	5.93
342.078	5.88
342.449	5.91
342.82	6.23
343.191	5.98
343.562	5.77
343.933	5.51
344.303	5.54
344.674	5.97
345.045	6.11
345.416	6.15
345.786	5.97
346.157	5.79
346.527	5.58
346.898	5.6
347.268	5.64
347.639	6.28
348.009	5.68
348.38	5.87
348.75	5.61
349.12	5.9
349.49	6.12
349.861	6
350.231	5.74
350.601	6.38
350.971	6.07
351.341	6.46
351.711	6.31
352.081	5.74
352.45	6.06
352.82	5.87
353.19	6.13
353.56	6.19
353.929	6.01
354.299	6.67
354.669	6.16
355.038	6.01
355.408	5.87
355.777	6.38
356.147	6.54
356.516	5.99
356.885	5.93
357.254	6.28
357.624	6.13
357.993	6.13
358.362	6.22
358.731	6.38
359.1	5.91
359.469	6.15
359.838	6.05
360.207	6.5
360.576	5.79
360.945	6.39
361.314	6.5
361.682	6.16
362.051	6.05
362.42	6.09
362.788	6.44
363.157	6.55
363.525	6.31
363.894	6.18
364.262	6.21
364.631	5.95
364.999	6.36
365.367	6.32
365.735	6.1
366.104	6.11
366.472	6.42
366.84	6.48
367.208	6.21
367.576	6.39
367.944	6.72
368.312	6.41
368.68	6.41
369.048	6.22
369.416	6.49
369.783	6.3
370.151	6.73
370.519	6.47
370.886	6.3
371.254	6.48
371.621	6.61
371.989	6.73
372.356	6.34
372.724	6.6
373.091	6.47
373.458	6.15
373.826	6.41
374.193	6.5
374.56	6.12
374.927	6.1
375.294	6.4
375.661	6.69
376.028	6.4
376.395	6.94
376.762	6.36
377.129	6.41
377.496	6.42
377.863	6.5
378.229	6.42
378.596	6.84
378.963	6.67
379.329	6.69
379.696	6.4
380.062	6.44
380.429	6.88
380.795	6.67
381.161	6.66
381.528	6.63
381.894	6.57
382.26	6.5
382.626	6.8
382.993	6.47
383.359	6.36
383.725	6.59
384.091	6.85
384.457	6.51
384.823	6.47
385.188	6.71
385.554	6.4
385.92	6.43
386.286	6.35
386.651	6.57
387.017	6.64
387.383	6.59
387.748	6.92
388.114	6.64
388.479	6.51
388.845	6.67
389.21	6.5
389.575	6.57
389.94	6.99
390.306	6.57
390.671	6.76
391.036	6.59
391.401	6.29
391.766	6.92
392.131	6.91
392.496	6.67
392.861	6.56
393.226	6.67
393.591	6.76
393.956	6.77
394.32	6.53
394.685	6.75
395.05	6.4
395.414	6.85
395.779	6.76
396.143	6.72
396.508	6.82
396.872	7
397.236	6.73
397.601	6.83
397.965	6.81
398.329	6.65
398.694	6.51
399.058	6.49
399.422	6.84
399.786	6.57
400.15	6.82
400.514	6.95
400.878	6.67
401.242	6.62
401.605	6.97
401.969	6.8
402.333	6.59
402.697	7.08
403.06	6.81
403.424	6.72
403.787	6.83
404.151	6.58
404.514	6.8
404.878	6.68
405.241	6.84
405.604	6.93
405.968	6.83
406.331	6.72
406.694	6.49
407.057	6.82
407.42	6.76
407.783	6.71
408.146	6.91
408.509	6.62
408.872	6.83
409.235	6.72
409.598	6.84
409.961	6.84
410.323	7.01
410.686	6.83
411.049	6.79
411.411	6.6
411.774	6.61
412.136	6.83
412.499	6.86
412.861	6.9
413.223	6.73
413.586	6.72
413.948	6.9
414.31	6.68
414.672	6.97
415.035	6.93
415.397	7.03
415.759	6.81
416.121	6.95
416.483	6.71
416.845	6.89
417.206	6.88
417.568	6.82
417.93	6.68
418.292	6.86
418.653	6.79
419.015	7
419.377	6.9
419.738	6.76
420.1	6.83
420.461	6.87
420.822	6.64
421.184	6.65
421.545	6.76
421.906	6.73
422.267	6.78
422.629	6.69
422.99	6.6
423.351	6.55
423.712	6.64
424.073	6.68
424.434	6.64
424.795	6.71
425.155	6.67
425.516	6.63
425.877	6.62
426.238	6.7
426.598	6.67
426.959	6.52
427.32	6.65
427.68	6.62
428.041	6.58
428.401	6.64
428.761	6.7
429.122	6.66
429.482	6.7
429.842	6.8
430.202	6.76
430.563	6.69
430.923	7.07
431.283	6.82
431.643	6.64
432.003	6.73
432.363	6.93
432.722	6.9
433.082	6.68
433.442	6.62
433.802	6.92
434.161	6.89
434.521	6.73
434.881	6.78
435.24	6.59
435.6	6.82
435.959	6.68
436.319	6.68
436.678	6.62
437.037	6.59
437.396	6.72
437.756	6.69
438.115	6.62
438.474	6.73
438.833	6.78
439.192	6.61
439.551	6.7
439.91	6.84
440.269	6.75
440.628	6.69
440.987	6.69
441.345	6.84
441.704	6.62
442.063	6.69
442.421	6.46
442.78	6.71
443.138	6.58
443.497	6.45
443.855	6.49
444.214	6.62
444.572	6.81
444.93	6.54
445.288	6.67
445.647	6.69
446.005	6.59
446.363	6.68
446.721	6.67
447.079	6.64
447.437	6.67
447.795	6.63
448.153	6.58
448.51	6.57
448.868	6.5
449.226	6.56
449.584	6.48
449.941	6.58
450.299	6.55
450.656	6.59
451.014	6.62
451.371	6.54
451.729	6.49
452.086	6.53
452.443	6.46
452.801	6.66
453.158	6.67
453.515	6.64
453.872	6.6
454.229	6.51
454.586	6.61
454.943	6.44
455.3	6.61
455.657	6.53
456.014	6.6
456.371	6.6
456.727	6.65
457.084	6.58
457.441	6.69
457.797	6.57
458.154	6.69
458.51	6.67
458.867	6.71
459.223	6.77
459.58	6.62
459.936	6.69
460.292	6.59
460.648	6.53
461.005	6.58
461.361	6.55
461.717	6.51
462.073	6.49
462.429	6.42
462.785	6.58
463.141	6.63
463.496	6.54
463.852	6.45
464.208	6.52
464.564	6.66
464.919	6.47
465.275	6.61
465.631	6.71
465.986	6.73
466.342	6.67
466.697	6.46
467.052	6.63
467.408	6.67
467.763	6.51
468.118	6.69
468.473	6.6
468.829	6.43
469.184	6.49
469.539	6.44
469.894	6.49
470.249	6.55
470.603	6.65
470.958	6.53
471.313	6.47
471.668	6.43
472.023	6.56
472.377	6.52
472.732	6.49
473.086	6.62
473.441	6.5
473.795	6.56
474.15	6.57
474.504	6.24
474.859	6.52
475.213	6.46
475.567	6.55
475.921	6.43
476.275	6.56
476.63	6.6
476.984	6.7
477.338	6.46
477.692	6.55
478.045	6.64
478.399	6.41
478.753	6.47
479.107	6.43
479.461	6.56
479.814	6.52
480.168	6.57
480.521	6.4
480.875	6.53
481.228	6.29
481.582	6.34
481.935	6.47
482.289	6.36
482.642	6.3
482.995	6.42
483.348	6.47
483.701	6.46
484.055	6.28
484.408	6.3
484.761	6.39
485.114	6.31
485.466	6.22
485.819	6.06
486.172	5.97
486.525	5.94
486.878	5.98
487.23	5.99
487.583	6.1
487.936	6.28
488.288	6.34
488.641	6.27
488.993	6.19
489.345	6.13
489.698	6.09
490.05	6.09
490.402	6.11
490.754	6.03
491.107	6.06
491.459	6.12
491.811	6.21
492.163	6.28
492.515	6.25
492.866	6.31
493.218	6.25
493.57	6.03
493.922	5.98
494.274	6.02
494.625	6.05
494.977	6.05
495.328	5.97
495.68	6.16
496.031	6.33
496.383	6.36
496.734	6.27
497.086	6.28
497.437	6.41
497.788	6.43
498.139	6.26
498.49	6.41
498.842	6.13
499.193	6.16
499.544	6.34
499.894	6.25
500.245	6.28
500.596	6.32
500.947	6.25
501.298	6.34
501.648	6.13
501.999	6.24
502.35	6.3
502.7	6.21
503.051	6.38
503.401	6.3
503.752	6.16
504.102	6.4
504.452	6.2
504.803	6.23
505.153	6.24
505.503	6.35
505.853	6.16
506.203	6.19
506.553	6.22
506.903	6.12
507.253	6.28
507.603	6.32
507.953	6.19
508.303	6.33
508.652	6.17
509.002	6.21
509.352	6.33
509.701	6.28
510.051	6.28
510.4	6.09
510.75	6.16
511.099	6.14
511.449	6.18
511.798	6.18
512.147	6.21
512.496	6.28
512.846	6.32
513.195	6.17
513.544	6.14
513.893	6.24
514.242	6.12
514.591	6.17
514.939	6.12
515.288	6.09
515.637	6.17
515.986	6.17
516.334	6.12
516.683	6.08
517.032	6.2
517.38	6.12
517.729	6.19
518.077	6
518.426	6.26
518.774	6.25
519.122	6.2
519.47	6.13
519.819	6.21
520.167	6.12
520.515	6.13
520.863	6.03
521.211	5.95
521.559	6.12
521.907	6.06
522.255	6.05
522.602	6.04
522.95	6.14
523.298	6.23
523.645	6.14
523.993	6.13
524.341	6.14
524.688	6.1
525.036	6.22
525.383	6.18
525.73	6.16
526.078	6.2
526.425	6.16
526.772	6.11
527.119	6.13
527.466	6.12
527.814	6.04
528.161	5.95
528.508	6.07
528.854	6.1
529.201	6.06
529.548	6.1
529.895	6.06
530.242	6.02
530.588	5.9
530.935	5.79
531.282	5.72
531.628	5.74
531.975	5.84
532.321	5.9
532.667	5.93
533.014	6.02
533.36	5.98
533.706	5.94
534.052	6.05
534.399	6.13
534.745	6.06
535.091	5.99
535.437	5.84
535.783	5.73
536.129	5.75
536.474	5.91
536.82	5.85
537.166	5.92
537.512	6.01
537.857	6.06
538.203	6.11
538.549	5.99
538.894	5.94
539.239	5.94
539.585	5.97
539.93	5.93
540.276	6.04
540.621	6.02
540.966	6.01
541.311	6.08
541.656	6.04
542.001	5.96
542.346	6.03
542.691	5.98
543.036	5.89
543.381	5.87
543.726	5.72
544.071	5.73
544.415	5.91
544.76	5.82
545.105	5.92
545.449	5.79
545.794	5.87
546.138	6
546.483	5.94
546.827	5.93
547.171	6.03
547.516	5.98
547.86	6.02
548.204	6.1
548.548	5.92
548.892	6
549.236	5.89
549.58	5.98
549.924	6.02
550.268	5.9
550.612	6.13
550.956	6.02
551.3	6
551.643	5.97
551.987	6.16
552.33	5.99
552.674	5.93
553.017	6.07
553.361	6.27
553.704	6.16
554.048	6.13
554.391	6.01
554.734	6.05
555.077	5.98
555.42	6.1
555.764	5.98
556.107	5.94
556.45	5.95
556.793	6.02
557.135	6.04
557.478	5.9
557.821	6.06
558.164	5.9
558.507	5.91
558.849	6.12
559.192	5.98
559.534	6.22
559.877	6.09
560.219	6.17
560.562	6.09
560.904	5.93
561.246	5.95
561.589	6.29
561.931	6.03
562.273	6.09
562.615	5.99
562.957	5.83
563.299	5.91
563.641	5.8
563.983	6.25
564.325	5.83
564.667	5.97
565.008	6.03
565.35	6.16
565.692	5.87
566.033	5.72
566.375	6.13
566.716	6.03
567.058	6.05
567.399	5.98
567.741	5.9
568.082	5.92
568.423	5.93
568.764	5.88
569.105	5.91
569.447	5.9
569.788	5.81
570.129	5.91
570.47	5.93
570.811	5.8
571.151	6.01
571.492	5.89
571.833	5.87
572.174	5.94
572.514	5.93
572.855	6.02
573.195	6.06
573.536	5.92
573.876	5.82
574.217	5.8
574.557	5.91
574.898	5.94
575.238	6.08
575.578	5.97
575.918	5.92
576.258	5.97
576.598	5.98
576.938	5.81
577.278	5.84
577.618	6.11
577.958	5.85
578.298	5.88
578.638	5.93
578.977	5.84
579.317	5.88
579.657	5.94
579.996	6.09
580.336	6.01
580.675	6.32
581.014	6.03
581.354	5.94
581.693	6.1
582.032	6.07
582.372	5.89
582.711	5.77
583.05	5.91
583.389	6.05
583.728	5.9
584.067	5.92
584.406	5.96
584.745	5.82
585.083	5.66
585.422	6.13
585.761	5.91
586.1	5.86
586.438	6.12
586.777	6
587.115	5.82
587.454	6.02
587.792	6.02
588.13	5.86
588.469	6.17
588.807	5.88
589.145	5.84
589.483	5.85
589.821	5.76
590.159	5.88
590.497	5.85
590.835	5.65
591.173	5.93
591.511	5.85
591.849	6.03
592.187	5.8
592.524	5.88
592.862	5.78
593.2	5.87
593.537	6.05
593.875	5.95
594.212	5.85
594.55	5.75
594.887	5.63
595.224	5.74
595.561	5.85
595.899	6.13
596.236	5.97
596.573	6.14
596.91	5.72
597.247	5.77
597.584	5.64
597.921	5.71
598.258	5.78
598.594	5.91
598.931	5.84
599.268	5.77
599.604	5.65
599.941	5.63
600.277	5.63
600.614	5.65
600.95	5.86
601.287	5.8
601.623	5.83
601.959	5.77
602.296	5.64
602.632	5.6
602.968	5.76
603.304	5.46
603.64	5.96
603.976	5.85
604.312	5.82
604.648	5.93
604.984	5.73
605.319	5.68
605.655	5.76
605.991	5.8
606.326	5.91
606.662	5.76
606.998	5.86
607.333	5.67
607.668	5.5
608.004	5.61
608.339	5.68
608.674	5.84
609.01	5.65
609.345	5.76
609.68	5.71
610.015	5.84
610.35	5.92
610.685	5.71
611.02	5.81
611.355	5.73
611.689	5.74
612.024	5.71
612.359	5.48
612.694	5.86
613.028	5.75
613.363	5.39
613.697	5.5
614.032	5.99
614.366	5.81
614.7	5.67
615.035	5.65
615.369	5.56
615.703	5.79
616.037	5.85
616.371	5.49
616.705	5.53
617.039	5.52
617.373	5.65
617.707	5.94
618.041	5.61
618.375	5.61
618.709	5.65
619.042	5.7
619.376	5.54
619.71	5.7
620.043	5.77
620.377	5.7
620.71	5.72
621.043	5.87
621.377	5.46
621.71	5.54
622.043	5.35
622.376	5.85
622.709	5.91
623.043	5.57
623.376	5.75
623.709	5.58
624.041	5.82
624.374	5.63
624.707	5.78
625.04	5.85
625.373	6.05
625.705	5.44
626.038	5.83
626.37	5.46
626.703	5.67
627.035	5.63
627.368	5.63
627.7	5.71
628.032	6.14
628.365	5.48
628.697	5.88
629.029	5.82
629.361	5.71
629.693	5.71
630.025	5.69
630.357	5.72
630.689	5.71
631.021	5.61
631.353	5.93
631.684	5.58
632.016	5.27
632.348	5.89
632.679	5.42
633.011	5.79
633.342	6.03
633.674	5.65
634.005	5.74
634.336	5.59
634.668	5.64
634.999	5.8
635.33	5.86
635.661	5.72
635.992	5.74
636.323	5.79
636.654	5.65
636.985	5.73
637.316	5.6
637.647	5.71
637.977	6.06
638.308	5.85
638.639	5.95
638.969	5.74
639.3	5.41
639.63	5.75
639.961	5.58
640.291	5.51
640.622	5.76
640.952	5.96
641.282	5.67
641.612	6
641.943	5.96
642.273	5.71
642.603	5.39
642.933	5.39
643.263	5.61
643.592	5.8
643.922	5.96
644.252	6.14
644.582	5.46
644.911	5.71
645.241	5.82
645.571	5.21
645.9	5.84
646.23	5.71
646.559	5.86
646.888	5.52
647.218	5.69
647.547	5.4
647.876	5.49
648.205	5.58
648.534	5.38
648.863	5.77
649.192	5.57
649.521	5.4
649.85	5.73
650.179	5.57
650.508	5.71
650.837	5.93
651.165	5.5
651.494	6.3
651.822	5.66
652.151	6.09
652.479	5.7
652.808	5.27
653.136	5.7
653.465	6.14
653.793	5.81
654.121	5.9
654.449	5.91
654.777	5.42
655.105	5.96
655.433	5.77
655.761	6.01
656.089	5.63
656.417	5.48
656.745	5.89
657.073	5.86
657.4	5.58
657.728	5.74
658.056	5.93
658.383	5.75
658.711	5.97
659.038	5.92
659.365	5.56
659.693	5.64
660.02	5.65
660.347	5.65
660.674	5.81
661.001	5.92
661.329	5.56
661.656	5.39
661.982	5.68
662.309	5.61
662.636	6.08
662.963	5.42
663.29	5.52
663.616	5.73
663.943	5.99
664.27	6.24
664.596	6.11
664.923	5.83
665.249	5.8
665.576	6.07
665.902	5.7
666.228	5.93
666.554	6.21
666.881	5.74
667.207	6.24
667.533	5.58
667.859	5.48
668.185	6.57
668.511	6.16
668.837	5.58
669.162	6.05
669.488	4.98
669.814	6.14
670.139	6
670.465	5.22
670.791	6.43
671.116	6.21
671.442	5.56
671.767	6.28
672.092	5.92
672.418	6.03
672.743	5.58
673.068	5.08
673.393	5.39
673.718	6.06
674.043	5.72
674.368	5.4
674.693	5.8
675.018	5.98
675.343	5.7
675.667	5.93
675.992	5.81
676.317	5.82
676.641	5.83
676.966	4.94
677.29	6.02
677.615	6.27
677.939	5.58
678.264	5.84
678.588	5.35
678.912	5.68
679.236	6.34
679.56	5.45
679.885	6.01
680.209	5.49
680.532	6.25
680.856	6.42
681.18	5.91
681.504	5.42
681.828	6.05
682.152	6.47
682.475	5.25
682.799	6.09
683.122	5.5
683.446	5.53
683.769	6.38
684.093	5.7
684.416	5.96
684.739	5.97
685.062	5.18
685.386	6.13
685.709	5.52
686.032	6.09
686.355	5.3
686.678	5.76
687.001	5.63
687.324	6.23
687.646	5.91
687.969	5.75
688.292	6.1
688.614	5.28
688.937	5.23
689.26	5.48
689.582	5.41
689.904	5.31
690.227	5.2
690.549	6.06
690.871	5.33
691.194	6.05
691.516	6.03
691.838	5.79
692.16	6.31
692.482	6.23
692.804	6.48
