Data from 0028_forehead_Reflection__2__118.txt Node

Date: Thu Oct 20 21:51:25 CDT 2022
User: ToomeyLab
Spectrometer: FLMS14357
Trigger mode: 0
Integration Time (sec): 1.000000E-2
Scans to average: 100
Electric dark correction enabled: true
Nonlinearity correction enabled: false
Boxcar width: 0
XAxis mode: Wavelengths
Number of Pixels in Spectrum: 2048
>>>>>Begin Spectral Data<<<<<
189.047	-24.94
189.435	-24.94
189.823	-24.94
190.211	-104.69
190.599	-235.04
190.987	-14.41
191.375	61.79
191.763	-253.35
192.151	81.67
192.538	472.21
192.926	105.27
193.314	176.82
193.702	215.59
194.089	176.23
194.477	-14.64
194.864	-42.22
195.252	126.34
195.639	-40.69
196.027	-1.51
196.414	73.07
196.801	-6.43
197.189	55.77
197.576	368.96
197.963	-74.55
198.351	-13.45
198.738	-88.22
199.125	-7.3
199.512	19.24
199.899	-16.13
200.286	-2.69
200.673	-32.14
201.06	11.86
201.447	88.17
201.833	9.5
202.22	-29.48
202.607	16.88
202.994	43.27
203.38	-50.15
203.767	13.69
204.154	-0.13
204.54	10.5
204.927	-4.12
205.313	9.08
205.699	-16.89
206.086	9.09
206.472	21.04
206.858	70.09
207.245	-15.2
207.631	-9.04
208.017	-18.5
208.403	-37.86
208.789	-3.72
209.175	20.33
209.561	21.64
209.947	16.75
210.333	10.01
210.719	7.16
211.105	11.02
211.491	-28.45
211.876	-24.11
212.262	1.78
212.648	36.34
213.034	23.46
213.419	-53.65
213.805	-3.52
214.19	-16.69
214.576	-17.06
214.961	-6.17
215.346	-33.75
215.732	-16.11
216.117	-38.46
216.502	7.49
216.888	-0.94
217.273	-9.91
217.658	15.07
218.043	2.2
218.428	4.23
218.813	22.02
219.198	-0.77
219.583	1.83
219.968	18.4
220.353	16.82
220.738	2.4
221.122	14.95
221.507	-3
221.892	8.88
222.276	14.37
222.661	12.41
223.046	10.45
223.43	-0.04
223.815	0.79
224.199	-2.82
224.583	13.87
224.968	9.75
225.352	9.26
225.736	0.86
226.121	-8.47
226.505	0.57
226.889	-0.66
227.273	-1.96
227.657	4.19
228.041	-1.34
228.425	0.73
228.809	1.11
229.193	2.57
229.577	1.98
229.961	2.29
230.344	1.44
230.728	1.66
231.112	1.72
231.495	2.16
231.879	4
232.263	3.61
232.646	1.16
233.03	2.15
233.413	1.01
233.797	1.86
234.18	2.31
234.563	1.25
234.946	2.37
235.33	1.15
235.713	3.46
236.096	1.48
236.479	2.01
236.862	2.46
237.245	1.96
237.628	2.02
238.011	3.18
238.394	4.11
238.777	2.6
239.16	1.21
239.543	1.07
239.925	2.48
240.308	2.41
240.691	2.96
241.073	0.97
241.456	2.41
241.838	1.12
242.221	2.63
242.603	2.31
242.986	2.44
243.368	2.15
243.75	2.32
244.133	2.86
244.515	2.53
244.897	1.97
245.279	2.36
245.661	3.68
246.043	2.83
246.425	3.13
246.807	2.4
247.189	2.73
247.571	2.82
247.953	2.56
248.335	2.46
248.717	2.37
249.098	2.52
249.48	2.66
249.862	2.62
250.243	2.36
250.625	2.75
251.006	3.05
251.388	3.24
251.769	1.76
252.151	2.9
252.532	2.43
252.913	2.92
253.295	3.13
253.676	2.37
254.057	1.93
254.438	2.42
254.819	2.51
255.2	2.98
255.581	2.23
255.962	3.04
256.343	1.65
256.724	2.51
257.105	2.68
257.486	1.83
257.867	3.46
258.247	3.22
258.628	2.17
259.009	1.91
259.389	2.18
259.77	2.49
260.15	2.94
260.531	2.65
260.911	2.38
261.292	2.54
261.672	2.46
262.052	2.64
262.432	2.75
262.813	2.59
263.193	2.87
263.573	3.04
263.953	2.27
264.333	2.1
264.713	2.33
265.093	2.31
265.473	2.84
265.853	2.98
266.233	3.01
266.612	2.03
266.992	2.65
267.372	3.15
267.752	3.26
268.131	2.82
268.511	2.81
268.89	2.39
269.27	2.55
269.649	2.27
270.029	2.05
270.408	2.29
270.787	2.09
271.167	2.83
271.546	2.52
271.925	2.77
272.304	2.45
272.683	2.5
273.062	2.06
273.441	2.42
273.82	2.71
274.199	2.28
274.578	2.09
274.957	2.52
275.336	2.43
275.715	2.58
276.093	3.02
276.472	2.88
276.851	2.67
277.229	2.4
277.608	2.29
277.986	2.92
278.365	2.41
278.743	2.59
279.122	2.9
279.5	2.54
279.878	2.86
280.257	2.26
280.635	2.19
281.013	2.67
281.391	2.15
281.769	2.58
282.147	2.1
282.525	2.17
282.903	2.19
283.281	2.28
283.659	2.05
284.037	1.94
284.415	2.6
284.792	2.69
285.17	3.01
285.548	2.28
285.925	2.82
286.303	2.58
286.68	2.9
287.058	2.54
287.435	2.44
287.813	2.35
288.19	2.29
288.567	2.59
288.945	2.67
289.322	2.7
289.699	2.3
290.076	2.88
290.453	2.52
290.83	2.99
291.207	2.95
291.584	2.65
291.961	2.51
292.338	2.36
292.715	2.58
293.092	3.21
293.469	3.04
293.845	2.85
294.222	3.27
294.599	3.41
294.975	2.48
295.352	3.33
295.728	2.63
296.105	3.19
296.481	2.51
296.858	2.93
297.234	3.34
297.61	3.23
297.986	2.79
298.363	2.91
298.739	3.04
299.115	3.08
299.491	3.05
299.867	2.82
300.243	2.99
300.619	2.95
300.995	2.51
301.371	3.38
301.746	2.98
302.122	3.54
302.498	3.01
302.874	3.71
303.249	3.41
303.625	3.37
304	3.75
304.376	3.1
304.751	3.67
305.127	3.05
305.502	3.73
305.878	3.77
306.253	3.21
306.628	3.24
307.003	3.36
307.378	3.35
307.754	3.42
308.129	3.37
308.504	3.7
308.879	3.63
309.254	3.66
309.629	3.42
310.003	3.31
310.378	3.97
310.753	4.06
311.128	3.45
311.502	3.74
311.877	4.13
312.252	3.8
312.626	3.95
313.001	3.94
313.375	4.06
313.75	3.29
314.124	3.92
314.498	3.55
314.873	4.02
315.247	3.86
315.621	4.35
315.995	4.03
316.369	4.51
316.743	3.83
317.117	3.88
317.491	4.49
317.865	4.03
318.239	4.22
318.613	4.65
318.987	4.11
319.361	4.33
319.734	4.35
320.108	5.13
320.482	4.4
320.855	4.29
321.229	4.95
321.602	3.55
321.976	4.09
322.349	4.23
322.723	5.37
323.096	4.83
323.469	4.56
323.843	4.56
324.216	4.25
324.589	5.17
324.962	4.22
325.335	4.85
325.708	5.1
326.081	4.96
326.454	4.93
326.827	4.66
327.2	5.09
327.573	4.67
327.945	4.83
328.318	4.88
328.691	5.03
329.063	5.01
329.436	4.85
329.809	4.97
330.181	5.14
330.553	4.71
330.926	5.18
331.298	4.55
331.671	5.4
332.043	5.37
332.415	5.04
332.787	5.54
333.159	5.39
333.532	5.15
333.904	4.93
334.276	4.84
334.648	5
335.02	5.48
335.391	5.09
335.763	5.48
336.135	5.48
336.507	4.83
336.879	5.97
337.25	4.79
337.622	5.54
337.993	4.98
338.365	5.36
338.736	5.52
339.108	5.32
339.479	5.29
339.851	5.02
340.222	5.26
340.593	5.45
340.964	5.4
341.336	5.19
341.707	5.23
342.078	5.26
342.449	5.54
342.82	5.88
343.191	5.41
343.562	5.76
343.933	5.59
344.303	5.27
344.674	5.74
345.045	5.46
345.416	5.67
345.786	5.83
346.157	5.92
346.527	5.61
346.898	5.92
347.268	5.55
347.639	6.13
348.009	5.66
348.38	6.06
348.75	5.28
349.12	5.75
349.49	6.27
349.861	5.87
350.231	5.93
350.601	6.46
350.971	5.99
351.341	6.15
351.711	6.08
352.081	6.29
352.45	6.1
352.82	5.9
353.19	6.24
353.56	6.05
353.929	6.07
354.299	5.94
354.669	5.96
355.038	6.2
355.408	6.04
355.777	6.14
356.147	6.72
356.516	6.03
356.885	5.82
357.254	6.42
357.624	6.53
357.993	5.89
358.362	6.32
358.731	6.46
359.1	6.16
359.469	6.48
359.838	6.02
360.207	6.78
360.576	6.16
360.945	6.46
361.314	6.25
361.682	6.41
362.051	6.19
362.42	6.32
362.788	6.23
363.157	6.54
363.525	6.54
363.894	6.47
364.262	6.68
364.631	6.49
364.999	6.46
365.367	6.71
365.735	6.68
366.104	6.39
366.472	6.45
366.84	6.79
367.208	6.61
367.576	6.68
367.944	7.3
368.312	6.74
368.68	7.05
369.048	6.78
369.416	6.79
369.783	6.87
370.151	7.34
370.519	6.84
370.886	6.6
371.254	7.2
371.621	6.68
371.989	7.24
372.356	6.75
372.724	7.13
373.091	7.03
373.458	6.65
373.826	6.94
374.193	7.3
374.56	6.7
374.927	6.91
375.294	6.73
375.661	7.28
376.028	7.19
376.395	7.52
376.762	7.21
377.129	7.05
377.496	7.16
377.863	7.12
378.229	7.09
378.596	7.43
378.963	7.38
379.329	7.58
379.696	7.34
380.062	7.38
380.429	7.58
380.795	7.54
381.161	7.54
381.528	7.36
381.894	7.41
382.26	7.39
382.626	7.86
382.993	7.51
383.359	7.65
383.725	7.69
384.091	7.57
384.457	7.54
384.823	7.7
385.188	7.91
385.554	7.52
385.92	7.54
386.286	7.72
386.651	7.53
387.017	7.79
387.383	7.56
387.748	8
388.114	8.03
388.479	7.78
388.845	8.18
389.21	8
389.575	7.65
389.94	7.99
390.306	8.46
390.671	7.9
391.036	7.78
391.401	7.65
391.766	8.27
392.131	8.27
392.496	7.82
392.861	7.99
393.226	8.25
393.591	8.39
393.956	8.28
394.32	8.32
394.685	8.34
395.05	8.18
395.414	8.29
395.779	8.37
396.143	8.32
396.508	8.3
396.872	8.61
397.236	8.3
397.601	8.71
397.965	8.49
398.329	8.44
398.694	8.53
399.058	8.47
399.422	8.77
399.786	8.7
400.15	8.61
400.514	8.72
400.878	8.68
401.242	8.78
401.605	8.86
401.969	8.71
402.333	8.32
402.697	8.69
403.06	8.82
403.424	8.76
403.787	8.82
404.151	8.8
404.514	8.66
404.878	8.83
405.241	8.79
405.604	8.86
405.968	8.89
406.331	8.95
406.694	8.65
407.057	8.89
407.42	9
407.783	8.99
408.146	8.95
408.509	9.06
408.872	8.98
409.235	8.76
409.598	9.1
409.961	9.25
410.323	9.15
410.686	9.18
411.049	9.19
411.411	8.99
411.774	9.03
412.136	9.18
412.499	9.13
412.861	9.2
413.223	9.14
413.586	9.18
413.948	9.22
414.31	8.95
414.672	9.23
415.035	9.24
415.397	9.24
415.759	9.48
416.121	9.44
416.483	9.4
416.845	9.6
417.206	9.31
417.568	9.43
417.93	9.31
418.292	9.48
418.653	9.43
419.015	9.52
419.377	9.38
419.738	9.46
420.1	9.46
420.461	9.52
420.822	9.43
421.184	9.43
421.545	9.47
421.906	9.36
422.267	9.4
422.629	9.46
422.99	9.38
423.351	9.48
423.712	9.6
424.073	9.57
424.434	9.56
424.795	9.55
425.155	9.57
425.516	9.47
425.877	9.57
426.238	9.62
426.598	9.65
426.959	9.58
427.32	9.86
427.68	9.75
428.041	9.71
428.401	9.7
428.761	9.76
429.122	9.84
429.482	9.85
429.842	10.01
430.202	9.98
430.563	10.1
430.923	10.18
431.283	9.85
431.643	10.05
432.003	10.08
432.363	10.32
432.722	10.26
433.082	9.98
433.442	10.16
433.802	10.09
434.161	10.09
434.521	10.11
434.881	10.32
435.24	10.1
435.6	10.25
435.959	10.36
436.319	10.23
436.678	10.12
437.037	10.43
437.396	10.41
437.756	10.4
438.115	10.47
438.474	10.39
438.833	10.46
439.192	10.41
439.551	10.68
439.91	10.45
440.269	10.5
440.628	10.54
440.987	10.46
441.345	10.66
441.704	10.6
442.063	10.58
442.421	10.46
442.78	10.63
443.138	10.59
443.497	10.53
443.855	10.79
444.214	10.63
444.572	10.8
444.93	10.61
445.288	10.68
445.647	10.92
446.005	10.8
446.363	10.8
446.721	10.7
447.079	10.85
447.437	10.76
447.795	10.72
448.153	10.8
448.51	10.8
448.868	10.89
449.226	10.87
449.584	10.91
449.941	11
450.299	11
450.656	10.93
451.014	11.06
451.371	11.22
451.729	11.01
452.086	11.23
452.443	11.19
452.801	11.18
453.158	11.17
453.515	11.2
453.872	11.2
454.229	11.19
454.586	11.32
454.943	11.28
455.3	11.22
455.657	11.28
456.014	11.56
456.371	11.28
456.727	11.42
457.084	11.41
457.441	11.71
457.797	11.58
458.154	11.58
458.51	11.46
458.867	11.47
459.223	11.9
459.58	11.6
459.936	11.58
460.292	11.48
460.648	11.49
461.005	11.51
461.361	11.38
461.717	11.52
462.073	11.6
462.429	11.58
462.785	11.79
463.141	11.79
463.496	11.89
463.852	12
464.208	12
464.564	12.04
464.919	12.06
465.275	12.04
465.631	11.9
465.986	12.12
466.342	11.96
466.697	12.02
467.052	11.88
467.408	12.03
467.763	12.21
468.118	12.25
468.473	12.2
468.829	12.08
469.184	12.11
469.539	12.04
469.894	12.08
470.249	12.33
470.603	12.12
470.958	12.25
471.313	12.3
471.668	12.23
472.023	12.3
472.377	12.47
472.732	12.27
473.086	12.43
473.441	12.42
473.795	12.58
474.15	12.52
474.504	12.47
474.859	12.68
475.213	12.54
475.567	12.82
475.921	12.48
476.275	12.56
476.63	12.85
476.984	12.83
477.338	12.55
477.692	12.76
478.045	12.66
478.399	12.85
478.753	12.88
479.107	12.81
479.461	12.93
479.814	12.94
480.168	12.82
480.521	12.98
480.875	12.93
481.228	12.92
481.582	12.87
481.935	12.85
482.289	12.69
482.642	12.84
482.995	12.96
483.348	13.03
483.701	12.85
484.055	12.74
484.408	12.73
484.761	12.55
485.114	12.42
485.466	12.41
485.819	12.44
486.172	12.5
486.525	12.6
486.878	12.71
487.23	12.7
487.583	12.83
487.936	12.92
488.288	12.85
488.641	12.74
488.993	12.75
489.345	12.76
489.698	12.82
490.05	12.77
490.402	12.95
490.754	13.02
491.107	13.04
491.459	13.18
491.811	13.27
492.163	13.23
492.515	13.14
492.866	13.09
493.218	13.07
493.57	13.07
493.922	13.11
494.274	13.31
494.625	13.43
494.977	13.46
495.328	13.48
495.68	13.67
496.031	13.72
496.383	13.78
496.734	13.84
497.086	13.89
497.437	13.9
497.788	13.93
498.139	13.9
498.49	13.81
498.842	13.69
499.193	13.82
499.544	13.99
499.894	13.89
500.245	14
500.596	14.05
500.947	14.06
501.298	14.22
501.648	14.13
501.999	14.19
502.35	14.27
502.7	14.24
503.051	14.27
503.401	14.36
503.752	14.34
504.102	14.33
504.452	14.32
504.803	14.3
505.153	14.42
505.503	14.63
505.853	14.49
506.203	14.47
506.553	14.53
506.903	14.47
507.253	14.58
507.603	14.62
507.953	14.73
508.303	14.56
508.652	14.58
509.002	14.72
509.352	14.78
509.701	14.72
510.051	14.68
510.4	14.65
510.75	14.63
511.099	14.61
511.449	14.87
511.798	14.84
512.147	14.86
512.496	14.89
512.846	15
513.195	14.91
513.544	14.99
513.893	14.95
514.242	14.98
514.591	15.19
514.939	15.2
515.288	15.2
515.637	15.04
515.986	15.33
516.334	15.16
516.683	15.26
517.032	15.18
517.38	15.29
517.729	15.37
518.077	15.19
518.426	15.3
518.774	15.3
519.122	15.2
519.47	15.18
519.819	15.19
520.167	15.08
520.515	15.23
520.863	15.19
521.211	15.36
521.559	15.34
521.907	15.36
522.255	15.54
522.602	15.49
522.95	15.64
523.298	15.56
523.645	15.69
523.993	15.63
524.341	15.74
524.688	15.78
525.036	15.84
525.383	15.82
525.73	15.81
526.078	15.71
526.425	15.7
526.772	15.63
527.119	15.6
527.466	15.66
527.814	15.63
528.161	15.6
528.508	15.72
528.854	15.66
529.201	15.67
529.548	15.5
529.895	15.43
530.242	15.39
530.588	15.48
530.935	15.48
531.282	15.46
531.628	15.62
531.975	15.71
532.321	15.85
532.667	15.89
533.014	16.06
533.36	16.07
533.706	16
534.052	16.12
534.399	15.95
534.745	15.97
535.091	15.91
535.437	16.02
535.783	16.02
536.129	16.07
536.474	16.27
536.82	16.32
537.166	16.36
537.512	16.31
537.857	16.33
538.203	16.31
538.549	16.37
538.894	16.47
539.239	16.51
539.585	16.69
539.93	16.81
540.276	16.77
540.621	16.73
540.966	16.83
541.311	16.84
541.656	16.93
542.001	16.7
542.346	16.55
542.691	16.47
543.036	16.49
543.381	16.53
543.726	16.53
544.071	16.65
544.415	16.7
544.76	16.66
545.105	16.96
545.449	16.98
545.794	17.05
546.138	17.23
546.483	17.31
546.827	17.12
547.171	17.18
547.516	17.19
547.86	17.27
548.204	17.29
548.548	17.26
548.892	17.36
549.236	17.43
549.58	17.54
549.924	17.55
550.268	17.42
550.612	17.7
550.956	17.68
551.3	17.88
551.643	17.78
551.987	17.8
552.33	17.8
552.674	17.81
553.017	18.1
553.361	18.08
553.704	18.06
554.048	18.11
554.391	18.05
554.734	18.01
555.077	17.89
555.42	18.06
555.764	18.05
556.107	18.07
556.45	18.08
556.793	18.2
557.135	18.28
557.478	18.25
557.821	18.21
558.164	18.42
558.507	18.3
558.849	18.54
559.192	18.49
559.534	18.67
559.877	18.53
560.219	18.48
560.562	18.41
560.904	18.46
561.246	18.53
561.589	18.8
561.931	18.61
562.273	18.56
562.615	18.57
562.957	18.57
563.299	18.77
563.641	18.62
563.983	18.94
564.325	18.87
564.667	18.8
565.008	18.86
565.35	18.92
565.692	18.82
566.033	18.71
566.375	18.97
566.716	18.95
567.058	19.02
567.399	19.05
567.741	18.87
568.082	18.88
568.423	19.07
568.764	19
569.105	19.12
569.447	19.16
569.788	19.21
570.129	19.3
570.47	19.16
570.811	19.08
571.151	19.31
571.492	19.16
571.833	19.27
572.174	19.5
572.514	19.38
572.855	19.39
573.195	19.43
573.536	19.42
573.876	19.12
574.217	19.26
574.557	19.5
574.898	19.41
575.238	19.85
575.578	19.62
575.918	19.76
576.258	19.76
576.598	19.56
576.938	19.75
577.278	19.7
577.618	19.78
577.958	19.75
578.298	19.72
578.638	19.75
578.977	20.06
579.317	20.13
579.657	19.87
579.996	20.04
580.336	20.31
580.675	20.42
581.014	20.25
581.354	20.36
581.693	20.08
582.032	20.13
582.372	20.12
582.711	20.33
583.05	20.53
583.389	20.36
583.728	20.36
584.067	20.43
584.406	20.48
584.745	20.46
585.083	20.5
585.422	20.72
585.761	20.56
586.1	20.69
586.438	20.57
586.777	20.5
587.115	20.64
587.454	20.67
587.792	20.41
588.13	20.81
588.469	20.8
588.807	20.45
589.145	20.53
589.483	20.71
589.821	20.66
590.159	20.83
590.497	20.95
590.835	20.74
591.173	21.06
591.511	21.12
591.849	20.92
592.187	20.75
592.524	21.13
592.862	20.96
593.2	21.22
593.537	21.32
593.875	21.49
594.212	21.31
594.55	21.29
594.887	21.27
595.224	21.32
595.561	21.29
595.899	21.55
596.236	21.32
596.573	21.49
596.91	21.18
597.247	21.3
597.584	21.25
597.921	21.36
598.258	21.16
598.594	21.39
598.931	21.39
599.268	21.36
599.604	21.45
599.941	21.74
600.277	21.76
600.614	21.71
600.95	21.86
601.287	21.7
601.623	21.72
601.959	21.69
602.296	21.96
602.632	21.89
602.968	22.12
603.304	21.89
603.64	22.14
603.976	21.72
604.312	21.89
604.648	21.79
604.984	21.92
605.319	21.81
605.655	21.93
605.991	21.91
606.326	21.88
606.662	21.87
606.998	22.14
607.333	22
607.668	21.93
608.004	22.36
608.339	22.16
608.674	22.25
609.01	22.32
609.345	22.43
609.68	22.26
610.015	22.44
610.35	22.38
610.685	22.34
611.02	22.45
611.355	22.36
611.689	22.28
612.024	22.28
612.359	22.27
612.694	22.66
613.028	22.46
613.363	22.72
613.697	22.81
614.032	22.99
614.366	22.96
614.7	22.6
615.035	22.7
615.369	22.76
615.703	22.86
616.037	22.7
616.371	22.94
616.705	23.08
617.039	22.9
617.373	23.02
617.707	23.24
618.041	22.89
618.375	22.8
618.709	22.92
619.042	22.93
619.376	23.19
619.71	23.33
620.043	23.61
620.377	23.32
620.71	23.26
621.043	23.38
621.377	23.18
621.71	23.22
622.043	22.7
622.376	23.39
622.709	23.36
623.043	23.59
623.376	23.68
623.709	23.34
624.041	23.41
624.374	23.59
624.707	23.72
625.04	23.84
625.373	23.85
625.705	23.6
626.038	23.97
626.37	23.26
626.703	23.77
627.035	23.8
627.368	23.71
627.7	23.86
628.032	23.91
628.365	23.8
628.697	23.95
629.029	23.93
629.361	24.15
629.693	23.99
630.025	23.94
630.357	24.17
630.689	24.13
631.021	23.96
631.353	24.3
631.684	24.05
632.016	23.74
632.348	23.7
632.679	23.89
633.011	24.16
633.342	24.28
633.674	24.24
634.005	24.59
634.336	24.24
634.668	24.32
634.999	24
635.33	24.52
635.661	24.04
635.992	24.54
636.323	24.86
636.654	24.4
636.985	24.36
637.316	24.36
637.647	24.59
637.977	25.11
638.308	24.22
638.639	25.03
638.969	24.81
639.3	24.83
639.63	24.94
639.961	24.77
640.291	24.7
640.622	24.93
640.952	24.66
641.282	24.66
641.612	25.19
641.943	25.13
642.273	24.64
642.603	24.39
642.933	25.17
643.263	24.8
643.592	24.83
643.922	25.22
644.252	24.97
644.582	25.27
644.911	24.96
645.241	25.3
645.571	25.12
645.9	25.45
646.23	25.2
646.559	25.21
646.888	25.61
647.218	25.05
647.547	25.08
647.876	25.4
648.205	25.35
648.534	25.25
648.863	25.54
649.192	25.57
649.521	25.57
649.85	25.55
650.179	25.82
650.508	25.63
650.837	25.59
651.165	25.4
651.494	25.68
651.822	25.86
652.151	25.77
652.479	25.43
652.808	25.57
653.136	25.92
653.465	25.49
653.793	25.62
654.121	26.17
654.449	26.31
654.777	25.96
655.105	26.04
655.433	25.62
655.761	26.1
656.089	25.91
656.417	26.13
656.745	26.15
657.073	26.23
657.4	26.1
657.728	26.25
658.056	26.28
658.383	26
658.711	25.89
659.038	26.49
659.365	26.23
659.693	26.63
660.02	26.32
660.347	25.96
660.674	26.86
661.001	26.17
661.329	26.39
661.656	26.17
661.982	26.19
662.309	26.61
662.636	26.66
662.963	26.66
663.29	26.36
663.616	26.62
663.943	26.94
664.27	26.4
664.596	26.89
664.923	26.71
665.249	26.27
665.576	27.13
665.902	26.88
666.228	27.31
666.554	26.72
666.881	26.53
667.207	27.35
667.533	26.94
667.859	26.73
668.185	27.54
668.511	27.16
668.837	26.29
669.162	26.71
669.488	26.94
669.814	26.76
670.139	26.85
670.465	26.89
670.791	27.59
671.116	27.36
671.442	27.1
671.767	26.69
672.092	27.26
672.418	27.06
672.743	27.07
673.068	26.65
673.393	27.17
673.718	26.88
674.043	27.07
674.368	27.13
674.693	27.59
675.018	27.49
675.343	27.26
675.667	27.87
675.992	27.31
