Data from 0042_forehead_Reflection__0__100.txt Node

Date: Fri Nov 04 15:38:08 CDT 2022
User: ToomeyLab
Spectrometer: FLMS14357
Trigger mode: 0
Integration Time (sec): 1.000000E-2
Scans to average: 100
Electric dark correction enabled: true
Nonlinearity correction enabled: false
Boxcar width: 0
XAxis mode: Wavelengths
Number of Pixels in Spectrum: 2048
>>>>>Begin Spectral Data<<<<<
189.047	197.04
189.435	197.04
189.823	197.04
190.211	-37.9
190.599	60.03
190.987	-104.68
191.375	-872.19
191.763	187
192.151	1558.43
192.538	19
192.926	245.48
193.314	85.18
193.702	78.68
194.089	13.94
194.477	-12.51
194.864	407.44
195.252	87.58
195.639	-169.69
196.027	92.46
196.414	-27.52
196.801	105.09
197.189	-503.16
197.576	119.62
197.963	1.12
198.351	-56.49
198.738	9.91
199.125	0.48
199.512	-11.91
199.899	28.03
200.286	-11.66
200.673	-13.19
201.06	3.5
201.447	-32.65
201.833	27.13
202.22	11
202.607	17.82
202.994	33.16
203.38	29.49
203.767	45.28
204.154	27.74
204.54	18.46
204.927	23.86
205.313	22.68
205.699	26.49
206.086	1.03
206.472	-10.4
206.858	-1.57
207.245	29.35
207.631	15.63
208.017	17.27
208.403	37.28
208.789	28.56
209.175	-6.47
209.561	-56.46
209.947	-27.54
210.333	-10.79
210.719	9.84
211.105	-79.78
211.491	0.11
211.876	-16.5
212.262	-14.4
212.648	-15.88
213.034	38.49
213.419	4.78
213.805	0.66
214.19	-53.88
214.576	-19.08
214.961	6.76
215.346	35.88
215.732	-1.13
216.117	-39.21
216.502	3.98
216.888	2.14
217.273	11.91
217.658	-16.07
218.043	4.21
218.428	11.54
218.813	-5.45
219.198	15.61
219.583	-12.5
219.968	20.28
220.353	-12.76
220.738	-28.61
221.122	0.11
221.507	5.8
221.892	-34.39
222.276	1.96
222.661	-0.94
223.046	8.89
223.43	-3.48
223.815	-0.99
224.199	8.83
224.583	-2.58
224.968	10.98
225.352	-2.04
225.736	-0.55
226.121	-16.27
226.505	-3.7
226.889	3.79
227.273	3.13
227.657	0.06
228.041	3.77
228.425	4.98
228.809	1.21
229.193	5.4
229.577	-0.5
229.961	2.73
230.344	2.24
230.728	2.17
231.112	1.97
231.495	2.18
231.879	2.87
232.263	1.62
232.646	0.76
233.03	1.13
233.413	1.04
233.797	0.64
234.18	0.58
234.563	2.75
234.946	1.74
235.33	2.98
235.713	2.98
236.096	1.98
236.479	2.13
236.862	2.59
237.245	2.1
237.628	2.58
238.011	0.13
238.394	3.59
238.777	3.09
239.16	2.21
239.543	0.81
239.925	3.18
240.308	2.32
240.691	1.64
241.073	1.1
241.456	0.88
241.838	0.99
242.221	2.27
242.603	2.12
242.986	2.26
243.368	2.64
243.75	2.44
244.133	2.69
244.515	2.3
244.897	2.18
245.279	2.65
245.661	3.03
246.043	4.04
246.425	2
246.807	3.05
247.189	1.77
247.571	3.11
247.953	2.51
248.335	2.48
248.717	2.71
249.098	2.74
249.48	3.06
249.862	3.03
250.243	2.74
250.625	2.32
251.006	2.84
251.388	3.25
251.769	2.91
252.151	3.77
252.532	3.13
252.913	2.61
253.295	3.5
253.676	2.69
254.057	2.48
254.438	2.75
254.819	3.03
255.2	3.73
255.581	3.27
255.962	2.45
256.343	1.63
256.724	2.89
257.105	3.02
257.486	2.89
257.867	4.6
258.247	2.41
258.628	2.51
259.009	2.5
259.389	2.7
259.77	3.37
260.15	3.12
260.531	2.89
260.911	2.4
261.292	2.48
261.672	2.49
262.052	2.79
262.432	2.8
262.813	2.43
263.193	1.93
263.573	2.53
263.953	2.38
264.333	2.64
264.713	3.05
265.093	2.61
265.473	3.08
265.853	1.56
266.233	2.65
266.612	2.95
266.992	3.06
267.372	1.72
267.752	2.18
268.131	3.03
268.511	2.81
268.89	2.68
269.27	2.57
269.649	2.74
270.029	2.14
270.408	2.55
270.787	2.77
271.167	2.45
271.546	3.04
271.925	2.84
272.304	2.99
272.683	2.76
273.062	2.51
273.441	3.04
273.82	2.38
274.199	2.83
274.578	2.57
274.957	2.46
275.336	2.21
275.715	2.12
276.093	2.65
276.472	2.49
276.851	2.48
277.229	2.32
277.608	2.48
277.986	3.07
278.365	2.5
278.743	3.1
279.122	2.47
279.5	2.71
279.878	2.8
280.257	1.97
280.635	1.75
281.013	2.46
281.391	2.97
281.769	2.81
282.147	1.96
282.525	2.49
282.903	2.93
283.281	2.6
283.659	2.47
284.037	2.72
284.415	2.4
284.792	2.55
285.17	2.14
285.548	3.05
285.925	2.72
286.303	2.9
286.68	2.7
287.058	2.76
287.435	2.6
287.813	2.71
288.19	2.75
288.567	2.67
288.945	2.73
289.322	3
289.699	2.99
290.076	2.8
290.453	2.34
290.83	2.84
291.207	3.02
291.584	3.25
291.961	2.77
292.338	2.94
292.715	3.17
293.092	2.84
293.469	3.23
293.845	2.78
294.222	3.23
294.599	2.9
294.975	2.87
295.352	3.21
295.728	3.64
296.105	3.29
296.481	3.23
296.858	3.36
297.234	4
297.61	3.63
297.986	3.34
298.363	3.5
298.739	3.44
299.115	3.57
299.491	3.31
299.867	3.57
300.243	3.43
300.619	3.72
300.995	3.95
301.371	4.46
301.746	3.65
302.122	3.9
302.498	4.11
302.874	3.7
303.249	3.92
303.625	3.75
304	3.82
304.376	4
304.751	3.55
305.127	3.05
305.502	3.63
305.878	3.96
306.253	3.94
306.628	3.92
307.003	4.05
307.378	4.18
307.754	4.02
308.129	3.92
308.504	4.02
308.879	4.3
309.254	4.42
309.629	4.09
310.003	4.47
310.378	3.93
310.753	4.06
311.128	4.23
311.502	3.94
311.877	4.17
312.252	4.15
312.626	4.37
313.001	4.59
313.375	4.5
313.75	4.26
314.124	4.06
314.498	4.46
314.873	4.37
315.247	4.43
315.621	4.43
315.995	5.06
316.369	4.43
316.743	4.87
317.117	5.04
317.491	4.59
317.865	4.6
318.239	4.3
318.613	5.24
318.987	4.6
319.361	5.11
319.734	4.81
320.108	4.63
320.482	4.29
320.855	5.05
321.229	4.36
321.602	4.85
321.976	4.52
322.349	5.73
322.723	4.98
323.096	4.96
323.469	4.77
323.843	4.82
324.216	5.03
324.589	5.01
324.962	5.34
325.335	4.59
325.708	4.81
326.081	5.18
326.454	5.03
326.827	5.16
327.2	5
327.573	5.1
327.945	5.14
328.318	4.88
328.691	5.13
329.063	5.07
329.436	5.54
329.809	5.27
330.181	4.8
330.553	5.14
330.926	5.57
331.298	5.4
331.671	5.47
332.043	5.51
332.415	5.7
332.787	5.1
333.159	5.17
333.532	4.85
333.904	5.64
334.276	5.7
334.648	5.66
335.02	5.15
335.391	5.75
335.763	5.57
336.135	5.4
336.507	5.48
336.879	5.7
337.25	5.77
337.622	5.6
337.993	5.45
338.365	5.25
338.736	6.15
339.108	6.31
339.479	5.73
339.851	5.67
340.222	5.68
340.593	5.66
340.964	5.62
341.336	5.7
341.707	5.37
342.078	5.5
342.449	5.52
342.82	5.56
343.191	5.7
343.562	5.6
343.933	5.75
344.303	6.14
344.674	5.96
345.045	5.77
345.416	5.24
345.786	5.84
346.157	5.96
346.527	6.04
346.898	5.95
347.268	5.59
347.639	5.9
348.009	6
348.38	5.93
348.75	5.55
349.12	5.77
349.49	6.13
349.861	6.15
350.231	6.28
350.601	6.1
350.971	5.54
351.341	5.98
351.711	6
352.081	5.63
352.45	5.86
352.82	6.26
353.19	6.22
353.56	6.24
353.929	6.27
354.299	6.6
354.669	6.32
355.038	6.46
355.408	5.82
355.777	6.23
356.147	6.12
356.516	5.89
356.885	6.24
357.254	6.46
357.624	6.19
357.993	6.17
358.362	6.28
358.731	6.13
359.1	6.38
359.469	6.39
359.838	6.47
360.207	6.24
360.576	6.42
360.945	6.7
361.314	6.36
361.682	6.39
362.051	6.61
362.42	6.6
362.788	6.26
363.157	6.42
363.525	6.58
363.894	6.42
364.262	6.66
364.631	6.49
364.999	6.66
365.367	6.6
365.735	7.02
366.104	6.6
366.472	6.51
366.84	6.33
367.208	6.62
367.576	6.41
367.944	6.98
368.312	6.83
368.68	6.77
369.048	6.75
369.416	6.53
369.783	6.72
370.151	7.01
370.519	7.01
370.886	6.83
371.254	6.66
371.621	6.93
371.989	6.68
372.356	7.14
372.724	6.88
373.091	7.11
373.458	6.95
373.826	7.15
374.193	7.11
374.56	6.7
374.927	6.92
375.294	6.85
375.661	7.21
376.028	7.17
376.395	7.4
376.762	7.2
377.129	6.98
377.496	7.3
377.863	7.05
378.229	7
378.596	7.21
378.963	7.1
379.329	6.75
379.696	7.04
380.062	7.51
380.429	7.32
380.795	7.35
381.161	7.38
381.528	7.64
381.894	7.19
382.26	7.5
382.626	7.26
382.993	7.23
383.359	7.66
383.725	7.39
384.091	7.4
384.457	7.51
384.823	7.43
385.188	7.4
385.554	7.51
385.92	7.36
386.286	7.34
386.651	7.66
387.017	7.59
387.383	7.84
387.748	7.56
388.114	7.65
388.479	8.21
388.845	7.75
389.21	7.98
389.575	7.93
389.94	7.73
390.306	8.12
390.671	7.74
391.036	7.49
391.401	8.24
391.766	7.71
392.131	7.72
392.496	7.89
392.861	7.94
393.226	7.77
393.591	7.81
393.956	8.09
394.32	7.86
394.685	8.02
395.05	8.05
395.414	7.96
395.779	8.13
396.143	7.81
396.508	8
396.872	8.18
397.236	8.07
397.601	7.99
397.965	8.09
398.329	8.02
398.694	8.27
399.058	8.38
399.422	8.2
399.786	7.96
400.15	8.53
400.514	8.27
400.878	8.27
401.242	8.41
401.605	8.15
401.969	8.25
402.333	8.46
402.697	8.41
403.06	8.42
403.424	8.12
403.787	8.62
404.151	8.49
404.514	8.52
404.878	8.4
405.241	8.59
405.604	8.51
405.968	8.35
406.331	8.4
406.694	8.3
407.057	8.47
407.42	8.56
407.783	8.43
408.146	8.77
408.509	8.65
408.872	8.48
409.235	8.61
409.598	8.57
409.961	8.71
410.323	8.63
410.686	8.61
411.049	8.59
411.411	8.68
411.774	8.71
412.136	8.78
412.499	8.8
412.861	8.83
413.223	8.89
413.586	8.73
413.948	9.02
414.31	8.63
414.672	8.96
415.035	9.02
415.397	8.79
415.759	8.88
416.121	8.6
416.483	9.06
416.845	8.96
417.206	8.84
417.568	8.86
417.93	8.96
418.292	8.91
418.653	9.08
419.015	8.71
419.377	8.96
419.738	8.86
420.1	9.11
420.461	8.93
420.822	8.93
421.184	8.97
421.545	8.92
421.906	9
422.267	8.89
422.629	8.96
422.99	8.87
423.351	8.75
423.712	8.84
424.073	9.06
424.434	8.98
424.795	9.11
425.155	9.08
425.516	9.09
425.877	9.04
426.238	8.97
426.598	9.09
426.959	9.05
427.32	9.15
427.68	9.21
428.041	9.12
428.401	9.33
428.761	9.39
429.122	9.33
429.482	9.37
429.842	9.3
430.202	9.55
430.563	9.54
430.923	9.62
431.283	9.57
431.643	9.62
432.003	9.86
432.363	9.64
432.722	9.6
433.082	9.63
433.442	9.74
433.802	9.56
434.161	9.63
434.521	9.49
434.881	9.61
435.24	9.6
435.6	9.81
435.959	9.61
436.319	9.74
436.678	9.84
437.037	9.81
437.396	9.99
437.756	10.01
438.115	9.78
438.474	9.9
438.833	9.81
439.192	10.02
439.551	9.97
439.91	10.11
440.269	9.87
440.628	9.78
440.987	9.84
441.345	9.96
441.704	9.95
442.063	9.83
442.421	9.91
442.78	9.9
443.138	10.01
443.497	10
443.855	10.02
444.214	10.25
444.572	10.08
444.93	10.07
445.288	10.27
445.647	10.17
446.005	10.12
446.363	10.22
446.721	10.23
447.079	10.06
447.437	10.03
447.795	10.05
448.153	10
448.51	9.98
448.868	10.06
449.226	10.14
449.584	10.18
449.941	10.2
450.299	10.27
450.656	10.32
451.014	10.44
451.371	10.44
451.729	10.56
452.086	10.46
452.443	10.56
452.801	10.66
453.158	10.56
453.515	10.63
453.872	10.47
454.229	10.59
454.586	10.52
454.943	10.64
455.3	10.66
455.657	10.69
456.014	10.76
456.371	10.6
456.727	10.75
457.084	10.87
457.441	10.83
457.797	10.69
458.154	10.7
458.51	10.84
458.867	10.93
459.223	10.99
459.58	11.04
459.936	10.84
460.292	10.78
460.648	10.83
461.005	10.88
461.361	10.78
461.717	10.58
462.073	10.74
462.429	10.76
462.785	10.87
463.141	11.06
463.496	10.99
463.852	11.17
464.208	11.02
464.564	11.08
464.919	11.21
465.275	11.12
465.631	11.32
465.986	11.25
466.342	11.09
466.697	11.24
467.052	11.1
467.408	11.42
467.763	11.37
468.118	11.52
468.473	11.44
468.829	11.2
469.184	11.34
469.539	11.3
469.894	11.44
470.249	11.36
470.603	11.59
470.958	11.37
471.313	11.43
471.668	11.55
472.023	11.36
472.377	11.71
472.732	11.61
473.086	11.78
473.441	11.57
473.795	11.62
474.15	11.63
474.504	11.62
474.859	11.65
475.213	11.58
475.567	11.59
475.921	11.76
476.275	11.67
476.63	11.78
476.984	11.74
477.338	11.78
477.692	11.91
478.045	11.8
478.399	11.87
478.753	11.8
479.107	11.89
479.461	11.86
479.814	11.97
480.168	11.93
480.521	11.75
480.875	11.88
481.228	12
481.582	12.04
481.935	11.97
482.289	12.02
482.642	12.05
482.995	11.93
483.348	11.92
483.701	11.88
484.055	11.75
484.408	11.85
484.761	11.77
485.114	11.53
485.466	11.31
485.819	11.16
486.172	11.22
486.525	11.42
486.878	11.69
487.23	11.89
487.583	11.96
487.936	11.96
488.288	12.05
488.641	11.87
488.993	11.67
489.345	11.57
489.698	11.65
490.05	11.7
490.402	11.78
490.754	11.89
491.107	12.14
491.459	12.21
491.811	12.2
492.163	12.35
492.515	12.39
492.866	12.16
493.218	11.92
493.57	11.75
493.922	11.91
494.274	11.99
494.625	12.33
494.977	12.58
495.328	12.56
495.68	12.63
496.031	12.77
496.383	12.8
496.734	12.68
497.086	12.82
497.437	12.82
497.788	12.74
498.139	12.63
498.49	12.68
498.842	12.62
499.193	12.57
499.544	12.74
499.894	12.7
500.245	12.9
500.596	12.8
500.947	12.83
501.298	12.78
501.648	12.92
501.999	13.12
502.35	13.02
502.7	13.1
503.051	13.16
503.401	13.13
503.752	13.2
504.102	13.08
504.452	13.17
504.803	13.23
505.153	13.04
505.503	13.21
505.853	13.16
506.203	13.13
506.553	13.28
506.903	13.11
507.253	13.2
507.603	13.17
507.953	13.36
508.303	13.49
508.652	13.27
509.002	13.4
509.352	13.35
509.701	13.36
510.051	13.38
510.4	13.21
510.75	13.25
511.099	13.39
511.449	13.35
511.798	13.36
512.147	13.39
512.496	13.42
512.846	13.46
513.195	13.48
513.544	13.47
513.893	13.58
514.242	13.41
514.591	13.56
514.939	13.58
515.288	13.45
515.637	13.62
515.986	13.53
516.334	13.57
516.683	13.87
517.032	13.82
517.38	13.81
517.729	13.74
518.077	13.81
518.426	13.91
518.774	13.78
519.122	13.86
519.47	13.63
519.819	13.7
520.167	13.66
520.515	13.44
520.863	13.45
521.211	13.56
521.559	13.7
521.907	13.72
522.255	13.87
522.602	13.9
522.95	13.96
523.298	14.02
523.645	13.95
523.993	14.08
524.341	14.07
524.688	14.18
525.036	14.04
525.383	14.23
525.73	14.19
526.078	14.12
526.425	14.08
526.772	13.93
527.119	13.92
527.466	13.84
527.814	13.82
528.161	13.76
528.508	13.87
528.854	13.96
529.201	13.89
529.548	13.84
529.895	13.59
530.242	13.4
530.588	13.31
530.935	13.44
531.282	13.65
531.628	13.79
531.975	14.07
532.321	14.2
532.667	14.27
533.014	14.24
533.36	14.34
533.706	14.35
534.052	14.36
534.399	14.23
534.745	14.12
535.091	13.83
535.437	13.81
535.783	13.9
536.129	14.25
536.474	14.44
536.82	14.44
537.166	14.63
537.512	14.53
537.857	14.45
538.203	14.31
538.549	14.18
538.894	14.4
539.239	14.43
539.585	14.51
539.93	14.76
540.276	14.78
540.621	14.87
540.966	14.93
541.311	14.72
541.656	14.87
542.001	14.66
542.346	14.53
542.691	14.44
543.036	14.17
543.381	14.17
543.726	14.25
544.071	14.43
544.415	14.58
544.76	14.72
545.105	14.73
545.449	14.78
545.794	14.77
546.138	14.91
546.483	15.09
546.827	14.96
547.171	15.21
547.516	15.11
547.86	15.08
548.204	15.01
548.548	15.05
548.892	14.97
549.236	14.97
549.58	15.2
549.924	15.41
550.268	15.43
550.612	15.35
550.956	15.48
551.3	15.64
551.643	15.64
551.987	15.55
552.33	15.66
552.674	15.61
553.017	15.7
553.361	15.86
553.704	15.54
554.048	15.64
554.391	15.56
554.734	15.57
555.077	15.58
555.42	15.65
555.764	15.79
556.107	15.85
556.45	15.82
556.793	15.96
557.135	15.9
557.478	15.8
557.821	15.9
558.164	16.17
558.507	15.79
558.849	15.97
559.192	16.11
559.534	15.85
559.877	15.94
560.219	16.31
560.562	16.33
560.904	16.32
561.246	16.08
561.589	16.11
561.931	15.94
562.273	16.06
562.615	16.1
562.957	16.11
563.299	16.08
563.641	16.05
563.983	16.18
564.325	16.15
564.667	16.21
565.008	16.38
565.35	16.23
565.692	16.5
566.033	16.45
566.375	16.42
566.716	16.33
567.058	16.2
567.399	16.2
567.741	16.2
568.082	16.2
568.423	16.27
568.764	16.07
569.105	16.53
569.447	16.37
569.788	16.45
570.129	16.48
570.47	16.77
570.811	16.58
571.151	16.59
571.492	16.71
571.833	16.44
572.174	16.65
572.514	16.61
572.855	16.48
573.195	16.58
573.536	16.64
573.876	16.51
574.217	16.36
574.557	16.59
574.898	16.55
575.238	16.72
575.578	16.81
575.918	16.67
576.258	16.85
576.598	16.78
576.938	16.85
577.278	16.69
577.618	16.77
577.958	16.76
578.298	16.82
578.638	16.94
578.977	17.18
579.317	17.13
579.657	16.94
579.996	17.12
580.336	16.93
580.675	16.98
581.014	17.18
581.354	17.09
581.693	17.33
582.032	17.08
582.372	17.33
582.711	17.37
583.05	17.18
583.389	17.17
583.728	17.1
584.067	17.22
584.406	17.21
584.745	17.8
585.083	17.16
585.422	17.25
585.761	17.4
586.1	17.43
586.438	17.21
586.777	17.37
587.115	17.33
587.454	17.61
587.792	17.81
588.13	17.81
588.469	17.78
588.807	17.62
589.145	17.63
589.483	17.26
589.821	17.55
590.159	17.79
590.497	17.88
590.835	17.62
591.173	17.56
591.511	17.65
591.849	17.9
592.187	17.67
592.524	17.78
592.862	17.87
593.2	17.8
593.537	17.86
593.875	17.99
594.212	17.94
594.55	17.88
594.887	17.83
595.224	17.77
595.561	17.75
595.899	17.87
596.236	18.04
596.573	17.8
596.91	18.02
597.247	17.77
597.584	17.92
597.921	17.86
598.258	17.81
598.594	17.4
598.931	17.68
599.268	17.87
599.604	17.89
599.941	17.96
600.277	18.04
600.614	18.44
600.95	18.32
601.287	18.13
601.623	18.2
601.959	18.43
602.296	18.34
602.632	18.48
602.968	18.38
603.304	18.41
603.64	18.31
603.976	18.16
604.312	18.51
604.648	18.24
604.984	18.11
605.319	17.89
605.655	17.94
605.991	18.28
606.326	18.07
606.662	18.1
606.998	17.93
607.333	18.18
607.668	18.31
608.004	18.26
608.339	18.47
608.674	18.72
609.01	18.57
609.345	18.67
609.68	18.66
610.015	18.36
610.35	18.31
610.685	18.6
611.02	18.35
611.355	18.41
611.689	18.24
612.024	18.46
612.359	18.57
612.694	18.73
613.028	18.68
613.363	19.05
613.697	18.83
614.032	18.91
614.366	18.91
614.7	18.82
615.035	19.14
615.369	18.62
615.703	18.79
616.037	18.85
616.371	19.23
616.705	18.86
617.039	19.11
617.373	19.4
617.707	19.25
618.041	19.23
618.375	19.14
618.709	19.11
619.042	19.13
619.376	19.59
619.71	19.28
620.043	19.64
620.377	19.34
620.71	19.25
621.043	18.99
621.377	19.55
621.71	19.21
622.043	19.09
622.376	19.66
622.709	19.55
623.043	19.44
623.376	19.41
623.709	19.13
624.041	19.33
624.374	19.52
624.707	19.27
625.04	19.82
625.373	19.79
625.705	19.55
626.038	19.67
626.37	19.48
626.703	19.65
627.035	19.43
627.368	19.48
627.7	19.51
628.032	19.26
628.365	19.71
628.697	19.4
629.029	19.39
629.361	19.54
629.693	19.6
630.025	19.69
630.357	19.84
630.689	19.98
631.021	19.74
631.353	19.99
631.684	19.64
632.016	19.5
632.348	19.67
632.679	19.76
633.011	19.66
633.342	19.79
633.674	19.93
634.005	19.82
634.336	20.04
634.668	19.94
634.999	20.19
635.33	19.45
635.661	20.2
635.992	20.08
636.323	20.05
636.654	19.73
636.985	20.19
637.316	19.92
637.647	19.97
637.977	20.13
638.308	19.99
638.639	20.22
638.969	20.07
639.3	20.38
639.63	20.23
639.961	20.31
640.291	20.55
640.622	20.73
640.952	20.4
641.282	20.31
641.612	20.33
641.943	20.38
642.273	19.99
642.603	20.35
642.933	20.35
643.263	20.31
643.592	20.73
643.922	20.69
644.252	20.27
644.582	20.65
644.911	20.89
645.241	19.97
645.571	20.79
645.9	20.61
646.23	20.44
646.559	20.97
646.888	20.39
647.218	20.73
647.547	21.07
647.876	20.79
648.205	20.57
648.534	21.17
648.863	20.87
649.192	21.02
649.521	20.79
649.85	20.68
650.179	20.77
650.508	20.99
650.837	21.33
651.165	21.25
651.494	20.63
651.822	21.27
652.151	20.94
652.479	20.56
652.808	20.71
653.136	20.69
653.465	20.86
653.793	20.87
654.121	20.81
654.449	20.78
654.777	20.59
655.105	21.25
655.433	21.17
655.761	20.91
656.089	20.68
656.417	21.05
656.745	21.11
657.073	20.87
657.4	21.21
657.728	21.44
658.056	20.62
658.383	20.71
658.711	21.17
659.038	21.26
659.365	21.97
659.693	21.46
660.02	21.51
660.347	20.94
660.674	20.87
661.001	20.99
661.329	21.16
661.656	20.97
661.982	21.09
662.309	21.53
662.636	21.39
662.963	20.96
663.29	21.21
663.616	21.69
663.943	21.41
664.27	21.6
664.596	21.58
664.923	21.63
665.249	21.66
665.576	21.51
665.902	21.24
666.228	21.22
666.554	21.98
666.881	21.56
667.207	22.12
667.533	21.52
667.859	21.53
668.185	21.84
668.511	21.92
668.837	21.59
669.162	21.85
669.488	21.57
669.814	21.62
670.139	21.56
670.465	22.04
670.791	22.02
671.116	21.63
671.442	22.45
671.767	22.2
672.092	21.88
672.418	21.85
672.743	22.52
673.068	21.68
673.393	22.21
673.718	22.03
674.043	22.23
674.368	21.55
674.693	21.64
675.018	22.01
675.343	21.96
675.667	21.91
675.992	22.31
676.317	21.94
676.641	22.1
676.966	22.13
