Data from 0042_crown_Reflection__3__98.txt Node

Date: Fri Nov 04 15:35:48 CDT 2022
User: ToomeyLab
Spectrometer: FLMS14357
Trigger mode: 0
Integration Time (sec): 1.000000E-2
Scans to average: 100
Electric dark correction enabled: true
Nonlinearity correction enabled: false
Boxcar width: 0
XAxis mode: Wavelengths
Number of Pixels in Spectrum: 2048
>>>>>Begin Spectral Data<<<<<
189.047	77.26
189.435	77.26
189.823	77.26
190.211	-134.08
190.599	43.53
190.987	-30.71
191.375	-569.52
191.763	179.06
192.151	-5810.11
192.538	-24.77
192.926	131.8
193.314	64.06
193.702	103.67
194.089	60.34
194.477	-64.88
194.864	418.69
195.252	69.63
195.639	163.96
196.027	43.33
196.414	-17.84
196.801	96.47
197.189	436.76
197.576	90.98
197.963	-107.45
198.351	-36.07
198.738	24.26
199.125	-5.12
199.512	25.22
199.899	19.13
200.286	8.43
200.673	11.4
201.06	-7.55
201.447	4.4
201.833	6.16
202.22	2.06
202.607	32.83
202.994	46.06
203.38	30.89
203.767	-20.52
204.154	23.32
204.54	-34.54
204.927	-0.11
205.313	39.44
205.699	19.45
206.086	40.84
206.472	8.9
206.858	-9.5
207.245	-8.39
207.631	10.38
208.017	49.71
208.403	-20.45
208.789	45.56
209.175	-13.07
209.561	-64.58
209.947	-46.7
210.333	-38.66
210.719	-5.97
211.105	-101.11
211.491	29.94
211.876	10.26
212.262	2.71
212.648	4.71
213.034	32.31
213.419	1.9
213.805	-17.05
214.19	-10.87
214.576	13.83
214.961	22.23
215.346	16.47
215.732	14.14
216.117	-18.63
216.502	17.3
216.888	-3.97
217.273	12.04
217.658	24.83
218.043	-17.19
218.428	11.37
218.813	15.08
219.198	-4.14
219.583	-32.4
219.968	-22.96
220.353	7.18
220.738	-19.97
221.122	18.9
221.507	0.85
221.892	-4.44
222.276	0.59
222.661	23.4
223.046	10.86
223.43	10.53
223.815	-8.36
224.199	2.86
224.583	5.15
224.968	3.23
225.352	4.88
225.736	-3.32
226.121	-4.48
226.505	11.59
226.889	0.62
227.273	2.34
227.657	7.22
228.041	6.13
228.425	6.65
228.809	4.44
229.193	5.52
229.577	3.64
229.961	6.18
230.344	5.39
230.728	5.27
231.112	4.17
231.495	5.28
231.879	6.37
232.263	4.5
232.646	4.27
233.03	3.46
233.413	3.15
233.797	4.97
234.18	2.89
234.563	6.12
234.946	2.1
235.33	6.29
235.713	4.91
236.096	4.93
236.479	5.64
236.862	4.6
237.245	3.52
237.628	4.29
238.011	4.45
238.394	4.98
238.777	5.51
239.16	4.57
239.543	4.15
239.925	4.16
240.308	6.55
240.691	6.97
241.073	5.25
241.456	5.61
241.838	5.83
242.221	4.91
242.603	4.38
242.986	4.35
243.368	5.58
243.75	5.25
244.133	5.38
244.515	4.88
244.897	5.02
245.279	5
245.661	5.02
246.043	5.84
246.425	4.58
246.807	5.14
247.189	4.08
247.571	5.85
247.953	5.07
248.335	5.04
248.717	4.58
249.098	4.83
249.48	4.87
249.862	4.97
250.243	4.9
250.625	4.97
251.006	4.83
251.388	4.97
251.769	5.82
252.151	5.37
252.532	4.57
252.913	4.61
253.295	4.87
253.676	5.16
254.057	4.63
254.438	4.62
254.819	4.82
255.2	5.08
255.581	5.13
255.962	5.01
256.343	3.92
256.724	5.01
257.105	4.57
257.486	5.47
257.867	6.05
258.247	5.74
258.628	5.01
259.009	3.52
259.389	4.35
259.77	4.69
260.15	4.84
260.531	4.62
260.911	4.34
261.292	4.34
261.672	4.64
262.052	4.65
262.432	4.53
262.813	4.48
263.193	4.16
263.573	5.02
263.953	4.4
264.333	4.53
264.713	5.08
265.093	4.74
265.473	4.86
265.853	3.82
266.233	4.74
266.612	4.78
266.992	5.03
267.372	3.77
267.752	4.41
268.131	4.76
268.511	4.61
268.89	4.66
269.27	4.5
269.649	4.35
270.029	4.4
270.408	4.8
270.787	4.96
271.167	4.71
271.546	4.75
271.925	4.48
272.304	4.06
272.683	4.07
273.062	4.11
273.441	4.27
273.82	4.37
274.199	4.29
274.578	4.42
274.957	4.46
275.336	4.25
275.715	4.63
276.093	4.62
276.472	3.77
276.851	3.86
277.229	3.5
277.608	4.18
277.986	4.63
278.365	4.68
278.743	4.59
279.122	4.03
279.5	4.36
279.878	4.49
280.257	4.15
280.635	3.74
281.013	4.01
281.391	4.58
281.769	4.6
282.147	4.03
282.525	4.61
282.903	4.46
283.281	4.79
283.659	4.32
284.037	3.92
284.415	3.98
284.792	4.59
285.17	4.08
285.548	4.3
285.925	4.11
286.303	4.76
286.68	4.41
287.058	4.06
287.435	4.24
287.813	4.24
288.19	4.46
288.567	4.03
288.945	4.07
289.322	4.44
289.699	4.28
290.076	4.39
290.453	3.86
290.83	3.85
291.207	4.27
291.584	4.43
291.961	4.24
292.338	4.32
292.715	4.41
293.092	4.36
293.469	4.12
293.845	3.78
294.222	4.35
294.599	3.87
294.975	4.03
295.352	4.24
295.728	4.05
296.105	3.99
296.481	3.68
296.858	4.03
297.234	4.58
297.61	4.09
297.986	3.75
298.363	3.53
298.739	4.17
299.115	4.16
299.491	3.92
299.867	3.92
300.243	4.16
300.619	4.26
300.995	4.2
301.371	4.58
301.746	4.03
302.122	3.93
302.498	4.11
302.874	4.55
303.249	4.2
303.625	4.05
304	4
304.376	3.72
304.751	4.08
305.127	3.56
305.502	4.11
305.878	3.81
306.253	4.28
306.628	3.82
307.003	4.17
307.378	4.12
307.754	4.06
308.129	3.65
308.504	3.92
308.879	4.23
309.254	3.61
309.629	3.85
310.003	4.15
310.378	3.74
310.753	4.22
311.128	3.7
311.502	3.57
311.877	3.96
312.252	3.87
312.626	3.85
313.001	3.8
313.375	3.97
313.75	3.69
314.124	3.78
314.498	3.54
314.873	4.17
315.247	4.28
315.621	4.39
315.995	4.16
316.369	3.53
316.743	4.55
317.117	4.51
317.491	3.77
317.865	3.92
318.239	3.24
318.613	4.44
318.987	4.18
319.361	3.88
319.734	4.32
320.108	3.87
320.482	3.08
320.855	4.12
321.229	4.2
321.602	3.38
321.976	4.05
322.349	4.58
322.723	3.74
323.096	3.94
323.469	4.01
323.843	3.65
324.216	4.03
324.589	3.89
324.962	3.97
325.335	3.99
325.708	3.55
326.081	3.95
326.454	3.9
326.827	4.14
327.2	3.77
327.573	3.67
327.945	4.12
328.318	3.46
328.691	3.67
329.063	3.91
329.436	4.23
329.809	3.8
330.181	3.78
330.553	3.35
330.926	3.8
331.298	4.46
331.671	3.89
332.043	3.68
332.415	3.66
332.787	3.33
333.159	3.22
333.532	3.58
333.904	3.51
334.276	3.32
334.648	4.3
335.02	3.17
335.391	4
335.763	3.73
336.135	4.09
336.507	3.94
336.879	3.72
337.25	4.15
337.622	4.23
337.993	3.86
338.365	4.22
338.736	4.06
339.108	3.94
339.479	3.65
339.851	3.59
340.222	3.68
340.593	3.61
340.964	3.84
341.336	3.42
341.707	3.34
342.078	3.63
342.449	3.92
342.82	3.98
343.191	3.77
343.562	3.74
343.933	4.24
344.303	4.04
344.674	3.9
345.045	3.75
345.416	3.17
345.786	4
346.157	3.78
346.527	3.75
346.898	4.09
347.268	3.69
347.639	3.71
348.009	4.09
348.38	3.47
348.75	3.5
349.12	3.6
349.49	3.89
349.861	3.62
350.231	4.11
350.601	3.72
350.971	3.65
351.341	3.86
351.711	3.52
352.081	3.81
352.45	3.62
352.82	3.88
353.19	3.86
353.56	3.8
353.929	4
354.299	4.26
354.669	3.97
355.038	4.13
355.408	3.61
355.777	3.87
356.147	3.68
356.516	3.69
356.885	3.65
357.254	4.09
357.624	4.09
357.993	3.86
358.362	3.56
358.731	3.75
359.1	3.95
359.469	3.85
359.838	3.95
360.207	3.75
360.576	4.02
360.945	4.02
361.314	4.13
361.682	4.06
362.051	3.91
362.42	3.91
362.788	3.87
363.157	3.84
363.525	4.12
363.894	3.81
364.262	3.88
364.631	4.13
364.999	3.97
365.367	3.91
365.735	4.34
366.104	3.99
366.472	3.92
366.84	3.71
367.208	4.02
367.576	3.8
367.944	4.17
368.312	4.1
368.68	3.75
369.048	3.96
369.416	4.01
369.783	3.72
370.151	3.86
370.519	4.21
370.886	4
371.254	4.05
371.621	3.99
371.989	4.16
372.356	4.09
372.724	4.03
373.091	4.11
373.458	4.04
373.826	4.04
374.193	3.72
374.56	4
374.927	4.5
375.294	3.69
375.661	4.32
376.028	4.03
376.395	4
376.762	4.1
377.129	4.05
377.496	4.12
377.863	4.18
378.229	4.04
378.596	3.98
378.963	4
379.329	3.56
379.696	3.93
380.062	4.13
380.429	4.07
380.795	4.17
381.161	4.26
381.528	4.14
381.894	3.87
382.26	3.75
382.626	4.04
382.993	4.08
383.359	4.4
383.725	4.06
384.091	4.01
384.457	3.96
384.823	3.97
385.188	4.34
385.554	4.23
385.92	3.86
386.286	4.16
386.651	3.91
387.017	4.13
387.383	4.02
387.748	4.02
388.114	3.87
388.479	4.81
388.845	4.05
389.21	4.39
389.575	4.24
389.94	4.22
390.306	4.3
390.671	4.3
391.036	4.09
391.401	4.3
391.766	4.28
392.131	4.21
392.496	4.08
392.861	4.29
393.226	4.11
393.591	4.22
393.956	4.4
394.32	4.17
394.685	4.31
395.05	4.35
395.414	4.23
395.779	4.13
396.143	4.08
396.508	4.2
396.872	4.32
397.236	4.09
397.601	4.25
397.965	4.36
398.329	4.23
398.694	4.37
399.058	4.31
399.422	4.19
399.786	4.19
400.15	3.96
400.514	4.14
400.878	4.37
401.242	4.36
401.605	4.08
401.969	4.35
402.333	4.3
402.697	4.2
403.06	4.26
403.424	4.34
403.787	4.31
404.151	4.28
404.514	4.34
404.878	4.36
405.241	4.46
405.604	4.55
405.968	4.24
406.331	4.26
406.694	4.14
407.057	4.2
407.42	4.32
407.783	4.2
408.146	4.37
408.509	4.3
408.872	4.35
409.235	4.48
409.598	4.52
409.961	4.43
410.323	4.42
410.686	4.31
411.049	4.18
411.411	4.34
411.774	4.43
412.136	4.45
412.499	4.54
412.861	4.48
413.223	4.42
413.586	4.42
413.948	4.6
414.31	4.27
414.672	4.27
415.035	4.64
415.397	4.41
415.759	4.65
416.121	4.13
416.483	4.55
416.845	4.38
417.206	4.33
417.568	4.53
417.93	4.42
418.292	4.45
418.653	4.35
419.015	4.29
419.377	4.29
419.738	4.37
420.1	4.38
420.461	4.37
420.822	4.29
421.184	4.43
421.545	4.27
421.906	4.4
422.267	4.24
422.629	4.42
422.99	4.26
423.351	4.19
423.712	4.28
424.073	4.4
424.434	4.43
424.795	4.38
425.155	4.45
425.516	4.39
425.877	4.32
426.238	4.35
426.598	4.42
426.959	4.36
427.32	4.3
427.68	4.36
428.041	4.31
428.401	4.65
428.761	4.49
429.122	4.35
429.482	4.58
429.842	4.15
430.202	4.64
430.563	4.53
430.923	4.7
431.283	4.48
431.643	4.7
432.003	4.78
432.363	4.57
432.722	4.57
433.082	4.68
433.442	4.61
433.802	4.4
434.161	4.56
434.521	4.46
434.881	4.57
435.24	4.37
435.6	4.53
435.959	4.47
436.319	4.35
436.678	4.48
437.037	4.67
437.396	4.58
437.756	4.46
438.115	4.56
438.474	4.69
438.833	4.59
439.192	4.52
439.551	4.6
439.91	4.71
440.269	4.56
440.628	4.68
440.987	4.47
441.345	4.53
441.704	4.46
442.063	4.49
442.421	4.52
442.78	4.56
443.138	4.48
443.497	4.57
443.855	4.52
444.214	4.54
444.572	4.46
444.93	4.62
445.288	4.65
445.647	4.47
446.005	4.5
446.363	4.68
446.721	4.53
447.079	4.53
447.437	4.47
447.795	4.47
448.153	4.37
448.51	4.49
448.868	4.43
449.226	4.45
449.584	4.53
449.941	4.41
450.299	4.62
450.656	4.58
451.014	4.67
451.371	4.72
451.729	4.74
452.086	4.52
452.443	4.55
452.801	4.71
453.158	4.67
453.515	4.76
453.872	4.58
454.229	4.76
454.586	4.57
454.943	4.74
455.3	4.76
455.657	4.65
456.014	4.69
456.371	4.71
456.727	4.9
457.084	4.66
457.441	4.6
457.797	4.74
458.154	4.78
458.51	4.78
458.867	4.73
459.223	4.72
459.58	4.87
459.936	4.73
460.292	4.66
460.648	4.77
461.005	4.57
461.361	4.67
461.717	4.53
462.073	4.59
462.429	4.71
462.785	4.65
463.141	4.66
463.496	4.5
463.852	4.83
464.208	4.81
464.564	4.56
464.919	4.94
465.275	4.8
465.631	4.89
465.986	4.79
466.342	4.73
466.697	4.71
467.052	4.8
467.408	4.66
467.763	4.77
468.118	4.81
468.473	4.63
468.829	4.58
469.184	4.78
469.539	4.72
469.894	4.81
470.249	4.74
470.603	4.78
470.958	4.67
471.313	4.8
471.668	4.65
472.023	4.57
472.377	4.92
472.732	4.85
473.086	4.72
473.441	4.73
473.795	4.76
474.15	4.51
474.504	4.96
474.859	4.71
475.213	4.81
475.567	4.67
475.921	4.76
476.275	4.75
476.63	4.77
476.984	4.69
477.338	4.89
477.692	4.97
478.045	4.8
478.399	4.86
478.753	4.89
479.107	4.82
479.461	4.81
479.814	4.9
480.168	4.77
480.521	4.73
480.875	4.89
481.228	4.8
481.582	4.89
481.935	4.8
482.289	4.7
482.642	4.91
482.995	4.82
483.348	4.79
483.701	4.75
484.055	4.69
484.408	4.75
484.761	4.7
485.114	4.6
485.466	4.52
485.819	4.44
486.172	4.44
486.525	4.51
486.878	4.61
487.23	4.72
487.583	4.7
487.936	4.68
488.288	4.73
488.641	4.66
488.993	4.6
489.345	4.65
489.698	4.54
490.05	4.62
490.402	4.61
490.754	4.7
491.107	4.7
491.459	4.75
491.811	4.68
492.163	4.89
492.515	4.87
492.866	4.69
493.218	4.7
493.57	4.59
493.922	4.62
494.274	4.68
494.625	4.75
494.977	4.9
495.328	4.82
495.68	4.75
496.031	4.9
496.383	4.95
496.734	4.85
497.086	5.14
497.437	5.03
497.788	4.95
498.139	4.85
498.49	4.77
498.842	4.89
499.193	4.9
499.544	4.88
499.894	4.82
500.245	4.94
500.596	4.9
500.947	4.86
501.298	4.78
501.648	4.96
501.999	5
502.35	4.81
502.7	4.84
503.051	5.05
503.401	4.88
503.752	4.98
504.102	5.09
504.452	4.95
504.803	5.08
505.153	4.81
505.503	4.93
505.853	4.92
506.203	4.92
506.553	4.97
506.903	5
507.253	5.04
507.603	4.82
507.953	4.87
508.303	4.95
508.652	4.8
509.002	5.05
509.352	5.03
509.701	5.03
510.051	4.99
510.4	5
510.75	4.9
511.099	4.84
511.449	4.86
511.798	4.97
512.147	5.01
512.496	4.92
512.846	4.86
513.195	5.04
513.544	4.97
513.893	5.04
514.242	4.96
514.591	4.92
514.939	5.09
515.288	4.96
515.637	4.98
515.986	5.08
516.334	5.01
516.683	5.02
517.032	5.16
517.38	5.09
517.729	5.08
518.077	5.02
518.426	5
518.774	4.99
519.122	4.98
519.47	4.97
519.819	4.97
520.167	4.91
520.515	4.82
520.863	4.84
521.211	4.9
521.559	5.05
521.907	4.93
522.255	5.08
522.602	5.06
522.95	5.07
523.298	5
523.645	5.08
523.993	5.09
524.341	5.06
524.688	5.08
525.036	5.06
525.383	5.15
525.73	5.05
526.078	5.06
526.425	5.06
526.772	4.85
527.119	5.05
527.466	4.9
527.814	4.93
528.161	4.91
528.508	4.96
528.854	4.89
529.201	4.91
529.548	4.99
529.895	4.9
530.242	4.79
530.588	4.73
530.935	4.72
531.282	4.85
531.628	4.82
531.975	4.94
532.321	4.99
532.667	4.97
533.014	4.97
533.36	5.05
533.706	5.06
534.052	5.03
534.399	5.04
534.745	4.98
535.091	4.81
535.437	4.87
535.783	4.86
536.129	5.05
536.474	5.05
536.82	5
537.166	5.12
537.512	5.12
537.857	5.06
538.203	4.94
538.549	5
538.894	5.01
539.239	5.1
539.585	5.04
539.93	5.08
540.276	5.22
540.621	5.03
540.966	5.24
541.311	4.9
541.656	5.18
542.001	5.13
542.346	5.02
542.691	5.03
543.036	4.8
543.381	4.89
543.726	4.89
544.071	4.97
544.415	5.01
544.76	5.06
545.105	5.06
545.449	5.11
545.794	5.1
546.138	5.08
546.483	5.21
546.827	5.11
547.171	5.2
547.516	5.2
547.86	5.06
548.204	5.16
548.548	5.02
548.892	5.05
549.236	5.08
549.58	5.11
549.924	5.15
550.268	5.26
550.612	5.08
550.956	5.32
551.3	5.22
551.643	5.26
551.987	5.13
552.33	5.09
552.674	5.25
553.017	5.31
553.361	5.41
553.704	5.15
554.048	5.21
554.391	5.09
554.734	5.26
555.077	5.28
555.42	5.36
555.764	5.43
556.107	5.32
556.45	5.19
556.793	5.4
557.135	5.32
557.478	5.1
557.821	5.3
558.164	5.41
558.507	5.27
558.849	5.61
559.192	5.35
559.534	5.17
559.877	5.19
560.219	5.3
560.562	5.25
560.904	5.48
561.246	5.22
561.589	5.32
561.931	5.17
562.273	5.28
562.615	5.21
562.957	5.24
563.299	5.26
563.641	5.22
563.983	5.4
564.325	5.34
564.667	5.3
565.008	5.22
565.35	5.42
565.692	5.47
566.033	5.33
566.375	5.24
566.716	5.46
567.058	5.41
567.399	5.23
567.741	5.41
568.082	5.31
568.423	5.33
568.764	5.17
569.105	5.34
569.447	5.27
569.788	5.45
570.129	5.42
570.47	5.37
570.811	5.5
571.151	5.3
571.492	5.43
571.833	5.22
572.174	5.58
572.514	5.34
572.855	5.2
573.195	5.38
573.536	5.23
573.876	5.41
574.217	5.13
574.557	5.29
574.898	5.37
575.238	5.16
575.578	5.63
575.918	5.33
576.258	5.35
576.598	5.44
576.938	5.46
577.278	5.38
577.618	5.22
577.958	5.39
578.298	5.33
578.638	5.4
578.977	5.55
579.317	5.4
579.657	5.42
579.996	5.58
580.336	5.28
580.675	5.3
581.014	5.4
581.354	5.33
581.693	5.49
582.032	5.24
582.372	5.62
582.711	5.51
583.05	5.29
583.389	5.44
583.728	5.46
584.067	5.41
584.406	5.37
584.745	5.62
585.083	5.43
585.422	5.38
585.761	5.46
586.1	5.6
586.438	5.34
586.777	5.52
587.115	5.37
587.454	5.39
587.792	5.55
588.13	5.62
588.469	5.71
588.807	5.65
589.145	5.3
589.483	5.11
589.821	5.3
590.159	5.21
590.497	5.71
590.835	5.57
591.173	5.49
591.511	5.69
591.849	5.53
592.187	5.43
592.524	5.59
592.862	5.53
593.2	5.41
593.537	5.29
593.875	5.63
594.212	5.4
594.55	5.66
594.887	5.5
595.224	5.58
595.561	5.09
595.899	5.45
596.236	5.6
596.573	5.42
596.91	5.47
597.247	5.6
597.584	5.29
597.921	5.71
598.258	5.42
598.594	5.21
598.931	5.47
599.268	5.46
599.604	5.55
599.941	5.5
600.277	5.71
600.614	5.36
600.95	5.77
601.287	5.63
601.623	5.58
601.959	5.58
602.296	5.49
602.632	5.54
602.968	5.6
603.304	5.59
603.64	5.38
603.976	5.3
604.312	5.51
604.648	5.44
604.984	5.4
605.319	5.34
605.655	5.19
605.991	5.47
606.326	5.45
606.662	5.41
606.998	5.39
607.333	5.41
607.668	5.47
608.004	5.56
608.339	5.54
608.674	5.66
609.01	5.69
609.345	5.49
609.68	5.6
610.015	5.35
610.35	5.32
610.685	5.65
611.02	5.49
611.355	5.61
611.689	5.45
612.024	5.55
612.359	5.64
612.694	5.5
613.028	5.76
613.363	5.85
613.697	5.35
614.032	5.45
614.366	5.62
614.7	5.73
615.035	5.68
615.369	5.58
615.703	5.85
616.037	5.61
616.371	5.83
616.705	5.34
617.039	5.61
617.373	5.75
617.707	5.78
618.041	5.84
618.375	5.79
618.709	5.33
619.042	5.88
619.376	5.76
619.71	5.79
620.043	5.86
620.377	5.85
620.71	5.65
621.043	5.64
621.377	5.62
621.71	5.56
622.043	5.88
622.376	5.68
622.709	5.47
623.043	5.9
623.376	5.68
623.709	5.54
624.041	5.75
624.374	5.56
624.707	5.26
625.04	5.95
625.373	5.69
625.705	5.63
626.038	5.33
626.37	5.72
626.703	6.26
627.035	5.68
627.368	5.72
627.7	5.85
628.032	5.47
628.365	6
628.697	5.8
629.029	5.39
629.361	5.74
629.693	5.53
630.025	5.77
630.357	5.56
630.689	5.58
631.021	5.6
631.353	5.74
631.684	5.91
632.016	5.68
632.348	5.72
632.679	5.21
633.011	5.68
633.342	5.77
633.674	5.66
634.005	5.7
634.336	5.9
634.668	5.68
634.999	5.87
635.33	5.1
635.661	5.82
635.992	5.89
636.323	5.71
636.654	5.34
636.985	5.86
637.316	5.25
637.647	5.57
637.977	5.87
638.308	5.51
638.639	5.73
638.969	5.83
639.3	5.84
639.63	5.69
639.961	5.95
640.291	5.82
640.622	6.26
640.952	5.73
641.282	5.47
641.612	5.79
641.943	5.51
642.273	5.4
642.603	5.91
642.933	5.79
643.263	5.46
643.592	5.85
643.922	5.93
644.252	6.11
644.582	5.95
644.911	5.48
645.241	5.47
645.571	5.42
645.9	5.96
646.23	5.75
646.559	6.39
646.888	5.92
647.218	5.94
647.547	5.9
647.876	5.96
648.205	5.61
648.534	5.99
648.863	5.45
649.192	5.78
649.521	5.85
649.85	6.02
650.179	5.53
650.508	5.6
650.837	5.88
651.165	5.89
651.494	5.98
651.822	5.89
652.151	6.02
652.479	5.66
652.808	5.3
653.136	5.52
653.465	5.84
653.793	6.24
654.121	5.65
654.449	5.74
654.777	5.75
655.105	5.96
655.433	5.5
655.761	5.81
656.089	5.76
656.417	5.9
656.745	5.48
657.073	6.23
657.4	6.21
657.728	5.81
658.056	5.24
658.383	6.09
658.711	5.95
659.038	5.8
659.365	6.03
659.693	6.33
660.02	6.33
660.347	5.91
660.674	6.33
661.001	5.83
661.329	5.84
661.656	6.17
661.982	5.64
662.309	5.93
662.636	6.09
662.963	5.84
663.29	5.78
663.616	6.32
663.943	6.43
664.27	6.16
664.596	5.55
664.923	6.32
665.249	6.74
665.576	6.05
665.902	5.51
666.228	5.54
666.554	6.29
666.881	6.6
667.207	6.13
667.533	5.82
667.859	6.32
668.185	6.21
668.511	6.28
668.837	5.89
669.162	6.51
669.488	5.76
669.814	5.75
670.139	5.91
670.465	5.94
670.791	6.08
671.116	5.92
671.442	6.12
671.767	6.13
672.092	6
672.418	6.16
672.743	6.3
673.068	6.15
673.393	6.41
673.718	6.39
674.043	6.03
674.368	5.37
674.693	6.17
675.018	6.08
675.343	6.65
675.667	5.89
675.992	5.74
676.317	5.98
676.641	6.05
676.966	6.19
677.29	6.16
677.615	6.37
677.939	6.66
678.264	6.75
678.588	6.05
678.912	6.89
679.236	6.16
679.56	5.64
679.885	6.67
680.209	6.09
680.532	6.07
680.856	5.86
681.18	6.38
681.504	6.2
681.828	5.71
682.152	6.68
682.475	6.1
682.799	6.45
683.122	6.58
683.446	6.42
683.769	5.97
684.093	6.4
684.416	5.94
684.739	6.25
685.062	6.44
685.386	5.35
685.709	6.24
686.032	6.36
686.355	6.92
686.678	7
687.001	6.46
687.324	6.78
687.646	6.33
687.969	5.72
688.292	6.18
688.614	6.06
688.937	6.53
689.26	5.94
689.582	6.4
689.904	7.16
690.227	6.32
690.549	6.82
690.871	6.36
691.194	6.57
691.516	5.69
691.838	6.22
692.16	6.81
692.482	5.61
692.804	6.12
693.126	6.37
693.448	5.79
