Data from 0042_crown_Reflection__0__95.txt Node

Date: Fri Nov 04 15:35:13 CDT 2022
User: ToomeyLab
Spectrometer: FLMS14357
Trigger mode: 0
Integration Time (sec): 1.000000E-2
Scans to average: 100
Electric dark correction enabled: true
Nonlinearity correction enabled: false
Boxcar width: 0
XAxis mode: Wavelengths
Number of Pixels in Spectrum: 2048
>>>>>Begin Spectral Data<<<<<
189.047	102.49
189.435	102.49
189.823	102.49
190.211	223.56
190.599	4.62
190.987	69.05
191.375	-65.24
191.763	103.05
192.151	-1382.02
192.538	61.64
192.926	176.3
193.314	24.22
193.702	10.57
194.089	-80.01
194.477	-328.4
194.864	-313.97
195.252	149.93
195.639	114.72
196.027	-29.17
196.414	-98.02
196.801	117.75
197.189	-533.6
197.576	48.05
197.963	44.99
198.351	-7.86
198.738	4.11
199.125	-0.91
199.512	-37.03
199.899	-3.3
200.286	-17.52
200.673	-42.64
201.06	-15.92
201.447	-18.35
201.833	17.33
202.22	-18.33
202.607	20.99
202.994	15.73
203.38	25.38
203.767	-20.58
204.154	37.78
204.54	-35.97
204.927	22.3
205.313	48.38
205.699	46.05
206.086	-6.3
206.472	-14.24
206.858	13.87
207.245	-6.57
207.631	19.25
208.017	31.59
208.403	-1.42
208.789	21.43
209.175	3.09
209.561	-71.01
209.947	-79.2
210.333	-5.05
210.719	8.14
211.105	-144.54
211.491	24.46
211.876	18.97
212.262	16.5
212.648	-8.53
213.034	36.95
213.419	13.55
213.805	-43.75
214.19	-63.47
214.576	-7.64
214.961	22.21
215.346	-26.74
215.732	1.14
216.117	-13.46
216.502	16.19
216.888	1.43
217.273	3.64
217.658	-11.43
218.043	-27.21
218.428	20.59
218.813	2.04
219.198	16.61
219.583	-29.73
219.968	13.44
220.353	-18.7
220.738	-3.66
221.122	13.65
221.507	4.16
221.892	-19.54
222.276	-17.21
222.661	-2.76
223.046	6.85
223.43	5.39
223.815	-3.7
224.199	2.82
224.583	5.45
224.968	-9.83
225.352	5.61
225.736	0.06
226.121	-9.57
226.505	15.03
226.889	-2.25
227.273	3.67
227.657	1.22
228.041	4.44
228.425	3.66
228.809	4.73
229.193	5.03
229.577	3.63
229.961	4.72
230.344	4.7
230.728	4.23
231.112	3.63
231.495	4.25
231.879	4.69
232.263	3.99
232.646	3.16
233.03	2.85
233.413	1.8
233.797	3.93
234.18	4.14
234.563	1.39
234.946	1.25
235.33	5.44
235.713	3.75
236.096	4.57
236.479	3.59
236.862	3.04
237.245	2.3
237.628	3.92
238.011	3.19
238.394	4.12
238.777	5.41
239.16	3.53
239.543	3.93
239.925	5.97
240.308	4.75
240.691	5.18
241.073	3.76
241.456	4.19
241.838	2.11
242.221	3.52
242.603	3.55
242.986	3.36
243.368	4.21
243.75	4.69
244.133	4.03
244.515	4.07
244.897	4.39
245.279	3.77
245.661	4.34
246.043	4.36
246.425	3.1
246.807	3.74
247.189	3.79
247.571	4.73
247.953	4.11
248.335	3.98
248.717	4.14
249.098	3.73
249.48	3.92
249.862	4.02
250.243	3.9
250.625	3.66
251.006	3.93
251.388	4.05
251.769	4.5
252.151	4.2
252.532	3.99
252.913	4.08
253.295	3.56
253.676	3.64
254.057	3.5
254.438	3.71
254.819	3.75
255.2	3.68
255.581	3.91
255.962	3.71
256.343	3.2
256.724	3.56
257.105	3.35
257.486	4.13
257.867	4.99
258.247	3.25
258.628	3.58
259.009	3.66
259.389	3.59
259.77	3.32
260.15	3.5
260.531	3.51
260.911	3.53
261.292	3.59
261.672	3.51
262.052	3.64
262.432	3.7
262.813	3.39
263.193	3.16
263.573	3.25
263.953	3.31
264.333	3.92
264.713	3.93
265.093	3.52
265.473	3.14
265.853	3.15
266.233	3.4
266.612	3.81
266.992	4.51
267.372	2.81
267.752	3.69
268.131	3.76
268.511	3.77
268.89	4.24
269.27	3.03
269.649	3.85
270.029	3.21
270.408	3.53
270.787	3.83
271.167	3.51
271.546	4
271.925	3.35
272.304	2.97
272.683	3.32
273.062	3.72
273.441	3.79
273.82	3.37
274.199	3.14
274.578	3.02
274.957	3.36
275.336	2.67
275.715	3.27
276.093	3.2
276.472	3.34
276.851	2.82
277.229	3.13
277.608	3.48
277.986	3.33
278.365	3.64
278.743	3.44
279.122	3.52
279.5	3.29
279.878	3.67
280.257	2.78
280.635	3.37
281.013	3.55
281.391	3.03
281.769	3.24
282.147	2.49
282.525	3.02
282.903	3.17
283.281	3.45
283.659	2.88
284.037	3.21
284.415	3.04
284.792	3.51
285.17	2.92
285.548	3.7
285.925	3.24
286.303	3.85
286.68	3.44
287.058	3.17
287.435	3.07
287.813	3.27
288.19	3.29
288.567	2.92
288.945	3.29
289.322	3.5
289.699	3.48
290.076	3.28
290.453	2.73
290.83	3.14
291.207	3.33
291.584	3.46
291.961	3.36
292.338	3.55
292.715	3.2
293.092	3.35
293.469	3.19
293.845	3.11
294.222	3.02
294.599	2.88
294.975	2.98
295.352	2.91
295.728	3.1
296.105	3.15
296.481	2.89
296.858	2.71
297.234	3.38
297.61	3.3
297.986	3.07
298.363	2.89
298.739	3.22
299.115	3.2
299.491	3.16
299.867	3.01
300.243	2.9
300.619	3.24
300.995	3.33
301.371	3.8
301.746	3.4
302.122	3.34
302.498	3.14
302.874	3.16
303.249	2.91
303.625	3.19
304	3.28
304.376	3.02
304.751	3.18
305.127	2.6
305.502	3.12
305.878	3
306.253	3.35
306.628	2.85
307.003	3.03
307.378	2.93
307.754	3.25
308.129	2.46
308.504	2.79
308.879	3.43
309.254	3.09
309.629	3.2
310.003	2.98
310.378	3.06
310.753	3.41
311.128	3.16
311.502	2.65
311.877	3.26
312.252	2.81
312.626	2.96
313.001	3.13
313.375	3.11
313.75	2.9
314.124	2.86
314.498	2.76
314.873	3.3
315.247	3.45
315.621	3.12
315.995	2.91
316.369	3.08
316.743	3.35
317.117	3.23
317.491	3.2
317.865	3.24
318.239	2.98
318.613	3.1
318.987	3.01
319.361	2.78
319.734	3.13
320.108	3.32
320.482	2.21
320.855	3.02
321.229	3.05
321.602	2.85
321.976	2.69
322.349	3.54
322.723	3.2
323.096	2.87
323.469	2.46
323.843	3.21
324.216	2.8
324.589	2.86
324.962	3.34
325.335	2.84
325.708	2.74
326.081	3.21
326.454	2.96
326.827	3.29
327.2	3.2
327.573	2.95
327.945	3.63
328.318	3.07
328.691	3.41
329.063	2.84
329.436	3.3
329.809	3.11
330.181	2.76
330.553	2.58
330.926	3.64
331.298	3.34
331.671	2.84
332.043	2.95
332.415	2.83
332.787	2.64
333.159	2.56
333.532	2.56
333.904	3.34
334.276	2.86
334.648	3.21
335.02	2.72
335.391	2.95
335.763	3.1
336.135	2.66
336.507	3.01
336.879	2.82
337.25	3.23
337.622	3.34
337.993	3.46
338.365	2.71
338.736	3.35
339.108	3.33
339.479	3.02
339.851	3.06
340.222	2.86
340.593	3.39
340.964	3.38
341.336	3.07
341.707	2.49
342.078	3.03
342.449	3
342.82	3.59
343.191	2.98
343.562	3.33
343.933	3.39
344.303	3.36
344.674	3.4
345.045	3.08
345.416	2.95
345.786	3.56
346.157	2.91
346.527	3.23
346.898	3.67
347.268	3.31
347.639	3.06
348.009	3.39
348.38	3.57
348.75	3.14
349.12	3.19
349.49	3.22
349.861	3
350.231	3.62
350.601	3.11
350.971	2.98
351.341	3.25
351.711	3.31
352.081	3.48
352.45	3.23
352.82	3.19
353.19	3.12
353.56	3.08
353.929	3.24
354.299	3.46
354.669	3.66
355.038	3.24
355.408	2.86
355.777	2.86
356.147	2.99
356.516	3.18
356.885	3
357.254	3.36
357.624	3.13
357.993	3.29
358.362	3.26
358.731	3.09
359.1	3.61
359.469	3.06
359.838	3.49
360.207	3.28
360.576	3.45
360.945	3.65
361.314	3.72
361.682	3.48
362.051	3.43
362.42	3.27
362.788	3.25
363.157	3.35
363.525	3.36
363.894	3.38
364.262	3.38
364.631	3.3
364.999	3.16
365.367	3.28
365.735	3.63
366.104	3.24
366.472	3.37
366.84	3.28
367.208	3.6
367.576	3.21
367.944	3.56
368.312	3.34
368.68	3.31
369.048	3.34
369.416	3.2
369.783	3.18
370.151	3.14
370.519	3.98
370.886	3.32
371.254	3.59
371.621	3.62
371.989	3.44
372.356	3.41
372.724	3.52
373.091	3.53
373.458	3.59
373.826	3.61
374.193	3.18
374.56	3.13
374.927	3.61
375.294	3.41
375.661	3.9
376.028	3.55
376.395	3.53
376.762	3.58
377.129	3.37
377.496	3.53
377.863	3.34
378.229	3.42
378.596	3.42
378.963	3.64
379.329	3.34
379.696	3.39
380.062	3.83
380.429	3.57
380.795	3.64
381.161	3.47
381.528	3.89
381.894	3.28
382.26	3.68
382.626	3.42
382.993	3.66
383.359	3.63
383.725	3.34
384.091	3.49
384.457	3.43
384.823	3.63
385.188	3.88
385.554	3.43
385.92	3.45
386.286	3.45
386.651	3.28
387.017	3.69
387.383	3.28
387.748	3.32
388.114	3.45
388.479	4.01
388.845	3.73
389.21	3.73
389.575	4.03
389.94	3.6
390.306	3.62
390.671	3.55
391.036	3.35
391.401	3.8
391.766	3.65
392.131	3.34
392.496	3.31
392.861	3.47
393.226	3.46
393.591	3.61
393.956	3.82
394.32	3.56
394.685	3.77
395.05	3.84
395.414	3.41
395.779	3.37
396.143	3.33
396.508	3.68
396.872	3.71
397.236	3.58
397.601	3.82
397.965	3.77
398.329	3.6
398.694	3.77
399.058	3.71
399.422	3.52
399.786	3.53
400.15	3.77
400.514	3.61
400.878	3.58
401.242	3.77
401.605	3.64
401.969	3.72
402.333	3.79
402.697	3.56
403.06	3.82
403.424	3.75
403.787	3.83
404.151	3.79
404.514	3.78
404.878	3.6
405.241	3.67
405.604	3.7
405.968	3.57
406.331	3.58
406.694	3.53
407.057	3.72
407.42	3.8
407.783	3.58
408.146	3.7
408.509	3.66
408.872	3.7
409.235	3.75
409.598	3.71
409.961	3.85
410.323	3.73
410.686	3.55
411.049	3.58
411.411	3.44
411.774	3.85
412.136	3.98
412.499	3.8
412.861	3.72
413.223	3.78
413.586	3.51
413.948	3.73
414.31	3.54
414.672	3.69
415.035	3.72
415.397	3.57
415.759	3.84
416.121	3.63
416.483	3.79
416.845	3.92
417.206	3.53
417.568	3.94
417.93	3.68
418.292	3.67
418.653	3.94
419.015	3.59
419.377	3.65
419.738	3.7
420.1	3.91
420.461	3.71
420.822	3.69
421.184	3.79
421.545	3.53
421.906	3.8
422.267	3.58
422.629	3.72
422.99	3.66
423.351	3.54
423.712	3.59
424.073	3.72
424.434	3.54
424.795	3.75
425.155	3.77
425.516	3.78
425.877	3.71
426.238	3.6
426.598	3.73
426.959	3.58
427.32	3.67
427.68	3.67
428.041	3.54
428.401	3.87
428.761	3.83
429.122	3.74
429.482	3.76
429.842	3.64
430.202	3.82
430.563	3.77
430.923	3.66
431.283	3.66
431.643	3.8
432.003	4.01
432.363	3.82
432.722	3.86
433.082	3.91
433.442	3.62
433.802	3.69
434.161	3.66
434.521	3.7
434.881	3.87
435.24	3.6
435.6	3.67
435.959	3.76
436.319	3.76
436.678	3.75
437.037	3.79
437.396	3.82
437.756	3.88
438.115	3.72
438.474	3.8
438.833	3.77
439.192	3.75
439.551	3.74
439.91	3.74
440.269	3.71
440.628	3.82
440.987	3.7
441.345	3.77
441.704	3.75
442.063	3.66
442.421	3.73
442.78	3.82
443.138	3.77
443.497	3.74
443.855	3.73
444.214	3.82
444.572	3.82
444.93	3.81
445.288	3.87
445.647	3.59
446.005	3.75
446.363	3.81
446.721	3.82
447.079	3.66
447.437	3.71
447.795	3.74
448.153	3.7
448.51	3.72
448.868	3.67
449.226	3.59
449.584	3.78
449.941	3.73
450.299	3.85
450.656	3.73
451.014	3.84
451.371	3.84
451.729	3.79
452.086	3.87
452.443	3.82
452.801	3.88
453.158	3.86
453.515	3.87
453.872	3.83
454.229	3.97
454.586	3.86
454.943	3.87
455.3	3.85
455.657	3.74
456.014	3.87
456.371	3.81
456.727	3.91
457.084	3.95
457.441	3.87
457.797	3.78
458.154	3.91
458.51	3.92
458.867	3.68
459.223	3.92
459.58	4.04
459.936	3.87
460.292	3.78
460.648	3.83
461.005	3.7
461.361	3.8
461.717	3.72
462.073	3.82
462.429	3.82
462.785	3.79
463.141	3.77
463.496	3.79
463.852	3.86
464.208	3.77
464.564	3.8
464.919	4.03
465.275	3.89
465.631	3.9
465.986	3.88
466.342	3.89
466.697	3.68
467.052	3.83
467.408	3.81
467.763	3.84
468.118	4.09
468.473	3.82
468.829	3.61
469.184	3.83
469.539	3.66
469.894	3.98
470.249	3.87
470.603	4.02
470.958	3.87
471.313	3.84
471.668	3.7
472.023	3.67
472.377	4.01
472.732	3.9
473.086	3.9
473.441	3.87
473.795	3.91
474.15	3.87
474.504	3.81
474.859	3.84
475.213	3.8
475.567	3.79
475.921	3.85
476.275	3.91
476.63	3.85
476.984	3.8
477.338	3.94
477.692	4.08
478.045	3.9
478.399	3.84
478.753	3.85
479.107	3.72
479.461	3.98
479.814	3.94
480.168	3.95
480.521	3.83
480.875	3.83
481.228	3.96
481.582	3.91
481.935	3.75
482.289	3.89
482.642	3.95
482.995	3.88
483.348	3.89
483.701	3.83
484.055	3.71
484.408	3.84
484.761	3.72
485.114	3.67
485.466	3.61
485.819	3.49
486.172	3.56
486.525	3.58
486.878	3.75
487.23	3.74
487.583	3.73
487.936	3.77
488.288	3.74
488.641	3.72
488.993	3.62
489.345	3.64
489.698	3.64
490.05	3.64
490.402	3.68
490.754	3.73
491.107	3.7
491.459	3.88
491.811	3.78
492.163	3.84
492.515	3.84
492.866	3.74
493.218	3.65
493.57	3.59
493.922	3.69
494.274	3.64
494.625	3.77
494.977	3.86
495.328	3.85
495.68	3.78
496.031	3.77
496.383	3.87
496.734	3.78
497.086	4.01
497.437	3.96
497.788	3.87
498.139	3.76
498.49	3.69
498.842	3.8
499.193	3.84
499.544	3.85
499.894	3.75
500.245	3.86
500.596	3.83
500.947	3.85
501.298	3.91
501.648	3.91
501.999	4.06
502.35	3.86
502.7	3.84
503.051	3.94
503.401	4.1
503.752	3.9
504.102	3.88
504.452	3.82
504.803	3.91
505.153	3.94
505.503	3.92
505.853	3.87
506.203	3.92
506.553	3.94
506.903	3.93
507.253	3.92
507.603	3.83
507.953	3.96
508.303	3.94
508.652	3.89
509.002	4.1
509.352	4.06
509.701	3.85
510.051	3.88
510.4	3.79
510.75	3.77
511.099	3.84
511.449	3.75
511.798	3.75
512.147	3.83
512.496	3.83
512.846	3.7
513.195	3.92
513.544	3.76
513.893	3.9
514.242	3.87
514.591	3.83
514.939	4.06
515.288	3.94
515.637	3.92
515.986	3.89
516.334	3.82
516.683	3.9
517.032	3.88
517.38	3.96
517.729	3.81
518.077	4
518.426	4.02
518.774	3.9
519.122	3.8
519.47	3.79
519.819	3.77
520.167	3.82
520.515	3.82
520.863	3.72
521.211	3.82
521.559	3.81
521.907	3.88
522.255	3.89
522.602	3.88
522.95	3.9
523.298	3.87
523.645	3.98
523.993	3.89
524.341	3.96
524.688	4.02
525.036	3.9
525.383	3.99
525.73	3.93
526.078	3.93
526.425	3.79
526.772	3.85
527.119	3.78
527.466	3.78
527.814	3.74
528.161	3.74
528.508	3.8
528.854	3.8
529.201	3.75
529.548	3.69
529.895	3.7
530.242	3.65
530.588	3.58
530.935	3.61
531.282	3.67
531.628	3.62
531.975	3.77
532.321	3.87
532.667	3.79
533.014	3.85
533.36	3.85
533.706	3.85
534.052	3.82
534.399	3.74
534.745	3.72
535.091	3.67
535.437	3.68
535.783	3.71
536.129	3.86
536.474	3.82
536.82	3.83
537.166	3.88
537.512	3.88
537.857	3.8
538.203	3.75
538.549	3.7
538.894	3.81
539.239	3.88
539.585	3.79
539.93	3.86
540.276	3.86
540.621	3.8
540.966	3.88
541.311	3.8
541.656	3.78
542.001	3.88
542.346	3.89
542.691	3.74
543.036	3.65
543.381	3.65
543.726	3.69
544.071	3.71
544.415	3.78
544.76	3.84
545.105	3.76
545.449	3.8
545.794	3.78
546.138	3.83
546.483	3.81
546.827	3.85
547.171	3.85
547.516	3.81
547.86	3.86
548.204	3.88
548.548	3.74
548.892	3.78
549.236	3.8
549.58	3.76
549.924	3.96
550.268	3.85
550.612	3.77
550.956	3.83
551.3	3.88
551.643	3.79
551.987	3.95
552.33	3.84
552.674	3.74
553.017	3.94
553.361	4.08
553.704	3.88
554.048	3.84
554.391	3.79
554.734	3.82
555.077	3.97
555.42	3.99
555.764	3.96
556.107	4
556.45	3.91
556.793	3.97
557.135	3.91
557.478	3.81
557.821	4
558.164	3.9
558.507	3.78
558.849	3.98
559.192	4.01
559.534	3.82
559.877	3.86
560.219	4
560.562	3.99
560.904	4.05
561.246	3.8
561.589	3.88
561.931	4.09
562.273	3.89
562.615	3.85
562.957	3.98
563.299	3.8
563.641	3.89
563.983	3.89
564.325	3.92
564.667	3.85
565.008	3.96
565.35	3.87
565.692	4.05
566.033	4.14
566.375	3.88
566.716	3.85
567.058	3.8
567.399	3.83
567.741	3.97
568.082	3.97
568.423	3.82
568.764	3.72
569.105	3.86
569.447	3.95
569.788	3.96
570.129	3.8
570.47	3.93
570.811	4.03
571.151	3.87
571.492	4.05
571.833	3.9
572.174	4.15
572.514	3.87
572.855	3.71
573.195	3.87
573.536	3.85
573.876	3.75
574.217	3.73
574.557	3.63
574.898	3.86
575.238	3.61
575.578	4.06
575.918	4.03
576.258	3.89
576.598	3.82
576.938	4.01
577.278	3.74
577.618	3.8
577.958	3.94
578.298	3.87
578.638	3.74
578.977	4.01
579.317	3.84
579.657	3.86
579.996	3.94
580.336	3.86
580.675	3.88
581.014	4.06
581.354	3.78
581.693	4.06
582.032	3.79
582.372	4.02
582.711	3.84
583.05	4.05
583.389	3.61
583.728	3.83
584.067	4.06
584.406	3.93
584.745	4.05
585.083	3.81
585.422	3.93
585.761	3.97
586.1	3.71
586.438	3.65
586.777	3.87
587.115	4.02
587.454	4.13
587.792	4.16
588.13	3.97
588.469	4
588.807	4.02
589.145	4
589.483	3.68
589.821	3.98
590.159	3.85
590.497	3.98
590.835	3.66
591.173	3.58
591.511	3.95
591.849	3.95
592.187	3.97
592.524	4.02
592.862	4.1
593.2	3.86
593.537	3.84
593.875	3.9
594.212	3.73
594.55	3.65
594.887	3.9
595.224	3.9
595.561	3.63
595.899	3.81
596.236	3.93
596.573	3.99
596.91	3.86
597.247	3.95
597.584	3.85
597.921	3.82
598.258	3.75
598.594	3.59
598.931	3.8
599.268	3.81
599.604	3.81
599.941	3.85
600.277	3.7
600.614	3.96
600.95	4.01
601.287	3.78
601.623	3.91
601.959	4.14
602.296	3.71
602.632	4.02
602.968	3.81
603.304	3.85
603.64	4
603.976	3.73
604.312	3.85
604.648	4.01
604.984	3.81
605.319	3.83
605.655	3.71
605.991	3.96
606.326	3.83
606.662	3.79
606.998	3.74
607.333	3.76
607.668	3.87
608.004	3.9
608.339	3.73
608.674	4.14
609.01	4
609.345	3.66
609.68	3.84
610.015	3.68
610.35	3.78
610.685	3.97
611.02	4.01
611.355	3.97
611.689	3.77
612.024	3.75
612.359	3.9
612.694	3.83
613.028	3.99
613.363	4.07
613.697	3.86
614.032	3.91
614.366	3.67
614.7	3.82
615.035	3.94
615.369	3.84
615.703	4.14
616.037	3.79
616.371	3.89
616.705	3.8
617.039	3.59
617.373	4.21
617.707	4.21
618.041	4.09
618.375	3.85
618.709	4.16
619.042	3.87
619.376	3.96
619.71	3.9
620.043	4.19
620.377	4.06
620.71	4.24
621.043	3.66
621.377	4.05
621.71	3.75
622.043	3.99
622.376	4.29
622.709	3.84
623.043	4.08
623.376	4.24
623.709	3.73
624.041	3.87
624.374	4
624.707	3.45
625.04	3.82
625.373	4.37
625.705	3.85
626.038	3.75
626.37	4.05
626.703	3.76
627.035	3.44
627.368	3.61
627.7	3.77
628.032	3.88
628.365	4.25
628.697	3.77
629.029	3.67
629.361	3.94
629.693	3.85
630.025	3.83
630.357	3.74
630.689	3.95
631.021	3.59
631.353	3.89
631.684	3.88
632.016	3.92
632.348	4.14
632.679	3.71
633.011	3.79
633.342	3.94
633.674	3.88
634.005	4.08
634.336	3.86
634.668	3.9
634.999	4.08
635.33	3.71
635.661	4.13
635.992	3.88
636.323	4.21
636.654	3.65
636.985	4.12
637.316	3.91
637.647	3.85
637.977	4.48
638.308	4.05
638.639	3.94
638.969	3.88
639.3	4.08
639.63	3.85
639.961	3.89
640.291	3.92
640.622	3.95
640.952	3.97
641.282	3.59
641.612	3.89
641.943	3.83
642.273	3.22
642.603	4
642.933	3.74
643.263	3.38
643.592	3.69
643.922	4.08
644.252	4.25
644.582	4.01
644.911	4.06
645.241	3.74
645.571	3.76
645.9	3.76
646.23	3.61
646.559	4.46
646.888	3.82
647.218	4.21
647.547	4.1
647.876	4.52
648.205	3.6
648.534	4.32
648.863	4.22
649.192	4
649.521	4.08
649.85	4.13
650.179	3.74
650.508	3.81
650.837	4.14
651.165	4.12
651.494	3.85
651.822	3.99
652.151	4.26
652.479	3.73
652.808	3.38
653.136	4.24
653.465	3.82
653.793	4.32
654.121	4.06
654.449	3.73
654.777	3.6
655.105	4.25
655.433	4.19
655.761	3.79
656.089	3.82
656.417	3.89
656.745	3.88
657.073	4.1
657.4	3.8
657.728	4.17
658.056	3.63
658.383	3.93
658.711	3.45
659.038	3.76
659.365	4.7
659.693	4.35
660.02	4.17
660.347	3.75
660.674	3.96
661.001	3.93
661.329	3.91
661.656	3.97
661.982	3.77
662.309	4.12
662.636	3.97
662.963	3.4
663.29	3.73
663.616	4.09
663.943	3.67
664.27	4.33
664.596	3.99
664.923	3.97
665.249	4.2
665.576	4.33
665.902	3.25
666.228	3.57
666.554	4.28
666.881	3.57
667.207	4.01
667.533	3.89
667.859	4.19
668.185	4.17
668.511	4.14
668.837	3.6
669.162	4.33
669.488	3.48
669.814	4.32
670.139	3.73
670.465	4.04
670.791	3.8
671.116	3.65
671.442	3.92
671.767	3.28
672.092	3.78
672.418	3.96
672.743	4.21
673.068	3.85
673.393	3.9
673.718	3.75
674.043	4.17
674.368	3.11
674.693	3.99
675.018	3.73
675.343	4.3
675.667	4.24
675.992	4.13
676.317	3.59
676.641	3.78
676.966	3.55
677.29	3.65
677.615	4.56
677.939	4.61
678.264	4.15
678.588	4.24
678.912	4.88
679.236	4.18
679.56	4.09
679.885	4.01
680.209	3.66
680.532	3.66
680.856	3.92
681.18	3.97
681.504	4.28
681.828	3.99
682.152	4.47
682.475	4.37
682.799	4.08
683.122	4.24
683.446	3.66
683.769	3.95
684.093	4.44
684.416	3.39
684.739	4.15
685.062	4.66
685.386	4.11
685.709	4.04
686.032	4.64
686.355	5.13
686.678	4.32
687.001	4.29
687.324	3.98
687.646	4.37
687.969	4.17
688.292	3.76
688.614	4.02
688.937	4.01
689.26	4.12
689.582	4.6
689.904	3.83
690.227	3.63
690.549	4.54
690.871	3.87
691.194	4.3
691.516	4.51
691.838	4.13
692.16	4.8
692.482	3.84
692.804	3.3
