Data from 0042_forehead_Reflection__4__104.txt Node

Date: Fri Nov 04 15:38:55 CDT 2022
User: ToomeyLab
Spectrometer: FLMS14357
Trigger mode: 0
Integration Time (sec): 1.000000E-2
Scans to average: 100
Electric dark correction enabled: true
Nonlinearity correction enabled: false
Boxcar width: 0
XAxis mode: Wavelengths
Number of Pixels in Spectrum: 2048
>>>>>Begin Spectral Data<<<<<
189.047	12.36
189.435	12.36
189.823	12.36
190.211	-146.95
190.599	-51.45
190.987	63.69
191.375	-502.57
191.763	267.24
192.151	-41.57
192.538	67.1
192.926	40.84
193.314	53.42
193.702	85.34
194.089	-109.95
194.477	-48
194.864	607.8
195.252	68.6
195.639	47.97
196.027	28.41
196.414	-148.5
196.801	97.38
197.189	281.03
197.576	63
197.963	25.34
198.351	18.4
198.738	-0.84
199.125	7.19
199.512	35.78
199.899	-39.29
200.286	24.03
200.673	-71.02
201.06	-25.88
201.447	-15.2
201.833	-4.76
202.22	31.47
202.607	85.46
202.994	19.62
203.38	44.17
203.767	61.9
204.154	21.42
204.54	33.59
204.927	45.36
205.313	45.24
205.699	14.97
206.086	12.06
206.472	36.96
206.858	21.04
207.245	13.52
207.631	55.3
208.017	49.44
208.403	15.52
208.789	23.39
209.175	3.98
209.561	-40.83
209.947	-38.17
210.333	16.68
210.719	12.22
211.105	-95.75
211.491	7.03
211.876	33
212.262	15.21
212.648	4.23
213.034	39.58
213.419	28.83
213.805	-37.15
214.19	-42.17
214.576	20.9
214.961	34.4
215.346	25.22
215.732	30.59
216.117	2.53
216.502	38.75
216.888	-6.58
217.273	8.9
217.658	-9.41
218.043	0.68
218.428	24.41
218.813	16.36
219.198	38.22
219.583	3.06
219.968	19.07
220.353	-8.04
220.738	-18.42
221.122	-5.98
221.507	-5.64
221.892	-13.53
222.276	-5.98
222.661	15.05
223.046	-16.31
223.43	3.05
223.815	-8.04
224.199	8.09
224.583	6.83
224.968	-3.77
225.352	1.24
225.736	-8.26
226.121	-10.36
226.505	4.59
226.889	1.19
227.273	5.84
227.657	0.46
228.041	8.02
228.425	5.2
228.809	3.9
229.193	5.77
229.577	4.27
229.961	3.72
230.344	4.24
230.728	3.77
231.112	2.81
231.495	2.88
231.879	3.86
232.263	3.39
232.646	4.11
233.03	2.26
233.413	0.97
233.797	3.18
234.18	3.17
234.563	1.13
234.946	3
235.33	5.31
235.713	2.58
236.096	2.94
236.479	3.32
236.862	3.02
237.245	1.72
237.628	4.02
238.011	2.66
238.394	3.9
238.777	2.28
239.16	3.97
239.543	3.39
239.925	5.21
240.308	3.66
240.691	3.65
241.073	2.03
241.456	3.44
241.838	2.13
242.221	4.22
242.603	3.9
242.986	2.5
243.368	3.65
243.75	3.4
244.133	3.3
244.515	3.27
244.897	3.02
245.279	3.3
245.661	3.42
246.043	3.8
246.425	3.43
246.807	4.26
247.189	3.35
247.571	3.61
247.953	3.58
248.335	3.25
248.717	3.27
249.098	3.38
249.48	3.18
249.862	3.38
250.243	3.4
250.625	3.26
251.006	3.05
251.388	4.07
251.769	3.99
252.151	3.45
252.532	3.26
252.913	3.65
253.295	3.19
253.676	2.83
254.057	3.37
254.438	3.2
254.819	3.63
255.2	2.7
255.581	3.7
255.962	4.24
256.343	2.66
256.724	3.21
257.105	3.24
257.486	4.01
257.867	5.21
258.247	4.39
258.628	3.11
259.009	2.93
259.389	3.68
259.77	3.89
260.15	3.83
260.531	3.48
260.911	3.14
261.292	3.22
261.672	3.07
262.052	3.34
262.432	3.23
262.813	3.04
263.193	2.82
263.573	3.25
263.953	3.48
264.333	3.52
264.713	3.53
265.093	3.49
265.473	4.33
265.853	2.35
266.233	3.96
266.612	3.64
266.992	3.35
267.372	2.5
267.752	3.74
268.131	3.36
268.511	3.46
268.89	3.7
269.27	3.55
269.649	3.54
270.029	3.03
270.408	3.36
270.787	3.56
271.167	3.58
271.546	4.26
271.925	3.11
272.304	3.39
272.683	3.07
273.062	3.1
273.441	3.54
273.82	2.92
274.199	3.45
274.578	2.94
274.957	3.11
275.336	2.91
275.715	3.05
276.093	3.89
276.472	2.8
276.851	2.82
277.229	3.17
277.608	3.32
277.986	3.49
278.365	3.83
278.743	3.63
279.122	2.54
279.5	3.54
279.878	2.89
280.257	3.05
280.635	2.68
281.013	2.98
281.391	3.32
281.769	3.37
282.147	2.69
282.525	3.13
282.903	3.13
283.281	3.76
283.659	3.05
284.037	3.15
284.415	3.01
284.792	3.37
285.17	2.9
285.548	3.3
285.925	3.29
286.303	3.32
286.68	3.29
287.058	3.36
287.435	3.32
287.813	3.3
288.19	3.06
288.567	3.34
288.945	3.19
289.322	3.17
289.699	3.54
290.076	3.38
290.453	3.43
290.83	3.25
291.207	3.29
291.584	3.59
291.961	3.63
292.338	3.57
292.715	3.36
293.092	3.54
293.469	3.57
293.845	3.26
294.222	3.27
294.599	3.39
294.975	3.97
295.352	3.59
295.728	3.71
296.105	3.7
296.481	3.47
296.858	3.55
297.234	3.91
297.61	4.07
297.986	3.63
298.363	3.67
298.739	3.77
299.115	3.98
299.491	3.58
299.867	3.98
300.243	3.73
300.619	4.57
300.995	4.28
301.371	4.7
301.746	4.19
302.122	3.91
302.498	4.15
302.874	4.45
303.249	3.94
303.625	4.43
304	4.16
304.376	3.94
304.751	4.41
305.127	4.04
305.502	4.6
305.878	4.19
306.253	4.38
306.628	4.2
307.003	3.96
307.378	4.01
307.754	4.5
308.129	4.04
308.504	4.67
308.879	4.65
309.254	4.4
309.629	4.59
310.003	4.65
310.378	4.5
310.753	4.96
311.128	4.79
311.502	4.48
311.877	4.98
312.252	4.84
312.626	4.82
313.001	4.83
313.375	4.94
313.75	4.49
314.124	4.7
314.498	4.91
314.873	5.02
315.247	5.18
315.621	5.15
315.995	5.55
316.369	4.93
316.743	5.58
317.117	5.52
317.491	5.62
317.865	5.42
318.239	5.39
318.613	5.81
318.987	5.52
319.361	5.68
319.734	5.53
320.108	5.55
320.482	4.93
320.855	5.89
321.229	5.46
321.602	5.48
321.976	5.37
322.349	5.79
322.723	5.59
323.096	5.77
323.469	5.48
323.843	5.41
324.216	5.85
324.589	5.78
324.962	6.12
325.335	5.79
325.708	5.53
326.081	5.8
326.454	6
326.827	6.06
327.2	5.88
327.573	5.76
327.945	6.33
328.318	5.81
328.691	6.02
329.063	6.31
329.436	6.22
329.809	6.24
330.181	5.63
330.553	6.24
330.926	6.74
331.298	6.37
331.671	6.18
332.043	6.47
332.415	5.76
332.787	6.23
333.159	6.14
333.532	6.04
333.904	6.57
334.276	6.19
334.648	6.99
335.02	6.12
335.391	6.71
335.763	6.44
336.135	6.38
336.507	7.05
336.879	6.79
337.25	6.63
337.622	6.74
337.993	7.05
338.365	6.55
338.736	6.91
339.108	7.11
339.479	7.27
339.851	6.56
340.222	6.71
340.593	7.15
340.964	7.01
341.336	7.07
341.707	6.52
342.078	7.15
342.449	7.15
342.82	6.98
343.191	6.96
343.562	7.15
343.933	7.36
344.303	7.11
344.674	7.53
345.045	7.38
345.416	6.66
345.786	7.52
346.157	7.29
346.527	7.4
346.898	7.69
347.268	7.18
347.639	7.34
348.009	7.62
348.38	7.52
348.75	7.57
349.12	7.36
349.49	7.77
349.861	6.97
350.231	8.01
350.601	7.56
350.971	7.63
351.341	8.03
351.711	7.65
352.081	7.84
352.45	7.83
352.82	7.53
353.19	7.64
353.56	8.08
353.929	7.63
354.299	8.38
354.669	8.1
355.038	8.37
355.408	7.8
355.777	7.79
356.147	8.02
356.516	7.89
356.885	7.67
357.254	8.11
357.624	8.31
357.993	7.65
358.362	7.96
358.731	8.29
359.1	8.43
359.469	8.18
359.838	8.33
360.207	8.24
360.576	8.32
360.945	8.73
361.314	8.4
361.682	8.24
362.051	8.32
362.42	8.67
362.788	8.36
363.157	8.29
363.525	8.47
363.894	8.67
364.262	8.79
364.631	8.82
364.999	8.66
365.367	8.7
365.735	8.79
366.104	8.68
366.472	9.07
366.84	8.64
367.208	8.85
367.576	8.58
367.944	9.14
368.312	8.86
368.68	8.91
369.048	8.97
369.416	9.28
369.783	8.75
370.151	9.06
370.519	9.49
370.886	9.1
371.254	9.49
371.621	9.23
371.989	9.38
372.356	9.23
372.724	9.39
373.091	9.11
373.458	9.47
373.826	9.33
374.193	9.14
374.56	9.24
374.927	9.8
375.294	9.39
375.661	9.67
376.028	9.31
376.395	9.9
376.762	10.1
377.129	9.93
377.496	9.76
377.863	9.92
378.229	9.66
378.596	10.14
378.963	9.96
379.329	9.72
379.696	9.92
380.062	10.08
380.429	9.74
380.795	10.01
381.161	10.19
381.528	10.08
381.894	10.17
382.26	10.15
382.626	10.27
382.993	10.21
383.359	10.15
383.725	10.08
384.091	10.34
384.457	10.36
384.823	10.36
385.188	10.45
385.554	10.31
385.92	10.1
386.286	10.3
386.651	10.72
387.017	10.43
387.383	10.71
387.748	10.54
388.114	10.57
388.479	11.03
388.845	10.81
389.21	10.99
389.575	11.04
389.94	10.76
390.306	10.9
390.671	11.06
391.036	10.68
391.401	11.31
391.766	10.65
392.131	11.02
392.496	11.14
392.861	11.03
393.226	10.85
393.591	11.16
393.956	11.3
394.32	11.15
394.685	11.28
395.05	11.27
395.414	11.31
395.779	11.05
396.143	11.24
396.508	11.34
396.872	11.47
397.236	11.56
397.601	11.44
397.965	11.53
398.329	11.33
398.694	11.87
399.058	11.85
399.422	11.53
399.786	11.44
400.15	11.71
400.514	11.32
400.878	11.61
401.242	11.94
401.605	11.51
401.969	11.93
402.333	11.86
402.697	11.89
403.06	11.95
403.424	12.01
403.787	12.27
404.151	12.16
404.514	11.97
404.878	12.13
405.241	12.14
405.604	12.16
405.968	12.05
406.331	11.99
406.694	12.06
407.057	12.17
407.42	12.12
407.783	12.15
408.146	12.11
408.509	12.42
408.872	12.33
409.235	12.51
409.598	12.74
409.961	12.38
410.323	12.65
410.686	12.55
411.049	12.57
411.411	12.46
411.774	12.6
412.136	12.64
412.499	12.71
412.861	12.71
413.223	12.82
413.586	12.5
413.948	12.95
414.31	12.78
414.672	13.18
415.035	13.03
415.397	12.94
415.759	13.3
416.121	13.21
416.483	12.94
416.845	13.06
417.206	13.12
417.568	13.13
417.93	13.21
418.292	13.09
418.653	13.11
419.015	13.06
419.377	13.01
419.738	13.13
420.1	13.22
420.461	13.07
420.822	13.09
421.184	13.18
421.545	13.08
421.906	13.31
422.267	13.01
422.629	13.17
422.99	13.21
423.351	13.09
423.712	13.11
424.073	13.21
424.434	13.28
424.795	13.4
425.155	13.44
425.516	13.54
425.877	13.3
426.238	13.29
426.598	13.4
426.959	13.32
427.32	13.4
427.68	13.54
428.041	13.73
428.401	13.87
428.761	13.74
429.122	13.88
429.482	14.04
429.842	13.67
430.202	14.15
430.563	14.06
430.923	14.14
431.283	13.95
431.643	14.18
432.003	14.28
432.363	14.23
432.722	14.36
433.082	14.47
433.442	14.26
433.802	14.25
434.161	14.31
434.521	14.36
434.881	14.33
435.24	14.33
435.6	14.4
435.959	14.3
436.319	14.6
436.678	14.61
437.037	14.67
437.396	14.94
437.756	14.63
438.115	14.61
438.474	14.88
438.833	14.93
439.192	14.69
439.551	14.9
439.91	14.82
440.269	14.85
440.628	14.89
440.987	14.9
441.345	14.79
441.704	14.85
442.063	14.93
442.421	14.97
442.78	14.98
443.138	15.03
443.497	14.85
443.855	15.08
444.214	15.21
444.572	15.11
444.93	15.41
445.288	15.25
445.647	15.3
446.005	15.33
446.363	15.26
446.721	15.24
447.079	15.18
447.437	15.33
447.795	15.14
448.153	15.15
448.51	15.21
448.868	15.2
449.226	15.18
449.584	15.44
449.941	15.35
450.299	15.55
450.656	15.65
451.014	15.64
451.371	15.82
451.729	15.93
452.086	15.81
452.443	15.94
452.801	15.94
453.158	16.2
453.515	16.02
453.872	15.86
454.229	16.19
454.586	16.05
454.943	16.09
455.3	16.14
455.657	16.03
456.014	16.1
456.371	16
456.727	16.26
457.084	16.6
457.441	16.32
457.797	16.44
458.154	16.52
458.51	16.45
458.867	16.29
459.223	16.65
459.58	16.83
459.936	16.47
460.292	16.55
460.648	16.57
461.005	16.29
461.361	16.38
461.717	16.36
462.073	16.45
462.429	16.47
462.785	16.49
463.141	16.63
463.496	16.57
463.852	16.88
464.208	16.79
464.564	16.98
464.919	17.1
465.275	16.97
465.631	17.18
465.986	17.08
466.342	17.16
466.697	17.2
467.052	17.23
467.408	17.1
467.763	17.21
468.118	17.37
468.473	17.43
468.829	17.08
469.184	17.34
469.539	17.26
469.894	17.43
470.249	17.31
470.603	17.29
470.958	17.22
471.313	17.28
471.668	17.36
472.023	17.46
472.377	17.61
472.732	17.6
473.086	17.82
473.441	17.68
473.795	17.78
474.15	17.77
474.504	17.92
474.859	17.87
475.213	17.81
475.567	17.79
475.921	17.94
476.275	17.92
476.63	17.91
476.984	17.88
477.338	18.15
477.692	18.28
478.045	18.21
478.399	18.06
478.753	18.15
479.107	18.06
479.461	18.16
479.814	18.19
480.168	18.04
480.521	18.12
480.875	18.23
481.228	18.29
481.582	18.3
481.935	18.23
482.289	18.46
482.642	18.42
482.995	18.27
483.348	18.36
483.701	18.13
484.055	18.2
484.408	18.16
484.761	18.01
485.114	17.78
485.466	17.51
485.819	17.54
486.172	17.56
486.525	17.67
486.878	17.79
487.23	17.88
487.583	18.09
487.936	18.22
488.288	18.36
488.641	18.18
488.993	18.09
489.345	18
489.698	17.94
490.05	18
490.402	18.11
490.754	18.24
491.107	18.44
491.459	18.55
491.811	18.64
492.163	18.83
492.515	18.81
492.866	18.74
493.218	18.46
493.57	18.42
493.922	18.48
494.274	18.46
494.625	18.67
494.977	18.86
495.328	18.93
495.68	19.22
496.031	19.27
496.383	19.43
496.734	19.43
497.086	19.64
497.437	19.64
497.788	19.64
498.139	19.4
498.49	19.54
498.842	19.56
499.193	19.36
499.544	19.55
499.894	19.38
500.245	19.6
500.596	19.74
500.947	19.69
501.298	19.66
501.648	19.85
501.999	19.94
502.35	19.78
502.7	20.05
503.051	20.23
503.401	20.2
503.752	20.09
504.102	20.03
504.452	20.21
504.803	20.24
505.153	20.01
505.503	20.33
505.853	20.21
506.203	20.28
506.553	20.25
506.903	20.32
507.253	20.26
507.603	20.22
507.953	20.35
508.303	20.55
508.652	20.43
509.002	20.56
509.352	20.58
509.701	20.62
510.051	20.44
510.4	20.46
510.75	20.53
511.099	20.31
511.449	20.46
511.798	20.53
512.147	20.56
512.496	20.55
512.846	20.53
513.195	20.65
513.544	20.49
513.893	20.68
514.242	20.66
514.591	20.68
514.939	20.78
515.288	20.76
515.637	21.02
515.986	20.94
516.334	21.13
516.683	20.99
517.032	21.09
517.38	21.25
517.729	21.07
518.077	21.23
518.426	21.23
518.774	21.23
519.122	21.11
519.47	21.16
519.819	21.05
520.167	20.89
520.515	20.92
520.863	20.8
521.211	20.88
521.559	20.9
521.907	20.92
522.255	21.15
522.602	21.34
522.95	21.32
523.298	21.55
523.645	21.47
523.993	21.62
524.341	21.67
524.688	21.69
525.036	21.61
525.383	21.82
525.73	21.67
526.078	21.56
526.425	21.66
526.772	21.51
527.119	21.44
527.466	21.32
527.814	21.23
528.161	21.34
528.508	21.38
528.854	21.36
529.201	21.39
529.548	21.36
529.895	21.29
530.242	20.98
530.588	20.99
530.935	21
531.282	21.16
531.628	21.04
531.975	21.26
532.321	21.45
532.667	21.54
533.014	21.83
533.36	21.81
533.706	21.79
534.052	21.81
534.399	21.89
534.745	21.75
535.091	21.46
535.437	21.47
535.783	21.57
536.129	21.71
536.474	21.85
536.82	21.95
537.166	22.06
537.512	22.25
537.857	22.15
538.203	22.16
538.549	22.06
538.894	22.1
539.239	22.18
539.585	22.22
539.93	22.32
540.276	22.49
540.621	22.6
540.966	22.72
541.311	22.75
541.656	22.75
542.001	22.57
542.346	22.54
542.691	22.3
543.036	22.04
543.381	21.89
543.726	22.04
544.071	22.03
544.415	22.21
544.76	22.26
545.105	22.42
545.449	22.59
545.794	22.62
546.138	22.61
546.483	22.76
546.827	23.04
547.171	22.93
547.516	23.01
547.86	22.94
548.204	22.98
548.548	22.81
548.892	22.89
549.236	22.82
549.58	22.94
549.924	23.2
550.268	23.34
550.612	23.3
550.956	23.42
551.3	23.43
551.643	23.72
551.987	23.55
552.33	23.67
552.674	23.74
553.017	23.82
553.361	23.92
553.704	23.7
554.048	23.78
554.391	23.62
554.734	23.77
555.077	23.79
555.42	23.77
555.764	24
556.107	23.99
556.45	24.14
556.793	23.93
557.135	24.19
557.478	24.04
557.821	24.19
558.164	24.28
558.507	24.19
558.849	24.37
559.192	24.38
559.534	24.31
559.877	24.34
560.219	24.34
560.562	24.46
560.904	24.65
561.246	24.44
561.589	24.5
561.931	24.5
562.273	24.48
562.615	24.42
562.957	24.5
563.299	24.43
563.641	24.43
563.983	24.55
564.325	24.61
564.667	24.5
565.008	24.43
565.35	24.76
565.692	24.82
566.033	24.54
566.375	24.54
566.716	24.73
567.058	24.75
567.399	24.73
567.741	24.72
568.082	24.54
568.423	24.53
568.764	24.61
569.105	24.77
569.447	24.71
569.788	24.67
570.129	24.81
570.47	24.96
570.811	24.63
571.151	25.08
571.492	24.98
571.833	25.1
572.174	25.09
572.514	25.09
572.855	25.04
573.195	25.07
573.536	25.09
573.876	25.08
574.217	24.94
574.557	24.93
574.898	25.16
575.238	25.12
575.578	25.16
575.918	25.04
576.258	25.09
576.598	25.3
576.938	25.44
577.278	25.29
577.618	25
577.958	25.1
578.298	25.41
578.638	25.57
578.977	25.66
579.317	25.92
579.657	25.64
579.996	25.76
580.336	25.37
580.675	25.57
581.014	26.16
581.354	25.77
581.693	25.86
582.032	26.06
582.372	26.09
582.711	25.95
583.05	26.13
583.389	25.86
583.728	26.13
584.067	26.12
584.406	25.83
584.745	25.81
585.083	25.84
585.422	26.06
585.761	26.09
586.1	26.06
586.438	26.09
586.777	26.29
587.115	26.25
587.454	26.33
587.792	26.22
588.13	26.53
588.469	26.19
588.807	26.38
589.145	26.54
589.483	26.23
589.821	26.46
590.159	26.43
590.497	26.69
590.835	26.55
591.173	26.49
591.511	26.7
591.849	26.6
592.187	26.28
592.524	26.7
592.862	26.48
593.2	26.7
593.537	26.6
593.875	26.51
594.212	26.8
594.55	26.93
594.887	26.63
595.224	26.82
595.561	26.34
595.899	26.98
596.236	27.05
596.573	26.76
596.91	26.85
597.247	26.75
597.584	26.83
597.921	26.92
598.258	26.72
598.594	26.48
598.931	26.52
599.268	26.67
599.604	27.05
599.941	26.92
600.277	26.56
600.614	27.1
600.95	27.13
601.287	26.77
601.623	27.36
601.959	27.09
602.296	27.38
602.632	27.45
602.968	27.44
603.304	27.45
603.64	27.33
603.976	27.11
604.312	27.56
604.648	27.32
604.984	27.04
605.319	27.06
605.655	27.21
605.991	27.33
606.326	27.23
606.662	26.95
606.998	26.95
607.333	27.06
607.668	27.23
608.004	27.27
608.339	27.31
608.674	27.52
609.01	27.82
609.345	27.61
609.68	27.82
610.015	27.48
610.35	27.67
610.685	27.72
611.02	27.65
611.355	27.41
611.689	27.52
612.024	27.36
612.359	27.56
612.694	27.58
613.028	27.72
613.363	28.01
613.697	27.71
614.032	27.82
614.366	28.02
614.7	27.82
615.035	28.09
615.369	27.74
615.703	28.66
616.037	27.8
616.371	28.29
616.705	28.49
617.039	28.42
617.373	27.97
617.707	28.25
618.041	28.16
618.375	28.05
618.709	28.33
619.042	28.13
619.376	28.46
619.71	28.45
620.043	28.66
620.377	28.27
620.71	28.37
621.043	28.4
621.377	28.62
621.71	28.42
622.043	28.79
622.376	28.64
622.709	28.83
623.043	28.61
623.376	29.14
623.709	28.35
624.041	28.61
624.374	28.75
624.707	28.39
625.04	28.83
625.373	29.11
625.705	28.59
626.038	28.79
626.37	29.26
626.703	28.92
627.035	28.83
627.368	28.73
627.7	28.47
628.032	28.89
628.365	29.25
628.697	28.85
629.029	28.57
629.361	28.61
629.693	28.94
630.025	28.75
630.357	28.89
630.689	29.11
631.021	28.73
631.353	29.19
631.684	28.75
632.016	29.03
632.348	29.13
632.679	28.87
633.011	29.34
633.342	28.95
633.674	28.78
634.005	29.1
634.336	29.49
634.668	29.38
634.999	29.05
635.33	29.39
635.661	29.67
635.992	29.45
636.323	29.22
636.654	29.34
636.985	29.24
637.316	29.08
637.647	29.48
637.977	29.39
638.308	29.45
638.639	29.68
638.969	29.59
639.3	29.68
639.63	29.49
639.961	29.78
640.291	29.58
640.622	29.71
640.952	29.66
641.282	29.97
641.612	30.04
641.943	29.63
642.273	29.71
642.603	29.67
642.933	29.5
643.263	29.49
643.592	29.95
643.922	30.34
644.252	29.95
644.582	29.95
644.911	29.85
645.241	29.81
645.571	30.29
645.9	30.06
646.23	30.3
646.559	30.16
646.888	30.04
647.218	30.45
647.547	30.3
647.876	30.1
648.205	30
648.534	30.57
648.863	30.25
649.192	30.07
649.521	30.42
649.85	30.32
650.179	30.16
650.508	30.04
650.837	30.33
651.165	30.54
651.494	29.75
651.822	30.79
652.151	30.9
652.479	30.27
652.808	30.06
653.136	30.26
653.465	30.28
653.793	30.33
654.121	30.4
654.449	29.88
654.777	30.12
655.105	30.5
655.433	30.56
655.761	30.76
656.089	30.54
656.417	30.42
656.745	30.59
657.073	30.57
657.4	30.45
657.728	30.29
658.056	30.38
658.383	30.82
658.711	30.37
659.038	30.63
659.365	31.36
659.693	31.22
660.02	31.03
660.347	30.95
660.674	30.81
661.001	31.1
661.329	30.63
661.656	30.88
661.982	30.49
662.309	30.93
662.636	30.81
662.963	30.82
663.29	30.5
663.616	31.22
663.943	31.06
664.27	30.95
664.596	31.19
664.923	30.77
665.249	31.39
665.576	31.64
665.902	30.65
666.228	30.71
666.554	31.32
666.881	31.54
667.207	31.82
667.533	31.23
667.859	31.4
668.185	31.56
668.511	31.46
668.837	31.24
669.162	31.19
669.488	30.47
669.814	31.56
670.139	31.41
670.465	31.39
670.791	31.18
671.116	31.54
671.442	31.44
671.767	31.55
672.092	31.27
672.418	31.28
672.743	31.89
