Data from 0042_crown_Reflection__2__97.txt Node

Date: Fri Nov 04 15:35:37 CDT 2022
User: ToomeyLab
Spectrometer: FLMS14357
Trigger mode: 0
Integration Time (sec): 1.000000E-2
Scans to average: 100
Electric dark correction enabled: true
Nonlinearity correction enabled: false
Boxcar width: 0
XAxis mode: Wavelengths
Number of Pixels in Spectrum: 2048
>>>>>Begin Spectral Data<<<<<
189.047	-120.16
189.435	-120.16
189.823	-120.16
190.211	-318.09
190.599	174
190.987	385.42
191.375	-385.78
191.763	125.32
192.151	-5205.62
192.538	56.8
192.926	34.32
193.314	32.14
193.702	112.72
194.089	59.14
194.477	134.63
194.864	123.59
195.252	187.27
195.639	34.92
196.027	71.77
196.414	191.38
196.801	148.46
197.189	-211.73
197.576	49.8
197.963	90.86
198.351	-1.61
198.738	-16.05
199.125	2.41
199.512	-67.11
199.899	-5.1
200.286	10.44
200.673	113.59
201.06	-14.3
201.447	-32.38
201.833	24.09
202.22	10.35
202.607	37.5
202.994	33.97
203.38	38.62
203.767	12.79
204.154	17.94
204.54	-31.72
204.927	25.4
205.313	1.31
205.699	39.57
206.086	-16.71
206.472	-14.28
206.858	1.33
207.245	-19.6
207.631	-0.67
208.017	47.34
208.403	29.12
208.789	29.1
209.175	1.65
209.561	-41.94
209.947	-53.25
210.333	4.59
210.719	14.31
211.105	-18.36
211.491	1.09
211.876	8.17
212.262	-8.13
212.648	-9.68
213.034	12.73
213.419	12.03
213.805	4.99
214.19	-17.62
214.576	9.36
214.961	19.74
215.346	22.68
215.732	21.02
216.117	-4.49
216.502	20.4
216.888	-30.87
217.273	5.55
217.658	-6.61
218.043	0.48
218.428	2.82
218.813	17.37
219.198	8.12
219.583	-8.69
219.968	8.72
220.353	2.32
220.738	-18.11
221.122	-3.26
221.507	19.28
221.892	-3.78
222.276	19.55
222.661	12.47
223.046	-8.25
223.43	1.16
223.815	-3.82
224.199	7.69
224.583	10.52
224.968	7.37
225.352	10.19
225.736	-0.05
226.121	-4.35
226.505	9.27
226.889	4.58
227.273	8.02
227.657	0.59
228.041	9.48
228.425	5.55
228.809	6.49
229.193	7.34
229.577	4.75
229.961	5.94
230.344	6.32
230.728	6.23
231.112	6.37
231.495	6.03
231.879	7.19
232.263	5.6
232.646	6.98
233.03	4.87
233.413	5.06
233.797	6.22
234.18	4.96
234.563	6.66
234.946	5.62
235.33	7.22
235.713	6.91
236.096	6.92
236.479	5.54
236.862	5.96
237.245	4.37
237.628	5.93
238.011	3.44
238.394	6.26
238.777	6.05
239.16	6.31
239.543	5.8
239.925	6.3
240.308	6.91
240.691	5.76
241.073	6.17
241.456	5.75
241.838	5.51
242.221	5.38
242.603	6.09
242.986	5.5
243.368	5.92
243.75	6.1
244.133	5.88
244.515	5.72
244.897	6.01
245.279	5.79
245.661	6.06
246.043	6.61
246.425	5.93
246.807	7.71
247.189	5.93
247.571	5.87
247.953	5.86
248.335	5.86
248.717	5.75
249.098	5.68
249.48	5.64
249.862	5.83
250.243	5.49
250.625	5.35
251.006	5.76
251.388	5.27
251.769	6.21
252.151	6.02
252.532	4.94
252.913	5.14
253.295	5.57
253.676	5.8
254.057	5.76
254.438	5.37
254.819	5.52
255.2	5.13
255.581	5.65
255.962	6.1
256.343	4.81
256.724	5.55
257.105	5.01
257.486	6.05
257.867	7.71
258.247	5.98
258.628	5.22
259.009	4.77
259.389	5.22
259.77	5.13
260.15	5.67
260.531	5.43
260.911	5.51
261.292	5.31
261.672	5.25
262.052	5.31
262.432	5.22
262.813	5.24
263.193	4.87
263.573	4.99
263.953	4.73
264.333	5.13
264.713	5.31
265.093	4.63
265.473	5.68
265.853	4.14
266.233	5.97
266.612	5.57
266.992	4.97
267.372	3.86
267.752	5.1
268.131	5.05
268.511	5.22
268.89	5.38
269.27	5.38
269.649	5.4
270.029	5.1
270.408	5.51
270.787	5.53
271.167	5.01
271.546	5.91
271.925	4.98
272.304	4.97
272.683	5.61
273.062	5.38
273.441	5.11
273.82	4.62
274.199	5
274.578	4.62
274.957	4.93
275.336	4.42
275.715	4.64
276.093	5.42
276.472	5.55
276.851	4.72
277.229	4.91
277.608	4.77
277.986	4.61
278.365	5.32
278.743	4.91
279.122	4.86
279.5	4.91
279.878	4.88
280.257	4.91
280.635	4.27
281.013	4.68
281.391	4.86
281.769	4.56
282.147	4.77
282.525	4.9
282.903	4.85
283.281	5.43
283.659	4.93
284.037	4.47
284.415	4.84
284.792	4.64
285.17	4.62
285.548	4.55
285.925	4.86
286.303	4.64
286.68	4.86
287.058	4.78
287.435	4.57
287.813	4.32
288.19	4.69
288.567	4.54
288.945	4.26
289.322	4.44
289.699	4.8
290.076	4.9
290.453	4.38
290.83	4.68
291.207	4.43
291.584	4.62
291.961	4.88
292.338	4.46
292.715	4.74
293.092	4.82
293.469	4.55
293.845	4.4
294.222	4.56
294.599	4.18
294.975	4.37
295.352	4.17
295.728	4.84
296.105	4.29
296.481	4.27
296.858	4.37
297.234	4.74
297.61	4.47
297.986	4.28
298.363	3.86
298.739	4.26
299.115	4.63
299.491	4.25
299.867	4.03
300.243	4.37
300.619	4.81
300.995	4.4
301.371	4.89
301.746	4.41
302.122	4.56
302.498	4.47
302.874	4.67
303.249	3.88
303.625	4.27
304	4.41
304.376	3.95
304.751	4.05
305.127	4.13
305.502	4
305.878	4.46
306.253	4.16
306.628	4.01
307.003	4.61
307.378	4.33
307.754	4.1
308.129	3.83
308.504	4.38
308.879	4.13
309.254	4.18
309.629	4.6
310.003	4.15
310.378	4.53
310.753	4.38
311.128	4.01
311.502	3.94
311.877	4.42
312.252	4.09
312.626	4.06
313.001	4.04
313.375	4.24
313.75	3.94
314.124	3.78
314.498	4.26
314.873	4.41
315.247	4.39
315.621	4.44
315.995	4.65
316.369	3.96
316.743	4.61
317.117	4.51
317.491	4.59
317.865	3.81
318.239	4.09
318.613	4.96
318.987	4.46
319.361	4.17
319.734	4.62
320.108	4.53
320.482	3.68
320.855	4.04
321.229	4.32
321.602	3.98
321.976	3.79
322.349	5.09
322.723	4.52
323.096	4.25
323.469	3.76
323.843	4.19
324.216	4.38
324.589	4.27
324.962	4.19
325.335	4.05
325.708	3.9
326.081	3.75
326.454	3.84
326.827	4.12
327.2	4.18
327.573	3.73
327.945	4.59
328.318	3.42
328.691	3.74
329.063	4.19
329.436	3.9
329.809	4.49
330.181	4.03
330.553	4.04
330.926	3.95
331.298	4.42
331.671	3.95
332.043	4.6
332.415	3.57
332.787	3.71
333.159	3.61
333.532	3.68
333.904	4.37
334.276	4.2
334.648	4.49
335.02	3.74
335.391	4.14
335.763	4.3
336.135	3.91
336.507	4.42
336.879	4.1
337.25	4.27
337.622	4.15
337.993	4.33
338.365	4.01
338.736	4.3
339.108	4.4
339.479	4.27
339.851	3.66
340.222	3.66
340.593	4.18
340.964	4.2
341.336	4.05
341.707	3.56
342.078	4.26
342.449	4.41
342.82	4.17
343.191	3.79
343.562	4.19
343.933	4.12
344.303	4.09
344.674	4.41
345.045	3.95
345.416	3.89
345.786	4.45
346.157	4.4
346.527	4.39
346.898	4.35
347.268	4.14
347.639	4.3
348.009	4.09
348.38	4.1
348.75	4.23
349.12	3.82
349.49	4.49
349.861	4.09
350.231	4.44
350.601	4.06
350.971	4.27
351.341	3.98
351.711	4.51
352.081	4.29
352.45	4.3
352.82	3.73
353.19	4
353.56	4.3
353.929	4.34
354.299	4.35
354.669	4.32
355.038	4.51
355.408	3.87
355.777	4.3
356.147	4.28
356.516	4.18
356.885	4.12
357.254	4.16
357.624	4.41
357.993	4.13
358.362	4.04
358.731	4.29
359.1	4.15
359.469	4.46
359.838	4.36
360.207	4.15
360.576	4.42
360.945	4.66
361.314	4.33
361.682	4.17
362.051	4.53
362.42	4.49
362.788	4.37
363.157	4.23
363.525	4.2
363.894	4.21
364.262	4.33
364.631	4.59
364.999	4.3
365.367	4.21
365.735	4.64
366.104	4.12
366.472	4.52
366.84	3.97
367.208	4.4
367.576	4.3
367.944	4.3
368.312	4.15
368.68	4.42
369.048	4.47
369.416	4.51
369.783	4.2
370.151	4.29
370.519	5.09
370.886	4.35
371.254	4.45
371.621	4.1
371.989	4.41
372.356	4.3
372.724	4.57
373.091	4.43
373.458	4.47
373.826	4.62
374.193	4.13
374.56	4.45
374.927	4.73
375.294	4.28
375.661	4.67
376.028	4.29
376.395	4.88
376.762	5.09
377.129	4.65
377.496	4.43
377.863	4.83
378.229	4.36
378.596	4.51
378.963	4.38
379.329	4.35
379.696	4.45
380.062	4.74
380.429	4.36
380.795	4.46
381.161	4.49
381.528	4.7
381.894	4.18
382.26	4.73
382.626	4.43
382.993	4.44
383.359	4.52
383.725	4.23
384.091	4.34
384.457	4.66
384.823	4.64
385.188	4.82
385.554	4.36
385.92	4.45
386.286	4.6
386.651	4.59
387.017	4.59
387.383	4.83
387.748	4.53
388.114	4.46
388.479	4.94
388.845	4.76
389.21	4.87
389.575	4.84
389.94	4.98
390.306	4.81
390.671	4.68
391.036	4.56
391.401	4.77
391.766	4.33
392.131	4.58
392.496	4.69
392.861	4.59
393.226	4.71
393.591	4.64
393.956	4.93
394.32	4.74
394.685	4.84
395.05	4.75
395.414	4.78
395.779	4.77
396.143	4.62
396.508	4.79
396.872	4.72
397.236	4.74
397.601	4.75
397.965	4.58
398.329	4.74
398.694	4.66
399.058	4.69
399.422	4.81
399.786	4.74
400.15	4.7
400.514	4.48
400.878	4.9
401.242	5.13
401.605	4.66
401.969	4.93
402.333	4.58
402.697	4.74
403.06	5.14
403.424	4.78
403.787	4.82
404.151	4.78
404.514	4.81
404.878	4.89
405.241	4.72
405.604	4.77
405.968	4.66
406.331	4.71
406.694	4.62
407.057	4.58
407.42	4.84
407.783	4.85
408.146	5.01
408.509	4.89
408.872	4.83
409.235	4.66
409.598	4.88
409.961	5.04
410.323	4.86
410.686	4.63
411.049	4.63
411.411	4.71
411.774	4.97
412.136	4.94
412.499	4.86
412.861	4.91
413.223	4.82
413.586	4.75
413.948	5.06
414.31	4.87
414.672	4.99
415.035	5.02
415.397	4.9
415.759	5.1
416.121	4.78
416.483	4.96
416.845	4.9
417.206	4.78
417.568	4.96
417.93	5.08
418.292	4.98
418.653	4.9
419.015	4.8
419.377	4.81
419.738	4.85
420.1	5.04
420.461	4.86
420.822	4.7
421.184	4.93
421.545	4.91
421.906	4.77
422.267	4.72
422.629	4.91
422.99	4.8
423.351	4.72
423.712	4.79
424.073	4.85
424.434	4.77
424.795	4.86
425.155	4.9
425.516	4.83
425.877	4.75
426.238	4.84
426.598	4.85
426.959	4.76
427.32	4.8
427.68	4.79
428.041	4.87
428.401	4.89
428.761	4.97
429.122	5.02
429.482	5.01
429.842	4.8
430.202	4.86
430.563	5.01
430.923	5.03
431.283	4.97
431.643	5.05
432.003	4.97
432.363	5.09
432.722	5
433.082	5.01
433.442	4.82
433.802	4.85
434.161	4.82
434.521	4.93
434.881	5.09
435.24	4.95
435.6	5.02
435.959	4.92
436.319	4.96
436.678	4.91
437.037	5.12
437.396	5.19
437.756	5.16
438.115	4.85
438.474	4.96
438.833	5.1
439.192	5
439.551	5.04
439.91	5.16
440.269	5.16
440.628	5.17
440.987	5.05
441.345	5.03
441.704	5.06
442.063	4.92
442.421	4.92
442.78	5.01
443.138	5.03
443.497	4.91
443.855	5.02
444.214	5.2
444.572	5.04
444.93	4.97
445.288	5
445.647	4.91
446.005	4.91
446.363	4.96
446.721	4.93
447.079	5.08
447.437	4.94
447.795	5.07
448.153	4.91
448.51	5.01
448.868	4.99
449.226	4.91
449.584	4.97
449.941	4.87
450.299	4.99
450.656	4.99
451.014	5.1
451.371	5.12
451.729	5.11
452.086	5.01
452.443	5.15
452.801	5.12
453.158	5.06
453.515	5.15
453.872	4.88
454.229	5.15
454.586	4.99
454.943	5.11
455.3	5.05
455.657	4.91
456.014	5.02
456.371	5.1
456.727	5.19
457.084	5.18
457.441	5.1
457.797	5.16
458.154	5.22
458.51	5.13
458.867	5.06
459.223	5.16
459.58	5.29
459.936	5.13
460.292	5.1
460.648	5.12
461.005	5.03
461.361	5.03
461.717	4.94
462.073	5.13
462.429	5.16
462.785	5.13
463.141	5.09
463.496	4.96
463.852	5.15
464.208	5.16
464.564	4.99
464.919	5.22
465.275	5.14
465.631	5.16
465.986	5.09
466.342	5.16
466.697	5.18
467.052	5.09
467.408	5.11
467.763	5.2
468.118	5.16
468.473	5.21
468.829	5.03
469.184	5.03
469.539	5.09
469.894	5.13
470.249	5.08
470.603	5.09
470.958	4.99
471.313	5.17
471.668	5.01
472.023	5.05
472.377	5.21
472.732	5.18
473.086	5.15
473.441	5.22
473.795	5.24
474.15	5.09
474.504	5.11
474.859	5.14
475.213	5.29
475.567	5.21
475.921	5.09
476.275	5.21
476.63	5.22
476.984	5.09
477.338	5.17
477.692	5.25
478.045	5.19
478.399	5.18
478.753	5.23
479.107	5.14
479.461	5.18
479.814	5.32
480.168	5.22
480.521	5.07
480.875	5.15
481.228	5.13
481.582	5.19
481.935	5.1
482.289	5.23
482.642	5.17
482.995	5.1
483.348	5.1
483.701	5.15
484.055	5.13
484.408	5.13
484.761	5.05
485.114	4.93
485.466	4.87
485.819	4.84
486.172	4.86
486.525	4.87
486.878	4.93
487.23	4.89
487.583	4.92
487.936	5.01
488.288	5
488.641	4.96
488.993	4.97
489.345	4.9
489.698	4.92
490.05	4.91
490.402	4.93
490.754	4.97
491.107	5.03
491.459	5.07
491.811	5.02
492.163	5.17
492.515	5.07
492.866	5.08
493.218	5
493.57	4.98
493.922	5.07
494.274	4.96
494.625	5.02
494.977	5.06
495.328	5.14
495.68	5.03
496.031	5.2
496.383	5.21
496.734	5.22
497.086	5.29
497.437	5.31
497.788	5.32
498.139	5.16
498.49	5.2
498.842	5.19
499.193	5.18
499.544	5.17
499.894	5.01
500.245	5.22
500.596	5.21
500.947	5.21
501.298	5.16
501.648	5.18
501.999	5.41
502.35	5.29
502.7	5.11
503.051	5.35
503.401	5.28
503.752	5.37
504.102	5.31
504.452	5.21
504.803	5.25
505.153	5.21
505.503	5.2
505.853	5.22
506.203	5.24
506.553	5.35
506.903	5.27
507.253	5.27
507.603	5.14
507.953	5.24
508.303	5.33
508.652	5.24
509.002	5.36
509.352	5.37
509.701	5.24
510.051	5.11
510.4	5.24
510.75	5.34
511.099	5.22
511.449	5.22
511.798	5.23
512.147	5.33
512.496	5.19
512.846	5.14
513.195	5.27
513.544	5.25
513.893	5.22
514.242	5.25
514.591	5.15
514.939	5.35
515.288	5.34
515.637	5.29
515.986	5.22
516.334	5.29
516.683	5.32
517.032	5.27
517.38	5.17
517.729	5.31
518.077	5.33
518.426	5.27
518.774	5.36
519.122	5.31
519.47	5.18
519.819	5.19
520.167	5.25
520.515	5.15
520.863	5.14
521.211	5.18
521.559	5.19
521.907	5.21
522.255	5.15
522.602	5.33
522.95	5.26
523.298	5.3
523.645	5.18
523.993	5.36
524.341	5.27
524.688	5.39
525.036	5.35
525.383	5.39
525.73	5.3
526.078	5.34
526.425	5.44
526.772	5.07
527.119	5.32
527.466	5.3
527.814	5.21
528.161	5.18
528.508	5.15
528.854	5.18
529.201	5.15
529.548	5.15
529.895	5.09
530.242	5.03
530.588	5.09
530.935	5.09
531.282	5.11
531.628	5
531.975	5.09
532.321	5.2
532.667	5.24
533.014	5.27
533.36	5.21
533.706	5.33
534.052	5.26
534.399	5.27
534.745	5.2
535.091	5.14
535.437	5.22
535.783	5.14
536.129	5.18
536.474	5.21
536.82	5.08
537.166	5.24
537.512	5.19
537.857	5.22
538.203	5.23
538.549	5.18
538.894	5.27
539.239	5.23
539.585	5.19
539.93	5.2
540.276	5.23
540.621	5.23
540.966	5.37
541.311	5.23
541.656	5.29
542.001	5.34
542.346	5.24
542.691	5.3
543.036	5.11
543.381	5.2
543.726	5.23
544.071	5.17
544.415	5.15
544.76	5.17
545.105	5.17
545.449	5.27
545.794	5.27
546.138	5.18
546.483	5.3
546.827	5.23
547.171	5.34
547.516	5.31
547.86	5.35
548.204	5.26
548.548	5.26
548.892	5.23
549.236	5.31
549.58	5.27
549.924	5.3
550.268	5.32
550.612	5.22
550.956	5.33
551.3	5.37
551.643	5.53
551.987	5.24
552.33	5.43
552.674	5.34
553.017	5.41
553.361	5.49
553.704	5.31
554.048	5.35
554.391	5.35
554.734	5.42
555.077	5.43
555.42	5.43
555.764	5.55
556.107	5.39
556.45	5.4
556.793	5.39
557.135	5.51
557.478	5.29
557.821	5.52
558.164	5.44
558.507	5.4
558.849	5.53
559.192	5.43
559.534	5.37
559.877	5.46
560.219	5.48
560.562	5.49
560.904	5.59
561.246	5.35
561.589	5.5
561.931	5.31
562.273	5.45
562.615	5.3
562.957	5.49
563.299	5.56
563.641	5.4
563.983	5.42
564.325	5.25
564.667	5.39
565.008	5.42
565.35	5.37
565.692	5.61
566.033	5.5
566.375	5.28
566.716	5.27
567.058	5.53
567.399	5.48
567.741	5.35
568.082	5.34
568.423	5.4
568.764	5.39
569.105	5.35
569.447	5.46
569.788	5.36
570.129	5.29
570.47	5.37
570.811	5.52
571.151	5.48
571.492	5.63
571.833	5.44
572.174	5.48
572.514	5.35
572.855	5.27
573.195	5.54
573.536	5.37
573.876	5.33
574.217	5.5
574.557	5.43
574.898	5.41
575.238	5.35
575.578	5.45
575.918	5.3
576.258	5.46
576.598	5.44
576.938	5.38
577.278	5.29
577.618	5.34
577.958	5.34
578.298	5.38
578.638	5.27
578.977	5.61
579.317	5.4
579.657	5.34
579.996	5.37
580.336	5.33
580.675	5.4
581.014	5.49
581.354	5.39
581.693	5.72
582.032	5.52
582.372	5.6
582.711	5.39
583.05	5.6
583.389	5.46
583.728	5.5
584.067	5.71
584.406	5.22
584.745	5.81
585.083	5.48
585.422	5.69
585.761	5.57
586.1	5.4
586.438	5.29
586.777	5.55
587.115	5.43
587.454	5.57
587.792	5.66
588.13	5.54
588.469	5.63
588.807	5.58
589.145	5.38
589.483	5.41
589.821	5.61
590.159	5.34
590.497	5.53
590.835	5.44
591.173	5.35
591.511	5.61
591.849	5.55
592.187	5.5
592.524	5.61
592.862	5.36
593.2	5.56
593.537	5.28
593.875	5.56
594.212	5.57
594.55	5.33
594.887	5.56
595.224	5.51
595.561	5.17
595.899	5.43
596.236	5.49
596.573	5.59
596.91	5.53
597.247	5.48
597.584	5.17
597.921	5.54
598.258	5.57
598.594	5.12
598.931	5.41
599.268	5.61
599.604	5.41
599.941	5.45
600.277	5.35
600.614	5.53
600.95	5.53
601.287	5.54
601.623	5.2
601.959	5.5
602.296	5.3
602.632	5.35
602.968	5.51
603.304	5.6
603.64	5.41
603.976	5.31
604.312	5.56
604.648	5.42
604.984	5.43
605.319	5.46
605.655	5.28
605.991	5.44
606.326	5.57
606.662	5.13
606.998	5.21
607.333	5.39
607.668	5.51
608.004	5.37
608.339	5.34
608.674	5.62
609.01	5.4
609.345	5.44
609.68	5.35
610.015	5.42
610.35	5.39
610.685	5.48
611.02	5.5
611.355	5.54
611.689	5.32
612.024	5.34
612.359	5.33
612.694	5.39
613.028	5.59
613.363	5.68
613.697	5.4
614.032	5.48
614.366	5.65
614.7	5.61
615.035	5.57
615.369	5.47
615.703	5.98
616.037	5.53
616.371	5.62
616.705	5.54
617.039	5.86
617.373	5.8
617.707	5.92
618.041	5.56
618.375	5.59
618.709	5.57
619.042	5.9
619.376	5.43
619.71	5.66
620.043	5.67
620.377	5.72
620.71	5.96
621.043	5.62
621.377	5.32
621.71	5.66
622.043	5.68
622.376	5.66
622.709	5.87
623.043	5.65
623.376	5.78
623.709	5.41
624.041	5.53
624.374	5.63
624.707	5.38
625.04	5.9
625.373	5.72
625.705	5.38
626.038	5.63
626.37	6
626.703	5.81
627.035	5.19
627.368	5.8
627.7	5.52
628.032	5.41
628.365	5.77
628.697	5.39
629.029	5.63
629.361	5.61
629.693	5.49
630.025	5.47
630.357	5.48
630.689	5.75
631.021	5.33
631.353	5.33
631.684	5.83
632.016	5.74
632.348	5.56
632.679	5.64
633.011	5.46
633.342	5.64
633.674	5.27
634.005	5.7
634.336	5.74
634.668	5.51
634.999	5.56
635.33	5.6
635.661	5.58
635.992	5.91
636.323	5.85
636.654	5.58
636.985	5.58
637.316	5.61
637.647	5.44
637.977	5.47
638.308	5.96
638.639	5.94
638.969	5.48
639.3	5.92
639.63	5.48
639.961	5.81
640.291	5.61
640.622	5.62
640.952	5.27
641.282	5.31
641.612	5.45
641.943	5.83
642.273	5.35
642.603	5.82
642.933	5.68
643.263	5.32
643.592	5.54
643.922	6.02
644.252	5.62
644.582	5.63
644.911	5.73
645.241	5.47
645.571	5.43
645.9	5.55
646.23	5.82
646.559	5.7
646.888	5.29
647.218	5.81
647.547	5.73
647.876	5.8
648.205	5.4
648.534	5.85
648.863	5.89
649.192	5.91
649.521	5.61
649.85	5.9
650.179	5.54
650.508	5.88
650.837	5.52
651.165	5.64
651.494	5.58
651.822	6.04
652.151	5.75
652.479	5.52
652.808	5.31
653.136	5.77
653.465	5.56
653.793	6.06
654.121	5.85
654.449	5.45
654.777	5.74
655.105	5.93
655.433	5.55
655.761	5.83
656.089	5.52
656.417	5.64
656.745	5.48
657.073	5.27
657.4	5.69
657.728	5.67
658.056	6.26
658.383	5.74
658.711	5.39
659.038	5.37
659.365	6.26
659.693	6.18
660.02	6.17
660.347	5.95
660.674	5.69
661.001	5.57
661.329	5.83
661.656	5.56
661.982	4.94
662.309	5.74
662.636	5.8
662.963	5.56
663.29	5.27
663.616	6.25
663.943	6.42
664.27	5.96
664.596	5.44
664.923	5.56
665.249	5.98
665.576	5.5
665.902	5.07
666.228	5.24
666.554	6.07
666.881	5.47
667.207	5.93
667.533	5.36
667.859	6
668.185	5.71
668.511	5.65
668.837	5.52
669.162	6.03
669.488	5.72
669.814	5.82
670.139	5.49
670.465	6.24
670.791	5.56
671.116	5.64
671.442	6.2
671.767	6.15
672.092	5.77
672.418	5.62
672.743	5.97
673.068	5.89
673.393	6
673.718	6.04
674.043	5.72
674.368	5.55
674.693	5.62
675.018	5.97
675.343	5.92
675.667	6.07
675.992	5.69
676.317	5.97
676.641	5.6
676.966	5.53
677.29	6.15
677.615	6.17
677.939	5.62
678.264	6
678.588	6.14
678.912	5.91
679.236	5.55
679.56	5.87
679.885	5.74
680.209	5.98
680.532	6.02
680.856	5.74
681.18	5.64
681.504	5.87
681.828	5.45
682.152	6.38
682.475	5.83
682.799	6.41
683.122	5.9
683.446	6.16
683.769	5.79
684.093	6.15
684.416	5.18
684.739	5.62
685.062	6.75
685.386	5.81
685.709	5.81
686.032	6.12
686.355	7.2
686.678	6.79
687.001	6.12
687.324	6.22
687.646	6.81
687.969	6.36
688.292	6.27
688.614	6.74
688.937	5.72
689.26	6.02
689.582	5.93
689.904	6.33
690.227	6.25
690.549	6.25
690.871	6.33
691.194	6.44
691.516	6.13
691.838	5.54
692.16	6.45
692.482	5.86
692.804	5.83
