Data from 0042_forehead_Reflection__2__102.txt Node

Date: Fri Nov 04 15:38:32 CDT 2022
User: ToomeyLab
Spectrometer: FLMS14357
Trigger mode: 0
Integration Time (sec): 1.000000E-2
Scans to average: 100
Electric dark correction enabled: true
Nonlinearity correction enabled: false
Boxcar width: 0
XAxis mode: Wavelengths
Number of Pixels in Spectrum: 2048
>>>>>Begin Spectral Data<<<<<
189.047	173.17
189.435	173.17
189.823	173.17
190.211	-250.48
190.599	-25.16
190.987	-20.8
191.375	-377.97
191.763	119.6
192.151	-2105.62
192.538	44.76
192.926	51.26
193.314	68.89
193.702	106.19
194.089	12.53
194.477	-97.47
194.864	-156.44
195.252	81.47
195.639	114.4
196.027	-29.48
196.414	-69.43
196.801	212.53
197.189	-88.27
197.576	101.27
197.963	79.99
198.351	-15.64
198.738	22.13
199.125	20.47
199.512	-3.54
199.899	-32
200.286	-35.18
200.673	-27.36
201.06	-21.02
201.447	-4.99
201.833	13.89
202.22	14.03
202.607	27.86
202.994	21.73
203.38	4.26
203.767	41.31
204.154	31.97
204.54	8.28
204.927	-29.01
205.313	45.99
205.699	35.13
206.086	32.34
206.472	-7.55
206.858	20.56
207.245	4.22
207.631	5.98
208.017	-11.37
208.403	-12.52
208.789	20.34
209.175	8.58
209.561	-59.58
209.947	-34.24
210.333	9.82
210.719	-7.32
211.105	-75.27
211.491	-13.74
211.876	-13.75
212.262	-11.61
212.648	1.87
213.034	49.66
213.419	13.27
213.805	-16.15
214.19	-48.86
214.576	-11.71
214.961	7.55
215.346	-3.84
215.732	-8.34
216.117	-14.95
216.502	19.77
216.888	-13.8
217.273	7.53
217.658	-19.81
218.043	-18.37
218.428	-0.58
218.813	3.53
219.198	18.47
219.583	-17.6
219.968	14
220.353	-7.7
220.738	-52.56
221.122	-11.04
221.507	2.21
221.892	-5.97
222.276	-9.15
222.661	1.01
223.046	-2.06
223.43	-0.72
223.815	-5.53
224.199	14.2
224.583	-0.59
224.968	-2.82
225.352	-1.65
225.736	-6.59
226.121	1.12
226.505	0
226.889	-0.26
227.273	5.86
227.657	0.51
228.041	4.04
228.425	5.8
228.809	3.66
229.193	6.24
229.577	0.7
229.961	5.84
230.344	2.93
230.728	2.91
231.112	2.08
231.495	2.71
231.879	3.25
232.263	2.26
232.646	2.2
233.03	2.23
233.413	1.2
233.797	2.43
234.18	0.98
234.563	2.97
234.946	1.97
235.33	5.04
235.713	2.61
236.096	4.39
236.479	2.21
236.862	2.1
237.245	0.99
237.628	3.38
238.011	2.06
238.394	2.1
238.777	3.46
239.16	2.74
239.543	2.75
239.925	3.52
240.308	4.81
240.691	3.4
241.073	2.73
241.456	2.29
241.838	2.47
242.221	2.61
242.603	2.78
242.986	2.83
243.368	3.6
243.75	3.06
244.133	3.09
244.515	2.8
244.897	2.91
245.279	2.92
245.661	3.17
246.043	3.57
246.425	3.04
246.807	4.69
247.189	2.85
247.571	3
247.953	3.06
248.335	3.18
248.717	3.11
249.098	3.05
249.48	2.85
249.862	3.25
250.243	3.01
250.625	2.81
251.006	2.94
251.388	3.55
251.769	4.12
252.151	3.86
252.532	3.35
252.913	2.79
253.295	3.11
253.676	2.55
254.057	2.73
254.438	3.1
254.819	3.14
255.2	2.6
255.581	3.39
255.962	3
256.343	2.27
256.724	2.61
257.105	2.74
257.486	4.56
257.867	4.69
258.247	3.6
258.628	3.46
259.009	3
259.389	3.88
259.77	3.26
260.15	3.01
260.531	2.82
260.911	2.73
261.292	2.71
261.672	3.06
262.052	3.03
262.432	3.22
262.813	2.77
263.193	2.5
263.573	2.72
263.953	2.99
264.333	3.41
264.713	3.74
265.093	2.93
265.473	4.02
265.853	2.54
266.233	3.19
266.612	2.77
266.992	3.66
267.372	2.14
267.752	2.61
268.131	3.05
268.511	3.21
268.89	3.36
269.27	3.24
269.649	3.24
270.029	2.92
270.408	2.92
270.787	3.36
271.167	2.92
271.546	3.32
271.925	3.23
272.304	2.96
272.683	2.64
273.062	2.99
273.441	2.99
273.82	2.81
274.199	3.03
274.578	2.41
274.957	2.94
275.336	2.34
275.715	2.48
276.093	3.24
276.472	2.66
276.851	2.74
277.229	3.13
277.608	2.83
277.986	3.33
278.365	2.67
278.743	2.75
279.122	3.03
279.5	2.93
279.878	2.85
280.257	2.19
280.635	2.93
281.013	2.65
281.391	3.4
281.769	3.15
282.147	2.56
282.525	3.31
282.903	2.99
283.281	3.27
283.659	3.09
284.037	2.87
284.415	2.84
284.792	2.74
285.17	2.73
285.548	3.6
285.925	3.01
286.303	2.85
286.68	3.17
287.058	2.94
287.435	3.03
287.813	2.99
288.19	2.88
288.567	3
288.945	3.45
289.322	3.19
289.699	3.12
290.076	3.35
290.453	2.61
290.83	2.82
291.207	2.91
291.584	3.28
291.961	2.97
292.338	3.46
292.715	3.33
293.092	3.46
293.469	3.26
293.845	2.97
294.222	3.49
294.599	2.96
294.975	3.49
295.352	3.45
295.728	3.27
296.105	3.05
296.481	3.46
296.858	3.31
297.234	3.8
297.61	3.99
297.986	3.46
298.363	3.34
298.739	3.36
299.115	3.66
299.491	3.5
299.867	3.58
300.243	3.47
300.619	3.69
300.995	3.97
301.371	4.31
301.746	3.88
302.122	3.78
302.498	3.59
302.874	3.8
303.249	3.7
303.625	3.93
304	3.97
304.376	3.63
304.751	3.81
305.127	3.88
305.502	3.95
305.878	4.09
306.253	3.97
306.628	3.96
307.003	3.65
307.378	3.87
307.754	3.84
308.129	3.24
308.504	3.83
308.879	4.42
309.254	4.55
309.629	4.43
310.003	4.23
310.378	3.85
310.753	4.37
311.128	3.71
311.502	3.54
311.877	4.24
312.252	4.02
312.626	4
313.001	4.02
313.375	4.76
313.75	4.34
314.124	4.1
314.498	4.47
314.873	4.3
315.247	4.49
315.621	4.78
315.995	4.37
316.369	4.01
316.743	4.64
317.117	4.49
317.491	4.5
317.865	4.36
318.239	4.5
318.613	5.16
318.987	4.65
319.361	4.3
319.734	4.82
320.108	4.78
320.482	3.68
320.855	4.4
321.229	4.35
321.602	4.14
321.976	4.85
322.349	5.2
322.723	4.63
323.096	4.95
323.469	4.47
323.843	5.02
324.216	4.7
324.589	5.07
324.962	4.77
325.335	5.16
325.708	4.73
326.081	4.88
326.454	4.71
326.827	4.94
327.2	4.74
327.573	4.22
327.945	4.82
328.318	4.29
328.691	5.1
329.063	4.65
329.436	4.66
329.809	4.7
330.181	5.15
330.553	4.99
330.926	4.94
331.298	5.39
331.671	4.84
332.043	5.18
332.415	4.86
332.787	4.55
333.159	5.19
333.532	4.82
333.904	4.91
334.276	4.78
334.648	4.95
335.02	4.6
335.391	5.19
335.763	4.89
336.135	4.74
336.507	5.39
336.879	5.06
337.25	5.11
337.622	5.28
337.993	5.01
338.365	4.98
338.736	5.37
339.108	5.36
339.479	5.38
339.851	4.68
340.222	4.73
340.593	5.46
340.964	5.31
341.336	5.17
341.707	4.84
342.078	5.01
342.449	5.43
342.82	5.4
343.191	5.06
343.562	5.21
343.933	5.31
344.303	5.35
344.674	5.53
345.045	5.18
345.416	5.12
345.786	5.07
346.157	5.66
346.527	5.38
346.898	5.62
347.268	5.29
347.639	5.67
348.009	5.71
348.38	5.38
348.75	5.34
349.12	5.32
349.49	5.42
349.861	5.45
350.231	5.74
350.601	5.73
350.971	5.22
351.341	5.54
351.711	5.78
352.081	5.65
352.45	5.69
352.82	5.4
353.19	5.61
353.56	5.67
353.929	5.68
354.299	5.93
354.669	5.53
355.038	6.11
355.408	5.27
355.777	6.05
356.147	5.67
356.516	5.42
356.885	5.62
357.254	6.06
357.624	5.72
357.993	5.88
358.362	5.46
358.731	5.63
359.1	5.59
359.469	5.89
359.838	6.18
360.207	5.77
360.576	5.86
360.945	6.12
361.314	6.44
361.682	6.17
362.051	6.02
362.42	6.24
362.788	5.78
363.157	6.18
363.525	6
363.894	5.96
364.262	6.24
364.631	5.98
364.999	6.09
365.367	5.89
365.735	6.37
366.104	6.07
366.472	6.38
366.84	5.83
367.208	6.58
367.576	5.88
367.944	6.14
368.312	6.31
368.68	6.24
369.048	6.18
369.416	6.19
369.783	5.83
370.151	6.21
370.519	6.61
370.886	5.91
371.254	6.03
371.621	6.17
371.989	6.21
372.356	6.44
372.724	6.25
373.091	6.18
373.458	6.15
373.826	6.6
374.193	6.34
374.56	6.19
374.927	7.06
375.294	6.38
375.661	6.66
376.028	6.49
376.395	6.62
376.762	6.66
377.129	6.63
377.496	6.88
377.863	6.63
378.229	6.36
378.596	6.51
378.963	6.66
379.329	6.48
379.696	6.64
380.062	6.93
380.429	6.3
380.795	6.76
381.161	6.63
381.528	7.03
381.894	6.47
382.26	6.45
382.626	6.64
382.993	7.05
383.359	7.02
383.725	6.79
384.091	6.97
384.457	6.69
384.823	6.57
385.188	7.2
385.554	6.68
385.92	6.83
386.286	6.98
386.651	6.7
387.017	6.97
387.383	7.01
387.748	6.81
388.114	6.77
388.479	7.61
388.845	7.19
389.21	7.37
389.575	7.48
389.94	6.94
390.306	7.15
390.671	7.24
391.036	6.84
391.401	7.38
391.766	7.05
392.131	7.17
392.496	7.1
392.861	7.2
393.226	6.95
393.591	7.29
393.956	7.44
394.32	7.13
394.685	7.34
395.05	7.35
395.414	7.18
395.779	7.23
396.143	7.21
396.508	7.51
396.872	7.3
397.236	7.57
397.601	7.51
397.965	7.31
398.329	7.23
398.694	7.47
399.058	7.39
399.422	7.48
399.786	7.41
400.15	7.33
400.514	7.41
400.878	7.7
401.242	7.6
401.605	7.28
401.969	7.59
402.333	7.59
402.697	7.29
403.06	7.89
403.424	7.4
403.787	7.66
404.151	7.69
404.514	7.97
404.878	7.63
405.241	7.65
405.604	7.74
405.968	7.58
406.331	7.43
406.694	7.37
407.057	7.62
407.42	7.74
407.783	7.46
408.146	7.85
408.509	7.72
408.872	7.87
409.235	7.86
409.598	7.84
409.961	7.74
410.323	7.91
410.686	8.03
411.049	7.8
411.411	7.68
411.774	7.98
412.136	7.95
412.499	7.99
412.861	8.03
413.223	7.72
413.586	7.79
413.948	8.17
414.31	7.95
414.672	8.12
415.035	8.09
415.397	8.03
415.759	8.25
416.121	8.02
416.483	8.02
416.845	8.02
417.206	8.09
417.568	8.25
417.93	8.17
418.292	8.07
418.653	8.05
419.015	8.03
419.377	8.01
419.738	7.97
420.1	8.27
420.461	8.15
420.822	7.96
421.184	8.25
421.545	8.08
421.906	8.18
422.267	8.07
422.629	8.25
422.99	8.08
423.351	7.93
423.712	8.12
424.073	8.25
424.434	8.12
424.795	8.3
425.155	8.22
425.516	8.32
425.877	8.23
426.238	8.19
426.598	8.26
426.959	8.23
427.32	8.26
427.68	8.32
428.041	8.4
428.401	8.53
428.761	8.44
429.122	8.56
429.482	8.61
429.842	8.46
430.202	8.81
430.563	8.71
430.923	8.75
431.283	8.59
431.643	8.59
432.003	8.87
432.363	8.62
432.722	8.87
433.082	8.84
433.442	8.68
433.802	8.62
434.161	8.7
434.521	8.75
434.881	8.85
435.24	8.66
435.6	8.86
435.959	8.83
436.319	8.9
436.678	8.97
437.037	9.03
437.396	9.06
437.756	9.03
438.115	8.85
438.474	9.03
438.833	9.16
439.192	8.91
439.551	8.82
439.91	9.18
440.269	9.1
440.628	9.11
440.987	8.99
441.345	9.03
441.704	9.06
442.063	8.98
442.421	8.95
442.78	9.02
443.138	9.1
443.497	9.04
443.855	9.11
444.214	9.05
444.572	9.14
444.93	9.19
445.288	9.2
445.647	9.1
446.005	9.19
446.363	9.18
446.721	9.2
447.079	9.18
447.437	9.21
447.795	9.11
448.153	9.08
448.51	9.17
448.868	9.16
449.226	9.2
449.584	9.33
449.941	9.31
450.299	9.45
450.656	9.42
451.014	9.59
451.371	9.6
451.729	9.55
452.086	9.55
452.443	9.58
452.801	9.65
453.158	9.71
453.515	9.61
453.872	9.44
454.229	9.66
454.586	9.73
454.943	9.69
455.3	9.69
455.657	9.71
456.014	9.84
456.371	9.87
456.727	9.97
457.084	9.99
457.441	9.69
457.797	9.72
458.154	9.85
458.51	10.04
458.867	9.84
459.223	9.91
459.58	10.16
459.936	9.85
460.292	9.94
460.648	9.93
461.005	9.75
461.361	9.89
461.717	9.75
462.073	9.91
462.429	9.93
462.785	9.97
463.141	10.04
463.496	10.01
463.852	10.13
464.208	10.15
464.564	10.13
464.919	10.28
465.275	10.14
465.631	10.43
465.986	10.2
466.342	10.2
466.697	10.43
467.052	10.31
467.408	10.31
467.763	10.45
468.118	10.43
468.473	10.45
468.829	10.29
469.184	10.31
469.539	10.5
469.894	10.45
470.249	10.48
470.603	10.56
470.958	10.43
471.313	10.43
471.668	10.44
472.023	10.48
472.377	10.78
472.732	10.6
473.086	10.6
473.441	10.66
473.795	10.6
474.15	10.75
474.504	10.52
474.859	10.49
475.213	10.72
475.567	10.63
475.921	10.72
476.275	10.83
476.63	10.71
476.984	10.71
477.338	10.87
477.692	11.02
478.045	10.81
478.399	10.78
478.753	11
479.107	10.94
479.461	10.97
479.814	11.01
480.168	11.04
480.521	10.85
480.875	11.12
481.228	10.96
481.582	11.06
481.935	11.06
482.289	11.13
482.642	11
482.995	11.03
483.348	11.02
483.701	11
484.055	10.89
484.408	10.95
484.761	10.85
485.114	10.59
485.466	10.52
485.819	10.43
486.172	10.43
486.525	10.54
486.878	10.69
487.23	10.84
487.583	10.94
487.936	11.02
488.288	11
488.641	10.96
488.993	10.91
489.345	10.8
489.698	10.73
490.05	10.83
490.402	10.88
490.754	11.03
491.107	11.18
491.459	11.25
491.811	11.27
492.163	11.32
492.515	11.37
492.866	11.32
493.218	11.1
493.57	10.99
493.922	11.14
494.274	11.12
494.625	11.36
494.977	11.47
495.328	11.63
495.68	11.54
496.031	11.75
496.383	11.74
496.734	11.78
497.086	11.93
497.437	11.97
497.788	11.97
498.139	11.8
498.49	11.82
498.842	11.86
499.193	11.8
499.544	11.86
499.894	11.83
500.245	11.98
500.596	11.9
500.947	11.89
501.298	11.99
501.648	11.98
501.999	12.15
502.35	12.04
502.7	11.99
503.051	12.16
503.401	12.26
503.752	12.26
504.102	12.2
504.452	12.38
504.803	12.28
505.153	12.11
505.503	12.27
505.853	12.3
506.203	12.24
506.553	12.45
506.903	12.45
507.253	12.37
507.603	12.37
507.953	12.45
508.303	12.36
508.652	12.41
509.002	12.54
509.352	12.52
509.701	12.5
510.051	12.47
510.4	12.5
510.75	12.4
511.099	12.45
511.449	12.36
511.798	12.44
512.147	12.51
512.496	12.49
512.846	12.53
513.195	12.67
513.544	12.53
513.893	12.51
514.242	12.59
514.591	12.62
514.939	12.7
515.288	12.78
515.637	12.95
515.986	12.81
516.334	12.82
516.683	12.97
517.032	12.96
517.38	12.92
517.729	13.07
518.077	12.93
518.426	12.94
518.774	12.88
519.122	12.92
519.47	12.93
519.819	12.81
520.167	12.83
520.515	12.77
520.863	12.74
521.211	12.76
521.559	12.94
521.907	12.85
522.255	13.07
522.602	13.21
522.95	13.15
523.298	13.24
523.645	13.25
523.993	13.33
524.341	13.23
524.688	13.4
525.036	13.29
525.383	13.5
525.73	13.26
526.078	13.34
526.425	13.38
526.772	13.24
527.119	13.32
527.466	13.25
527.814	13.14
528.161	13.17
528.508	13.22
528.854	13.24
529.201	13.28
529.548	13.25
529.895	13.1
530.242	12.9
530.588	12.72
530.935	12.84
531.282	13.03
531.628	12.99
531.975	13.19
532.321	13.34
532.667	13.35
533.014	13.56
533.36	13.53
533.706	13.54
534.052	13.53
534.399	13.6
534.745	13.43
535.091	13.29
535.437	13.25
535.783	13.28
536.129	13.57
536.474	13.59
536.82	13.75
537.166	13.86
537.512	13.72
537.857	13.82
538.203	13.75
538.549	13.78
538.894	13.81
539.239	13.88
539.585	13.77
539.93	13.97
540.276	14.06
540.621	14.07
540.966	14.35
541.311	14.17
541.656	14.17
542.001	14.23
542.346	13.99
542.691	14.03
543.036	13.72
543.381	13.7
543.726	13.68
544.071	13.82
544.415	13.92
544.76	14.01
545.105	14.1
545.449	14.12
545.794	14.16
546.138	14.2
546.483	14.47
546.827	14.35
547.171	14.48
547.516	14.48
547.86	14.49
548.204	14.54
548.548	14.43
548.892	14.39
549.236	14.29
549.58	14.51
549.924	14.69
550.268	14.81
550.612	14.68
550.956	14.91
551.3	15.02
551.643	14.93
551.987	14.95
552.33	15.04
552.674	14.86
553.017	15.07
553.361	15.07
553.704	15.09
554.048	14.94
554.391	14.78
554.734	14.89
555.077	14.95
555.42	15.14
555.764	15.2
556.107	15.09
556.45	15.23
556.793	15.26
557.135	15.21
557.478	15.29
557.821	15.36
558.164	15.36
558.507	15.41
558.849	15.52
559.192	15.5
559.534	15.31
559.877	15.58
560.219	15.37
560.562	15.54
560.904	15.71
561.246	15.56
561.589	15.45
561.931	15.5
562.273	15.65
562.615	15.54
562.957	15.82
563.299	15.72
563.641	15.63
563.983	15.84
564.325	15.43
564.667	15.86
565.008	15.62
565.35	15.78
565.692	15.82
566.033	15.82
566.375	15.85
566.716	15.88
567.058	15.89
567.399	15.77
567.741	15.85
568.082	15.8
568.423	15.73
568.764	15.86
569.105	15.89
569.447	15.99
569.788	15.98
570.129	16.04
570.47	16.09
570.811	16.19
571.151	16.09
571.492	16.18
571.833	16.12
572.174	16.21
572.514	16.28
572.855	16.02
573.195	16.14
573.536	16.32
573.876	16.11
574.217	16.08
574.557	16.17
574.898	16.27
575.238	16.28
575.578	16.43
575.918	16.38
576.258	16.39
576.598	16.43
576.938	16.59
577.278	16.22
577.618	16.34
577.958	16.43
578.298	16.77
578.638	16.55
578.977	16.56
579.317	16.59
579.657	16.64
579.996	16.8
580.336	16.55
580.675	16.62
581.014	16.72
581.354	16.72
581.693	16.94
582.032	16.89
582.372	17.08
582.711	16.96
583.05	16.86
583.389	16.67
583.728	17.05
584.067	17.13
584.406	16.88
584.745	17.22
585.083	16.83
585.422	17.17
585.761	17.24
586.1	17.05
586.438	17.01
586.777	17.1
587.115	17.41
587.454	17.35
587.792	17.43
588.13	17.35
588.469	17.39
588.807	17.32
589.145	17.37
589.483	17.03
589.821	17.19
590.159	17.39
590.497	17.39
590.835	17.53
591.173	17.14
591.511	17.35
591.849	17.52
592.187	17.42
592.524	17.45
592.862	17.42
593.2	17.71
593.537	17.39
593.875	17.44
594.212	17.45
594.55	17.48
594.887	17.6
595.224	17.82
595.561	17.45
595.899	17.58
596.236	17.72
596.573	17.65
596.91	17.86
597.247	17.47
597.584	17.51
597.921	17.78
598.258	17.62
598.594	17.37
598.931	17.53
599.268	17.86
599.604	17.58
599.941	17.67
600.277	17.9
600.614	17.98
600.95	18.12
601.287	17.95
601.623	18.29
601.959	18
602.296	18.19
602.632	18.21
602.968	18.16
603.304	18.32
603.64	18.19
603.976	17.94
604.312	18.42
604.648	18.21
604.984	18.05
605.319	17.82
605.655	18.25
605.991	18.23
606.326	18
606.662	17.96
606.998	17.84
607.333	17.97
607.668	18.17
608.004	18.32
608.339	18.4
608.674	18.57
609.01	18.55
609.345	18.55
609.68	18.62
610.015	18.38
610.35	18.41
610.685	18.71
611.02	18.4
611.355	18.6
611.689	18.42
612.024	18.5
612.359	18.38
612.694	18.64
613.028	18.88
613.363	18.97
613.697	18.7
614.032	18.83
614.366	18.76
614.7	18.59
615.035	19.01
615.369	18.45
615.703	19.14
616.037	18.97
616.371	19.03
616.705	18.89
617.039	19.02
617.373	18.88
617.707	19.31
618.041	19.09
618.375	19.13
618.709	18.99
619.042	19.07
619.376	19.22
619.71	19.36
620.043	19.51
620.377	19.55
620.71	19.36
621.043	19.06
621.377	19.16
621.71	19.3
622.043	19.4
622.376	19.64
622.709	19.06
623.043	19.52
623.376	19.73
623.709	19.32
624.041	19.79
624.374	19.36
624.707	19.41
625.04	19.67
625.373	19.95
625.705	19.56
626.038	19.54
626.37	19.76
626.703	19.8
627.035	19.52
627.368	19.54
627.7	19.48
628.032	19.55
628.365	19.83
628.697	19.75
629.029	19.79
629.361	19.65
629.693	19.84
630.025	19.47
630.357	19.6
630.689	20.16
631.021	19.88
631.353	20
631.684	20.01
632.016	20.02
632.348	19.92
632.679	19.84
633.011	19.99
633.342	20.04
633.674	20.32
634.005	19.84
634.336	20.31
634.668	20.02
634.999	20.31
635.33	20.18
635.661	20.51
635.992	20.51
636.323	20.39
636.654	20.04
636.985	20.39
637.316	20.18
637.647	20.08
637.977	20.25
638.308	20.6
638.639	20.71
638.969	20.53
639.3	20.41
639.63	20.44
639.961	20.24
640.291	20.63
640.622	20.44
640.952	20.74
641.282	20.73
641.612	20.62
641.943	20.44
642.273	20.28
642.603	20.54
642.933	20.1
643.263	20.91
643.592	20.39
643.922	20.82
644.252	20.57
644.582	21.08
644.911	20.55
645.241	20.77
645.571	20.84
645.9	20.76
646.23	20.74
646.559	21.12
646.888	21.46
647.218	20.77
647.547	20.78
647.876	21.45
648.205	21.12
648.534	21.33
648.863	21.7
649.192	21.46
649.521	20.95
649.85	21.24
650.179	20.53
650.508	20.83
650.837	21.16
651.165	21.49
651.494	21.21
651.822	21.34
652.151	21.86
652.479	21.24
652.808	20.99
653.136	21.58
653.465	21.49
653.793	21.27
654.121	21.44
654.449	20.94
654.777	21.18
655.105	21.49
655.433	21.12
655.761	21.61
656.089	20.85
656.417	21.37
656.745	21.14
657.073	21
657.4	21.8
657.728	21.58
658.056	21.14
658.383	21.75
658.711	21.56
659.038	21.48
659.365	21.95
659.693	22.23
660.02	21.85
660.347	21.41
660.674	21.66
661.001	21.71
661.329	22.08
661.656	21.64
661.982	21.77
662.309	22.06
662.636	21.59
662.963	21.22
663.29	22.12
663.616	22.68
663.943	21.89
664.27	21.83
664.596	21.67
664.923	22.03
665.249	21.89
665.576	21.9
665.902	21.63
666.228	21.47
666.554	22.57
666.881	21.99
667.207	22.37
667.533	22.32
667.859	22.35
668.185	22.56
668.511	22.25
668.837	22.08
669.162	22.5
669.488	22.05
669.814	21.78
670.139	22.27
670.465	22.37
670.791	22.59
671.116	22.68
671.442	22.62
671.767	22.69
672.092	22.5
672.418	22.66
672.743	22.77
673.068	22.57
673.393	22.63
673.718	22.87
674.043	22.82
674.368	22.33
674.693	23.08
675.018	23.17
675.343	22.62
675.667	22.02
675.992	23.05
676.317	22.52
676.641	23.02
676.966	22.79
677.29	22.79
677.615	23.08
