Data from 0042_chest_Reflection__2__92.txt Node

Date: Fri Nov 04 15:32:55 CDT 2022
User: ToomeyLab
Spectrometer: FLMS14357
Trigger mode: 0
Integration Time (sec): 1.000000E-2
Scans to average: 100
Electric dark correction enabled: true
Nonlinearity correction enabled: false
Boxcar width: 0
XAxis mode: Wavelengths
Number of Pixels in Spectrum: 2048
>>>>>Begin Spectral Data<<<<<
189.047	56.62
189.435	56.62
189.823	56.62
190.211	-53.89
190.599	73.96
190.987	83.63
191.375	-511.55
191.763	-53.53
192.151	1437.08
192.538	24.03
192.926	-45.09
193.314	56.02
193.702	63.22
194.089	36.23
194.477	-216.82
194.864	-165.34
195.252	142.07
195.639	17.74
196.027	26.23
196.414	58.97
196.801	101.55
197.189	42.29
197.576	8.82
197.963	-65.36
198.351	-15.08
198.738	16.25
199.125	6.72
199.512	-30.46
199.899	-5.2
200.286	6.72
200.673	32.39
201.06	24.9
201.447	-14.16
201.833	32.17
202.22	22.73
202.607	20
202.994	29.99
203.38	32.82
203.767	-59.87
204.154	52.28
204.54	-29.57
204.927	-3.14
205.313	17.65
205.699	2.37
206.086	11.15
206.472	2.36
206.858	5.63
207.245	17.7
207.631	-1.14
208.017	-6.4
208.403	9.35
208.789	32.98
209.175	7.63
209.561	-24.87
209.947	-26.28
210.333	35.09
210.719	20.97
211.105	-14.18
211.491	3.98
211.876	35.42
212.262	-6.84
212.648	-20.35
213.034	6.93
213.419	-20.97
213.805	-33.67
214.19	-46.15
214.576	4.66
214.961	34.06
215.346	-11.55
215.732	2.49
216.117	10.52
216.502	33.79
216.888	9.83
217.273	14.26
217.658	1.59
218.043	-7.05
218.428	19.26
218.813	14.77
219.198	31.01
219.583	-53.91
219.968	19.18
220.353	-0.45
220.738	0.01
221.122	-7.74
221.507	-3.27
221.892	-24.05
222.276	-5.89
222.661	13.13
223.046	-1.93
223.43	6.76
223.815	-3.2
224.199	8.39
224.583	10.1
224.968	-7.69
225.352	2.21
225.736	-0.59
226.121	-0.97
226.505	8.29
226.889	-3.22
227.273	2.11
227.657	3.31
228.041	4.49
228.425	2.12
228.809	2.6
229.193	5.08
229.577	3.92
229.961	4.34
230.344	4.7
230.728	3.74
231.112	3.34
231.495	3.66
231.879	3.79
232.263	3.18
232.646	3.97
233.03	1.85
233.413	2.86
233.797	2.73
234.18	5.65
234.563	4.17
234.946	3.52
235.33	4.37
235.713	4.29
236.096	4.69
236.479	2.7
236.862	2.7
237.245	2.37
237.628	3.1
238.011	1.38
238.394	4.56
238.777	5.24
239.16	3.45
239.543	3.7
239.925	5.1
240.308	4.8
240.691	3.33
241.073	4.5
241.456	3.46
241.838	3.82
242.221	3.67
242.603	3.87
242.986	3.94
243.368	4.07
243.75	4.37
244.133	4.23
244.515	3.68
244.897	3.87
245.279	4.14
245.661	4.36
246.043	4.32
246.425	3.79
246.807	4.82
247.189	3.84
247.571	4.27
247.953	4.1
248.335	3.56
248.717	3.64
249.098	3.6
249.48	3.76
249.862	3.95
250.243	3.49
250.625	3.47
251.006	3.56
251.388	3.83
251.769	4.21
252.151	4.73
252.532	3.87
252.913	3.66
253.295	4.56
253.676	3.81
254.057	3.31
254.438	3.66
254.819	3.82
255.2	3.68
255.581	3.96
255.962	4.65
256.343	3.34
256.724	2.77
257.105	2.88
257.486	3.91
257.867	4.88
258.247	4.92
258.628	3.55
259.009	3.53
259.389	3.74
259.77	3.76
260.15	3.06
260.531	3.81
260.911	3.38
261.292	3.3
261.672	3.53
262.052	3.59
262.432	3.67
262.813	3.27
263.193	3.23
263.573	3.78
263.953	3.38
264.333	4.01
264.713	3.7
265.093	3.74
265.473	3.73
265.853	2.45
266.233	4
266.612	3.67
266.992	3.87
267.372	2.76
267.752	3.61
268.131	3.62
268.511	4.01
268.89	3.58
269.27	3.54
269.649	3.24
270.029	3.12
270.408	3.36
270.787	3.67
271.167	3.68
271.546	4.03
271.925	3.57
272.304	3.23
272.683	3.13
273.062	3.32
273.441	3.4
273.82	2.76
274.199	3.57
274.578	3.24
274.957	3.36
275.336	3.24
275.715	3.51
276.093	3.19
276.472	3.56
276.851	2.66
277.229	3.18
277.608	3.56
277.986	4.06
278.365	4.1
278.743	3.75
279.122	3.18
279.5	3.43
279.878	3.51
280.257	3.13
280.635	3.01
281.013	3.54
281.391	3.33
281.769	3.61
282.147	2.96
282.525	3.8
282.903	3.21
283.281	4.15
283.659	3.71
284.037	3.08
284.415	3.27
284.792	3.62
285.17	3.08
285.548	3.63
285.925	3.39
286.303	3.11
286.68	3.62
287.058	3.38
287.435	3.26
287.813	3.1
288.19	3.2
288.567	3.1
288.945	3.19
289.322	3.08
289.699	3.35
290.076	3.48
290.453	3.16
290.83	3.14
291.207	3.49
291.584	3.58
291.961	3.45
292.338	3.57
292.715	3.44
293.092	3.94
293.469	3.33
293.845	3.02
294.222	3.14
294.599	3.1
294.975	3.37
295.352	3.11
295.728	3.6
296.105	3.19
296.481	3.21
296.858	3.22
297.234	3.89
297.61	3.73
297.986	2.96
298.363	3.11
298.739	3.21
299.115	3.58
299.491	3.47
299.867	3.48
300.243	3.63
300.619	3.54
300.995	3.76
301.371	3.71
301.746	3.37
302.122	3.75
302.498	3.4
302.874	3.73
303.249	3.63
303.625	2.93
304	3.58
304.376	3.34
304.751	3.64
305.127	3.04
305.502	3.57
305.878	3.29
306.253	3.98
306.628	3.34
307.003	3.13
307.378	3.37
307.754	3.48
308.129	3.24
308.504	3.53
308.879	3.64
309.254	3.32
309.629	3.86
310.003	3.78
310.378	3.4
310.753	3.65
311.128	3.42
311.502	3.28
311.877	3.61
312.252	3.53
312.626	3.48
313.001	3.46
313.375	3.81
313.75	3.35
314.124	3.44
314.498	3.92
314.873	3.82
315.247	3.34
315.621	3.6
315.995	4.16
316.369	3.49
316.743	3.86
317.117	3.71
317.491	3.35
317.865	3.29
318.239	3.96
318.613	3.72
318.987	3.72
319.361	3.9
319.734	3.69
320.108	3.68
320.482	2.86
320.855	3.24
321.229	3.49
321.602	3.58
321.976	3.09
322.349	4.45
322.723	3.94
323.096	3.5
323.469	3.73
323.843	3.58
324.216	3.95
324.589	3.46
324.962	3.72
325.335	3.77
325.708	3.27
326.081	3.67
326.454	3.51
326.827	3.61
327.2	3.43
327.573	3.31
327.945	3.94
328.318	3.12
328.691	3.37
329.063	3.4
329.436	3.73
329.809	3.84
330.181	3.39
330.553	3.7
330.926	3.58
331.298	3.84
331.671	3.49
332.043	3.61
332.415	3.38
332.787	3.33
333.159	3.23
333.532	3
333.904	3.59
334.276	3.24
334.648	3.79
335.02	3.29
335.391	3.86
335.763	3.55
336.135	3.91
336.507	3.3
336.879	3.71
337.25	3.81
337.622	3.55
337.993	3.3
338.365	3.66
338.736	3.61
339.108	3.98
339.479	3.87
339.851	3.04
340.222	3.4
340.593	3.57
340.964	3.42
341.336	3.85
341.707	3.22
342.078	3.79
342.449	3.35
342.82	3.46
343.191	3.7
343.562	3.78
343.933	3.65
344.303	4.01
344.674	3.77
345.045	3.28
345.416	3.3
345.786	3.73
346.157	3.78
346.527	3.67
346.898	4.06
347.268	3.79
347.639	3.86
348.009	3.92
348.38	3.88
348.75	3.56
349.12	3.61
349.49	3.88
349.861	3.41
350.231	4.36
350.601	3.71
350.971	3.59
351.341	3.56
351.711	3.52
352.081	3.7
352.45	3.87
352.82	3.78
353.19	3.43
353.56	3.89
353.929	3.62
354.299	3.92
354.669	3.79
355.038	4.31
355.408	3.93
355.777	3.83
356.147	3.49
356.516	3.38
356.885	3.4
357.254	3.78
357.624	3.66
357.993	3.62
358.362	3.41
358.731	3.8
359.1	3.86
359.469	3.7
359.838	3.94
360.207	3.5
360.576	3.87
360.945	4.17
361.314	4.09
361.682	3.93
362.051	3.6
362.42	3.86
362.788	3.71
363.157	3.8
363.525	3.87
363.894	3.7
364.262	3.84
364.631	3.91
364.999	3.78
365.367	3.75
365.735	3.87
366.104	3.98
366.472	4.04
366.84	3.63
367.208	3.86
367.576	4.01
367.944	3.93
368.312	3.5
368.68	3.69
369.048	3.68
369.416	3.82
369.783	3.6
370.151	3.52
370.519	4.42
370.886	3.67
371.254	4.03
371.621	3.84
371.989	3.59
372.356	3.96
372.724	4.09
373.091	4.11
373.458	3.82
373.826	3.93
374.193	3.71
374.56	3.44
374.927	4.09
375.294	3.87
375.661	4.16
376.028	3.94
376.395	4.14
376.762	4.28
377.129	3.98
377.496	3.76
377.863	4.03
378.229	3.73
378.596	3.81
378.963	3.99
379.329	3.87
379.696	3.95
380.062	4.18
380.429	3.86
380.795	3.76
381.161	3.91
381.528	3.98
381.894	3.74
382.26	4.03
382.626	3.62
382.993	4.12
383.359	4.02
383.725	3.96
384.091	3.76
384.457	3.84
384.823	4.02
385.188	4.13
385.554	3.8
385.92	3.72
386.286	3.89
386.651	3.6
387.017	3.95
387.383	3.93
387.748	3.66
388.114	3.91
388.479	4.46
388.845	3.83
389.21	4.31
389.575	4.3
389.94	4.25
390.306	3.91
390.671	3.86
391.036	3.87
391.401	4.21
391.766	3.97
392.131	4.07
392.496	3.95
392.861	4.07
393.226	3.87
393.591	4.06
393.956	4.27
394.32	3.97
394.685	4.18
395.05	4.22
395.414	3.79
395.779	3.98
396.143	4.11
396.508	4.2
396.872	3.81
397.236	4.11
397.601	3.85
397.965	3.92
398.329	4.01
398.694	4.18
399.058	4.07
399.422	4.02
399.786	3.94
400.15	3.99
400.514	3.93
400.878	4.1
401.242	4.22
401.605	4.02
401.969	4.26
402.333	4.13
402.697	4.05
403.06	4.24
403.424	4.05
403.787	4.01
404.151	4.3
404.514	4.21
404.878	3.92
405.241	4.24
405.604	3.95
405.968	3.88
406.331	4.01
406.694	3.84
407.057	4.18
407.42	3.99
407.783	4.16
408.146	4.08
408.509	3.97
408.872	4.13
409.235	4.22
409.598	4.26
409.961	4.18
410.323	4.04
410.686	4.02
411.049	4.12
411.411	3.96
411.774	4.23
412.136	4.18
412.499	4.27
412.861	4.28
413.223	4.09
413.586	4.08
413.948	4.28
414.31	4
414.672	4.19
415.035	4.41
415.397	4.06
415.759	4.19
416.121	4.04
416.483	4.19
416.845	4.26
417.206	4.17
417.568	4.2
417.93	4.32
418.292	4.19
418.653	4.26
419.015	3.98
419.377	4.12
419.738	4.13
420.1	4.2
420.461	4.27
420.822	4.02
421.184	4.31
421.545	4.04
421.906	4.19
422.267	4
422.629	4.17
422.99	4.01
423.351	3.96
423.712	4.1
424.073	4.24
424.434	4.16
424.795	4.15
425.155	4.19
425.516	4.27
425.877	4.09
426.238	4.06
426.598	4.16
426.959	4.04
427.32	4.17
427.68	4.13
428.041	4.17
428.401	4.1
428.761	4.28
429.122	4.24
429.482	4.35
429.842	4.09
430.202	4.39
430.563	4.3
430.923	4.28
431.283	4.36
431.643	4.39
432.003	4.56
432.363	4.27
432.722	4.15
433.082	4.4
433.442	4.2
433.802	4.13
434.161	4.21
434.521	4.16
434.881	4.3
435.24	4.16
435.6	4.4
435.959	4.21
436.319	4.23
436.678	4.38
437.037	4.3
437.396	4.45
437.756	4.41
438.115	4.31
438.474	4.37
438.833	4.5
439.192	4.34
439.551	4.44
439.91	4.5
440.269	4.39
440.628	4.5
440.987	4.36
441.345	4.39
441.704	4.2
442.063	4.22
442.421	4.35
442.78	4.34
443.138	4.3
443.497	4.25
443.855	4.17
444.214	4.34
444.572	4.29
444.93	4.36
445.288	4.36
445.647	4.21
446.005	4.29
446.363	4.36
446.721	4.24
447.079	4.34
447.437	4.35
447.795	4.31
448.153	4.14
448.51	4.36
448.868	4.31
449.226	4.33
449.584	4.36
449.941	4.36
450.299	4.32
450.656	4.36
451.014	4.44
451.371	4.44
451.729	4.52
452.086	4.35
452.443	4.36
452.801	4.5
453.158	4.51
453.515	4.61
453.872	4.4
454.229	4.47
454.586	4.39
454.943	4.53
455.3	4.4
455.657	4.43
456.014	4.55
456.371	4.52
456.727	4.46
457.084	4.66
457.441	4.44
457.797	4.44
458.154	4.43
458.51	4.46
458.867	4.31
459.223	4.51
459.58	4.72
459.936	4.35
460.292	4.5
460.648	4.59
461.005	4.45
461.361	4.52
461.717	4.38
462.073	4.5
462.429	4.56
462.785	4.48
463.141	4.47
463.496	4.5
463.852	4.67
464.208	4.49
464.564	4.46
464.919	4.74
465.275	4.74
465.631	4.77
465.986	4.67
466.342	4.53
466.697	4.62
467.052	4.6
467.408	4.62
467.763	4.49
468.118	4.75
468.473	4.54
468.829	4.46
469.184	4.58
469.539	4.7
469.894	4.67
470.249	4.5
470.603	4.57
470.958	4.56
471.313	4.62
471.668	4.47
472.023	4.48
472.377	4.71
472.732	4.69
473.086	4.73
473.441	4.67
473.795	4.67
474.15	4.76
474.504	4.73
474.859	4.53
475.213	4.66
475.567	4.53
475.921	4.6
476.275	4.76
476.63	4.56
476.984	4.7
477.338	4.63
477.692	4.82
478.045	4.75
478.399	4.66
478.753	4.7
479.107	4.69
479.461	4.81
479.814	4.7
480.168	4.78
480.521	4.59
480.875	4.72
481.228	4.68
481.582	4.77
481.935	4.57
482.289	4.6
482.642	4.74
482.995	4.59
483.348	4.68
483.701	4.71
484.055	4.67
484.408	4.66
484.761	4.57
485.114	4.55
485.466	4.47
485.819	4.41
486.172	4.44
486.525	4.51
486.878	4.58
487.23	4.57
487.583	4.61
487.936	4.7
488.288	4.68
488.641	4.62
488.993	4.61
489.345	4.53
489.698	4.54
490.05	4.59
490.402	4.57
490.754	4.65
491.107	4.66
491.459	4.76
491.811	4.74
492.163	4.79
492.515	4.79
492.866	4.64
493.218	4.7
493.57	4.61
493.922	4.7
494.274	4.63
494.625	4.71
494.977	4.78
495.328	4.93
495.68	4.76
496.031	4.82
496.383	4.92
496.734	4.85
497.086	4.94
497.437	5.04
497.788	4.9
498.139	4.8
498.49	4.84
498.842	4.95
499.193	4.97
499.544	4.95
499.894	4.84
500.245	4.95
500.596	4.84
500.947	4.88
501.298	4.85
501.648	4.89
501.999	5.16
502.35	4.94
502.7	4.93
503.051	5.02
503.401	5.05
503.752	5.07
504.102	5.01
504.452	5.02
504.803	5.1
505.153	5.13
505.503	5
505.853	5.1
506.203	5.1
506.553	5.03
506.903	5.15
507.253	5.04
507.603	5
507.953	5.15
508.303	5
508.652	5.1
509.002	5.19
509.352	5.18
509.701	5.03
510.051	5.1
510.4	5.13
510.75	5.12
511.099	5.11
511.449	5
511.798	5.03
512.147	5.17
512.496	5.11
512.846	5.07
513.195	5.14
513.544	5.07
513.893	5.12
514.242	5.13
514.591	5.12
514.939	5.19
515.288	5.21
515.637	5.16
515.986	5.23
516.334	5.22
516.683	5.21
517.032	5.27
517.38	5.29
517.729	5.34
518.077	5.25
518.426	5.21
518.774	5.2
519.122	5.2
519.47	5.23
519.819	5.21
520.167	5.24
520.515	5.18
520.863	5.17
521.211	5.23
521.559	5.28
521.907	5.25
522.255	5.36
522.602	5.35
522.95	5.33
523.298	5.39
523.645	5.44
523.993	5.35
524.341	5.34
524.688	5.43
525.036	5.4
525.383	5.45
525.73	5.45
526.078	5.42
526.425	5.45
526.772	5.37
527.119	5.3
527.466	5.39
527.814	5.29
528.161	5.37
528.508	5.38
528.854	5.37
529.201	5.35
529.548	5.35
529.895	5.25
530.242	5.23
530.588	5.19
530.935	5.22
531.282	5.37
531.628	5.29
531.975	5.4
532.321	5.42
532.667	5.49
533.014	5.47
533.36	5.54
533.706	5.58
534.052	5.5
534.399	5.48
534.745	5.51
535.091	5.43
535.437	5.43
535.783	5.47
536.129	5.58
536.474	5.56
536.82	5.62
537.166	5.68
537.512	5.68
537.857	5.68
538.203	5.59
538.549	5.63
538.894	5.71
539.239	5.68
539.585	5.65
539.93	5.74
540.276	5.69
540.621	5.69
540.966	5.77
541.311	5.66
541.656	5.86
542.001	5.87
542.346	5.76
542.691	5.77
543.036	5.56
543.381	5.63
543.726	5.66
544.071	5.72
544.415	5.77
544.76	5.81
545.105	5.83
545.449	5.87
545.794	5.94
546.138	5.81
546.483	5.91
546.827	6
547.171	6.11
547.516	6.08
547.86	6.06
548.204	6.07
548.548	5.98
548.892	5.9
549.236	5.96
549.58	6.01
549.924	6
550.268	6.13
550.612	6.09
550.956	6.22
551.3	6.19
551.643	6.2
551.987	6.2
552.33	6.23
552.674	6.2
553.017	6.3
553.361	6.48
553.704	6.3
554.048	6.21
554.391	6.23
554.734	6.39
555.077	6.32
555.42	6.54
555.764	6.65
556.107	6.55
556.45	6.48
556.793	6.58
557.135	6.4
557.478	6.36
557.821	6.62
558.164	6.51
558.507	6.52
558.849	6.58
559.192	6.62
559.534	6.49
559.877	6.79
560.219	6.56
560.562	6.69
560.904	6.66
561.246	6.71
561.589	6.72
561.931	6.64
562.273	6.9
562.615	6.52
562.957	6.87
563.299	6.81
563.641	6.74
563.983	6.89
564.325	6.71
564.667	6.76
565.008	6.65
565.35	6.93
565.692	7.03
566.033	7.03
566.375	6.77
566.716	7.03
567.058	6.91
567.399	6.9
567.741	7.19
568.082	6.9
568.423	6.87
568.764	6.94
569.105	7.06
569.447	6.88
569.788	6.97
570.129	7.08
570.47	7.09
570.811	7.16
571.151	7.28
571.492	7.22
571.833	7.22
572.174	7.11
572.514	7.16
572.855	7.17
573.195	7.3
573.536	7.16
573.876	7.11
574.217	7.13
574.557	7.16
574.898	7.33
575.238	7.2
575.578	7.48
575.918	7.41
576.258	7.44
576.598	7.5
576.938	7.6
577.278	7.3
577.618	7.18
577.958	7.51
578.298	7.46
578.638	7.48
578.977	7.6
579.317	7.68
579.657	7.59
579.996	7.81
580.336	7.61
580.675	7.42
581.014	7.86
581.354	7.74
581.693	7.91
582.032	7.78
582.372	7.85
582.711	7.83
583.05	7.92
583.389	7.83
583.728	7.77
584.067	7.93
584.406	7.75
584.745	8.1
585.083	7.96
585.422	7.89
585.761	8.13
586.1	8.02
586.438	7.9
586.777	8.07
587.115	8.05
587.454	8.37
587.792	8.37
588.13	8.39
588.469	8.28
588.807	8.55
589.145	8.28
589.483	7.96
589.821	8.39
590.159	8.22
590.497	8.47
590.835	8.4
591.173	8.11
591.511	8.5
591.849	8.28
592.187	8.19
592.524	8.54
592.862	8.16
593.2	8.46
593.537	8.42
593.875	8.35
594.212	8.56
594.55	8.6
594.887	8.65
595.224	8.76
595.561	8.23
595.899	8.46
596.236	8.73
596.573	8.72
596.91	8.88
597.247	8.53
597.584	8.56
597.921	9.08
598.258	8.82
598.594	8.56
598.931	8.81
599.268	8.95
599.604	8.87
599.941	8.9
600.277	8.99
600.614	9.19
600.95	8.97
601.287	9.12
601.623	9.02
601.959	8.77
602.296	9
602.632	9.29
602.968	9.35
603.304	9.27
603.64	9.18
603.976	9.08
604.312	9.13
604.648	9.43
604.984	9.14
605.319	9.24
605.655	9.08
605.991	9.36
606.326	9.1
606.662	9.17
606.998	9.12
607.333	9.19
607.668	9.48
608.004	9.37
608.339	9.38
608.674	9.64
609.01	9.54
609.345	9.59
609.68	9.59
610.015	9.62
610.35	9.62
610.685	9.82
611.02	9.61
611.355	9.79
611.689	9.9
612.024	9.52
612.359	9.87
612.694	9.73
613.028	9.95
613.363	10.02
613.697	9.59
614.032	10
614.366	9.93
614.7	9.79
615.035	9.99
615.369	10.05
615.703	10.25
616.037	9.88
616.371	10.27
616.705	10.22
617.039	10.47
617.373	10.07
617.707	10.35
618.041	10.36
618.375	10.27
618.709	10.24
619.042	10.33
619.376	10.57
619.71	10.63
620.043	10.88
620.377	10.52
620.71	10.4
621.043	10.47
621.377	10.52
621.71	10.48
622.043	10.88
622.376	10.66
622.709	10.88
623.043	10.47
623.376	11.18
623.709	10.64
624.041	10.96
624.374	10.68
624.707	10.36
625.04	10.98
625.373	10.79
625.705	10.78
626.038	10.69
626.37	10.75
626.703	11.22
627.035	10.91
627.368	10.89
627.7	10.74
628.032	10.89
628.365	11.34
628.697	11.1
629.029	11.11
629.361	11.06
629.693	11.15
630.025	11.28
630.357	11.28
630.689	11.2
631.021	11.21
631.353	11.29
631.684	11.48
632.016	11.28
632.348	11.46
632.679	11.36
633.011	11.43
633.342	11.33
633.674	11
634.005	11.42
634.336	11.45
634.668	11.83
634.999	11.87
635.33	11.41
635.661	11.67
635.992	11.91
636.323	11.68
636.654	11.54
636.985	11.79
637.316	11.81
637.647	11.67
637.977	11.81
638.308	11.93
638.639	12.05
638.969	11.75
639.3	11.94
639.63	11.74
639.961	12.11
640.291	12.14
640.622	12.16
640.952	12.3
641.282	12.13
641.612	12.34
641.943	12.36
642.273	11.88
642.603	12.08
642.933	12.25
643.263	12.39
643.592	12.54
643.922	12.6
644.252	12.39
644.582	12.1
644.911	12.36
645.241	12.29
645.571	12.26
645.9	12.84
646.23	12.68
646.559	12.94
646.888	13.12
647.218	12.9
647.547	12.78
647.876	12.73
648.205	12.73
648.534	12.49
648.863	12.69
649.192	13.17
649.521	12.64
649.85	12.71
650.179	13.1
650.508	12.81
650.837	13.17
651.165	12.94
651.494	13.27
651.822	13.06
652.151	13.19
652.479	12.49
652.808	12.84
653.136	12.77
653.465	13.37
653.793	13.22
654.121	13.38
654.449	13.05
654.777	13.24
655.105	13.05
655.433	13.22
655.761	13.32
656.089	13.3
656.417	13.03
656.745	13.08
657.073	13.75
657.4	13.63
657.728	13.65
658.056	13.21
658.383	13.93
658.711	13.14
659.038	13.96
659.365	14.46
659.693	14.33
660.02	13.9
660.347	13.5
660.674	13.98
661.001	13.77
661.329	13.93
661.656	13.71
661.982	13.58
662.309	13.95
662.636	14.11
662.963	13.72
663.29	13.88
663.616	14.41
663.943	14.3
664.27	14.64
664.596	14.31
664.923	14.07
665.249	14.17
665.576	14.19
665.902	13.68
666.228	13.87
666.554	14.56
666.881	14.1
667.207	14.85
667.533	14.8
667.859	14.79
668.185	14.66
668.511	14.66
668.837	14.39
669.162	14.75
669.488	14.55
669.814	14.4
670.139	14.67
670.465	14.5
670.791	14.45
671.116	14.93
671.442	15.3
671.767	14.88
672.092	14.83
672.418	14.52
672.743	15.14
673.068	14.3
673.393	14.99
673.718	14.96
674.043	14.91
674.368	14.83
674.693	14.92
675.018	15.33
675.343	15.27
675.667	15.43
675.992	15.39
676.317	15.47
676.641	14.91
676.966	14.97
677.29	15.7
677.615	15.66
677.939	15.44
678.264	15.64
678.588	15.16
678.912	16.32
679.236	15.52
679.56	15.39
679.885	15.85
680.209	15.63
680.532	15.44
680.856	15.54
681.18	15.52
681.504	15.86
681.828	15.56
682.152	16.31
682.475	15.76
682.799	15.94
683.122	15.98
683.446	15.67
683.769	15.14
684.093	16.54
684.416	15.06
684.739	15.91
685.062	16.48
685.386	15.61
685.709	16.45
686.032	16.11
686.355	17.23
686.678	16.73
687.001	16.51
687.324	16.27
687.646	16.41
687.969	15.5
688.292	16.35
