Data from 0042_forehead_Reflection__1__101.txt Node

Date: Fri Nov 04 15:38:20 CDT 2022
User: ToomeyLab
Spectrometer: FLMS14357
Trigger mode: 0
Integration Time (sec): 1.000000E-2
Scans to average: 100
Electric dark correction enabled: true
Nonlinearity correction enabled: false
Boxcar width: 0
XAxis mode: Wavelengths
Number of Pixels in Spectrum: 2048
>>>>>Begin Spectral Data<<<<<
189.047	103.37
189.435	103.37
189.823	103.37
190.211	113.59
190.599	70.55
190.987	95.26
191.375	-543.74
191.763	-1.5
192.151	1469.66
192.538	21
192.926	117.53
193.314	38.61
193.702	38.2
194.089	84.99
194.477	-205.79
194.864	703.45
195.252	127.89
195.639	79.87
196.027	126.54
196.414	44.08
196.801	65.65
197.189	-258.76
197.576	66.12
197.963	55.34
198.351	20.3
198.738	27.27
199.125	32.23
199.512	0.04
199.899	11.24
200.286	38.15
200.673	-15.98
201.06	-10.62
201.447	-21.76
201.833	22.18
202.22	29.31
202.607	23.79
202.994	55.2
203.38	47.7
203.767	38.48
204.154	13.75
204.54	-11.48
204.927	27.69
205.313	33.47
205.699	19.62
206.086	19.44
206.472	12.56
206.858	-7.55
207.245	36.4
207.631	-6.99
208.017	3.31
208.403	19.36
208.789	52.96
209.175	13.86
209.561	-18.08
209.947	-70.06
210.333	28.27
210.719	19.34
211.105	-55.21
211.491	24.23
211.876	24.45
212.262	-26.27
212.648	31.5
213.034	41.32
213.419	-1.16
213.805	-9.05
214.19	-28.83
214.576	9.57
214.961	27.92
215.346	49.75
215.732	28.37
216.117	10
216.502	31.63
216.888	6.29
217.273	14.77
217.658	5.17
218.043	-8.07
218.428	27.18
218.813	-3.4
219.198	13.12
219.583	-32.07
219.968	19.07
220.353	-4.78
220.738	-29.19
221.122	5.24
221.507	11.99
221.892	-8.19
222.276	4.28
222.661	-4.01
223.046	4.7
223.43	-6.6
223.815	3.96
224.199	13.02
224.583	-3.26
224.968	2.61
225.352	0.5
225.736	-5.23
226.121	-3.53
226.505	6.72
226.889	2.28
227.273	6.61
227.657	7.84
228.041	4.85
228.425	6.75
228.809	4.8
229.193	2.58
229.577	3.16
229.961	5.5
230.344	4.42
230.728	3.46
231.112	3.2
231.495	3.88
231.879	3.49
232.263	3.28
232.646	3.74
233.03	2.59
233.413	1.64
233.797	2
234.18	2.66
234.563	3.12
234.946	3.58
235.33	4.46
235.713	3.61
236.096	3.82
236.479	2.12
236.862	2.97
237.245	4.25
237.628	3.24
238.011	2.45
238.394	4.12
238.777	2.92
239.16	4.6
239.543	5.17
239.925	3.48
240.308	5.78
240.691	3.49
241.073	3.54
241.456	2.91
241.838	2.36
242.221	4.06
242.603	4.02
242.986	3.03
243.368	4.1
243.75	3.46
244.133	3.56
244.515	3.87
244.897	3.7
245.279	4.01
245.661	3.68
246.043	3.78
246.425	3.96
246.807	4.75
247.189	3.6
247.571	4.32
247.953	3.84
248.335	3.89
248.717	3.65
249.098	3.71
249.48	3.66
249.862	3.93
250.243	3.69
250.625	3.24
251.006	3.48
251.388	3.85
251.769	4.61
252.151	4.95
252.532	3.15
252.913	3.75
253.295	3.98
253.676	3.92
254.057	3.53
254.438	4.24
254.819	4.51
255.2	3.82
255.581	4.9
255.962	4.2
256.343	3.08
256.724	4.4
257.105	3.63
257.486	4.47
257.867	6.1
258.247	4.5
258.628	3.4
259.009	2.85
259.389	4.51
259.77	4.04
260.15	4.3
260.531	3.97
260.911	3.31
261.292	3.67
261.672	3.59
262.052	3.69
262.432	3.68
262.813	3.55
263.193	3.01
263.573	3.74
263.953	3.6
264.333	4.14
264.713	4.38
265.093	3.82
265.473	4.53
265.853	3.26
266.233	3.47
266.612	4.1
266.992	3.84
267.372	2.57
267.752	4.16
268.131	4.06
268.511	3.91
268.89	4.26
269.27	3.94
269.649	3.42
270.029	3.75
270.408	3.75
270.787	4.23
271.167	4.06
271.546	4.02
271.925	3.66
272.304	3.66
272.683	3.61
273.062	3.67
273.441	3.47
273.82	3.39
274.199	3.56
274.578	3.32
274.957	3.72
275.336	3.29
275.715	3.67
276.093	3.92
276.472	3.65
276.851	3.25
277.229	3.49
277.608	3.58
277.986	3.8
278.365	4.15
278.743	4.19
279.122	3.63
279.5	3.78
279.878	3.74
280.257	3.08
280.635	3.57
281.013	3.84
281.391	4.2
281.769	4.08
282.147	3.35
282.525	3.96
282.903	3.91
283.281	4.52
283.659	4.02
284.037	3.64
284.415	3.54
284.792	3.82
285.17	4.23
285.548	3.63
285.925	3.85
286.303	4.03
286.68	4.01
287.058	3.74
287.435	3.5
287.813	3.43
288.19	3.55
288.567	3.25
288.945	3.72
289.322	4.06
289.699	3.98
290.076	3.97
290.453	3.69
290.83	3.8
291.207	3.81
291.584	3.91
291.961	4.25
292.338	4.05
292.715	4.12
293.092	4.15
293.469	4.23
293.845	3.89
294.222	3.92
294.599	4.12
294.975	3.84
295.352	4.01
295.728	4.06
296.105	4.15
296.481	4.32
296.858	4.43
297.234	4.33
297.61	4.74
297.986	4.1
298.363	4.15
298.739	4.27
299.115	4.4
299.491	4.3
299.867	4.29
300.243	4.35
300.619	4.67
300.995	5.19
301.371	4.5
301.746	4.79
302.122	4.53
302.498	4.24
302.874	5.07
303.249	4.29
303.625	4.58
304	4.82
304.376	4.27
304.751	4.75
305.127	4.59
305.502	4.48
305.878	5.38
306.253	4.64
306.628	4.43
307.003	5.41
307.378	5.09
307.754	4.99
308.129	4.61
308.504	4.83
308.879	5.34
309.254	5
309.629	5.22
310.003	5.58
310.378	5.3
310.753	5.64
311.128	5.01
311.502	5.24
311.877	5.69
312.252	5.54
312.626	5.26
313.001	5.44
313.375	5.54
313.75	5.31
314.124	5.02
314.498	5.14
314.873	5.51
315.247	5.54
315.621	5.75
315.995	6.42
316.369	5.74
316.743	6.16
317.117	6.27
317.491	6.12
317.865	5.27
318.239	6.07
318.613	6.41
318.987	6.11
319.361	6.2
319.734	6.58
320.108	5.96
320.482	5.78
320.855	6.66
321.229	6.24
321.602	5.96
321.976	5.82
322.349	7.18
322.723	6.14
323.096	6.22
323.469	6.17
323.843	6.16
324.216	6.73
324.589	6.27
324.962	6.69
325.335	6.64
325.708	6.4
326.081	6.31
326.454	6.71
326.827	6.6
327.2	6.32
327.573	6.55
327.945	7.19
328.318	6.43
328.691	6.44
329.063	6.72
329.436	6.8
329.809	7.02
330.181	6.85
330.553	6.66
330.926	7.28
331.298	7.16
331.671	6.4
332.043	7.17
332.415	6.95
332.787	7.05
333.159	6.85
333.532	6.79
333.904	7.24
334.276	7.38
334.648	7.03
335.02	6.76
335.391	7.36
335.763	7.35
336.135	7.12
336.507	7.26
336.879	7.45
337.25	7.31
337.622	7.63
337.993	7.38
338.365	7.24
338.736	7.76
339.108	7.64
339.479	7.59
339.851	7.45
340.222	7.45
340.593	7.63
340.964	7.83
341.336	7.38
341.707	7.58
342.078	8.13
342.449	7.8
342.82	8.26
343.191	7.96
343.562	8.17
343.933	8.06
344.303	8.06
344.674	8.14
345.045	8.05
345.416	7.7
345.786	8.18
346.157	8.32
346.527	8.28
346.898	8.54
347.268	7.99
347.639	7.78
348.009	8.45
348.38	8.58
348.75	8.26
349.12	7.74
349.49	8.62
349.861	8.04
350.231	8.66
350.601	8.96
350.971	8.47
351.341	8.6
351.711	8.56
352.081	8.51
352.45	8.77
352.82	8.7
353.19	8.73
353.56	9.14
353.929	8.55
354.299	9.16
354.669	8.98
355.038	9.12
355.408	8.58
355.777	9.18
356.147	8.64
356.516	8.91
356.885	8.77
357.254	9.39
357.624	9.22
357.993	9.42
358.362	8.94
358.731	9.26
359.1	9.42
359.469	9.24
359.838	9.4
360.207	9.35
360.576	9.68
360.945	9.67
361.314	9.68
361.682	9.67
362.051	9.52
362.42	9.61
362.788	9.45
363.157	9.8
363.525	9.74
363.894	9.38
364.262	9.71
364.631	9.83
364.999	9.69
365.367	9.56
365.735	10.18
366.104	9.85
366.472	10.21
366.84	9.99
367.208	10.3
367.576	9.78
367.944	10.21
368.312	10.08
368.68	10.04
369.048	10.36
369.416	10.45
369.783	10.32
370.151	10.42
370.519	10.94
370.886	10.39
371.254	10.47
371.621	10.42
371.989	10.49
372.356	10.61
372.724	10.85
373.091	10.77
373.458	11.12
373.826	10.59
374.193	10.69
374.56	10.92
374.927	11.36
375.294	10.55
375.661	11.3
376.028	11
376.395	11.02
376.762	11.21
377.129	11.29
377.496	11.32
377.863	11.18
378.229	11.13
378.596	11.3
378.963	11.14
379.329	11.12
379.696	11.28
380.062	11.49
380.429	11.49
380.795	11.4
381.161	11.74
381.528	11.76
381.894	11.48
382.26	11.88
382.626	11.55
382.993	11.82
383.359	11.89
383.725	12.05
384.091	11.91
384.457	12.07
384.823	11.82
385.188	11.95
385.554	12.12
385.92	12.05
386.286	11.96
386.651	12.19
387.017	11.99
387.383	12.23
387.748	12.01
388.114	12.3
388.479	12.89
388.845	12.35
389.21	12.87
389.575	12.58
389.94	12.64
390.306	12.85
390.671	12.5
391.036	12.5
391.401	12.71
391.766	12.54
392.131	12.71
392.496	12.8
392.861	13.01
393.226	12.83
393.591	12.91
393.956	13.14
394.32	12.93
394.685	13.38
395.05	13.34
395.414	13.31
395.779	13.14
396.143	12.94
396.508	13.25
396.872	13.53
397.236	13.38
397.601	13.28
397.965	13.67
398.329	13.51
398.694	13.68
399.058	13.5
399.422	13.78
399.786	13.37
400.15	13.64
400.514	13.75
400.878	13.72
401.242	14.06
401.605	13.8
401.969	14.04
402.333	14.11
402.697	14.09
403.06	14.19
403.424	13.9
403.787	14.19
404.151	14.32
404.514	14.22
404.878	14.27
405.241	14.27
405.604	14.26
405.968	14.18
406.331	14.13
406.694	14.16
407.057	14.43
407.42	14.42
407.783	14.44
408.146	14.57
408.509	14.5
408.872	14.82
409.235	14.7
409.598	14.8
409.961	15.02
410.323	14.7
410.686	14.86
411.049	15.11
411.411	14.73
411.774	14.9
412.136	14.9
412.499	15.06
412.861	15.09
413.223	15.11
413.586	15.17
413.948	15.51
414.31	15.35
414.672	15.43
415.035	15.56
415.397	15.38
415.759	15.6
416.121	15.33
416.483	15.55
416.845	15.57
417.206	15.47
417.568	15.57
417.93	15.62
418.292	15.57
418.653	15.6
419.015	15.55
419.377	15.62
419.738	15.46
420.1	15.65
420.461	15.72
420.822	15.5
421.184	15.74
421.545	15.65
421.906	15.78
422.267	15.68
422.629	15.78
422.99	15.61
423.351	15.71
423.712	15.79
424.073	15.91
424.434	16.03
424.795	16.09
425.155	16.11
425.516	15.97
425.877	16.04
426.238	16.01
426.598	16.17
426.959	16.08
427.32	16.25
427.68	16.32
428.041	16.42
428.401	16.6
428.761	16.56
429.122	16.55
429.482	16.79
429.842	16.72
430.202	16.94
430.563	16.83
430.923	17.29
431.283	16.94
431.643	16.99
432.003	17.42
432.363	17.36
432.722	17.27
433.082	17.26
433.442	17.34
433.802	17.19
434.161	17.28
434.521	17.36
434.881	17.24
435.24	17.28
435.6	17.57
435.959	17.39
436.319	17.55
436.678	17.54
437.037	17.64
437.396	17.91
437.756	17.79
438.115	17.78
438.474	17.99
438.833	17.9
439.192	17.77
439.551	18.05
439.91	18.21
440.269	18.09
440.628	18.09
440.987	18.06
441.345	18.03
441.704	18.04
442.063	18.04
442.421	18
442.78	18.13
443.138	18.01
443.497	18.06
443.855	18.2
444.214	18.36
444.572	18.32
444.93	18.46
445.288	18.5
445.647	18.43
446.005	18.59
446.363	18.53
446.721	18.58
447.079	18.52
447.437	18.66
447.795	18.3
448.153	18.44
448.51	18.54
448.868	18.52
449.226	18.57
449.584	18.64
449.941	18.7
450.299	18.89
450.656	19.07
451.014	19.1
451.371	19.25
451.729	19.37
452.086	19.22
452.443	19.37
452.801	19.43
453.158	19.42
453.515	19.49
453.872	19.3
454.229	19.55
454.586	19.5
454.943	19.68
455.3	19.81
455.657	19.75
456.014	19.91
456.371	19.84
456.727	20.02
457.084	19.85
457.441	20.08
457.797	19.98
458.154	20.13
458.51	20.24
458.867	20.23
459.223	20.33
459.58	20.25
459.936	20.41
460.292	19.93
460.648	20.25
461.005	19.97
461.361	20.03
461.717	19.96
462.073	19.92
462.429	20.15
462.785	20.16
463.141	20.33
463.496	20.39
463.852	20.71
464.208	20.69
464.564	20.76
464.919	21.05
465.275	20.88
465.631	21.11
465.986	20.98
466.342	21.03
466.697	20.94
467.052	20.76
467.408	21.2
467.763	21.18
468.118	21.33
468.473	21.22
468.829	21.13
469.184	21.25
469.539	21.4
469.894	21.29
470.249	21.58
470.603	21.56
470.958	21.52
471.313	21.5
471.668	21.61
472.023	21.62
472.377	21.76
472.732	21.83
473.086	21.94
473.441	21.92
473.795	22.03
474.15	21.95
474.504	21.98
474.859	21.85
475.213	21.92
475.567	21.88
475.921	22.07
476.275	22.01
476.63	22.12
476.984	22.23
477.338	22.24
477.692	22.33
478.045	22.29
478.399	22.33
478.753	22.36
479.107	22.43
479.461	22.4
479.814	22.37
480.168	22.56
480.521	22.36
480.875	22.42
481.228	22.56
481.582	22.64
481.935	22.58
482.289	22.71
482.642	22.79
482.995	22.67
483.348	22.61
483.701	22.42
484.055	22.34
484.408	22.45
484.761	22.15
485.114	21.96
485.466	21.75
485.819	21.62
486.172	21.76
486.525	21.93
486.878	22.09
487.23	22.22
487.583	22.43
487.936	22.54
488.288	22.67
488.641	22.47
488.993	22.33
489.345	22.26
489.698	22.31
490.05	22.44
490.402	22.33
490.754	22.58
491.107	22.8
491.459	23.04
491.811	23.11
492.163	23.31
492.515	23.31
492.866	23.09
493.218	22.94
493.57	22.75
493.922	22.91
494.274	22.91
494.625	23.21
494.977	23.44
495.328	23.6
495.68	23.79
496.031	24.01
496.383	24.13
496.734	24.12
497.086	24.41
497.437	24.42
497.788	24.28
498.139	24.2
498.49	24.17
498.842	24.13
499.193	24.21
499.544	24.31
499.894	24.25
500.245	24.41
500.596	24.51
500.947	24.43
501.298	24.55
501.648	24.67
501.999	24.89
502.35	24.84
502.7	24.73
503.051	25.04
503.401	25.05
503.752	25.08
504.102	25.16
504.452	25.11
504.803	25.14
505.153	25.09
505.503	25.24
505.853	25.28
506.203	25.31
506.553	25.33
506.903	25.36
507.253	25.4
507.603	25.18
507.953	25.38
508.303	25.49
508.652	25.52
509.002	25.58
509.352	25.71
509.701	25.59
510.051	25.43
510.4	25.56
510.75	25.59
511.099	25.66
511.449	25.68
511.798	25.62
512.147	25.68
512.496	25.76
512.846	25.7
513.195	25.88
513.544	25.67
513.893	25.77
514.242	25.83
514.591	25.86
514.939	26
515.288	26.03
515.637	26.21
515.986	26.14
516.334	26.26
516.683	26.3
517.032	26.4
517.38	26.28
517.729	26.31
518.077	26.43
518.426	26.3
518.774	26.46
519.122	26.42
519.47	26.2
519.819	26.08
520.167	26.07
520.515	26.1
520.863	25.94
521.211	26.1
521.559	26.4
521.907	26.42
522.255	26.5
522.602	26.73
522.95	26.81
523.298	26.88
523.645	26.67
523.993	27.1
524.341	27.04
524.688	27.17
525.036	27.21
525.383	27.22
525.73	27.29
526.078	27.05
526.425	26.93
526.772	27.04
527.119	26.78
527.466	26.89
527.814	26.67
528.161	26.85
528.508	26.83
528.854	26.8
529.201	26.9
529.548	26.92
529.895	26.56
530.242	26.27
530.588	26.33
530.935	26.52
531.282	26.57
531.628	26.58
531.975	26.91
532.321	27
532.667	27.15
533.014	27.24
533.36	27.38
533.706	27.43
534.052	27.39
534.399	27.36
534.745	27.34
535.091	27.06
535.437	27.18
535.783	27.14
536.129	27.32
536.474	27.48
536.82	27.61
537.166	27.83
537.512	27.89
537.857	27.92
538.203	27.88
538.549	27.69
538.894	27.89
539.239	27.94
539.585	27.94
539.93	28.1
540.276	28.31
540.621	28.39
540.966	28.59
541.311	28.63
541.656	28.67
542.001	28.57
542.346	28.32
542.691	28.13
543.036	27.77
543.381	27.82
543.726	27.82
544.071	27.99
544.415	28.15
544.76	28.19
545.105	28.34
545.449	28.52
545.794	28.48
546.138	28.59
546.483	28.76
546.827	28.81
547.171	29.16
547.516	28.93
547.86	29.27
548.204	29.09
548.548	28.94
548.892	29.03
549.236	29.02
549.58	29.17
549.924	29.35
550.268	29.58
550.612	29.53
550.956	29.63
551.3	29.8
551.643	29.69
551.987	29.97
552.33	30.03
552.674	29.95
553.017	30.17
553.361	30.16
553.704	29.97
554.048	29.94
554.391	30.07
554.734	30.17
555.077	30.05
555.42	30.05
555.764	30.4
556.107	30.3
556.45	30.27
556.793	30.36
557.135	30.45
557.478	30.33
557.821	30.56
558.164	30.65
558.507	30.54
558.849	30.85
559.192	30.86
559.534	30.66
559.877	30.83
560.219	30.86
560.562	30.98
560.904	31.13
561.246	30.86
561.589	30.85
561.931	30.91
562.273	31.01
562.615	30.85
562.957	31.07
563.299	31.22
563.641	30.89
563.983	31.31
564.325	31.1
564.667	31.1
565.008	31.31
565.35	31.1
565.692	31.44
566.033	31.36
566.375	31.15
566.716	31.4
567.058	31.3
567.399	31.44
567.741	31.39
568.082	31.18
568.423	30.98
568.764	31.23
569.105	31.41
569.447	31.56
569.788	31.32
570.129	31.61
570.47	31.94
570.811	31.63
571.151	31.65
571.492	31.62
571.833	31.66
572.174	31.96
572.514	31.66
572.855	31.47
573.195	31.78
573.536	31.79
573.876	31.59
574.217	31.73
574.557	31.71
574.898	31.7
575.238	31.86
575.578	31.95
575.918	31.93
576.258	32.07
576.598	32.01
576.938	32.05
577.278	32
577.618	32.03
577.958	31.95
578.298	32.41
578.638	32.35
578.977	32.54
579.317	32.54
579.657	32.39
579.996	32.51
580.336	32.47
580.675	32.57
581.014	32.86
581.354	32.89
581.693	33.04
582.032	32.92
582.372	33.19
582.711	33.11
583.05	33.13
583.389	33.19
583.728	33.08
584.067	33.1
584.406	32.98
584.745	33.09
585.083	33.15
585.422	33.06
585.761	33.27
586.1	33.46
586.438	33.2
586.777	33.17
587.115	33.31
587.454	33.43
587.792	33.54
588.13	33.32
588.469	33.31
588.807	33.75
589.145	33.64
589.483	33.41
589.821	33.56
590.159	33.63
590.497	33.83
590.835	33.49
591.173	33.4
591.511	33.7
591.849	34.04
592.187	33.66
592.524	33.94
592.862	33.85
593.2	34.02
593.537	33.95
593.875	33.91
594.212	34.19
594.55	33.84
594.887	34.01
595.224	33.96
595.561	33.77
595.899	33.99
596.236	34.29
596.573	34.04
596.91	34.2
597.247	34.08
597.584	33.83
597.921	34.04
598.258	33.97
598.594	33.87
598.931	34.01
599.268	33.89
599.604	33.81
599.941	34.21
600.277	34
600.614	34.3
600.95	34.47
601.287	34.2
601.623	34.38
601.959	34.5
602.296	34.54
602.632	34.58
602.968	34.7
603.304	34.78
603.64	34.7
603.976	34.75
604.312	34.88
604.648	34.83
604.984	34.56
605.319	34.25
605.655	34.67
605.991	34.76
606.326	34.56
606.662	34.46
606.998	34.64
607.333	34.6
607.668	34.74
608.004	34.75
608.339	35.16
608.674	34.53
609.01	35.04
609.345	35.31
609.68	35.11
610.015	35.1
610.35	35.06
610.685	35.43
611.02	35.47
611.355	35
611.689	35.11
612.024	35.22
612.359	35.28
612.694	35.21
613.028	35.33
613.363	35.48
613.697	35.39
614.032	35.49
614.366	35.25
614.7	35.53
615.035	35.84
615.369	35.74
615.703	35.91
616.037	35.76
616.371	36.36
616.705	35.93
617.039	36.37
617.373	35.97
617.707	36.59
618.041	35.87
618.375	35.99
618.709	36.43
619.042	35.95
619.376	35.88
619.71	36.17
620.043	36.41
620.377	36.65
620.71	36.32
621.043	36.34
621.377	36.29
621.71	36.45
622.043	36.14
622.376	36.45
622.709	36.53
623.043	36.31
623.376	36.89
623.709	36.18
624.041	36.55
624.374	36.55
624.707	36.05
625.04	36.67
625.373	36.78
625.705	36.56
626.038	36.63
626.37	36.95
626.703	36.79
627.035	36.59
627.368	36.92
627.7	36.79
628.032	36.6
628.365	36.78
628.697	36.84
629.029	36.74
629.361	36.4
629.693	36.74
630.025	37.13
630.357	36.99
630.689	37.28
631.021	36.93
631.353	37.19
631.684	37.15
632.016	37.06
632.348	37.5
632.679	37.21
633.011	37.13
633.342	37
633.674	37.22
634.005	37.19
634.336	37.31
634.668	37.43
634.999	37.28
635.33	36.93
635.661	37.51
635.992	37.36
636.323	36.99
636.654	37.52
636.985	37.6
637.316	37.15
637.647	37.79
637.977	37.46
638.308	37.85
638.639	37.86
638.969	37.73
639.3	37.7
639.63	37.83
639.961	37.84
640.291	37.85
640.622	37.78
640.952	37.57
641.282	38.43
641.612	37.4
641.943	38.13
642.273	37.98
642.603	37.91
642.933	38.38
643.263	37.73
643.592	38.2
643.922	37.96
644.252	37.99
644.582	38.47
644.911	37.68
645.241	38.16
645.571	38.4
645.9	38.07
646.23	38.36
646.559	38.39
646.888	38.36
647.218	38.49
647.547	38.12
647.876	38.54
648.205	38.66
648.534	38.54
648.863	38.72
649.192	38.43
649.521	38.4
649.85	38.92
650.179	38.35
650.508	38.14
650.837	38.31
651.165	39.15
651.494	39.12
651.822	39.12
652.151	39.11
652.479	38.23
652.808	38.29
653.136	38.59
653.465	38.57
653.793	38.78
654.121	38.92
654.449	38.65
654.777	38.46
655.105	38.86
655.433	38.42
655.761	39.2
656.089	38.78
656.417	38.78
656.745	38.96
657.073	39.02
657.4	39.45
657.728	39.29
658.056	39.05
658.383	39.55
658.711	39.26
659.038	39.32
659.365	39.56
659.693	39.72
660.02	39.74
660.347	39.2
660.674	39.73
661.001	39.23
661.329	39.09
661.656	39.1
661.982	38.69
662.309	39.78
662.636	39.45
662.963	38.99
663.29	39.34
663.616	40.01
663.943	39.78
664.27	40.12
664.596	39.6
664.923	39.34
665.249	40.32
665.576	40.29
665.902	39.8
666.228	39.53
666.554	40.38
666.881	39.75
667.207	39.99
667.533	40.71
667.859	39.5
668.185	39.82
668.511	39.86
668.837	39.46
669.162	39.68
669.488	39.45
669.814	39.23
670.139	39.96
670.465	39.64
670.791	40.48
671.116	40.19
671.442	40.26
671.767	40.03
672.092	39.52
672.418	40.29
