Data from 0042_chest_Reflection__0__90.txt Node

Date: Fri Nov 04 15:32:24 CDT 2022
User: ToomeyLab
Spectrometer: FLMS14357
Trigger mode: 0
Integration Time (sec): 1.000000E-2
Scans to average: 100
Electric dark correction enabled: true
Nonlinearity correction enabled: false
Boxcar width: 0
XAxis mode: Wavelengths
Number of Pixels in Spectrum: 2048
>>>>>Begin Spectral Data<<<<<
189.047	175.89
189.435	175.89
189.823	175.89
190.211	53.09
190.599	-6.38
190.987	-95.63
191.375	-78.5
191.763	207.86
192.151	2892.13
192.538	-27.05
192.926	33.88
193.314	24.52
193.702	71.24
194.089	37.2
194.477	-132.96
194.864	200.73
195.252	88.06
195.639	30.39
196.027	46.63
196.414	-46.57
196.801	81.87
197.189	-31.36
197.576	68.3
197.963	45.11
198.351	0.02
198.738	-11.73
199.125	14.1
199.512	-37.42
199.899	-68.07
200.286	-56.51
200.673	-34.27
201.06	-20.25
201.447	-75.45
201.833	8.29
202.22	-25.65
202.607	-36.36
202.994	16.85
203.38	0.19
203.767	22.54
204.154	26.73
204.54	-52.43
204.927	-6.42
205.313	11.1
205.699	44.36
206.086	-3.63
206.472	-64.7
206.858	-27.64
207.245	-8.64
207.631	-15.16
208.017	-45.11
208.403	-4.21
208.789	13.91
209.175	-7.8
209.561	-85.04
209.947	-104.1
210.333	5.95
210.719	-0.71
211.105	-62.08
211.491	-1.55
211.876	2.89
212.262	-31.42
212.648	-9.98
213.034	34.81
213.419	-9.19
213.805	-35.37
214.19	-22.31
214.576	-22.79
214.961	-9.31
215.346	-24.65
215.732	26.22
216.117	0.77
216.502	-4.53
216.888	-11.43
217.273	-7.65
217.658	-7.92
218.043	2.95
218.428	-2.85
218.813	-5.95
219.198	-23.64
219.583	-66.01
219.968	1.58
220.353	-33.73
220.738	-40.93
221.122	3.75
221.507	5.13
221.892	-12.37
222.276	-21.41
222.661	11.39
223.046	-11.63
223.43	-13.78
223.815	-3.23
224.199	4.38
224.583	-4.55
224.968	-10.54
225.352	-1.53
225.736	1.45
226.121	-6.85
226.505	-0.46
226.889	-2.34
227.273	3.4
227.657	-1.85
228.041	2.03
228.425	-0.37
228.809	1.9
229.193	0.83
229.577	-0.54
229.961	1.43
230.344	2.16
230.728	1.09
231.112	0.73
231.495	0.53
231.879	1.48
232.263	0.24
232.646	-0.42
233.03	0.41
233.413	-0.64
233.797	0.54
234.18	0.73
234.563	0.73
234.946	1.72
235.33	1.17
235.713	0.5
236.096	0.6
236.479	0.49
236.862	0.57
237.245	0.71
237.628	0.19
238.011	-1.03
238.394	0.5
238.777	1.62
239.16	1.12
239.543	0.19
239.925	1.17
240.308	2.55
240.691	0.6
241.073	0.82
241.456	1.59
241.838	0.66
242.221	0.09
242.603	1.49
242.986	0.39
243.368	0.99
243.75	1.1
244.133	1.35
244.515	1.07
244.897	1.22
245.279	1.19
245.661	1.52
246.043	2.14
246.425	1.09
246.807	2.02
247.189	0.47
247.571	1.86
247.953	1.28
248.335	0.99
248.717	1.24
249.098	1.08
249.48	1.19
249.862	1.27
250.243	1.32
250.625	1.02
251.006	0.94
251.388	1.51
251.769	1.64
252.151	1.9
252.532	0.85
252.913	0.05
253.295	1.81
253.676	0.42
254.057	0.85
254.438	0.98
254.819	1.35
255.2	0.48
255.581	1.32
255.962	1.17
256.343	0.7
256.724	1.62
257.105	0.33
257.486	1.47
257.867	2.66
258.247	1.03
258.628	0.4
259.009	0.46
259.389	0.8
259.77	1.09
260.15	0.91
260.531	1.12
260.911	0.88
261.292	0.91
261.672	0.94
262.052	1.16
262.432	1.18
262.813	0.92
263.193	0.59
263.573	0.73
263.953	1
264.333	1.13
264.713	1.55
265.093	0.96
265.473	1.38
265.853	0.5
266.233	0.66
266.612	1.52
266.992	1.75
267.372	0.89
267.752	1.42
268.131	1.24
268.511	1.38
268.89	1.4
269.27	0.85
269.649	1.13
270.029	0.59
270.408	1.02
270.787	0.91
271.167	0.6
271.546	1.1
271.925	0.82
272.304	1
272.683	1.43
273.062	1.12
273.441	1.1
273.82	1.21
274.199	1.03
274.578	0.72
274.957	1.09
275.336	0.64
275.715	0.74
276.093	0.84
276.472	0.98
276.851	0.75
277.229	1.26
277.608	0.74
277.986	0.69
278.365	1.59
278.743	1.06
279.122	1.18
279.5	0.86
279.878	1.01
280.257	0.94
280.635	1.07
281.013	1.28
281.391	1.02
281.769	1.2
282.147	0.61
282.525	1.09
282.903	1.02
283.281	1.19
283.659	0.8
284.037	0.76
284.415	0.61
284.792	1.09
285.17	0.81
285.548	1.34
285.925	0.99
286.303	0.88
286.68	1.45
287.058	0.7
287.435	0.81
287.813	0.75
288.19	0.99
288.567	1.11
288.945	1.12
289.322	1.23
289.699	1.19
290.076	1.34
290.453	0.86
290.83	0.79
291.207	1.23
291.584	1.17
291.961	1.46
292.338	1.27
292.715	1.15
293.092	1.1
293.469	0.98
293.845	0.88
294.222	1.35
294.599	0.73
294.975	1.04
295.352	0.79
295.728	1.43
296.105	1.18
296.481	1.11
296.858	1.17
297.234	1.42
297.61	1.45
297.986	1.11
298.363	0.92
298.739	1.15
299.115	1.44
299.491	1.05
299.867	1.19
300.243	1.08
300.619	1.44
300.995	1.68
301.371	1.62
301.746	1.15
302.122	1.25
302.498	1.38
302.874	1.52
303.249	0.9
303.625	1.11
304	1.13
304.376	1.33
304.751	1.19
305.127	0.49
305.502	0.89
305.878	1.34
306.253	1.53
306.628	1.02
307.003	1.27
307.378	1.31
307.754	1.15
308.129	0.56
308.504	1.02
308.879	1.29
309.254	1.52
309.629	1.29
310.003	1.46
310.378	1.41
310.753	1.33
311.128	0.87
311.502	0.94
311.877	1.19
312.252	0.99
312.626	1.47
313.001	1.38
313.375	1.35
313.75	1.14
314.124	0.93
314.498	1.3
314.873	1.33
315.247	1.31
315.621	1.11
315.995	1.52
316.369	1.53
316.743	1.75
317.117	1.6
317.491	1.5
317.865	1.18
318.239	1.04
318.613	1.67
318.987	1.62
319.361	1.31
319.734	1.87
320.108	1.48
320.482	0.93
320.855	1.09
321.229	1.5
321.602	1.55
321.976	1.17
322.349	1.91
322.723	1.6
323.096	2.01
323.469	1.06
323.843	1.35
324.216	1.55
324.589	1.5
324.962	1.72
325.335	1.37
325.708	0.93
326.081	1.62
326.454	1.45
326.827	1.67
327.2	1.05
327.573	1
327.945	1.43
328.318	1.14
328.691	0.96
329.063	1.34
329.436	1.33
329.809	0.95
330.181	1.67
330.553	1.14
330.926	1.39
331.298	1.63
331.671	1.38
332.043	1.61
332.415	1.13
332.787	1.3
333.159	1.23
333.532	0.78
333.904	1.25
334.276	1.34
334.648	2.04
335.02	1.07
335.391	1.52
335.763	1.38
336.135	1.93
336.507	1.42
336.879	1.11
337.25	1.56
337.622	1.29
337.993	1.47
338.365	1.3
338.736	1.61
339.108	2.09
339.479	1.69
339.851	1.05
340.222	1.2
340.593	1.49
340.964	1.59
341.336	1.6
341.707	1.14
342.078	1.83
342.449	1.65
342.82	1.65
343.191	1.16
343.562	1.54
343.933	1.4
344.303	1.54
344.674	2.05
345.045	1.53
345.416	1.29
345.786	1.39
346.157	1.59
346.527	1.67
346.898	1.51
347.268	1.16
347.639	1.5
348.009	1.76
348.38	1.39
348.75	1.1
349.12	1.41
349.49	1.49
349.861	1.1
350.231	1.59
350.601	1.64
350.971	1.75
351.341	1.64
351.711	1.47
352.081	1.32
352.45	1.44
352.82	1.49
353.19	1.47
353.56	1.47
353.929	1.16
354.299	1.85
354.669	1.58
355.038	1.92
355.408	1.23
355.777	1.54
356.147	1.25
356.516	1.47
356.885	1.32
357.254	1.69
357.624	1.93
357.993	1.57
358.362	1.45
358.731	1.66
359.1	1.72
359.469	1.41
359.838	1.79
360.207	1.37
360.576	1.65
360.945	1.75
361.314	2.02
361.682	1.55
362.051	1.7
362.42	1.58
362.788	1.59
363.157	1.59
363.525	1.79
363.894	1.55
364.262	1.76
364.631	1.75
364.999	1.61
365.367	1.74
365.735	1.86
366.104	1.61
366.472	1.58
366.84	1.46
367.208	1.76
367.576	1.5
367.944	1.75
368.312	1.68
368.68	1.66
369.048	1.55
369.416	1.27
369.783	1.6
370.151	1.42
370.519	2.06
370.886	1.56
371.254	1.68
371.621	1.69
371.989	1.71
372.356	1.67
372.724	2.06
373.091	1.81
373.458	1.96
373.826	1.53
374.193	1.8
374.56	1.42
374.927	1.84
375.294	1.67
375.661	1.97
376.028	1.83
376.395	1.76
376.762	1.57
377.129	1.72
377.496	1.94
377.863	1.65
378.229	1.52
378.596	1.56
378.963	1.7
379.329	1.72
379.696	1.63
380.062	1.84
380.429	1.71
380.795	1.68
381.161	1.91
381.528	1.94
381.894	1.48
382.26	1.62
382.626	1.81
382.993	1.76
383.359	1.8
383.725	1.58
384.091	1.82
384.457	1.79
384.823	1.69
385.188	1.95
385.554	1.87
385.92	1.62
386.286	1.72
386.651	1.87
387.017	1.68
387.383	1.85
387.748	1.69
388.114	1.68
388.479	2.32
388.845	1.82
389.21	2.06
389.575	2.13
389.94	2.02
390.306	1.64
390.671	1.77
391.036	1.62
391.401	2.02
391.766	1.79
392.131	1.8
392.496	1.88
392.861	2.01
393.226	1.64
393.591	1.99
393.956	2.06
394.32	1.88
394.685	1.79
395.05	2.16
395.414	2.04
395.779	2
396.143	1.9
396.508	1.9
396.872	2.03
397.236	1.96
397.601	1.8
397.965	1.93
398.329	1.71
398.694	2.15
399.058	2.02
399.422	1.99
399.786	1.65
400.15	1.78
400.514	2.14
400.878	1.75
401.242	1.97
401.605	1.9
401.969	2.08
402.333	2.01
402.697	2.05
403.06	2.1
403.424	1.79
403.787	1.99
404.151	2.1
404.514	2.08
404.878	1.93
405.241	1.9
405.604	2.03
405.968	1.97
406.331	1.69
406.694	1.77
407.057	2.05
407.42	2
407.783	1.82
408.146	2.17
408.509	2.05
408.872	1.9
409.235	1.93
409.598	1.88
409.961	2.12
410.323	2.06
410.686	1.91
411.049	2.06
411.411	1.86
411.774	2.01
412.136	1.93
412.499	1.95
412.861	2.06
413.223	2.11
413.586	1.97
413.948	2.12
414.31	1.96
414.672	2.15
415.035	2.15
415.397	1.94
415.759	2.34
416.121	1.79
416.483	2.01
416.845	2.16
417.206	1.94
417.568	2.27
417.93	1.99
418.292	1.99
418.653	2.02
419.015	2.06
419.377	2.04
419.738	2
420.1	2.2
420.461	2.03
420.822	1.96
421.184	2.07
421.545	1.95
421.906	2.03
422.267	2.02
422.629	2.09
422.99	1.97
423.351	1.98
423.712	2.08
424.073	2.15
424.434	1.99
424.795	1.97
425.155	2.1
425.516	2.1
425.877	2.07
426.238	2.13
426.598	1.99
426.959	2
427.32	2.07
427.68	2.07
428.041	2.07
428.401	2.16
428.761	2.03
429.122	2.06
429.482	2.14
429.842	1.91
430.202	2.27
430.563	2.23
430.923	2.29
431.283	2.09
431.643	2.18
432.003	2.37
432.363	2.41
432.722	2.04
433.082	2.23
433.442	2.05
433.802	2.15
434.161	2.15
434.521	2.17
434.881	2.18
435.24	2.18
435.6	2.19
435.959	2.17
436.319	2.17
436.678	2.35
437.037	2.2
437.396	2.28
437.756	2.32
438.115	2.03
438.474	2.11
438.833	2.33
439.192	2.17
439.551	2.27
439.91	2.25
440.269	2.35
440.628	2.38
440.987	2.2
441.345	2.25
441.704	2.24
442.063	2.18
442.421	2.32
442.78	2.19
443.138	2.21
443.497	2.25
443.855	2.16
444.214	2.33
444.572	2.23
444.93	2.1
445.288	2.33
445.647	2.24
446.005	2.18
446.363	2.26
446.721	2.08
447.079	2.34
447.437	2.13
447.795	2.28
448.153	2.19
448.51	2.3
448.868	2.24
449.226	2.2
449.584	2.3
449.941	2.29
450.299	2.31
450.656	2.31
451.014	2.37
451.371	2.39
451.729	2.33
452.086	2.28
452.443	2.32
452.801	2.43
453.158	2.28
453.515	2.36
453.872	2.28
454.229	2.41
454.586	2.33
454.943	2.44
455.3	2.3
455.657	2.24
456.014	2.35
456.371	2.41
456.727	2.53
457.084	2.45
457.441	2.35
457.797	2.44
458.154	2.48
458.51	2.46
458.867	2.19
459.223	2.34
459.58	2.59
459.936	2.31
460.292	2.27
460.648	2.4
461.005	2.29
461.361	2.45
461.717	2.46
462.073	2.44
462.429	2.51
462.785	2.4
463.141	2.45
463.496	2.28
463.852	2.45
464.208	2.54
464.564	2.19
464.919	2.59
465.275	2.66
465.631	2.62
465.986	2.53
466.342	2.35
466.697	2.4
467.052	2.4
467.408	2.58
467.763	2.48
468.118	2.49
468.473	2.51
468.829	2.39
469.184	2.47
469.539	2.33
469.894	2.53
470.249	2.55
470.603	2.53
470.958	2.34
471.313	2.54
471.668	2.35
472.023	2.4
472.377	2.62
472.732	2.58
473.086	2.6
473.441	2.51
473.795	2.48
474.15	2.52
474.504	2.69
474.859	2.51
475.213	2.61
475.567	2.41
475.921	2.51
476.275	2.67
476.63	2.39
476.984	2.49
477.338	2.58
477.692	2.64
478.045	2.51
478.399	2.6
478.753	2.68
479.107	2.61
479.461	2.75
479.814	2.81
480.168	2.75
480.521	2.54
480.875	2.7
481.228	2.59
481.582	2.65
481.935	2.65
482.289	2.65
482.642	2.7
482.995	2.72
483.348	2.65
483.701	2.6
484.055	2.68
484.408	2.67
484.761	2.65
485.114	2.52
485.466	2.49
485.819	2.49
486.172	2.48
486.525	2.49
486.878	2.54
487.23	2.58
487.583	2.58
487.936	2.69
488.288	2.67
488.641	2.66
488.993	2.61
489.345	2.57
489.698	2.53
490.05	2.66
490.402	2.58
490.754	2.66
491.107	2.68
491.459	2.67
491.811	2.6
492.163	2.78
492.515	2.88
492.866	2.7
493.218	2.66
493.57	2.63
493.922	2.71
494.274	2.61
494.625	2.69
494.977	2.81
495.328	2.8
495.68	2.68
496.031	2.71
496.383	2.9
496.734	2.64
497.086	2.95
497.437	2.97
497.788	2.93
498.139	2.77
498.49	2.69
498.842	2.88
499.193	2.85
499.544	2.83
499.894	2.8
500.245	2.92
500.596	2.85
500.947	2.78
501.298	2.86
501.648	2.9
501.999	3.05
502.35	2.93
502.7	2.94
503.051	2.99
503.401	2.93
503.752	3.01
504.102	2.94
504.452	3.03
504.803	2.98
505.153	3
505.503	2.88
505.853	2.98
506.203	2.94
506.553	3.02
506.903	3.05
507.253	3.03
507.603	2.96
507.953	3.02
508.303	3.03
508.652	2.87
509.002	3.23
509.352	3.15
509.701	2.99
510.051	3.06
510.4	3.05
510.75	2.95
511.099	3.08
511.449	3.03
511.798	3.09
512.147	3.11
512.496	2.97
512.846	2.92
513.195	3.08
513.544	3.02
513.893	3.05
514.242	3.1
514.591	3.09
514.939	3.16
515.288	3.11
515.637	3.22
515.986	3.09
516.334	3.27
516.683	3.16
517.032	3.18
517.38	3.38
517.729	3.2
518.077	3.25
518.426	3.26
518.774	3.27
519.122	3.15
519.47	3.08
519.819	3.16
520.167	3.22
520.515	3.21
520.863	3.1
521.211	3.11
521.559	3.18
521.907	3.15
522.255	3.33
522.602	3.27
522.95	3.24
523.298	3.4
523.645	3.25
523.993	3.33
524.341	3.35
524.688	3.4
525.036	3.2
525.383	3.36
525.73	3.35
526.078	3.32
526.425	3.37
526.772	3.29
527.119	3.26
527.466	3.27
527.814	3.32
528.161	3.32
528.508	3.33
528.854	3.21
529.201	3.21
529.548	3.34
529.895	3.21
530.242	3.22
530.588	3.23
530.935	3.25
531.282	3.27
531.628	3.25
531.975	3.35
532.321	3.42
532.667	3.43
533.014	3.44
533.36	3.37
533.706	3.47
534.052	3.43
534.399	3.49
534.745	3.5
535.091	3.36
535.437	3.44
535.783	3.42
536.129	3.56
536.474	3.5
536.82	3.45
537.166	3.58
537.512	3.54
537.857	3.54
538.203	3.54
538.549	3.51
538.894	3.66
539.239	3.63
539.585	3.58
539.93	3.55
540.276	3.66
540.621	3.59
540.966	3.71
541.311	3.56
541.656	3.73
542.001	3.71
542.346	3.68
542.691	3.67
543.036	3.59
543.381	3.63
543.726	3.69
544.071	3.62
544.415	3.62
544.76	3.7
545.105	3.71
545.449	3.81
545.794	3.76
546.138	3.76
546.483	3.85
546.827	3.89
547.171	3.86
547.516	3.83
547.86	3.92
548.204	3.85
548.548	3.83
548.892	3.93
549.236	3.86
549.58	3.87
549.924	4.01
550.268	4.04
550.612	3.88
550.956	3.96
551.3	4.02
551.643	4.08
551.987	3.96
552.33	4.17
552.674	4.05
553.017	4.14
553.361	4.18
553.704	4.05
554.048	4.01
554.391	4
554.734	4.2
555.077	3.95
555.42	4.2
555.764	4.35
556.107	4.25
556.45	4.29
556.793	4.21
557.135	4.26
557.478	4.12
557.821	4.28
558.164	4.36
558.507	4.15
558.849	4.35
559.192	4.64
559.534	4.21
559.877	4.38
560.219	4.33
560.562	4.36
560.904	4.43
561.246	4.44
561.589	4.46
561.931	4.34
562.273	4.54
562.615	4.26
562.957	4.55
563.299	4.5
563.641	4.45
563.983	4.46
564.325	4.45
564.667	4.46
565.008	4.34
565.35	4.51
565.692	4.64
566.033	4.66
566.375	4.59
566.716	4.66
567.058	4.67
567.399	4.68
567.741	4.66
568.082	4.75
568.423	4.57
568.764	4.59
569.105	4.73
569.447	4.71
569.788	4.65
570.129	4.66
570.47	4.79
570.811	4.85
571.151	4.85
571.492	4.96
571.833	4.75
572.174	4.91
572.514	4.71
572.855	4.72
573.195	4.93
573.536	4.78
573.876	4.85
574.217	4.96
574.557	4.73
574.898	4.99
575.238	4.85
575.578	5.05
575.918	4.93
576.258	5.04
576.598	5.09
576.938	5.02
577.278	4.81
577.618	4.8
577.958	4.84
578.298	4.99
578.638	5.13
578.977	5.2
579.317	5.25
579.657	5.07
579.996	5.21
580.336	4.94
580.675	4.93
581.014	5.17
581.354	5.24
581.693	5.43
582.032	5.12
582.372	5.43
582.711	5.25
583.05	5.4
583.389	5.15
583.728	5.46
584.067	5.52
584.406	5.34
584.745	5.61
585.083	5.32
585.422	5.46
585.761	5.46
586.1	5.23
586.438	5.24
586.777	5.49
587.115	5.52
587.454	5.79
587.792	5.95
588.13	5.68
588.469	5.9
588.807	6.07
589.145	5.61
589.483	5.38
589.821	5.46
590.159	5.44
590.497	6.05
590.835	5.65
591.173	5.7
591.511	5.7
591.849	5.96
592.187	5.67
592.524	5.83
592.862	5.73
593.2	5.81
593.537	5.79
593.875	5.98
594.212	5.75
594.55	5.98
594.887	5.93
595.224	5.92
595.561	5.43
595.899	6.02
596.236	6.11
596.573	6.04
596.91	6
597.247	5.84
597.584	5.86
597.921	6.22
598.258	5.97
598.594	5.76
598.931	6.01
599.268	6.14
599.604	6.1
599.941	6.15
600.277	6.04
600.614	6.28
600.95	6.17
601.287	6.01
601.623	6.12
601.959	6.2
602.296	6.26
602.632	6.48
602.968	6.31
603.304	6.31
603.64	6.17
603.976	5.97
604.312	6.41
604.648	6.09
604.984	6.36
605.319	6.45
605.655	6.31
605.991	6.46
606.326	6.46
606.662	6.3
606.998	6.37
607.333	6.39
607.668	6.61
608.004	6.48
608.339	6.55
608.674	6.62
609.01	6.55
609.345	6.65
609.68	6.68
610.015	6.86
610.35	6.52
610.685	6.82
611.02	6.73
611.355	6.76
611.689	6.66
612.024	6.63
612.359	6.6
612.694	6.77
613.028	6.78
613.363	6.98
613.697	6.8
614.032	6.85
614.366	7.08
614.7	7.08
615.035	7.24
615.369	7.12
615.703	7.42
616.037	6.71
616.371	7.16
616.705	6.87
617.039	7.41
617.373	7.24
617.707	7.44
618.041	7.13
618.375	6.86
618.709	7.15
619.042	7.1
619.376	7.23
619.71	7.05
620.043	7.28
620.377	7.56
620.71	7.46
621.043	7.12
621.377	7.48
621.71	7.36
622.043	7.68
622.376	7.55
622.709	7.55
623.043	7.37
623.376	7.68
623.709	7.44
624.041	7.6
624.374	7.44
624.707	7.19
625.04	7.05
625.373	7.66
625.705	7.25
626.038	7.8
626.37	8.03
626.703	7.88
627.035	7.5
627.368	7.69
627.7	7.52
628.032	7.37
628.365	7.9
628.697	7.49
629.029	7.64
629.361	7.58
629.693	7.87
630.025	7.77
630.357	7.71
630.689	7.74
631.021	7.46
631.353	7.83
631.684	7.81
632.016	7.95
632.348	7.75
632.679	7.67
633.011	8.19
633.342	8.24
633.674	7.91
634.005	8.26
634.336	8.13
634.668	8.16
634.999	8.35
635.33	8.07
635.661	8.7
635.992	8.34
636.323	8.17
636.654	7.79
636.985	8.16
637.316	8.22
637.647	8.08
637.977	8.35
638.308	8.8
638.639	8.76
638.969	8.17
639.3	8.56
639.63	8.51
639.961	8.66
640.291	8.46
640.622	8.75
640.952	8.48
641.282	8.41
641.612	8.96
641.943	8.55
642.273	8.25
642.603	8.32
642.933	8.22
643.263	8
643.592	8.73
643.922	8.99
644.252	9.04
644.582	8.75
644.911	8.66
645.241	8.28
645.571	8.95
645.9	8.78
646.23	8.74
646.559	9.43
646.888	8.51
647.218	8.9
647.547	8.49
647.876	9.33
648.205	8.81
648.534	9.46
648.863	9.22
649.192	9.03
649.521	9.1
649.85	9.48
650.179	8.74
650.508	8.97
650.837	9.39
651.165	9.27
651.494	8.87
651.822	9.15
652.151	9.51
652.479	8.9
652.808	8.8
653.136	9.03
653.465	9.19
653.793	9.59
654.121	9.08
654.449	9.22
654.777	9.15
655.105	9.43
655.433	9.47
655.761	9.43
656.089	9.45
656.417	9.73
656.745	9.04
657.073	9.25
657.4	9.15
657.728	9.47
658.056	9.22
658.383	9.99
658.711	8.76
659.038	9.64
659.365	9.82
659.693	9.33
660.02	10.28
660.347	10.06
660.674	9.9
661.001	9.58
661.329	9.68
661.656	9.8
661.982	9.38
662.309	9.54
662.636	9.92
662.963	9.32
663.29	9.45
663.616	9.98
663.943	9.89
664.27	10.41
664.596	9.45
664.923	10.03
665.249	9.79
665.576	10.25
665.902	9.82
666.228	9.79
666.554	10.56
666.881	9.82
667.207	9.88
667.533	10.03
667.859	9.88
668.185	10.18
668.511	10.02
668.837	9.68
669.162	10.63
669.488	9.7
669.814	10.15
670.139	10.01
670.465	10.07
670.791	9.92
671.116	9.93
671.442	10.62
671.767	10.65
672.092	10.34
672.418	10.33
672.743	10.73
673.068	10.28
673.393	10.85
673.718	10.27
674.043	10.15
674.368	10.41
674.693	10.34
675.018	10.3
675.343	10.91
675.667	10.71
675.992	10.61
676.317	11.08
676.641	10.66
676.966	10.01
677.29	10.77
677.615	10.78
677.939	10.7
678.264	11.07
678.588	11.12
678.912	11.51
679.236	11.19
679.56	11.78
679.885	10.85
680.209	10.78
680.532	11.24
680.856	10.71
681.18	10.81
681.504	11.35
681.828	11.12
682.152	11.61
682.475	10.78
682.799	11.75
683.122	11.09
683.446	11.14
683.769	10.59
684.093	11.58
684.416	10.96
684.739	11.36
685.062	11.72
685.386	11.13
685.709	11.67
686.032	11.53
686.355	12.46
686.678	11.25
687.001	11.11
687.324	10.98
687.646	11.51
687.969	11.59
688.292	11.78
688.614	11.93
688.937	12.08
689.26	11.35
689.582	11.48
689.904	11.98
690.227	11.64
