Data from 0042_chest_Reflection__3__93.txt Node

Date: Fri Nov 04 15:33:22 CDT 2022
User: ToomeyLab
Spectrometer: FLMS14357
Trigger mode: 0
Integration Time (sec): 1.000000E-2
Scans to average: 100
Electric dark correction enabled: true
Nonlinearity correction enabled: false
Boxcar width: 0
XAxis mode: Wavelengths
Number of Pixels in Spectrum: 2048
>>>>>Begin Spectral Data<<<<<
189.047	82.77
189.435	82.77
189.823	82.77
190.211	103.62
190.599	27.61
190.987	44.25
191.375	236.26
191.763	153.07
192.151	-2859.55
192.538	5.25
192.926	73.43
193.314	-42.42
193.702	105.37
194.089	29.68
194.477	-219.78
194.864	435.75
195.252	82.24
195.639	165.39
196.027	79.05
196.414	-14.8
196.801	162.81
197.189	236.23
197.576	90.29
197.963	-3.84
198.351	-31.89
198.738	-0.87
199.125	6.27
199.512	6.98
199.899	24.12
200.286	10.32
200.673	-66.11
201.06	-40.41
201.447	-61.28
201.833	27.1
202.22	11.88
202.607	-31.93
202.994	4.81
203.38	28.05
203.767	50.78
204.154	20.31
204.54	-10.14
204.927	-8.07
205.313	29.79
205.699	11.85
206.086	-3.85
206.472	-49.44
206.858	-19.5
207.245	-4.94
207.631	-6.17
208.017	-11.52
208.403	38.53
208.789	24.11
209.175	-1.22
209.561	-85.44
209.947	-85.26
210.333	-11.21
210.719	10.23
211.105	-107.73
211.491	7.87
211.876	16.97
212.262	-23.48
212.648	-19.24
213.034	25.62
213.419	-13.06
213.805	-43.1
214.19	-45.6
214.576	-31.87
214.961	11.31
215.346	-2.3
215.732	26.84
216.117	-7.26
216.502	-9.08
216.888	-21.85
217.273	-14.17
217.658	2.3
218.043	-7.27
218.428	18.17
218.813	11.84
219.198	-5.99
219.583	-34.9
219.968	10.07
220.353	4.27
220.738	-27.48
221.122	-29.05
221.507	1.02
221.892	1.6
222.276	-9.1
222.661	4.08
223.046	4.05
223.43	-1.75
223.815	-0.07
224.199	3.36
224.583	3.09
224.968	-7.9
225.352	1.75
225.736	-6.2
226.121	-4.74
226.505	5.67
226.889	8.22
227.273	-5.36
227.657	4.31
228.041	3.8
228.425	3.64
228.809	4.95
229.193	6.45
229.577	1.25
229.961	3.42
230.344	2.84
230.728	3.6
231.112	2.95
231.495	2.86
231.879	3.15
232.263	2.32
232.646	3.59
233.03	1.61
233.413	2.04
233.797	3.09
234.18	3.5
234.563	4.85
234.946	3.33
235.33	4.14
235.713	2.25
236.096	4.07
236.479	2.78
236.862	2.79
237.245	1.21
237.628	4.7
238.011	1.51
238.394	4.31
238.777	3.18
239.16	2.93
239.543	2.64
239.925	4.07
240.308	4.13
240.691	3.81
241.073	3.77
241.456	3.92
241.838	2.73
242.221	3.92
242.603	2.84
242.986	3.1
243.368	3.75
243.75	3.7
244.133	3.69
244.515	3.97
244.897	3.48
245.279	3.55
245.661	3.9
246.043	3.84
246.425	3.56
246.807	4.36
247.189	4.19
247.571	4.2
247.953	3.47
248.335	3.73
248.717	3.83
249.098	3.67
249.48	3.78
249.862	4.04
250.243	4.06
250.625	3.65
251.006	3.91
251.388	3.68
251.769	3.42
252.151	3.9
252.532	3.88
252.913	3.03
253.295	3.91
253.676	3.63
254.057	3.49
254.438	3.58
254.819	3.86
255.2	3.09
255.581	4.15
255.962	3.55
256.343	3.32
256.724	4.18
257.105	3.45
257.486	4.49
257.867	5.06
258.247	3.54
258.628	3.38
259.009	3.66
259.389	4.11
259.77	4.06
260.15	3.88
260.531	3.78
260.911	3.35
261.292	3.41
261.672	3.56
262.052	3.66
262.432	3.83
262.813	3.72
263.193	3.12
263.573	3.77
263.953	3.82
264.333	3.71
264.713	4.29
265.093	3.65
265.473	3.72
265.853	2.82
266.233	3.7
266.612	3.67
266.992	4.29
267.372	3.66
267.752	3.8
268.131	4.27
268.511	3.41
268.89	3.62
269.27	3.54
269.649	3.81
270.029	3.6
270.408	3.46
270.787	3.58
271.167	3.59
271.546	4.36
271.925	3.36
272.304	3.74
272.683	3.25
273.062	3.6
273.441	3.61
273.82	3.52
274.199	3.62
274.578	3.62
274.957	3.66
275.336	3
275.715	3.52
276.093	3.42
276.472	3.27
276.851	3.22
277.229	3.35
277.608	3.93
277.986	3.85
278.365	3.81
278.743	3.61
279.122	3.23
279.5	3.37
279.878	3.55
280.257	3.11
280.635	3.27
281.013	3.57
281.391	3.58
281.769	3.87
282.147	3.15
282.525	4.07
282.903	3.87
283.281	4.03
283.659	3.38
284.037	3.41
284.415	3.75
284.792	3.59
285.17	3.19
285.548	4.02
285.925	3.45
286.303	3.43
286.68	3.81
287.058	3.38
287.435	3.59
287.813	3.46
288.19	3.59
288.567	3.44
288.945	3.68
289.322	3.75
289.699	3.96
290.076	3.69
290.453	2.92
290.83	3.45
291.207	3.45
291.584	3.63
291.961	3.67
292.338	3.76
292.715	3.6
293.092	3.65
293.469	3.59
293.845	3.5
294.222	3.68
294.599	3.26
294.975	3.81
295.352	3.97
295.728	4.07
296.105	3.56
296.481	3.59
296.858	3.59
297.234	4.24
297.61	4.14
297.986	3.46
298.363	3.61
298.739	3.73
299.115	3.8
299.491	3.8
299.867	3.89
300.243	3.96
300.619	3.99
300.995	3.89
301.371	4.24
301.746	4.08
302.122	3.62
302.498	3.92
302.874	3.93
303.249	3.66
303.625	3.72
304	4.1
304.376	3.73
304.751	3.87
305.127	3.61
305.502	3.97
305.878	4.26
306.253	4.04
306.628	3.98
307.003	3.96
307.378	4.32
307.754	3.68
308.129	3.82
308.504	3.9
308.879	3.82
309.254	4.3
309.629	3.8
310.003	4.01
310.378	4.17
310.753	4.1
311.128	3.94
311.502	3.81
311.877	4.02
312.252	3.73
312.626	4.19
313.001	4.07
313.375	3.89
313.75	4.06
314.124	3.73
314.498	4.09
314.873	3.88
315.247	4.19
315.621	4.26
315.995	4.05
316.369	3.93
316.743	4.77
317.117	4.96
317.491	4.3
317.865	4.22
318.239	4.16
318.613	4.41
318.987	3.92
319.361	4.18
319.734	4.24
320.108	4.02
320.482	3.43
320.855	4.5
321.229	4.22
321.602	4.39
321.976	3.73
322.349	4.66
322.723	3.88
323.096	4
323.469	4.1
323.843	4.07
324.216	4.45
324.589	4.29
324.962	4.25
325.335	4.43
325.708	4.11
326.081	4.45
326.454	3.89
326.827	4.29
327.2	3.89
327.573	4.37
327.945	4.43
328.318	3.9
328.691	4.06
329.063	3.97
329.436	4.34
329.809	4.06
330.181	4.26
330.553	4.24
330.926	4.49
331.298	4.68
331.671	4.25
332.043	4.39
332.415	4.04
332.787	4.08
333.159	4.02
333.532	4.09
333.904	4.57
334.276	4.49
334.648	4.43
335.02	4.08
335.391	4.46
335.763	4.42
336.135	3.74
336.507	4.04
336.879	4.24
337.25	4.53
337.622	4.72
337.993	4.55
338.365	4.52
338.736	4.63
339.108	4.91
339.479	4.23
339.851	4.08
340.222	4.45
340.593	4.28
340.964	4.61
341.336	4.12
341.707	4.01
342.078	4.73
342.449	4.65
342.82	4.64
343.191	4.34
343.562	4.61
343.933	4.74
344.303	4.66
344.674	4.6
345.045	4.38
345.416	3.97
345.786	4.65
346.157	4.69
346.527	4.9
346.898	5.07
347.268	4.5
347.639	4.46
348.009	4.72
348.38	4.62
348.75	4.55
349.12	3.98
349.49	4.5
349.861	4.22
350.231	4.91
350.601	4.49
350.971	4.34
351.341	4.29
351.711	4.65
352.081	4.57
352.45	4.66
352.82	4.7
353.19	4.49
353.56	4.88
353.929	4.39
354.299	5.06
354.669	4.9
355.038	4.83
355.408	4.34
355.777	4.83
356.147	4.16
356.516	4.37
356.885	4.36
357.254	4.79
357.624	4.86
357.993	4.7
358.362	4.57
358.731	4.63
359.1	4.59
359.469	4.73
359.838	4.64
360.207	4.76
360.576	4.84
360.945	5.25
361.314	5.01
361.682	4.65
362.051	4.52
362.42	4.81
362.788	4.54
363.157	4.46
363.525	4.84
363.894	4.67
364.262	4.91
364.631	4.66
364.999	4.71
365.367	4.28
365.735	4.8
366.104	4.78
366.472	4.86
366.84	4.53
367.208	4.84
367.576	4.64
367.944	5.04
368.312	5.13
368.68	4.78
369.048	4.55
369.416	4.55
369.783	4.44
370.151	4.51
370.519	5.29
370.886	4.62
371.254	4.89
371.621	4.68
371.989	4.77
372.356	4.58
372.724	5.02
373.091	4.9
373.458	4.64
373.826	4.75
374.193	4.38
374.56	4.77
374.927	5.21
375.294	4.53
375.661	4.84
376.028	4.81
376.395	4.98
376.762	4.78
377.129	4.86
377.496	5.26
377.863	5.1
378.229	4.59
378.596	4.72
378.963	4.85
379.329	4.88
379.696	4.81
380.062	4.99
380.429	4.79
380.795	4.87
381.161	4.75
381.528	5.08
381.894	4.54
382.26	4.74
382.626	4.7
382.993	4.91
383.359	4.78
383.725	4.94
384.091	5.12
384.457	4.94
384.823	4.91
385.188	4.88
385.554	4.75
385.92	4.75
386.286	4.76
386.651	5.08
387.017	4.79
387.383	4.57
387.748	4.87
388.114	4.93
388.479	5.54
388.845	5
389.21	5.4
389.575	5.19
389.94	4.84
390.306	5.16
390.671	5.18
391.036	4.59
391.401	5.05
391.766	4.78
392.131	4.79
392.496	5.03
392.861	5.22
393.226	4.76
393.591	5.06
393.956	5.27
394.32	4.96
394.685	4.99
395.05	5.13
395.414	5.1
395.779	4.95
396.143	4.96
396.508	5.03
396.872	5.26
397.236	5.19
397.601	5.11
397.965	5.09
398.329	5.08
398.694	5.3
399.058	5.19
399.422	5.06
399.786	5.13
400.15	5.11
400.514	5.05
400.878	5.24
401.242	5.22
401.605	4.94
401.969	5.38
402.333	5.24
402.697	5.09
403.06	5.24
403.424	4.99
403.787	5.35
404.151	5.23
404.514	5.36
404.878	5.27
405.241	5.16
405.604	5.12
405.968	5.11
406.331	5.04
406.694	5
407.057	5.11
407.42	5.08
407.783	5
408.146	5.2
408.509	5.09
408.872	5.1
409.235	5.18
409.598	5.39
409.961	5.33
410.323	5.21
410.686	5.25
411.049	5.15
411.411	5.32
411.774	5.36
412.136	5.27
412.499	5.26
412.861	5.06
413.223	5.28
413.586	5.27
413.948	5.32
414.31	5.33
414.672	5.38
415.035	5.21
415.397	5.29
415.759	5.53
416.121	5.2
416.483	5.34
416.845	5.27
417.206	5.13
417.568	5.49
417.93	5.39
418.292	5.16
418.653	5.4
419.015	5.17
419.377	5.37
419.738	5.37
420.1	5.34
420.461	5.31
420.822	5.31
421.184	5.35
421.545	5.22
421.906	5.32
422.267	5.26
422.629	5.42
422.99	5.18
423.351	5.21
423.712	5.3
424.073	5.37
424.434	5.27
424.795	5.38
425.155	5.34
425.516	5.36
425.877	5.19
426.238	5.36
426.598	5.34
426.959	5.31
427.32	5.32
427.68	5.41
428.041	5.28
428.401	5.41
428.761	5.4
429.122	5.29
429.482	5.41
429.842	5.35
430.202	5.47
430.563	5.4
430.923	5.45
431.283	5.36
431.643	5.51
432.003	5.57
432.363	5.59
432.722	5.43
433.082	5.61
433.442	5.43
433.802	5.39
434.161	5.4
434.521	5.38
434.881	5.46
435.24	5.45
435.6	5.59
435.959	5.51
436.319	5.44
436.678	5.42
437.037	5.49
437.396	5.62
437.756	5.66
438.115	5.48
438.474	5.49
438.833	5.66
439.192	5.55
439.551	5.51
439.91	5.58
440.269	5.58
440.628	5.61
440.987	5.55
441.345	5.46
441.704	5.6
442.063	5.58
442.421	5.51
442.78	5.57
443.138	5.6
443.497	5.44
443.855	5.49
444.214	5.71
444.572	5.72
444.93	5.57
445.288	5.54
445.647	5.57
446.005	5.62
446.363	5.5
446.721	5.63
447.079	5.62
447.437	5.53
447.795	5.54
448.153	5.47
448.51	5.6
448.868	5.56
449.226	5.47
449.584	5.62
449.941	5.47
450.299	5.65
450.656	5.57
451.014	5.76
451.371	5.8
451.729	5.76
452.086	5.62
452.443	5.59
452.801	5.66
453.158	5.78
453.515	5.87
453.872	5.6
454.229	5.79
454.586	5.74
454.943	5.83
455.3	5.82
455.657	5.78
456.014	5.73
456.371	5.59
456.727	5.72
457.084	5.99
457.441	5.86
457.797	5.83
458.154	5.9
458.51	5.93
458.867	5.66
459.223	5.88
459.58	6.02
459.936	5.71
460.292	5.75
460.648	5.82
461.005	5.66
461.361	5.83
461.717	5.7
462.073	5.87
462.429	5.85
462.785	5.79
463.141	5.78
463.496	5.75
463.852	5.96
464.208	5.82
464.564	5.71
464.919	6.11
465.275	5.96
465.631	5.95
465.986	5.83
466.342	5.83
466.697	6.03
467.052	5.78
467.408	5.78
467.763	5.95
468.118	5.96
468.473	5.87
468.829	5.94
469.184	5.91
469.539	5.85
469.894	5.97
470.249	5.89
470.603	6.08
470.958	5.88
471.313	5.84
471.668	5.82
472.023	5.79
472.377	6.08
472.732	6.14
473.086	6.06
473.441	6.07
473.795	5.93
474.15	5.96
474.504	6.02
474.859	5.99
475.213	6.3
475.567	5.99
475.921	5.94
476.275	6.08
476.63	6.01
476.984	5.83
477.338	6.05
477.692	6.08
478.045	6.19
478.399	6.02
478.753	6.18
479.107	6.15
479.461	6.25
479.814	6.19
480.168	6.18
480.521	5.94
480.875	6.16
481.228	6.19
481.582	6.15
481.935	6.12
482.289	6.18
482.642	6.12
482.995	6.16
483.348	6.1
483.701	6.11
484.055	6.15
484.408	6.06
484.761	6.01
485.114	5.93
485.466	5.85
485.819	5.81
486.172	5.82
486.525	5.88
486.878	5.96
487.23	6.01
487.583	5.98
487.936	6.04
488.288	6.04
488.641	6.08
488.993	6.02
489.345	5.97
489.698	5.94
490.05	6.01
490.402	5.99
490.754	6.02
491.107	6.14
491.459	6.17
491.811	6.07
492.163	6.25
492.515	6.21
492.866	6.06
493.218	6.16
493.57	6.08
493.922	6.11
494.274	6.09
494.625	6.25
494.977	6.23
495.328	6.24
495.68	6.22
496.031	6.21
496.383	6.46
496.734	6.25
497.086	6.47
497.437	6.36
497.788	6.41
498.139	6.37
498.49	6.33
498.842	6.45
499.193	6.43
499.544	6.48
499.894	6.41
500.245	6.49
500.596	6.49
500.947	6.4
501.298	6.55
501.648	6.51
501.999	6.69
502.35	6.48
502.7	6.43
503.051	6.57
503.401	6.54
503.752	6.56
504.102	6.6
504.452	6.72
504.803	6.5
505.153	6.54
505.503	6.62
505.853	6.61
506.203	6.57
506.553	6.56
506.903	6.61
507.253	6.58
507.603	6.63
507.953	6.58
508.303	6.79
508.652	6.62
509.002	6.76
509.352	6.78
509.701	6.73
510.051	6.68
510.4	6.7
510.75	6.67
511.099	6.7
511.449	6.64
511.798	6.69
512.147	6.77
512.496	6.66
512.846	6.64
513.195	6.79
513.544	6.72
513.893	6.77
514.242	6.64
514.591	6.67
514.939	6.78
515.288	6.72
515.637	6.8
515.986	6.75
516.334	6.83
516.683	6.79
517.032	6.84
517.38	6.92
517.729	6.85
518.077	6.98
518.426	6.89
518.774	6.88
519.122	6.83
519.47	6.89
519.819	6.77
520.167	6.85
520.515	6.81
520.863	6.78
521.211	6.83
521.559	6.77
521.907	6.86
522.255	6.85
522.602	6.83
522.95	6.92
523.298	7.01
523.645	6.99
523.993	6.95
524.341	7.05
524.688	7.09
525.036	6.98
525.383	7.18
525.73	7.2
526.078	7.07
526.425	7.05
526.772	7.01
527.119	6.98
527.466	7.06
527.814	7.01
528.161	7.07
528.508	7.03
528.854	7.07
529.201	6.98
529.548	6.99
529.895	6.96
530.242	6.88
530.588	6.89
530.935	6.92
531.282	6.95
531.628	6.88
531.975	7.02
532.321	7
532.667	7.08
533.014	7.08
533.36	7.15
533.706	7.27
534.052	7.32
534.399	7.23
534.745	7.15
535.091	7.13
535.437	7.08
535.783	7.18
536.129	7.21
536.474	7.25
536.82	7.16
537.166	7.37
537.512	7.4
537.857	7.35
538.203	7.32
538.549	7.33
538.894	7.45
539.239	7.4
539.585	7.28
539.93	7.28
540.276	7.37
540.621	7.45
540.966	7.64
541.311	7.35
541.656	7.51
542.001	7.57
542.346	7.5
542.691	7.45
543.036	7.39
543.381	7.37
543.726	7.34
544.071	7.4
544.415	7.51
544.76	7.51
545.105	7.51
545.449	7.6
545.794	7.6
546.138	7.57
546.483	7.66
546.827	7.7
547.171	7.68
547.516	7.72
547.86	7.7
548.204	7.77
548.548	7.72
548.892	7.68
549.236	7.81
549.58	7.91
549.924	7.9
550.268	8.07
550.612	7.8
550.956	7.98
551.3	7.95
551.643	8.05
551.987	7.95
552.33	8.04
552.674	8.12
553.017	7.99
553.361	8.23
553.704	8.17
554.048	8.09
554.391	7.97
554.734	8.18
555.077	8.28
555.42	8.21
555.764	8.33
556.107	8.14
556.45	8.21
556.793	8.33
557.135	8.27
557.478	8.27
557.821	8.24
558.164	8.33
558.507	8.38
558.849	8.35
559.192	8.47
559.534	8.34
559.877	8.36
560.219	8.35
560.562	8.53
560.904	8.78
561.246	8.39
561.589	8.53
561.931	8.44
562.273	8.51
562.615	8.3
562.957	8.56
563.299	8.57
563.641	8.58
563.983	8.62
564.325	8.37
564.667	8.57
565.008	8.54
565.35	8.7
565.692	8.9
566.033	8.85
566.375	8.75
566.716	8.83
567.058	8.83
567.399	8.71
567.741	8.87
568.082	8.75
568.423	8.6
568.764	8.77
569.105	8.8
569.447	8.81
569.788	8.85
570.129	9.01
570.47	8.93
570.811	9.01
571.151	9.05
571.492	9.21
571.833	9.07
572.174	9.02
572.514	8.88
572.855	8.82
573.195	9.04
573.536	8.96
573.876	9.05
574.217	9.02
574.557	9.13
574.898	9.13
575.238	9.01
575.578	9.4
575.918	9.25
576.258	9.25
576.598	9.4
576.938	9.25
577.278	9.32
577.618	9.2
577.958	9.21
578.298	9.46
578.638	9.28
578.977	9.51
579.317	9.54
579.657	9.28
579.996	9.44
580.336	9.29
580.675	9.44
581.014	9.63
581.354	9.3
581.693	9.8
582.032	9.64
582.372	9.61
582.711	9.75
583.05	9.79
583.389	9.57
583.728	9.73
584.067	9.99
584.406	9.51
584.745	9.8
585.083	9.62
585.422	10.09
585.761	9.84
586.1	9.91
586.438	9.66
586.777	9.83
587.115	10.06
587.454	9.91
587.792	10.32
588.13	10.07
588.469	10.01
588.807	10.13
589.145	10.05
589.483	9.87
589.821	10.11
590.159	9.9
590.497	10.19
590.835	9.96
591.173	9.98
591.511	10.52
591.849	10.17
592.187	10.19
592.524	10.2
592.862	10.31
593.2	10.18
593.537	10.37
593.875	10.4
594.212	10.53
594.55	10.4
594.887	10.54
595.224	10.28
595.561	10.35
595.899	10.49
596.236	10.65
596.573	10.4
596.91	10.28
597.247	10.38
597.584	10.35
597.921	10.47
598.258	10.53
598.594	10.54
598.931	10.57
599.268	10.66
599.604	10.51
599.941	10.77
600.277	10.72
600.614	10.63
600.95	10.74
601.287	10.57
601.623	10.75
601.959	10.85
602.296	10.82
602.632	10.9
602.968	10.77
603.304	10.96
603.64	11.03
603.976	10.54
604.312	11.15
604.648	11
604.984	11.09
605.319	10.91
605.655	11
605.991	11.26
606.326	11.01
606.662	11.02
606.998	10.91
607.333	10.82
607.668	11.16
608.004	11.09
608.339	11.17
608.674	11.35
609.01	11.26
609.345	11.25
609.68	11.27
610.015	11.2
610.35	11.14
610.685	11.68
611.02	11.53
611.355	11.34
611.689	11.38
612.024	11.5
612.359	11.23
612.694	11.42
613.028	11.58
613.363	11.78
613.697	11.63
614.032	11.69
614.366	11.31
614.7	11.69
615.035	12.05
615.369	11.83
615.703	12.1
616.037	11.55
616.371	12.01
616.705	11.67
617.039	11.89
617.373	11.81
617.707	12.03
618.041	11.86
618.375	12.16
618.709	11.98
619.042	12.05
619.376	12.54
619.71	12.13
620.043	12.33
620.377	11.99
620.71	12.28
621.043	11.96
621.377	12.07
621.71	12.21
622.043	12.26
622.376	12.34
622.709	12.3
623.043	12.41
623.376	12.91
623.709	12.15
624.041	12.41
624.374	12.24
624.707	12.16
625.04	12.48
625.373	12.44
625.705	12.1
626.038	12.48
626.37	12.46
626.703	12.72
627.035	12.57
627.368	12.56
627.7	12.81
628.032	12.45
628.365	12.97
628.697	12.68
629.029	12.44
629.361	12.52
629.693	12.79
630.025	12.94
630.357	12.57
630.689	13.07
631.021	12.79
631.353	12.88
631.684	12.77
632.016	12.94
632.348	12.94
632.679	12.89
633.011	12.9
633.342	12.83
633.674	12.87
634.005	13.2
634.336	13.11
634.668	13.05
634.999	13.22
635.33	13.09
635.661	13.74
635.992	13.37
636.323	13.05
636.654	13.22
636.985	13.38
637.316	13.17
637.647	13.45
637.977	13.01
638.308	13.76
638.639	13.69
638.969	13.05
639.3	13.63
639.63	13.93
639.961	13.78
640.291	13.53
640.622	13.54
640.952	13.5
641.282	13.87
641.612	13.52
641.943	13.67
642.273	13.7
642.603	13.56
642.933	13.68
643.263	13.12
643.592	13.88
643.922	13.9
644.252	13.8
644.582	13.53
644.911	14.03
645.241	13.85
645.571	13.79
645.9	13.94
646.23	14.01
646.559	14.51
646.888	13.92
647.218	14.47
647.547	14.05
647.876	14.32
648.205	14.05
648.534	14.3
648.863	14.14
649.192	13.7
649.521	14.2
649.85	14.49
650.179	14.31
650.508	14.57
650.837	14
651.165	14.7
651.494	14.3
651.822	14.49
652.151	14.76
652.479	14.58
652.808	14.33
653.136	14.84
653.465	14.63
653.793	14.4
654.121	14.59
654.449	14.16
654.777	14.19
655.105	14.7
655.433	14.74
655.761	14.76
656.089	14.83
656.417	14.58
656.745	14.26
657.073	14.92
657.4	14.95
657.728	14.7
658.056	14.17
658.383	14.96
658.711	14.83
659.038	15.27
659.365	15.4
659.693	15.57
660.02	15.51
660.347	14.7
660.674	15.06
661.001	15.45
661.329	15.11
661.656	14.77
661.982	15.03
662.309	15.14
662.636	15.3
662.963	14.91
663.29	15.18
663.616	15.4
663.943	15.54
664.27	15.42
664.596	15.74
664.923	14.92
665.249	15.28
665.576	15.59
665.902	14.84
666.228	15.18
666.554	15.96
666.881	15.32
667.207	15.48
667.533	15.35
667.859	15.5
668.185	15.77
668.511	16.08
668.837	15.49
669.162	15.84
669.488	15.35
669.814	15.62
670.139	15.67
670.465	15.5
670.791	15.69
671.116	16.38
671.442	16.15
671.767	16.25
672.092	15.7
672.418	15.45
672.743	16.62
673.068	16.18
673.393	16.24
673.718	16.03
674.043	15.84
674.368	15.94
674.693	16.4
675.018	16.23
675.343	15.86
675.667	16.21
675.992	16.26
676.317	16.61
676.641	16.49
676.966	17
677.29	16.41
677.615	16.76
677.939	16.66
678.264	16.63
678.588	16.58
678.912	17.05
679.236	17.05
679.56	16.68
679.885	16.67
680.209	17.01
680.532	16.66
680.856	16.37
681.18	16.53
681.504	16.73
681.828	16.94
682.152	16.94
682.475	17.07
682.799	17.05
683.122	17.42
683.446	16.75
683.769	16.98
684.093	17.32
684.416	16.83
684.739	17.44
685.062	17.74
685.386	16.95
685.709	17.18
