Data from 0042_crown_Reflection__1__96.txt Node

Date: Fri Nov 04 15:35:22 CDT 2022
User: ToomeyLab
Spectrometer: FLMS14357
Trigger mode: 0
Integration Time (sec): 1.000000E-2
Scans to average: 100
Electric dark correction enabled: true
Nonlinearity correction enabled: false
Boxcar width: 0
XAxis mode: Wavelengths
Number of Pixels in Spectrum: 2048
>>>>>Begin Spectral Data<<<<<
189.047	3.71
189.435	3.71
189.823	3.71
190.211	-6.86
190.599	78.14
190.987	-138.03
191.375	-326.52
191.763	58.04
192.151	-6061.8
192.538	18.39
192.926	319.85
193.314	4.17
193.702	71.5
194.089	65.88
194.477	-30.38
194.864	-135.93
195.252	121.81
195.639	39.22
196.027	76.19
196.414	59.61
196.801	75.48
197.189	-216.73
197.576	4.02
197.963	-7.66
198.351	-59.57
198.738	-4.85
199.125	15.67
199.512	-39.55
199.899	-2.09
200.286	-34.45
200.673	21.36
201.06	-17.81
201.447	-49.26
201.833	45.39
202.22	11.55
202.607	33.85
202.994	23.63
203.38	33.01
203.767	12.37
204.154	21.99
204.54	10.35
204.927	0.71
205.313	37.9
205.699	8.18
206.086	12.38
206.472	1.07
206.858	-15.47
207.245	-2.95
207.631	-6.26
208.017	27.36
208.403	51.47
208.789	17.76
209.175	8.39
209.561	-35.84
209.947	-101.96
210.333	22.33
210.719	8.8
211.105	-112.01
211.491	15.58
211.876	12.29
212.262	-1.57
212.648	0.27
213.034	30.97
213.419	12.49
213.805	-25.58
214.19	-36.74
214.576	7.16
214.961	31.29
215.346	17.88
215.732	24.36
216.117	14.33
216.502	23.03
216.888	-3.88
217.273	-1.99
217.658	0.09
218.043	6.34
218.428	33.48
218.813	-13.09
219.198	13.52
219.583	-43.63
219.968	16.11
220.353	-5.79
220.738	-17.19
221.122	10.8
221.507	19.43
221.892	-4.78
222.276	-4.57
222.661	0.7
223.046	-4.45
223.43	2.51
223.815	1.05
224.199	6.44
224.583	0.72
224.968	-0.61
225.352	14.11
225.736	3.1
226.121	-7.02
226.505	13.14
226.889	-0.47
227.273	2.32
227.657	4.42
228.041	4.83
228.425	10.24
228.809	5.22
229.193	4.92
229.577	1.18
229.961	5.56
230.344	4.56
230.728	4.49
231.112	3.95
231.495	4.79
231.879	5.94
232.263	4.12
232.646	5.37
233.03	3.31
233.413	3.7
233.797	4.41
234.18	4.72
234.563	5.55
234.946	3.65
235.33	5.38
235.713	3.66
236.096	4.52
236.479	3
236.862	3.37
237.245	3.67
237.628	3.84
238.011	1.65
238.394	4.93
238.777	5.24
239.16	3.9
239.543	2.42
239.925	3.42
240.308	5.31
240.691	3.63
241.073	5.17
241.456	2.94
241.838	3.33
242.221	3.85
242.603	3.62
242.986	3.84
243.368	4.07
243.75	4.49
244.133	3.97
244.515	3.84
244.897	3.93
245.279	4.28
245.661	4.23
246.043	4.77
246.425	3.72
246.807	4.97
247.189	4.03
247.571	4.75
247.953	3.92
248.335	3.83
248.717	3.86
249.098	3.9
249.48	4.04
249.862	3.96
250.243	3.91
250.625	3.61
251.006	4.06
251.388	4.02
251.769	4.61
252.151	4.75
252.532	3.84
252.913	3.65
253.295	4.17
253.676	3.42
254.057	3.52
254.438	3.73
254.819	4.34
255.2	3.32
255.581	3.9
255.962	4.17
256.343	3.42
256.724	3.58
257.105	3.67
257.486	4.21
257.867	6.56
258.247	4.27
258.628	2.76
259.009	3.96
259.389	3.91
259.77	4.11
260.15	3.64
260.531	4.16
260.911	3.39
261.292	3.52
261.672	3.77
262.052	3.69
262.432	3.66
262.813	3.39
263.193	3.4
263.573	3.49
263.953	3.52
264.333	3.96
264.713	4.05
265.093	3.59
265.473	4.43
265.853	3.28
266.233	3.89
266.612	4.67
266.992	4.48
267.372	2.76
267.752	4.33
268.131	3.61
268.511	3.85
268.89	3.81
269.27	3.86
269.649	3.54
270.029	3.26
270.408	3.75
270.787	4.16
271.167	3.93
271.546	4.1
271.925	3.43
272.304	3.22
272.683	3.52
273.062	3.4
273.441	4.02
273.82	3.15
274.199	3.74
274.578	3.49
274.957	3.44
275.336	3.08
275.715	3.22
276.093	3.85
276.472	3.26
276.851	2.94
277.229	3.31
277.608	2.9
277.986	3.66
278.365	3.6
278.743	3.74
279.122	3.32
279.5	3.11
279.878	3.18
280.257	3.38
280.635	3.15
281.013	3.36
281.391	3.97
281.769	3.67
282.147	3.36
282.525	3.24
282.903	3.6
283.281	4.03
283.659	3.29
284.037	3.48
284.415	2.79
284.792	3.3
285.17	3.26
285.548	3.94
285.925	3.36
286.303	3.66
286.68	3.62
287.058	3.24
287.435	3.16
287.813	3.41
288.19	3.58
288.567	2.92
288.945	3.58
289.322	3.32
289.699	3.58
290.076	3.63
290.453	2.98
290.83	3.35
291.207	3.14
291.584	3.64
291.961	3.3
292.338	3.45
292.715	3.44
293.092	3.18
293.469	3.2
293.845	2.85
294.222	3.04
294.599	3.09
294.975	3.42
295.352	2.97
295.728	3.29
296.105	3.35
296.481	3.37
296.858	3.38
297.234	3.84
297.61	3.21
297.986	3.08
298.363	2.89
298.739	3.17
299.115	3.41
299.491	3.15
299.867	3.22
300.243	3.26
300.619	3.14
300.995	3.13
301.371	3.23
301.746	3.28
302.122	3.44
302.498	3.04
302.874	3.65
303.249	3.15
303.625	2.88
304	3.03
304.376	3.07
304.751	3.22
305.127	2.79
305.502	3.02
305.878	3.19
306.253	3.36
306.628	2.8
307.003	3.22
307.378	3.25
307.754	3.21
308.129	2
308.504	2.83
308.879	3.09
309.254	3.32
309.629	3.62
310.003	3.61
310.378	3.09
310.753	3.25
311.128	2.84
311.502	2.56
311.877	3.14
312.252	2.93
312.626	2.99
313.001	3.11
313.375	3.16
313.75	2.83
314.124	2.97
314.498	3.24
314.873	3.45
315.247	3.5
315.621	3.12
315.995	3.53
316.369	3.36
316.743	3.47
317.117	3.54
317.491	3.3
317.865	2.67
318.239	2.77
318.613	3.53
318.987	3.57
319.361	3.27
319.734	3.85
320.108	2.94
320.482	2.87
320.855	3.63
321.229	3.24
321.602	3
321.976	3.03
322.349	3.82
322.723	3.2
323.096	3.08
323.469	2.6
323.843	3.06
324.216	3.63
324.589	2.88
324.962	3.75
325.335	3.24
325.708	2.74
326.081	3.24
326.454	3.04
326.827	3.23
327.2	3.23
327.573	3.11
327.945	3.09
328.318	3.01
328.691	3.14
329.063	2.86
329.436	3.75
329.809	3.14
330.181	2.99
330.553	2.98
330.926	3
331.298	3.34
331.671	3.04
332.043	3.26
332.415	3.22
332.787	2.75
333.159	2.63
333.532	2.71
333.904	3.31
334.276	3.25
334.648	3.36
335.02	2.42
335.391	3.35
335.763	2.97
336.135	3.08
336.507	3.01
336.879	3.1
337.25	3.34
337.622	3.6
337.993	3.23
338.365	3.47
338.736	3.33
339.108	3.61
339.479	3.53
339.851	2.56
340.222	2.9
340.593	3.35
340.964	3.14
341.336	3.06
341.707	3
342.078	3.5
342.449	3.4
342.82	3.45
343.191	3.2
343.562	3.12
343.933	3.62
344.303	3.16
344.674	3.09
345.045	2.71
345.416	2.61
345.786	3.42
346.157	3.38
346.527	3.48
346.898	3.62
347.268	3.08
347.639	3.04
348.009	3.6
348.38	3.22
348.75	2.97
349.12	2.94
349.49	3.24
349.861	3.03
350.231	3.41
350.601	2.78
350.971	3.23
351.341	3.26
351.711	3.33
352.081	3.05
352.45	2.91
352.82	3.38
353.19	3.28
353.56	3.59
353.929	3.14
354.299	3.43
354.669	3.61
355.038	3.75
355.408	2.93
355.777	3.28
356.147	3.2
356.516	3.04
356.885	2.88
357.254	3.3
357.624	3.38
357.993	3.26
358.362	3.23
358.731	3.06
359.1	3.41
359.469	3.28
359.838	3.3
360.207	2.89
360.576	3.49
360.945	3.38
361.314	3.55
361.682	2.91
362.051	3.22
362.42	3.29
362.788	3.04
363.157	3.15
363.525	3.41
363.894	3.33
364.262	3.33
364.631	3.22
364.999	3.33
365.367	3.2
365.735	3.49
366.104	3.1
366.472	3.36
366.84	2.99
367.208	3.29
367.576	3.22
367.944	3.37
368.312	3.34
368.68	3.07
369.048	3.35
369.416	3.09
369.783	3.12
370.151	3.09
370.519	3.87
370.886	3.26
371.254	3.52
371.621	3.42
371.989	3.26
372.356	3.35
372.724	3.34
373.091	3.28
373.458	3.17
373.826	3.55
374.193	2.97
374.56	3
374.927	3.71
375.294	3.32
375.661	3.41
376.028	3.37
376.395	3.22
376.762	3.58
377.129	3.4
377.496	3.49
377.863	3.35
378.229	3.01
378.596	3.29
378.963	3.31
379.329	3.27
379.696	3.41
380.062	3.57
380.429	3.44
380.795	3.38
381.161	3.29
381.528	3.58
381.894	3.21
382.26	3.52
382.626	3.3
382.993	3.41
383.359	3.3
383.725	3.62
384.091	3.56
384.457	3.32
384.823	3.73
385.188	3.49
385.554	3.42
385.92	3.09
386.286	3.11
386.651	3.44
387.017	3.36
387.383	3.46
387.748	3.14
388.114	3.2
388.479	3.91
388.845	3.35
389.21	3.51
389.575	3.65
389.94	3.37
390.306	3.28
390.671	3.46
391.036	3.59
391.401	3.64
391.766	3.27
392.131	3.47
392.496	3.62
392.861	3.55
393.226	3.36
393.591	3.25
393.956	3.6
394.32	3.37
394.685	3.67
395.05	3.62
395.414	3.55
395.779	3.39
396.143	3.28
396.508	3.57
396.872	3.59
397.236	3.55
397.601	3.45
397.965	3.37
398.329	3.63
398.694	3.81
399.058	3.61
399.422	3.55
399.786	3.2
400.15	3.49
400.514	3.44
400.878	3.56
401.242	3.69
401.605	3.39
401.969	3.71
402.333	3.56
402.697	3.47
403.06	3.64
403.424	3.57
403.787	3.53
404.151	3.85
404.514	3.7
404.878	3.63
405.241	3.42
405.604	3.61
405.968	3.46
406.331	3.49
406.694	3.39
407.057	3.6
407.42	3.52
407.783	3.42
408.146	3.54
408.509	3.39
408.872	3.44
409.235	3.63
409.598	3.41
409.961	3.62
410.323	3.6
410.686	3.5
411.049	3.43
411.411	3.49
411.774	3.62
412.136	3.77
412.499	3.74
412.861	3.76
413.223	3.66
413.586	3.46
413.948	3.64
414.31	3.64
414.672	3.54
415.035	3.79
415.397	3.52
415.759	3.84
416.121	3.45
416.483	3.5
416.845	3.69
417.206	3.27
417.568	3.57
417.93	3.65
418.292	3.67
418.653	3.74
419.015	3.41
419.377	3.57
419.738	3.5
420.1	3.65
420.461	3.6
420.822	3.5
421.184	3.66
421.545	3.45
421.906	3.55
422.267	3.48
422.629	3.51
422.99	3.42
423.351	3.4
423.712	3.51
424.073	3.62
424.434	3.48
424.795	3.54
425.155	3.66
425.516	3.6
425.877	3.56
426.238	3.46
426.598	3.58
426.959	3.38
427.32	3.55
427.68	3.5
428.041	3.49
428.401	3.77
428.761	3.73
429.122	3.39
429.482	3.69
429.842	3.41
430.202	3.59
430.563	3.74
430.923	3.85
431.283	3.57
431.643	3.72
432.003	3.84
432.363	3.7
432.722	3.72
433.082	3.77
433.442	3.74
433.802	3.51
434.161	3.56
434.521	3.53
434.881	3.62
435.24	3.54
435.6	3.71
435.959	3.57
436.319	3.58
436.678	3.71
437.037	3.65
437.396	3.82
437.756	3.61
438.115	3.51
438.474	3.7
438.833	3.81
439.192	3.45
439.551	3.79
439.91	3.72
440.269	3.62
440.628	3.84
440.987	3.58
441.345	3.69
441.704	3.63
442.063	3.61
442.421	3.58
442.78	3.65
443.138	3.64
443.497	3.59
443.855	3.67
444.214	3.7
444.572	3.56
444.93	3.58
445.288	3.63
445.647	3.52
446.005	3.64
446.363	3.57
446.721	3.66
447.079	3.59
447.437	3.61
447.795	3.68
448.153	3.55
448.51	3.62
448.868	3.62
449.226	3.57
449.584	3.67
449.941	3.62
450.299	3.71
450.656	3.66
451.014	3.7
451.371	3.76
451.729	3.78
452.086	3.73
452.443	3.75
452.801	3.79
453.158	3.75
453.515	3.79
453.872	3.55
454.229	3.72
454.586	3.68
454.943	3.8
455.3	3.69
455.657	3.62
456.014	3.62
456.371	3.69
456.727	3.77
457.084	3.69
457.441	3.84
457.797	3.79
458.154	3.78
458.51	3.75
458.867	3.46
459.223	3.67
459.58	3.91
459.936	3.59
460.292	3.69
460.648	3.7
461.005	3.59
461.361	3.64
461.717	3.68
462.073	3.65
462.429	3.75
462.785	3.54
463.141	3.69
463.496	3.65
463.852	3.76
464.208	3.68
464.564	3.72
464.919	3.87
465.275	3.67
465.631	3.85
465.986	3.75
466.342	3.74
466.697	3.61
467.052	3.85
467.408	3.84
467.763	3.72
468.118	3.78
468.473	3.79
468.829	3.63
469.184	3.68
469.539	3.68
469.894	3.83
470.249	3.76
470.603	3.96
470.958	3.78
471.313	3.72
471.668	3.75
472.023	3.53
472.377	3.79
472.732	3.75
473.086	3.78
473.441	3.79
473.795	3.79
474.15	3.82
474.504	3.72
474.859	3.79
475.213	3.7
475.567	3.64
475.921	3.72
476.275	3.8
476.63	3.75
476.984	3.65
477.338	3.74
477.692	3.92
478.045	3.77
478.399	3.71
478.753	3.89
479.107	3.78
479.461	3.88
479.814	3.86
480.168	3.79
480.521	3.62
480.875	3.77
481.228	3.8
481.582	3.76
481.935	3.75
482.289	3.65
482.642	3.76
482.995	3.95
483.348	3.71
483.701	3.8
484.055	3.72
484.408	3.74
484.761	3.7
485.114	3.62
485.466	3.53
485.819	3.49
486.172	3.5
486.525	3.55
486.878	3.63
487.23	3.63
487.583	3.67
487.936	3.73
488.288	3.63
488.641	3.64
488.993	3.62
489.345	3.57
489.698	3.53
490.05	3.55
490.402	3.57
490.754	3.67
491.107	3.74
491.459	3.68
491.811	3.68
492.163	3.79
492.515	3.81
492.866	3.7
493.218	3.61
493.57	3.57
493.922	3.64
494.274	3.61
494.625	3.76
494.977	3.79
495.328	3.75
495.68	3.74
496.031	3.82
496.383	3.84
496.734	3.93
497.086	3.98
497.437	3.88
497.788	3.84
498.139	3.69
498.49	3.74
498.842	3.9
499.193	3.82
499.544	3.86
499.894	3.67
500.245	3.87
500.596	3.8
500.947	3.7
501.298	3.82
501.648	3.82
501.999	4.04
502.35	3.84
502.7	3.71
503.051	3.9
503.401	3.85
503.752	3.81
504.102	3.81
504.452	3.88
504.803	3.92
505.153	3.82
505.503	3.92
505.853	3.89
506.203	3.9
506.553	3.82
506.903	3.85
507.253	3.9
507.603	3.73
507.953	3.86
508.303	3.89
508.652	3.77
509.002	3.93
509.352	3.9
509.701	3.75
510.051	3.89
510.4	3.76
510.75	3.76
511.099	3.76
511.449	3.77
511.798	3.74
512.147	3.89
512.496	3.75
512.846	3.73
513.195	3.86
513.544	3.75
513.893	3.82
514.242	3.72
514.591	3.81
514.939	3.93
515.288	3.9
515.637	3.79
515.986	3.87
516.334	3.81
516.683	3.87
517.032	3.92
517.38	3.94
517.729	3.8
518.077	3.96
518.426	3.83
518.774	3.84
519.122	3.87
519.47	3.73
519.819	3.78
520.167	3.88
520.515	3.7
520.863	3.73
521.211	3.78
521.559	3.89
521.907	3.92
522.255	3.87
522.602	3.85
522.95	3.83
523.298	3.97
523.645	3.79
523.993	4.04
524.341	3.9
524.688	3.96
525.036	3.93
525.383	3.96
525.73	3.89
526.078	3.89
526.425	3.85
526.772	3.87
527.119	3.79
527.466	3.82
527.814	3.81
528.161	3.84
528.508	3.79
528.854	3.75
529.201	3.74
529.548	3.85
529.895	3.68
530.242	3.69
530.588	3.66
530.935	3.62
531.282	3.68
531.628	3.64
531.975	3.77
532.321	3.77
532.667	3.79
533.014	3.88
533.36	3.83
533.706	3.89
534.052	3.88
534.399	3.82
534.745	3.75
535.091	3.69
535.437	3.67
535.783	3.74
536.129	3.84
536.474	3.81
536.82	3.79
537.166	3.84
537.512	3.88
537.857	3.75
538.203	3.78
538.549	3.8
538.894	3.87
539.239	3.91
539.585	3.83
539.93	3.8
540.276	3.89
540.621	3.84
540.966	4.09
541.311	3.77
541.656	3.95
542.001	3.9
542.346	3.77
542.691	3.81
543.036	3.77
543.381	3.74
543.726	3.72
544.071	3.75
544.415	3.86
544.76	3.81
545.105	3.83
545.449	3.87
545.794	3.87
546.138	3.85
546.483	3.89
546.827	3.84
547.171	3.93
547.516	3.94
547.86	3.89
548.204	3.92
548.548	3.8
548.892	3.83
549.236	3.81
549.58	3.83
549.924	3.82
550.268	3.97
550.612	3.76
550.956	3.9
551.3	4.02
551.643	4.06
551.987	3.8
552.33	3.94
552.674	3.88
553.017	4.07
553.361	4
553.704	3.86
554.048	3.99
554.391	3.85
554.734	4.01
555.077	3.97
555.42	3.91
555.764	4.16
556.107	3.97
556.45	4
556.793	4.05
557.135	3.95
557.478	3.73
557.821	4.11
558.164	4.09
558.507	3.92
558.849	4.1
559.192	4.2
559.534	3.87
559.877	3.99
560.219	4.09
560.562	4.18
560.904	4.33
561.246	3.9
561.589	3.78
561.931	3.98
562.273	4.02
562.615	3.88
562.957	4.07
563.299	4.07
563.641	3.85
563.983	3.81
564.325	3.89
564.667	3.96
565.008	4.06
565.35	3.97
565.692	4.21
566.033	3.94
566.375	3.94
566.716	3.92
567.058	4.02
567.399	4.13
567.741	4
568.082	4.09
568.423	3.89
568.764	3.94
569.105	3.85
569.447	4.11
569.788	3.97
570.129	4.16
570.47	4.03
570.811	4.12
571.151	4.14
571.492	4.24
571.833	4.02
572.174	4.05
572.514	4.05
572.855	3.83
573.195	3.91
573.536	4.01
573.876	3.94
574.217	3.95
574.557	3.96
574.898	4
575.238	3.93
575.578	4.1
575.918	3.91
576.258	3.87
576.598	4.11
576.938	4.01
577.278	3.9
577.618	3.91
577.958	3.98
578.298	3.98
578.638	3.94
578.977	4.16
579.317	4.17
579.657	4.04
579.996	4.01
580.336	3.97
580.675	3.93
581.014	4.08
581.354	3.86
581.693	4.22
582.032	3.95
582.372	4.2
582.711	4.06
583.05	4.08
583.389	3.84
583.728	3.87
584.067	4.09
584.406	4.05
584.745	4.37
585.083	3.92
585.422	4.23
585.761	4.12
586.1	4.01
586.438	4.01
586.777	4.27
587.115	4.07
587.454	4.21
587.792	4.3
588.13	4.19
588.469	4.28
588.807	4.39
589.145	4.31
589.483	3.89
589.821	4.23
590.159	3.77
590.497	4.15
590.835	3.9
591.173	3.77
591.511	4.16
591.849	4.14
592.187	4.13
592.524	3.92
592.862	4.12
593.2	4.13
593.537	4.11
593.875	4.01
594.212	4.07
594.55	3.94
594.887	4.12
595.224	4.12
595.561	3.72
595.899	4.07
596.236	4.2
596.573	4.35
596.91	4.01
597.247	3.87
597.584	3.89
597.921	4.25
598.258	4.18
598.594	3.57
598.931	3.95
599.268	4.05
599.604	4.06
599.941	4
600.277	3.91
600.614	4.05
600.95	4.17
601.287	4.11
601.623	4.19
601.959	3.95
602.296	4.09
602.632	4.33
602.968	4.15
603.304	3.99
603.64	4.13
603.976	3.87
604.312	3.99
604.648	3.91
604.984	3.92
605.319	3.87
605.655	3.99
605.991	4.22
606.326	4.08
606.662	3.94
606.998	3.94
607.333	4.09
607.668	4.31
608.004	4.09
608.339	3.93
608.674	4.12
609.01	4.14
609.345	4.05
609.68	4.08
610.015	3.94
610.35	3.95
610.685	4.14
611.02	4.14
611.355	4.12
611.689	4.16
612.024	4.09
612.359	3.88
612.694	4.13
613.028	4.31
613.363	4.3
613.697	3.85
614.032	4.01
614.366	3.98
614.7	4.05
615.035	4.2
615.369	3.96
615.703	4.21
616.037	3.94
616.371	4.4
616.705	3.97
617.039	4.2
617.373	4.09
617.707	4.48
618.041	4.09
618.375	4.22
618.709	4.44
619.042	4.27
619.376	4.17
619.71	4.31
620.043	4.37
620.377	4.21
620.71	4.25
621.043	4.02
621.377	4.24
621.71	4.33
622.043	4.49
622.376	4.12
622.709	4.24
623.043	4.07
623.376	4.25
623.709	3.98
624.041	4.15
624.374	4.03
624.707	3.72
625.04	4.22
625.373	4.09
625.705	4.01
626.038	4.06
626.37	4.31
626.703	4.25
627.035	4.16
627.368	4.28
627.7	3.8
628.032	3.89
628.365	4.36
628.697	4.24
629.029	4.22
629.361	3.91
629.693	4.22
630.025	4.2
630.357	4.24
630.689	4.22
631.021	3.66
631.353	3.97
631.684	4.02
632.016	4.35
632.348	4.29
632.679	3.98
633.011	4.18
633.342	4.42
633.674	3.99
634.005	4.16
634.336	4.11
634.668	4.23
634.999	4.18
635.33	4.03
635.661	4.38
635.992	4.26
636.323	4.15
636.654	4.19
636.985	4.41
637.316	4.26
637.647	4.12
637.977	4.45
638.308	4.42
638.639	4.46
638.969	3.9
639.3	4.49
639.63	4.2
639.961	4.49
640.291	4.48
640.622	4.69
640.952	4.29
641.282	4.55
641.612	4.04
641.943	4.07
642.273	3.71
642.603	4.06
642.933	4.22
643.263	4.27
643.592	4.19
643.922	4.94
644.252	4.46
644.582	4.38
644.911	4.71
645.241	4.31
645.571	4.17
645.9	4.4
646.23	4.28
646.559	4.48
646.888	4.5
647.218	4.49
647.547	4.31
647.876	4.73
648.205	4.34
648.534	4.74
648.863	4.76
649.192	4.4
649.521	3.9
649.85	4.79
650.179	4.11
650.508	4.59
650.837	4.43
651.165	4.26
651.494	4.13
651.822	4.32
652.151	4.38
652.479	4.21
652.808	3.94
653.136	4.37
653.465	4.42
653.793	4.61
654.121	4.13
654.449	3.99
654.777	4.16
655.105	4.29
655.433	4.53
655.761	4.11
656.089	3.88
656.417	4.32
656.745	4.56
657.073	4.12
657.4	4.44
657.728	4.31
658.056	3.97
658.383	4.52
658.711	3.91
659.038	4.19
659.365	4.72
659.693	4.56
660.02	4.42
660.347	4.13
660.674	4.73
661.001	3.98
661.329	4.51
661.656	4.13
661.982	3.91
662.309	4.28
662.636	4.37
662.963	4.03
663.29	3.92
663.616	4.36
663.943	4.16
664.27	4.48
664.596	4.25
664.923	4.3
665.249	4.32
665.576	4.22
665.902	4.19
666.228	3.94
666.554	4.47
666.881	4.53
667.207	4.11
667.533	4.24
667.859	4.61
668.185	4.45
668.511	4.55
668.837	4.25
669.162	4.47
669.488	3.95
669.814	4.51
670.139	4.39
670.465	4.89
670.791	4.76
671.116	4.53
671.442	4.53
671.767	4.81
672.092	4.83
672.418	4.45
672.743	4.65
673.068	4.01
673.393	4.45
673.718	4.72
674.043	4.15
674.368	4.21
674.693	4.46
675.018	4.18
675.343	4.47
675.667	4.71
675.992	4.54
676.317	4.82
676.641	4.35
676.966	4.01
677.29	4.41
677.615	5.01
677.939	4.24
678.264	4.6
678.588	4.69
678.912	4.61
679.236	4.75
679.56	4.68
679.885	5.02
680.209	4.58
680.532	4.75
680.856	4.4
681.18	3.99
681.504	4.51
681.828	4.84
682.152	4.98
682.475	4.65
682.799	4.77
683.122	4.38
683.446	4.17
683.769	3.96
684.093	5.11
684.416	3.79
684.739	4.19
685.062	5.14
685.386	4.43
685.709	4.71
686.032	5.12
686.355	5.49
686.678	4.5
687.001	4.34
687.324	4.82
687.646	5.71
687.969	4.45
688.292	4.58
688.614	4.58
688.937	4.26
689.26	4.23
689.582	5.47
689.904	4.76
690.227	4.42
690.549	4.35
690.871	4.81
691.194	4.7
691.516	5.18
691.838	3.92
692.16	5.33
692.482	4.48
