Data from 0033_chest_Reflection__4__171.txt Node

Date: Thu Oct 20 22:16:02 CDT 2022
User: ToomeyLab
Spectrometer: FLMS14357
Trigger mode: 0
Integration Time (sec): 1.000000E-2
Scans to average: 100
Electric dark correction enabled: true
Nonlinearity correction enabled: false
Boxcar width: 0
XAxis mode: Wavelengths
Number of Pixels in Spectrum: 2048
>>>>>Begin Spectral Data<<<<<
189.047	105.31
189.435	105.31
189.823	105.31
190.211	197.31
190.599	113.88
190.987	31.11
191.375	-925.48
191.763	-1880.73
192.151	43.76
192.538	424.21
192.926	717.53
193.314	-13.46
193.702	-161.34
194.089	60.66
194.477	57.79
194.864	-54.59
195.252	63.2
195.639	-3.72
196.027	36.89
196.414	67.67
196.801	-51.89
197.189	21.76
197.576	-539.78
197.963	308.04
198.351	35.93
198.738	-25.22
199.125	-11.55
199.512	16.4
199.899	-24.47
200.286	11.04
200.673	-25.19
201.06	-3.34
201.447	31.89
201.833	4.6
202.22	8.98
202.607	19.81
202.994	-22.79
203.38	-13.64
203.767	41.5
204.154	15.44
204.54	-28.42
204.927	3.86
205.313	13.73
205.699	22.51
206.086	6.9
206.472	-34.12
206.858	1.97
207.245	5.54
207.631	-15.46
208.017	-19.14
208.403	-134.03
208.789	15.33
209.175	6.04
209.561	28.95
209.947	16.08
210.333	29.11
210.719	3.49
211.105	7.34
211.491	-24.15
211.876	-15.17
212.262	4.1
212.648	-13.47
213.034	7.85
213.419	-21.41
213.805	-4.91
214.19	23.3
214.576	-11.93
214.961	14.63
215.346	-8.72
215.732	-9.02
216.117	-5.65
216.502	-3.69
216.888	-4.92
217.273	-13.27
217.658	20.82
218.043	19.92
218.428	-3.6
218.813	20.66
219.198	7.15
219.583	-3.41
219.968	17.42
220.353	0.49
220.738	-13.04
221.122	-7.52
221.507	-15.44
221.892	1.69
222.276	-4.16
222.661	20.5
223.046	7.97
223.43	13.32
223.815	5.36
224.199	4.78
224.583	-5.44
224.968	0.38
225.352	10.13
225.736	4.95
226.121	-4.42
226.505	11
226.889	-3.53
227.273	-2.5
227.657	2.09
228.041	0.27
228.425	3.32
228.809	5.93
229.193	1.78
229.577	2.74
229.961	3.93
230.344	4.08
230.728	3.78
231.112	2.99
231.495	4.05
231.879	3.84
232.263	3.8
232.646	5.3
233.03	3.07
233.413	1.62
233.797	2.13
234.18	1.86
234.563	3.4
234.946	5.18
235.33	4.3
235.713	3.72
236.096	3.56
236.479	3.65
236.862	5.01
237.245	3.57
237.628	3.73
238.011	4.62
238.394	3.58
238.777	3.13
239.16	3.21
239.543	3.07
239.925	3.16
240.308	3.59
240.691	6.05
241.073	3.07
241.456	5.3
241.838	3.28
242.221	4.1
242.603	3.32
242.986	4.66
243.368	4.2
243.75	4.01
244.133	4.14
244.515	3.96
244.897	3.21
245.279	2.61
245.661	4.34
246.043	4.17
246.425	4.29
246.807	4.49
247.189	3.69
247.571	3.87
247.953	3.75
248.335	3.75
248.717	3.97
249.098	3.61
249.48	3.63
249.862	3.51
250.243	3.41
250.625	3.8
251.006	3.76
251.388	4.54
251.769	3.36
252.151	4.57
252.532	3.08
252.913	3.78
253.295	3.88
253.676	4.31
254.057	2.97
254.438	4.44
254.819	4.06
255.2	4.79
255.581	3.5
255.962	4.76
256.343	3.1
256.724	3.38
257.105	4.39
257.486	3.09
257.867	4.96
258.247	4.68
258.628	4.02
259.009	3.13
259.389	3.84
259.77	3.81
260.15	3.76
260.531	3.87
260.911	3.64
261.292	3.75
261.672	3.71
262.052	4.01
262.432	3.79
262.813	3.26
263.193	4.14
263.573	3.93
263.953	3.28
264.333	3.81
264.713	3.73
265.093	3.69
265.473	4.04
265.853	4.04
266.233	3.66
266.612	4.05
266.992	3.66
267.372	4.18
267.752	3.34
268.131	4
268.511	3.96
268.89	3.8
269.27	3.3
269.649	3.58
270.029	3.38
270.408	3.49
270.787	3.46
271.167	3.37
271.546	3.6
271.925	3.65
272.304	3.6
272.683	3.96
273.062	2.71
273.441	3.64
273.82	4.04
274.199	3.1
274.578	3.17
274.957	3.22
275.336	3.76
275.715	3.35
276.093	3.68
276.472	4.06
276.851	3.84
277.229	3.1
277.608	2.98
277.986	3.46
278.365	3.56
278.743	3.21
279.122	3.49
279.5	3.17
279.878	3.67
280.257	3.58
280.635	3.51
281.013	3.48
281.391	4.05
281.769	3.05
282.147	3.19
282.525	3.34
282.903	3.74
283.281	3.56
283.659	3.46
284.037	2.77
284.415	3.63
284.792	3.29
285.17	3.77
285.548	3.26
285.925	3.39
286.303	3.46
286.68	3.84
287.058	3.67
287.435	3.35
287.813	3.47
288.19	3.29
288.567	3.45
288.945	3.73
289.322	3.47
289.699	3.21
290.076	3.27
290.453	3.41
290.83	3.69
291.207	3.66
291.584	3.55
291.961	3.44
292.338	3.46
292.715	4.07
293.092	3.72
293.469	3.95
293.845	3.9
294.222	3.87
294.599	3.88
294.975	3.69
295.352	3.96
295.728	3.36
296.105	4.09
296.481	3.59
296.858	3.76
297.234	3.78
297.61	3.97
297.986	3.63
298.363	3.67
298.739	3.83
299.115	3.47
299.491	3.7
299.867	3.44
300.243	3.92
300.619	4.2
300.995	3.26
301.371	3.92
301.746	3.41
302.122	4.01
302.498	3.9
302.874	4.12
303.249	4.11
303.625	3.59
304	4.07
304.376	3.48
304.751	4.13
305.127	3.61
305.502	4.15
305.878	3.88
306.253	3.56
306.628	3.89
307.003	3.65
307.378	3.2
307.754	3.87
308.129	4.08
308.504	3.49
308.879	3.84
309.254	3.79
309.629	3.75
310.003	3.31
310.378	3.53
310.753	3.9
311.128	3.63
311.502	3.66
311.877	3.74
312.252	3.6
312.626	4.03
313.001	3.59
313.375	3.85
313.75	3.77
314.124	3.63
314.498	3.69
314.873	3.85
315.247	3.73
315.621	4.04
315.995	3.96
316.369	3.61
316.743	3.31
317.117	3.95
317.491	4.03
317.865	3.49
318.239	3.83
318.613	4.75
318.987	4.17
319.361	4.07
319.734	3.39
320.108	4
320.482	4.06
320.855	4.16
321.229	4.08
321.602	3.3
321.976	3.98
322.349	4.22
322.723	4.73
323.096	3.78
323.469	4.09
323.843	3.66
324.216	4.01
324.589	4.33
324.962	3.9
325.335	3.98
325.708	3.87
326.081	4.04
326.454	4.12
326.827	3.69
327.2	4.12
327.573	4.15
327.945	4.3
328.318	3.61
328.691	4.03
329.063	4.06
329.436	3.76
329.809	4.34
330.181	4.38
330.553	3.74
330.926	4.51
331.298	3.83
331.671	4.76
332.043	4.35
332.415	4.25
332.787	4.49
333.159	3.88
333.532	4.32
333.904	3.98
334.276	4.21
334.648	3.86
335.02	4.34
335.391	3.78
335.763	4.04
336.135	3.98
336.507	3.37
336.879	4.43
337.25	3.88
337.622	4.56
337.993	3.74
338.365	4.13
338.736	4.68
339.108	3.78
339.479	4.27
339.851	4.14
340.222	3.72
340.593	4.11
340.964	4.5
341.336	3.85
341.707	3.83
342.078	3.94
342.449	3.83
342.82	4.44
343.191	4.37
343.562	4.26
343.933	3.93
344.303	3.83
344.674	3.94
345.045	4.26
345.416	4.32
345.786	4.03
346.157	4.17
346.527	4
346.898	3.94
347.268	3.81
347.639	3.9
348.009	3.97
348.38	4.12
348.75	3.51
349.12	4.06
349.49	3.89
349.861	4.46
350.231	4.39
350.601	4.3
350.971	3.77
351.341	4.19
351.711	4.35
352.081	3.86
352.45	4.53
352.82	3.74
353.19	3.82
353.56	4.39
353.929	3.88
354.299	3.88
354.669	4
355.038	3.96
355.408	3.83
355.777	4.42
356.147	4.28
356.516	3.84
356.885	4.04
357.254	4.07
357.624	4.09
357.993	3.86
358.362	4.32
358.731	4.28
359.1	3.59
359.469	4.29
359.838	3.91
360.207	4.66
360.576	4
360.945	4.33
361.314	3.8
361.682	4.04
362.051	3.84
362.42	3.87
362.788	4.27
363.157	4.08
363.525	4.03
363.894	3.91
364.262	4.13
364.631	4.05
364.999	4.14
365.367	4.36
365.735	4.24
366.104	4.02
366.472	4.23
366.84	4.42
367.208	4.16
367.576	4.17
367.944	4.57
368.312	4.1
368.68	4.28
369.048	3.92
369.416	4.04
369.783	3.95
370.151	4.44
370.519	4.42
370.886	4.22
371.254	4.29
371.621	3.98
371.989	4.07
372.356	3.93
372.724	4.26
373.091	4.51
373.458	4.09
373.826	4.39
374.193	4.27
374.56	4.07
374.927	3.77
375.294	4.15
375.661	4.72
376.028	4.04
376.395	4.29
376.762	4.24
377.129	4.23
377.496	3.94
377.863	4.1
378.229	4.1
378.596	4.17
378.963	4.33
379.329	4.44
379.696	3.96
380.062	4.2
380.429	4.56
380.795	4.34
381.161	4.27
381.528	4.15
381.894	4.04
382.26	4.19
382.626	4.22
382.993	4.31
383.359	4.28
383.725	4.56
384.091	4.2
384.457	4.18
384.823	4.06
385.188	4.53
385.554	3.83
385.92	4.07
386.286	4.17
386.651	4.08
387.017	4.16
387.383	4.44
387.748	4.37
388.114	4.26
388.479	4.28
388.845	4.52
389.21	4.36
389.575	4.17
389.94	4.55
390.306	4.4
390.671	4.21
391.036	4.39
391.401	3.97
391.766	4.38
392.131	4.33
392.496	4.1
392.861	4.19
393.226	4.26
393.591	4.38
393.956	4.39
394.32	4.5
394.685	4.45
395.05	4.18
395.414	3.98
395.779	4.22
396.143	4.41
396.508	4.25
396.872	4.3
397.236	4.11
397.601	4.57
397.965	4.46
398.329	4.54
398.694	4.39
399.058	4.18
399.422	4.32
399.786	4.18
400.15	4.41
400.514	4.81
400.878	4.25
401.242	4.6
401.605	4.69
401.969	4.55
402.333	4.56
402.697	4.42
403.06	4.31
403.424	4.35
403.787	4.55
404.151	4.2
404.514	4.23
404.878	4.34
405.241	4.31
405.604	4.42
405.968	4.26
406.331	4.29
406.694	4.3
407.057	4.37
407.42	4.51
407.783	4.33
408.146	4.64
408.509	4.39
408.872	4.49
409.235	4.3
409.598	4.6
409.961	4.41
410.323	4.64
410.686	4.5
411.049	4.43
411.411	4.27
411.774	4.2
412.136	4.51
412.499	4.39
412.861	4.55
413.223	4.51
413.586	4.47
413.948	4.45
414.31	4.32
414.672	4.53
415.035	4.41
415.397	4.5
415.759	4.72
416.121	4.4
416.483	4.46
416.845	4.65
417.206	4.52
417.568	4.63
417.93	4.38
418.292	4.5
418.653	4.44
419.015	4.51
419.377	4.53
419.738	4.53
420.1	4.48
420.461	4.5
420.822	4.41
421.184	4.36
421.545	4.49
421.906	4.34
422.267	4.38
422.629	4.45
422.99	4.39
423.351	4.34
423.712	4.38
424.073	4.44
424.434	4.45
424.795	4.45
425.155	4.39
425.516	4.4
425.877	4.36
426.238	4.56
426.598	4.48
426.959	4.43
427.32	4.65
427.68	4.57
428.041	4.64
428.401	4.57
428.761	4.57
429.122	4.44
429.482	4.58
429.842	4.56
430.202	4.66
430.563	4.43
430.923	4.92
431.283	4.52
431.643	4.48
432.003	4.52
432.363	4.8
432.722	4.76
433.082	4.59
433.442	4.59
433.802	4.54
434.161	4.68
434.521	4.66
434.881	4.51
435.24	4.66
435.6	4.54
435.959	4.56
436.319	4.57
436.678	4.57
437.037	4.59
437.396	4.79
437.756	4.7
438.115	4.68
438.474	4.6
438.833	4.54
439.192	4.6
439.551	4.66
439.91	4.57
440.269	4.62
440.628	4.55
440.987	4.63
441.345	4.73
441.704	4.6
442.063	4.65
442.421	4.46
442.78	4.59
443.138	4.68
443.497	4.6
443.855	4.62
444.214	4.66
444.572	4.76
444.93	4.49
445.288	4.61
445.647	4.75
446.005	4.53
446.363	4.5
446.721	4.64
447.079	4.66
447.437	4.54
447.795	4.63
448.153	4.54
448.51	4.67
448.868	4.67
449.226	4.67
449.584	4.65
449.941	4.68
450.299	4.82
450.656	4.68
451.014	4.74
451.371	4.83
451.729	4.72
452.086	4.94
452.443	4.74
452.801	4.6
453.158	4.78
453.515	4.8
453.872	4.81
454.229	4.62
454.586	4.76
454.943	4.79
455.3	4.89
455.657	4.72
456.014	4.84
456.371	4.9
456.727	4.87
457.084	4.76
457.441	4.85
457.797	4.76
458.154	4.88
458.51	4.8
458.867	5.02
459.223	5.01
459.58	4.82
459.936	4.96
460.292	4.73
460.648	4.72
461.005	4.66
461.361	4.71
461.717	4.79
462.073	4.94
462.429	4.85
462.785	4.96
463.141	5.02
463.496	4.98
463.852	4.81
464.208	4.94
464.564	5
464.919	5.02
465.275	5.01
465.631	4.76
465.986	5.06
466.342	4.9
466.697	4.99
467.052	4.78
467.408	5.01
467.763	4.81
468.118	5.03
468.473	4.95
468.829	5.12
469.184	4.89
469.539	4.88
469.894	5.01
470.249	5.18
470.603	4.8
470.958	4.95
471.313	4.95
471.668	4.88
472.023	4.98
472.377	4.93
472.732	5.06
473.086	4.93
473.441	4.99
473.795	5.06
474.15	4.97
474.504	4.94
474.859	5.25
475.213	5.15
475.567	5.21
475.921	4.96
476.275	5.22
476.63	5.16
476.984	5.22
477.338	4.97
477.692	4.96
478.045	4.98
478.399	5.15
478.753	5.02
479.107	4.9
479.461	5.14
479.814	5.04
480.168	5.08
480.521	5.12
480.875	5.02
481.228	5.09
481.582	5.1
481.935	5.09
482.289	4.96
482.642	4.95
482.995	5.06
483.348	5.11
483.701	4.94
484.055	5
484.408	4.87
484.761	4.86
485.114	4.75
485.466	4.75
485.819	4.79
486.172	4.9
486.525	4.98
486.878	5.04
487.23	5.1
487.583	4.98
487.936	5.08
488.288	4.88
488.641	4.91
488.993	4.85
489.345	4.89
489.698	4.94
490.05	5
490.402	5.09
490.754	5.13
491.107	5.08
491.459	5.21
491.811	5.17
492.163	5.15
492.515	5.02
492.866	5.07
493.218	4.95
493.57	5
493.922	5.14
494.274	5.15
494.625	5.22
494.977	5.33
495.328	5.17
495.68	5.27
496.031	5.35
496.383	5.38
496.734	5.35
497.086	5.26
497.437	5.39
497.788	5.45
498.139	5.21
498.49	5.2
498.842	5.26
499.193	5.32
499.544	5.34
499.894	5.42
500.245	5.29
500.596	5.34
500.947	5.44
501.298	5.43
501.648	5.35
501.999	5.38
502.35	5.47
502.7	5.47
503.051	5.49
503.401	5.39
503.752	5.49
504.102	5.49
504.452	5.5
504.803	5.45
505.153	5.36
505.503	5.63
505.853	5.43
506.203	5.42
506.553	5.6
506.903	5.43
507.253	5.39
507.603	5.56
507.953	5.55
508.303	5.59
508.652	5.51
509.002	5.45
509.352	5.49
509.701	5.57
510.051	5.45
510.4	5.49
510.75	5.45
511.099	5.47
511.449	5.57
511.798	5.58
512.147	5.62
512.496	5.71
512.846	5.67
513.195	5.67
513.544	5.62
513.893	5.64
514.242	5.51
514.591	5.74
514.939	5.68
515.288	5.66
515.637	5.66
515.986	5.78
516.334	5.72
516.683	5.78
517.032	5.59
517.38	5.77
517.729	5.82
518.077	5.75
518.426	5.72
518.774	5.79
519.122	5.78
519.47	5.62
519.819	5.69
520.167	5.71
520.515	5.71
520.863	5.63
521.211	5.69
521.559	5.82
521.907	5.68
522.255	5.76
522.602	5.83
522.95	5.92
523.298	5.87
523.645	5.92
523.993	5.83
524.341	5.87
524.688	5.88
525.036	5.95
525.383	6
525.73	5.86
526.078	5.99
526.425	5.99
526.772	5.83
527.119	5.76
527.466	5.87
527.814	5.9
528.161	5.93
528.508	5.95
528.854	5.96
529.201	5.86
529.548	5.79
529.895	5.71
530.242	5.68
530.588	5.77
530.935	5.86
531.282	5.85
531.628	5.89
531.975	6.01
532.321	6.1
532.667	6.04
533.014	6.1
533.36	6.08
533.706	6.12
534.052	6.05
534.399	6.03
534.745	5.98
535.091	6
535.437	6.05
535.783	6.13
536.129	6.23
536.474	6.23
536.82	6.2
537.166	6.21
537.512	6.18
537.857	6.16
538.203	6.18
538.549	6.24
538.894	6.31
539.239	6.29
539.585	6.46
539.93	6.43
540.276	6.5
540.621	6.42
540.966	6.41
541.311	6.3
541.656	6.41
542.001	6.32
542.346	6.19
542.691	6.17
543.036	6.16
543.381	6.27
543.726	6.28
544.071	6.39
544.415	6.43
544.76	6.33
545.105	6.5
545.449	6.55
545.794	6.51
546.138	6.65
546.483	6.65
546.827	6.58
547.171	6.51
547.516	6.69
547.86	6.6
548.204	6.67
548.548	6.56
548.892	6.77
549.236	6.81
549.58	6.79
549.924	6.86
550.268	6.85
550.612	6.98
550.956	6.9
551.3	6.94
551.643	6.86
551.987	7.15
552.33	6.92
552.674	6.81
553.017	7.05
553.361	7.05
553.704	7.09
554.048	7.08
554.391	6.98
554.734	7.11
555.077	7.09
555.42	7.08
555.764	6.97
556.107	7.15
556.45	7.14
556.793	7.19
557.135	7.19
557.478	7.17
557.821	7.34
558.164	7.21
558.507	7.21
558.849	7.45
559.192	7.48
559.534	7.37
559.877	7.39
560.219	7.53
560.562	7.35
560.904	7.58
561.246	7.42
561.589	7.56
561.931	7.43
562.273	7.28
562.615	7.62
562.957	7.49
563.299	7.58
563.641	7.46
563.983	7.69
564.325	7.38
564.667	7.57
565.008	7.65
565.35	7.79
565.692	7.62
566.033	7.49
566.375	7.49
566.716	7.66
567.058	7.63
567.399	7.86
567.741	7.6
568.082	7.75
568.423	7.86
568.764	7.62
569.105	7.81
569.447	7.84
569.788	7.91
570.129	7.94
570.47	7.94
570.811	7.7
571.151	7.89
571.492	7.85
571.833	7.87
572.174	8.07
572.514	8
572.855	8.16
573.195	8.07
573.536	7.97
573.876	7.99
574.217	8.13
574.557	8.12
574.898	8
575.238	8.35
575.578	8.24
575.918	8.21
576.258	8.1
576.598	8.29
576.938	8.38
577.278	8.33
577.618	8.44
577.958	8.18
578.298	8.48
578.638	8.37
578.977	8.5
579.317	8.44
579.657	8.3
579.996	8.56
580.336	8.56
580.675	8.71
581.014	8.48
581.354	8.61
581.693	8.65
582.032	8.88
582.372	8.87
582.711	8.54
583.05	8.76
583.389	8.89
583.728	8.8
584.067	8.96
584.406	8.81
584.745	8.84
585.083	8.73
585.422	8.91
585.761	9.21
586.1	8.88
586.438	9.13
586.777	9.07
587.115	8.95
587.454	9.18
587.792	9
588.13	9.2
588.469	9.42
588.807	9.19
589.145	9.21
589.483	9.11
589.821	9.02
590.159	9.2
590.497	9.31
590.835	9.07
591.173	9.29
591.511	9.27
591.849	9.43
592.187	9.12
592.524	9.33
592.862	9.29
593.2	9.43
593.537	9.31
593.875	9.46
594.212	9.34
594.55	9.4
594.887	9.45
595.224	9.87
595.561	9.72
595.899	9.65
596.236	9.9
596.573	9.93
596.91	9.69
597.247	9.51
597.584	9.64
597.921	9.77
598.258	9.61
598.594	9.73
598.931	9.81
599.268	9.77
599.604	9.6
599.941	9.91
600.277	9.8
600.614	9.78
600.95	10.16
601.287	10.02
601.623	9.97
601.959	10.3
602.296	9.94
602.632	9.8
602.968	10.28
603.304	10.14
603.64	10.39
603.976	10.09
604.312	10.12
604.648	10.04
604.984	10.02
605.319	10
605.655	10.38
605.991	10.15
606.326	10.2
606.662	10.35
606.998	10.43
607.333	10.22
607.668	10.17
608.004	10.45
608.339	10.57
608.674	10.54
609.01	10.61
609.345	10.54
609.68	10.45
610.015	10.61
610.35	10.58
610.685	10.53
611.02	10.59
611.355	10.57
611.689	10.62
612.024	10.72
612.359	10.6
612.694	10.89
613.028	10.77
613.363	10.65
613.697	11.04
614.032	10.94
614.366	11.14
614.7	10.87
615.035	10.84
615.369	11.01
615.703	11.05
616.037	11.11
616.371	10.89
616.705	11.06
617.039	11.01
617.373	11.45
617.707	11.36
618.041	11.14
618.375	11.15
618.709	11.04
619.042	11.25
619.376	11.21
619.71	11.35
620.043	11.34
620.377	11.31
620.71	11.53
621.043	11.45
621.377	11.18
621.71	11.3
622.043	11.31
622.376	11.74
622.709	11.83
623.043	11.57
623.376	11.77
623.709	11.67
624.041	11.92
624.374	11.97
624.707	11.82
625.04	11.92
625.373	12.25
625.705	11.65
626.038	12
626.37	11.81
626.703	11.99
627.035	11.85
627.368	12.31
627.7	11.95
628.032	12.13
628.365	12.06
628.697	11.99
629.029	12.2
629.361	12.02
629.693	12.32
630.025	12.33
630.357	12.26
630.689	12.22
631.021	12.44
631.353	12.35
631.684	12.46
632.016	11.89
632.348	12.16
632.679	12.22
633.011	12.68
633.342	12.66
633.674	12.22
634.005	12.16
634.336	12.52
634.668	12.45
634.999	12.41
635.33	12.76
635.661	12.22
635.992	12.45
636.323	13.05
636.654	12.84
636.985	13.15
637.316	12.69
637.647	12.73
637.977	12.73
638.308	12.6
638.639	12.78
638.969	12.71
639.3	12.88
639.63	12.85
639.961	12.66
640.291	12.4
640.622	13.17
640.952	13.04
641.282	13.1
641.612	13.49
641.943	13.29
642.273	13.13
642.603	13.05
642.933	13.63
643.263	12.97
643.592	13.62
643.922	13.49
644.252	13.41
644.582	13.48
644.911	13.49
645.241	13.29
645.571	13.46
645.9	13.32
646.23	13.29
646.559	13.18
646.888	13.49
647.218	13.34
647.547	13.56
647.876	13.33
648.205	13.42
648.534	13.36
648.863	13.41
649.192	13.75
649.521	13.78
649.85	13.88
650.179	13.68
650.508	13.91
650.837	13.99
651.165	13.8
651.494	13.72
651.822	13.63
652.151	13.95
652.479	13.47
652.808	13.83
653.136	13.56
653.465	13.86
653.793	14.21
654.121	14.52
654.449	14
654.777	13.85
655.105	14.49
655.433	13.68
655.761	14.08
656.089	13.95
656.417	14.4
656.745	13.92
657.073	14.35
657.4	14.04
657.728	14.38
658.056	14.44
658.383	14.09
658.711	14.38
659.038	14.54
659.365	14.44
659.693	14.07
660.02	14.32
660.347	14.51
660.674	14.36
661.001	14.27
661.329	14.51
661.656	14.5
661.982	14.72
662.309	14.53
662.636	14.63
662.963	14.65
663.29	14.53
663.616	14.68
663.943	15.04
664.27	15.02
664.596	15.12
664.923	14.8
665.249	14.85
665.576	14.62
665.902	14.41
666.228	15.43
666.554	14.43
666.881	15.41
667.207	14.91
667.533	14.9
667.859	14.57
668.185	16.02
668.511	15.12
668.837	14.99
669.162	15.35
669.488	15.54
669.814	15.45
670.139	15.52
670.465	15.1
670.791	15.67
671.116	15.73
671.442	15.38
671.767	15.28
672.092	15.23
672.418	15.25
672.743	15.21
673.068	14.55
673.393	15.31
673.718	15.78
674.043	15.02
674.368	15.22
674.693	15.88
675.018	15.19
675.343	15.28
675.667	15.79
675.992	15.86
676.317	15.67
676.641	15.32
676.966	15.51
677.29	15.99
677.615	15.84
677.939	16
678.264	15.9
678.588	15.67
678.912	16.24
679.236	16.33
679.56	15.68
679.885	15.93
680.209	16.27
680.532	16.28
680.856	16.5
681.18	16.14
681.504	16.11
681.828	15.89
682.152	16.23
682.475	16.02
682.799	16.56
683.122	16.37
683.446	15.81
683.769	16.34
684.093	16.58
684.416	16.36
684.739	16.01
685.062	16.16
685.386	16.39
685.709	16.28
686.032	16
686.355	16.16
686.678	16.56
687.001	16.64
