Data from 0033_forehead_Reflection__1__178.txt Node

Date: Thu Oct 20 22:18:35 CDT 2022
User: ToomeyLab
Spectrometer: FLMS14357
Trigger mode: 0
Integration Time (sec): 1.000000E-2
Scans to average: 100
Electric dark correction enabled: true
Nonlinearity correction enabled: false
Boxcar width: 0
XAxis mode: Wavelengths
Number of Pixels in Spectrum: 2048
>>>>>Begin Spectral Data<<<<<
189.047	502.42
189.435	502.42
189.823	502.42
190.211	44.25
190.599	-61.2
190.987	37.03
191.375	-1310.68
191.763	983.49
192.151	38.34
192.538	-339.23
192.926	387.07
193.314	-45.91
193.702	1296.65
194.089	139.2
194.477	136.56
194.864	50.58
195.252	73.56
195.639	-28.5
196.027	29.47
196.414	91.39
196.801	65.99
197.189	18.83
197.576	-50.34
197.963	44.81
198.351	23.74
198.738	-2.94
199.125	33.91
199.512	-16.52
199.899	-65.67
200.286	38.48
200.673	34.01
201.06	27.31
201.447	57.92
201.833	8.91
202.22	6.12
202.607	15.6
202.994	66.14
203.38	9.8
203.767	-16.04
204.154	24.16
204.54	13.42
204.927	20.1
205.313	23.26
205.699	1.98
206.086	34.99
206.472	-0.71
206.858	0.84
207.245	38.86
207.631	10.06
208.017	-56.3
208.403	-69.06
208.789	6.56
209.175	3.92
209.561	23.35
209.947	15.58
210.333	31.27
210.719	23.5
211.105	28.11
211.491	-25.11
211.876	-28.04
212.262	31.19
212.648	16.12
213.034	3.54
213.419	-29.97
213.805	-12.59
214.19	-24.14
214.576	0.57
214.961	-33.04
215.346	-41.47
215.732	-10.7
216.117	-19.78
216.502	11.6
216.888	-5.08
217.273	15.6
217.658	23.61
218.043	31.63
218.428	7.01
218.813	8.57
219.198	16.26
219.583	8.8
219.968	25.44
220.353	0.58
220.738	6.32
221.122	9.47
221.507	-7.46
221.892	-25.48
222.276	9.15
222.661	13.56
223.046	0.11
223.43	-4.86
223.815	9.78
224.199	-8.57
224.583	-2.96
224.968	6.17
225.352	3.37
225.736	3.46
226.121	0.65
226.505	6.39
226.889	0.99
227.273	-3.18
227.657	1.39
228.041	0.66
228.425	2.34
228.809	0.75
229.193	1.89
229.577	0.69
229.961	2.15
230.344	2.84
230.728	2.43
231.112	2.78
231.495	3.82
231.879	2.36
232.263	2.69
232.646	2.76
233.03	0.24
233.413	2.26
233.797	2.03
234.18	0.58
234.563	3.12
234.946	0.43
235.33	0.97
235.713	1.23
236.096	0.8
236.479	2.28
236.862	2.9
237.245	2.7
237.628	2.44
238.011	3.02
238.394	3.34
238.777	2.42
239.16	1.06
239.543	0.31
239.925	1.2
240.308	3.22
240.691	2.82
241.073	1.31
241.456	2.72
241.838	1.92
242.221	1.81
242.603	1.98
242.986	1.84
243.368	2.42
243.75	2.63
244.133	2.73
244.515	2.04
244.897	2.13
245.279	1.27
245.661	3.25
246.043	2.75
246.425	2.88
246.807	2.99
247.189	2.89
247.571	2.66
247.953	2.08
248.335	2.21
248.717	1.96
249.098	2.39
249.48	2.3
249.862	2.16
250.243	2.36
250.625	2.91
251.006	2.92
251.388	1.99
251.769	2.53
252.151	2.59
252.532	2.2
252.913	1.82
253.295	2.3
253.676	2.84
254.057	1.85
254.438	2.46
254.819	1.97
255.2	2.96
255.581	2.16
255.962	3.74
256.343	1.72
256.724	3.02
257.105	2.84
257.486	2.77
257.867	3.21
258.247	2.45
258.628	2.63
259.009	2.31
259.389	2.26
259.77	1.78
260.15	2.28
260.531	2.4
260.911	2.35
261.292	2.57
261.672	2.3
262.052	2.15
262.432	2.58
262.813	2.16
263.193	3.19
263.573	2.11
263.953	2.4
264.333	2.1
264.713	2.62
265.093	2.47
265.473	2.3
265.853	3.13
266.233	2.15
266.612	3.59
266.992	1.78
267.372	2.75
267.752	2.58
268.131	2.75
268.511	2.99
268.89	3.14
269.27	2.44
269.649	2.16
270.029	2.06
270.408	1.73
270.787	1.83
271.167	2.18
271.546	2.55
271.925	2.23
272.304	2.42
272.683	2.58
273.062	2.08
273.441	2.26
273.82	2.63
274.199	2.03
274.578	2.12
274.957	1.83
275.336	2.02
275.715	2.18
276.093	2.91
276.472	3.05
276.851	2.63
277.229	2.24
277.608	2.29
277.986	2.63
278.365	2.49
278.743	1.81
279.122	2.53
279.5	1.83
279.878	2.53
280.257	2.3
280.635	2.4
281.013	2.18
281.391	2.7
281.769	2.55
282.147	1.82
282.525	2.16
282.903	2.24
283.281	1.82
283.659	2.22
284.037	1.95
284.415	1.8
284.792	1.96
285.17	2.46
285.548	2.08
285.925	2.1
286.303	1.96
286.68	2.77
287.058	2.16
287.435	2.24
287.813	2.08
288.19	2.34
288.567	2.21
288.945	2.35
289.322	2.34
289.699	1.71
290.076	2.36
290.453	2.25
290.83	2.44
291.207	2.55
291.584	2.41
291.961	2.22
292.338	2.17
292.715	2.54
293.092	3.02
293.469	2.72
293.845	2.59
294.222	3.18
294.599	3.22
294.975	2.2
295.352	2.52
295.728	2.56
296.105	2.84
296.481	2.61
296.858	2.45
297.234	2.86
297.61	2.71
297.986	2.42
298.363	2.68
298.739	2.53
299.115	2.53
299.491	2.69
299.867	2.43
300.243	2.46
300.619	2.94
300.995	2.59
301.371	2.86
301.746	2.52
302.122	3.01
302.498	2.65
302.874	3.56
303.249	3.24
303.625	3.13
304	2.53
304.376	2.72
304.751	3.03
305.127	2.61
305.502	2.93
305.878	3.19
306.253	3.05
306.628	2.96
307.003	3.21
307.378	2.42
307.754	3.34
308.129	2.85
308.504	3.22
308.879	3.19
309.254	3.16
309.629	3.11
310.003	2.93
310.378	3.3
310.753	3.44
311.128	3.01
311.502	3.16
311.877	3.33
312.252	3.32
312.626	2.9
313.001	3.43
313.375	3.42
313.75	3.1
314.124	3.18
314.498	2.93
314.873	3.17
315.247	2.92
315.621	3.07
315.995	3.36
316.369	3.59
316.743	3.04
317.117	3.18
317.491	4.1
317.865	3.92
318.239	3.27
318.613	4.09
318.987	3.09
319.361	3.59
319.734	2.81
320.108	3.51
320.482	3.21
320.855	4.13
321.229	4.41
321.602	3.15
321.976	3.14
322.349	3.53
322.723	4.09
323.096	3.83
323.469	3.44
323.843	4.39
324.216	3.87
324.589	4.57
324.962	3.4
325.335	3.83
325.708	4.06
326.081	4.32
326.454	3.64
326.827	4.33
327.2	4.36
327.573	4.03
327.945	4.24
328.318	3.67
328.691	4.19
329.063	4.48
329.436	3.82
329.809	4.14
330.181	4.3
330.553	3.72
330.926	3.7
331.298	3.95
331.671	4.33
332.043	4.48
332.415	3.82
332.787	4.8
333.159	4.35
333.532	4.23
333.904	3.85
334.276	4.17
334.648	4.09
335.02	4.22
335.391	3.85
335.763	4.34
336.135	4.08
336.507	4.06
336.879	4.98
337.25	3.91
337.622	4.83
337.993	3.98
338.365	4.47
338.736	4.62
339.108	4.07
339.479	4.6
339.851	4.38
340.222	3.94
340.593	4.15
340.964	4.21
341.336	4.21
341.707	4.33
342.078	4.62
342.449	4.04
342.82	4.32
343.191	4.14
343.562	4.53
343.933	4.78
344.303	4.56
344.674	4.75
345.045	4.74
345.416	4.4
345.786	4.6
346.157	4.67
346.527	4.73
346.898	4.48
347.268	4.68
347.639	4.6
348.009	4.96
348.38	4.74
348.75	4.44
349.12	4.95
349.49	4.62
349.861	5
350.231	5.05
350.601	5.14
350.971	4.84
351.341	5.04
351.711	5.09
352.081	4.48
352.45	5.07
352.82	4.64
353.19	4.78
353.56	4.71
353.929	4.55
354.299	5.36
354.669	4.77
355.038	4.86
355.408	4.64
355.777	5.04
356.147	5.22
356.516	4.96
356.885	4.86
357.254	5.29
357.624	5.22
357.993	5.09
358.362	5.06
358.731	5.16
359.1	4.51
359.469	5.28
359.838	5.12
360.207	5.46
360.576	4.99
360.945	5.43
361.314	5.06
361.682	5.5
362.051	4.82
362.42	5.34
362.788	5.27
363.157	5.17
363.525	5.2
363.894	5.08
364.262	5.45
364.631	5.33
364.999	5.39
365.367	5.5
365.735	5.66
366.104	5.14
366.472	5.09
366.84	5.67
367.208	5.42
367.576	5.59
367.944	5.71
368.312	5.43
368.68	5.9
369.048	5.33
369.416	5.44
369.783	5.8
370.151	5.96
370.519	5.61
370.886	5.92
371.254	5.89
371.621	5.69
371.989	5.87
372.356	5.45
372.724	5.95
373.091	5.79
373.458	5.54
373.826	5.71
374.193	5.93
374.56	5.61
374.927	5.63
375.294	6.26
375.661	6.28
376.028	5.73
376.395	6.26
376.762	6.02
377.129	6.08
377.496	5.73
377.863	5.92
378.229	5.79
378.596	6.23
378.963	5.92
379.329	6.17
379.696	5.99
380.062	6.06
380.429	6.26
380.795	6.3
381.161	6.21
381.528	6.3
381.894	6.35
382.26	6.05
382.626	6.27
382.993	5.94
383.359	6.15
383.725	6.44
384.091	6.29
384.457	6.29
384.823	6.27
385.188	6.55
385.554	6.31
385.92	6.43
386.286	6.11
386.651	6.45
387.017	6.41
387.383	6.39
387.748	6.74
388.114	6.43
388.479	6.72
388.845	6.65
389.21	6.68
389.575	6.57
389.94	6.74
390.306	6.87
390.671	6.75
391.036	6.65
391.401	6.54
391.766	6.8
392.131	7
392.496	6.6
392.861	6.62
393.226	6.52
393.591	6.84
393.956	6.88
394.32	6.78
394.685	7
395.05	6.75
395.414	6.93
395.779	6.69
396.143	6.85
396.508	6.92
396.872	7.02
397.236	6.89
397.601	7.33
397.965	7.19
398.329	6.86
398.694	7.08
399.058	7
399.422	7.17
399.786	7.07
400.15	7.06
400.514	7.58
400.878	7.17
401.242	7.21
401.605	7.41
401.969	7.51
402.333	7.28
402.697	7.7
403.06	7.13
403.424	7.31
403.787	7.35
404.151	7.2
404.514	7.33
404.878	7.37
405.241	7.32
405.604	7.35
405.968	7.46
406.331	7.57
406.694	7.27
407.057	7.52
407.42	7.47
407.783	7.6
408.146	7.66
408.509	7.66
408.872	7.78
409.235	7.5
409.598	7.76
409.961	7.79
410.323	7.91
410.686	7.55
411.049	7.77
411.411	7.72
411.774	7.5
412.136	7.67
412.499	7.82
412.861	7.76
413.223	7.88
413.586	7.66
413.948	7.72
414.31	7.95
414.672	7.83
415.035	7.89
415.397	7.82
415.759	8.08
416.121	7.91
416.483	7.86
416.845	7.97
417.206	7.75
417.568	7.97
417.93	7.95
418.292	8.04
418.653	7.88
419.015	8.02
419.377	8.03
419.738	8.07
420.1	7.94
420.461	7.94
420.822	8.04
421.184	7.98
421.545	8.03
421.906	7.9
422.267	7.87
422.629	7.97
422.99	7.98
423.351	8.07
423.712	8.05
424.073	8
424.434	8.1
424.795	8.09
425.155	8.07
425.516	8.02
425.877	8.06
426.238	8.19
426.598	8.24
426.959	8.24
427.32	8.31
427.68	8.43
428.041	8.37
428.401	8.51
428.761	8.52
429.122	8.57
429.482	8.46
429.842	8.6
430.202	8.61
430.563	8.61
430.923	8.81
431.283	8.68
431.643	8.64
432.003	8.74
432.363	8.92
432.722	8.87
433.082	8.66
433.442	8.75
433.802	8.8
434.161	8.86
434.521	8.52
434.881	8.82
435.24	8.79
435.6	8.75
435.959	8.97
436.319	8.91
436.678	8.89
437.037	9.12
437.396	9.19
437.756	9
438.115	9.08
438.474	9.08
438.833	9.09
439.192	8.99
439.551	8.98
439.91	9
440.269	8.95
440.628	8.91
440.987	8.95
441.345	9.15
441.704	8.96
442.063	9.11
442.421	9
442.78	8.94
443.138	9.14
443.497	9.17
443.855	9.18
444.214	9.16
444.572	9.37
444.93	9.34
445.288	9.26
445.647	9.36
446.005	9.19
446.363	9.32
446.721	9.17
447.079	9.21
447.437	9.22
447.795	9.18
448.153	9.19
448.51	9.24
448.868	9.35
449.226	9.42
449.584	9.5
449.941	9.49
450.299	9.46
450.656	9.7
451.014	9.64
451.371	9.78
451.729	9.64
452.086	9.81
452.443	9.77
452.801	9.79
453.158	9.79
453.515	9.8
453.872	9.79
454.229	9.59
454.586	9.88
454.943	9.83
455.3	10
455.657	10.02
456.014	10.05
456.371	10.01
456.727	9.98
457.084	9.94
457.441	10.05
457.797	10.05
458.154	10.17
458.51	10.15
458.867	10.19
459.223	10.47
459.58	10.14
459.936	10.1
460.292	9.98
460.648	10
461.005	9.9
461.361	9.88
461.717	10.09
462.073	10.27
462.429	10.27
462.785	10.12
463.141	10.48
463.496	10.46
463.852	10.39
464.208	10.43
464.564	10.41
464.919	10.55
465.275	10.69
465.631	10.54
465.986	10.64
466.342	10.4
466.697	10.48
467.052	10.71
467.408	10.62
467.763	10.56
468.118	10.75
468.473	10.78
468.829	10.77
469.184	10.62
469.539	10.83
469.894	10.71
470.249	10.9
470.603	10.69
470.958	10.83
471.313	10.86
471.668	10.71
472.023	10.87
472.377	10.91
472.732	10.79
473.086	11.01
473.441	11.03
473.795	11.17
474.15	11.04
474.504	10.98
474.859	11.2
475.213	11.25
475.567	11.21
475.921	11.12
476.275	11.17
476.63	11.3
476.984	11.21
477.338	11.19
477.692	11.05
478.045	11.22
478.399	11.41
478.753	11.16
479.107	11.17
479.461	11.23
479.814	11.25
480.168	11.39
480.521	11.35
480.875	11.49
481.228	11.34
481.582	11.52
481.935	11.57
482.289	11.34
482.642	11.25
482.995	11.37
483.348	11.41
483.701	11.24
484.055	11.22
484.408	10.99
484.761	10.8
485.114	10.65
485.466	10.61
485.819	10.84
486.172	11.07
486.525	11.18
486.878	11.33
487.23	11.41
487.583	11.45
487.936	11.33
488.288	11.2
488.641	11.12
488.993	11.15
489.345	11.14
489.698	11.22
490.05	11.34
490.402	11.56
490.754	11.69
491.107	11.65
491.459	11.81
491.811	11.85
492.163	11.75
492.515	11.6
492.866	11.37
493.218	11.35
493.57	11.53
493.922	11.74
494.274	11.87
494.625	11.99
494.977	12.27
495.328	12.15
495.68	12.31
496.031	12.46
496.383	12.25
496.734	12.38
497.086	12.43
497.437	12.4
497.788	12.38
498.139	12.2
498.49	12.27
498.842	12.27
499.193	12.41
499.544	12.46
499.894	12.41
500.245	12.51
500.596	12.63
500.947	12.74
501.298	12.74
501.648	12.68
501.999	12.65
502.35	12.83
502.7	12.87
503.051	12.96
503.401	12.93
503.752	12.89
504.102	12.77
504.452	12.95
504.803	12.72
505.153	12.9
505.503	12.92
505.853	12.81
506.203	13.12
506.553	12.98
506.903	12.99
507.253	13.13
507.603	13.22
507.953	13.14
508.303	13.15
508.652	13.05
509.002	13.06
509.352	13.19
509.701	13.05
510.051	12.97
510.4	13.01
510.75	13.18
511.099	13.04
511.449	13.18
511.798	13.19
512.147	13.27
512.496	13.29
512.846	13.33
513.195	13.36
513.544	13.34
513.893	13.47
514.242	13.37
514.591	13.53
514.939	13.56
515.288	13.53
515.637	13.63
515.986	13.6
516.334	13.67
516.683	13.79
517.032	13.72
517.38	13.85
517.729	13.77
518.077	13.78
518.426	13.71
518.774	13.73
519.122	13.68
519.47	13.63
519.819	13.55
520.167	13.52
520.515	13.61
520.863	13.61
521.211	13.8
521.559	13.96
521.907	13.93
522.255	13.93
522.602	14.09
522.95	14.13
523.298	14.12
523.645	14.27
523.993	14.06
524.341	14.23
524.688	14.38
525.036	14.27
525.383	14.36
525.73	14.29
526.078	14.25
526.425	14.08
526.772	14
527.119	13.84
527.466	14.06
527.814	14.09
528.161	14.15
528.508	14.07
528.854	14.2
529.201	13.92
529.548	13.71
529.895	13.5
530.242	13.54
530.588	13.72
530.935	13.93
531.282	14.01
531.628	14.23
531.975	14.35
532.321	14.41
532.667	14.47
533.014	14.54
533.36	14.54
533.706	14.47
534.052	14.36
534.399	14.26
534.745	14.06
535.091	14.17
535.437	14.39
535.783	14.5
536.129	14.66
536.474	14.88
536.82	14.88
537.166	14.86
537.512	14.9
537.857	14.67
538.203	14.75
538.549	14.8
538.894	14.94
539.239	14.99
539.585	15.1
539.93	15.2
540.276	15.49
540.621	15.43
540.966	15.41
541.311	15.42
541.656	15.26
542.001	14.87
542.346	14.85
542.691	14.57
543.036	14.58
543.381	14.81
543.726	14.9
544.071	15.09
544.415	15.17
544.76	15.06
545.105	15.34
545.449	15.47
545.794	15.53
546.138	15.66
546.483	15.71
546.827	15.55
547.171	15.57
547.516	15.64
547.86	15.66
548.204	15.72
548.548	15.62
548.892	15.79
549.236	15.84
549.58	16.05
549.924	16.14
550.268	16.17
550.612	16.26
550.956	16.3
551.3	16.36
551.643	16.33
551.987	16.33
552.33	16.43
552.674	16.27
553.017	16.53
553.361	16.41
553.704	16.39
554.048	16.39
554.391	16.41
554.734	16.39
555.077	16.41
555.42	16.57
555.764	16.67
556.107	16.63
556.45	16.67
556.793	16.66
557.135	16.94
557.478	16.59
557.821	16.65
558.164	17.06
558.507	16.74
558.849	17.02
559.192	16.84
559.534	17.05
559.877	17.23
560.219	17.12
560.562	17.13
560.904	17.15
561.246	17.15
561.589	17.39
561.931	17.2
562.273	17.14
562.615	17.17
562.957	17
563.299	17.23
563.641	17.19
563.983	17.44
564.325	17.28
564.667	17.42
565.008	17.54
565.35	17.36
565.692	17.37
566.033	17.41
566.375	17.44
566.716	17.41
567.058	17.38
567.399	17.29
567.741	17.27
568.082	17.37
568.423	17.58
568.764	17.53
569.105	17.71
569.447	17.71
569.788	17.74
570.129	17.69
570.47	17.65
570.811	17.62
571.151	17.58
571.492	17.57
571.833	17.66
572.174	17.84
572.514	17.86
572.855	17.8
573.195	17.76
573.536	17.63
573.876	17.69
574.217	17.95
574.557	17.95
574.898	17.72
575.238	18.26
575.578	18.07
575.918	18.05
576.258	17.95
576.598	17.94
576.938	18.02
577.278	18.15
577.618	18.21
577.958	18.29
578.298	18.26
578.638	18.22
578.977	18.54
579.317	18.42
579.657	18.32
579.996	18.63
580.336	18.7
580.675	18.78
581.014	18.68
581.354	18.73
581.693	18.68
582.032	18.6
582.372	18.75
582.711	18.66
583.05	18.81
583.389	18.78
583.728	19.14
584.067	18.95
584.406	18.97
584.745	18.66
585.083	18.86
585.422	19.2
585.761	19.26
586.1	19.2
586.438	19.44
586.777	19.23
587.115	19.3
587.454	19.5
587.792	19.32
588.13	19.33
588.469	19.5
588.807	19.22
589.145	19.23
589.483	19.39
589.821	19.26
590.159	19.31
590.497	19.38
590.835	19.34
591.173	19.49
591.511	19.34
591.849	19.48
592.187	19.47
592.524	19.69
592.862	19.52
593.2	19.81
593.537	19.52
593.875	19.74
594.212	19.64
594.55	19.57
594.887	19.68
595.224	19.72
595.561	19.67
595.899	19.94
596.236	19.99
596.573	20.21
596.91	19.58
597.247	19.67
597.584	19.67
597.921	19.74
598.258	19.68
598.594	19.67
598.931	19.66
599.268	19.79
599.604	19.65
599.941	20.08
600.277	20.29
600.614	20.29
600.95	20.2
601.287	20.3
601.623	20.38
601.959	20.39
602.296	20.12
602.632	20.19
602.968	20.61
603.304	20.36
603.64	20.5
603.976	20.07
604.312	20.31
604.648	20.19
604.984	20.27
605.319	20.05
605.655	20.2
605.991	20.08
606.326	20.04
606.662	20.44
606.998	20.53
607.333	20.46
607.668	20.53
608.004	20.72
608.339	20.83
608.674	20.81
609.01	20.83
609.345	21.05
609.68	20.52
610.015	20.81
610.35	20.87
610.685	20.32
611.02	20.59
611.355	20.51
611.689	20.7
612.024	21.01
612.359	20.8
612.694	20.83
613.028	21.21
613.363	21.1
613.697	20.93
614.032	21.27
614.366	21.1
614.7	21.38
615.035	21.17
615.369	21.57
615.703	21.48
616.037	21.61
616.371	20.93
616.705	21.49
617.039	21.43
617.373	20.92
617.707	21.74
618.041	21.35
618.375	21.39
618.709	21.78
619.042	21.26
619.376	21.51
619.71	21.61
620.043	21.59
620.377	21.65
620.71	21.7
621.043	21.61
621.377	21.49
621.71	21.71
622.043	21.63
622.376	21.84
622.709	21.88
623.043	21.85
623.376	22.11
623.709	21.87
624.041	22.04
624.374	22.18
624.707	21.67
625.04	22.08
625.373	22.19
625.705	22.11
626.038	22.15
626.37	21.81
626.703	21.88
627.035	21.91
627.368	22.31
627.7	21.87
628.032	22.1
628.365	22.17
628.697	22.22
629.029	22.05
629.361	22.42
629.693	22.47
630.025	22.23
630.357	22.28
630.689	22.63
631.021	22.47
631.353	22.55
631.684	22.55
632.016	22.21
632.348	22.63
632.679	22.46
633.011	22.69
633.342	22.92
633.674	22.23
634.005	22.73
634.336	23.01
634.668	22.34
634.999	22.66
635.33	23.04
635.661	22.84
635.992	22.56
636.323	23.4
636.654	22.66
636.985	22.52
637.316	22.85
637.647	23
637.977	23.39
638.308	22.96
638.639	23.14
638.969	23.2
639.3	23.26
639.63	23.28
639.961	22.68
640.291	22.96
640.622	23.11
640.952	23.34
641.282	23.48
641.612	23.41
641.943	23.69
642.273	23.68
642.603	23.64
642.933	23.33
643.263	23.1
643.592	23.24
643.922	23.81
644.252	23.75
644.582	23.4
644.911	23.51
645.241	23.79
645.571	23.6
645.9	23.62
646.23	23.62
646.559	23.45
646.888	23.82
647.218	23.28
647.547	23.4
647.876	24.12
648.205	24.2
648.534	23.63
648.863	24.01
649.192	23.7
649.521	24.05
649.85	24.15
650.179	23.74
650.508	24.26
650.837	24.18
651.165	23.84
651.494	24.34
651.822	24.28
652.151	24.04
652.479	23.4
652.808	23.59
653.136	24.03
653.465	24.47
653.793	24.28
654.121	24.45
654.449	24.37
654.777	24.25
655.105	24.2
655.433	23.73
655.761	24.59
656.089	24.57
656.417	24.46
656.745	24.43
657.073	24.09
657.4	24.86
657.728	24.43
658.056	24.57
658.383	24.79
658.711	25
659.038	24.88
659.365	24.46
659.693	24.43
660.02	25.15
660.347	24.63
660.674	24.43
661.001	24.39
661.329	24.4
661.656	24.6
661.982	24.15
662.309	24.69
662.636	24.82
662.963	24.49
663.29	24.61
663.616	24.71
663.943	25.2
664.27	25.09
664.596	25.34
664.923	24.72
665.249	25.21
665.576	25.05
665.902	25.33
666.228	25.56
666.554	24.77
666.881	25.3
667.207	25.27
667.533	25.22
667.859	25.02
668.185	25.58
668.511	25.55
668.837	25.1
669.162	26.23
669.488	25.28
669.814	25.32
670.139	25.54
670.465	25.14
670.791	25.23
671.116	25.39
671.442	25.38
671.767	25.59
672.092	25.42
672.418	25.26
672.743	25.48
673.068	25.29
673.393	25.25
673.718	25.61
674.043	25.21
674.368	25.41
674.693	25.66
675.018	25.16
675.343	25.77
675.667	25.46
675.992	26.19
676.317	26.31
676.641	25.19
676.966	25.86
677.29	25.22
677.615	25.72
