Data from 0033_crown_Reflection__0__172.txt Node

Date: Thu Oct 20 22:17:00 CDT 2022
User: ToomeyLab
Spectrometer: FLMS14357
Trigger mode: 0
Integration Time (sec): 1.000000E-2
Scans to average: 100
Electric dark correction enabled: true
Nonlinearity correction enabled: false
Boxcar width: 0
XAxis mode: Wavelengths
Number of Pixels in Spectrum: 2048
>>>>>Begin Spectral Data<<<<<
189.047	615.3
189.435	615.3
189.823	615.3
190.211	-110.51
190.599	624.59
190.987	54.34
191.375	-982.74
191.763	-2189.91
192.151	145.32
192.538	-68.93
192.926	136.04
193.314	30.73
193.702	-471
194.089	73.8
194.477	-89.22
194.864	121.4
195.252	75.57
195.639	-332.71
196.027	-18.79
196.414	133.35
196.801	38.73
197.189	33.66
197.576	-112.13
197.963	183.83
198.351	-52.37
198.738	-53.69
199.125	-36.48
199.512	-9.65
199.899	-83.6
200.286	-7.39
200.673	-23.46
201.06	10.19
201.447	-2.71
201.833	-26.61
202.22	0.35
202.607	-13.58
202.994	-61.45
203.38	-52.32
203.767	-4
204.154	26.09
204.54	-28.43
204.927	-13.01
205.313	12.03
205.699	-11.34
206.086	-41.93
206.472	-20.49
206.858	-9.31
207.245	2.3
207.631	-53.02
208.017	-31.37
208.403	-136.71
208.789	1.73
209.175	9.06
209.561	-0.72
209.947	9.82
210.333	13.69
210.719	14.06
211.105	2.18
211.491	-75.78
211.876	-41.87
212.262	-12.91
212.648	-38.01
213.034	4.41
213.419	-42.99
213.805	-12.39
214.19	-6.51
214.576	-76.66
214.961	-39.2
215.346	-55.01
215.732	-5.49
216.117	-36.83
216.502	2.6
216.888	-13.28
217.273	-4
217.658	5.39
218.043	3.84
218.428	3.33
218.813	10.38
219.198	-13.09
219.583	-10.65
219.968	13.25
220.353	-4.18
220.738	1.94
221.122	6.35
221.507	-12.51
221.892	-14.17
222.276	0.05
222.661	16.22
223.046	6.75
223.43	-1.71
223.815	-5.15
224.199	-6.53
224.583	-11.32
224.968	1.67
225.352	11.03
225.736	4.23
226.121	1.49
226.505	2.28
226.889	0.73
227.273	-0.64
227.657	0.36
228.041	0.37
228.425	6.33
228.809	2.7
229.193	3.76
229.577	2.8
229.961	4.22
230.344	3.3
230.728	4.08
231.112	3.6
231.495	4.1
231.879	4.89
232.263	4.89
232.646	3.87
233.03	4.59
233.413	2.06
233.797	2.67
234.18	1.94
234.563	2.81
234.946	1.99
235.33	2.28
235.713	3.34
236.096	2.12
236.479	3.68
236.862	3.21
237.245	1.33
237.628	4.45
238.011	3.81
238.394	3.33
238.777	1.27
239.16	2.24
239.543	2.98
239.925	3.28
240.308	2.6
240.691	4.35
241.073	2.81
241.456	2.87
241.838	2.8
242.221	2.88
242.603	3.5
242.986	3.96
243.368	3.33
243.75	4.07
244.133	3.37
244.515	4.07
244.897	2.93
245.279	2.94
245.661	4.42
246.043	3.68
246.425	3.6
246.807	3.31
247.189	2.93
247.571	4.04
247.953	3.23
248.335	3.66
248.717	3.75
249.098	3.89
249.48	3.72
249.862	3.69
250.243	3.2
250.625	3.51
251.006	3.66
251.388	3.29
251.769	3.44
252.151	3.38
252.532	3.72
252.913	3.27
253.295	3.43
253.676	3.58
254.057	2.79
254.438	2.67
254.819	3.35
255.2	3.26
255.581	3.12
255.962	4.19
256.343	2.42
256.724	1.66
257.105	3.54
257.486	1.53
257.867	3.53
258.247	3.29
258.628	3.81
259.009	2.56
259.389	3.46
259.77	2.93
260.15	2.96
260.531	3.04
260.911	3.19
261.292	3.5
261.672	3.34
262.052	3.59
262.432	3.42
262.813	3.05
263.193	3.49
263.573	3.29
263.953	3.57
264.333	3.26
264.713	3.17
265.093	3.19
265.473	2.89
265.853	3.13
266.233	3.19
266.612	3.52
266.992	2.7
267.372	3.02
267.752	2.96
268.131	3.84
268.511	3.25
268.89	2.87
269.27	2.8
269.649	3.03
270.029	2.65
270.408	2.71
270.787	2.58
271.167	3.35
271.546	3.17
271.925	2.66
272.304	3.03
272.683	2.74
273.062	2.97
273.441	3.39
273.82	3.33
274.199	2.76
274.578	3.16
274.957	3.16
275.336	3.55
275.715	3.17
276.093	3.25
276.472	2.95
276.851	3
277.229	3.18
277.608	2.79
277.986	2.46
278.365	2.91
278.743	2.32
279.122	2.91
279.5	3.28
279.878	3.18
280.257	2.77
280.635	3.14
281.013	2.85
281.391	2.92
281.769	3.13
282.147	2.7
282.525	2.85
282.903	3.01
283.281	2.67
283.659	2.33
284.037	2.48
284.415	2.84
284.792	2.72
285.17	2.81
285.548	2.79
285.925	2.59
286.303	2.92
286.68	3.31
287.058	3.14
287.435	2.78
287.813	2.93
288.19	2.71
288.567	2.54
288.945	3.43
289.322	2.79
289.699	2.7
290.076	3.03
290.453	2.75
290.83	2.78
291.207	2.82
291.584	2.8
291.961	2.53
292.338	2.76
292.715	2.6
293.092	3.14
293.469	2.58
293.845	3.28
294.222	2.95
294.599	3.3
294.975	2.47
295.352	2.98
295.728	2.46
296.105	3.08
296.481	2.56
296.858	2.8
297.234	3.15
297.61	3.04
297.986	2.76
298.363	2.77
298.739	2.79
299.115	2.71
299.491	2.61
299.867	2.83
300.243	2.93
300.619	2.77
300.995	2.56
301.371	2.83
301.746	2.78
302.122	2.89
302.498	3.12
302.874	3.16
303.249	3.05
303.625	3.06
304	2.92
304.376	2.55
304.751	2.69
305.127	2.37
305.502	2.99
305.878	2.81
306.253	2.45
306.628	2.98
307.003	3.07
307.378	2.56
307.754	2.77
308.129	2.42
308.504	3.14
308.879	2.57
309.254	2.75
309.629	2.53
310.003	2.48
310.378	2.52
310.753	2.93
311.128	2.47
311.502	2.58
311.877	3.08
312.252	2.62
312.626	2.5
313.001	2.63
313.375	2.99
313.75	2.3
314.124	2.75
314.498	2.64
314.873	3.1
315.247	2.83
315.621	3.05
315.995	2.67
316.369	2.97
316.743	2.29
317.117	2.99
317.491	2.93
317.865	2.75
318.239	2.33
318.613	3.41
318.987	2.68
319.361	3.23
319.734	2.19
320.108	2.83
320.482	2.87
320.855	2.83
321.229	2.51
321.602	1.91
321.976	2.37
322.349	2.51
322.723	3.28
323.096	3.08
323.469	2.51
323.843	3.06
324.216	2.77
324.589	3.26
324.962	2.78
325.335	2.88
325.708	2.8
326.081	2.54
326.454	2.62
326.827	2.53
327.2	3.28
327.573	3.02
327.945	2.84
328.318	2.48
328.691	3.35
329.063	2.94
329.436	3.2
329.809	3.16
330.181	2.92
330.553	2.37
330.926	3.15
331.298	2.5
331.671	3.21
332.043	2.87
332.415	2.77
332.787	3.28
333.159	3.1
333.532	3.17
333.904	3.08
334.276	2.76
334.648	2.08
335.02	2.77
335.391	2.79
335.763	3.04
336.135	3.04
336.507	1.97
336.879	3.51
337.25	2.51
337.622	2.9
337.993	2.69
338.365	3.13
338.736	2.9
339.108	3.06
339.479	3.2
339.851	2.72
340.222	2.8
340.593	3.13
340.964	3.23
341.336	3.02
341.707	2.43
342.078	2.97
342.449	2.75
342.82	3.18
343.191	2.96
343.562	3.46
343.933	2.91
344.303	2.77
344.674	2.83
345.045	3.26
345.416	2.72
345.786	3.24
346.157	3.02
346.527	2.6
346.898	2.91
347.268	2.93
347.639	2.96
348.009	3.05
348.38	3.03
348.75	2.86
349.12	3.09
349.49	2.84
349.861	2.93
350.231	3.06
350.601	3.17
350.971	3.08
351.341	3.47
351.711	3.23
352.081	3.26
352.45	2.75
352.82	2.84
353.19	3.04
353.56	3.11
353.929	3.25
354.299	3.54
354.669	2.97
355.038	3.15
355.408	2.57
355.777	3.42
356.147	3.14
356.516	3.24
356.885	3.18
357.254	3.22
357.624	3.09
357.993	2.82
358.362	3.3
358.731	3.33
359.1	2.92
359.469	3.3
359.838	3.08
360.207	3.74
360.576	3.19
360.945	3.23
361.314	3.04
361.682	3.07
362.051	2.88
362.42	3.09
362.788	3.27
363.157	3.07
363.525	3.29
363.894	3.16
364.262	3.2
364.631	3.14
364.999	3.15
365.367	3.44
365.735	3.25
366.104	2.71
366.472	2.98
366.84	3.54
367.208	3.15
367.576	3.36
367.944	3.43
368.312	3.16
368.68	3.29
369.048	2.93
369.416	2.85
369.783	3.22
370.151	3.47
370.519	3.15
370.886	3.21
371.254	3.44
371.621	3.18
371.989	3.36
372.356	2.71
372.724	3.47
373.091	3.39
373.458	3.02
373.826	3.16
374.193	3.32
374.56	2.95
374.927	3.26
375.294	3.03
375.661	3.43
376.028	3.39
376.395	3.32
376.762	3.42
377.129	2.85
377.496	3.1
377.863	3.27
378.229	3.02
378.596	3.11
378.963	3.27
379.329	3.25
379.696	3.34
380.062	3.23
380.429	3.81
380.795	3.43
381.161	3.43
381.528	3.2
381.894	3.49
382.26	3.05
382.626	3.54
382.993	2.9
383.359	3.41
383.725	3.2
384.091	3.33
384.457	3.02
384.823	3.2
385.188	3.42
385.554	3
385.92	3.13
386.286	3.05
386.651	3.22
387.017	3.34
387.383	3.27
387.748	3.59
388.114	3.43
388.479	3.32
388.845	3.39
389.21	3.21
389.575	3.24
389.94	3.49
390.306	3.48
390.671	3.35
391.036	3.48
391.401	3.31
391.766	3.67
392.131	3.48
392.496	3.13
392.861	3.13
393.226	3.58
393.591	3.32
393.956	3.36
394.32	3.39
394.685	3.49
395.05	3.09
395.414	3.07
395.779	3.19
396.143	3.31
396.508	3.34
396.872	3.5
397.236	3.28
397.601	3.44
397.965	3.4
398.329	3.13
398.694	3.3
399.058	3.04
399.422	3.63
399.786	3.13
400.15	3.56
400.514	3.61
400.878	3.15
401.242	3.5
401.605	3.35
401.969	3.37
402.333	3.46
402.697	3.61
403.06	3.1
403.424	3.37
403.787	3.34
404.151	3.28
404.514	3.4
404.878	3.17
405.241	3.4
405.604	3.49
405.968	3.36
406.331	3.29
406.694	3.21
407.057	3.33
407.42	3.34
407.783	3.25
408.146	3.4
408.509	3.26
408.872	3.43
409.235	3.06
409.598	3.48
409.961	3.3
410.323	3.39
410.686	3.63
411.049	3.24
411.411	3.27
411.774	3.35
412.136	3.25
412.499	3.41
412.861	3.43
413.223	3.3
413.586	3.18
413.948	3.29
414.31	3.38
414.672	3.3
415.035	3.33
415.397	3.49
415.759	3.37
416.121	3.46
416.483	3.28
416.845	3.34
417.206	3.19
417.568	3.27
417.93	3.22
418.292	3.44
418.653	3.33
419.015	3.37
419.377	3.36
419.738	3.34
420.1	3.38
420.461	3.29
420.822	3.27
421.184	3.2
421.545	3.35
421.906	3.3
422.267	3.3
422.629	3.21
422.99	3.21
423.351	3.17
423.712	3.31
424.073	3.24
424.434	3.23
424.795	3.21
425.155	3.25
425.516	3.31
425.877	3.26
426.238	3.46
426.598	3.26
426.959	3.21
427.32	3.31
427.68	3.39
428.041	3.42
428.401	3.42
428.761	3.2
429.122	3.37
429.482	3.29
429.842	3.36
430.202	3.35
430.563	3.33
430.923	3.46
431.283	3.18
431.643	3.27
432.003	3.49
432.363	3.58
432.722	3.5
433.082	3.19
433.442	3.35
433.802	3.32
434.161	3.35
434.521	3.17
434.881	3.27
435.24	3.23
435.6	3.2
435.959	3.32
436.319	3.25
436.678	3.29
437.037	3.47
437.396	3.24
437.756	3.28
438.115	3.27
438.474	3.21
438.833	3.26
439.192	3.18
439.551	3.13
439.91	3.31
440.269	3.3
440.628	3.26
440.987	3.26
441.345	3.41
441.704	3.32
442.063	3.34
442.421	3.2
442.78	3.25
443.138	3.21
443.497	3.29
443.855	3.29
444.214	3.33
444.572	3.25
444.93	3.29
445.288	3.12
445.647	3.43
446.005	3.2
446.363	3.27
446.721	3.3
447.079	3.23
447.437	3.14
447.795	3.16
448.153	3.16
448.51	3.21
448.868	3.17
449.226	3.24
449.584	3.26
449.941	3.29
450.299	3.23
450.656	3.3
451.014	3.3
451.371	3.26
451.729	3.14
452.086	3.32
452.443	3.3
452.801	3.3
453.158	3.2
453.515	3.34
453.872	3.28
454.229	3.18
454.586	3.34
454.943	3.14
455.3	3.18
455.657	3.23
456.014	3.22
456.371	3.19
456.727	3.21
457.084	3.15
457.441	3.37
457.797	3.39
458.154	3.17
458.51	3.07
458.867	3.11
459.223	3.45
459.58	3.25
459.936	3.27
460.292	3.21
460.648	3.19
461.005	3.08
461.361	3.1
461.717	3.22
462.073	3.28
462.429	3.22
462.785	3.36
463.141	3.4
463.496	3.35
463.852	3.15
464.208	3.35
464.564	3.31
464.919	3.47
465.275	3.26
465.631	3.02
465.986	3.15
466.342	3.1
466.697	3.22
467.052	3.2
467.408	3.22
467.763	3.18
468.118	3.25
468.473	3.25
468.829	3.32
469.184	3.1
469.539	3.16
469.894	3.25
470.249	3.3
470.603	3.23
470.958	3.09
471.313	3.25
471.668	3.14
472.023	3.29
472.377	3.11
472.732	3.13
473.086	3.33
473.441	3.17
473.795	3.32
474.15	3.13
474.504	3.12
474.859	3.38
475.213	3.35
475.567	3.37
475.921	3.04
476.275	3.26
476.63	3.41
476.984	3.19
477.338	3.16
477.692	3.16
478.045	3.2
478.399	3.27
478.753	3.2
479.107	3.1
479.461	3.21
479.814	3.21
480.168	3.25
480.521	3.12
480.875	3.29
481.228	3.19
481.582	3.18
481.935	3.24
482.289	3.04
482.642	2.93
482.995	3.17
483.348	3.17
483.701	3.02
484.055	3.13
484.408	3.01
484.761	2.93
485.114	2.89
485.466	2.92
485.819	2.97
486.172	3
486.525	3.01
486.878	3.06
487.23	3.12
487.583	3.08
487.936	3.14
488.288	3.02
488.641	2.96
488.993	3
489.345	2.99
489.698	2.98
490.05	3
490.402	3.1
490.754	3.15
491.107	3.08
491.459	3.18
491.811	3.09
492.163	3.05
492.515	3.02
492.866	3.03
493.218	2.96
493.57	3.01
493.922	3
494.274	3.02
494.625	3.08
494.977	3.19
495.328	3.11
495.68	3.19
496.031	3.23
496.383	3.1
496.734	3.06
497.086	3.05
497.437	3.19
497.788	3.1
498.139	3.02
498.49	3.2
498.842	2.98
499.193	3.08
499.544	3.17
499.894	3.19
500.245	3.13
500.596	3.12
500.947	3.03
501.298	2.99
501.648	3.06
501.999	3.17
502.35	3.17
502.7	3.07
503.051	3.15
503.401	3.13
503.752	3.11
504.102	2.99
504.452	3.12
504.803	3.02
505.153	3.01
505.503	3.16
505.853	3.13
506.203	3.08
506.553	2.98
506.903	3.04
507.253	3.21
507.603	3.14
507.953	3.03
508.303	3.25
508.652	3.09
509.002	3.04
509.352	3.03
509.701	3.02
510.051	3.01
510.4	3.04
510.75	3.05
511.099	3.06
511.449	3.06
511.798	3.08
512.147	3.04
512.496	3.21
512.846	3.18
513.195	3.16
513.544	2.98
513.893	3.08
514.242	3.05
514.591	3.21
514.939	3.02
515.288	3.09
515.637	3.05
515.986	3
516.334	3.1
516.683	3.09
517.032	3.07
517.38	3.03
517.729	3.18
518.077	3.05
518.426	2.95
518.774	2.93
519.122	2.98
519.47	2.97
519.819	2.96
520.167	2.89
520.515	3.05
520.863	2.95
521.211	3.03
521.559	3.03
521.907	2.93
522.255	2.98
522.602	3.02
522.95	3.16
523.298	2.97
523.645	3.06
523.993	3.08
524.341	3.15
524.688	3
525.036	3.15
525.383	3.11
525.73	2.9
526.078	3.02
526.425	2.96
526.772	2.91
527.119	2.85
527.466	3.03
527.814	3.04
528.161	2.96
528.508	2.92
528.854	2.99
529.201	2.92
529.548	2.89
529.895	2.81
530.242	2.84
530.588	2.85
530.935	2.91
531.282	2.88
531.628	2.92
531.975	2.96
532.321	3.02
532.667	2.95
533.014	3.04
533.36	2.97
533.706	2.81
534.052	2.87
534.399	2.96
534.745	2.87
535.091	2.87
535.437	2.92
535.783	2.92
536.129	2.9
536.474	2.96
536.82	2.93
537.166	2.99
537.512	2.95
537.857	2.94
538.203	2.88
538.549	2.94
538.894	2.95
539.239	2.93
539.585	3.05
539.93	2.98
540.276	3.03
540.621	2.89
540.966	2.91
541.311	2.9
541.656	2.94
542.001	2.88
542.346	2.86
542.691	2.74
543.036	2.75
543.381	2.85
543.726	2.84
544.071	2.87
544.415	2.97
544.76	2.9
545.105	2.97
545.449	2.91
545.794	2.91
546.138	3.08
546.483	3.02
546.827	2.98
547.171	2.89
547.516	2.98
547.86	2.89
548.204	2.98
548.548	2.88
548.892	2.85
549.236	3
549.58	2.94
549.924	2.93
550.268	3.04
550.612	3.07
550.956	2.95
551.3	2.98
551.643	3.01
551.987	3.03
552.33	2.88
552.674	2.77
553.017	2.91
553.361	2.97
553.704	3
554.048	2.93
554.391	2.79
554.734	2.9
555.077	2.95
555.42	2.96
555.764	2.91
556.107	2.89
556.45	3.03
556.793	2.95
557.135	3.03
557.478	2.98
557.821	2.85
558.164	2.96
558.507	2.9
558.849	2.92
559.192	2.95
559.534	3.12
559.877	3.02
560.219	2.97
560.562	3.03
560.904	2.93
561.246	2.87
561.589	3.16
561.931	2.93
562.273	2.89
562.615	2.94
562.957	2.85
563.299	2.98
563.641	2.93
563.983	3.13
564.325	3.03
564.667	2.89
565.008	3.02
565.35	3.04
565.692	2.75
566.033	2.69
566.375	2.83
566.716	3.05
567.058	2.89
567.399	2.9
567.741	2.89
568.082	2.9
568.423	2.93
568.764	2.82
569.105	2.78
569.447	2.97
569.788	2.96
570.129	2.99
570.47	2.84
570.811	2.64
571.151	2.95
571.492	2.77
571.833	2.91
572.174	2.97
572.514	2.91
572.855	2.98
573.195	2.89
573.536	2.9
573.876	2.72
574.217	2.82
574.557	2.86
574.898	2.85
575.238	3.08
575.578	2.94
575.918	2.92
576.258	2.84
576.598	2.81
576.938	2.93
577.278	2.88
577.618	2.98
577.958	2.89
578.298	3.01
578.638	2.95
578.977	3.02
579.317	2.95
579.657	2.7
579.996	3.1
580.336	2.93
580.675	3.11
581.014	2.72
581.354	3.01
581.693	2.88
582.032	3.02
582.372	2.95
582.711	2.83
583.05	2.94
583.389	2.9
583.728	3.05
584.067	2.91
584.406	3
584.745	2.72
585.083	2.68
585.422	2.86
585.761	2.94
586.1	2.93
586.438	2.93
586.777	2.8
587.115	2.83
587.454	2.87
587.792	2.96
588.13	2.9
588.469	3.19
588.807	2.8
589.145	2.94
589.483	2.82
589.821	2.52
590.159	2.91
590.497	2.85
590.835	2.73
591.173	3.07
591.511	2.92
591.849	2.81
592.187	2.69
592.524	2.66
592.862	2.82
593.2	2.83
593.537	2.74
593.875	2.97
594.212	2.87
594.55	2.77
594.887	2.64
595.224	2.96
595.561	2.71
595.899	3.05
596.236	2.95
596.573	2.96
596.91	2.96
597.247	2.79
597.584	2.85
597.921	2.67
598.258	2.75
598.594	2.74
598.931	2.91
599.268	2.88
599.604	2.8
599.941	2.86
600.277	2.97
600.614	2.83
600.95	2.97
601.287	2.87
601.623	2.76
601.959	2.69
602.296	2.81
602.632	2.49
602.968	2.98
603.304	2.78
603.64	3.16
603.976	2.84
604.312	2.91
604.648	2.83
604.984	2.78
605.319	2.7
605.655	2.94
605.991	2.72
606.326	2.87
606.662	2.79
606.998	3
607.333	2.79
607.668	2.76
608.004	2.84
608.339	2.84
608.674	2.86
609.01	2.79
609.345	2.9
609.68	2.55
610.015	2.8
610.35	2.75
610.685	2.85
611.02	2.61
611.355	2.66
611.689	2.82
612.024	2.88
612.359	2.72
612.694	2.68
613.028	2.83
613.363	2.68
613.697	2.91
614.032	2.88
614.366	2.72
614.7	2.62
615.035	2.56
615.369	2.74
615.703	3.04
616.037	2.67
616.371	2.93
616.705	2.4
617.039	2.77
617.373	2.58
617.707	2.86
618.041	2.54
618.375	2.58
618.709	2.33
619.042	2.48
619.376	2.64
619.71	2.95
620.043	2.82
620.377	2.94
620.71	2.51
621.043	2.87
621.377	2.48
621.71	2.67
622.043	2.87
622.376	3.06
622.709	2.91
623.043	2.95
623.376	2.93
623.709	2.78
624.041	2.8
624.374	2.84
624.707	2.75
625.04	3.25
625.373	2.92
625.705	2.52
626.038	2.81
626.37	2.58
626.703	2.68
627.035	2.72
627.368	2.47
627.7	2.82
628.032	2.92
628.365	2.76
628.697	2.82
629.029	2.95
629.361	3.15
629.693	3.08
630.025	2.83
630.357	2.96
630.689	2.77
631.021	2.7
631.353	2.76
631.684	2.7
632.016	2.48
632.348	2.59
632.679	2.58
633.011	3
633.342	2.75
633.674	2.8
634.005	2.91
634.336	2.91
634.668	2.8
634.999	2.83
635.33	2.78
635.661	2.62
635.992	2.72
636.323	3.1
636.654	2.85
636.985	2.83
637.316	2.72
637.647	2.88
637.977	3.18
638.308	2.83
638.639	3.16
638.969	2.85
639.3	2.54
639.63	2.36
639.961	2.7
640.291	2.55
640.622	3.17
640.952	2.82
641.282	2.8
641.612	3.23
641.943	2.73
642.273	2.73
642.603	2.7
642.933	2.9
643.263	2.5
643.592	2.9
643.922	2.62
644.252	2.95
644.582	2.2
644.911	2.86
645.241	3.02
645.571	2.73
645.9	2.97
646.23	2.65
646.559	2.79
646.888	2.54
647.218	2.43
647.547	2.79
647.876	2.34
648.205	2.82
648.534	2.96
648.863	2.5
649.192	2.7
649.521	2.85
649.85	3.23
650.179	2.86
650.508	3.02
650.837	2.69
651.165	2.49
651.494	3.12
651.822	3.06
652.151	2.8
652.479	2.8
652.808	2.69
653.136	2.38
653.465	2.56
653.793	3.02
654.121	3.1
654.449	2.81
654.777	2.73
655.105	3.13
655.433	2.53
655.761	2.8
656.089	2.52
656.417	2.8
656.745	3.02
657.073	2.72
657.4	2.72
657.728	2.53
658.056	2.79
658.383	3.32
658.711	2.72
659.038	2.69
659.365	2.28
659.693	2.8
660.02	3.21
660.347	2.99
660.674	3.09
661.001	2.86
661.329	2.87
661.656	2.82
661.982	2.79
662.309	2.77
662.636	2.81
662.963	2.89
663.29	2.49
663.616	2.96
663.943	3.16
664.27	3.06
664.596	2.8
664.923	2.37
665.249	2.96
665.576	3.21
665.902	3.04
666.228	2.95
666.554	2.42
666.881	2.78
667.207	3.16
667.533	2.64
667.859	2.74
668.185	3.48
668.511	2.76
668.837	2.55
669.162	3.3
669.488	2.31
669.814	2.58
670.139	3.22
670.465	2.36
670.791	3.29
671.116	2.86
671.442	2.29
671.767	2.98
672.092	3.04
672.418	2.66
672.743	2.68
673.068	2.35
673.393	2.88
673.718	2.45
674.043	2.33
674.368	2.42
674.693	3.35
675.018	3.1
675.343	2.74
675.667	2.81
675.992	3.14
676.317	3.07
676.641	2.78
676.966	2.75
677.29	2.78
677.615	3.49
677.939	2.92
678.264	2.78
678.588	3.18
678.912	2.36
679.236	2.88
679.56	2.67
679.885	3.05
680.209	2.57
680.532	2.99
680.856	3.21
681.18	2.76
681.504	2.89
681.828	2.57
682.152	3.4
682.475	2.86
682.799	3.22
683.122	2.72
683.446	2.58
683.769	3.29
684.093	3.05
684.416	2.52
684.739	2.91
685.062	2.9
685.386	3.21
685.709	2.2
686.032	2.47
686.355	2.6
686.678	2.8
687.001	2.72
687.324	3.19
687.646	2.39
687.969	2.94
688.292	3.2
688.614	3.17
688.937	2.61
689.26	2.81
689.582	2.45
689.904	2.84
690.227	2.41
690.549	3.8
690.871	2.37
691.194	3.38
691.516	2.87
691.838	2.46
692.16	3.05
692.482	3.25
692.804	2.89
