Data from 0033_crown_Reflection__4__176.txt Node

Date: Thu Oct 20 22:17:43 CDT 2022
User: ToomeyLab
Spectrometer: FLMS14357
Trigger mode: 0
Integration Time (sec): 1.000000E-2
Scans to average: 100
Electric dark correction enabled: true
Nonlinearity correction enabled: false
Boxcar width: 0
XAxis mode: Wavelengths
Number of Pixels in Spectrum: 2048
>>>>>Begin Spectral Data<<<<<
189.047	-141.22
189.435	-141.22
189.823	-141.22
190.211	171.83
190.599	363.39
190.987	73.07
191.375	-941.64
191.763	-760.55
192.151	23
192.538	-53.3
192.926	323.11
193.314	157.07
193.702	-207.06
194.089	161.48
194.477	64.34
194.864	-58.18
195.252	55.82
195.639	-14.49
196.027	-11.6
196.414	159.16
196.801	76.21
197.189	37.61
197.576	-743.6
197.963	225.2
198.351	1.43
198.738	0.39
199.125	-22.35
199.512	-30.07
199.899	-57.34
200.286	28.41
200.673	4.98
201.06	9.57
201.447	-14.46
201.833	-35.62
202.22	-28.95
202.607	20.23
202.994	-7.78
203.38	-37.18
203.767	33.67
204.154	-10.98
204.54	-36.64
204.927	-14.55
205.313	17.89
205.699	3.64
206.086	-8.72
206.472	7.7
206.858	-31.51
207.245	-14.92
207.631	4.28
208.017	-44.41
208.403	-61.34
208.789	-14.5
209.175	22
209.561	12.55
209.947	-4.69
210.333	-20.65
210.719	-7.29
211.105	-6.57
211.491	-106.73
211.876	-58.91
212.262	10.41
212.648	-7.68
213.034	-9.28
213.419	-49.03
213.805	-9.28
214.19	-21.5
214.576	-63.98
214.961	-20.76
215.346	-50.14
215.732	-5.3
216.117	-34.03
216.502	4.18
216.888	-41.16
217.273	-29.55
217.658	-2.29
218.043	6.61
218.428	-15.8
218.813	12.72
219.198	-15.09
219.583	-3.25
219.968	6.83
220.353	-9.55
220.738	8.94
221.122	-3.91
221.507	0.6
221.892	-6.76
222.276	-1.34
222.661	-0.45
223.046	8.82
223.43	-7.71
223.815	4.65
224.199	-0.81
224.583	-9.5
224.968	9.21
225.352	10.51
225.736	6.31
226.121	0.52
226.505	3.8
226.889	4.22
227.273	0.44
227.657	6.05
228.041	1.68
228.425	2.91
228.809	6.61
229.193	6.78
229.577	4.74
229.961	6.53
230.344	7
230.728	6.52
231.112	6.59
231.495	5.86
231.879	6.05
232.263	6.27
232.646	5.51
233.03	6.75
233.413	4.37
233.797	4.68
234.18	3.03
234.563	6.75
234.946	5.99
235.33	6.01
235.713	5.48
236.096	4.51
236.479	5.92
236.862	5.6
237.245	6.16
237.628	5.7
238.011	6.64
238.394	8.26
238.777	5.84
239.16	4.99
239.543	5.28
239.925	5.39
240.308	5.71
240.691	6.62
241.073	4.53
241.456	5.43
241.838	5.82
242.221	6.17
242.603	5.61
242.986	5.89
243.368	6.47
243.75	5.77
244.133	6.23
244.515	5.87
244.897	5.78
245.279	4.77
245.661	6.31
246.043	6.39
246.425	5.95
246.807	5.44
247.189	5.7
247.571	5.97
247.953	5.74
248.335	5.65
248.717	5.62
249.098	5.5
249.48	5.81
249.862	5.87
250.243	5.66
250.625	5.83
251.006	5.52
251.388	5.08
251.769	5.2
252.151	5.84
252.532	5.06
252.913	4.77
253.295	5.77
253.676	5.68
254.057	4.47
254.438	5.85
254.819	4.87
255.2	5.47
255.581	4.39
255.962	4.6
256.343	4.49
256.724	4.81
257.105	4.52
257.486	5.38
257.867	4.78
258.247	5.17
258.628	4.83
259.009	4.51
259.389	5.01
259.77	4.8
260.15	5.56
260.531	5.09
260.911	4.76
261.292	5.11
261.672	5.14
262.052	5.15
262.432	5.33
262.813	4.65
263.193	5.14
263.573	4.72
263.953	4.92
264.333	4.59
264.713	5.21
265.093	4.73
265.473	4.65
265.853	5.2
266.233	5.31
266.612	5.87
266.992	4.55
267.372	5.6
267.752	4.85
268.131	5.05
268.511	4.92
268.89	4.8
269.27	4.77
269.649	4.52
270.029	4.5
270.408	4.63
270.787	4.63
271.167	4.47
271.546	4.43
271.925	4.77
272.304	4.97
272.683	4.73
273.062	4.34
273.441	4.57
273.82	5
274.199	4.15
274.578	3.87
274.957	4.28
275.336	4.78
275.715	4.47
276.093	4.89
276.472	5.45
276.851	5.17
277.229	4.32
277.608	4.55
277.986	4.23
278.365	4.25
278.743	4.35
279.122	4.64
279.5	4.14
279.878	4.77
280.257	4.47
280.635	4.36
281.013	4.32
281.391	5.18
281.769	4.73
282.147	4.15
282.525	4.25
282.903	4.64
283.281	4.41
283.659	4.22
284.037	4.16
284.415	4.32
284.792	3.91
285.17	4.95
285.548	4.32
285.925	4.35
286.303	4.52
286.68	4.59
287.058	4.44
287.435	4.42
287.813	4.45
288.19	4.49
288.567	4.27
288.945	4.82
289.322	4.55
289.699	4.02
290.076	4.48
290.453	4.62
290.83	4.51
291.207	4.5
291.584	4.23
291.961	4.44
292.338	4.18
292.715	4.53
293.092	4.38
293.469	4.51
293.845	4.79
294.222	4.99
294.599	5.19
294.975	3.84
295.352	4.79
295.728	4.33
296.105	4.64
296.481	4.14
296.858	4.61
297.234	4.14
297.61	4.46
297.986	3.92
298.363	3.95
298.739	4.49
299.115	4.49
299.491	4.3
299.867	4.18
300.243	4.52
300.619	4.33
300.995	4.24
301.371	4.26
301.746	4.19
302.122	4.19
302.498	4.25
302.874	4.73
303.249	4.36
303.625	4.23
304	4.75
304.376	4.62
304.751	4.33
305.127	3.93
305.502	4.17
305.878	4.2
306.253	4.22
306.628	4.12
307.003	4.26
307.378	3.95
307.754	4.3
308.129	4.39
308.504	4.12
308.879	3.79
309.254	4.23
309.629	4.45
310.003	3.74
310.378	3.94
310.753	4.68
311.128	4.15
311.502	4.26
311.877	4.52
312.252	4.03
312.626	4.1
313.001	4.29
313.375	4.43
313.75	4.13
314.124	4.3
314.498	4.7
314.873	4.02
315.247	4.24
315.621	4.07
315.995	4.61
316.369	4.77
316.743	4.01
317.117	4.42
317.491	4.78
317.865	4.13
318.239	4.19
318.613	3.96
318.987	4.35
319.361	4.75
319.734	4.1
320.108	4.6
320.482	4.48
320.855	4.89
321.229	4.2
321.602	3.93
321.976	4.02
322.349	3.6
322.723	4.42
323.096	4.41
323.469	4.43
323.843	4.58
324.216	4.18
324.589	4.68
324.962	4.07
325.335	4.59
325.708	4.55
326.081	4.56
326.454	4.41
326.827	4.45
327.2	4.76
327.573	4.51
327.945	4.63
328.318	3.82
328.691	4.68
329.063	4.56
329.436	3.98
329.809	5.09
330.181	4.81
330.553	4.43
330.926	4.79
331.298	4.14
331.671	4.95
332.043	4.42
332.415	4.55
332.787	4.85
333.159	4.77
333.532	5.07
333.904	4.44
334.276	4.95
334.648	4.17
335.02	4.8
335.391	4.5
335.763	4.45
336.135	4.63
336.507	3.66
336.879	5.38
337.25	4.12
337.622	4.48
337.993	4.52
338.365	5.12
338.736	4.75
339.108	4.36
339.479	5.17
339.851	4.39
340.222	4.99
340.593	4.39
340.964	5.09
341.336	4.74
341.707	4.45
342.078	4.75
342.449	4.4
342.82	4.69
343.191	4.98
343.562	4.9
343.933	4.67
344.303	4.55
344.674	4.45
345.045	4.59
345.416	4.88
345.786	4.57
346.157	4.68
346.527	4.33
346.898	4.49
347.268	4.41
347.639	4.46
348.009	4.58
348.38	4.9
348.75	4.14
349.12	4.52
349.49	4.91
349.861	5.19
350.231	4.44
350.601	5.11
350.971	4.7
351.341	5.05
351.711	5.05
352.081	4.48
352.45	5.03
352.82	4.57
353.19	4.55
353.56	4.81
353.929	4.45
354.299	4.82
354.669	4.42
355.038	4.74
355.408	4.76
355.777	4.93
356.147	5.14
356.516	4.82
356.885	4.92
357.254	4.81
357.624	5.01
357.993	4.59
358.362	4.98
358.731	4.95
359.1	4.48
359.469	4.93
359.838	4.71
360.207	5.41
360.576	4.55
360.945	5.31
361.314	4.96
361.682	4.75
362.051	4.76
362.42	4.91
362.788	5.02
363.157	4.71
363.525	4.91
363.894	4.88
364.262	5.11
364.631	4.82
364.999	5.11
365.367	4.9
365.735	4.98
366.104	4.8
366.472	4.6
366.84	5.19
367.208	4.88
367.576	5.13
367.944	5.1
368.312	4.95
368.68	5.28
369.048	4.69
369.416	4.78
369.783	5.43
370.151	5.12
370.519	4.86
370.886	5.05
371.254	5.07
371.621	4.81
371.989	5.05
372.356	4.92
372.724	5.18
373.091	5.39
373.458	4.61
373.826	5.22
374.193	5.04
374.56	4.8
374.927	4.76
375.294	5.12
375.661	5.43
376.028	5.08
376.395	5.43
376.762	4.84
377.129	4.65
377.496	5.03
377.863	4.85
378.229	4.88
378.596	5.13
378.963	5.2
379.329	5.33
379.696	4.99
380.062	5.15
380.429	5.58
380.795	5.01
381.161	5.17
381.528	5.21
381.894	4.95
382.26	4.98
382.626	5.15
382.993	5.05
383.359	5.09
383.725	5.06
384.091	5.07
384.457	4.91
384.823	5.09
385.188	5.32
385.554	5.04
385.92	5.12
386.286	4.97
386.651	4.86
387.017	5
387.383	4.97
387.748	5.58
388.114	5.17
388.479	5.07
388.845	5.24
389.21	5.16
389.575	5.06
389.94	5.28
390.306	5.31
390.671	5.2
391.036	5.3
391.401	5.03
391.766	5.29
392.131	5.2
392.496	5.2
392.861	4.93
393.226	5.02
393.591	5.21
393.956	5.26
394.32	5.11
394.685	5.23
395.05	5.1
395.414	5.23
395.779	5.17
396.143	5.23
396.508	5.33
396.872	5.37
397.236	5.27
397.601	5.27
397.965	5.4
398.329	5.15
398.694	5.16
399.058	4.94
399.422	5.29
399.786	5.11
400.15	5.15
400.514	5.59
400.878	4.97
401.242	5.19
401.605	5.3
401.969	5.05
402.333	5.11
402.697	5.63
403.06	4.93
403.424	4.95
403.787	5.37
404.151	5.15
404.514	5.09
404.878	4.99
405.241	5.3
405.604	5.29
405.968	5.25
406.331	5.02
406.694	5.2
407.057	5.1
407.42	5.2
407.783	5.14
408.146	5.2
408.509	5.25
408.872	5.42
409.235	5.03
409.598	5.22
409.961	5.13
410.323	5.47
410.686	5.18
411.049	5.17
411.411	5.25
411.774	5.1
412.136	5.52
412.499	5.31
412.861	5.07
413.223	5.15
413.586	5.24
413.948	5.16
414.31	4.96
414.672	5.24
415.035	5.11
415.397	5.23
415.759	5.12
416.121	5.41
416.483	5.06
416.845	5.2
417.206	5.05
417.568	5.19
417.93	5.08
418.292	5.26
418.653	5.18
419.015	5.12
419.377	5.21
419.738	5.13
420.1	5.11
420.461	5.16
420.822	5.18
421.184	5.11
421.545	5.07
421.906	5.06
422.267	5.04
422.629	5.03
422.99	5
423.351	5.12
423.712	5.06
424.073	5.06
424.434	5.02
424.795	5.04
425.155	5.05
425.516	4.98
425.877	5.03
426.238	5.08
426.598	5.07
426.959	5.08
427.32	5.2
427.68	5.12
428.041	5
428.401	5.15
428.761	5.19
429.122	5.05
429.482	5.36
429.842	5.12
430.202	5.32
430.563	5.16
430.923	5.23
431.283	5.15
431.643	5.16
432.003	5.05
432.363	5.27
432.722	5.43
433.082	5.25
433.442	5.16
433.802	5.13
434.161	5.08
434.521	4.95
434.881	5.1
435.24	4.98
435.6	5.05
435.959	5.16
436.319	5.15
436.678	4.86
437.037	5.18
437.396	5.31
437.756	5.11
438.115	5.27
438.474	5.2
438.833	5.1
439.192	5.08
439.551	5.01
439.91	5.07
440.269	5.02
440.628	5.06
440.987	5
441.345	5.15
441.704	5
442.063	5.05
442.421	4.94
442.78	5.03
443.138	5.14
443.497	5.1
443.855	5.01
444.214	5.15
444.572	5.22
444.93	4.87
445.288	5.15
445.647	5.01
446.005	4.99
446.363	5.02
446.721	5.01
447.079	4.96
447.437	4.93
447.795	4.98
448.153	4.91
448.51	4.89
448.868	4.98
449.226	4.97
449.584	4.97
449.941	5.06
450.299	5.07
450.656	4.97
451.014	4.97
451.371	5.12
451.729	5.07
452.086	5.24
452.443	4.93
452.801	5.02
453.158	5.03
453.515	4.99
453.872	4.92
454.229	4.92
454.586	5.02
454.943	4.88
455.3	5.14
455.657	4.98
456.014	5
456.371	5.08
456.727	4.96
457.084	4.95
457.441	4.97
457.797	4.95
458.154	4.96
458.51	4.85
458.867	4.91
459.223	5.22
459.58	4.98
459.936	5.04
460.292	4.88
460.648	4.8
461.005	4.7
461.361	4.83
461.717	4.97
462.073	5.1
462.429	4.99
462.785	5.03
463.141	4.98
463.496	5.08
463.852	4.82
464.208	4.9
464.564	5.06
464.919	5.03
465.275	5.08
465.631	4.83
465.986	4.85
466.342	4.73
466.697	4.9
467.052	5.04
467.408	5.05
467.763	4.8
468.118	4.99
468.473	5.08
468.829	5.02
469.184	4.91
469.539	4.82
469.894	4.82
470.249	4.97
470.603	4.88
470.958	4.81
471.313	4.78
471.668	4.78
472.023	4.84
472.377	4.86
472.732	5.01
473.086	4.91
473.441	4.83
473.795	4.94
474.15	4.89
474.504	4.65
474.859	4.95
475.213	5.03
475.567	4.9
475.921	4.83
476.275	4.93
476.63	5.08
476.984	5.05
477.338	5.02
477.692	4.71
478.045	4.88
478.399	5.05
478.753	4.74
479.107	4.9
479.461	4.85
479.814	4.74
480.168	4.89
480.521	4.71
480.875	4.93
481.228	4.85
481.582	4.86
481.935	4.74
482.289	4.71
482.642	4.7
482.995	4.76
483.348	4.83
483.701	4.67
484.055	4.65
484.408	4.62
484.761	4.59
485.114	4.43
485.466	4.44
485.819	4.56
486.172	4.62
486.525	4.67
486.878	4.72
487.23	4.74
487.583	4.67
487.936	4.68
488.288	4.6
488.641	4.56
488.993	4.53
489.345	4.55
489.698	4.57
490.05	4.62
490.402	4.7
490.754	4.73
491.107	4.73
491.459	4.81
491.811	4.71
492.163	4.67
492.515	4.67
492.866	4.56
493.218	4.49
493.57	4.6
493.922	4.64
494.274	4.68
494.625	4.69
494.977	4.76
495.328	4.69
495.68	4.68
496.031	4.79
496.383	4.72
496.734	4.75
497.086	4.73
497.437	4.87
497.788	4.69
498.139	4.55
498.49	4.68
498.842	4.53
499.193	4.7
499.544	4.69
499.894	4.76
500.245	4.73
500.596	4.7
500.947	4.66
501.298	4.73
501.648	4.64
501.999	4.76
502.35	4.72
502.7	4.79
503.051	4.77
503.401	4.65
503.752	4.73
504.102	4.6
504.452	4.68
504.803	4.55
505.153	4.73
505.503	4.84
505.853	4.66
506.203	4.66
506.553	4.76
506.903	4.69
507.253	4.67
507.603	4.67
507.953	4.71
508.303	4.76
508.652	4.67
509.002	4.57
509.352	4.57
509.701	4.7
510.051	4.58
510.4	4.52
510.75	4.46
511.099	4.65
511.449	4.6
511.798	4.66
512.147	4.65
512.496	4.69
512.846	4.68
513.195	4.62
513.544	4.64
513.893	4.62
514.242	4.53
514.591	4.65
514.939	4.65
515.288	4.67
515.637	4.61
515.986	4.65
516.334	4.6
516.683	4.64
517.032	4.63
517.38	4.58
517.729	4.59
518.077	4.54
518.426	4.67
518.774	4.48
519.122	4.73
519.47	4.51
519.819	4.49
520.167	4.47
520.515	4.52
520.863	4.44
521.211	4.54
521.559	4.51
521.907	4.47
522.255	4.5
522.602	4.53
522.95	4.54
523.298	4.62
523.645	4.65
523.993	4.5
524.341	4.62
524.688	4.53
525.036	4.56
525.383	4.69
525.73	4.48
526.078	4.49
526.425	4.47
526.772	4.43
527.119	4.32
527.466	4.45
527.814	4.49
528.161	4.47
528.508	4.44
528.854	4.53
529.201	4.37
529.548	4.3
529.895	4.24
530.242	4.27
530.588	4.29
530.935	4.35
531.282	4.4
531.628	4.42
531.975	4.5
532.321	4.5
532.667	4.49
533.014	4.47
533.36	4.42
533.706	4.4
534.052	4.41
534.399	4.35
534.745	4.32
535.091	4.32
535.437	4.34
535.783	4.43
536.129	4.48
536.474	4.44
536.82	4.48
537.166	4.43
537.512	4.42
537.857	4.37
538.203	4.42
538.549	4.34
538.894	4.47
539.239	4.47
539.585	4.59
539.93	4.49
540.276	4.61
540.621	4.47
540.966	4.43
541.311	4.32
541.656	4.41
542.001	4.3
542.346	4.3
542.691	4.21
543.036	4.18
543.381	4.3
543.726	4.29
544.071	4.29
544.415	4.4
544.76	4.27
545.105	4.36
545.449	4.35
545.794	4.45
546.138	4.5
546.483	4.4
546.827	4.35
547.171	4.41
547.516	4.33
547.86	4.37
548.204	4.42
548.548	4.3
548.892	4.32
549.236	4.43
549.58	4.44
549.924	4.34
550.268	4.35
550.612	4.5
550.956	4.46
551.3	4.47
551.643	4.35
551.987	4.59
552.33	4.47
552.674	4.3
553.017	4.37
553.361	4.43
553.704	4.39
554.048	4.4
554.391	4.29
554.734	4.34
555.077	4.39
555.42	4.27
555.764	4.29
556.107	4.31
556.45	4.3
556.793	4.28
557.135	4.37
557.478	4.27
557.821	4.47
558.164	4.42
558.507	4.16
558.849	4.36
559.192	4.26
559.534	4.32
559.877	4.51
560.219	4.46
560.562	4.38
560.904	4.31
561.246	4.26
561.589	4.49
561.931	4.26
562.273	4.29
562.615	4.32
562.957	4.11
563.299	4.34
563.641	4.24
563.983	4.43
564.325	4.35
564.667	4.27
565.008	4.26
565.35	4.33
565.692	4.18
566.033	4.12
566.375	4.3
566.716	4.22
567.058	4.3
567.399	4.23
567.741	4.22
568.082	4.21
568.423	4.43
568.764	4.17
569.105	4.25
569.447	4.24
569.788	4.25
570.129	4.31
570.47	4.22
570.811	4.08
571.151	4.3
571.492	4.16
571.833	4.17
572.174	4.21
572.514	4.3
572.855	4.17
573.195	4.23
573.536	4.19
573.876	4.02
574.217	4.19
574.557	4.28
574.898	4.22
575.238	4.47
575.578	4.23
575.918	4.28
576.258	4.22
576.598	4.17
576.938	4.03
577.278	4.21
577.618	4.25
577.958	4.15
578.298	4.2
578.638	4.22
578.977	4.36
579.317	4.08
579.657	3.93
579.996	4.27
580.336	4.49
580.675	4.48
581.014	4.07
581.354	4.12
581.693	4.26
582.032	4.23
582.372	4.4
582.711	4.07
583.05	4.27
583.389	4.09
583.728	4
584.067	4.29
584.406	4.24
584.745	4.23
585.083	4.1
585.422	4.27
585.761	4.54
586.1	4.25
586.438	4.29
586.777	4.19
587.115	4.08
587.454	4.28
587.792	3.93
588.13	4.26
588.469	4.29
588.807	3.99
589.145	4.11
589.483	4.16
589.821	3.96
590.159	4.11
590.497	4.19
590.835	3.93
591.173	4.15
591.511	4.15
591.849	4.03
592.187	4.01
592.524	4.21
592.862	4.19
593.2	3.99
593.537	3.99
593.875	4.14
594.212	3.98
594.55	4.08
594.887	4.03
595.224	4.16
595.561	4.3
595.899	4.2
596.236	3.96
596.573	4.18
596.91	3.96
597.247	3.97
597.584	3.94
597.921	4.04
598.258	4.05
598.594	3.85
598.931	4.09
599.268	4.1
599.604	3.99
599.941	4.18
600.277	3.98
600.614	4.13
600.95	4.26
601.287	3.93
601.623	3.99
601.959	3.85
602.296	3.98
602.632	3.7
602.968	4.15
603.304	3.92
603.64	4.24
603.976	4.06
604.312	4.15
604.648	3.94
604.984	3.98
605.319	3.94
605.655	3.92
605.991	3.75
606.326	4.07
606.662	3.99
606.998	4.22
607.333	4.04
607.668	3.9
608.004	3.92
608.339	4.19
608.674	4.07
609.01	4.04
609.345	4.14
609.68	3.96
610.015	3.96
610.35	3.97
610.685	3.95
611.02	4.05
611.355	3.78
611.689	3.92
612.024	3.79
612.359	3.88
612.694	3.82
613.028	4.02
613.363	3.94
613.697	3.93
614.032	3.87
614.366	4.17
614.7	3.65
615.035	3.79
615.369	3.99
615.703	3.97
616.037	4.15
616.371	3.82
616.705	3.75
617.039	4
617.373	3.84
617.707	3.88
618.041	3.62
618.375	3.72
618.709	3.73
619.042	3.87
619.376	3.75
619.71	4.14
620.043	3.75
620.377	4
620.71	3.71
621.043	4.16
621.377	3.66
621.71	3.8
622.043	3.78
622.376	4.11
622.709	4.24
623.043	3.79
623.376	4.21
623.709	3.99
624.041	3.83
624.374	4
624.707	3.77
625.04	3.96
625.373	4.11
625.705	3.84
626.038	4.12
626.37	3.58
626.703	3.99
627.035	3.79
627.368	4.07
627.7	3.74
628.032	3.77
628.365	3.79
628.697	4.01
629.029	3.89
629.361	3.95
629.693	4.07
630.025	3.91
630.357	3.91
630.689	3.78
631.021	3.82
631.353	3.96
631.684	3.96
632.016	3.76
632.348	4.1
632.679	3.5
633.011	4.05
633.342	4.11
633.674	3.9
634.005	3.92
634.336	3.99
634.668	3.93
634.999	3.7
635.33	3.9
635.661	4.16
635.992	3.98
636.323	4.09
636.654	3.73
636.985	4.02
637.316	3.8
637.647	3.94
637.977	4.23
638.308	3.8
638.639	4
638.969	3.94
639.3	3.69
639.63	4.04
639.961	3.71
640.291	3.45
640.622	4.11
640.952	3.99
641.282	4.03
641.612	4.04
641.943	4.02
642.273	4.19
642.603	3.34
642.933	3.69
643.263	3.73
643.592	3.73
643.922	3.8
644.252	3.94
644.582	3.73
644.911	4.03
645.241	3.92
645.571	3.5
645.9	3.71
646.23	3.88
646.559	3.9
646.888	4
647.218	3.38
647.547	3.66
647.876	3.48
648.205	3.71
648.534	4.07
648.863	3.51
649.192	3.99
649.521	3.94
649.85	4.07
650.179	3.39
650.508	3.74
650.837	3.64
651.165	3.9
651.494	3.86
651.822	4.32
652.151	3.87
652.479	3.58
652.808	3.64
653.136	3.89
653.465	4.19
653.793	3.85
654.121	4
654.449	4.13
654.777	3.81
655.105	4.16
655.433	3.61
655.761	3.88
656.089	3.63
656.417	4.08
656.745	4.39
657.073	3.95
657.4	3.94
657.728	3.85
658.056	3.51
658.383	3.91
658.711	3.91
659.038	3.92
659.365	3.38
659.693	3.85
660.02	3.92
660.347	4.02
660.674	4.31
661.001	3.56
661.329	3.45
661.656	3.33
661.982	3.71
662.309	3.86
662.636	3.86
662.963	3.43
663.29	3.81
663.616	3.41
663.943	3.87
664.27	3.8
664.596	3.87
664.923	3.04
665.249	3.91
665.576	4.04
665.902	3.83
666.228	3.81
666.554	4.05
666.881	3.3
667.207	4.19
667.533	3.74
667.859	3.3
668.185	4.56
668.511	3.78
668.837	3.62
669.162	3.72
669.488	3.78
669.814	3.93
670.139	4.11
670.465	3.93
670.791	4.27
671.116	3.84
671.442	3.42
671.767	4.23
672.092	3.84
672.418	3.89
672.743	3.5
673.068	3.04
673.393	3.98
673.718	3.69
674.043	3.91
674.368	3.88
674.693	3.98
675.018	4.36
675.343	3.31
675.667	3.63
675.992	4.21
676.317	4.33
676.641	3.93
676.966	3.24
677.29	3.74
677.615	4.18
677.939	3.92
678.264	3.23
678.588	3.77
678.912	3.26
679.236	4.25
679.56	3.48
679.885	3.42
680.209	3.4
680.532	3.99
680.856	3.49
681.18	3.51
681.504	3.46
681.828	3.74
682.152	4.25
682.475	3.8
682.799	4.2
683.122	4.1
683.446	3.39
683.769	4.08
684.093	4.22
684.416	3.59
684.739	4.23
685.062	3.75
685.386	3.82
685.709	3.69
686.032	3.68
686.355	3.78
686.678	3.95
687.001	3.57
687.324	3.11
687.646	3.65
687.969	3.16
688.292	4.9
688.614	3.7
688.937	3.57
689.26	3.61
689.582	4.06
689.904	3.95
690.227	3.16
690.549	4.63
690.871	3.63
691.194	4.15
691.516	3.41
691.838	3.73
692.16	3.84
692.482	4.28
692.804	3.94
