Data from 0033_crown_Reflection__3__175.txt Node

Date: Thu Oct 20 22:17:31 CDT 2022
User: ToomeyLab
Spectrometer: FLMS14357
Trigger mode: 0
Integration Time (sec): 1.000000E-2
Scans to average: 100
Electric dark correction enabled: true
Nonlinearity correction enabled: false
Boxcar width: 0
XAxis mode: Wavelengths
Number of Pixels in Spectrum: 2048
>>>>>Begin Spectral Data<<<<<
189.047	166.51
189.435	166.51
189.823	166.51
190.211	-14.3
190.599	-55.3
190.987	36.53
191.375	-426.85
191.763	1139.45
192.151	204.48
192.538	-135.11
192.926	493.05
193.314	-8.66
193.702	-353.16
194.089	148.69
194.477	44.92
194.864	-102.49
195.252	-13.09
195.639	268.66
196.027	-54.62
196.414	-1.46
196.801	-0.14
197.189	-3.66
197.576	-1389.21
197.963	971.82
198.351	-58.64
198.738	-182.59
199.125	-9.9
199.512	-12.95
199.899	-66.85
200.286	2.13
200.673	-40.09
201.06	10.06
201.447	-17.35
201.833	-56.68
202.22	-24.4
202.607	-38.29
202.994	-10.05
203.38	-8.42
203.767	-6.23
204.154	-30.09
204.54	-28.77
204.927	-6.03
205.313	21.63
205.699	3.92
206.086	41.42
206.472	29.5
206.858	3.41
207.245	14.9
207.631	-26.41
208.017	-39.73
208.403	-94.56
208.789	11.2
209.175	1.42
209.561	3.27
209.947	-21.87
210.333	10.45
210.719	2.41
211.105	11.82
211.491	-66.13
211.876	-46.7
212.262	-24.05
212.648	1.5
213.034	-7.35
213.419	-99.34
213.805	-12.77
214.19	-48.06
214.576	-69.94
214.961	-15.76
215.346	-101.8
215.732	1.58
216.117	-21.83
216.502	-14.33
216.888	-14.33
217.273	-6.56
217.658	4.66
218.043	15.75
218.428	-19.67
218.813	9.16
219.198	-5.95
219.583	-9.18
219.968	25.29
220.353	15
220.738	-0.94
221.122	10.12
221.507	-14.7
221.892	-3.01
222.276	3.07
222.661	10.74
223.046	10.56
223.43	-4.29
223.815	3.62
224.199	-27.12
224.583	-6.02
224.968	5.77
225.352	4
225.736	0.93
226.121	0.87
226.505	3.09
226.889	-0.6
227.273	-4.85
227.657	0.56
228.041	-2.67
228.425	1.96
228.809	3.23
229.193	3.05
229.577	2.98
229.961	3.82
230.344	3.21
230.728	3.42
231.112	3.37
231.495	4.17
231.879	2.45
232.263	4.25
232.646	3.32
233.03	1.52
233.413	1.31
233.797	2.54
234.18	1.03
234.563	1.65
234.946	0.9
235.33	3.07
235.713	3.34
236.096	0.07
236.479	3.95
236.862	1.95
237.245	1.98
237.628	2.68
238.011	2.38
238.394	4.82
238.777	4.02
239.16	3.07
239.543	3.05
239.925	2.06
240.308	2.65
240.691	3.45
241.073	2.05
241.456	2.93
241.838	2.7
242.221	2.5
242.603	3.06
242.986	3.6
243.368	3.52
243.75	3.63
244.133	3.43
244.515	3.08
244.897	3.07
245.279	2.06
245.661	3.97
246.043	4.04
246.425	3.19
246.807	2.77
247.189	3.12
247.571	3.22
247.953	3.04
248.335	3.11
248.717	3.18
249.098	3.31
249.48	3.44
249.862	3.16
250.243	3.21
250.625	3.86
251.006	3.85
251.388	3.52
251.769	3.68
252.151	3.09
252.532	2.68
252.913	2.99
253.295	2.75
253.676	3.27
254.057	2.19
254.438	2.75
254.819	3.07
255.2	3.74
255.581	3.62
255.962	2.39
256.343	2.89
256.724	2.99
257.105	3.09
257.486	2.6
257.867	2.81
258.247	3.12
258.628	3.09
259.009	2.33
259.389	2.59
259.77	2.42
260.15	3.09
260.531	3.03
260.911	2.78
261.292	3.08
261.672	3.12
262.052	3.15
262.432	3.05
262.813	2.51
263.193	2.88
263.573	2.74
263.953	3.22
264.333	2.51
264.713	2.51
265.093	2.71
265.473	2.88
265.853	3.13
266.233	2.74
266.612	3.76
266.992	2.03
267.372	2.83
267.752	2.85
268.131	3.85
268.511	2.93
268.89	2.73
269.27	2.86
269.649	2.68
270.029	2.1
270.408	2.81
270.787	2.15
271.167	3.15
271.546	2.35
271.925	3.28
272.304	2.93
272.683	2.38
273.062	2.63
273.441	2.72
273.82	2.98
274.199	2.63
274.578	2.77
274.957	2.72
275.336	2.51
275.715	2.71
276.093	2.96
276.472	3.05
276.851	3.65
277.229	2.09
277.608	2.45
277.986	2.31
278.365	2.68
278.743	2.54
279.122	2.59
279.5	2.43
279.878	3.43
280.257	2.48
280.635	2.75
281.013	3.03
281.391	3.03
281.769	2.98
282.147	2.02
282.525	1.95
282.903	2.47
283.281	2.3
283.659	2.39
284.037	1.98
284.415	2.43
284.792	2.56
285.17	3.04
285.548	2.32
285.925	2.31
286.303	2.5
286.68	2.82
287.058	2.39
287.435	2.33
287.813	2.37
288.19	2.29
288.567	2.72
288.945	2.61
289.322	2.74
289.699	2.12
290.076	2.55
290.453	2.48
290.83	2.41
291.207	2.43
291.584	2.61
291.961	2.37
292.338	1.91
292.715	2.37
293.092	2.6
293.469	2.52
293.845	2.76
294.222	2.49
294.599	3.3
294.975	2.39
295.352	2.8
295.728	2.34
296.105	2.9
296.481	2.43
296.858	2.41
297.234	2.65
297.61	2.63
297.986	2.41
298.363	2.44
298.739	2.43
299.115	2.24
299.491	2.18
299.867	2.26
300.243	2.52
300.619	2.29
300.995	2.05
301.371	2.35
301.746	2.13
302.122	2.58
302.498	2.55
302.874	2.9
303.249	2.62
303.625	2.14
304	2.95
304.376	2.36
304.751	2.48
305.127	2.05
305.502	2.45
305.878	2.55
306.253	2.21
306.628	2.55
307.003	2.1
307.378	1.54
307.754	2.47
308.129	2.33
308.504	2.45
308.879	2.59
309.254	2.77
309.629	2.15
310.003	2.23
310.378	2.24
310.753	2.71
311.128	1.95
311.502	1.84
311.877	2.61
312.252	2.32
312.626	2.49
313.001	2.4
313.375	2.85
313.75	2.1
314.124	2.47
314.498	2.03
314.873	2.19
315.247	1.72
315.621	2.22
315.995	2.33
316.369	2.46
316.743	2.13
317.117	2.53
317.491	2.74
317.865	2.48
318.239	2.51
318.613	2.58
318.987	2.11
319.361	2.62
319.734	1.89
320.108	2.34
320.482	2.34
320.855	2.77
321.229	2.76
321.602	2.15
321.976	1.92
322.349	2.19
322.723	2.38
323.096	2.66
323.469	2.29
323.843	2.24
324.216	2.26
324.589	2.58
324.962	2.81
325.335	2.79
325.708	2.67
326.081	2.62
326.454	2.44
326.827	2.09
327.2	2.74
327.573	2.4
327.945	2.78
328.318	2.29
328.691	2.58
329.063	2.52
329.436	2.23
329.809	2.53
330.181	2.61
330.553	1.75
330.926	2.06
331.298	2.72
331.671	2.79
332.043	2.64
332.415	2.47
332.787	3.05
333.159	1.93
333.532	2.34
333.904	2.47
334.276	2.74
334.648	2.19
335.02	2.57
335.391	2.52
335.763	2.82
336.135	2.53
336.507	1.94
336.879	2.52
337.25	1.73
337.622	2.56
337.993	1.98
338.365	2.97
338.736	2.31
339.108	1.74
339.479	2.19
339.851	2.1
340.222	2.64
340.593	2.53
340.964	2.86
341.336	2.08
341.707	2.1
342.078	2.02
342.449	1.9
342.82	2.34
343.191	2.32
343.562	2.74
343.933	1.84
344.303	2.21
344.674	2.66
345.045	2.41
345.416	2.56
345.786	2.48
346.157	2.59
346.527	2.3
346.898	2.41
347.268	2.45
347.639	2.43
348.009	2.35
348.38	2.71
348.75	2.25
349.12	2.35
349.49	2.33
349.861	2.57
350.231	2.14
350.601	2.64
350.971	2.68
351.341	2.83
351.711	2.79
352.081	2.3
352.45	2.37
352.82	2.24
353.19	2.89
353.56	2.48
353.929	2.35
354.299	2.95
354.669	2.5
355.038	2.58
355.408	2.4
355.777	2.77
356.147	2.77
356.516	2.37
356.885	2.29
357.254	2.48
357.624	2.82
357.993	2.44
358.362	2.93
358.731	2.53
359.1	2.29
359.469	2.36
359.838	2.54
360.207	2.84
360.576	2.31
360.945	2.79
361.314	2.68
361.682	2.59
362.051	2.53
362.42	2.53
362.788	2.34
363.157	2.5
363.525	2.56
363.894	2.68
364.262	2.85
364.631	2.71
364.999	2.48
365.367	2.92
365.735	2.61
366.104	2.44
366.472	2.62
366.84	2.69
367.208	2.67
367.576	2.59
367.944	2.89
368.312	2.52
368.68	2.88
369.048	2.21
369.416	2.49
369.783	2.93
370.151	3.09
370.519	2.94
370.886	2.58
371.254	3.12
371.621	2.53
371.989	2.78
372.356	2.34
372.724	2.66
373.091	2.59
373.458	2.28
373.826	2.52
374.193	2.66
374.56	2.21
374.927	2.14
375.294	2.71
375.661	3.07
376.028	2.33
376.395	2.9
376.762	2.39
377.129	2.44
377.496	2.33
377.863	2.53
378.229	2.59
378.596	2.6
378.963	2.78
379.329	2.88
379.696	2.76
380.062	2.53
380.429	2.82
380.795	2.87
381.161	2.6
381.528	2.6
381.894	2.67
382.26	2.58
382.626	2.95
382.993	2.46
383.359	3.11
383.725	2.75
384.091	2.9
384.457	2.6
384.823	2.58
385.188	2.83
385.554	2.38
385.92	2.57
386.286	2.51
386.651	2.62
387.017	2.56
387.383	2.55
387.748	2.79
388.114	2.63
388.479	2.37
388.845	2.7
389.21	2.78
389.575	2.63
389.94	2.93
390.306	2.94
390.671	2.66
391.036	2.81
391.401	2.4
391.766	2.87
392.131	2.84
392.496	2.6
392.861	2.64
393.226	2.9
393.591	2.87
393.956	2.71
394.32	2.92
394.685	2.74
395.05	2.65
395.414	2.61
395.779	2.6
396.143	2.85
396.508	2.78
396.872	2.83
397.236	2.84
397.601	3.14
397.965	3.02
398.329	2.87
398.694	2.48
399.058	2.75
399.422	2.81
399.786	2.68
400.15	2.65
400.514	2.95
400.878	2.59
401.242	3.03
401.605	2.92
401.969	2.7
402.333	2.91
402.697	3.15
403.06	2.61
403.424	2.82
403.787	2.95
404.151	2.7
404.514	2.79
404.878	2.6
405.241	2.88
405.604	2.94
405.968	2.83
406.331	2.73
406.694	2.85
407.057	2.82
407.42	2.68
407.783	2.87
408.146	2.85
408.509	2.85
408.872	2.96
409.235	2.69
409.598	2.92
409.961	2.83
410.323	2.99
410.686	2.84
411.049	2.77
411.411	2.66
411.774	2.68
412.136	2.79
412.499	2.93
412.861	2.89
413.223	2.82
413.586	2.86
413.948	2.81
414.31	2.85
414.672	2.85
415.035	2.76
415.397	3.05
415.759	2.71
416.121	2.86
416.483	2.63
416.845	2.97
417.206	2.9
417.568	2.76
417.93	2.6
418.292	2.94
418.653	2.75
419.015	2.87
419.377	2.89
419.738	2.87
420.1	2.81
420.461	2.91
420.822	2.72
421.184	2.72
421.545	2.78
421.906	2.67
422.267	2.85
422.629	2.68
422.99	2.8
423.351	2.8
423.712	2.86
424.073	2.8
424.434	2.72
424.795	2.78
425.155	2.88
425.516	2.76
425.877	2.81
426.238	2.89
426.598	2.81
426.959	2.82
427.32	2.87
427.68	2.88
428.041	2.92
428.401	2.76
428.761	2.89
429.122	2.72
429.482	2.88
429.842	2.87
430.202	2.82
430.563	2.8
430.923	3
431.283	2.85
431.643	2.99
432.003	2.92
432.363	3.07
432.722	3.07
433.082	2.81
433.442	2.81
433.802	2.85
434.161	2.9
434.521	2.8
434.881	2.76
435.24	2.78
435.6	2.91
435.959	2.95
436.319	2.89
436.678	2.83
437.037	2.95
437.396	2.91
437.756	2.87
438.115	2.96
438.474	2.8
438.833	2.89
439.192	2.68
439.551	2.86
439.91	2.86
440.269	2.86
440.628	2.81
440.987	2.83
441.345	2.83
441.704	2.94
442.063	3
442.421	2.82
442.78	2.8
443.138	2.87
443.497	2.99
443.855	2.83
444.214	2.85
444.572	2.94
444.93	2.76
445.288	2.75
445.647	2.83
446.005	2.73
446.363	2.79
446.721	2.75
447.079	2.83
447.437	2.82
447.795	2.72
448.153	2.75
448.51	2.77
448.868	2.83
449.226	2.9
449.584	2.9
449.941	2.85
450.299	2.97
450.656	2.97
451.014	2.97
451.371	2.94
451.729	2.77
452.086	3.03
452.443	2.77
452.801	2.8
453.158	2.81
453.515	2.88
453.872	2.76
454.229	2.78
454.586	2.88
454.943	2.86
455.3	2.99
455.657	2.82
456.014	2.98
456.371	2.84
456.727	2.82
457.084	2.72
457.441	3.03
457.797	2.97
458.154	2.84
458.51	2.73
458.867	2.91
459.223	3.14
459.58	2.83
459.936	2.94
460.292	2.76
460.648	2.7
461.005	2.68
461.361	2.74
461.717	2.78
462.073	2.96
462.429	2.86
462.785	2.93
463.141	3.09
463.496	3.11
463.852	2.83
464.208	3
464.564	2.98
464.919	3.06
465.275	3.08
465.631	2.77
465.986	2.87
466.342	2.75
466.697	2.89
467.052	2.82
467.408	2.8
467.763	2.9
468.118	3.09
468.473	2.97
468.829	2.92
469.184	2.92
469.539	2.86
469.894	2.93
470.249	3.03
470.603	2.88
470.958	2.9
471.313	2.74
471.668	2.83
472.023	2.88
472.377	2.87
472.732	2.93
473.086	2.97
473.441	2.84
473.795	3
474.15	2.89
474.504	2.79
474.859	2.98
475.213	2.92
475.567	3
475.921	2.65
476.275	2.93
476.63	3.02
476.984	2.93
477.338	2.85
477.692	2.83
478.045	2.82
478.399	2.94
478.753	2.84
479.107	2.83
479.461	2.86
479.814	2.95
480.168	2.91
480.521	2.9
480.875	3.05
481.228	2.84
481.582	2.94
481.935	2.83
482.289	2.71
482.642	2.76
482.995	2.87
483.348	2.99
483.701	2.77
484.055	2.77
484.408	2.75
484.761	2.7
485.114	2.59
485.466	2.6
485.819	2.69
486.172	2.77
486.525	2.85
486.878	2.93
487.23	2.91
487.583	2.82
487.936	2.82
488.288	2.8
488.641	2.71
488.993	2.72
489.345	2.72
489.698	2.77
490.05	2.86
490.402	2.86
490.754	2.92
491.107	2.92
491.459	2.98
491.811	2.88
492.163	2.81
492.515	2.74
492.866	2.69
493.218	2.7
493.57	2.77
493.922	2.88
494.274	3
494.625	2.95
494.977	3.09
495.328	2.94
495.68	2.95
496.031	3.03
496.383	2.89
496.734	2.83
497.086	2.85
497.437	2.99
497.788	2.79
498.139	2.75
498.49	2.87
498.842	2.76
499.193	2.88
499.544	2.89
499.894	2.9
500.245	2.9
500.596	2.92
500.947	2.9
501.298	2.93
501.648	2.85
501.999	2.87
502.35	2.9
502.7	2.93
503.051	3.04
503.401	3.01
503.752	2.92
504.102	2.83
504.452	2.92
504.803	2.76
505.153	2.94
505.503	2.92
505.853	2.83
506.203	2.85
506.553	2.95
506.903	2.81
507.253	3.01
507.603	2.85
507.953	3.02
508.303	3.06
508.652	2.75
509.002	2.91
509.352	2.89
509.701	2.9
510.051	2.85
510.4	2.81
510.75	2.78
511.099	2.83
511.449	2.85
511.798	2.92
512.147	2.92
512.496	3.03
512.846	2.97
513.195	2.82
513.544	2.91
513.893	3.02
514.242	2.85
514.591	2.9
514.939	2.8
515.288	2.98
515.637	2.93
515.986	2.85
516.334	2.85
516.683	2.85
517.032	2.85
517.38	2.89
517.729	3.03
518.077	2.92
518.426	2.86
518.774	2.8
519.122	2.88
519.47	2.81
519.819	2.81
520.167	2.77
520.515	2.84
520.863	2.86
521.211	2.86
521.559	2.93
521.907	2.81
522.255	2.9
522.602	2.92
522.95	2.9
523.298	2.82
523.645	2.93
523.993	2.81
524.341	2.95
524.688	2.88
525.036	2.82
525.383	2.9
525.73	2.82
526.078	2.83
526.425	2.86
526.772	2.76
527.119	2.72
527.466	2.91
527.814	2.86
528.161	2.79
528.508	2.84
528.854	2.8
529.201	2.82
529.548	2.75
529.895	2.66
530.242	2.68
530.588	2.74
530.935	2.84
531.282	2.83
531.628	2.89
531.975	2.95
532.321	2.88
532.667	2.84
533.014	2.97
533.36	2.84
533.706	2.77
534.052	2.88
534.399	2.81
534.745	2.77
535.091	2.78
535.437	2.84
535.783	2.81
536.129	2.93
536.474	2.93
536.82	2.9
537.166	2.85
537.512	2.87
537.857	2.78
538.203	2.79
538.549	2.85
538.894	2.86
539.239	2.9
539.585	2.93
539.93	2.97
540.276	3.04
540.621	2.82
540.966	2.89
541.311	2.83
541.656	2.88
542.001	2.74
542.346	2.71
542.691	2.66
543.036	2.62
543.381	2.77
543.726	2.85
544.071	2.81
544.415	2.88
544.76	2.8
545.105	2.88
545.449	2.87
545.794	2.9
546.138	3.06
546.483	2.84
546.827	2.82
547.171	2.85
547.516	2.8
547.86	2.86
548.204	2.86
548.548	2.88
548.892	2.91
549.236	2.99
549.58	2.92
549.924	2.94
550.268	3.02
550.612	3.02
550.956	2.87
551.3	2.98
551.643	2.9
551.987	2.92
552.33	3
552.674	2.88
553.017	2.81
553.361	2.95
553.704	3
554.048	2.83
554.391	2.78
554.734	2.74
555.077	2.8
555.42	2.93
555.764	2.79
556.107	2.8
556.45	2.95
556.793	2.98
557.135	2.91
557.478	2.93
557.821	2.89
558.164	2.96
558.507	2.93
558.849	2.94
559.192	3.07
559.534	3
559.877	2.98
560.219	3
560.562	2.92
560.904	3.07
561.246	2.84
561.589	3.07
561.931	2.81
562.273	2.88
562.615	3.01
562.957	2.71
563.299	2.84
563.641	2.79
563.983	2.93
564.325	2.91
564.667	2.86
565.008	2.89
565.35	2.9
565.692	3
566.033	2.82
566.375	2.92
566.716	2.89
567.058	2.95
567.399	2.96
567.741	2.87
568.082	2.74
568.423	2.78
568.764	2.78
569.105	2.83
569.447	3.05
569.788	3.02
570.129	2.93
570.47	2.87
570.811	2.62
571.151	2.81
571.492	2.68
571.833	2.8
572.174	2.85
572.514	2.91
572.855	2.87
573.195	2.95
573.536	2.75
573.876	2.72
574.217	2.84
574.557	2.87
574.898	2.9
575.238	2.87
575.578	3
575.918	2.9
576.258	2.75
576.598	2.86
576.938	2.85
577.278	2.85
577.618	2.96
577.958	2.89
578.298	3.12
578.638	2.78
578.977	2.91
579.317	2.93
579.657	2.75
579.996	3.08
580.336	3.03
580.675	3.15
581.014	2.85
581.354	2.81
581.693	2.96
582.032	3.11
582.372	3
582.711	2.74
583.05	3.02
583.389	2.95
583.728	2.93
584.067	2.94
584.406	2.93
584.745	2.82
585.083	2.76
585.422	2.9
585.761	3.04
586.1	2.96
586.438	3.2
586.777	2.99
587.115	2.74
587.454	2.99
587.792	2.82
588.13	3
588.469	3.06
588.807	2.9
589.145	2.63
589.483	2.7
589.821	2.97
590.159	2.9
590.497	2.83
590.835	2.75
591.173	2.81
591.511	2.78
591.849	2.71
592.187	2.71
592.524	2.99
592.862	2.77
593.2	2.76
593.537	2.89
593.875	2.83
594.212	2.84
594.55	2.81
594.887	2.85
595.224	3.01
595.561	2.97
595.899	2.98
596.236	2.96
596.573	3.21
596.91	2.74
597.247	2.63
597.584	2.71
597.921	2.82
598.258	2.8
598.594	2.89
598.931	2.93
599.268	2.79
599.604	2.73
599.941	3.09
600.277	2.82
600.614	2.86
600.95	2.93
601.287	2.89
601.623	2.68
601.959	2.83
602.296	2.69
602.632	2.85
602.968	3.13
603.304	2.89
603.64	3.22
603.976	2.6
604.312	3.11
604.648	2.86
604.984	2.8
605.319	2.81
605.655	2.79
605.991	2.84
606.326	2.84
606.662	2.9
606.998	3.07
607.333	2.9
607.668	2.8
608.004	2.9
608.339	2.88
608.674	2.98
609.01	3.03
609.345	2.95
609.68	2.79
610.015	2.7
610.35	2.86
610.685	2.75
611.02	2.67
611.355	2.93
611.689	2.76
612.024	2.65
612.359	2.94
612.694	2.88
613.028	2.88
613.363	2.7
613.697	2.79
614.032	2.85
614.366	2.85
614.7	2.54
615.035	2.51
615.369	2.71
615.703	2.98
616.037	2.61
616.371	2.92
616.705	2.64
617.039	3.11
617.373	2.74
617.707	3.08
618.041	2.91
618.375	2.67
618.709	2.76
619.042	2.63
619.376	2.71
619.71	3.1
620.043	3.09
620.377	2.95
620.71	2.97
621.043	2.76
621.377	2.49
621.71	2.63
622.043	2.68
622.376	3.19
622.709	3.2
623.043	2.67
623.376	3.21
623.709	3.06
624.041	3.01
624.374	2.97
624.707	2.69
625.04	3.14
625.373	3.03
625.705	2.57
626.038	3.11
626.37	2.64
626.703	2.92
627.035	2.77
627.368	3
627.7	2.77
628.032	3.04
628.365	2.73
628.697	2.88
629.029	3.15
629.361	3.15
629.693	3.22
630.025	3.13
630.357	2.66
630.689	2.66
631.021	2.8
631.353	3.05
631.684	2.66
632.016	2.43
632.348	3.01
632.679	2.48
633.011	2.98
633.342	2.97
633.674	2.6
634.005	2.71
634.336	2.83
634.668	2.84
634.999	2.69
635.33	3.29
635.661	2.44
635.992	2.82
636.323	3.21
636.654	2.9
636.985	2.88
637.316	2.57
637.647	3.05
637.977	3.33
638.308	2.7
638.639	2.95
638.969	2.8
639.3	2.6
639.63	3.17
639.961	2.33
640.291	2.4
640.622	3.15
640.952	2.89
641.282	3.01
641.612	3.11
641.943	3.02
642.273	3.06
642.603	2.97
642.933	3.1
643.263	2.79
643.592	2.87
643.922	3.48
644.252	3.24
644.582	2.66
644.911	3.12
645.241	2.6
645.571	2.99
645.9	3.58
646.23	2.96
646.559	3.05
646.888	3.11
647.218	2.63
647.547	2.82
647.876	2.72
648.205	2.85
648.534	2.8
648.863	2.94
649.192	3.02
649.521	3.04
649.85	3.28
650.179	2.97
650.508	3.03
650.837	2.65
651.165	2.81
651.494	2.74
651.822	3.1
652.151	3.08
652.479	2.61
652.808	2.38
653.136	2.47
653.465	3
653.793	2.88
654.121	2.98
654.449	3.22
654.777	2.93
655.105	3.19
655.433	2.73
655.761	3.32
656.089	3.05
656.417	3.12
656.745	3.21
657.073	2.98
657.4	2.94
657.728	2.79
658.056	3.11
658.383	2.56
658.711	3.06
659.038	3.18
659.365	2.72
659.693	3.1
660.02	2.67
660.347	3.03
660.674	2.92
661.001	2.9
661.329	2.86
661.656	2.66
661.982	2.74
662.309	2.84
662.636	3.07
662.963	2.48
663.29	2.88
663.616	2.92
663.943	3.18
664.27	3.49
664.596	3.27
664.923	2.78
665.249	3.16
665.576	3.61
665.902	2.7
666.228	3.51
666.554	3
666.881	2.52
667.207	2.97
667.533	3.31
667.859	2.71
668.185	4.22
668.511	2.52
668.837	2.31
669.162	2.95
669.488	2.79
669.814	3.26
670.139	3.26
670.465	2.87
670.791	3.19
671.116	3.21
671.442	3.32
671.767	3.2
672.092	3.16
672.418	3.11
672.743	2.51
673.068	1.86
673.393	2.67
673.718	2.88
674.043	2.41
674.368	2.63
674.693	2.97
675.018	3.25
675.343	2.6
675.667	2.75
675.992	2.88
676.317	3.28
676.641	2.81
676.966	2.56
677.29	2.89
677.615	3.22
677.939	2.94
678.264	2.28
678.588	3.48
678.912	3.5
679.236	3.21
679.56	2.8
679.885	3.14
680.209	2.72
680.532	3.77
680.856	3.39
681.18	3.05
681.504	2.75
681.828	3.12
682.152	3.43
682.475	2.9
682.799	3.68
683.122	3.41
683.446	2.91
683.769	2.87
684.093	2.93
684.416	3.35
684.739	3.05
685.062	3.06
685.386	3.13
685.709	2.83
686.032	3.21
686.355	2.63
686.678	3.32
687.001	3.36
687.324	3.32
687.646	2.51
687.969	3.28
688.292	3.13
688.614	2.97
688.937	2.72
689.26	2.55
689.582	3.09
689.904	3.8
690.227	2.07
690.549	3.46
690.871	2.43
691.194	3.07
691.516	2.68
691.838	2.82
692.16	2.88
692.482	3.4
692.804	3.29
