Data from 0033_forehead_Reflection__2__179.txt Node

Date: Thu Oct 20 22:18:49 CDT 2022
User: ToomeyLab
Spectrometer: FLMS14357
Trigger mode: 0
Integration Time (sec): 1.000000E-2
Scans to average: 100
Electric dark correction enabled: true
Nonlinearity correction enabled: false
Boxcar width: 0
XAxis mode: Wavelengths
Number of Pixels in Spectrum: 2048
>>>>>Begin Spectral Data<<<<<
189.047	-443.96
189.435	-443.96
189.823	-443.96
190.211	210.08
190.599	463.93
190.987	45.72
191.375	-1110.41
191.763	5221.1
192.151	58.11
192.538	103.95
192.926	573.07
193.314	-130.46
193.702	1271
194.089	115.35
194.477	87.2
194.864	-271.67
195.252	126.71
195.639	92.39
196.027	-100.69
196.414	36.25
196.801	20.19
197.189	66.43
197.576	-51.46
197.963	461.52
198.351	-18.28
198.738	-161.31
199.125	9.95
199.512	-28.27
199.899	-51.5
200.286	-42.07
200.673	-42.89
201.06	14.4
201.447	20.47
201.833	-15.57
202.22	-24.14
202.607	-12.57
202.994	-52.23
203.38	-61.78
203.767	8.88
204.154	-8.05
204.54	0.73
204.927	-25.93
205.313	43.74
205.699	-18.36
206.086	-15
206.472	-23.63
206.858	-23.31
207.245	7.24
207.631	-32.49
208.017	-17.76
208.403	-97.49
208.789	-30.25
209.175	-5.53
209.561	15.9
209.947	-15.4
210.333	8.43
210.719	-8.54
211.105	-17.38
211.491	-70.05
211.876	-51.94
212.262	-16.3
212.648	-14
213.034	-0.26
213.419	-72.03
213.805	-2.95
214.19	-20.05
214.576	-35.92
214.961	-46.55
215.346	-44.01
215.732	-7.03
216.117	-59.38
216.502	1.28
216.888	-29.92
217.273	-15.12
217.658	21.12
218.043	18.65
218.428	2.99
218.813	22.54
219.198	-30.42
219.583	7
219.968	32.24
220.353	-2.54
220.738	-18.85
221.122	1.06
221.507	-27.27
221.892	-0.83
222.276	-3.67
222.661	3.66
223.046	-3.52
223.43	-3
223.815	-3.43
224.199	-20.55
224.583	-1.15
224.968	3.34
225.352	4.2
225.736	-4.52
226.121	-3.24
226.505	1.48
226.889	-1.34
227.273	-6.19
227.657	2.05
228.041	-1.53
228.425	0.76
228.809	0.39
229.193	2.72
229.577	1.11
229.961	1.8
230.344	1.37
230.728	1.68
231.112	1.9
231.495	1.87
231.879	2.88
232.263	1.23
232.646	0.62
233.03	1.31
233.413	-0.61
233.797	1.83
234.18	0.69
234.563	-1.25
234.946	0.05
235.33	1.43
235.713	0.55
236.096	-0.11
236.479	2.67
236.862	2.24
237.245	2.44
237.628	1.1
238.011	2.51
238.394	2.62
238.777	2.27
239.16	0.57
239.543	-0.5
239.925	0.56
240.308	0.71
240.691	2.56
241.073	-1.3
241.456	2.52
241.838	1.85
242.221	1.95
242.603	0.98
242.986	1.66
243.368	2.06
243.75	1.85
244.133	1.94
244.515	1.64
244.897	1.11
245.279	1.04
245.661	2
246.043	0.72
246.425	1.97
246.807	2.5
247.189	1.6
247.571	1.71
247.953	1.48
248.335	1.81
248.717	1.85
249.098	1.79
249.48	1.71
249.862	1.86
250.243	1.56
250.625	2.37
251.006	1.97
251.388	1.62
251.769	1.54
252.151	1.91
252.532	0.91
252.913	2.17
253.295	1.86
253.676	1.81
254.057	0.87
254.438	1.96
254.819	2.32
255.2	2.26
255.581	2.3
255.962	2.11
256.343	0.5
256.724	1.54
257.105	1.22
257.486	0.25
257.867	1.75
258.247	2.17
258.628	1.58
259.009	1.51
259.389	1.73
259.77	1.6
260.15	1.74
260.531	1.82
260.911	1.51
261.292	1.99
261.672	1.76
262.052	2.12
262.432	1.93
262.813	1.52
263.193	1.62
263.573	1.48
263.953	1.52
264.333	1.76
264.713	1.37
265.093	0.87
265.473	1.99
265.853	2.83
266.233	1.34
266.612	1.67
266.992	1.11
267.372	2.19
267.752	1.68
268.131	1.94
268.511	1.61
268.89	1.49
269.27	1.77
269.649	0.79
270.029	1.62
270.408	1.08
270.787	1.62
271.167	1.93
271.546	1.14
271.925	2.05
272.304	1.77
272.683	1.45
273.062	1.48
273.441	1.62
273.82	2.32
274.199	1.24
274.578	1.32
274.957	1.59
275.336	1.87
275.715	2.17
276.093	1.92
276.472	2.32
276.851	2.24
277.229	1.51
277.608	1.53
277.986	1.97
278.365	1.44
278.743	1.35
279.122	1.87
279.5	1.6
279.878	1.95
280.257	1.45
280.635	1.49
281.013	1.28
281.391	2.01
281.769	1.57
282.147	1.19
282.525	1.05
282.903	1.63
283.281	1.73
283.659	1.43
284.037	1.13
284.415	1.93
284.792	1.59
285.17	2.09
285.548	1.66
285.925	1.52
286.303	1.96
286.68	1.86
287.058	1.68
287.435	1.5
287.813	1.62
288.19	1.49
288.567	1.67
288.945	1.56
289.322	1.96
289.699	1.42
290.076	1.62
290.453	1.57
290.83	2.02
291.207	1.79
291.584	1.88
291.961	1.78
292.338	1.6
292.715	1.99
293.092	1.8
293.469	1.91
293.845	1.82
294.222	1.72
294.599	2.27
294.975	1.84
295.352	2.36
295.728	1.68
296.105	2.11
296.481	1.82
296.858	2.2
297.234	2.32
297.61	2
297.986	1.77
298.363	1.9
298.739	2.26
299.115	2.23
299.491	1.85
299.867	2.29
300.243	2
300.619	1.83
300.995	1.62
301.371	2.06
301.746	1.94
302.122	2.51
302.498	2.04
302.874	2.5
303.249	2.74
303.625	2.26
304	2.55
304.376	2.24
304.751	2.4
305.127	1.86
305.502	2.45
305.878	2.45
306.253	1.87
306.628	2.4
307.003	2.07
307.378	1.79
307.754	1.67
308.129	2.67
308.504	2.41
308.879	1.96
309.254	2.23
309.629	2.07
310.003	2.17
310.378	2.23
310.753	2.73
311.128	2.2
311.502	2.04
311.877	2.64
312.252	2.13
312.626	2.17
313.001	2.19
313.375	2.62
313.75	2.51
314.124	2.33
314.498	2.07
314.873	2.34
315.247	2.16
315.621	2.17
315.995	2.2
316.369	2.49
316.743	1.86
317.117	2.39
317.491	2.48
317.865	2.34
318.239	2.13
318.613	2.61
318.987	2.7
319.361	2.92
319.734	2.21
320.108	2.58
320.482	2.58
320.855	2.6
321.229	2.74
321.602	1.79
321.976	2.46
322.349	2.61
322.723	3.21
323.096	2.76
323.469	2.32
323.843	2.58
324.216	2.36
324.589	3.42
324.962	2.07
325.335	2.9
325.708	2.74
326.081	2.77
326.454	2.71
326.827	2.85
327.2	2.61
327.573	2.45
327.945	2.86
328.318	2.85
328.691	3.02
329.063	2.99
329.436	2.6
329.809	2.88
330.181	2.55
330.553	2.58
330.926	3.29
331.298	2.47
331.671	3.01
332.043	2.88
332.415	2.69
332.787	3.47
333.159	2.95
333.532	2.68
333.904	3.24
334.276	2.72
334.648	2.22
335.02	3.07
335.391	2.92
335.763	2.8
336.135	3.26
336.507	2.84
336.879	3.68
337.25	2.45
337.622	3.37
337.993	3.19
338.365	2.79
338.736	3.16
339.108	3.04
339.479	3.08
339.851	2.74
340.222	2.96
340.593	3.03
340.964	3.29
341.336	2.92
341.707	2.69
342.078	2.81
342.449	2.58
342.82	3.47
343.191	3.09
343.562	3.26
343.933	3.04
344.303	2.93
344.674	3.07
345.045	3.1
345.416	3.24
345.786	3.57
346.157	3.29
346.527	3.21
346.898	3.13
347.268	2.8
347.639	3.3
348.009	3.46
348.38	3.46
348.75	2.84
349.12	3.59
349.49	3.15
349.861	3.77
350.231	2.91
350.601	3.36
350.971	3.71
351.341	3.59
351.711	3.36
352.081	3.22
352.45	3.37
352.82	3.09
353.19	3.38
353.56	3.86
353.929	3.01
354.299	3.59
354.669	3.33
355.038	3.38
355.408	2.98
355.777	3.71
356.147	3.52
356.516	3.65
356.885	3.43
357.254	3.73
357.624	3.4
357.993	3.44
358.362	3.63
358.731	3.83
359.1	3.33
359.469	3.6
359.838	3.56
360.207	3.77
360.576	3.37
360.945	3.9
361.314	3.51
361.682	3.88
362.051	3.68
362.42	3.59
362.788	3.57
363.157	3.58
363.525	3.65
363.894	3.42
364.262	3.75
364.631	3.76
364.999	3.74
365.367	3.77
365.735	3.74
366.104	3.34
366.472	3.5
366.84	4.04
367.208	3.81
367.576	3.92
367.944	4.21
368.312	3.74
368.68	4.03
369.048	3.65
369.416	3.74
369.783	3.86
370.151	4.13
370.519	3.93
370.886	3.7
371.254	4.17
371.621	3.88
371.989	3.97
372.356	3.74
372.724	3.85
373.091	3.78
373.458	3.56
373.826	4.03
374.193	4.38
374.56	3.8
374.927	3.99
375.294	3.7
375.661	4.43
376.028	4.12
376.395	4.27
376.762	3.98
377.129	4
377.496	3.93
377.863	3.84
378.229	4.03
378.596	4.15
378.963	3.99
379.329	4.32
379.696	3.92
380.062	4.14
380.429	4.57
380.795	4.29
381.161	4.52
381.528	4.28
381.894	4.41
382.26	4.38
382.626	4.4
382.993	3.95
383.359	4.29
383.725	4.37
384.091	4.57
384.457	4.18
384.823	4.47
385.188	4.52
385.554	3.83
385.92	4.16
386.286	4.43
386.651	4.41
387.017	4.34
387.383	4.47
387.748	4.54
388.114	4.62
388.479	4.35
388.845	4.67
389.21	4.6
389.575	4.32
389.94	4.9
390.306	4.63
390.671	4.73
391.036	4.37
391.401	4.26
391.766	4.83
392.131	4.62
392.496	4.47
392.861	4.48
393.226	4.55
393.591	4.7
393.956	4.77
394.32	4.77
394.685	4.73
395.05	4.65
395.414	4.8
395.779	4.76
396.143	4.98
396.508	4.96
396.872	4.91
397.236	4.76
397.601	5.21
397.965	5.03
398.329	4.7
398.694	4.69
399.058	4.88
399.422	4.86
399.786	4.66
400.15	4.9
400.514	4.88
400.878	4.88
401.242	5.11
401.605	5.03
401.969	5.07
402.333	5.01
402.697	5.07
403.06	5.07
403.424	4.91
403.787	5.31
404.151	4.95
404.514	4.91
404.878	4.85
405.241	5.18
405.604	5.12
405.968	5.05
406.331	4.84
406.694	4.87
407.057	5.23
407.42	5.04
407.783	5.16
408.146	5.25
408.509	5.31
408.872	5.14
409.235	5.11
409.598	5.3
409.961	5.26
410.323	5.45
410.686	5.36
411.049	5.12
411.411	5.07
411.774	5.11
412.136	5.41
412.499	5.24
412.861	5.43
413.223	5.48
413.586	5.18
413.948	5.26
414.31	5.33
414.672	5.42
415.035	5.54
415.397	5.52
415.759	5.5
416.121	5.54
416.483	5.42
416.845	5.54
417.206	5.38
417.568	5.48
417.93	5.33
418.292	5.61
418.653	5.55
419.015	5.45
419.377	5.37
419.738	5.43
420.1	5.53
420.461	5.5
420.822	5.44
421.184	5.43
421.545	5.51
421.906	5.51
422.267	5.48
422.629	5.41
422.99	5.54
423.351	5.58
423.712	5.56
424.073	5.61
424.434	5.55
424.795	5.58
425.155	5.52
425.516	5.49
425.877	5.54
426.238	5.67
426.598	5.7
426.959	5.62
427.32	5.84
427.68	5.77
428.041	5.87
428.401	5.8
428.761	5.79
429.122	5.84
429.482	5.77
429.842	5.96
430.202	5.99
430.563	5.75
430.923	6.05
431.283	5.78
431.643	5.91
432.003	5.96
432.363	6.02
432.722	6.14
433.082	5.94
433.442	5.89
433.802	6.09
434.161	5.99
434.521	5.96
434.881	5.95
435.24	5.93
435.6	6.06
435.959	6.11
436.319	6
436.678	6
437.037	6.06
437.396	6.3
437.756	6.14
438.115	6.21
438.474	6.18
438.833	6.22
439.192	6.2
439.551	6.21
439.91	6.29
440.269	6.24
440.628	6.21
440.987	6.14
441.345	6.37
441.704	6.19
442.063	6.26
442.421	6.08
442.78	6.13
443.138	6.33
443.497	6.33
443.855	6.38
444.214	6.24
444.572	6.42
444.93	6.25
445.288	6.34
445.647	6.34
446.005	6.24
446.363	6.44
446.721	6.36
447.079	6.21
447.437	6.26
447.795	6.27
448.153	6.32
448.51	6.3
448.868	6.33
449.226	6.46
449.584	6.53
449.941	6.52
450.299	6.59
450.656	6.7
451.014	6.74
451.371	6.73
451.729	6.5
452.086	6.79
452.443	6.68
452.801	6.84
453.158	6.72
453.515	6.75
453.872	6.68
454.229	6.63
454.586	6.65
454.943	6.76
455.3	6.75
455.657	6.73
456.014	6.87
456.371	6.77
456.727	6.94
457.084	6.84
457.441	6.94
457.797	6.95
458.154	6.83
458.51	6.95
458.867	6.95
459.223	7.19
459.58	6.82
459.936	6.95
460.292	6.8
460.648	6.79
461.005	6.7
461.361	6.82
461.717	6.92
462.073	7
462.429	7.06
462.785	7.23
463.141	7.31
463.496	7.35
463.852	7.06
464.208	7.27
464.564	7.34
464.919	7.31
465.275	7.24
465.631	7.22
465.986	7.16
466.342	7.11
466.697	7.25
467.052	7.24
467.408	7.3
467.763	7.32
468.118	7.47
468.473	7.38
468.829	7.47
469.184	7.34
469.539	7.26
469.894	7.39
470.249	7.45
470.603	7.37
470.958	7.5
471.313	7.43
471.668	7.44
472.023	7.43
472.377	7.43
472.732	7.65
473.086	7.67
473.441	7.57
473.795	7.63
474.15	7.52
474.504	7.31
474.859	7.67
475.213	7.65
475.567	7.87
475.921	7.65
476.275	7.67
476.63	7.74
476.984	7.6
477.338	7.59
477.692	7.67
478.045	7.76
478.399	7.82
478.753	7.58
479.107	7.72
479.461	7.72
479.814	7.81
480.168	7.91
480.521	7.73
480.875	7.92
481.228	7.82
481.582	7.86
481.935	7.82
482.289	7.66
482.642	7.65
482.995	7.86
483.348	7.76
483.701	7.64
484.055	7.67
484.408	7.48
484.761	7.31
485.114	7.15
485.466	7.2
485.819	7.4
486.172	7.64
486.525	7.75
486.878	7.87
487.23	7.89
487.583	7.83
487.936	7.82
488.288	7.65
488.641	7.53
488.993	7.58
489.345	7.61
489.698	7.68
490.05	7.78
490.402	8.01
490.754	8.07
491.107	8.19
491.459	8.2
491.811	8.03
492.163	8.01
492.515	7.89
492.866	7.69
493.218	7.67
493.57	7.91
493.922	8.11
494.274	8.26
494.625	8.35
494.977	8.44
495.328	8.54
495.68	8.48
496.031	8.56
496.383	8.53
496.734	8.5
497.086	8.58
497.437	8.59
497.788	8.47
498.139	8.33
498.49	8.5
498.842	8.43
499.193	8.53
499.544	8.6
499.894	8.64
500.245	8.67
500.596	8.66
500.947	8.67
501.298	8.77
501.648	8.78
501.999	8.79
502.35	8.75
502.7	8.78
503.051	8.89
503.401	8.97
503.752	8.9
504.102	8.93
504.452	8.98
504.803	8.72
505.153	8.88
505.503	9.02
505.853	8.92
506.203	8.86
506.553	9.12
506.903	8.92
507.253	9.11
507.603	9.09
507.953	9.02
508.303	9.15
508.652	8.95
509.002	9.05
509.352	8.91
509.701	9.02
510.051	8.92
510.4	8.98
510.75	8.93
511.099	9.09
511.449	9.05
511.798	9.07
512.147	9.21
512.496	9.22
512.846	9.31
513.195	9.19
513.544	9.12
513.893	9.18
514.242	9.12
514.591	9.4
514.939	9.33
515.288	9.42
515.637	9.35
515.986	9.48
516.334	9.37
516.683	9.43
517.032	9.43
517.38	9.54
517.729	9.59
518.077	9.48
518.426	9.52
518.774	9.4
519.122	9.44
519.47	9.25
519.819	9.25
520.167	9.19
520.515	9.37
520.863	9.38
521.211	9.5
521.559	9.63
521.907	9.49
522.255	9.52
522.602	9.65
522.95	9.73
523.298	9.79
523.645	9.82
523.993	9.77
524.341	9.71
524.688	9.73
525.036	9.85
525.383	9.86
525.73	9.78
526.078	9.82
526.425	9.73
526.772	9.52
527.119	9.47
527.466	9.65
527.814	9.63
528.161	9.76
528.508	9.69
528.854	9.79
529.201	9.55
529.548	9.28
529.895	9.17
530.242	9.22
530.588	9.41
530.935	9.63
531.282	9.74
531.628	9.84
531.975	9.97
532.321	10.04
532.667	9.99
533.014	10.07
533.36	9.93
533.706	9.89
534.052	9.88
534.399	9.72
534.745	9.64
535.091	9.74
535.437	9.94
535.783	10.01
536.129	10.15
536.474	10.32
536.82	10.25
537.166	10.26
537.512	10.24
537.857	10.03
538.203	10.07
538.549	10.25
538.894	10.37
539.239	10.44
539.585	10.57
539.93	10.52
540.276	10.77
540.621	10.52
540.966	10.56
541.311	10.49
541.656	10.34
542.001	10.32
542.346	10.07
542.691	9.9
543.036	9.9
543.381	10.15
543.726	10.37
544.071	10.43
544.415	10.58
544.76	10.46
545.105	10.64
545.449	10.7
545.794	10.76
546.138	10.89
546.483	10.83
546.827	10.76
547.171	10.79
547.516	10.78
547.86	10.73
548.204	10.82
548.548	10.85
548.892	10.95
549.236	11.02
549.58	11.14
549.924	11.22
550.268	11.15
550.612	11.24
550.956	11.34
551.3	11.2
551.643	11.27
551.987	11.47
552.33	11.37
552.674	11.31
553.017	11.33
553.361	11.37
553.704	11.43
554.048	11.31
554.391	11.3
554.734	11.29
555.077	11.27
555.42	11.54
555.764	11.59
556.107	11.37
556.45	11.62
556.793	11.57
557.135	11.69
557.478	11.54
557.821	11.63
558.164	11.58
558.507	11.59
558.849	11.9
559.192	11.74
559.534	11.84
559.877	11.77
560.219	11.93
560.562	11.87
560.904	11.71
561.246	11.73
561.589	11.99
561.931	11.91
562.273	12
562.615	11.85
562.957	11.74
563.299	11.85
563.641	11.84
563.983	12.12
564.325	12.05
564.667	12.06
565.008	12.18
565.35	12.11
565.692	11.92
566.033	11.82
566.375	12.07
566.716	12.1
567.058	12.14
567.399	12.04
567.741	11.85
568.082	12.01
568.423	12.15
568.764	12.09
569.105	12.22
569.447	12.45
569.788	12.41
570.129	12.33
570.47	12.4
570.811	12.12
571.151	12.24
571.492	12.35
571.833	12.34
572.174	12.52
572.514	12.44
572.855	12.32
573.195	12.36
573.536	12.19
573.876	12.19
574.217	12.28
574.557	12.45
574.898	12.46
575.238	12.7
575.578	12.35
575.918	12.51
576.258	12.45
576.598	12.57
576.938	12.42
577.278	12.5
577.618	12.92
577.958	12.73
578.298	12.79
578.638	12.72
578.977	12.82
579.317	12.66
579.657	12.6
579.996	13.08
580.336	12.96
580.675	13.34
581.014	13.18
581.354	13.04
581.693	13.02
582.032	12.98
582.372	12.96
582.711	13.07
583.05	13.14
583.389	13.17
583.728	13.19
584.067	13.34
584.406	13.44
584.745	13.11
585.083	13.25
585.422	13.37
585.761	13.34
586.1	13.44
586.438	13.56
586.777	13.48
587.115	13.35
587.454	13.56
587.792	13.37
588.13	13.56
588.469	13.81
588.807	13.29
589.145	13.5
589.483	13.55
589.821	13.27
590.159	13.32
590.497	13.38
590.835	13.49
591.173	13.63
591.511	13.59
591.849	13.54
592.187	13.49
592.524	13.66
592.862	13.83
593.2	14.03
593.537	13.91
593.875	13.71
594.212	13.64
594.55	13.81
594.887	13.57
595.224	13.72
595.561	13.79
595.899	13.85
596.236	13.93
596.573	13.97
596.91	13.91
597.247	13.73
597.584	14.01
597.921	13.92
598.258	13.53
598.594	13.59
598.931	13.8
599.268	13.85
599.604	13.79
599.941	14.02
600.277	14.13
600.614	14.09
600.95	14.39
601.287	14.16
601.623	13.99
601.959	14.09
602.296	14.23
602.632	14.07
602.968	14.38
603.304	14.1
603.64	14.39
603.976	14.26
604.312	14.16
604.648	14.06
604.984	14.09
605.319	14.12
605.655	14.01
605.991	13.97
606.326	14.19
606.662	14.29
606.998	14.39
607.333	14.37
607.668	14.49
608.004	14.65
608.339	14.62
608.674	14.52
609.01	14.63
609.345	14.48
609.68	14.64
610.015	14.61
610.35	14.49
610.685	14.24
611.02	14.38
611.355	14.48
611.689	14.43
612.024	14.39
612.359	14.68
612.694	14.56
613.028	14.74
613.363	15.01
613.697	15.02
614.032	15.02
614.366	15.05
614.7	14.78
615.035	14.99
615.369	14.72
615.703	15.08
616.037	15.16
616.371	14.57
616.705	14.93
617.039	15.05
617.373	15.28
617.707	15.1
618.041	15.05
618.375	15.14
618.709	15.05
619.042	15.11
619.376	14.86
619.71	15.25
620.043	15.06
620.377	15.3
620.71	15.39
621.043	15.38
621.377	14.75
621.71	15.3
622.043	14.89
622.376	15.41
622.709	15.41
623.043	15.72
623.376	15.53
623.709	15.02
624.041	15.41
624.374	15.66
624.707	15.32
625.04	15.68
625.373	16.03
625.705	15.2
626.038	15.64
626.37	15.38
626.703	15.28
627.035	15.82
627.368	15.53
627.7	15.35
628.032	15.49
628.365	15.23
628.697	15.35
629.029	15.63
629.361	15.72
629.693	15.83
630.025	15.5
630.357	15.87
630.689	15.65
631.021	15.95
631.353	15.78
631.684	15.7
632.016	15.37
632.348	15.96
632.679	15.78
633.011	15.91
633.342	15.99
633.674	16.26
634.005	15.75
634.336	16.19
634.668	15.94
634.999	16.06
635.33	16.36
635.661	15.93
635.992	16.05
636.323	16.39
636.654	16.08
636.985	16.41
637.316	16.16
637.647	16.51
637.977	16.6
638.308	16.28
638.639	16.17
638.969	15.94
639.3	16.2
639.63	16.54
639.961	16.51
640.291	16.21
640.622	16.8
640.952	16.46
641.282	16.7
641.612	16.61
641.943	16.54
642.273	16.58
642.603	16.34
642.933	16.56
643.263	16.51
643.592	16.58
643.922	16.7
644.252	16.99
644.582	16.57
644.911	16.66
645.241	16.73
645.571	16.66
645.9	16.97
646.23	16.44
646.559	16.78
646.888	16.48
647.218	16.58
647.547	16.59
647.876	16.86
648.205	17.08
648.534	16.45
648.863	16.65
649.192	16.71
649.521	17.07
649.85	17.07
650.179	17.02
650.508	17.24
650.837	16.9
651.165	17.13
651.494	17.09
651.822	17.54
652.151	17.47
652.479	16.5
652.808	16.98
653.136	16.88
653.465	17.31
653.793	17.15
654.121	17.31
654.449	17
654.777	17.4
655.105	17.46
655.433	17.05
655.761	17.48
656.089	17.2
656.417	17.53
656.745	17.25
657.073	17.08
657.4	17.9
657.728	17.48
658.056	17.79
658.383	17.9
658.711	17.55
659.038	17.19
659.365	17.18
659.693	16.96
660.02	17.2
660.347	17.77
660.674	17.17
661.001	17.35
661.329	17.28
661.656	17.04
661.982	17.38
662.309	18.06
662.636	17.53
662.963	17
663.29	17.06
663.616	17.75
663.943	17.29
664.27	17.83
664.596	17.68
664.923	17.81
665.249	17.57
665.576	18.2
665.902	17.65
666.228	18.09
666.554	17.17
666.881	17.64
667.207	17.92
667.533	17.53
667.859	17.33
668.185	18.53
668.511	17.75
668.837	17.43
669.162	18.11
669.488	17.82
669.814	17.93
670.139	18.21
670.465	17.51
670.791	18.23
671.116	18.58
671.442	18.14
671.767	17.99
672.092	18.11
672.418	18.34
672.743	18.02
673.068	18.01
673.393	17.92
673.718	18.19
674.043	17.76
674.368	18.18
674.693	18.01
675.018	18.52
675.343	18.05
675.667	18.49
675.992	18.45
676.317	18.31
676.641	18.45
676.966	17.7
677.29	17.92
677.615	18.12
677.939	17.83
678.264	18.2
678.588	18.04
678.912	17.83
679.236	18.51
679.56	18.67
679.885	17.9
680.209	18.1
680.532	18.76
680.856	18.28
681.18	18.32
681.504	18.64
