Data from 0033_forehead_Reflection__0__177.txt Node

Date: Thu Oct 20 22:18:23 CDT 2022
User: ToomeyLab
Spectrometer: FLMS14357
Trigger mode: 0
Integration Time (sec): 1.000000E-2
Scans to average: 100
Electric dark correction enabled: true
Nonlinearity correction enabled: false
Boxcar width: 0
XAxis mode: Wavelengths
Number of Pixels in Spectrum: 2048
>>>>>Begin Spectral Data<<<<<
189.047	540.26
189.435	540.26
189.823	540.26
190.211	41.92
190.599	-104.37
190.987	42.46
191.375	-1035.89
191.763	1081.65
192.151	80.02
192.538	-312.19
192.926	250.24
193.314	160.82
193.702	985.5
194.089	121.9
194.477	173.42
194.864	92.1
195.252	71.96
195.639	317.81
196.027	-7.68
196.414	75.28
196.801	7.5
197.189	-16.13
197.576	-188.09
197.963	241.82
198.351	-70.84
198.738	-57.33
199.125	26.4
199.512	17.26
199.899	-7.24
200.286	-28.02
200.673	19.91
201.06	38.15
201.447	37.9
201.833	25.53
202.22	8.95
202.607	21.19
202.994	-50.81
203.38	-17.49
203.767	18.84
204.154	45.07
204.54	10.72
204.927	-17.08
205.313	34.54
205.699	20.27
206.086	-12.32
206.472	22.26
206.858	-9.22
207.245	-9.32
207.631	-28.66
208.017	-67.33
208.403	0.79
208.789	30.65
209.175	32.48
209.561	27.23
209.947	19.75
210.333	-0.14
210.719	10.09
211.105	12.7
211.491	-60.37
211.876	-26.29
212.262	-7.84
212.648	-3.83
213.034	6.61
213.419	-82.53
213.805	-2.07
214.19	-29.84
214.576	-28.32
214.961	-11.56
215.346	-86.88
215.732	-1.96
216.117	-12.31
216.502	-21.19
216.888	-32.59
217.273	-20.93
217.658	13.25
218.043	8.42
218.428	-1.17
218.813	16.27
219.198	8.98
219.583	-0.02
219.968	34.58
220.353	4.94
220.738	1.28
221.122	-0.16
221.507	-7.91
221.892	-11.81
222.276	-12.03
222.661	2.7
223.046	-1.84
223.43	-14.29
223.815	-2.96
224.199	-17.59
224.583	-6.49
224.968	3.72
225.352	12.04
225.736	4.8
226.121	2.7
226.505	3.89
226.889	-3.65
227.273	-6.8
227.657	0.34
228.041	0.42
228.425	0.31
228.809	0.88
229.193	0.09
229.577	-1.42
229.961	1.25
230.344	-0.1
230.728	1.3
231.112	-0.37
231.495	-0.29
231.879	0.44
232.263	0.15
232.646	-0.66
233.03	0.47
233.413	0.62
233.797	-0.08
234.18	-1.74
234.563	-1.84
234.946	0.95
235.33	-0.12
235.713	0.51
236.096	0.04
236.479	0.24
236.862	-0.25
237.245	0.7
237.628	0.44
238.011	0.24
238.394	1.84
238.777	0.93
239.16	0.96
239.543	-0.9
239.925	-0.37
240.308	-0.85
240.691	0.89
241.073	-0.07
241.456	1.01
241.838	1.14
242.221	0.9
242.603	0.52
242.986	1.12
243.368	0.85
243.75	0.87
244.133	1.24
244.515	0.87
244.897	-0.04
245.279	-0.01
245.661	1.04
246.043	1.51
246.425	1.3
246.807	0.4
247.189	0.99
247.571	1.25
247.953	1
248.335	0.82
248.717	1
249.098	0.73
249.48	0.8
249.862	0.95
250.243	0.67
250.625	1.09
251.006	0.94
251.388	0.99
251.769	0.47
252.151	0.53
252.532	0.77
252.913	0.9
253.295	0.83
253.676	1.19
254.057	-0.18
254.438	0.68
254.819	1.02
255.2	0.2
255.581	1.07
255.962	0.92
256.343	0.31
256.724	0.72
257.105	0.39
257.486	0.45
257.867	0.61
258.247	0.96
258.628	0.88
259.009	0.45
259.389	1.24
259.77	0.69
260.15	1.1
260.531	0.95
260.911	0.87
261.292	1.13
261.672	1.07
262.052	0.85
262.432	1.13
262.813	0.69
263.193	1.39
263.573	1.02
263.953	1.46
264.333	0.09
264.713	0.53
265.093	1.04
265.473	1.55
265.853	1.36
266.233	0.86
266.612	1.3
266.992	0.33
267.372	1.08
267.752	1.05
268.131	1.49
268.511	0.75
268.89	0.9
269.27	0.82
269.649	0.45
270.029	0.79
270.408	0.98
270.787	0.49
271.167	0.74
271.546	1.27
271.925	1.26
272.304	0.92
272.683	0.7
273.062	0.48
273.441	0.65
273.82	1.17
274.199	0.78
274.578	0.35
274.957	0.86
275.336	0.63
275.715	1.12
276.093	1.31
276.472	1.15
276.851	1.24
277.229	0.83
277.608	0.32
277.986	0.69
278.365	0.37
278.743	0.52
279.122	1.1
279.5	0.64
279.878	1
280.257	1.12
280.635	0.83
281.013	0.97
281.391	1.19
281.769	0.78
282.147	0.7
282.525	0.64
282.903	0.58
283.281	0.48
283.659	0.41
284.037	0.22
284.415	0.4
284.792	0.23
285.17	0.91
285.548	0.9
285.925	0.87
286.303	1.05
286.68	0.68
287.058	1.03
287.435	0.74
287.813	0.73
288.19	0.62
288.567	0.88
288.945	1.04
289.322	0.85
289.699	0.41
290.076	0.77
290.453	0.79
290.83	0.78
291.207	1.56
291.584	1.18
291.961	0.85
292.338	0.64
292.715	0.51
293.092	1.3
293.469	1.22
293.845	1.1
294.222	1.29
294.599	1.39
294.975	1.14
295.352	1.49
295.728	0.8
296.105	1.26
296.481	0.5
296.858	1.34
297.234	1.22
297.61	1.51
297.986	1.03
298.363	1.09
298.739	1.19
299.115	0.84
299.491	0.93
299.867	0.9
300.243	1.29
300.619	1.35
300.995	0.64
301.371	1.38
301.746	1.05
302.122	1.56
302.498	1.55
302.874	1.63
303.249	1.38
303.625	1.06
304	1.69
304.376	1.26
304.751	1.42
305.127	0.92
305.502	1.65
305.878	1.67
306.253	1.16
306.628	0.96
307.003	1.15
307.378	0.9
307.754	1.61
308.129	1.36
308.504	1.09
308.879	1.22
309.254	0.83
309.629	1.46
310.003	1.13
310.378	1.22
310.753	1.4
311.128	1.05
311.502	1.71
311.877	1.58
312.252	1.24
312.626	1.52
313.001	1.41
313.375	1.68
313.75	1.36
314.124	1.54
314.498	1.33
314.873	1.06
315.247	1.25
315.621	1.66
315.995	1.14
316.369	1.9
316.743	1.49
317.117	1.75
317.491	1.83
317.865	1.34
318.239	1.67
318.613	1.8
318.987	1.44
319.361	1.77
319.734	1.3
320.108	1.91
320.482	1.32
320.855	1.12
321.229	1.92
321.602	0.81
321.976	1.7
322.349	1.83
322.723	1.79
323.096	1.53
323.469	1.84
323.843	1.62
324.216	1.43
324.589	2.23
324.962	1.36
325.335	1.74
325.708	2.06
326.081	2.21
326.454	1.72
326.827	1.67
327.2	1.99
327.573	1.39
327.945	1.65
328.318	1.66
328.691	2
329.063	2.04
329.436	1.57
329.809	2.42
330.181	1.77
330.553	1.54
330.926	1.93
331.298	1.78
331.671	2.44
332.043	2.25
332.415	1.93
332.787	2.11
333.159	2.1
333.532	1.85
333.904	1.82
334.276	2.05
334.648	1.63
335.02	1.93
335.391	1.57
335.763	2
336.135	2.1
336.507	1.63
336.879	2.45
337.25	1.7
337.622	1.95
337.993	1.63
338.365	2.38
338.736	2.1
339.108	1.99
339.479	2.17
339.851	1.96
340.222	2.04
340.593	1.75
340.964	2.37
341.336	2.02
341.707	1.56
342.078	1.54
342.449	1.93
342.82	1.79
343.191	1.69
343.562	2.43
343.933	2.26
344.303	1.99
344.674	2.13
345.045	2.24
345.416	1.86
345.786	2.09
346.157	2.06
346.527	1.69
346.898	1.92
347.268	1.79
347.639	1.83
348.009	2.4
348.38	2.37
348.75	1.72
349.12	2.57
349.49	2.15
349.861	2.19
350.231	1.72
350.601	2.42
350.971	1.98
351.341	2.63
351.711	2.38
352.081	2.12
352.45	2.34
352.82	1.77
353.19	2.23
353.56	2.37
353.929	1.84
354.299	2.52
354.669	1.88
355.038	2.11
355.408	1.97
355.777	2.16
356.147	2.2
356.516	2.42
356.885	2.06
357.254	2.27
357.624	2.54
357.993	2.06
358.362	2.38
358.731	2.47
359.1	2.01
359.469	2.29
359.838	2.16
360.207	2.98
360.576	2.24
360.945	2.54
361.314	2.22
361.682	2.41
362.051	2.27
362.42	2.19
362.788	2.08
363.157	2.21
363.525	2.28
363.894	2.43
364.262	2.35
364.631	2.28
364.999	2.24
365.367	2.59
365.735	2.38
366.104	2.16
366.472	2.08
366.84	2.41
367.208	2.33
367.576	2.54
367.944	2.46
368.312	2.3
368.68	2.39
369.048	2.15
369.416	2.25
369.783	2.46
370.151	2.78
370.519	2.45
370.886	2.07
371.254	2.37
371.621	2.38
371.989	2.59
372.356	2.27
372.724	2.56
373.091	2.66
373.458	2.34
373.826	2.17
374.193	2.74
374.56	2.09
374.927	2.25
375.294	2.41
375.661	2.8
376.028	2.35
376.395	3.05
376.762	2.41
377.129	2.28
377.496	2.33
377.863	2.52
378.229	2.35
378.596	2.37
378.963	2.54
379.329	2.78
379.696	2.4
380.062	2.57
380.429	2.86
380.795	2.66
381.161	3.02
381.528	2.57
381.894	2.56
382.26	2.26
382.626	2.69
382.993	2.54
383.359	2.82
383.725	2.78
384.091	2.66
384.457	2.75
384.823	2.8
385.188	2.62
385.554	2.13
385.92	2.61
386.286	2.44
386.651	2.41
387.017	2.66
387.383	2.52
387.748	2.97
388.114	2.61
388.479	2.74
388.845	2.78
389.21	2.78
389.575	2.64
389.94	3.15
390.306	2.82
390.671	2.91
391.036	2.96
391.401	2.78
391.766	2.71
392.131	2.75
392.496	2.67
392.861	2.64
393.226	2.64
393.591	2.86
393.956	3.09
394.32	2.96
394.685	2.96
395.05	2.64
395.414	2.85
395.779	2.67
396.143	2.93
396.508	2.85
396.872	3.03
397.236	2.82
397.601	3.21
397.965	2.98
398.329	2.7
398.694	2.84
399.058	2.65
399.422	3.03
399.786	3.07
400.15	2.81
400.514	3.07
400.878	2.89
401.242	3.08
401.605	2.97
401.969	3.18
402.333	3.08
402.697	3.2
403.06	2.93
403.424	2.96
403.787	2.99
404.151	2.97
404.514	3.04
404.878	2.81
405.241	2.99
405.604	3.11
405.968	3.05
406.331	3.08
406.694	2.92
407.057	2.93
407.42	3.11
407.783	2.97
408.146	3.01
408.509	3.17
408.872	3.02
409.235	2.9
409.598	3.25
409.961	3.29
410.323	3.3
410.686	3.19
411.049	3.1
411.411	3.03
411.774	2.94
412.136	3.17
412.499	3.26
412.861	3.19
413.223	3.22
413.586	3.11
413.948	3.13
414.31	3.06
414.672	3.01
415.035	3.11
415.397	3.14
415.759	3.21
416.121	3.37
416.483	3.22
416.845	3.34
417.206	3.11
417.568	3.38
417.93	3.07
418.292	3.43
418.653	3.37
419.015	3.36
419.377	3.25
419.738	3.25
420.1	3.21
420.461	3.2
420.822	3.15
421.184	3.21
421.545	3.18
421.906	3.18
422.267	3.27
422.629	3.33
422.99	3.27
423.351	3.12
423.712	3.15
424.073	3.29
424.434	3.27
424.795	3.27
425.155	3.3
425.516	3.3
425.877	3.28
426.238	3.4
426.598	3.38
426.959	3.35
427.32	3.41
427.68	3.26
428.041	3.29
428.401	3.52
428.761	3.47
429.122	3.37
429.482	3.33
429.842	3.51
430.202	3.55
430.563	3.55
430.923	3.63
431.283	3.4
431.643	3.44
432.003	3.62
432.363	3.63
432.722	3.87
433.082	3.43
433.442	3.53
433.802	3.56
434.161	3.55
434.521	3.46
434.881	3.44
435.24	3.33
435.6	3.64
435.959	3.67
436.319	3.65
436.678	3.5
437.037	3.59
437.396	3.7
437.756	3.61
438.115	3.51
438.474	3.65
438.833	3.66
439.192	3.56
439.551	3.6
439.91	3.69
440.269	3.72
440.628	3.65
440.987	3.63
441.345	3.68
441.704	3.66
442.063	3.72
442.421	3.57
442.78	3.5
443.138	3.66
443.497	3.66
443.855	3.6
444.214	3.73
444.572	3.89
444.93	3.66
445.288	3.78
445.647	3.81
446.005	3.74
446.363	3.77
446.721	3.7
447.079	3.76
447.437	3.65
447.795	3.6
448.153	3.6
448.51	3.66
448.868	3.79
449.226	3.73
449.584	3.74
449.941	3.79
450.299	3.85
450.656	3.83
451.014	3.98
451.371	3.93
451.729	3.87
452.086	4.15
452.443	3.86
452.801	3.88
453.158	4
453.515	3.96
453.872	3.94
454.229	3.84
454.586	4.02
454.943	3.88
455.3	3.89
455.657	4
456.014	3.94
456.371	3.83
456.727	4.09
457.084	3.99
457.441	4.13
457.797	4.04
458.154	4.08
458.51	3.97
458.867	4.07
459.223	4.39
459.58	4.04
459.936	3.97
460.292	4.03
460.648	3.93
461.005	3.92
461.361	3.99
461.717	4.11
462.073	4.14
462.429	4.1
462.785	4.21
463.141	4.35
463.496	4.2
463.852	4.34
464.208	4.19
464.564	4.4
464.919	4.29
465.275	4.5
465.631	4.31
465.986	4.29
466.342	4.11
466.697	4.36
467.052	4.41
467.408	4.19
467.763	4.4
468.118	4.38
468.473	4.56
468.829	4.46
469.184	4.32
469.539	4.21
469.894	4.25
470.249	4.45
470.603	4.28
470.958	4.46
471.313	4.46
471.668	4.4
472.023	4.36
472.377	4.31
472.732	4.51
473.086	4.57
473.441	4.46
473.795	4.56
474.15	4.51
474.504	4.44
474.859	4.52
475.213	4.61
475.567	4.68
475.921	4.37
476.275	4.55
476.63	4.71
476.984	4.6
477.338	4.46
477.692	4.54
478.045	4.57
478.399	4.61
478.753	4.61
479.107	4.53
479.461	4.55
479.814	4.6
480.168	4.76
480.521	4.57
480.875	4.64
481.228	4.62
481.582	4.6
481.935	4.63
482.289	4.6
482.642	4.47
482.995	4.58
483.348	4.69
483.701	4.54
484.055	4.45
484.408	4.39
484.761	4.36
485.114	4.23
485.466	4.21
485.819	4.27
486.172	4.39
486.525	4.46
486.878	4.53
487.23	4.65
487.583	4.59
487.936	4.61
488.288	4.53
488.641	4.46
488.993	4.45
489.345	4.42
489.698	4.46
490.05	4.46
490.402	4.65
490.754	4.68
491.107	4.67
491.459	4.74
491.811	4.75
492.163	4.67
492.515	4.61
492.866	4.55
493.218	4.58
493.57	4.58
493.922	4.67
494.274	4.76
494.625	4.8
494.977	4.99
495.328	4.99
495.68	4.99
496.031	5.08
496.383	4.91
496.734	4.98
497.086	4.97
497.437	5.11
497.788	5.07
498.139	4.89
498.49	4.98
498.842	4.83
499.193	5.08
499.544	5.09
499.894	5.07
500.245	5
500.596	5.01
500.947	5.06
501.298	5.21
501.648	5.08
501.999	5.19
502.35	5.36
502.7	5.16
503.051	5.22
503.401	5.26
503.752	5.33
504.102	5.34
504.452	5.34
504.803	5.12
505.153	5.29
505.503	5.37
505.853	5.24
506.203	5.25
506.553	5.23
506.903	5.16
507.253	5.26
507.603	5.32
507.953	5.42
508.303	5.59
508.652	5.32
509.002	5.33
509.352	5.24
509.701	5.23
510.051	5.39
510.4	5.31
510.75	5.28
511.099	5.32
511.449	5.32
511.798	5.33
512.147	5.36
512.496	5.54
512.846	5.48
513.195	5.43
513.544	5.38
513.893	5.39
514.242	5.39
514.591	5.53
514.939	5.49
515.288	5.56
515.637	5.54
515.986	5.48
516.334	5.6
516.683	5.61
517.032	5.65
517.38	5.61
517.729	5.6
518.077	5.62
518.426	5.71
518.774	5.53
519.122	5.68
519.47	5.51
519.819	5.45
520.167	5.41
520.515	5.55
520.863	5.47
521.211	5.51
521.559	5.6
521.907	5.52
522.255	5.56
522.602	5.65
522.95	5.66
523.298	5.7
523.645	5.85
523.993	5.82
524.341	5.84
524.688	5.73
525.036	5.91
525.383	6
525.73	5.7
526.078	5.74
526.425	5.74
526.772	5.63
527.119	5.56
527.466	5.76
527.814	5.65
528.161	5.68
528.508	5.75
528.854	5.74
529.201	5.67
529.548	5.52
529.895	5.43
530.242	5.46
530.588	5.52
530.935	5.62
531.282	5.65
531.628	5.71
531.975	5.86
532.321	5.94
532.667	5.85
533.014	5.93
533.36	5.92
533.706	5.79
534.052	5.94
534.399	5.82
534.745	5.74
535.091	5.76
535.437	5.83
535.783	5.85
536.129	5.95
536.474	6.09
536.82	6.11
537.166	6.03
537.512	6.1
537.857	5.97
538.203	5.98
538.549	6
538.894	6.12
539.239	6.11
539.585	6.25
539.93	6.23
540.276	6.32
540.621	6.27
540.966	6.26
541.311	6.29
541.656	6.2
542.001	6.1
542.346	6
542.691	5.84
543.036	5.91
543.381	6.06
543.726	6.08
544.071	6.15
544.415	6.24
544.76	6.14
545.105	6.29
545.449	6.27
545.794	6.37
546.138	6.5
546.483	6.47
546.827	6.4
547.171	6.37
547.516	6.44
547.86	6.4
548.204	6.42
548.548	6.45
548.892	6.47
549.236	6.55
549.58	6.57
549.924	6.6
550.268	6.67
550.612	6.75
550.956	6.76
551.3	6.84
551.643	6.69
551.987	6.87
552.33	6.75
552.674	6.66
553.017	6.69
553.361	6.83
553.704	6.96
554.048	6.87
554.391	6.7
554.734	6.7
555.077	6.68
555.42	6.8
555.764	6.77
556.107	6.89
556.45	6.99
556.793	6.98
557.135	6.85
557.478	6.85
557.821	6.91
558.164	6.97
558.507	6.93
558.849	7.11
559.192	7.08
559.534	7.38
559.877	7.11
560.219	7.23
560.562	7.2
560.904	7.16
561.246	7.23
561.589	7.22
561.931	7.04
562.273	6.98
562.615	7.17
562.957	7.03
563.299	6.95
563.641	7.05
563.983	7.38
564.325	7.12
564.667	7.19
565.008	7.29
565.35	7.22
565.692	7.17
566.033	7.29
566.375	7.24
566.716	7.39
567.058	7.22
567.399	7.35
567.741	7.2
568.082	7.13
568.423	7.22
568.764	7.24
569.105	7.39
569.447	7.45
569.788	7.37
570.129	7.37
570.47	7.41
570.811	7.12
571.151	7.49
571.492	7.4
571.833	7.55
572.174	7.52
572.514	7.37
572.855	7.54
573.195	7.36
573.536	7.41
573.876	7.3
574.217	7.44
574.557	7.49
574.898	7.38
575.238	7.78
575.578	7.5
575.918	7.64
576.258	7.53
576.598	7.49
576.938	7.51
577.278	7.47
577.618	7.82
577.958	7.72
578.298	7.83
578.638	7.66
578.977	7.88
579.317	7.7
579.657	7.6
579.996	7.82
580.336	7.89
580.675	8.25
581.014	7.78
581.354	8.15
581.693	8.14
582.032	7.89
582.372	7.9
582.711	7.77
583.05	8
583.389	8.02
583.728	8.19
584.067	7.92
584.406	8.05
584.745	7.99
585.083	7.86
585.422	8.25
585.761	8.14
586.1	8.05
586.438	8.26
586.777	8.24
587.115	8.01
587.454	8.3
587.792	8.26
588.13	8.22
588.469	8.58
588.807	8.07
589.145	8.25
589.483	8.34
589.821	8.12
590.159	8.21
590.497	8.11
590.835	8.15
591.173	8.21
591.511	8.46
591.849	8.32
592.187	8.17
592.524	8.27
592.862	8.37
593.2	8.65
593.537	8.37
593.875	8.32
594.212	8.36
594.55	8.25
594.887	8.54
595.224	8.7
595.561	8.43
595.899	8.7
596.236	8.52
596.573	8.61
596.91	8.39
597.247	8.44
597.584	8.31
597.921	8.4
598.258	8.24
598.594	8.24
598.931	8.25
599.268	8.59
599.604	8.37
599.941	8.69
600.277	8.63
600.614	8.43
600.95	8.83
601.287	8.67
601.623	8.59
601.959	8.71
602.296	8.48
602.632	8.54
602.968	8.79
603.304	8.52
603.64	9.08
603.976	8.72
604.312	8.76
604.648	8.47
604.984	8.48
605.319	8.56
605.655	8.65
605.991	8.53
606.326	8.77
606.662	8.73
606.998	8.74
607.333	8.74
607.668	8.72
608.004	8.69
608.339	9.15
608.674	9.01
609.01	9.09
609.345	8.86
609.68	8.94
610.015	8.95
610.35	9
610.685	8.89
611.02	8.79
611.355	9.03
611.689	9.01
612.024	8.93
612.359	8.91
612.694	9.04
613.028	9.06
613.363	9.1
613.697	9.25
614.032	9.48
614.366	9.15
614.7	9.05
615.035	9.1
615.369	9.19
615.703	9.27
616.037	9.38
616.371	9.06
616.705	8.99
617.039	9.11
617.373	9.36
617.707	9.57
618.041	8.79
618.375	9.09
618.709	9.14
619.042	9.13
619.376	9.35
619.71	9.21
620.043	9.28
620.377	9.17
620.71	9.43
621.043	9.57
621.377	8.93
621.71	9.23
622.043	9.35
622.376	9.63
622.709	9.56
623.043	9.7
623.376	9.65
623.709	9.66
624.041	9.56
624.374	9.7
624.707	9.59
625.04	9.62
625.373	9.74
625.705	9.78
626.038	9.95
626.37	9.52
626.703	9.58
627.035	9.55
627.368	9.82
627.7	9.41
628.032	9.89
628.365	9.58
628.697	9.67
629.029	9.87
629.361	9.72
629.693	10.14
630.025	9.9
630.357	9.68
630.689	9.76
631.021	9.95
631.353	10.06
631.684	9.72
632.016	9.57
632.348	9.87
632.679	9.93
633.011	10.26
633.342	10.12
633.674	9.88
634.005	9.85
634.336	10.24
634.668	10.03
634.999	9.92
635.33	10.13
635.661	10.14
635.992	9.82
636.323	10.18
636.654	9.95
636.985	10.04
637.316	10.13
637.647	10.09
637.977	10.59
638.308	9.72
638.639	10.34
638.969	10.31
639.3	10.15
639.63	10.4
639.961	10.05
640.291	10.21
640.622	10.59
640.952	10.47
641.282	10.34
641.612	10.62
641.943	10.33
642.273	10.39
642.603	10.36
642.933	10.47
643.263	10.27
643.592	10.53
643.922	10.89
644.252	10.91
644.582	10.27
644.911	10.56
645.241	10.68
645.571	10.48
645.9	10.56
646.23	10.13
646.559	10.35
646.888	10.4
647.218	10.27
647.547	10.5
647.876	10.18
648.205	10.35
648.534	10.41
648.863	10.6
649.192	10.59
649.521	10.65
649.85	10.99
650.179	10.61
650.508	11.26
650.837	10.77
651.165	10.68
651.494	10.87
651.822	10.94
652.151	11.31
652.479	10.19
652.808	10.62
653.136	10.35
653.465	10.57
653.793	10.85
654.121	10.85
654.449	10.84
654.777	10.74
655.105	10.92
655.433	10.48
655.761	10.99
656.089	10.94
656.417	11.04
656.745	10.73
657.073	11.12
657.4	10.9
657.728	11.18
658.056	11.16
658.383	11.07
658.711	11.36
659.038	11.24
659.365	10.88
659.693	11.1
660.02	11.41
660.347	11.14
660.674	10.89
661.001	10.62
661.329	10.94
661.656	10.88
661.982	11.1
662.309	10.98
662.636	11.09
662.963	10.96
663.29	10.85
663.616	11.4
663.943	11.75
664.27	11.63
664.596	11.24
664.923	11.21
665.249	11.46
665.576	11.7
665.902	11.26
666.228	11.7
666.554	11.26
666.881	11.19
667.207	11.29
667.533	11.61
667.859	11.07
668.185	11.5
668.511	11.52
668.837	11.19
669.162	11.55
669.488	11.54
669.814	11.79
670.139	11.52
670.465	10.87
670.791	11.77
671.116	11.57
671.442	11.43
671.767	11.46
672.092	11.7
672.418	11.27
672.743	11.45
673.068	10.9
673.393	11.58
673.718	11.67
674.043	11.09
674.368	10.98
674.693	11.89
675.018	11.81
675.343	11.02
675.667	11.27
675.992	11.84
676.317	11.83
676.641	11.69
676.966	11.15
677.29	11.24
677.615	12.16
677.939	11.37
678.264	12.13
678.588	11.95
678.912	12.07
679.236	12.23
679.56	11.52
679.885	11.74
680.209	11.73
680.532	12.27
680.856	11.98
681.18	12.1
681.504	11.29
681.828	11.51
682.152	12.03
682.475	12
682.799	11.91
683.122	11.92
683.446	11.46
683.769	12.05
684.093	11.54
684.416	11.6
684.739	11.8
685.062	11.87
685.386	12.17
685.709	12.05
686.032	11.89
686.355	12.03
686.678	11.99
687.001	11.95
687.324	12.14
687.646	11.94
687.969	12.37
688.292	12.5
