Data from 0033_chest_Reflection__1__168.txt Node

Date: Thu Oct 20 22:15:17 CDT 2022
User: ToomeyLab
Spectrometer: FLMS14357
Trigger mode: 0
Integration Time (sec): 1.000000E-2
Scans to average: 100
Electric dark correction enabled: true
Nonlinearity correction enabled: false
Boxcar width: 0
XAxis mode: Wavelengths
Number of Pixels in Spectrum: 2048
>>>>>Begin Spectral Data<<<<<
189.047	1345.89
189.435	1345.89
189.823	1345.89
190.211	100.91
190.599	495.96
190.987	62.09
191.375	-572.6
191.763	974.31
192.151	104.76
192.538	63.69
192.926	3.72
193.314	50.39
193.702	-122.68
194.089	106.79
194.477	-95.26
194.864	-194.16
195.252	52.68
195.639	-45.83
196.027	-61.87
196.414	122.53
196.801	108.54
197.189	91.44
197.576	-34.61
197.963	752.48
198.351	18.99
198.738	-88.49
199.125	-19.6
199.512	15.25
199.899	-33.5
200.286	24.48
200.673	13.04
201.06	42.89
201.447	-1.16
201.833	42.15
202.22	-5.95
202.607	6.32
202.994	-15.56
203.38	-12.28
203.767	5.18
204.154	-28.54
204.54	-7.28
204.927	18.84
205.313	31.86
205.699	-12.91
206.086	-33.52
206.472	10.43
206.858	-15.52
207.245	-10.26
207.631	-20.63
208.017	-56.94
208.403	-71.91
208.789	-23.61
209.175	-18.24
209.561	11.76
209.947	9.98
210.333	27.56
210.719	10.6
211.105	22.33
211.491	-33.62
211.876	18.5
212.262	3.5
212.648	-26.87
213.034	-9.04
213.419	-73.62
213.805	8.45
214.19	-13.88
214.576	-23.63
214.961	-12.35
215.346	-12.83
215.732	-9.06
216.117	21.08
216.502	-6.02
216.888	-13.84
217.273	-13.32
217.658	13.55
218.043	12.47
218.428	13.72
218.813	16.13
219.198	-1.47
219.583	-1.6
219.968	20.86
220.353	-24.92
220.738	9.86
221.122	-0.85
221.507	-12.21
221.892	1.92
222.276	6.09
222.661	14
223.046	12.23
223.43	-1.02
223.815	-7.07
224.199	1.24
224.583	2.87
224.968	1.55
225.352	16.06
225.736	-0.54
226.121	-2.34
226.505	7.42
226.889	-1.74
227.273	-2.16
227.657	2.82
228.041	2.89
228.425	3.78
228.809	4.65
229.193	4.53
229.577	3.92
229.961	4.76
230.344	4.13
230.728	3.57
231.112	3.26
231.495	4.86
231.879	4.71
232.263	4
232.646	3.08
233.03	1.7
233.413	2.45
233.797	2.4
234.18	2.22
234.563	3.24
234.946	3.31
235.33	3.28
235.713	2.29
236.096	2.61
236.479	3.7
236.862	3.88
237.245	2.5
237.628	3.97
238.011	3.21
238.394	4.51
238.777	5.46
239.16	4.01
239.543	1.64
239.925	3.55
240.308	3.7
240.691	4.34
241.073	2.63
241.456	3.76
241.838	3.48
242.221	3.24
242.603	3.52
242.986	3.75
243.368	3.85
243.75	3.83
244.133	4.36
244.515	3.7
244.897	3.41
245.279	3.24
245.661	4.65
246.043	4.29
246.425	4.29
246.807	3.83
247.189	4.13
247.571	4.38
247.953	3.82
248.335	3.88
248.717	3.88
249.098	3.98
249.48	3.86
249.862	3.87
250.243	4.07
250.625	3.95
251.006	4.49
251.388	3.07
251.769	4.4
252.151	3.75
252.532	3.9
252.913	3.8
253.295	3.94
253.676	3.93
254.057	3.42
254.438	3.29
254.819	3.48
255.2	4.7
255.581	4
255.962	4.37
256.343	3.21
256.724	3.53
257.105	3.41
257.486	3.67
257.867	4.28
258.247	4.96
258.628	3.7
259.009	3.12
259.389	3.65
259.77	3.97
260.15	3.99
260.531	4.09
260.911	3.93
261.292	4.04
261.672	3.89
262.052	3.72
262.432	4.1
262.813	3.73
263.193	3.9
263.573	3.88
263.953	3.89
264.333	3.36
264.713	3.94
265.093	3.85
265.473	4.25
265.853	4.29
266.233	3.62
266.612	3.94
266.992	3.22
267.372	3.44
267.752	3.8
268.131	4.03
268.511	3.75
268.89	3.74
269.27	3.6
269.649	3.1
270.029	3.57
270.408	3.33
270.787	3.23
271.167	3.45
271.546	3.43
271.925	3.99
272.304	3.93
272.683	3.61
273.062	3.61
273.441	3.41
273.82	3.8
274.199	3.26
274.578	3.41
274.957	3.49
275.336	3.74
275.715	3.93
276.093	3.77
276.472	3.99
276.851	4.07
277.229	2.57
277.608	3.06
277.986	3.64
278.365	3.48
278.743	3.22
279.122	3.77
279.5	3.43
279.878	3.84
280.257	3.38
280.635	3.24
281.013	3.56
281.391	3.68
281.769	4.19
282.147	3.52
282.525	3.29
282.903	3.3
283.281	3.42
283.659	3.24
284.037	3.07
284.415	3.23
284.792	3.23
285.17	3.96
285.548	3.41
285.925	3.38
286.303	3.45
286.68	3.62
287.058	3.45
287.435	3.48
287.813	3.41
288.19	3.54
288.567	3.48
288.945	3.55
289.322	3.6
289.699	3.15
290.076	3.95
290.453	3.58
290.83	3.87
291.207	3.81
291.584	4
291.961	3.43
292.338	3.38
292.715	3.47
293.092	4.15
293.469	3.73
293.845	3.62
294.222	3.51
294.599	4.52
294.975	3.48
295.352	4.11
295.728	3.92
296.105	3.69
296.481	3.18
296.858	3.72
297.234	3.8
297.61	3.82
297.986	3.59
298.363	3.66
298.739	4.11
299.115	3.61
299.491	3.69
299.867	3.77
300.243	3.64
300.619	3.4
300.995	3.35
301.371	3.78
301.746	3.67
302.122	4.06
302.498	3.97
302.874	4.59
303.249	3.98
303.625	3.7
304	4.02
304.376	3.61
304.751	3.81
305.127	3.6
305.502	4.32
305.878	4.03
306.253	3.57
306.628	3.91
307.003	3.84
307.378	3.52
307.754	4.03
308.129	3.97
308.504	3.98
308.879	4.13
309.254	3.75
309.629	3.93
310.003	3.5
310.378	3.67
310.753	4.05
311.128	4.01
311.502	3.88
311.877	4.01
312.252	3.84
312.626	4
313.001	4.37
313.375	3.98
313.75	3.58
314.124	3.78
314.498	3.46
314.873	3.85
315.247	3.75
315.621	3.84
315.995	3.43
316.369	4.2
316.743	3.56
317.117	3.94
317.491	4.32
317.865	3.6
318.239	3.86
318.613	4.23
318.987	3.45
319.361	4.08
319.734	3.71
320.108	4.37
320.482	3.97
320.855	4
321.229	4.41
321.602	3.01
321.976	3.84
322.349	3.89
322.723	4.72
323.096	4.31
323.469	3.73
323.843	4.58
324.216	3.94
324.589	4.58
324.962	3.9
325.335	4.04
325.708	4.15
326.081	4.52
326.454	3.85
326.827	4.16
327.2	4.45
327.573	3.8
327.945	4.25
328.318	4.07
328.691	4.34
329.063	4.46
329.436	3.86
329.809	4.1
330.181	4.36
330.553	3.82
330.926	4.31
331.298	4.07
331.671	4.46
332.043	4.4
332.415	4.15
332.787	4.59
333.159	4.32
333.532	4.35
333.904	4.34
334.276	4.14
334.648	4.18
335.02	4.27
335.391	4.32
335.763	3.94
336.135	4.15
336.507	4.06
336.879	4.85
337.25	3.99
337.622	4.42
337.993	4.14
338.365	4.51
338.736	4.03
339.108	4.05
339.479	4.05
339.851	3.83
340.222	4.24
340.593	4.02
340.964	4.2
341.336	4.15
341.707	4.08
342.078	4.18
342.449	4.06
342.82	4.39
343.191	4.6
343.562	4.24
343.933	4.24
344.303	4.38
344.674	4.1
345.045	4.38
345.416	4.26
345.786	4.29
346.157	4.42
346.527	4.23
346.898	4.39
347.268	4.64
347.639	4.54
348.009	4.48
348.38	4.65
348.75	3.64
349.12	4.57
349.49	4.56
349.861	4.46
350.231	4.15
350.601	4.47
350.971	4.81
351.341	4.24
351.711	4.44
352.081	3.75
352.45	4.2
352.82	4.45
353.19	4.16
353.56	4.34
353.929	3.92
354.299	4.65
354.669	4.43
355.038	4.25
355.408	3.9
355.777	4.34
356.147	4.48
356.516	4.56
356.885	4.21
357.254	4.48
357.624	4.45
357.993	3.95
358.362	4.45
358.731	4.49
359.1	4.19
359.469	4.32
359.838	4.15
360.207	5.05
360.576	4.36
360.945	4.5
361.314	4.29
361.682	4.41
362.051	4.15
362.42	4.31
362.788	4.34
363.157	4.19
363.525	4.3
363.894	4.18
364.262	4.38
364.631	4.43
364.999	4.32
365.367	4.65
365.735	4.56
366.104	4.28
366.472	4.35
366.84	4.8
367.208	4.56
367.576	4.34
367.944	4.58
368.312	4.32
368.68	4.48
369.048	4.05
369.416	4.47
369.783	4.45
370.151	4.65
370.519	4.34
370.886	4.47
371.254	4.54
371.621	4.34
371.989	4.26
372.356	4.2
372.724	4.82
373.091	4.64
373.458	3.95
373.826	4.42
374.193	4.75
374.56	4.28
374.927	4.53
375.294	4.51
375.661	5.12
376.028	4.48
376.395	4.75
376.762	4.38
377.129	4.3
377.496	4.39
377.863	4.51
378.229	4.23
378.596	4.92
378.963	4.91
379.329	4.72
379.696	4.37
380.062	4.53
380.429	4.83
380.795	4.33
381.161	4.57
381.528	4.46
381.894	4.65
382.26	4.43
382.626	4.79
382.993	4.34
383.359	4.75
383.725	4.7
384.091	4.59
384.457	4.49
384.823	4.6
385.188	4.84
385.554	4.28
385.92	4.66
386.286	4.14
386.651	4.48
387.017	4.46
387.383	4.65
387.748	4.68
388.114	4.91
388.479	4.55
388.845	4.64
389.21	4.51
389.575	4.56
389.94	4.64
390.306	4.63
390.671	4.73
391.036	4.82
391.401	4.43
391.766	4.72
392.131	4.81
392.496	4.34
392.861	4.5
393.226	4.53
393.591	4.66
393.956	4.65
394.32	4.7
394.685	4.65
395.05	4.68
395.414	4.8
395.779	4.62
396.143	4.69
396.508	4.82
396.872	4.73
397.236	4.6
397.601	4.74
397.965	4.88
398.329	4.86
398.694	4.7
399.058	4.61
399.422	4.49
399.786	4.68
400.15	4.53
400.514	4.92
400.878	4.69
401.242	4.94
401.605	4.88
401.969	4.66
402.333	4.63
402.697	5.01
403.06	4.6
403.424	4.73
403.787	4.64
404.151	4.74
404.514	4.78
404.878	4.52
405.241	4.73
405.604	4.85
405.968	4.75
406.331	4.78
406.694	4.66
407.057	4.81
407.42	4.79
407.783	4.6
408.146	4.87
408.509	4.75
408.872	5.01
409.235	4.71
409.598	4.96
409.961	4.77
410.323	4.98
410.686	4.79
411.049	4.59
411.411	4.66
411.774	4.63
412.136	4.78
412.499	4.8
412.861	4.77
413.223	4.64
413.586	4.72
413.948	4.91
414.31	4.68
414.672	4.84
415.035	4.85
415.397	4.62
415.759	4.81
416.121	4.88
416.483	4.63
416.845	4.93
417.206	4.86
417.568	4.85
417.93	4.6
418.292	4.92
418.653	4.92
419.015	4.77
419.377	4.75
419.738	4.83
420.1	4.77
420.461	4.76
420.822	4.71
421.184	4.67
421.545	4.76
421.906	4.75
422.267	4.72
422.629	4.65
422.99	4.72
423.351	4.56
423.712	4.63
424.073	4.68
424.434	4.77
424.795	4.74
425.155	4.75
425.516	4.62
425.877	4.67
426.238	4.82
426.598	4.73
426.959	4.7
427.32	4.72
427.68	4.82
428.041	4.82
428.401	4.88
428.761	4.74
429.122	4.94
429.482	4.78
429.842	4.81
430.202	4.91
430.563	4.72
430.923	4.98
431.283	4.95
431.643	4.79
432.003	4.84
432.363	4.96
432.722	5.07
433.082	4.93
433.442	4.92
433.802	4.87
434.161	4.89
434.521	4.87
434.881	4.74
435.24	4.79
435.6	4.81
435.959	4.84
436.319	4.84
436.678	4.88
437.037	4.88
437.396	5.07
437.756	4.87
438.115	4.97
438.474	4.86
438.833	5
439.192	4.93
439.551	4.96
439.91	4.92
440.269	4.91
440.628	4.97
440.987	5.03
441.345	5.05
441.704	4.8
442.063	4.94
442.421	4.89
442.78	4.89
443.138	4.97
443.497	4.99
443.855	4.86
444.214	4.87
444.572	5.15
444.93	4.75
445.288	4.87
445.647	5
446.005	5.02
446.363	4.97
446.721	4.95
447.079	4.98
447.437	4.82
447.795	4.92
448.153	4.91
448.51	4.92
448.868	4.83
449.226	4.8
449.584	4.98
449.941	4.99
450.299	4.91
450.656	5
451.014	5.02
451.371	4.89
451.729	5.02
452.086	5.07
452.443	4.98
452.801	5.11
453.158	5.17
453.515	5.05
453.872	5.03
454.229	4.97
454.586	4.94
454.943	5
455.3	5.07
455.657	4.99
456.014	5.07
456.371	5.04
456.727	5.1
457.084	4.97
457.441	5.15
457.797	5.15
458.154	5.02
458.51	5.08
458.867	5.05
459.223	5.31
459.58	5.16
459.936	5.14
460.292	5.12
460.648	5.02
461.005	5.07
461.361	5
461.717	5.05
462.073	5.13
462.429	5.11
462.785	5.07
463.141	5.17
463.496	5.13
463.852	5.11
464.208	5.17
464.564	5.12
464.919	5.23
465.275	5.19
465.631	5.16
465.986	5.18
466.342	5.19
466.697	5.2
467.052	5.13
467.408	5.2
467.763	5.27
468.118	5.49
468.473	5.3
468.829	5.25
469.184	5.21
469.539	5.25
469.894	5.13
470.249	5.33
470.603	5.06
470.958	5.2
471.313	5.07
471.668	5.12
472.023	5.16
472.377	5.23
472.732	5.31
473.086	5.45
473.441	5.24
473.795	5.31
474.15	5.2
474.504	5.14
474.859	5.37
475.213	5.3
475.567	5.49
475.921	5.16
476.275	5.32
476.63	5.28
476.984	5.37
477.338	5.12
477.692	5.36
478.045	5.44
478.399	5.34
478.753	5.29
479.107	5.27
479.461	5.35
479.814	5.26
480.168	5.4
480.521	5.4
480.875	5.41
481.228	5.31
481.582	5.33
481.935	5.29
482.289	5.19
482.642	5.17
482.995	5.37
483.348	5.39
483.701	5.25
484.055	5.18
484.408	5.17
484.761	5.17
485.114	5.07
485.466	5.01
485.819	5.01
486.172	5.04
486.525	5
486.878	5.07
487.23	5.1
487.583	5.1
487.936	5.2
488.288	5.21
488.641	5.17
488.993	5.12
489.345	5.11
489.698	5.07
490.05	5.11
490.402	5.2
490.754	5.14
491.107	5.18
491.459	5.34
491.811	5.26
492.163	5.27
492.515	5.31
492.866	5.26
493.218	5.23
493.57	5.19
493.922	5.17
494.274	5.23
494.625	5.27
494.977	5.36
495.328	5.32
495.68	5.47
496.031	5.51
496.383	5.46
496.734	5.5
497.086	5.48
497.437	5.51
497.788	5.6
498.139	5.53
498.49	5.53
498.842	5.31
499.193	5.42
499.544	5.54
499.894	5.58
500.245	5.45
500.596	5.49
500.947	5.42
501.298	5.55
501.648	5.5
501.999	5.53
502.35	5.61
502.7	5.64
503.051	5.63
503.401	5.67
503.752	5.67
504.102	5.42
504.452	5.67
504.803	5.59
505.153	5.58
505.503	5.75
505.853	5.61
506.203	5.58
506.553	5.55
506.903	5.65
507.253	5.7
507.603	5.78
507.953	5.7
508.303	5.7
508.652	5.64
509.002	5.59
509.352	5.73
509.701	5.69
510.051	5.62
510.4	5.54
510.75	5.5
511.099	5.61
511.449	5.64
511.798	5.71
512.147	5.7
512.496	5.76
512.846	5.79
513.195	5.75
513.544	5.67
513.893	5.84
514.242	5.71
514.591	5.77
514.939	5.71
515.288	5.78
515.637	5.92
515.986	5.76
516.334	5.8
516.683	5.81
517.032	5.78
517.38	5.87
517.729	5.78
518.077	5.77
518.426	5.76
518.774	5.75
519.122	5.85
519.47	5.73
519.819	5.81
520.167	5.71
520.515	5.77
520.863	5.7
521.211	5.69
521.559	5.86
521.907	5.79
522.255	5.86
522.602	5.82
522.95	5.94
523.298	5.87
523.645	6.01
523.993	5.84
524.341	5.96
524.688	5.93
525.036	5.99
525.383	6.1
525.73	6.05
526.078	5.92
526.425	6.04
526.772	5.95
527.119	5.97
527.466	6.01
527.814	5.99
528.161	5.91
528.508	5.88
528.854	5.96
529.201	5.97
529.548	5.88
529.895	5.87
530.242	5.8
530.588	5.75
530.935	5.78
531.282	5.75
531.628	5.81
531.975	5.94
532.321	5.95
532.667	5.89
533.014	6.08
533.36	6.02
533.706	6.01
534.052	6
534.399	6.04
534.745	5.99
535.091	5.98
535.437	5.97
535.783	5.95
536.129	6.02
536.474	6.12
536.82	6.14
537.166	6.08
537.512	6.17
537.857	6.19
538.203	6.33
538.549	6.17
538.894	6.22
539.239	6.12
539.585	6.25
539.93	6.27
540.276	6.38
540.621	6.33
540.966	6.44
541.311	6.32
541.656	6.36
542.001	6.39
542.346	6.3
542.691	6.19
543.036	6.14
543.381	6.15
543.726	6.1
544.071	6.16
544.415	6.25
544.76	6.17
545.105	6.36
545.449	6.33
545.794	6.41
546.138	6.49
546.483	6.48
546.827	6.56
547.171	6.49
547.516	6.54
547.86	6.57
548.204	6.5
548.548	6.51
548.892	6.59
549.236	6.47
549.58	6.6
549.924	6.7
550.268	6.7
550.612	6.82
550.956	6.78
551.3	6.81
551.643	6.76
551.987	6.81
552.33	6.81
552.674	6.83
553.017	6.81
553.361	6.76
553.704	6.83
554.048	6.93
554.391	6.88
554.734	6.78
555.077	6.88
555.42	6.89
555.764	6.83
556.107	6.78
556.45	6.87
556.793	7.04
557.135	7.13
557.478	6.93
557.821	7.06
558.164	7.11
558.507	7.02
558.849	7.29
559.192	7.1
559.534	7.09
559.877	7.24
560.219	7.27
560.562	7.2
560.904	7.06
561.246	7.3
561.589	7.48
561.931	7.26
562.273	7.29
562.615	7.32
562.957	7.2
563.299	7.19
563.641	7.25
563.983	7.37
564.325	7.26
564.667	7.31
565.008	7.25
565.35	7.44
565.692	7.32
566.033	7.22
566.375	7.33
566.716	7.53
567.058	7.38
567.399	7.38
567.741	7.27
568.082	7.31
568.423	7.48
568.764	7.43
569.105	7.43
569.447	7.49
569.788	7.37
570.129	7.73
570.47	7.42
570.811	7.34
571.151	7.64
571.492	7.65
571.833	7.75
572.174	7.58
572.514	7.76
572.855	7.79
573.195	7.63
573.536	7.62
573.876	7.59
574.217	7.55
574.557	7.65
574.898	7.71
575.238	7.94
575.578	7.66
575.918	7.76
576.258	7.77
576.598	7.95
576.938	7.94
577.278	7.86
577.618	7.97
577.958	7.91
578.298	8.04
578.638	7.88
578.977	8.21
579.317	8.03
579.657	7.95
579.996	8.19
580.336	8.22
580.675	8.46
581.014	8.16
581.354	8.3
581.693	8.27
582.032	8.27
582.372	8.46
582.711	8.2
583.05	8.26
583.389	8.33
583.728	8.4
584.067	8.41
584.406	8.32
584.745	8.49
585.083	8.3
585.422	8.22
585.761	8.51
586.1	8.54
586.438	8.71
586.777	8.48
587.115	8.34
587.454	8.72
587.792	8.63
588.13	8.67
588.469	9
588.807	8.43
589.145	8.59
589.483	8.54
589.821	8.75
590.159	8.72
590.497	8.77
590.835	8.67
591.173	8.88
591.511	8.72
591.849	8.77
592.187	8.71
592.524	9.02
592.862	8.91
593.2	9.02
593.537	8.8
593.875	9.03
594.212	8.9
594.55	9.02
594.887	9.01
595.224	9.13
595.561	9.06
595.899	9.33
596.236	9.04
596.573	9.34
596.91	9.16
597.247	9.04
597.584	9.05
597.921	9.16
598.258	9.09
598.594	9.18
598.931	9.22
599.268	9.3
599.604	9.14
599.941	9.25
600.277	9.17
600.614	9.23
600.95	9.44
601.287	9.25
601.623	9.37
601.959	9.4
602.296	9.34
602.632	9.23
602.968	9.57
603.304	9.46
603.64	9.75
603.976	9.51
604.312	9.54
604.648	9.57
604.984	9.31
605.319	9.68
605.655	9.53
605.991	9.43
606.326	9.64
606.662	9.8
606.998	9.78
607.333	9.48
607.668	9.58
608.004	9.7
608.339	9.71
608.674	9.97
609.01	10
609.345	9.79
609.68	9.74
610.015	9.91
610.35	10.05
610.685	9.9
611.02	10.07
611.355	10.13
611.689	9.98
612.024	10.06
612.359	10.01
612.694	9.91
613.028	10.03
613.363	10.29
613.697	10.47
614.032	10.37
614.366	10.17
614.7	9.96
615.035	10.2
615.369	10.28
615.703	10.38
616.037	10.68
616.371	10.29
616.705	10.65
617.039	10.42
617.373	10.55
617.707	10.46
618.041	10.41
618.375	10.69
618.709	10.3
619.042	10.59
619.376	10.32
619.71	10.8
620.043	10.66
620.377	11.11
620.71	10.52
621.043	10.82
621.377	10.66
621.71	10.72
622.043	10.49
622.376	10.87
622.709	11.16
623.043	11.09
623.376	10.88
623.709	11.11
624.041	10.92
624.374	11.3
624.707	10.83
625.04	11.09
625.373	11.37
625.705	11.32
626.038	11.25
626.37	11.16
626.703	11.09
627.035	11.12
627.368	11.31
627.7	11.23
628.032	11.36
628.365	11.28
628.697	11.33
629.029	11.34
629.361	11.54
629.693	11.5
630.025	11.37
630.357	11.73
630.689	11.46
631.021	11.47
631.353	11.5
631.684	11.57
632.016	11.21
632.348	11.51
632.679	11.23
633.011	12.08
633.342	11.69
633.674	11.3
634.005	11.65
634.336	11.86
634.668	11.99
634.999	11.86
635.33	12.03
635.661	11.54
635.992	12.31
636.323	12.06
636.654	11.58
636.985	11.82
637.316	11.96
637.647	11.76
637.977	12.35
638.308	12.28
638.639	12.23
638.969	12.19
639.3	12.24
639.63	12.23
639.961	12.19
640.291	11.94
640.622	12.55
640.952	12.11
641.282	12.63
641.612	12.68
641.943	12.26
642.273	12.29
642.603	12.39
642.933	12.57
643.263	12.52
643.592	12.65
643.922	12.45
644.252	12.56
644.582	12.48
644.911	12.52
645.241	12.98
645.571	12.73
645.9	12.8
646.23	12.94
646.559	12.38
646.888	12.83
647.218	12.53
647.547	12.96
647.876	12.5
648.205	12.68
648.534	12.36
648.863	13.14
649.192	12.99
649.521	12.88
649.85	13.01
650.179	12.93
650.508	13.19
650.837	13.2
651.165	12.74
651.494	13.08
651.822	13.4
652.151	13.35
652.479	13.24
652.808	13.12
653.136	12.49
653.465	13.04
653.793	13.36
654.121	13.65
654.449	13.32
654.777	12.65
655.105	13.47
655.433	13.5
655.761	13.46
656.089	13.54
656.417	13.68
656.745	13.99
657.073	13.61
657.4	13.62
657.728	13.41
658.056	13.65
658.383	13.56
658.711	13.67
659.038	13.28
659.365	13.49
659.693	13.87
660.02	13.66
660.347	13.48
660.674	13.83
661.001	13.75
661.329	13.99
661.656	13.69
661.982	14.03
662.309	13.94
662.636	14.18
662.963	13.54
663.29	13.73
663.616	14.19
663.943	14.23
664.27	14.3
664.596	14.25
664.923	14.25
665.249	14.53
665.576	14.58
665.902	14.32
666.228	15
666.554	13.99
666.881	14.52
667.207	14.8
667.533	14.9
667.859	14.19
668.185	14.84
668.511	15.04
668.837	14.57
669.162	14.99
669.488	14.83
669.814	14.87
670.139	14.71
670.465	14.32
670.791	14.85
671.116	15.39
671.442	14.71
671.767	15.04
672.092	15.17
672.418	15.07
672.743	14.31
673.068	14.66
673.393	14.72
673.718	15.09
674.043	15.49
674.368	15.06
674.693	14.92
675.018	15.45
675.343	14.96
675.667	14.98
675.992	14.87
676.317	15.52
676.641	15.81
676.966	15.43
677.29	15.1
677.615	15.6
677.939	15.14
678.264	15.45
678.588	15.74
678.912	15.45
679.236	15.45
679.56	15.02
679.885	15.65
680.209	15.58
680.532	15.89
680.856	15.34
681.18	15.09
681.504	14.91
681.828	15.37
682.152	15.82
682.475	15.32
682.799	16.18
683.122	15.84
683.446	15.21
683.769	15.99
684.093	15.83
684.416	16.11
684.739	15.83
685.062	15.82
685.386	15.33
685.709	15.91
686.032	16.29
686.355	16.16
686.678	15.8
687.001	16.31
