Data from 0033_chest_Reflection__2__169.txt Node

Date: Thu Oct 20 22:15:38 CDT 2022
User: ToomeyLab
Spectrometer: FLMS14357
Trigger mode: 0
Integration Time (sec): 1.000000E-2
Scans to average: 100
Electric dark correction enabled: true
Nonlinearity correction enabled: false
Boxcar width: 0
XAxis mode: Wavelengths
Number of Pixels in Spectrum: 2048
>>>>>Begin Spectral Data<<<<<
189.047	1088.57
189.435	1088.57
189.823	1088.57
190.211	7.9
190.599	44.59
190.987	10.65
191.375	-1212.05
191.763	506.42
192.151	118.77
192.538	-495.11
192.926	218.61
193.314	68.86
193.702	-1614.87
194.089	85.43
194.477	-32.12
194.864	173.62
195.252	68.08
195.639	-288.26
196.027	12.66
196.414	111.9
196.801	77.77
197.189	-2.17
197.576	720.9
197.963	194.4
198.351	12.1
198.738	-143.06
199.125	27.38
199.512	-11.33
199.899	-25.01
200.286	0.48
200.673	1.27
201.06	16.15
201.447	18.57
201.833	-3.38
202.22	6.31
202.607	56.73
202.994	26.91
203.38	-26.96
203.767	21.13
204.154	-26.03
204.54	13.03
204.927	-4.1
205.313	9.04
205.699	9.4
206.086	-16.29
206.472	-18.68
206.858	13.21
207.245	5
207.631	8.43
208.017	-24.88
208.403	-108.47
208.789	28.75
209.175	17.32
209.561	10.97
209.947	-4.66
210.333	29.72
210.719	6.58
211.105	27.5
211.491	-66.29
211.876	-17.62
212.262	-9.23
212.648	-24.08
213.034	18.77
213.419	19.76
213.805	1.57
214.19	17.45
214.576	-20.88
214.961	-26.84
215.346	-4.12
215.732	-5.75
216.117	-17.96
216.502	20.14
216.888	-7.19
217.273	-39.2
217.658	19.92
218.043	13.52
218.428	9.82
218.813	3.07
219.198	-7.73
219.583	8.76
219.968	36.59
220.353	2.55
220.738	1.73
221.122	-5.04
221.507	-8.17
221.892	-0.3
222.276	-7.44
222.661	7.1
223.046	13.3
223.43	0.27
223.815	4.91
224.199	3.17
224.583	-6.69
224.968	-10.58
225.352	8.58
225.736	4.33
226.121	3.71
226.505	-2.72
226.889	3.94
227.273	-4.17
227.657	4.01
228.041	-1.37
228.425	3
228.809	4.58
229.193	2.59
229.577	0.63
229.961	1.44
230.344	1.53
230.728	2.19
231.112	2
231.495	1.4
231.879	2.95
232.263	2.62
232.646	1.93
233.03	1.72
233.413	-0.72
233.797	1.58
234.18	1.47
234.563	0.42
234.946	1.84
235.33	1.4
235.713	2.45
236.096	0.55
236.479	1.89
236.862	0.12
237.245	1.66
237.628	1.49
238.011	2.73
238.394	2.22
238.777	0.82
239.16	0.42
239.543	0.61
239.925	0.63
240.308	0.5
240.691	4.65
241.073	1.67
241.456	1.91
241.838	0.79
242.221	1.1
242.603	1.54
242.986	1.85
243.368	1.55
243.75	1.8
244.133	1.91
244.515	1.83
244.897	1.41
245.279	0.56
245.661	2.01
246.043	2.08
246.425	2
246.807	2.04
247.189	1.76
247.571	1.72
247.953	1.43
248.335	1.77
248.717	1.34
249.098	1.66
249.48	1.44
249.862	1.37
250.243	1.55
250.625	1.78
251.006	2.13
251.388	1.89
251.769	1.03
252.151	2.12
252.532	0.64
252.913	0.89
253.295	1.95
253.676	2.08
254.057	1.12
254.438	1.57
254.819	1.89
255.2	2.45
255.581	1.51
255.962	2.01
256.343	0.56
256.724	1.64
257.105	2.01
257.486	1.16
257.867	2.18
258.247	2.37
258.628	1.6
259.009	1.47
259.389	1.62
259.77	1.68
260.15	1.55
260.531	1.76
260.911	1.35
261.292	1.77
261.672	1.54
262.052	1.34
262.432	1.61
262.813	1.71
263.193	2.09
263.573	1.51
263.953	1.38
264.333	1.72
264.713	1.45
265.093	1.17
265.473	1.54
265.853	2.01
266.233	1.56
266.612	2.55
266.992	0.84
267.372	2.4
267.752	1.66
268.131	1.84
268.511	1.89
268.89	1.26
269.27	1.42
269.649	1
270.029	0.98
270.408	0.92
270.787	1.42
271.167	1.42
271.546	0.99
271.925	1.88
272.304	1.19
272.683	1.52
273.062	1.26
273.441	1.56
273.82	1.45
274.199	1.28
274.578	0.81
274.957	1.32
275.336	1.53
275.715	1.72
276.093	1.71
276.472	1.71
276.851	1.95
277.229	0.98
277.608	1.22
277.986	1.71
278.365	1.39
278.743	1.23
279.122	1.68
279.5	1.17
279.878	1.65
280.257	1.06
280.635	1.43
281.013	1.9
281.391	1.99
281.769	1.59
282.147	1.15
282.525	0.73
282.903	1.28
283.281	0.87
283.659	0.73
284.037	1.07
284.415	2.01
284.792	1.42
285.17	1.76
285.548	1.15
285.925	1
286.303	1.48
286.68	1.52
287.058	1.48
287.435	1.11
287.813	1.33
288.19	1.39
288.567	1.15
288.945	1.26
289.322	1.34
289.699	1.08
290.076	1.55
290.453	1.06
290.83	1.53
291.207	1.48
291.584	1.5
291.961	1.33
292.338	1.02
292.715	1.25
293.092	1.66
293.469	1.56
293.845	1.57
294.222	1.8
294.599	2.17
294.975	1.11
295.352	1.63
295.728	1.33
296.105	1.86
296.481	1.22
296.858	1.29
297.234	1.51
297.61	1.52
297.986	1.33
298.363	1.4
298.739	1.52
299.115	1.33
299.491	1.35
299.867	1.4
300.243	1.05
300.619	1.34
300.995	1.19
301.371	1.66
301.746	1.11
302.122	1.68
302.498	1.7
302.874	1.9
303.249	1.86
303.625	1.75
304	1.96
304.376	1.24
304.751	1.66
305.127	1
305.502	1.81
305.878	1.84
306.253	1.03
306.628	1.36
307.003	1.23
307.378	1.17
307.754	1.79
308.129	1.58
308.504	1.58
308.879	1.16
309.254	1.18
309.629	1.53
310.003	1.16
310.378	1.4
310.753	1.38
311.128	1.2
311.502	1.44
311.877	1.5
312.252	1.45
312.626	1.66
313.001	1.52
313.375	1.62
313.75	1.13
314.124	1.33
314.498	1.19
314.873	1.46
315.247	1.27
315.621	1.4
315.995	1.4
316.369	1.79
316.743	1.1
317.117	1.35
317.491	2.01
317.865	1.76
318.239	1.36
318.613	2.15
318.987	1.44
319.361	1.88
319.734	1.3
320.108	1.61
320.482	1.7
320.855	1.84
321.229	1.85
321.602	0.79
321.976	1.86
322.349	1.11
322.723	1.99
323.096	2.04
323.469	1.21
323.843	1.57
324.216	1.5
324.589	1.83
324.962	1.52
325.335	1.71
325.708	1.51
326.081	1.52
326.454	1.26
326.827	1.34
327.2	1.72
327.573	1.72
327.945	1.78
328.318	1.29
328.691	2.1
329.063	1.55
329.436	1.53
329.809	1.66
330.181	1.69
330.553	1.05
330.926	1.53
331.298	1.24
331.671	1.86
332.043	1.6
332.415	1.57
332.787	1.63
333.159	1.86
333.532	1.54
333.904	1.61
334.276	1.46
334.648	1.79
335.02	1.71
335.391	1.67
335.763	1.34
336.135	1.61
336.507	1.04
336.879	2.05
337.25	0.88
337.622	1.76
337.993	1.43
338.365	1.38
338.736	1.24
339.108	1.49
339.479	1.47
339.851	1.48
340.222	1.25
340.593	1.45
340.964	1.83
341.336	1.53
341.707	1.4
342.078	1.45
342.449	1.56
342.82	1.4
343.191	1.47
343.562	1.48
343.933	1.66
344.303	1.61
344.674	1.85
345.045	1.81
345.416	1.59
345.786	1.6
346.157	1.35
346.527	1.31
346.898	1.53
347.268	1.49
347.639	1.59
348.009	1.78
348.38	2
348.75	1.21
349.12	1.56
349.49	1.46
349.861	1.29
350.231	1.67
350.601	2
350.971	1.41
351.341	1.66
351.711	1.7
352.081	1.55
352.45	1.9
352.82	1.38
353.19	1.49
353.56	1.53
353.929	1.68
354.299	1.57
354.669	1.78
355.038	1.85
355.408	1.51
355.777	1.66
356.147	1.93
356.516	1.61
356.885	1.68
357.254	1.68
357.624	1.65
357.993	1.46
358.362	1.72
358.731	1.69
359.1	1.31
359.469	1.44
359.838	1.24
360.207	2.25
360.576	1.45
360.945	1.86
361.314	1.9
361.682	1.67
362.051	1.29
362.42	1.52
362.788	1.58
363.157	1.44
363.525	1.54
363.894	1.65
364.262	1.88
364.631	1.47
364.999	1.46
365.367	1.9
365.735	1.64
366.104	1.37
366.472	1.46
366.84	2.03
367.208	1.52
367.576	1.7
367.944	1.74
368.312	1.53
368.68	1.55
369.048	1.33
369.416	1.61
369.783	1.84
370.151	2.14
370.519	1.68
370.886	1.61
371.254	1.82
371.621	1.43
371.989	1.78
372.356	1.64
372.724	2.16
373.091	1.59
373.458	1.5
373.826	1.2
374.193	1.71
374.56	1.65
374.927	1.53
375.294	1.63
375.661	1.9
376.028	1.88
376.395	1.9
376.762	1.43
377.129	1.68
377.496	1.35
377.863	1.71
378.229	1.36
378.596	1.59
378.963	1.79
379.329	1.85
379.696	1.46
380.062	1.46
380.429	2.04
380.795	1.62
381.161	1.82
381.528	1.69
381.894	1.67
382.26	1.52
382.626	1.68
382.993	1.65
383.359	1.49
383.725	1.82
384.091	1.79
384.457	1.64
384.823	1.52
385.188	1.92
385.554	1.23
385.92	1.7
386.286	1.61
386.651	1.53
387.017	1.62
387.383	1.69
387.748	1.83
388.114	1.87
388.479	1.6
388.845	1.94
389.21	1.57
389.575	1.54
389.94	1.86
390.306	1.9
390.671	1.7
391.036	1.76
391.401	1.67
391.766	1.81
392.131	1.66
392.496	1.37
392.861	1.58
393.226	1.64
393.591	1.85
393.956	1.82
394.32	1.8
394.685	1.97
395.05	1.5
395.414	1.72
395.779	1.73
396.143	1.92
396.508	1.56
396.872	1.8
397.236	1.58
397.601	2.09
397.965	1.72
398.329	1.58
398.694	1.79
399.058	1.53
399.422	1.83
399.786	1.85
400.15	1.87
400.514	2.09
400.878	1.83
401.242	1.91
401.605	1.81
401.969	1.65
402.333	1.7
402.697	2
403.06	1.63
403.424	1.67
403.787	1.86
404.151	1.66
404.514	1.64
404.878	1.55
405.241	1.67
405.604	1.79
405.968	1.78
406.331	1.88
406.694	1.68
407.057	1.98
407.42	1.82
407.783	1.64
408.146	1.95
408.509	1.7
408.872	1.86
409.235	1.64
409.598	1.86
409.961	1.74
410.323	2.09
410.686	1.89
411.049	1.57
411.411	1.77
411.774	1.64
412.136	1.78
412.499	1.89
412.861	1.71
413.223	1.83
413.586	1.87
413.948	1.55
414.31	1.7
414.672	1.86
415.035	1.74
415.397	1.89
415.759	1.79
416.121	1.88
416.483	1.78
416.845	1.98
417.206	1.79
417.568	1.77
417.93	1.68
418.292	1.88
418.653	1.71
419.015	1.81
419.377	1.87
419.738	1.81
420.1	1.7
420.461	1.82
420.822	1.77
421.184	1.73
421.545	1.76
421.906	1.72
422.267	1.74
422.629	1.67
422.99	1.68
423.351	1.73
423.712	1.78
424.073	1.86
424.434	1.68
424.795	1.71
425.155	1.71
425.516	1.67
425.877	1.76
426.238	1.74
426.598	1.86
426.959	1.74
427.32	1.85
427.68	1.82
428.041	1.77
428.401	1.61
428.761	1.9
429.122	1.73
429.482	1.71
429.842	1.85
430.202	1.78
430.563	1.86
430.923	1.9
431.283	1.88
431.643	1.87
432.003	1.75
432.363	2
432.722	2.18
433.082	1.7
433.442	1.8
433.802	1.85
434.161	1.93
434.521	1.74
434.881	1.82
435.24	1.8
435.6	1.78
435.959	1.89
436.319	1.84
436.678	1.71
437.037	1.9
437.396	1.92
437.756	1.8
438.115	1.98
438.474	1.64
438.833	1.84
439.192	1.85
439.551	1.8
439.91	1.89
440.269	1.83
440.628	1.77
440.987	1.71
441.345	1.98
441.704	1.85
442.063	1.86
442.421	1.71
442.78	1.89
443.138	1.85
443.497	1.82
443.855	1.87
444.214	1.81
444.572	1.93
444.93	1.68
445.288	1.75
445.647	1.93
446.005	1.69
446.363	1.93
446.721	1.8
447.079	1.88
447.437	1.76
447.795	1.75
448.153	1.69
448.51	1.8
448.868	1.81
449.226	1.84
449.584	1.81
449.941	1.95
450.299	1.88
450.656	1.79
451.014	1.9
451.371	1.98
451.729	1.84
452.086	2.06
452.443	1.79
452.801	2
453.158	1.88
453.515	1.93
453.872	1.88
454.229	1.87
454.586	1.9
454.943	1.84
455.3	1.91
455.657	1.86
456.014	1.83
456.371	1.89
456.727	1.84
457.084	1.82
457.441	1.97
457.797	1.97
458.154	1.91
458.51	1.68
458.867	1.9
459.223	2.05
459.58	1.93
459.936	1.9
460.292	1.95
460.648	1.86
461.005	1.8
461.361	1.78
461.717	1.93
462.073	2.07
462.429	1.94
462.785	2.04
463.141	2.11
463.496	2.02
463.852	1.85
464.208	2.07
464.564	2.02
464.919	2.04
465.275	1.93
465.631	1.79
465.986	1.92
466.342	1.92
466.697	1.91
467.052	1.87
467.408	2
467.763	1.95
468.118	2.11
468.473	2.13
468.829	1.94
469.184	1.93
469.539	1.86
469.894	1.93
470.249	2.09
470.603	1.97
470.958	2.02
471.313	2
471.668	1.78
472.023	2.02
472.377	1.86
472.732	1.98
473.086	2.04
473.441	1.95
473.795	1.96
474.15	1.91
474.504	1.75
474.859	2.07
475.213	2.02
475.567	2.15
475.921	1.7
476.275	2.11
476.63	2.2
476.984	2.09
477.338	1.92
477.692	2.07
478.045	2.02
478.399	2.08
478.753	1.8
479.107	1.95
479.461	1.99
479.814	2.05
480.168	2.06
480.521	1.94
480.875	2.09
481.228	1.91
481.582	1.93
481.935	1.98
482.289	1.86
482.642	1.93
482.995	2.04
483.348	2
483.701	1.91
484.055	1.89
484.408	1.87
484.761	1.84
485.114	1.77
485.466	1.76
485.819	1.8
486.172	1.88
486.525	1.91
486.878	1.99
487.23	1.92
487.583	1.91
487.936	1.93
488.288	1.88
488.641	1.85
488.993	1.84
489.345	1.86
489.698	1.89
490.05	1.92
490.402	2.04
490.754	1.99
491.107	1.98
491.459	2.03
491.811	1.9
492.163	1.89
492.515	1.9
492.866	1.84
493.218	1.84
493.57	1.9
493.922	1.96
494.274	2.02
494.625	1.99
494.977	2.14
495.328	2.08
495.68	2.03
496.031	2.05
496.383	2.07
496.734	2.03
497.086	2.03
497.437	2.1
497.788	2.06
498.139	1.96
498.49	2.07
498.842	2.02
499.193	2.1
499.544	2
499.894	2.12
500.245	1.99
500.596	2.11
500.947	2.01
501.298	2.04
501.648	1.95
501.999	2.15
502.35	2.23
502.7	2.1
503.051	2.11
503.401	2.15
503.752	2.11
504.102	1.99
504.452	2.18
504.803	1.97
505.153	2.01
505.503	2.27
505.853	2.11
506.203	2.16
506.553	2.19
506.903	2.14
507.253	2.22
507.603	2.1
507.953	2.12
508.303	2.2
508.652	2.08
509.002	2.05
509.352	2.14
509.701	2.13
510.051	2.06
510.4	2.07
510.75	2.03
511.099	2.08
511.449	2.12
511.798	2.19
512.147	2.2
512.496	2.25
512.846	2.19
513.195	2.21
513.544	2.13
513.893	2.19
514.242	2.14
514.591	2.27
514.939	2.22
515.288	2.22
515.637	2.24
515.986	2.27
516.334	2.19
516.683	2.22
517.032	2.19
517.38	2.23
517.729	2.23
518.077	2.18
518.426	2.17
518.774	2.18
519.122	2.17
519.47	2.17
519.819	2.14
520.167	2.12
520.515	2.14
520.863	2.13
521.211	2.21
521.559	2.21
521.907	2.21
522.255	2.3
522.602	2.27
522.95	2.28
523.298	2.22
523.645	2.29
523.993	2.13
524.341	2.35
524.688	2.15
525.036	2.28
525.383	2.25
525.73	2.16
526.078	2.3
526.425	2.29
526.772	2.26
527.119	2.18
527.466	2.27
527.814	2.24
528.161	2.26
528.508	2.27
528.854	2.28
529.201	2.26
529.548	2.25
529.895	2.1
530.242	2.14
530.588	2.19
530.935	2.2
531.282	2.2
531.628	2.31
531.975	2.39
532.321	2.35
532.667	2.29
533.014	2.35
533.36	2.28
533.706	2.3
534.052	2.28
534.399	2.35
534.745	2.23
535.091	2.27
535.437	2.38
535.783	2.24
536.129	2.38
536.474	2.48
536.82	2.33
537.166	2.43
537.512	2.46
537.857	2.32
538.203	2.37
538.549	2.4
538.894	2.44
539.239	2.46
539.585	2.56
539.93	2.48
540.276	2.68
540.621	2.39
540.966	2.42
541.311	2.45
541.656	2.51
542.001	2.4
542.346	2.33
542.691	2.28
543.036	2.29
543.381	2.42
543.726	2.42
544.071	2.48
544.415	2.51
544.76	2.41
545.105	2.54
545.449	2.51
545.794	2.52
546.138	2.61
546.483	2.63
546.827	2.58
547.171	2.54
547.516	2.5
547.86	2.51
548.204	2.59
548.548	2.54
548.892	2.57
549.236	2.59
549.58	2.65
549.924	2.59
550.268	2.73
550.612	2.75
550.956	2.58
551.3	2.72
551.643	2.66
551.987	2.67
552.33	2.68
552.674	2.65
553.017	2.81
553.361	2.85
553.704	2.73
554.048	2.84
554.391	2.66
554.734	2.68
555.077	2.57
555.42	2.71
555.764	2.64
556.107	2.6
556.45	2.82
556.793	2.71
557.135	2.87
557.478	2.94
557.821	2.79
558.164	2.83
558.507	2.82
558.849	2.99
559.192	2.82
559.534	2.94
559.877	3
560.219	3.04
560.562	2.86
560.904	2.92
561.246	2.96
561.589	3.03
561.931	2.83
562.273	2.8
562.615	3.07
562.957	2.86
563.299	2.93
563.641	2.94
563.983	3.03
564.325	2.97
564.667	3.04
565.008	3.01
565.35	3.02
565.692	3.11
566.033	2.85
566.375	2.96
566.716	3.12
567.058	2.91
567.399	3.04
567.741	3.03
568.082	3.11
568.423	3.19
568.764	2.94
569.105	3.17
569.447	3.19
569.788	3.31
570.129	3.07
570.47	3.21
570.811	3.04
571.151	3.14
571.492	3.14
571.833	3.18
572.174	3.28
572.514	3.31
572.855	3.28
573.195	3.24
573.536	3.22
573.876	3.04
574.217	3.3
574.557	3.21
574.898	3.15
575.238	3.55
575.578	3.32
575.918	3.42
576.258	3.38
576.598	3.38
576.938	3.36
577.278	3.4
577.618	3.39
577.958	3.35
578.298	3.56
578.638	3.33
578.977	3.67
579.317	3.44
579.657	3.39
579.996	3.57
580.336	3.59
580.675	3.92
581.014	3.6
581.354	3.56
581.693	3.58
582.032	3.65
582.372	3.61
582.711	3.27
583.05	3.63
583.389	3.7
583.728	3.74
584.067	3.83
584.406	3.64
584.745	3.72
585.083	3.51
585.422	4
585.761	3.83
586.1	3.57
586.438	3.95
586.777	3.8
587.115	3.61
587.454	3.93
587.792	3.72
588.13	4.02
588.469	4.03
588.807	3.55
589.145	3.93
589.483	4
589.821	3.64
590.159	3.79
590.497	3.66
590.835	3.68
591.173	3.84
591.511	3.9
591.849	3.97
592.187	3.68
592.524	3.88
592.862	3.93
593.2	4.02
593.537	4.11
593.875	4.03
594.212	4.14
594.55	4.02
594.887	3.81
595.224	4.22
595.561	4.14
595.899	4.35
596.236	4.21
596.573	4.28
596.91	4.04
597.247	4.15
597.584	4.07
597.921	4.03
598.258	3.96
598.594	4.06
598.931	4.12
599.268	4.11
599.604	4.14
599.941	4.34
600.277	4.23
600.614	4.14
600.95	4.58
601.287	4.38
601.623	4.06
601.959	4.32
602.296	4.34
602.632	4.2
602.968	4.71
603.304	4.24
603.64	4.72
603.976	4.3
604.312	4.43
604.648	4.39
604.984	4.34
605.319	4.37
605.655	4.47
605.991	4.09
606.326	4.54
606.662	4.47
606.998	4.63
607.333	4.49
607.668	4.49
608.004	4.37
608.339	4.72
608.674	4.55
609.01	4.53
609.345	4.64
609.68	4.65
610.015	4.75
610.35	4.62
610.685	4.62
611.02	4.53
611.355	4.58
611.689	4.79
612.024	4.54
612.359	4.62
612.694	4.74
613.028	4.71
613.363	4.63
613.697	4.83
614.032	5.16
614.366	5.04
614.7	4.76
615.035	4.76
615.369	4.71
615.703	4.95
616.037	4.92
616.371	4.73
616.705	4.63
617.039	4.98
617.373	4.98
617.707	5.18
618.041	4.91
618.375	4.63
618.709	5.1
619.042	5.05
619.376	4.98
619.71	5.16
620.043	5.09
620.377	5.16
620.71	5.21
621.043	5.14
621.377	4.91
621.71	5.13
622.043	5.18
622.376	5.62
622.709	5.55
623.043	5.48
623.376	5.26
623.709	5.3
624.041	5.07
624.374	5.42
624.707	5.37
625.04	5.58
625.373	5.73
625.705	5.25
626.038	5.8
626.37	5.34
626.703	5.41
627.035	5.38
627.368	5.4
627.7	5.34
628.032	5.6
628.365	5.28
628.697	5.56
629.029	5.61
629.361	5.62
629.693	5.98
630.025	5.76
630.357	5.6
630.689	5.73
631.021	5.46
631.353	5.97
631.684	5.62
632.016	5.45
632.348	6.12
632.679	5.46
633.011	6.18
633.342	6.16
633.674	5.56
634.005	5.85
634.336	5.75
634.668	5.54
634.999	5.65
635.33	5.76
635.661	5.75
635.992	5.87
636.323	6.08
636.654	5.91
636.985	5.96
637.316	5.65
637.647	6.15
637.977	6.17
638.308	5.46
638.639	6.14
638.969	5.88
639.3	5.98
639.63	6.25
639.961	5.87
640.291	5.76
640.622	6.34
640.952	6.37
641.282	6.37
641.612	6.75
641.943	6.18
642.273	6.11
642.603	6.28
642.933	6.3
643.263	6.32
643.592	6.2
643.922	6.55
644.252	6.33
644.582	6.08
644.911	7.1
645.241	6.35
645.571	6.29
645.9	6.84
646.23	6.3
646.559	6.61
646.888	6.49
647.218	6.09
647.547	6.13
647.876	6.3
648.205	6.29
648.534	6.25
648.863	6.6
649.192	6.99
649.521	6.5
649.85	6.71
650.179	6.47
650.508	6.76
650.837	6.42
651.165	6.7
651.494	6.66
651.822	6.74
652.151	6.76
652.479	6.63
652.808	6.19
653.136	6.41
653.465	7.2
653.793	7.03
654.121	7.21
654.449	6.79
654.777	6.92
655.105	7.16
655.433	6.98
655.761	7.04
656.089	6.55
656.417	6.91
656.745	7.23
657.073	6.85
657.4	6.77
657.728	7.06
658.056	6.82
658.383	7.65
658.711	7.6
659.038	7.35
659.365	6.78
659.693	7.32
660.02	7.29
660.347	7.29
660.674	7.29
661.001	6.65
661.329	7.13
661.656	6.9
661.982	7.38
662.309	7.31
662.636	7.42
662.963	6.69
663.29	7.17
663.616	7.58
663.943	7.86
664.27	7.62
664.596	7.5
664.923	7.26
665.249	7.5
665.576	7.87
665.902	7.64
666.228	7.46
666.554	7.13
666.881	7.66
667.207	7.82
667.533	7.59
667.859	7.27
668.185	8.13
668.511	7.77
668.837	7.22
669.162	7.22
669.488	7.16
669.814	7.75
670.139	8.03
670.465	7.55
670.791	8.03
671.116	7.47
671.442	7.82
671.767	7.75
672.092	7.67
672.418	8.07
672.743	6.97
673.068	7.5
673.393	7.83
673.718	7.91
674.043	7.46
674.368	7.92
674.693	8.36
675.018	7.56
675.343	7.88
675.667	7.51
675.992	7.79
676.317	8.43
676.641	8.24
676.966	7.9
677.29	8.31
677.615	8.36
677.939	7.93
678.264	7.87
678.588	8.4
678.912	7.73
679.236	8.1
679.56	7.9
679.885	8.01
680.209	7.77
680.532	8.5
680.856	9.09
681.18	8.09
681.504	7.91
681.828	8.29
682.152	8.58
682.475	8.63
682.799	8.66
683.122	8.65
683.446	8
683.769	8.63
684.093	9.01
684.416	8.52
684.739	8.73
685.062	8.18
685.386	8.8
685.709	8.09
686.032	8.5
686.355	8.06
686.678	8.41
687.001	8.67
687.324	8.64
687.646	8.18
687.969	8.22
688.292	9
688.614	8.38
688.937	8.42
689.26	8.45
689.582	8.42
689.904	8.67
690.227	8.48
690.549	8.96
690.871	8.02
691.194	9.25
691.516	8.48
691.838	8.84
692.16	8.66
692.482	9.25
692.804	9.13
693.126	9.28
693.448	8.82
