Data from 0033_crown_Reflection__1__173.txt Node

Date: Thu Oct 20 22:17:10 CDT 2022
User: ToomeyLab
Spectrometer: FLMS14357
Trigger mode: 0
Integration Time (sec): 1.000000E-2
Scans to average: 100
Electric dark correction enabled: true
Nonlinearity correction enabled: false
Boxcar width: 0
XAxis mode: Wavelengths
Number of Pixels in Spectrum: 2048
>>>>>Begin Spectral Data<<<<<
189.047	865.22
189.435	865.22
189.823	865.22
190.211	-91.54
190.599	47.54
190.987	64.12
191.375	-803.01
191.763	3681.65
192.151	288.73
192.538	54.68
192.926	56.12
193.314	12.36
193.702	-1327.51
194.089	-39.75
194.477	55.44
194.864	-169.42
195.252	70.52
195.639	-33.44
196.027	-24.32
196.414	-16.07
196.801	16.61
197.189	1.21
197.576	344.49
197.963	244.53
198.351	-19.64
198.738	-71.67
199.125	-46.32
199.512	-24.53
199.899	-54.36
200.286	-10.67
200.673	-40.73
201.06	31.84
201.447	16.2
201.833	-42.78
202.22	-39.86
202.607	0.36
202.994	-92.27
203.38	-35.07
203.767	-4.84
204.154	-80.7
204.54	-32.96
204.927	-18.91
205.313	50.1
205.699	-23.95
206.086	-11.03
206.472	10.35
206.858	-12.44
207.245	-4.56
207.631	5.92
208.017	-32.43
208.403	-26.91
208.789	11.1
209.175	41.24
209.561	0.28
209.947	9.92
210.333	13.79
210.719	12.92
211.105	4.59
211.491	-51.09
211.876	1.77
212.262	2.97
212.648	8.5
213.034	-3.34
213.419	-22.75
213.805	-9.39
214.19	-24.86
214.576	-46.95
214.961	-19.02
215.346	-25.81
215.732	-1.22
216.117	-47.72
216.502	7.18
216.888	-25.86
217.273	-20.31
217.658	-5.18
218.043	30.21
218.428	-14.69
218.813	19.14
219.198	-16.89
219.583	-10.44
219.968	29.85
220.353	9.62
220.738	-3.34
221.122	9.8
221.507	0.32
221.892	-13.02
222.276	-0.29
222.661	14.8
223.046	-3.82
223.43	-5.28
223.815	8.84
224.199	-8.39
224.583	-4.52
224.968	17.98
225.352	6.06
225.736	7.68
226.121	-3.8
226.505	4.75
226.889	-1.52
227.273	-5.61
227.657	8.13
228.041	4.33
228.425	2.14
228.809	6.1
229.193	5.92
229.577	4.49
229.961	5.42
230.344	5.63
230.728	4.92
231.112	5.7
231.495	6.84
231.879	6.29
232.263	5.7
232.646	4.21
233.03	4.2
233.413	4.02
233.797	3.52
234.18	2.39
234.563	2.5
234.946	7.68
235.33	5.39
235.713	3.82
236.096	4.77
236.479	4.7
236.862	5.36
237.245	5.44
237.628	4.9
238.011	5.57
238.394	6.43
238.777	4.09
239.16	3.67
239.543	3.79
239.925	3.37
240.308	4.48
240.691	6.5
241.073	2.61
241.456	4.98
241.838	3.58
242.221	3.72
242.603	4.63
242.986	4.97
243.368	4.43
243.75	4.93
244.133	5.28
244.515	4.79
244.897	4.47
245.279	3.12
245.661	5.67
246.043	4.98
246.425	5.37
246.807	5.08
247.189	4.91
247.571	4.81
247.953	4.61
248.335	4.61
248.717	4.68
249.098	4.27
249.48	4.48
249.862	4.65
250.243	4.42
250.625	4.82
251.006	4.94
251.388	4.12
251.769	5.03
252.151	3.92
252.532	3.11
252.913	3.63
253.295	4.66
253.676	4.63
254.057	4.08
254.438	4.54
254.819	4.35
255.2	4.87
255.581	3.12
255.962	4.8
256.343	4.62
256.724	3.35
257.105	3.75
257.486	4.04
257.867	4.61
258.247	4.79
258.628	3.85
259.009	3.39
259.389	4.11
259.77	4.25
260.15	4.19
260.531	4.13
260.911	4.01
261.292	4.43
261.672	4.01
262.052	4.24
262.432	4.43
262.813	4.18
263.193	4.42
263.573	4.2
263.953	3.85
264.333	4.35
264.713	4.37
265.093	3.9
265.473	4.75
265.853	4.25
266.233	4.2
266.612	4.35
266.992	3.45
267.372	4.67
267.752	4.1
268.131	4.49
268.511	3.95
268.89	4.1
269.27	4.03
269.649	4.02
270.029	3.69
270.408	3.35
270.787	3.48
271.167	3.86
271.546	3.75
271.925	4.44
272.304	4.18
272.683	3.79
273.062	3.44
273.441	3.82
273.82	4.14
274.199	3.63
274.578	3.44
274.957	3.45
275.336	3.53
275.715	4.36
276.093	3.94
276.472	4.14
276.851	4.16
277.229	3.78
277.608	3.81
277.986	3.76
278.365	3.67
278.743	3.76
279.122	3.92
279.5	3.59
279.878	4.45
280.257	3.15
280.635	3.63
281.013	4.16
281.391	4.49
281.769	3.91
282.147	3.12
282.525	3.51
282.903	4.02
283.281	3.37
283.659	3.38
284.037	3.43
284.415	3.6
284.792	3.49
285.17	3.76
285.548	3.52
285.925	3.55
286.303	3.31
286.68	4.14
287.058	3.56
287.435	3.66
287.813	3.49
288.19	3.67
288.567	3.87
288.945	4.17
289.322	3.41
289.699	3.31
290.076	3.59
290.453	3.39
290.83	3.46
291.207	3.84
291.584	3.82
291.961	3.6
292.338	3.06
292.715	3.72
293.092	4.12
293.469	3.29
293.845	3.53
294.222	3.63
294.599	4.22
294.975	3.13
295.352	4.01
295.728	3.1
296.105	3.64
296.481	3.38
296.858	3.62
297.234	3.68
297.61	3.39
297.986	3.61
298.363	3.55
298.739	3.51
299.115	3.62
299.491	3.49
299.867	3.2
300.243	3.43
300.619	3.46
300.995	3.19
301.371	3.58
301.746	3.27
302.122	3.88
302.498	3.48
302.874	3.92
303.249	3.47
303.625	3.6
304	3.52
304.376	3.16
304.751	3.54
305.127	3.03
305.502	3.37
305.878	3.75
306.253	2.96
306.628	3.27
307.003	3.33
307.378	2.99
307.754	3.69
308.129	3.42
308.504	3.63
308.879	3.84
309.254	3.18
309.629	3.34
310.003	3.2
310.378	3.72
310.753	3.59
311.128	3.25
311.502	3.27
311.877	3.81
312.252	3.26
312.626	3.32
313.001	3.78
313.375	3.58
313.75	3.06
314.124	3.61
314.498	3.14
314.873	3.58
315.247	3.56
315.621	3.61
315.995	2.96
316.369	3.28
316.743	3.34
317.117	3.25
317.491	3.48
317.865	3.06
318.239	3.45
318.613	3.54
318.987	2.93
319.361	3.52
319.734	3.43
320.108	3.63
320.482	3.28
320.855	3.86
321.229	3.74
321.602	2.95
321.976	3.53
322.349	3.38
322.723	3.71
323.096	3.62
323.469	3.25
323.843	3.82
324.216	3.31
324.589	4.19
324.962	3.68
325.335	3.5
325.708	3.5
326.081	3.68
326.454	3.59
326.827	3.29
327.2	3.88
327.573	3.57
327.945	3.47
328.318	3.47
328.691	3.7
329.063	3.71
329.436	3.73
329.809	3.88
330.181	3.34
330.553	3.22
330.926	3.44
331.298	3.18
331.671	3.75
332.043	3.74
332.415	3.61
332.787	3.97
333.159	3.72
333.532	3.87
333.904	3.7
334.276	3.65
334.648	3.37
335.02	3.94
335.391	3.64
335.763	3.48
336.135	3.52
336.507	3.37
336.879	4.09
337.25	3.13
337.622	3.67
337.993	3.43
338.365	3.65
338.736	3.6
339.108	3.45
339.479	3.57
339.851	3.88
340.222	3.44
340.593	3.85
340.964	4.17
341.336	3.6
341.707	3.54
342.078	3.64
342.449	3.34
342.82	3.54
343.191	3.67
343.562	3.76
343.933	3.9
344.303	3.51
344.674	3.72
345.045	3.62
345.416	3.56
345.786	3.75
346.157	3.44
346.527	3.6
346.898	3.72
347.268	3.84
347.639	3.77
348.009	4.05
348.38	4
348.75	3.26
349.12	3.78
349.49	3.99
349.861	4.23
350.231	3.72
350.601	3.86
350.971	4
351.341	3.93
351.711	3.97
352.081	3.11
352.45	3.83
352.82	3.66
353.19	3.55
353.56	3.88
353.929	4
354.299	3.81
354.669	3.76
355.038	3.82
355.408	3.29
355.777	3.86
356.147	4.22
356.516	4.13
356.885	4
357.254	3.8
357.624	3.63
357.993	3.51
358.362	3.93
358.731	3.99
359.1	3.81
359.469	4.03
359.838	3.84
360.207	4.34
360.576	3.54
360.945	4.05
361.314	4.16
361.682	4.24
362.051	3.64
362.42	3.88
362.788	3.95
363.157	3.7
363.525	3.66
363.894	3.94
364.262	3.83
364.631	3.74
364.999	3.84
365.367	4.16
365.735	3.86
366.104	3.56
366.472	3.48
366.84	4.4
367.208	3.65
367.576	3.94
367.944	4.23
368.312	4.01
368.68	4.1
369.048	3.71
369.416	3.94
369.783	3.89
370.151	4.12
370.519	3.91
370.886	3.87
371.254	4.04
371.621	3.94
371.989	4.24
372.356	3.6
372.724	4.11
373.091	4.08
373.458	3.77
373.826	3.84
374.193	4.25
374.56	3.71
374.927	3.62
375.294	3.92
375.661	4.12
376.028	3.88
376.395	4.22
376.762	4.06
377.129	4.13
377.496	3.76
377.863	3.84
378.229	4.02
378.596	4.06
378.963	4.04
379.329	4.08
379.696	4.05
380.062	3.81
380.429	4.2
380.795	3.98
381.161	4.01
381.528	3.87
381.894	4.01
382.26	3.98
382.626	4.19
382.993	3.88
383.359	4.06
383.725	4.1
384.091	4.31
384.457	4.02
384.823	4.14
385.188	4.37
385.554	3.72
385.92	3.71
386.286	3.73
386.651	3.86
387.017	4.1
387.383	3.97
387.748	4.27
388.114	4.11
388.479	4.07
388.845	3.98
389.21	4.1
389.575	3.84
389.94	4.1
390.306	4.1
390.671	4.11
391.036	4.04
391.401	4.21
391.766	4.2
392.131	4.13
392.496	3.9
392.861	3.92
393.226	4.06
393.591	4.33
393.956	4.09
394.32	4.18
394.685	4.33
395.05	3.91
395.414	4.12
395.779	3.96
396.143	4.18
396.508	4.18
396.872	4.11
397.236	4.06
397.601	4.12
397.965	4.13
398.329	4.11
398.694	3.97
399.058	3.77
399.422	4.31
399.786	4.21
400.15	4.15
400.514	4.35
400.878	4.19
401.242	4.24
401.605	4.21
401.969	4.11
402.333	4.3
402.697	4.27
403.06	4.05
403.424	4.22
403.787	4.13
404.151	4.01
404.514	4.15
404.878	4
405.241	4.22
405.604	4.18
405.968	4.05
406.331	4.18
406.694	4.01
407.057	4.13
407.42	4.14
407.783	4.14
408.146	4.12
408.509	4.16
408.872	4.33
409.235	3.99
409.598	4.01
409.961	4.12
410.323	4.45
410.686	4.08
411.049	4.05
411.411	4.18
411.774	4.04
412.136	4.13
412.499	4.17
412.861	4.13
413.223	4.05
413.586	3.85
413.948	4.21
414.31	4
414.672	4.11
415.035	4.25
415.397	4.29
415.759	4.28
416.121	4.36
416.483	4.13
416.845	4.23
417.206	4.17
417.568	4.19
417.93	4.2
418.292	4.25
418.653	4.25
419.015	4.14
419.377	4.14
419.738	4.09
420.1	4.05
420.461	4.17
420.822	4.15
421.184	4.05
421.545	4.09
421.906	4.01
422.267	4.12
422.629	4
422.99	4.03
423.351	4.02
423.712	3.96
424.073	4.05
424.434	4.04
424.795	4.12
425.155	4
425.516	4.08
425.877	3.97
426.238	4.17
426.598	4.12
426.959	4.07
427.32	4.13
427.68	4.06
428.041	4.04
428.401	4.09
428.761	4.17
429.122	4.11
429.482	4.04
429.842	4.25
430.202	4.2
430.563	4.19
430.923	4.28
431.283	4.12
431.643	4.12
432.003	4.13
432.363	4.09
432.722	4.35
433.082	3.97
433.442	4.16
433.802	4.22
434.161	4.22
434.521	4.01
434.881	4.04
435.24	4.05
435.6	4.04
435.959	4.13
436.319	4.07
436.678	4.11
437.037	4.06
437.396	4.2
437.756	4.17
438.115	4.15
438.474	3.94
438.833	3.97
439.192	4.1
439.551	4.06
439.91	3.95
440.269	4.1
440.628	4.13
440.987	4.09
441.345	4.17
441.704	4.1
442.063	4.1
442.421	3.98
442.78	3.99
443.138	4.12
443.497	4.08
443.855	4.07
444.214	4.17
444.572	4.25
444.93	3.87
445.288	4.02
445.647	4.12
446.005	4.04
446.363	4.12
446.721	4.02
447.079	4.01
447.437	4
447.795	3.92
448.153	3.93
448.51	4.02
448.868	3.94
449.226	4.02
449.584	3.97
449.941	4.14
450.299	4.09
450.656	4.1
451.014	4.09
451.371	4.15
451.729	4
452.086	4.08
452.443	4.01
452.801	4.14
453.158	4.14
453.515	4.06
453.872	3.95
454.229	4.13
454.586	4.13
454.943	3.92
455.3	3.94
455.657	3.94
456.014	4.12
456.371	3.97
456.727	4.05
457.084	3.92
457.441	4.04
457.797	4.13
458.154	4.05
458.51	4.01
458.867	4.11
459.223	4.3
459.58	4.09
459.936	4.05
460.292	3.96
460.648	3.89
461.005	3.86
461.361	3.88
461.717	3.94
462.073	4.02
462.429	3.97
462.785	3.98
463.141	4.09
463.496	4.03
463.852	4.04
464.208	4.03
464.564	3.95
464.919	3.95
465.275	4.18
465.631	3.87
465.986	3.97
466.342	3.89
466.697	4.02
467.052	3.92
467.408	4.18
467.763	4.14
468.118	4.12
468.473	4.1
468.829	4.05
469.184	3.91
469.539	4.03
469.894	3.97
470.249	4.1
470.603	3.91
470.958	4.12
471.313	4
471.668	3.98
472.023	4.04
472.377	4.19
472.732	3.95
473.086	4
473.441	4.08
473.795	4.17
474.15	4.08
474.504	3.98
474.859	4.12
475.213	4.15
475.567	4.14
475.921	3.95
476.275	4.13
476.63	3.95
476.984	4.17
477.338	4.03
477.692	3.95
478.045	4.09
478.399	4.17
478.753	3.9
479.107	4.11
479.461	4.02
479.814	3.97
480.168	4.14
480.521	3.88
480.875	3.98
481.228	3.96
481.582	3.98
481.935	4.07
482.289	3.86
482.642	3.89
482.995	4.05
483.348	4.04
483.701	3.91
484.055	3.92
484.408	3.83
484.761	3.81
485.114	3.71
485.466	3.69
485.819	3.71
486.172	3.76
486.525	3.79
486.878	3.83
487.23	3.88
487.583	3.84
487.936	3.84
488.288	3.86
488.641	3.8
488.993	3.78
489.345	3.72
489.698	3.77
490.05	3.74
490.402	3.89
490.754	3.85
491.107	3.83
491.459	4.01
491.811	3.88
492.163	3.85
492.515	3.85
492.866	3.8
493.218	3.77
493.57	3.77
493.922	3.81
494.274	3.86
494.625	3.88
494.977	3.9
495.328	3.83
495.68	3.94
496.031	3.99
496.383	3.93
496.734	3.98
497.086	3.92
497.437	3.97
497.788	4
498.139	3.81
498.49	3.91
498.842	3.8
499.193	3.84
499.544	3.94
499.894	4.02
500.245	3.92
500.596	3.93
500.947	4.01
501.298	3.98
501.648	3.84
501.999	3.96
502.35	4
502.7	3.91
503.051	3.96
503.401	3.92
503.752	3.86
504.102	3.93
504.452	3.98
504.803	3.85
505.153	4
505.503	4.09
505.853	3.91
506.203	3.98
506.553	4.01
506.903	3.89
507.253	3.93
507.603	3.98
507.953	3.92
508.303	4.03
508.652	3.87
509.002	3.77
509.352	3.97
509.701	3.91
510.051	3.85
510.4	3.79
510.75	3.74
511.099	3.85
511.449	3.96
511.798	3.88
512.147	3.89
512.496	4
512.846	3.95
513.195	4.06
513.544	3.93
513.893	3.86
514.242	3.83
514.591	3.94
514.939	3.93
515.288	3.91
515.637	3.96
515.986	3.84
516.334	3.97
516.683	4.02
517.032	3.83
517.38	3.9
517.729	3.91
518.077	3.91
518.426	3.96
518.774	3.88
519.122	3.89
519.47	3.91
519.819	3.8
520.167	3.84
520.515	3.85
520.863	3.76
521.211	3.83
521.559	3.97
521.907	3.84
522.255	3.81
522.602	3.91
522.95	3.89
523.298	3.85
523.645	3.89
523.993	3.9
524.341	3.9
524.688	3.99
525.036	3.88
525.383	3.9
525.73	3.85
526.078	3.82
526.425	3.91
526.772	3.78
527.119	3.67
527.466	3.87
527.814	3.88
528.161	3.78
528.508	3.82
528.854	3.91
529.201	3.75
529.548	3.7
529.895	3.62
530.242	3.65
530.588	3.67
530.935	3.66
531.282	3.67
531.628	3.75
531.975	3.81
532.321	3.76
532.667	3.73
533.014	3.8
533.36	3.78
533.706	3.69
534.052	3.77
534.399	3.74
534.745	3.7
535.091	3.68
535.437	3.72
535.783	3.71
536.129	3.73
536.474	3.77
536.82	3.76
537.166	3.81
537.512	3.75
537.857	3.72
538.203	3.84
538.549	3.73
538.894	3.78
539.239	3.83
539.585	3.85
539.93	3.8
540.276	3.83
540.621	3.92
540.966	3.8
541.311	3.8
541.656	3.85
542.001	3.73
542.346	3.66
542.691	3.66
543.036	3.63
543.381	3.67
543.726	3.57
544.071	3.72
544.415	3.78
544.76	3.59
545.105	3.8
545.449	3.75
545.794	3.76
546.138	3.9
546.483	3.85
546.827	3.84
547.171	3.76
547.516	3.76
547.86	3.75
548.204	3.81
548.548	3.71
548.892	3.78
549.236	3.73
549.58	3.86
549.924	3.79
550.268	3.88
550.612	3.94
550.956	3.78
551.3	3.87
551.643	3.83
551.987	3.97
552.33	3.78
552.674	3.7
553.017	3.98
553.361	3.85
553.704	3.86
554.048	3.78
554.391	3.82
554.734	3.68
555.077	3.78
555.42	3.86
555.764	3.76
556.107	3.7
556.45	3.84
556.793	3.69
557.135	3.74
557.478	3.72
557.821	3.84
558.164	3.87
558.507	3.74
558.849	3.82
559.192	3.84
559.534	3.96
559.877	3.88
560.219	3.86
560.562	3.86
560.904	3.76
561.246	3.8
561.589	3.97
561.931	3.73
562.273	3.75
562.615	3.87
562.957	3.72
563.299	3.86
563.641	3.6
563.983	4.12
564.325	3.86
564.667	3.84
565.008	3.9
565.35	3.92
565.692	3.71
566.033	3.54
566.375	3.61
566.716	3.92
567.058	3.74
567.399	3.79
567.741	3.63
568.082	3.8
568.423	3.81
568.764	3.56
569.105	3.84
569.447	3.75
569.788	3.76
570.129	3.73
570.47	3.82
570.811	3.51
571.151	3.79
571.492	3.75
571.833	3.81
572.174	3.58
572.514	3.61
572.855	3.88
573.195	3.72
573.536	3.58
573.876	3.59
574.217	3.66
574.557	3.81
574.898	3.63
575.238	4.05
575.578	3.83
575.918	3.72
576.258	3.72
576.598	3.68
576.938	3.8
577.278	3.77
577.618	3.76
577.958	3.74
578.298	3.85
578.638	3.66
578.977	3.82
579.317	3.77
579.657	3.51
579.996	3.75
580.336	4.16
580.675	3.84
581.014	3.71
581.354	3.8
581.693	3.77
582.032	3.69
582.372	3.93
582.711	3.75
583.05	3.62
583.389	3.92
583.728	3.82
584.067	3.82
584.406	3.8
584.745	3.61
585.083	3.67
585.422	3.71
585.761	3.89
586.1	3.82
586.438	3.94
586.777	3.8
587.115	3.72
587.454	3.87
587.792	3.59
588.13	3.82
588.469	3.89
588.807	3.62
589.145	3.64
589.483	3.72
589.821	3.69
590.159	3.63
590.497	3.66
590.835	3.66
591.173	3.73
591.511	3.78
591.849	3.79
592.187	3.65
592.524	3.64
592.862	3.49
593.2	3.8
593.537	3.66
593.875	3.7
594.212	3.64
594.55	3.71
594.887	3.76
595.224	3.9
595.561	3.81
595.899	3.9
596.236	3.8
596.573	3.95
596.91	3.65
597.247	3.62
597.584	3.6
597.921	3.7
598.258	3.68
598.594	3.62
598.931	3.59
599.268	3.66
599.604	3.61
599.941	3.8
600.277	3.68
600.614	3.51
600.95	3.64
601.287	3.42
601.623	3.62
601.959	3.68
602.296	3.63
602.632	3.75
602.968	3.84
603.304	3.65
603.64	3.9
603.976	3.79
604.312	3.86
604.648	3.71
604.984	3.65
605.319	3.52
605.655	3.69
605.991	3.41
606.326	3.85
606.662	3.65
606.998	3.73
607.333	3.66
607.668	3.63
608.004	3.68
608.339	3.87
608.674	3.96
609.01	3.66
609.345	3.69
609.68	3.77
610.015	3.79
610.35	3.67
610.685	3.56
611.02	3.49
611.355	3.48
611.689	3.52
612.024	3.66
612.359	3.54
612.694	3.59
613.028	3.63
613.363	3.51
613.697	3.76
614.032	3.83
614.366	3.67
614.7	3.45
615.035	3.51
615.369	3.41
615.703	3.74
616.037	3.55
616.371	3.22
616.705	3.62
617.039	3.57
617.373	3.62
617.707	3.99
618.041	3.35
618.375	3.53
618.709	3.45
619.042	3.63
619.376	3.62
619.71	3.76
620.043	3.53
620.377	3.81
620.71	3.41
621.043	3.7
621.377	3.18
621.71	3.54
622.043	3.45
622.376	4.15
622.709	3.77
623.043	3.62
623.376	4.03
623.709	3.86
624.041	3.76
624.374	3.56
624.707	3.58
625.04	3.93
625.373	3.77
625.705	3.7
626.038	3.62
626.37	3.57
626.703	3.53
627.035	3.81
627.368	3.6
627.7	3.56
628.032	3.83
628.365	3.63
628.697	3.55
629.029	3.66
629.361	3.76
629.693	3.85
630.025	3.57
630.357	3.47
630.689	3.83
631.021	3.66
631.353	3.87
631.684	3.84
632.016	3.44
632.348	3.58
632.679	3.39
633.011	3.78
633.342	3.99
633.674	3.4
634.005	3.67
634.336	3.84
634.668	3.81
634.999	3.73
635.33	3.92
635.661	3.46
635.992	3.83
636.323	3.67
636.654	3.52
636.985	3.69
637.316	3.63
637.647	3.76
637.977	4.13
638.308	3.44
638.639	3.78
638.969	3.75
639.3	3.66
639.63	3.72
639.961	3.6
640.291	3.16
640.622	3.86
640.952	3.8
641.282	3.76
641.612	3.94
641.943	3.61
642.273	3.83
642.603	3.64
642.933	3.63
643.263	3.59
643.592	3.83
643.922	3.62
644.252	4.26
644.582	3.45
644.911	3.99
645.241	3.64
645.571	3.63
645.9	3.61
646.23	3.53
646.559	3.65
646.888	3.56
647.218	3.44
647.547	3.3
647.876	3.09
648.205	3.53
648.534	3.31
648.863	3.66
649.192	3.54
649.521	3.64
649.85	4.06
650.179	3.78
650.508	3.98
650.837	3.6
651.165	3.63
651.494	3.56
651.822	3.65
652.151	3.56
652.479	3.43
652.808	3.52
653.136	3.34
653.465	3.8
653.793	4.2
654.121	3.72
654.449	3.5
654.777	3.88
655.105	4.06
655.433	3.25
655.761	4.07
656.089	3.61
656.417	3.95
656.745	3.91
657.073	3.54
657.4	3.77
657.728	3.46
658.056	3.45
658.383	3.89
658.711	3.8
659.038	3.82
659.365	3.11
659.693	3.75
660.02	3.69
660.347	4.07
660.674	3.86
661.001	3.76
661.329	3.61
661.656	3.36
661.982	3.76
662.309	3.83
662.636	3.7
662.963	3.55
663.29	3.8
663.616	3.75
663.943	4.15
664.27	3.92
664.596	4.02
664.923	3.4
665.249	4.07
665.576	4.06
665.902	4.02
666.228	3.8
666.554	3.67
666.881	3.81
667.207	4
667.533	4.06
667.859	3.45
668.185	3.91
668.511	3.81
668.837	3.44
669.162	3.8
669.488	3.63
669.814	4.38
670.139	3.81
670.465	3.46
670.791	4.47
671.116	3.79
671.442	3.78
671.767	3.54
672.092	3.99
672.418	3.82
672.743	3.4
673.068	3.04
673.393	3.59
673.718	3.66
674.043	3.6
674.368	3.23
674.693	3.75
675.018	3.99
675.343	3.48
675.667	3.49
675.992	4.34
676.317	4.11
676.641	3.67
676.966	3.4
677.29	3.52
677.615	4.27
677.939	3.75
678.264	3.63
678.588	4.12
678.912	3.47
679.236	3.78
679.56	3.62
679.885	3.91
680.209	3.68
680.532	4.35
680.856	4.16
681.18	3.89
681.504	3.14
681.828	4.14
682.152	3.97
682.475	3.86
682.799	3.89
683.122	3.86
683.446	3.58
683.769	4.09
684.093	3.53
684.416	3.43
684.739	3.67
685.062	3.24
685.386	3.85
685.709	3.31
686.032	4.09
686.355	3.76
686.678	3.49
687.001	3.88
687.324	4
687.646	3.52
687.969	3.28
688.292	4.48
688.614	3.71
688.937	3.67
689.26	3.52
689.582	3.8
689.904	3.5
690.227	3.22
690.549	4.65
690.871	3.39
691.194	3.71
691.516	3.66
691.838	3.12
692.16	4.42
692.482	4.54
