Data from 0033_forehead_Reflection__4__181.txt Node

Date: Thu Oct 20 22:19:12 CDT 2022
User: ToomeyLab
Spectrometer: FLMS14357
Trigger mode: 0
Integration Time (sec): 1.000000E-2
Scans to average: 100
Electric dark correction enabled: true
Nonlinearity correction enabled: false
Boxcar width: 0
XAxis mode: Wavelengths
Number of Pixels in Spectrum: 2048
>>>>>Begin Spectral Data<<<<<
189.047	286.31
189.435	286.31
189.823	286.31
190.211	209.8
190.599	45.25
190.987	6.69
191.375	-1709.04
191.763	45.87
192.151	71.77
192.538	-160.52
192.926	-26.44
193.314	-18.26
193.702	-409.67
194.089	62.16
194.477	136.06
194.864	143.1
195.252	31.97
195.639	-96.03
196.027	26.19
196.414	111.78
196.801	-1.77
197.189	21.69
197.576	-24.72
197.963	501.36
198.351	-70.51
198.738	-129.78
199.125	-16.09
199.512	-5.02
199.899	-36.09
200.286	-8.85
200.673	2.56
201.06	36.76
201.447	11.01
201.833	-63.37
202.22	-48.93
202.607	-13.16
202.994	-35.77
203.38	-79.5
203.767	-12.15
204.154	-30.36
204.54	-31.5
204.927	-6.53
205.313	18.52
205.699	8.42
206.086	-10.7
206.472	-0.83
206.858	0.74
207.245	15.56
207.631	-50.7
208.017	-1.39
208.403	-157.28
208.789	-28.33
209.175	18.52
209.561	-26.75
209.947	-1.52
210.333	-16.16
210.719	-11.17
211.105	19.89
211.491	-5.45
211.876	-45.87
212.262	14.11
212.648	-25.04
213.034	-7.08
213.419	-58.58
213.805	3.96
214.19	-0.53
214.576	-74.46
214.961	-63.83
215.346	-13.49
215.732	-8.68
216.117	-18.76
216.502	3.36
216.888	-21.78
217.273	-41.18
217.658	-5.95
218.043	16.75
218.428	-14.42
218.813	15.09
219.198	-28.26
219.583	2.56
219.968	6.83
220.353	-1.36
220.738	7.04
221.122	-3.98
221.507	-17.26
221.892	-15.71
222.276	-10.89
222.661	-1.28
223.046	10.23
223.43	-8.42
223.815	-2.33
224.199	-5.89
224.583	-11.85
224.968	0.07
225.352	5.66
225.736	-5.42
226.121	-6.45
226.505	4.27
226.889	0.83
227.273	-4.97
227.657	1.92
228.041	-3.48
228.425	0.4
228.809	1.19
229.193	0.1
229.577	-1.36
229.961	1.24
230.344	0.89
230.728	0.93
231.112	1.26
231.495	0.09
231.879	0.65
232.263	1.8
232.646	1.1
233.03	-0.65
233.413	-3.13
233.797	-0.65
234.18	-2.35
234.563	0.47
234.946	-0.13
235.33	0.27
235.713	0.47
236.096	0.57
236.479	1.69
236.862	2
237.245	1.44
237.628	-1.16
238.011	0.89
238.394	2.15
238.777	-1.33
239.16	-1.07
239.543	-0.28
239.925	-0.89
240.308	0.64
240.691	3.13
241.073	-0.07
241.456	0.27
241.838	0.04
242.221	0.83
242.603	1.27
242.986	1.24
243.368	1.14
243.75	1.09
244.133	1.31
244.515	1.08
244.897	1
245.279	0.22
245.661	0.9
246.043	1.16
246.425	0.6
246.807	1.08
247.189	1.38
247.571	1.64
247.953	1.12
248.335	1.33
248.717	1.24
249.098	1.09
249.48	1.25
249.862	1.1
250.243	0.5
250.625	1.7
251.006	1.34
251.388	0.84
251.769	1.05
252.151	1.49
252.532	0.51
252.913	0.83
253.295	1.17
253.676	1.64
254.057	0.44
254.438	0.86
254.819	1.89
255.2	1.65
255.581	0.63
255.962	1.23
256.343	0.2
256.724	0.97
257.105	0.63
257.486	0.43
257.867	0.91
258.247	1.46
258.628	1.25
259.009	0.7
259.389	0.42
259.77	1.41
260.15	1.09
260.531	1.44
260.911	1.04
261.292	1.39
261.672	1.23
262.052	1.29
262.432	1.76
262.813	1.13
263.193	1.19
263.573	0.96
263.953	1.17
264.333	1.35
264.713	0.48
265.093	0.88
265.473	1.42
265.853	1.47
266.233	1.18
266.612	1.35
266.992	0.74
267.372	1.71
267.752	1.23
268.131	1.63
268.511	1.25
268.89	1.12
269.27	0.99
269.649	0.66
270.029	0.87
270.408	1.06
270.787	1.06
271.167	0.94
271.546	0.29
271.925	1.59
272.304	1.2
272.683	1.09
273.062	1.08
273.441	0.86
273.82	1.6
274.199	0.84
274.578	0.9
274.957	1.11
275.336	1.38
275.715	1.09
276.093	1.55
276.472	1.47
276.851	1.71
277.229	0.91
277.608	1.11
277.986	1.25
278.365	1.26
278.743	1.02
279.122	1.46
279.5	1.11
279.878	1.32
280.257	1.47
280.635	1.21
281.013	0.81
281.391	1.32
281.769	1.17
282.147	1.1
282.525	1.26
282.903	1.02
283.281	0.9
283.659	0.89
284.037	0.75
284.415	1.05
284.792	1.16
285.17	1.78
285.548	0.76
285.925	1.05
286.303	1.33
286.68	1.76
287.058	1.34
287.435	1.33
287.813	1.49
288.19	1.17
288.567	1.17
288.945	1.61
289.322	1.16
289.699	0.66
290.076	1.24
290.453	1.15
290.83	1.73
291.207	1.3
291.584	1.33
291.961	1.01
292.338	0.74
292.715	1.04
293.092	1.77
293.469	1.35
293.845	1.4
294.222	1.36
294.599	1.73
294.975	1.29
295.352	1.49
295.728	1.04
296.105	1.92
296.481	0.97
296.858	1.67
297.234	1.42
297.61	1.38
297.986	0.99
298.363	1.37
298.739	1.31
299.115	1.38
299.491	1.3
299.867	1
300.243	1.05
300.619	1.73
300.995	0.95
301.371	1.54
301.746	1.43
302.122	1.65
302.498	1.78
302.874	2.22
303.249	1.81
303.625	1
304	1.89
304.376	1.28
304.751	1.85
305.127	1.43
305.502	1.79
305.878	1.64
306.253	1.45
306.628	1.55
307.003	1.42
307.378	0.89
307.754	1.8
308.129	1.44
308.504	1.78
308.879	1.49
309.254	1.63
309.629	1.27
310.003	1.09
310.378	1.91
310.753	1.57
311.128	1.57
311.502	1.89
311.877	2.1
312.252	1.74
312.626	1.45
313.001	1.75
313.375	1.91
313.75	1.55
314.124	1.67
314.498	1.69
314.873	2.01
315.247	1.87
315.621	1.77
315.995	1.38
316.369	1.48
316.743	1.37
317.117	1.38
317.491	2.02
317.865	1.66
318.239	2
318.613	2.3
318.987	1.83
319.361	2.45
319.734	1.23
320.108	1.95
320.482	1.83
320.855	2.15
321.229	2.05
321.602	1.44
321.976	1.8
322.349	1.69
322.723	2.63
323.096	1.75
323.469	1.77
323.843	1.86
324.216	1.82
324.589	2.88
324.962	2.36
325.335	2.11
325.708	2.31
326.081	1.89
326.454	2.06
326.827	1.72
327.2	2.38
327.573	2.14
327.945	1.76
328.318	1.92
328.691	2.15
329.063	2.44
329.436	1.95
329.809	2.08
330.181	2.27
330.553	1.87
330.926	2.17
331.298	1.93
331.671	2.59
332.043	2.65
332.415	2.55
332.787	2.41
333.159	2.24
333.532	2.31
333.904	2.59
334.276	2.52
334.648	2.07
335.02	2.67
335.391	1.85
335.763	1.88
336.135	2.33
336.507	1.44
336.879	3.32
337.25	2.28
337.622	2.61
337.993	2.36
338.365	2.44
338.736	2.27
339.108	2.22
339.479	2.17
339.851	1.78
340.222	2.48
340.593	2.48
340.964	2.61
341.336	2.24
341.707	2.31
342.078	2.81
342.449	2.36
342.82	2.23
343.191	2.24
343.562	2.63
343.933	2.41
344.303	2.52
344.674	2.61
345.045	2.33
345.416	2.35
345.786	2.46
346.157	2.26
346.527	2.14
346.898	2.48
347.268	2.52
347.639	2.55
348.009	2.82
348.38	2.7
348.75	1.95
349.12	2.8
349.49	2.79
349.861	3
350.231	2.93
350.601	3.16
350.971	2.65
351.341	3.05
351.711	2.93
352.081	2.7
352.45	2.83
352.82	2.44
353.19	2.63
353.56	2.97
353.929	2.42
354.299	2.97
354.669	3.04
355.038	2.84
355.408	2.48
355.777	2.75
356.147	2.91
356.516	2.89
356.885	2.77
357.254	2.95
357.624	2.95
357.993	2.73
358.362	3.01
358.731	3.05
359.1	2.98
359.469	3.36
359.838	2.62
360.207	3.46
360.576	3.02
360.945	3.33
361.314	2.83
361.682	3.04
362.051	2.77
362.42	3.05
362.788	2.96
363.157	2.93
363.525	2.97
363.894	2.93
364.262	3.41
364.631	3.05
364.999	3.25
365.367	3.43
365.735	2.99
366.104	3.08
366.472	3.09
366.84	3.6
367.208	3.3
367.576	3.14
367.944	3.49
368.312	3.32
368.68	3.63
369.048	3.3
369.416	3.04
369.783	3.27
370.151	3.24
370.519	3.58
370.886	3.47
371.254	3.62
371.621	3.42
371.989	3.4
372.356	3.46
372.724	3.54
373.091	3.35
373.458	3.16
373.826	3.16
374.193	3.4
374.56	3.09
374.927	3.18
375.294	3.41
375.661	3.79
376.028	3.19
376.395	3.77
376.762	3.55
377.129	3.5
377.496	3.08
377.863	3.56
378.229	3.72
378.596	3.54
378.963	3.72
379.329	3.81
379.696	3.64
380.062	3.56
380.429	3.88
380.795	3.64
381.161	3.62
381.528	3.85
381.894	3.76
382.26	3.61
382.626	3.97
382.993	3.67
383.359	4.04
383.725	3.85
384.091	3.96
384.457	3.51
384.823	3.74
385.188	3.95
385.554	3.5
385.92	3.63
386.286	3.79
386.651	3.55
387.017	3.84
387.383	3.88
387.748	4.05
388.114	3.81
388.479	3.87
388.845	3.9
389.21	4.14
389.575	3.89
389.94	4.23
390.306	4.01
390.671	4.12
391.036	4.19
391.401	3.8
391.766	4.23
392.131	4.15
392.496	3.88
392.861	3.78
393.226	4.09
393.591	4.17
393.956	4.05
394.32	4.1
394.685	4.08
395.05	3.79
395.414	4.12
395.779	3.93
396.143	4.24
396.508	4.16
396.872	4.26
397.236	4.22
397.601	4.48
397.965	4.42
398.329	4.28
398.694	4.29
399.058	4.17
399.422	4.23
399.786	4.21
400.15	4.15
400.514	4.71
400.878	4.13
401.242	4.45
401.605	4.49
401.969	4.28
402.333	4.36
402.697	4.7
403.06	4.37
403.424	4.31
403.787	4.62
404.151	4.45
404.514	4.41
404.878	4.33
405.241	4.36
405.604	4.66
405.968	4.54
406.331	4.43
406.694	4.45
407.057	4.47
407.42	4.41
407.783	4.51
408.146	4.6
408.509	4.54
408.872	4.72
409.235	4.42
409.598	4.69
409.961	4.71
410.323	5
410.686	4.74
411.049	4.76
411.411	4.59
411.774	4.66
412.136	4.76
412.499	4.81
412.861	4.69
413.223	4.76
413.586	4.74
413.948	4.63
414.31	4.63
414.672	4.79
415.035	4.78
415.397	4.75
415.759	4.91
416.121	4.96
416.483	5.07
416.845	5
417.206	4.75
417.568	4.95
417.93	4.56
418.292	4.94
418.653	4.88
419.015	5
419.377	4.88
419.738	4.91
420.1	5.02
420.461	4.82
420.822	4.86
421.184	4.86
421.545	4.91
421.906	4.86
422.267	4.91
422.629	4.91
422.99	4.9
423.351	4.76
423.712	4.85
424.073	4.86
424.434	5
424.795	4.95
425.155	4.94
425.516	4.96
425.877	4.89
426.238	5.01
426.598	5.02
426.959	4.93
427.32	5.11
427.68	4.98
428.041	5.15
428.401	5.05
428.761	5.07
429.122	5.01
429.482	5.25
429.842	5.18
430.202	5.21
430.563	5.17
430.923	5.4
431.283	5.25
431.643	5.17
432.003	5.32
432.363	5.58
432.722	5.48
433.082	5.26
433.442	5.26
433.802	5.44
434.161	5.44
434.521	5.35
434.881	5.27
435.24	5.34
435.6	5.41
435.959	5.62
436.319	5.44
436.678	5.49
437.037	5.41
437.396	5.47
437.756	5.58
438.115	5.63
438.474	5.31
438.833	5.51
439.192	5.54
439.551	5.66
439.91	5.57
440.269	5.6
440.628	5.59
440.987	5.56
441.345	5.6
441.704	5.5
442.063	5.64
442.421	5.45
442.78	5.59
443.138	5.44
443.497	5.57
443.855	5.52
444.214	5.7
444.572	5.79
444.93	5.65
445.288	5.76
445.647	5.74
446.005	5.53
446.363	5.61
446.721	5.8
447.079	5.73
447.437	5.63
447.795	5.66
448.153	5.63
448.51	5.7
448.868	5.75
449.226	5.78
449.584	5.69
449.941	5.81
450.299	5.92
450.656	5.87
451.014	5.91
451.371	5.92
451.729	5.93
452.086	6.06
452.443	5.82
452.801	5.94
453.158	5.91
453.515	6.08
453.872	5.97
454.229	6.01
454.586	6.08
454.943	5.98
455.3	6.03
455.657	6.08
456.014	6.05
456.371	6.1
456.727	6.28
457.084	6
457.441	6.22
457.797	6.18
458.154	6.16
458.51	6.26
458.867	6.25
459.223	6.45
459.58	6.33
459.936	6.26
460.292	6.12
460.648	6.09
461.005	6.1
461.361	6.2
461.717	6.27
462.073	6.33
462.429	6.29
462.785	6.26
463.141	6.51
463.496	6.5
463.852	6.44
464.208	6.49
464.564	6.61
464.919	6.68
465.275	6.6
465.631	6.56
465.986	6.53
466.342	6.52
466.697	6.52
467.052	6.52
467.408	6.44
467.763	6.54
468.118	6.78
468.473	6.74
468.829	6.6
469.184	6.76
469.539	6.62
469.894	6.52
470.249	6.65
470.603	6.54
470.958	6.68
471.313	6.75
471.668	6.75
472.023	6.63
472.377	6.68
472.732	6.76
473.086	6.85
473.441	6.83
473.795	6.93
474.15	6.81
474.504	6.73
474.859	6.97
475.213	6.9
475.567	7.01
475.921	6.83
476.275	7.1
476.63	7.15
476.984	6.96
477.338	6.92
477.692	6.77
478.045	6.96
478.399	7.22
478.753	7.03
479.107	7.03
479.461	7.04
479.814	6.99
480.168	7.18
480.521	7.06
480.875	7.1
481.228	7.1
481.582	7.14
481.935	7.13
482.289	7.01
482.642	7.04
482.995	7.12
483.348	7.19
483.701	7.07
484.055	7.13
484.408	7.01
484.761	6.98
485.114	6.81
485.466	6.73
485.819	6.74
486.172	6.8
486.525	6.84
486.878	6.89
487.23	7.05
487.583	7.08
487.936	7.16
488.288	7.17
488.641	7.07
488.993	6.98
489.345	7.04
489.698	7
490.05	7.06
490.402	7.2
490.754	7.17
491.107	7.23
491.459	7.44
491.811	7.29
492.163	7.38
492.515	7.34
492.866	7.29
493.218	7.21
493.57	7.23
493.922	7.31
494.274	7.28
494.625	7.46
494.977	7.59
495.328	7.45
495.68	7.65
496.031	7.77
496.383	7.65
496.734	7.8
497.086	7.75
497.437	7.89
497.788	7.81
498.139	7.74
498.49	7.77
498.842	7.64
499.193	7.74
499.544	7.81
499.894	7.93
500.245	7.84
500.596	7.96
500.947	7.86
501.298	7.98
501.648	8
501.999	7.97
502.35	8.08
502.7	8.13
503.051	8
503.401	8.02
503.752	8.18
504.102	8.13
504.452	8.26
504.803	8.08
505.153	8.13
505.503	8.19
505.853	8.16
506.203	8.13
506.553	8.26
506.903	8.21
507.253	8.14
507.603	8.3
507.953	8.38
508.303	8.32
508.652	8.3
509.002	8.28
509.352	8.3
509.701	8.32
510.051	8.25
510.4	8.32
510.75	8.27
511.099	8.34
511.449	8.34
511.798	8.41
512.147	8.47
512.496	8.43
512.846	8.45
513.195	8.47
513.544	8.45
513.893	8.46
514.242	8.53
514.591	8.59
514.939	8.58
515.288	8.51
515.637	8.71
515.986	8.6
516.334	8.6
516.683	8.73
517.032	8.72
517.38	8.74
517.729	8.84
518.077	8.76
518.426	8.75
518.774	8.73
519.122	8.76
519.47	8.66
519.819	8.67
520.167	8.62
520.515	8.64
520.863	8.6
521.211	8.6
521.559	8.78
521.907	8.76
522.255	8.77
522.602	8.75
522.95	8.92
523.298	8.9
523.645	8.99
523.993	8.87
524.341	9.07
524.688	8.89
525.036	9.14
525.383	9.15
525.73	8.95
526.078	9.07
526.425	9.07
526.772	8.92
527.119	8.86
527.466	9.01
527.814	8.98
528.161	8.96
528.508	9.01
528.854	9.03
529.201	8.97
529.548	8.86
529.895	8.74
530.242	8.73
530.588	8.73
530.935	8.75
531.282	8.74
531.628	8.91
531.975	9.03
532.321	9.14
532.667	9.19
533.014	9.3
533.36	9.27
533.706	9.23
534.052	9.26
534.399	9.27
534.745	9.13
535.091	9.13
535.437	9.17
535.783	9.11
536.129	9.29
536.474	9.39
536.82	9.34
537.166	9.44
537.512	9.4
537.857	9.37
538.203	9.54
538.549	9.45
538.894	9.48
539.239	9.47
539.585	9.49
539.93	9.72
540.276	9.84
540.621	9.77
540.966	9.66
541.311	9.81
541.656	9.73
542.001	9.65
542.346	9.63
542.691	9.45
543.036	9.39
543.381	9.44
543.726	9.48
544.071	9.56
544.415	9.61
544.76	9.63
545.105	9.81
545.449	9.86
545.794	9.99
546.138	10.07
546.483	10.02
546.827	9.97
547.171	9.96
547.516	10.1
547.86	9.96
548.204	10
548.548	9.97
548.892	10.16
549.236	10.13
549.58	10.21
549.924	10.15
550.268	10.25
550.612	10.37
550.956	10.52
551.3	10.49
551.643	10.46
551.987	10.59
552.33	10.51
552.674	10.53
553.017	10.61
553.361	10.58
553.704	10.64
554.048	10.63
554.391	10.46
554.734	10.5
555.077	10.54
555.42	10.62
555.764	10.71
556.107	10.62
556.45	10.52
556.793	10.76
557.135	10.93
557.478	10.61
557.821	10.8
558.164	10.82
558.507	10.85
558.849	11.01
559.192	10.97
559.534	11.1
559.877	11.12
560.219	11.08
560.562	11.05
560.904	10.93
561.246	10.87
561.589	11.3
561.931	11.07
562.273	11.26
562.615	11.18
562.957	11.01
563.299	11.09
563.641	11.04
563.983	11.18
564.325	11.05
564.667	11.17
565.008	11.39
565.35	11.21
565.692	11.25
566.033	11.2
566.375	11.23
566.716	11.23
567.058	11.32
567.399	11.34
567.741	11.17
568.082	11.29
568.423	11.34
568.764	11.13
569.105	11.22
569.447	11.55
569.788	11.39
570.129	11.49
570.47	11.6
570.811	11.33
571.151	11.54
571.492	11.59
571.833	11.62
572.174	11.77
572.514	11.72
572.855	11.72
573.195	11.66
573.536	11.54
573.876	11.41
574.217	11.58
574.557	11.57
574.898	11.62
575.238	11.88
575.578	11.51
575.918	11.9
576.258	11.67
576.598	11.87
576.938	11.86
577.278	11.76
577.618	11.95
577.958	11.91
578.298	11.82
578.638	11.9
578.977	11.95
579.317	11.98
579.657	11.83
579.996	12.18
580.336	12.35
580.675	12.37
581.014	12.03
581.354	12.3
581.693	12.31
582.032	12.29
582.372	12.23
582.711	12.03
583.05	12.34
583.389	12.39
583.728	12.21
584.067	12.25
584.406	12.59
584.745	12.39
585.083	12.12
585.422	12.65
585.761	12.7
586.1	12.76
586.438	12.68
586.777	12.63
587.115	12.55
587.454	12.73
587.792	12.68
588.13	12.74
588.469	12.89
588.807	12.46
589.145	12.74
589.483	12.74
589.821	12.51
590.159	12.7
590.497	12.61
590.835	12.7
591.173	12.61
591.511	12.65
591.849	12.8
592.187	12.72
592.524	12.87
592.862	12.77
593.2	12.85
593.537	12.83
593.875	12.9
594.212	12.82
594.55	12.85
594.887	12.83
595.224	13.07
595.561	12.95
595.899	13.07
596.236	13.12
596.573	13.07
596.91	12.9
597.247	12.9
597.584	12.89
597.921	12.91
598.258	13.03
598.594	12.95
598.931	13.16
599.268	13.09
599.604	13.01
599.941	13.27
600.277	12.8
600.614	13.22
600.95	13.53
601.287	13.4
601.623	13.24
601.959	13.36
602.296	13.32
602.632	13.1
602.968	13.53
603.304	13.37
603.64	13.59
603.976	13.19
604.312	13.62
604.648	13.5
604.984	13.15
605.319	13.41
605.655	13.49
605.991	13.31
606.326	13.41
606.662	13.48
606.998	13.55
607.333	13.6
607.668	13.56
608.004	13.61
608.339	13.52
608.674	13.76
609.01	13.85
609.345	13.51
609.68	13.45
610.015	13.66
610.35	13.68
610.685	13.65
611.02	13.76
611.355	13.61
611.689	13.8
612.024	13.83
612.359	13.88
612.694	13.83
613.028	13.78
613.363	13.92
613.697	14.03
614.032	14.33
614.366	14.13
614.7	13.97
615.035	13.99
615.369	14.15
615.703	13.94
616.037	14.05
616.371	13.78
616.705	13.91
617.039	14.02
617.373	14.39
617.707	14.38
618.041	14.04
618.375	14.03
618.709	14.34
619.042	14.03
619.376	14.3
619.71	14.45
620.043	14.14
620.377	14.42
620.71	14.22
621.043	14.54
621.377	14.11
621.71	14.37
622.043	14.53
622.376	14.8
622.709	14.71
623.043	14.47
623.376	14.8
623.709	14.71
624.041	14.43
624.374	14.83
624.707	14.71
625.04	14.84
625.373	14.78
625.705	14.57
626.038	15.06
626.37	14.69
626.703	14.8
627.035	14.56
627.368	14.8
627.7	14.9
628.032	14.66
628.365	14.74
628.697	14.77
629.029	14.72
629.361	15.14
629.693	15.15
630.025	15.09
630.357	14.92
630.689	14.89
631.021	15.14
631.353	15.17
631.684	14.99
632.016	15.23
632.348	14.86
632.679	15.12
633.011	15.31
633.342	15.31
633.674	15.27
634.005	15.17
634.336	15.51
634.668	15.18
634.999	15.49
635.33	15.21
635.661	15.13
635.992	15.31
636.323	15.56
636.654	15.29
636.985	15.27
637.316	15.24
637.647	15.5
637.977	15.87
638.308	15.23
638.639	15.68
638.969	15.39
639.3	15.63
639.63	15.9
639.961	15.58
640.291	15.33
640.622	15.54
640.952	15.64
641.282	15.86
641.612	15.84
641.943	15.54
642.273	15.72
642.603	15.83
642.933	15.94
643.263	15.71
643.592	16.04
643.922	16.01
644.252	15.61
644.582	15.5
644.911	15.82
645.241	16.14
645.571	15.43
645.9	16
646.23	15.82
646.559	15.71
646.888	15.97
647.218	16.01
647.547	15.81
647.876	16.17
648.205	15.83
648.534	16.03
648.863	15.79
649.192	15.67
649.521	16
649.85	16.3
650.179	15.99
650.508	16.36
650.837	16.46
651.165	16.13
651.494	16.18
651.822	16.06
652.151	16.36
652.479	16
652.808	16.31
653.136	16
653.465	16.21
653.793	16.11
654.121	16.41
654.449	16.33
654.777	16.37
655.105	16.78
655.433	16.57
655.761	16.87
656.089	16.45
656.417	16.78
656.745	16.33
657.073	16.47
657.4	16.6
657.728	16.05
658.056	16.26
658.383	16.61
658.711	17.08
659.038	16.45
659.365	16.38
659.693	16.33
660.02	16.65
660.347	16.68
660.674	16.88
661.001	16.69
661.329	16.44
661.656	16.49
661.982	16.86
662.309	16.77
662.636	16.89
662.963	16.41
663.29	16.72
663.616	16.97
663.943	17.18
664.27	17.3
664.596	16.7
664.923	17.2
665.249	17.18
665.576	17.41
665.902	16.86
666.228	16.7
666.554	16.86
666.881	16.98
667.207	16.95
667.533	17.21
667.859	17.36
668.185	18.32
668.511	17.48
668.837	17.45
669.162	17.37
669.488	16.99
669.814	17.59
670.139	17.17
670.465	17.26
670.791	17.88
671.116	17.37
671.442	16.99
671.767	17.61
672.092	17.54
672.418	17.38
672.743	17.12
673.068	16.72
673.393	16.89
673.718	17.22
674.043	17.01
674.368	16.86
674.693	17.18
675.018	17.34
675.343	17.16
675.667	17.14
675.992	17.01
676.317	17.8
676.641	17.47
676.966	17.25
677.29	17.22
677.615	17.65
677.939	17.63
678.264	17.55
678.588	17.08
678.912	17.47
679.236	17.51
679.56	16.93
679.885	17.29
680.209	17.14
680.532	17.84
680.856	17.65
681.18	17.98
681.504	17.22
681.828	17.71
682.152	18.07
682.475	17.36
