Data from 0401_forehead_Reflection__0__208.txt Node

Date: Tue Dec 12 20:07:36 CST 2023
User: ToomeyLab
Spectrometer: FLMS14357
Trigger mode: 0
Integration Time (sec): 1.000000E-2
Scans to average: 100
Electric dark correction enabled: true
Nonlinearity correction enabled: false
Boxcar width: 0
XAxis mode: Wavelengths
Number of Pixels in Spectrum: 2048
>>>>>Begin Spectral Data<<<<<
189.047	-260.51
189.435	-260.51
189.823	-260.51
190.211	460.57
190.599	1430.72
190.987	81.48
191.375	-2948.15
191.763	-237.16
192.151	116.59
192.538	105.99
192.926	188.16
193.314	236.02
193.702	51.51
194.089	240.41
194.477	-28.07
194.864	76.61
195.252	44.26
195.639	294.78
196.027	988.05
196.414	98.63
196.801	257.38
197.189	797.12
197.576	634.64
197.963	-43.8
198.351	38.87
198.738	12.79
199.125	18.22
199.512	-27.02
199.899	43.42
200.286	15.39
200.673	-53.06
201.06	38.55
201.447	-305.71
201.833	-20.97
202.22	0.66
202.607	-305.73
202.994	8.63
203.38	3.32
203.767	-11.87
204.154	-9.21
204.54	33.61
204.927	-4.9
205.313	30.14
205.699	103.04
206.086	23.99
206.472	19.51
206.858	35.23
207.245	41.83
207.631	42.81
208.017	11.26
208.403	-62.25
208.789	18.08
209.175	-99.2
209.561	-5.22
209.947	-19.58
210.333	3.76
210.719	25.96
211.105	-36.17
211.491	7.36
211.876	8.24
212.262	12.6
212.648	-43.6
213.034	-40.27
213.419	6.42
213.805	14.07
214.19	32.24
214.576	0.31
214.961	6.54
215.346	28.84
215.732	-4.53
216.117	-9.54
216.502	-26.91
216.888	-22.13
217.273	-58.54
217.658	-108.6
218.043	-5.37
218.428	-13.5
218.813	12.44
219.198	-36.29
219.583	-0.16
219.968	7.1
220.353	16.82
220.738	-1.77
221.122	12.12
221.507	-11.5
221.892	-12.68
222.276	10.24
222.661	-7.51
223.046	-5.11
223.43	-4.63
223.815	-10.43
224.199	8.2
224.583	4.38
224.968	14.42
225.352	-2.38
225.736	19.71
226.121	-5.83
226.505	3.37
226.889	0.48
227.273	-6.53
227.657	9.23
228.041	6.5
228.425	2.86
228.809	-3.58
229.193	3.81
229.577	6.81
229.961	3.82
230.344	6.19
230.728	6.34
231.112	6.34
231.495	5.41
231.879	5.45
232.263	6.53
232.646	5.63
233.03	6.65
233.413	5.07
233.797	3.33
234.18	0.12
234.563	1.59
234.946	6.06
235.33	6.1
235.713	7.65
236.096	4.35
236.479	5.59
236.862	5.99
237.245	6.11
237.628	6.54
238.011	6.82
238.394	1.96
238.777	7.44
239.16	4.58
239.543	4.45
239.925	6
240.308	4.95
240.691	6.31
241.073	6.56
241.456	6.89
241.838	3.95
242.221	5.75
242.603	5.8
242.986	5.36
243.368	5.83
243.75	5.19
244.133	5.02
244.515	5.45
244.897	5.78
245.279	6.14
245.661	5.1
246.043	4.55
246.425	7.42
246.807	4.15
247.189	4.49
247.571	5.83
247.953	5.22
248.335	5.61
248.717	5.43
249.098	5.36
249.48	4.99
249.862	4.84
250.243	5.28
250.625	5.36
251.006	5.46
251.388	6.08
251.769	4.49
252.151	4.18
252.532	5.5
252.913	5.55
253.295	5.33
253.676	5.12
254.057	4.88
254.438	5.44
254.819	5.76
255.2	4.13
255.581	4.04
255.962	4.45
256.343	4.77
256.724	4.52
257.105	5.88
257.486	4.64
257.867	5.32
258.247	4.13
258.628	4.81
259.009	4.1
259.389	4.79
259.77	4.82
260.15	4.88
260.531	5.42
260.911	5.9
261.292	5.08
261.672	4.81
262.052	5.12
262.432	5.16
262.813	5.03
263.193	5.73
263.573	5.33
263.953	5.53
264.333	6.11
264.713	5.35
265.093	4.6
265.473	6.16
265.853	4.6
266.233	4.67
266.612	4.31
266.992	4.82
267.372	5.3
267.752	5.84
268.131	4.07
268.511	4.83
268.89	4.28
269.27	4.24
269.649	4.6
270.029	4.92
270.408	5.32
270.787	4.63
271.167	5.96
271.546	4.88
271.925	5.56
272.304	5.56
272.683	4.76
273.062	4.84
273.441	5.02
273.82	4.25
274.199	4.51
274.578	4.65
274.957	4.76
275.336	4.89
275.715	5.54
276.093	5
276.472	5.17
276.851	5.21
277.229	4.62
277.608	5.31
277.986	3.91
278.365	4.84
278.743	5.25
279.122	5.32
279.5	4.35
279.878	4.02
280.257	4.62
280.635	4.77
281.013	4.8
281.391	4.77
281.769	4.85
282.147	4.6
282.525	4.6
282.903	5.04
283.281	4.76
283.659	4.85
284.037	5.24
284.415	4.65
284.792	5.21
285.17	4.34
285.548	4.9
285.925	4.78
286.303	4.9
286.68	4.98
287.058	5.03
287.435	5.06
287.813	4.76
288.19	4.95
288.567	4.94
288.945	5.29
289.322	4.35
289.699	5.24
290.076	4.95
290.453	5.06
290.83	4.59
291.207	5.7
291.584	4.86
291.961	5.59
292.338	5.07
292.715	5.27
293.092	4.93
293.469	5.01
293.845	5.42
294.222	5.15
294.599	5.13
294.975	5.02
295.352	5.06
295.728	5.39
296.105	5.06
296.481	5.4
296.858	5.32
297.234	5.46
297.61	5.21
297.986	5.73
298.363	5.54
298.739	5.17
299.115	5.16
299.491	5.25
299.867	5.52
300.243	5.26
300.619	5.62
300.995	5.76
301.371	5.67
301.746	6.09
302.122	6.36
302.498	5.81
302.874	5.95
303.249	6.35
303.625	5.39
304	5.97
304.376	5.55
304.751	6.08
305.127	5.92
305.502	5.76
305.878	5.86
306.253	5.8
306.628	5.7
307.003	6.02
307.378	5.96
307.754	6.33
308.129	6
308.504	6.55
308.879	5.8
309.254	6.11
309.629	6.42
310.003	6.71
310.378	6.67
310.753	7.01
311.128	6.18
311.502	5.77
311.877	5.86
312.252	6.01
312.626	6.06
313.001	6.21
313.375	5.79
313.75	6.45
314.124	6.63
314.498	6.64
314.873	6.69
315.247	7.2
315.621	6.02
315.995	6.66
316.369	6.38
316.743	6.14
317.117	6
317.491	6.44
317.865	6.15
318.239	6.44
318.613	6.81
318.987	6.95
319.361	6.27
319.734	6.88
320.108	6.9
320.482	7.04
320.855	6.25
321.229	7.04
321.602	7.32
321.976	6.43
322.349	7.45
322.723	6.3
323.096	6.91
323.469	6.37
323.843	7.54
324.216	7.82
324.589	6.84
324.962	6.73
325.335	7.32
325.708	6.82
326.081	7.23
326.454	6.32
326.827	7.46
327.2	7.15
327.573	6.87
327.945	7.59
328.318	7.63
328.691	6.9
329.063	7.64
329.436	7.46
329.809	7.41
330.181	6.6
330.553	7.27
330.926	7.71
331.298	7.14
331.671	7.5
332.043	7.46
332.415	7.5
332.787	7.16
333.159	7.57
333.532	7.67
333.904	7.65
334.276	7.75
334.648	6.81
335.02	6.96
335.391	7.38
335.763	7.4
336.135	7.3
336.507	8.19
336.879	7.88
337.25	7.64
337.622	7.51
337.993	7.43
338.365	6.92
338.736	7.71
339.108	7.1
339.479	8.12
339.851	7.76
340.222	6.86
340.593	7.96
340.964	7.86
341.336	7.63
341.707	8.05
342.078	7.9
342.449	7.67
342.82	8.06
343.191	8.29
343.562	7.85
343.933	8.23
344.303	8.71
344.674	8.02
345.045	8.48
345.416	8.26
345.786	7.9
346.157	8.34
346.527	8.73
346.898	7.87
347.268	8
347.639	8.75
348.009	8.5
348.38	8.45
348.75	8.29
349.12	8.35
349.49	8.48
349.861	8.58
350.231	8.56
350.601	8.86
350.971	8.89
351.341	8.57
351.711	8.73
352.081	8.38
352.45	8.84
352.82	8.74
353.19	8.69
353.56	8.64
353.929	7.91
354.299	8.6
354.669	8.54
355.038	7.92
355.408	8.55
355.777	8.88
356.147	8.57
356.516	8.93
356.885	8.59
357.254	8.69
357.624	8.35
357.993	8.97
358.362	8.65
358.731	9.5
359.1	8.48
359.469	8.77
359.838	8.8
360.207	9.19
360.576	9.14
360.945	8.7
361.314	9.43
361.682	9.29
362.051	9.09
362.42	9.4
362.788	9.16
363.157	9.7
363.525	9.21
363.894	9.03
364.262	9.25
364.631	9.13
364.999	9.38
365.367	9.69
365.735	9.38
366.104	9.23
366.472	9.17
366.84	9.62
367.208	9.37
367.576	9.45
367.944	9.93
368.312	9.76
368.68	9.58
369.048	9.9
369.416	9.75
369.783	9.68
370.151	9.49
370.519	9.59
370.886	10.07
371.254	9.8
371.621	10.16
371.989	10.07
372.356	9.81
372.724	9.92
373.091	9.69
373.458	9.41
373.826	10
374.193	9.56
374.56	10.03
374.927	9.92
375.294	10.11
375.661	10.43
376.028	10.14
376.395	10.1
376.762	10.67
377.129	10.16
377.496	10.32
377.863	10.3
378.229	9.98
378.596	10.12
378.963	10.74
379.329	10.38
379.696	10.02
380.062	10.63
380.429	10.65
380.795	10.67
381.161	10.75
381.528	10.55
381.894	10.53
382.26	10.5
382.626	10.37
382.993	10.69
383.359	10.57
383.725	10.67
384.091	10.76
384.457	10.42
384.823	10.7
385.188	10.7
385.554	10.77
385.92	10.64
386.286	11.07
386.651	11.11
387.017	10.93
387.383	10.96
387.748	10.83
388.114	11.07
388.479	11.57
388.845	11.17
389.21	10.75
389.575	10.87
389.94	11.12
390.306	11.38
390.671	11.06
391.036	10.99
391.401	11.27
391.766	11.37
392.131	11.19
392.496	11.16
392.861	11.19
393.226	11.5
393.591	11.09
393.956	11.32
394.32	11.6
394.685	11.71
395.05	11.28
395.414	11.73
395.779	11.68
396.143	11.82
396.508	11.37
396.872	11.61
397.236	11.63
397.601	11.54
397.965	11.69
398.329	11.86
398.694	11.73
399.058	12.03
399.422	11.78
399.786	11.54
400.15	11.68
400.514	12.05
400.878	11.88
401.242	11.97
401.605	12.25
401.969	12.14
402.333	12.07
402.697	11.92
403.06	12.24
403.424	12.39
403.787	12.1
404.151	12.33
404.514	11.98
404.878	12.15
405.241	12.25
405.604	12.04
405.968	12.05
406.331	12.32
406.694	12.41
407.057	12.18
407.42	12.32
407.783	12.48
408.146	12.58
408.509	12.34
408.872	12.4
409.235	12.58
409.598	12.37
409.961	12.5
410.323	12.76
410.686	12.72
411.049	12.72
411.411	12.86
411.774	12.74
412.136	12.99
412.499	13.08
412.861	12.95
413.223	13.19
413.586	12.84
413.948	12.75
414.31	12.84
414.672	13.17
415.035	12.9
415.397	13.16
415.759	13.21
416.121	12.85
416.483	12.94
416.845	13.16
417.206	13.38
417.568	13.07
417.93	13.37
418.292	13.2
418.653	13.08
419.015	13.03
419.377	13.32
419.738	13.16
420.1	13.13
420.461	13.32
420.822	13.21
421.184	13.18
421.545	13.29
421.906	13.23
422.267	13.16
422.629	13.19
422.99	13.2
423.351	13.25
423.712	13.26
424.073	13.28
424.434	13.45
424.795	13.54
425.155	13.26
425.516	13.35
425.877	13.44
426.238	13.53
426.598	13.53
426.959	13.53
427.32	13.61
427.68	13.62
428.041	13.9
428.401	13.8
428.761	13.87
429.122	14.09
429.482	14.01
429.842	13.86
430.202	14.18
430.563	14.21
430.923	14.07
431.283	13.98
431.643	14.27
432.003	14.11
432.363	14.2
432.722	14.16
433.082	14.37
433.442	14.35
433.802	14.43
434.161	14.25
434.521	14.38
434.881	14.33
435.24	14.48
435.6	14.32
435.959	14.61
436.319	14.61
436.678	14.61
437.037	14.71
437.396	14.5
437.756	14.55
438.115	14.74
438.474	14.66
438.833	14.88
439.192	14.96
439.551	14.71
439.91	14.6
440.269	14.77
440.628	14.81
440.987	14.8
441.345	14.99
441.704	14.77
442.063	14.75
442.421	14.95
442.78	14.87
443.138	14.89
443.497	14.85
443.855	15.09
444.214	15.06
444.572	15.11
444.93	15.29
445.288	15.03
445.647	15.39
446.005	15.21
446.363	15.15
446.721	15.19
447.079	15.32
447.437	15.1
447.795	15.32
448.153	15.22
448.51	15.44
448.868	15.24
449.226	15.43
449.584	15.43
449.941	15.53
450.299	15.58
450.656	15.5
451.014	15.58
451.371	15.75
451.729	15.92
452.086	15.73
452.443	15.89
452.801	15.96
453.158	15.94
453.515	15.98
453.872	16.01
454.229	16.21
454.586	15.98
454.943	16.03
455.3	16.07
455.657	16.19
456.014	16.33
456.371	16.16
456.727	16.42
457.084	16.2
457.441	16.59
457.797	16.47
458.154	16.26
458.51	16.39
458.867	16.5
459.223	16.48
459.58	16.43
459.936	16.3
460.292	16.4
460.648	16.44
461.005	16.57
461.361	16.32
461.717	16.45
462.073	16.37
462.429	16.63
462.785	16.49
463.141	16.68
463.496	16.6
463.852	16.95
464.208	16.93
464.564	16.98
464.919	17.33
465.275	17.13
465.631	17.12
465.986	17.06
466.342	16.95
466.697	17.3
467.052	17.33
467.408	17.24
467.763	17.23
468.118	17.5
468.473	17.48
468.829	17.27
469.184	17.51
469.539	17.65
469.894	17.52
470.249	17.54
470.603	17.54
470.958	17.53
471.313	17.78
471.668	17.64
472.023	17.79
472.377	17.69
472.732	17.79
473.086	17.82
473.441	17.91
473.795	17.84
474.15	18.05
474.504	17.68
474.859	18.11
475.213	17.89
475.567	17.97
475.921	17.96
476.275	17.87
476.63	18.17
476.984	18.05
477.338	18.08
477.692	18.09
478.045	18.14
478.399	18.2
478.753	18.09
479.107	18.35
479.461	18.14
479.814	18.3
480.168	18.22
480.521	18.2
480.875	18.37
481.228	18.47
481.582	18.53
481.935	18.45
482.289	18.68
482.642	18.72
482.995	18.58
483.348	18.49
483.701	18.67
484.055	18.61
484.408	18.43
484.761	18.29
485.114	18.02
485.466	17.79
485.819	17.8
486.172	17.87
486.525	18.05
486.878	18.1
487.23	18.21
487.583	18.38
487.936	18.59
488.288	18.52
488.641	18.51
488.993	18.48
489.345	18.39
489.698	18.39
490.05	18.44
490.402	18.56
490.754	18.67
491.107	18.82
491.459	18.88
491.811	19.09
492.163	19.11
492.515	19.22
492.866	19.07
493.218	18.84
493.57	18.85
493.922	18.87
494.274	19.1
494.625	19.32
494.977	19.44
495.328	19.58
495.68	19.62
496.031	19.85
496.383	19.88
496.734	20.03
497.086	19.84
497.437	20.04
497.788	20.05
498.139	20.07
498.49	20.18
498.842	19.97
499.193	20.11
499.544	20.15
499.894	20.02
500.245	20.24
500.596	20.39
500.947	20.27
501.298	20.49
501.648	20.53
501.999	20.55
502.35	20.34
502.7	20.66
503.051	20.67
503.401	20.66
503.752	20.9
504.102	20.89
504.452	20.88
504.803	20.89
505.153	20.82
505.503	20.97
505.853	20.93
506.203	20.89
506.553	20.91
506.903	20.95
507.253	21.11
507.603	21.08
507.953	21.02
508.303	21.19
508.652	21.26
509.002	21.35
509.352	21.18
509.701	21.28
510.051	21.34
510.4	21.19
510.75	21.23
511.099	21.3
511.449	21.31
511.798	21.27
512.147	21.61
512.496	21.58
512.846	21.61
513.195	21.51
513.544	21.72
513.893	21.6
514.242	21.59
514.591	21.67
514.939	21.85
515.288	21.76
515.637	21.93
515.986	21.89
516.334	22.14
516.683	21.94
517.032	22.14
517.38	22.09
517.729	22.1
518.077	22.18
518.426	22.29
518.774	22.29
519.122	22.21
519.47	22.22
519.819	22.1
520.167	21.87
520.515	21.88
520.863	22.15
521.211	22.13
521.559	22.25
521.907	22.31
522.255	22.42
522.602	22.55
522.95	22.64
523.298	22.55
523.645	22.78
523.993	22.87
524.341	22.97
524.688	22.75
525.036	23.03
525.383	22.94
525.73	22.89
526.078	23.16
526.425	22.99
526.772	22.98
527.119	22.85
527.466	22.86
527.814	22.67
528.161	22.9
528.508	22.82
528.854	22.83
529.201	22.79
529.548	22.81
529.895	22.65
530.242	22.46
530.588	22.39
530.935	22.53
531.282	22.71
531.628	22.92
531.975	22.83
532.321	22.97
532.667	23.2
533.014	23.29
533.36	23.4
533.706	23.49
534.052	23.54
534.399	23.43
534.745	23.45
535.091	23.24
535.437	23.3
535.783	23.39
536.129	23.52
536.474	23.6
536.82	23.77
537.166	24.08
537.512	24.16
537.857	24.13
538.203	23.85
538.549	23.92
538.894	24.13
539.239	24.13
539.585	24.34
539.93	24.27
540.276	24.31
540.621	24.55
540.966	24.51
541.311	24.69
541.656	24.7
542.001	24.69
542.346	24.59
542.691	24.46
543.036	24.18
543.381	24.1
543.726	24.18
544.071	24.33
544.415	24.47
544.76	24.57
545.105	24.65
545.449	24.65
545.794	24.86
546.138	24.93
546.483	25.14
546.827	25.03
547.171	25.24
547.516	25.21
547.86	25.31
548.204	25.4
548.548	25.44
548.892	25.46
549.236	25.45
549.58	25.55
549.924	25.68
550.268	25.94
550.612	25.99
550.956	25.92
551.3	26.23
551.643	26.14
551.987	26.42
552.33	26.49
552.674	26.42
553.017	26.38
553.361	26.71
553.704	26.36
554.048	26.3
554.391	26.42
554.734	26.29
555.077	26.56
555.42	26.41
555.764	26.72
556.107	26.68
556.45	26.6
556.793	26.62
557.135	26.83
557.478	27.01
557.821	27.18
558.164	27.02
558.507	27.04
558.849	27.11
559.192	27.26
559.534	27.23
559.877	27.34
560.219	27.41
560.562	27.48
560.904	27.31
561.246	27.5
561.589	27.77
561.931	27.37
562.273	27.42
562.615	27.43
562.957	27.47
563.299	27.79
563.641	27.82
563.983	27.91
564.325	27.72
564.667	27.93
565.008	27.6
565.35	27.82
565.692	27.86
566.033	27.95
566.375	28.15
566.716	28
567.058	28.01
567.399	28.17
567.741	28.27
568.082	27.85
568.423	28.1
568.764	28.1
569.105	28.31
569.447	28.38
569.788	28.57
570.129	28.43
570.47	28.47
570.811	28.69
571.151	28.69
571.492	28.75
571.833	28.7
572.174	28.78
572.514	28.62
572.855	28.74
573.195	28.49
573.536	28.47
573.876	28.75
574.217	28.8
574.557	28.87
574.898	28.87
575.238	29.06
575.578	29.06
575.918	29.27
576.258	29.02
576.598	29.11
576.938	29.1
577.278	29.46
577.618	29.4
577.958	29.26
578.298	29.37
578.638	29.33
578.977	29.51
579.317	29.8
579.657	29.74
579.996	29.77
580.336	29.9
580.675	30.04
581.014	29.81
581.354	29.88
581.693	30.03
582.032	30.04
582.372	30.04
582.711	30.34
583.05	30.27
583.389	30.37
583.728	30.31
584.067	30.53
584.406	30.59
584.745	30.61
585.083	30.47
585.422	30.48
585.761	30.9
586.1	30.64
586.438	30.86
586.777	30.8
587.115	30.35
587.454	30.81
587.792	30.8
588.13	31.04
588.469	30.93
588.807	31.05
589.145	31.19
589.483	31.06
589.821	30.8
590.159	30.96
590.497	31.2
590.835	31.21
591.173	31.15
591.511	31.41
591.849	31.32
592.187	31.34
592.524	31.25
592.862	31.21
593.2	31.28
593.537	31.24
593.875	31.54
594.212	31.64
594.55	31.69
594.887	32.07
595.224	31.8
595.561	32.18
595.899	31.36
596.236	31.63
596.573	31.98
596.91	31.92
597.247	31.98
597.584	31.85
597.921	32.11
598.258	32
598.594	32.17
598.931	31.72
599.268	32.01
599.604	32.11
599.941	31.96
600.277	32.11
600.614	32.52
600.95	32.45
601.287	32.33
601.623	32.93
601.959	32.36
602.296	32.76
602.632	32.81
602.968	32.67
603.304	32.67
603.64	32.88
603.976	32.7
604.312	32.76
604.648	32.68
604.984	32.72
605.319	33.12
605.655	32.93
605.991	32.88
606.326	32.94
606.662	32.74
606.998	32.79
607.333	33.05
607.668	32.81
608.004	33.36
608.339	33.42
608.674	33.38
609.01	33.21
609.345	33.63
609.68	33.52
610.015	33.17
610.35	33.37
610.685	33.44
611.02	33.57
611.355	33.5
611.689	33.41
612.024	33.64
612.359	33.76
612.694	33.99
613.028	33.81
613.363	33.65
613.697	33.88
614.032	34.11
614.366	33.93
614.7	34.22
615.035	33.98
615.369	34
615.703	34.46
616.037	34.28
616.371	34.1
616.705	34.62
617.039	34.36
617.373	34.66
617.707	34.75
618.041	34.98
618.375	34.77
618.709	34.68
619.042	34.28
619.376	34.63
619.71	34.54
620.043	34.85
620.377	34.96
620.71	34.83
621.043	35.1
621.377	35.21
621.71	35.53
622.043	35.38
622.376	35.33
622.709	35.34
623.043	35.11
623.376	35.48
623.709	35.63
624.041	35.43
624.374	35.11
624.707	35.25
625.04	35.3
625.373	35.57
625.705	35.78
626.038	35.34
626.37	35.89
626.703	35.67
627.035	35.9
627.368	35.89
627.7	35.4
628.032	35.61
628.365	35.73
628.697	35.65
629.029	35.77
629.361	35.7
629.693	35.69
630.025	35.96
630.357	35.86
630.689	36.04
631.021	36.46
631.353	36.78
631.684	36
632.016	36.47
632.348	36.44
632.679	35.86
633.011	37.18
633.342	36.57
633.674	36.95
634.005	36.89
634.336	36.64
634.668	36.66
634.999	36.88
635.33	36.64
635.661	36.98
635.992	36.11
636.323	36.43
636.654	36.55
636.985	36.91
637.316	36.76
637.647	37.17
637.977	37.19
638.308	37.23
638.639	37.02
638.969	36.68
639.3	36.8
639.63	37.57
639.961	37.43
640.291	36.93
640.622	37.58
640.952	37.54
641.282	37.64
641.612	37.61
641.943	37.44
642.273	37.93
642.603	38.25
642.933	37.22
643.263	37.37
643.592	38.18
643.922	37.6
644.252	37.67
644.582	37.55
644.911	37.47
645.241	37.9
645.571	38.76
645.9	37.68
646.23	37.63
646.559	37.93
646.888	38.01
647.218	38.42
647.547	38.28
647.876	38.85
648.205	38.45
648.534	38.49
648.863	38.17
649.192	38.8
649.521	39.05
649.85	38.5
650.179	39
650.508	39.04
650.837	38.58
651.165	38.27
651.494	38.99
651.822	38.31
652.151	39.1
652.479	38.89
652.808	39.2
653.136	38.77
653.465	39.04
653.793	39.3
654.121	39.04
654.449	38.82
654.777	38.97
655.105	39.06
655.433	39.12
655.761	38.64
656.089	39.18
656.417	39.54
656.745	39.29
657.073	39.71
657.4	39.34
657.728	39.05
658.056	40.07
658.383	39.29
658.711	39.45
659.038	39.38
659.365	39.98
659.693	39.48
660.02	39.6
660.347	40.08
660.674	39.51
661.001	39.59
661.329	39.75
661.656	39.84
661.982	39.19
662.309	40.14
662.636	39.16
662.963	39.84
663.29	39.86
663.616	39.89
663.943	40.14
664.27	40.3
664.596	39.99
664.923	40.74
665.249	40.2
665.576	40.36
665.902	40.16
666.228	40.11
666.554	40.38
666.881	40.06
667.207	40.67
667.533	41.07
667.859	40.98
668.185	40.62
668.511	40.94
668.837	40.45
669.162	40.65
669.488	40.08
669.814	41.09
670.139	40.54
670.465	40.38
670.791	40.73
671.116	40.76
671.442	41.38
671.767	40.79
672.092	41.87
