Data from 0401_chest_Reflection__1__198.txt Node

Date: Tue Dec 12 20:04:22 CST 2023
User: ToomeyLab
Spectrometer: FLMS14357
Trigger mode: 0
Integration Time (sec): 1.000000E-2
Scans to average: 100
Electric dark correction enabled: true
Nonlinearity correction enabled: false
Boxcar width: 0
XAxis mode: Wavelengths
Number of Pixels in Spectrum: 2048
>>>>>Begin Spectral Data<<<<<
189.047	-239.38
189.435	-239.38
189.823	-239.38
190.211	355.61
190.599	717.87
190.987	98.49
191.375	-81.48
191.763	19.58
192.151	36.21
192.538	-99.91
192.926	101.53
193.314	-110.56
193.702	57.71
194.089	101.85
194.477	1.62
194.864	114.16
195.252	-27.29
195.639	217.54
196.027	-1168.31
196.414	-13.75
196.801	207.5
197.189	651.8
197.576	949.19
197.963	-80.19
198.351	-27.15
198.738	39.26
199.125	-18.32
199.512	-73.54
199.899	17.45
200.286	-49.59
200.673	-21.84
201.06	-27.04
201.447	-236.71
201.833	-19.85
202.22	11.92
202.607	-461
202.994	19.39
203.38	-0.1
203.767	-29.16
204.154	14.72
204.54	25.11
204.927	-7.9
205.313	-30.08
205.699	-112.95
206.086	-39.29
206.472	28.33
206.858	-37.13
207.245	-44.13
207.631	-17.52
208.017	-39.06
208.403	0.56
208.789	-6.12
209.175	-76.25
209.561	-14.94
209.947	-74.87
210.333	-4.63
210.719	-21.87
211.105	-16.22
211.491	32.34
211.876	3.17
212.262	-6.65
212.648	-88.81
213.034	-66.55
213.419	-35.55
213.805	-29.97
214.19	25.31
214.576	-10.09
214.961	8.96
215.346	-37.33
215.732	25.01
216.117	4.23
216.502	-65.98
216.888	-81.87
217.273	-48.54
217.658	-40.47
218.043	-26.66
218.428	-21.72
218.813	-40.08
219.198	-21.26
219.583	-7.08
219.968	16.97
220.353	-3.97
220.738	6.09
221.122	2.38
221.507	-37.56
221.892	-24.97
222.276	4.51
222.661	3.53
223.046	-15.73
223.43	3.76
223.815	-2.9
224.199	3.05
224.583	0.05
224.968	3.7
225.352	-11.45
225.736	1.35
226.121	-14.48
226.505	2.93
226.889	-3.36
227.273	-0.63
227.657	1.97
228.041	2.46
228.425	1.45
228.809	-0.53
229.193	0.97
229.577	0.69
229.961	-0.25
230.344	1.49
230.728	2.84
231.112	3.93
231.495	2.68
231.879	2.21
232.263	1.3
232.646	1.16
233.03	4.29
233.413	0.55
233.797	-0.33
234.18	-1.67
234.563	0.05
234.946	2.68
235.33	3.97
235.713	3.5
236.096	1.06
236.479	0.67
236.862	1.85
237.245	1.05
237.628	1.85
238.011	4.26
238.394	-0.74
238.777	0.65
239.16	1.36
239.543	2.53
239.925	3.45
240.308	0.37
240.691	1.97
241.073	2.2
241.456	1.25
241.838	1.81
242.221	1.48
242.603	1.09
242.986	1.3
243.368	2.71
243.75	1.71
244.133	1.74
244.515	2.42
244.897	2.38
245.279	2.67
245.661	1.34
246.043	1.24
246.425	3.36
246.807	1.35
247.189	2.11
247.571	2.13
247.953	1.6
248.335	2.19
248.717	1.95
249.098	2.33
249.48	1.98
249.862	1.95
250.243	1.44
250.625	2.67
251.006	1.71
251.388	2.65
251.769	1.3
252.151	1.22
252.532	2.1
252.913	1.71
253.295	3.2
253.676	1.62
254.057	1.44
254.438	1.9
254.819	2.18
255.2	1.77
255.581	2.59
255.962	1.53
256.343	1.87
256.724	1.07
257.105	1.69
257.486	1.03
257.867	0.7
258.247	0.55
258.628	2.15
259.009	0.86
259.389	2.29
259.77	1.44
260.15	0.76
260.531	2.67
260.911	2.19
261.292	1.68
261.672	1.77
262.052	1.72
262.432	1.75
262.813	1.82
263.193	1.84
263.573	1.71
263.953	2.36
264.333	3.61
264.713	1.37
265.093	1
265.473	2.36
265.853	1.25
266.233	1.36
266.612	0.65
266.992	1.6
267.372	1.97
267.752	2.51
268.131	1.17
268.511	1.61
268.89	0.93
269.27	1.77
269.649	2.01
270.029	1.45
270.408	2.2
270.787	1.31
271.167	1.84
271.546	1.91
271.925	2.52
272.304	2.15
272.683	1.07
273.062	1.65
273.441	1.83
273.82	1.06
274.199	1.52
274.578	1.73
274.957	1.61
275.336	2
275.715	1.88
276.093	1.07
276.472	1.12
276.851	1.9
277.229	1.28
277.608	1.67
277.986	1.43
278.365	1.46
278.743	1.4
279.122	1.24
279.5	1.03
279.878	1.44
280.257	1.38
280.635	1.18
281.013	2
281.391	1.9
281.769	1.33
282.147	1.07
282.525	0.71
282.903	1.28
283.281	0.78
283.659	1.62
284.037	1.98
284.415	1.36
284.792	1.85
285.17	0.98
285.548	1.8
285.925	1.54
286.303	1.48
286.68	1.62
287.058	1.76
287.435	1.46
287.813	1.23
288.19	1.6
288.567	1.42
288.945	1.58
289.322	0.87
289.699	1.16
290.076	1.79
290.453	1.85
290.83	1.31
291.207	1.88
291.584	1.38
291.961	1.55
292.338	1.7
292.715	1.42
293.092	1.29
293.469	1.6
293.845	1.75
294.222	1.15
294.599	1.6
294.975	1.42
295.352	1.51
295.728	1.37
296.105	1.62
296.481	1.65
296.858	1.23
297.234	1.62
297.61	1.73
297.986	1.99
298.363	1.71
298.739	1.38
299.115	1.17
299.491	1.61
299.867	1.39
300.243	1.33
300.619	1.59
300.995	1.78
301.371	2.18
301.746	1.67
302.122	2.54
302.498	1.59
302.874	1.22
303.249	1.83
303.625	0.8
304	1.67
304.376	1.5
304.751	1.85
305.127	1.33
305.502	2.17
305.878	1.6
306.253	1.78
306.628	1.95
307.003	1.56
307.378	1.16
307.754	1.51
308.129	1.51
308.504	2.24
308.879	1.29
309.254	2.27
309.629	1.25
310.003	1.64
310.378	1.98
310.753	1.68
311.128	2.2
311.502	1.51
311.877	1.32
312.252	0.96
312.626	1.99
313.001	1.64
313.375	1.33
313.75	1.61
314.124	2.07
314.498	1.92
314.873	1.63
315.247	1.76
315.621	1.77
315.995	2.16
316.369	1.72
316.743	1.06
317.117	1.19
317.491	1.43
317.865	0.97
318.239	1.4
318.613	2.24
318.987	2.53
319.361	1.04
319.734	0.64
320.108	1.39
320.482	1.06
320.855	1.39
321.229	1.84
321.602	1.2
321.976	1.5
322.349	1.67
322.723	1.67
323.096	1.44
323.469	1.36
323.843	2.12
324.216	1.8
324.589	1.71
324.962	2.48
325.335	1.76
325.708	1.74
326.081	2.01
326.454	2.24
326.827	1.74
327.2	1.78
327.573	1.45
327.945	1.33
328.318	2.06
328.691	1.07
329.063	1.87
329.436	1.93
329.809	1.86
330.181	1.48
330.553	1.7
330.926	1.69
331.298	1.66
331.671	1.31
332.043	1.63
332.415	1.82
332.787	1.24
333.159	1.75
333.532	1.69
333.904	1.25
334.276	2.72
334.648	0.73
335.02	1.37
335.391	1.91
335.763	1.8
336.135	1.82
336.507	1.97
336.879	1.34
337.25	1.59
337.622	2.1
337.993	1.45
338.365	1.63
338.736	2.14
339.108	2.03
339.479	1.94
339.851	1.28
340.222	1.25
340.593	2.34
340.964	1.65
341.336	1.45
341.707	1.55
342.078	1.69
342.449	1.46
342.82	2.11
343.191	1.92
343.562	1.63
343.933	2.34
344.303	1.94
344.674	1.84
345.045	1.55
345.416	1.77
345.786	1.47
346.157	1.68
346.527	1.75
346.898	1.37
347.268	1.6
347.639	1.51
348.009	1.89
348.38	1.7
348.75	2.06
349.12	1.93
349.49	1.73
349.861	2.03
350.231	1.29
350.601	1.73
350.971	1.76
351.341	1.71
351.711	2.4
352.081	1.55
352.45	2.03
352.82	2.05
353.19	1.92
353.56	1.75
353.929	1.52
354.299	1.62
354.669	1.76
355.038	1.47
355.408	1.78
355.777	2.14
356.147	1.51
356.516	1.98
356.885	1.74
357.254	1.84
357.624	1.31
357.993	1.8
358.362	1.77
358.731	1.55
359.1	1.71
359.469	1.83
359.838	1.79
360.207	1.93
360.576	2.15
360.945	1.58
361.314	2.2
361.682	1.72
362.051	1.99
362.42	2.02
362.788	1.98
363.157	2.17
363.525	2.08
363.894	1.93
364.262	1.69
364.631	1.53
364.999	1.95
365.367	2.14
365.735	1.79
366.104	2.12
366.472	1.39
366.84	1.76
367.208	1.64
367.576	1.82
367.944	2.21
368.312	1.92
368.68	1.83
369.048	2.12
369.416	1.66
369.783	1.77
370.151	1.84
370.519	1.51
370.886	1.95
371.254	1.83
371.621	1.94
371.989	1.87
372.356	1.58
372.724	1.51
373.091	1.7
373.458	2.11
373.826	1.66
374.193	1.75
374.56	2.06
374.927	1.84
375.294	1.78
375.661	1.84
376.028	2.02
376.395	2
376.762	2.63
377.129	1.88
377.496	1.69
377.863	1.87
378.229	2.1
378.596	1.68
378.963	1.91
379.329	1.92
379.696	1.78
380.062	2.21
380.429	1.97
380.795	1.97
381.161	2.37
381.528	2.17
381.894	1.96
382.26	1.8
382.626	2.17
382.993	1.82
383.359	1.84
383.725	1.65
384.091	1.84
384.457	2.01
384.823	1.78
385.188	2.01
385.554	2.05
385.92	1.97
386.286	2.27
386.651	2.17
387.017	2.34
387.383	1.78
387.748	1.88
388.114	2.28
388.479	2.24
388.845	2.16
389.21	1.82
389.575	1.85
389.94	2.23
390.306	2
390.671	1.75
391.036	2.2
391.401	2.14
391.766	2.03
392.131	2.02
392.496	2.2
392.861	1.81
393.226	2.17
393.591	1.88
393.956	1.92
394.32	1.95
394.685	2.23
395.05	1.85
395.414	2.04
395.779	1.91
396.143	2.19
396.508	1.85
396.872	1.96
397.236	2
397.601	2
397.965	2.09
398.329	2.06
398.694	1.71
399.058	2.36
399.422	1.61
399.786	2.13
400.15	1.97
400.514	2.34
400.878	1.96
401.242	1.78
401.605	2.21
401.969	1.91
402.333	1.75
402.697	2.01
403.06	1.95
403.424	2.25
403.787	2.03
404.151	2.37
404.514	2.02
404.878	2.07
405.241	2.06
405.604	1.96
405.968	2
406.331	2.04
406.694	2.48
407.057	1.85
407.42	1.83
407.783	1.8
408.146	2
408.509	2.08
408.872	2.18
409.235	1.81
409.598	1.82
409.961	2.21
410.323	2.17
410.686	1.95
411.049	2.39
411.411	2.2
411.774	1.95
412.136	2.31
412.499	2.11
412.861	2
413.223	2.25
413.586	2.04
413.948	2.18
414.31	2.22
414.672	2.26
415.035	1.99
415.397	2.14
415.759	2.02
416.121	2.34
416.483	2
416.845	2.11
417.206	2.06
417.568	2.06
417.93	2.15
418.292	2.13
418.653	2.21
419.015	2.16
419.377	2.08
419.738	2
420.1	2.07
420.461	2.15
420.822	2.11
421.184	2.08
421.545	2.37
421.906	2.02
422.267	2.1
422.629	2.08
422.99	2.18
423.351	2.09
423.712	2.08
424.073	2.04
424.434	2.14
424.795	2.24
425.155	1.96
425.516	2.08
425.877	2.11
426.238	2.14
426.598	2.09
426.959	2.18
427.32	2.06
427.68	2.13
428.041	2.18
428.401	2.16
428.761	2.11
429.122	2.32
429.482	2.38
429.842	2.32
430.202	1.94
430.563	2.28
430.923	2
431.283	2.18
431.643	2.16
432.003	2.09
432.363	2.36
432.722	1.93
433.082	2.18
433.442	2.16
433.802	2.34
434.161	2.16
434.521	2.29
434.881	2.13
435.24	2.1
435.6	2.12
435.959	2.19
436.319	2.2
436.678	2.27
437.037	2.05
437.396	2.11
437.756	2.1
438.115	2.2
438.474	2.1
438.833	2.31
439.192	2.28
439.551	2.03
439.91	1.97
440.269	2.16
440.628	2.12
440.987	2.09
441.345	2.32
441.704	2.25
442.063	2.15
442.421	2.13
442.78	2.13
443.138	2.07
443.497	2.29
443.855	2.21
444.214	2.22
444.572	2.16
444.93	2.2
445.288	1.97
445.647	2.17
446.005	2.08
446.363	2.03
446.721	2.03
447.079	2.19
447.437	2.12
447.795	2.24
448.153	2.11
448.51	2.1
448.868	2.15
449.226	2.19
449.584	2.24
449.941	2.18
450.299	2.25
450.656	2.19
451.014	2.19
451.371	2.08
451.729	2.37
452.086	2.31
452.443	2.25
452.801	2.18
453.158	2.06
453.515	2.08
453.872	2.18
454.229	2.19
454.586	2.09
454.943	2.15
455.3	2.06
455.657	2.18
456.014	2.35
456.371	2.39
456.727	2.34
457.084	2.07
457.441	2.15
457.797	2.2
458.154	2.22
458.51	2.2
458.867	2.26
459.223	2.25
459.58	2.25
459.936	2.09
460.292	2.2
460.648	2.24
461.005	2.11
461.361	2.18
461.717	2.22
462.073	2.21
462.429	2.12
462.785	2.13
463.141	2.2
463.496	2.22
463.852	2.14
464.208	2.34
464.564	2.29
464.919	2.31
465.275	2.29
465.631	2.44
465.986	2.14
466.342	2.1
466.697	2.26
467.052	2.49
467.408	2.33
467.763	2.27
468.118	2.31
468.473	2.23
468.829	2.27
469.184	2.13
469.539	2.14
469.894	2.31
470.249	2.17
470.603	2.36
470.958	2.35
471.313	2.49
471.668	2.41
472.023	2.21
472.377	2.3
472.732	2.27
473.086	2.21
473.441	2.28
473.795	2.31
474.15	2.34
474.504	2.14
474.859	2.41
475.213	2.2
475.567	2.26
475.921	2.2
476.275	2.17
476.63	2.19
476.984	2.23
477.338	2.23
477.692	2.29
478.045	2.45
478.399	2.22
478.753	2.21
479.107	2.23
479.461	2.34
479.814	2.38
480.168	2.23
480.521	2.28
480.875	2.32
481.228	2.41
481.582	2.26
481.935	2.26
482.289	2.21
482.642	2.42
482.995	2.42
483.348	2.23
483.701	2.43
484.055	2.33
484.408	2.2
484.761	2.35
485.114	2.21
485.466	2.15
485.819	2.14
486.172	2.15
486.525	2.18
486.878	2.18
487.23	2.18
487.583	2.12
487.936	2.25
488.288	2.15
488.641	2.2
488.993	2.21
489.345	2.22
489.698	2.14
490.05	2.16
490.402	2.21
490.754	2.23
491.107	2.23
491.459	2.27
491.811	2.37
492.163	2.29
492.515	2.31
492.866	2.24
493.218	2.21
493.57	2.23
493.922	2.19
494.274	2.22
494.625	2.28
494.977	2.4
495.328	2.29
495.68	2.26
496.031	2.52
496.383	2.33
496.734	2.36
497.086	2.27
497.437	2.33
497.788	2.31
498.139	2.25
498.49	2.44
498.842	2.36
499.193	2.29
499.544	2.36
499.894	2.3
500.245	2.33
500.596	2.34
500.947	2.3
501.298	2.38
501.648	2.41
501.999	2.28
502.35	2.35
502.7	2.35
503.051	2.25
503.401	2.39
503.752	2.54
504.102	2.38
504.452	2.43
504.803	2.42
505.153	2.41
505.503	2.45
505.853	2.49
506.203	2.47
506.553	2.39
506.903	2.51
507.253	2.29
507.603	2.41
507.953	2.22
508.303	2.48
508.652	2.29
509.002	2.42
509.352	2.35
509.701	2.41
510.051	2.41
510.4	2.36
510.75	2.34
511.099	2.36
511.449	2.37
511.798	2.44
512.147	2.52
512.496	2.54
512.846	2.48
513.195	2.33
513.544	2.42
513.893	2.47
514.242	2.32
514.591	2.44
514.939	2.4
515.288	2.43
515.637	2.32
515.986	2.4
516.334	2.47
516.683	2.4
517.032	2.56
517.38	2.34
517.729	2.44
518.077	2.39
518.426	2.41
518.774	2.52
519.122	2.55
519.47	2.48
519.819	2.39
520.167	2.42
520.515	2.4
520.863	2.42
521.211	2.36
521.559	2.46
521.907	2.39
522.255	2.45
522.602	2.54
522.95	2.49
523.298	2.49
523.645	2.54
523.993	2.52
524.341	2.38
524.688	2.5
525.036	2.58
525.383	2.55
525.73	2.42
526.078	2.48
526.425	2.46
526.772	2.48
527.119	2.46
527.466	2.47
527.814	2.32
528.161	2.5
528.508	2.5
528.854	2.48
529.201	2.5
529.548	2.48
529.895	2.41
530.242	2.36
530.588	2.37
530.935	2.4
531.282	2.43
531.628	2.42
531.975	2.42
532.321	2.43
532.667	2.36
533.014	2.52
533.36	2.46
533.706	2.4
534.052	2.45
534.399	2.5
534.745	2.51
535.091	2.45
535.437	2.5
535.783	2.42
536.129	2.58
536.474	2.54
536.82	2.6
537.166	2.6
537.512	2.55
537.857	2.62
538.203	2.47
538.549	2.53
538.894	2.56
539.239	2.6
539.585	2.54
539.93	2.65
540.276	2.56
540.621	2.68
540.966	2.49
541.311	2.7
541.656	2.61
542.001	2.56
542.346	2.59
542.691	2.57
543.036	2.51
543.381	2.45
543.726	2.58
544.071	2.58
544.415	2.54
544.76	2.58
545.105	2.57
545.449	2.68
545.794	2.71
546.138	2.49
546.483	2.57
546.827	2.62
547.171	2.74
547.516	2.66
547.86	2.71
548.204	2.77
548.548	2.7
548.892	2.7
549.236	2.64
549.58	2.74
549.924	2.71
550.268	2.85
550.612	2.71
550.956	2.84
551.3	2.84
551.643	2.85
551.987	2.81
552.33	2.9
552.674	2.73
553.017	2.99
553.361	3.01
553.704	2.77
554.048	2.86
554.391	3.06
554.734	2.91
555.077	2.84
555.42	2.76
555.764	2.86
556.107	2.89
556.45	2.74
556.793	2.7
557.135	2.87
557.478	2.93
557.821	2.72
558.164	3.1
558.507	3.07
558.849	3.08
559.192	3.15
559.534	2.94
559.877	2.95
560.219	2.96
560.562	2.98
560.904	3.07
561.246	2.9
561.589	3.02
561.931	2.84
562.273	2.9
562.615	2.94
562.957	2.9
563.299	3.02
563.641	3.11
563.983	2.95
564.325	3.16
564.667	2.98
565.008	2.97
565.35	2.87
565.692	2.98
566.033	3.22
566.375	3.06
566.716	3.03
567.058	3.27
567.399	3.24
567.741	3.03
568.082	2.92
568.423	3.02
568.764	3.19
569.105	3.12
569.447	3.31
569.788	3.27
570.129	3.05
570.47	3.38
570.811	3.26
571.151	3.15
571.492	3.25
571.833	3.18
572.174	3.15
572.514	3.23
572.855	3.2
573.195	3.23
573.536	3.14
573.876	3.25
574.217	3.35
574.557	3.31
574.898	3.24
575.238	3.38
575.578	3.27
575.918	3.41
576.258	3.38
576.598	3.3
576.938	3.41
577.278	3.38
577.618	3.36
577.958	3.39
578.298	3.37
578.638	3.37
578.977	3.31
579.317	3.58
579.657	3.35
579.996	3.4
580.336	3.37
580.675	3.32
581.014	3.25
581.354	3.3
581.693	3.41
582.032	3.21
582.372	3.41
582.711	3.47
583.05	3.71
583.389	3.55
583.728	3.43
584.067	3.62
584.406	3.73
584.745	3.79
585.083	3.3
585.422	3.49
585.761	3.64
586.1	3.45
586.438	3.47
586.777	3.59
587.115	3.7
587.454	3.59
587.792	3.64
588.13	3.71
588.469	3.67
588.807	3.44
589.145	3.64
589.483	3.71
589.821	3.93
590.159	3.43
590.497	3.73
590.835	3.81
591.173	3.54
591.511	3.47
591.849	3.68
592.187	3.86
592.524	3.53
592.862	3.71
593.2	3.5
593.537	3.62
593.875	3.81
594.212	3.82
594.55	4
594.887	4.06
595.224	4.05
595.561	4.11
595.899	3.56
596.236	3.96
596.573	3.78
596.91	4.24
597.247	4.08
597.584	3.92
597.921	3.94
598.258	4.15
598.594	4.07
598.931	3.89
599.268	3.79
599.604	3.88
599.941	3.89
600.277	4.03
600.614	4.04
600.95	4.19
601.287	4.08
601.623	4.26
601.959	4.07
602.296	4.45
602.632	4.12
602.968	4.23
603.304	3.95
603.64	4.17
603.976	4.14
604.312	4.41
604.648	4.18
604.984	4.19
605.319	4.12
605.655	4.12
605.991	4.4
606.326	3.99
606.662	4.29
606.998	4.13
607.333	4.31
607.668	4.39
608.004	4.55
608.339	4.33
608.674	4.35
609.01	4.4
609.345	4.46
609.68	4.41
610.015	4.11
610.35	4.11
610.685	4.38
611.02	4.52
611.355	4.19
611.689	4.43
612.024	4.17
612.359	4.62
612.694	4.33
613.028	4.55
613.363	4.36
613.697	4.64
614.032	4.58
614.366	4.55
614.7	4.37
615.035	4.68
615.369	4.88
615.703	4.8
616.037	4.46
616.371	4.47
616.705	4.74
617.039	4.9
617.373	4.82
617.707	4.73
618.041	4.67
618.375	4.33
618.709	4.81
619.042	4.66
619.376	4.78
619.71	4.68
620.043	4.52
620.377	4.74
620.71	4.39
621.043	4.87
621.377	4.76
621.71	4.49
622.043	5.17
622.376	5.5
622.709	5.24
623.043	4.92
623.376	5.4
623.709	5.13
624.041	4.88
624.374	4.77
624.707	4.54
625.04	4.9
625.373	5.24
625.705	5.45
626.038	4.93
626.37	5.28
626.703	5.33
627.035	5.24
627.368	5.04
627.7	5.01
628.032	5
628.365	5.05
628.697	5.04
629.029	5.22
629.361	5.03
629.693	5.32
630.025	4.74
630.357	5.44
630.689	5.04
631.021	5.45
631.353	5.41
631.684	5.41
632.016	5.32
632.348	5.26
632.679	5.27
633.011	5.54
633.342	5.55
633.674	5.39
634.005	5.29
634.336	5.44
634.668	5.31
634.999	5.4
635.33	5.48
635.661	5.8
635.992	5.69
636.323	5.21
636.654	5.84
636.985	5.53
637.316	5.51
637.647	5.51
637.977	5.49
638.308	6.03
638.639	5.48
638.969	5.46
639.3	5.67
639.63	5.81
639.961	5.77
640.291	5.39
640.622	5.67
640.952	6.19
641.282	5.66
641.612	5.7
641.943	5.86
642.273	6.24
642.603	6.28
642.933	5.34
643.263	5.95
643.592	6.02
643.922	6.42
644.252	6.79
644.582	5.62
644.911	5.79
645.241	5.57
645.571	6.43
645.9	5.86
646.23	5.91
646.559	6.33
646.888	5.83
647.218	6.15
647.547	6.08
647.876	6
648.205	5.96
648.534	6.39
648.863	6.17
649.192	6.47
649.521	6.65
649.85	5.74
650.179	6.19
650.508	6.45
650.837	6.19
651.165	5.93
651.494	6.2
651.822	6.55
652.151	6.02
652.479	6.43
652.808	6.43
653.136	6.68
653.465	6.52
653.793	6.05
654.121	6.36
654.449	6.45
654.777	6.9
655.105	6.63
655.433	6.26
655.761	6.32
656.089	6.67
656.417	6.89
656.745	6.84
657.073	6.01
657.4	6.6
657.728	6.32
658.056	6.65
658.383	6.35
658.711	6.55
659.038	6.6
659.365	6.75
659.693	6.7
660.02	6.87
660.347	6.86
660.674	6.86
661.001	6.98
661.329	6.55
661.656	6.67
661.982	6.71
662.309	6.94
662.636	6.78
662.963	7
663.29	7.26
663.616	7.25
663.943	7.59
664.27	7.45
664.596	7.1
664.923	7.95
665.249	6.58
665.576	6.63
665.902	7.02
666.228	7.63
666.554	7.12
666.881	6.56
667.207	7.56
667.533	7.22
667.859	7.28
668.185	7.86
668.511	7.51
668.837	6.8
669.162	8.33
669.488	7.09
669.814	7.45
670.139	7.21
670.465	6.72
670.791	7.54
671.116	7.08
671.442	7.41
671.767	7.34
672.092	8.1
672.418	6.88
672.743	7.66
673.068	6.58
673.393	7.13
673.718	7.78
674.043	7.79
674.368	6.79
674.693	7.71
675.018	7.48
675.343	7.77
675.667	7.4
675.992	7.34
676.317	7.46
676.641	7.66
676.966	7.39
677.29	7.49
677.615	7.82
677.939	7.87
678.264	8.24
678.588	7.67
678.912	8.45
679.236	7.79
679.56	8.21
679.885	8.21
680.209	8.24
680.532	7.93
680.856	7.79
681.18	7.71
681.504	8.01
681.828	7.89
682.152	8.11
682.475	8.52
682.799	8.62
683.122	8.2
683.446	7.69
683.769	8.66
684.093	7.91
684.416	8.14
684.739	8.47
685.062	8.73
685.386	7.62
685.709	8.45
686.032	7.99
686.355	8.18
686.678	8.81
687.001	8.49
687.324	8.46
687.646	8.82
687.969	7.9
688.292	8.99
688.614	8.22
688.937	7.86
689.26	8.22
689.582	8.34
689.904	7.99
690.227	8.62
690.549	8.42
690.871	7.97
691.194	8.79
691.516	8.94
691.838	7.88
692.16	9.19
