Data from 0401_forehead_Reflection__2__210.txt Node

Date: Tue Dec 12 20:07:56 CST 2023
User: ToomeyLab
Spectrometer: FLMS14357
Trigger mode: 0
Integration Time (sec): 1.000000E-2
Scans to average: 100
Electric dark correction enabled: true
Nonlinearity correction enabled: false
Boxcar width: 0
XAxis mode: Wavelengths
Number of Pixels in Spectrum: 2048
>>>>>Begin Spectral Data<<<<<
189.047	391.9
189.435	391.9
189.823	391.9
190.211	341.78
190.599	269.91
190.987	133.97
191.375	-845.68
191.763	22.44
192.151	169.81
192.538	-60.03
192.926	249.02
193.314	-783.23
193.702	204.12
194.089	14.47
194.477	132.74
194.864	88.21
195.252	-197.49
195.639	-621.92
196.027	-1083.9
196.414	3.76
196.801	179.29
197.189	1128.78
197.576	1186.84
197.963	39.87
198.351	37.25
198.738	15.77
199.125	35.87
199.512	-6.65
199.899	55.55
200.286	-40.83
200.673	-71.94
201.06	32.26
201.447	-54.12
201.833	-59.72
202.22	12.03
202.607	-220.08
202.994	36.29
203.38	34.76
203.767	-13.5
204.154	23.38
204.54	29.47
204.927	30.46
205.313	73.66
205.699	-17.4
206.086	-14.36
206.472	55.09
206.858	11.68
207.245	80.92
207.631	19.2
208.017	1.05
208.403	-60.01
208.789	2.59
209.175	27.68
209.561	22.13
209.947	-23.56
210.333	46.02
210.719	22.05
211.105	10.97
211.491	10.58
211.876	27.58
212.262	87.8
212.648	-17.31
213.034	-26.6
213.419	4.76
213.805	11.53
214.19	3.14
214.576	21.34
214.961	20.57
215.346	-0.73
215.732	8.63
216.117	35.31
216.502	-36.49
216.888	-37.57
217.273	-3.26
217.658	-81.54
218.043	-1.32
218.428	17.9
218.813	35.07
219.198	-39.95
219.583	40.6
219.968	18.59
220.353	4.64
220.738	16.52
221.122	28.06
221.507	12.79
221.892	4.73
222.276	14.78
222.661	6.31
223.046	-2.63
223.43	14.95
223.815	-8.22
224.199	11.56
224.583	-5.75
224.968	13.05
225.352	2.02
225.736	7.58
226.121	1.61
226.505	-6.61
226.889	8.85
227.273	5.45
227.657	13.49
228.041	10.66
228.425	6.15
228.809	5.65
229.193	3.71
229.577	6.89
229.961	6.65
230.344	6.6
230.728	7.63
231.112	7.3
231.495	5.59
231.879	7.52
232.263	6.86
232.646	5.16
233.03	5.11
233.413	6.6
233.797	5.85
234.18	4.8
234.563	7.45
234.946	7.11
235.33	8.45
235.713	4.58
236.096	4.82
236.479	5.93
236.862	6.4
237.245	7.4
237.628	6.71
238.011	6.41
238.394	2.47
238.777	4.98
239.16	5.42
239.543	7.23
239.925	8.29
240.308	8.64
240.691	5.15
241.073	7.4
241.456	6.01
241.838	6.44
242.221	5.55
242.603	7.18
242.986	5.55
243.368	6.56
243.75	6.04
244.133	6.19
244.515	6.27
244.897	6.36
245.279	6.58
245.661	5.86
246.043	5.29
246.425	7.65
246.807	5.87
247.189	6.16
247.571	6.23
247.953	6.19
248.335	6.09
248.717	5.92
249.098	5.75
249.48	5.82
249.862	5.67
250.243	5.29
250.625	6.76
251.006	6.33
251.388	6.28
251.769	4.9
252.151	5.54
252.532	5.31
252.913	7.17
253.295	6.92
253.676	5.5
254.057	5.73
254.438	6.18
254.819	5.7
255.2	5.81
255.581	6.13
255.962	4.84
256.343	6.69
256.724	5.69
257.105	6.67
257.486	5.01
257.867	5.42
258.247	4.14
258.628	4.67
259.009	4.72
259.389	6.58
259.77	4.71
260.15	5.83
260.531	6.35
260.911	6.14
261.292	5.3
261.672	5.32
262.052	5.6
262.432	5.71
262.813	5.73
263.193	5.18
263.573	5.59
263.953	6.68
264.333	6.59
264.713	6.26
265.093	5.58
265.473	6.32
265.853	5
266.233	5.23
266.612	5.19
266.992	5.46
267.372	5.98
267.752	5.95
268.131	5.1
268.511	5.77
268.89	4.96
269.27	4.49
269.649	6.03
270.029	4.82
270.408	6.11
270.787	4.99
271.167	6.17
271.546	4.94
271.925	5.46
272.304	5.52
272.683	5.12
273.062	5.55
273.441	5.9
273.82	5.24
274.199	5.55
274.578	5.43
274.957	5.86
275.336	5.66
275.715	5.49
276.093	5.13
276.472	5.29
276.851	6.09
277.229	4.84
277.608	5.12
277.986	4.72
278.365	5.64
278.743	5.58
279.122	5.61
279.5	4.85
279.878	5.4
280.257	5.28
280.635	5.17
281.013	5.88
281.391	5.95
281.769	5.14
282.147	5.66
282.525	5.33
282.903	5.85
283.281	5.12
283.659	5.59
284.037	5.49
284.415	5.69
284.792	6.04
285.17	5.01
285.548	5.3
285.925	5.51
286.303	5.88
286.68	5.72
287.058	5.76
287.435	6.09
287.813	5.24
288.19	5.66
288.567	5.52
288.945	5.84
289.322	5.24
289.699	5.9
290.076	5.45
290.453	6.36
290.83	5.61
291.207	6.16
291.584	5.54
291.961	5.89
292.338	6.22
292.715	5.74
293.092	5.85
293.469	5.6
293.845	5.81
294.222	5.77
294.599	5.63
294.975	5.63
295.352	5.67
295.728	5.98
296.105	6.13
296.481	6.24
296.858	6.22
297.234	6.53
297.61	6.06
297.986	6.48
298.363	6.32
298.739	6.01
299.115	5.89
299.491	6.14
299.867	6.37
300.243	5.91
300.619	6.39
300.995	6.47
301.371	6.15
301.746	6.35
302.122	6.68
302.498	6.87
302.874	6.48
303.249	7.12
303.625	6.11
304	6.91
304.376	6.95
304.751	6.85
305.127	6.75
305.502	7.3
305.878	6.09
306.253	6.5
306.628	6.27
307.003	6.8
307.378	6.87
307.754	7.21
308.129	7.02
308.504	7.33
308.879	7.05
309.254	7.4
309.629	7.08
310.003	6.85
310.378	7.58
310.753	7.24
311.128	7.33
311.502	6.64
311.877	6.74
312.252	6.67
312.626	7.16
313.001	6.53
313.375	6.92
313.75	7.03
314.124	7.43
314.498	7.16
314.873	7.18
315.247	7.68
315.621	7.18
315.995	7.42
316.369	7.76
316.743	7.09
317.117	7.07
317.491	7.34
317.865	7.16
318.239	7.41
318.613	7.64
318.987	8.33
319.361	7.95
319.734	8.17
320.108	8.03
320.482	7.66
320.855	7.29
321.229	7.93
321.602	7.87
321.976	7.96
322.349	8.25
322.723	7.69
323.096	7.98
323.469	7.83
323.843	8.52
324.216	8.38
324.589	7.75
324.962	8.33
325.335	8.21
325.708	7.87
326.081	7.96
326.454	8.68
326.827	8.76
327.2	8.3
327.573	8
327.945	8.55
328.318	8.4
328.691	7.71
329.063	8.56
329.436	8.54
329.809	8.67
330.181	8.13
330.553	8.31
330.926	8.89
331.298	8.35
331.671	8.74
332.043	8.49
332.415	9.03
332.787	9.1
333.159	8.36
333.532	8.59
333.904	8.64
334.276	8.83
334.648	8.54
335.02	8.36
335.391	8.72
335.763	8.41
336.135	8.54
336.507	9.03
336.879	8.53
337.25	8.72
337.622	8.84
337.993	8.84
338.365	8.41
338.736	8.78
339.108	9.05
339.479	9.01
339.851	8.4
340.222	8.59
340.593	8.98
340.964	9.18
341.336	9.51
341.707	8.62
342.078	8.56
342.449	9.11
342.82	9.01
343.191	9.05
343.562	9.62
343.933	9.42
344.303	9.94
344.674	9.24
345.045	9.66
345.416	9.26
345.786	9.61
346.157	9.38
346.527	9.47
346.898	9.21
347.268	9.75
347.639	9.54
348.009	9.54
348.38	9.11
348.75	9.98
349.12	9.43
349.49	9.51
349.861	9.99
350.231	10.04
350.601	10.15
350.971	9.82
351.341	9.5
351.711	9.99
352.081	9.82
352.45	9.54
352.82	10.13
353.19	10.11
353.56	9.77
353.929	9.66
354.299	10
354.669	9.87
355.038	9.72
355.408	9.81
355.777	10.41
356.147	10.08
356.516	10.48
356.885	10.42
357.254	10.19
357.624	9.95
357.993	9.73
358.362	10.13
358.731	10.12
359.1	10
359.469	10.44
359.838	10.18
360.207	10.17
360.576	10.85
360.945	10.24
361.314	10.6
361.682	10.62
362.051	10.32
362.42	10.77
362.788	10.5
363.157	10.73
363.525	10.56
363.894	10.6
364.262	10.73
364.631	10.41
364.999	10.71
365.367	10.96
365.735	10.96
366.104	10.92
366.472	10.78
366.84	11.03
367.208	10.66
367.576	11.03
367.944	11.26
368.312	11.16
368.68	11.33
369.048	11.18
369.416	11.1
369.783	11.3
370.151	11.01
370.519	10.87
370.886	11.24
371.254	10.75
371.621	11.35
371.989	11.47
372.356	11.41
372.724	11.18
373.091	11.27
373.458	11.36
373.826	11.65
374.193	10.9
374.56	11.39
374.927	11.85
375.294	11.74
375.661	11.57
376.028	11.8
376.395	11.76
376.762	12.41
377.129	11.78
377.496	11.9
377.863	11.53
378.229	11.81
378.596	11.7
378.963	11.75
379.329	11.72
379.696	11.85
380.062	12.27
380.429	11.81
380.795	12.14
381.161	12.11
381.528	12.04
381.894	12.31
382.26	11.91
382.626	11.95
382.993	12.34
383.359	12.01
383.725	12.47
384.091	12.16
384.457	12.26
384.823	12.48
385.188	12.28
385.554	12.58
385.92	12.55
386.286	12.37
386.651	12.5
387.017	12.81
387.383	12.32
387.748	12.82
388.114	12.83
388.479	13.13
388.845	12.75
389.21	12.55
389.575	12.57
389.94	12.57
390.306	13.17
390.671	12.85
391.036	13.11
391.401	13
391.766	12.82
392.131	12.93
392.496	13.02
392.861	12.84
393.226	13.55
393.591	13.16
393.956	13.24
394.32	13.41
394.685	13.22
395.05	13.21
395.414	13.12
395.779	13.35
396.143	13.29
396.508	13.06
396.872	13.25
397.236	13.59
397.601	13.39
397.965	13.24
398.329	13.63
398.694	13.42
399.058	13.58
399.422	13.72
399.786	13.77
400.15	13.62
400.514	14.04
400.878	13.58
401.242	13.46
401.605	13.95
401.969	13.88
402.333	13.63
402.697	13.97
403.06	14.06
403.424	13.9
403.787	13.69
404.151	13.83
404.514	13.8
404.878	13.88
405.241	13.97
405.604	14.15
405.968	14.02
406.331	14.31
406.694	14.37
407.057	13.98
407.42	14.28
407.783	14.31
408.146	14.12
408.509	14.41
408.872	14.22
409.235	14.24
409.598	14.15
409.961	14.29
410.323	14.41
410.686	14.49
411.049	14.58
411.411	14.85
411.774	14.65
412.136	14.73
412.499	14.56
412.861	14.7
413.223	14.94
413.586	14.51
413.948	14.68
414.31	14.91
414.672	15.08
415.035	14.76
415.397	15.06
415.759	14.84
416.121	14.77
416.483	14.96
416.845	14.91
417.206	15.07
417.568	15.15
417.93	15.27
418.292	15.28
418.653	15.22
419.015	15.16
419.377	15
419.738	15.06
420.1	15.06
420.461	15.09
420.822	15.33
421.184	15.04
421.545	15.3
421.906	15.32
422.267	15.12
422.629	15.16
422.99	15.26
423.351	15.2
423.712	15.19
424.073	15.44
424.434	15.45
424.795	15.52
425.155	15.26
425.516	15.44
425.877	15.49
426.238	15.52
426.598	15.35
426.959	15.64
427.32	15.71
427.68	15.51
428.041	15.68
428.401	15.99
428.761	16.03
429.122	16.08
429.482	16.08
429.842	16.18
430.202	15.95
430.563	16.22
430.923	16.23
431.283	16.3
431.643	16.41
432.003	16.29
432.363	16.42
432.722	16.29
433.082	16.57
433.442	16.32
433.802	16.48
434.161	16.43
434.521	16.62
434.881	16.31
435.24	16.43
435.6	16.68
435.959	16.58
436.319	16.7
436.678	16.9
437.037	16.7
437.396	16.62
437.756	16.78
438.115	17.04
438.474	16.83
438.833	16.91
439.192	16.9
439.551	16.83
439.91	16.69
440.269	16.8
440.628	16.85
440.987	16.77
441.345	17.1
441.704	17.02
442.063	17.05
442.421	16.89
442.78	16.95
443.138	17.15
443.497	17.03
443.855	17.32
444.214	17.17
444.572	17.41
444.93	17.51
445.288	17.2
445.647	17.49
446.005	17.54
446.363	17.15
446.721	17.37
447.079	17.5
447.437	17.4
447.795	17.46
448.153	17.5
448.51	17.49
448.868	17.54
449.226	17.67
449.584	17.51
449.941	17.85
450.299	17.78
450.656	17.92
451.014	17.79
451.371	18
451.729	18.18
452.086	18.19
452.443	18.2
452.801	18.32
453.158	18.04
453.515	18.38
453.872	18.06
454.229	18.37
454.586	17.99
454.943	18.2
455.3	18.31
455.657	18.56
456.014	18.6
456.371	18.48
456.727	18.66
457.084	18.77
457.441	18.68
457.797	18.56
458.154	18.69
458.51	18.65
458.867	18.82
459.223	18.97
459.58	18.69
459.936	18.75
460.292	18.78
460.648	18.92
461.005	18.68
461.361	18.72
461.717	18.84
462.073	18.69
462.429	18.79
462.785	18.9
463.141	19.09
463.496	19.17
463.852	19.48
464.208	19.36
464.564	19.4
464.919	19.47
465.275	19.41
465.631	19.7
465.986	19.49
466.342	19.47
466.697	19.63
467.052	19.73
467.408	19.61
467.763	19.62
468.118	19.86
468.473	19.71
468.829	19.67
469.184	19.75
469.539	19.85
469.894	19.89
470.249	19.89
470.603	19.96
470.958	20.14
471.313	20.23
471.668	20.19
472.023	20.1
472.377	20.12
472.732	20.17
473.086	20.21
473.441	20.24
473.795	20.41
474.15	20.5
474.504	20.4
474.859	20.41
475.213	20.44
475.567	20.68
475.921	20.63
476.275	20.52
476.63	20.66
476.984	20.56
477.338	20.57
477.692	20.61
478.045	20.63
478.399	20.78
478.753	20.56
479.107	20.66
479.461	20.97
479.814	21
480.168	20.68
480.521	20.76
480.875	21.09
481.228	20.89
481.582	21.05
481.935	20.99
482.289	21.24
482.642	21.36
482.995	21.29
483.348	21.13
483.701	21.29
484.055	21.05
484.408	21.08
484.761	20.97
485.114	20.69
485.466	20.44
485.819	20.52
486.172	20.44
486.525	20.56
486.878	20.61
487.23	20.79
487.583	21
487.936	21.28
488.288	21.16
488.641	21.09
488.993	21.07
489.345	21.06
489.698	20.88
490.05	20.89
490.402	21.09
490.754	21.23
491.107	21.41
491.459	21.67
491.811	21.64
492.163	21.73
492.515	21.86
492.866	21.79
493.218	21.57
493.57	21.52
493.922	21.48
494.274	21.64
494.625	21.89
494.977	22.12
495.328	22.19
495.68	22.32
496.031	22.59
496.383	22.56
496.734	22.75
497.086	22.72
497.437	22.79
497.788	22.81
498.139	22.75
498.49	22.67
498.842	22.52
499.193	22.84
499.544	22.91
499.894	22.78
500.245	22.84
500.596	22.92
500.947	23
501.298	23.08
501.648	23.05
501.999	23.22
502.35	23.06
502.7	23.43
503.051	23.44
503.401	23.47
503.752	23.53
504.102	23.6
504.452	23.47
504.803	23.72
505.153	23.7
505.503	23.59
505.853	23.81
506.203	23.74
506.553	23.66
506.903	23.76
507.253	23.87
507.603	23.92
507.953	23.91
508.303	24.07
508.652	24.01
509.002	24.09
509.352	24.03
509.701	24.05
510.051	24.01
510.4	24.19
510.75	24.02
511.099	24.04
511.449	24.06
511.798	24.08
512.147	24.25
512.496	24.27
512.846	24.43
513.195	24.23
513.544	24.54
513.893	24.43
514.242	24.46
514.591	24.37
514.939	24.63
515.288	24.6
515.637	24.64
515.986	24.84
516.334	24.86
516.683	24.82
517.032	24.98
517.38	24.89
517.729	25.15
518.077	25.03
518.426	25.2
518.774	25.11
519.122	25.09
519.47	25.04
519.819	25.15
520.167	25
520.515	24.81
520.863	25.11
521.211	25.08
521.559	25.11
521.907	25.41
522.255	25.35
522.602	25.45
522.95	25.68
523.298	25.82
523.645	25.78
523.993	25.75
524.341	25.73
524.688	25.9
525.036	25.86
525.383	25.98
525.73	26
526.078	26.14
526.425	26.02
526.772	25.81
527.119	25.8
527.466	25.8
527.814	25.76
528.161	25.94
528.508	25.84
528.854	25.86
529.201	25.92
529.548	25.98
529.895	25.81
530.242	25.62
530.588	25.52
530.935	25.63
531.282	25.71
531.628	25.87
531.975	25.9
532.321	26.06
532.667	26.12
533.014	26.37
533.36	26.58
533.706	26.58
534.052	26.54
534.399	26.71
534.745	26.54
535.091	26.39
535.437	26.38
535.783	26.45
536.129	26.69
536.474	26.68
536.82	26.85
537.166	27.11
537.512	27.19
537.857	27.23
538.203	27.12
538.549	27.07
538.894	27.11
539.239	27.24
539.585	27.31
539.93	27.36
540.276	27.52
540.621	27.61
540.966	27.89
541.311	27.88
541.656	27.74
542.001	27.85
542.346	27.72
542.691	27.66
543.036	27.3
543.381	27.25
543.726	27.34
544.071	27.39
544.415	27.53
544.76	27.64
545.105	27.88
545.449	27.93
545.794	28.16
546.138	28.03
546.483	28.3
546.827	28.3
547.171	28.4
547.516	28.29
547.86	28.63
548.204	28.6
548.548	28.48
548.892	28.57
549.236	28.61
549.58	28.89
549.924	28.82
550.268	29
550.612	29.15
550.956	29.05
551.3	29.63
551.643	29.53
551.987	29.64
552.33	29.6
552.674	29.72
553.017	29.66
553.361	29.73
553.704	29.6
554.048	29.58
554.391	29.52
554.734	29.7
555.077	29.79
555.42	29.63
555.764	29.76
556.107	29.84
556.45	30
556.793	29.96
557.135	30.01
557.478	30.24
557.821	30.38
558.164	30.44
558.507	30.25
558.849	30.61
559.192	30.32
559.534	30.44
559.877	30.51
560.219	30.79
560.562	30.49
560.904	30.92
561.246	30.78
561.589	30.98
561.931	31.02
562.273	30.83
562.615	30.68
562.957	30.79
563.299	31.03
563.641	30.94
563.983	30.91
564.325	30.83
564.667	31.1
565.008	31.25
565.35	31.27
565.692	31.47
566.033	31.39
566.375	31.16
566.716	31.63
567.058	31.33
567.399	31.47
567.741	31.45
568.082	31.22
568.423	31.33
568.764	31.61
569.105	31.47
569.447	31.78
569.788	31.5
570.129	31.58
570.47	31.88
570.811	31.84
571.151	32.06
571.492	32.05
571.833	32.1
572.174	32.16
572.514	32.2
572.855	32.19
573.195	31.9
573.536	31.95
573.876	32.13
574.217	32.1
574.557	32.24
574.898	32.32
575.238	32.21
575.578	32.28
575.918	32.54
576.258	32.44
576.598	32.55
576.938	32.66
577.278	32.73
577.618	32.44
577.958	32.68
578.298	32.78
578.638	32.99
578.977	32.96
579.317	33.08
579.657	33.18
579.996	33.36
580.336	33.2
580.675	33.41
581.014	33.23
581.354	33.43
581.693	33.37
582.032	33.36
582.372	33.84
582.711	33.65
583.05	33.82
583.389	34.16
583.728	33.92
584.067	33.95
584.406	34.32
584.745	33.9
585.083	33.86
585.422	33.98
585.761	34.19
586.1	34.28
586.438	34.17
586.777	34.35
587.115	34.06
587.454	34.26
587.792	34.2
588.13	34.4
588.469	34.37
588.807	34.53
589.145	34.61
589.483	34.47
589.821	34.58
590.159	34.84
590.497	34.47
590.835	34.72
591.173	34.78
591.511	34.95
591.849	34.9
592.187	34.94
592.524	34.7
592.862	35.13
593.2	34.76
593.537	34.82
593.875	35.27
594.212	35.08
594.55	35.37
594.887	35.6
595.224	35.49
595.561	35.69
595.899	34.98
596.236	35.33
596.573	35.91
596.91	35.73
597.247	35.74
597.584	35.54
597.921	35.69
598.258	35.62
598.594	36.01
598.931	35.51
599.268	35.67
599.604	35.57
599.941	35.67
600.277	35.77
600.614	36.13
600.95	35.97
601.287	35.69
601.623	36.24
601.959	36.14
602.296	36.61
602.632	36.22
602.968	36.44
603.304	36.29
603.64	36.54
603.976	36.28
604.312	36.37
604.648	36.41
604.984	36.67
605.319	36.51
605.655	36.36
605.991	36.59
606.326	36.31
606.662	36.62
606.998	36.5
607.333	36.83
607.668	36.67
608.004	36.97
608.339	37.13
608.674	37.07
609.01	37.04
609.345	37.13
609.68	37.22
610.015	37.03
610.35	37.29
610.685	37.54
611.02	37.65
611.355	37.38
611.689	37.12
612.024	37.56
612.359	37.66
612.694	37.72
613.028	37.79
613.363	37.63
613.697	37.9
614.032	37.49
614.366	37.98
614.7	38
615.035	37.99
615.369	38.05
615.703	38.2
616.037	38.28
616.371	38.34
616.705	38.33
617.039	38.5
617.373	38.1
617.707	38.14
618.041	38.66
618.375	38.26
618.709	38.46
619.042	38.27
619.376	38.2
619.71	38.09
620.043	38.44
620.377	38.78
620.71	38.42
621.043	38.76
621.377	38.29
621.71	38.83
622.043	39.15
622.376	38.84
622.709	39.17
623.043	38.66
623.376	39.15
623.709	39.33
624.041	39.34
624.374	39.2
624.707	39.52
625.04	39.32
625.373	39.44
625.705	39.34
626.038	39.24
626.37	39.42
626.703	39.94
627.035	39.82
627.368	39.88
627.7	39.35
628.032	39.84
628.365	39.79
628.697	39.61
629.029	40.04
629.361	39.66
629.693	39.78
630.025	39.56
630.357	39.85
630.689	40.31
631.021	40.4
631.353	40.58
631.684	40.22
632.016	40.11
632.348	40.38
632.679	40.07
633.011	40.91
633.342	40.88
633.674	40.72
634.005	41.03
634.336	40.71
634.668	40.72
634.999	40.38
635.33	40.63
635.661	41.23
635.992	40.73
636.323	40.38
636.654	41.18
636.985	40.6
637.316	40.71
637.647	40.88
637.977	41.29
638.308	41.36
638.639	40.95
638.969	41.33
639.3	40.94
639.63	41.26
639.961	41.33
640.291	40.69
640.622	41.11
640.952	41.53
641.282	41.68
641.612	41.47
641.943	41.52
642.273	41.72
642.603	41.71
642.933	41.02
643.263	41.42
643.592	42.64
643.922	41.93
644.252	41.66
644.582	41.03
644.911	41.6
645.241	42.11
645.571	42.69
645.9	41.74
646.23	41.92
646.559	41.96
646.888	41.87
647.218	42.43
647.547	41.99
647.876	42
648.205	42.78
648.534	42.21
648.863	42.32
649.192	42.54
649.521	42.88
649.85	42.09
650.179	42.7
650.508	42.82
650.837	42.49
651.165	42.36
651.494	42.73
651.822	42.44
652.151	42.8
652.479	42.68
652.808	43.21
653.136	43.06
653.465	43.37
653.793	43.29
654.121	43.46
654.449	43.41
654.777	43.13
655.105	43.44
655.433	42.89
655.761	42.93
656.089	42.52
656.417	44.18
656.745	43.62
657.073	43.64
657.4	43.11
657.728	43
658.056	43.39
658.383	43.54
658.711	43.34
659.038	43.96
659.365	42.99
659.693	43.23
660.02	43.52
660.347	43.58
660.674	43.29
661.001	43.79
661.329	43.64
661.656	44.11
661.982	43.67
662.309	44.15
662.636	43.2
662.963	44.3
663.29	44.05
663.616	43.8
663.943	43.76
664.27	44.35
664.596	43.79
664.923	44.74
665.249	44.45
665.576	43.88
665.902	44.45
666.228	44.09
666.554	44.59
666.881	44.23
667.207	44.53
667.533	44.64
667.859	44.35
668.185	44.31
668.511	44.55
668.837	44.77
669.162	45.1
669.488	44.8
669.814	44.95
670.139	44.34
670.465	44.54
670.791	45.18
671.116	44.62
671.442	44.7
