Data from 0401_chest_Reflection__2__199.txt Node

Date: Tue Dec 12 20:04:32 CST 2023
User: ToomeyLab
Spectrometer: FLMS14357
Trigger mode: 0
Integration Time (sec): 1.000000E-2
Scans to average: 100
Electric dark correction enabled: true
Nonlinearity correction enabled: false
Boxcar width: 0
XAxis mode: Wavelengths
Number of Pixels in Spectrum: 2048
>>>>>Begin Spectral Data<<<<<
189.047	-53.44
189.435	-53.44
189.823	-53.44
190.211	1100.52
190.599	1311.29
190.987	132.66
191.375	1788.89
191.763	-326.21
192.151	74.66
192.538	-166.2
192.926	132.94
193.314	-1892.55
193.702	-31.58
194.089	81.13
194.477	-55.42
194.864	94.8
195.252	-55.87
195.639	-446.14
196.027	-691.69
196.414	3.94
196.801	205.72
197.189	-243.41
197.576	423.33
197.963	66
198.351	-6.34
198.738	24.72
199.125	10.57
199.512	-105.09
199.899	23.26
200.286	-33.66
200.673	-68.64
201.06	8.75
201.447	-52.23
201.833	-14.29
202.22	-3.49
202.607	-285.09
202.994	-1.11
203.38	36.36
203.767	-29.84
204.154	49.45
204.54	4.91
204.927	40.29
205.313	21.95
205.699	-157.53
206.086	-76.63
206.472	44.82
206.858	2.85
207.245	-9.65
207.631	28.84
208.017	41.51
208.403	-102.78
208.789	35.92
209.175	-8.6
209.561	40.69
209.947	-37.81
210.333	25.96
210.719	-17.18
211.105	-10.59
211.491	28.72
211.876	-28.17
212.262	-10.97
212.648	-120.97
213.034	-67.88
213.419	-43.95
213.805	-2.42
214.19	2.61
214.576	-4.25
214.961	3.85
215.346	-4.11
215.732	10.91
216.117	-5.56
216.502	-79.34
216.888	-55.76
217.273	-66.15
217.658	-44.84
218.043	-12.05
218.428	0.4
218.813	18.83
219.198	-9.19
219.583	14.42
219.968	6.21
220.353	5.29
220.738	14
221.122	-36.33
221.507	-9.67
221.892	-8.85
222.276	2.76
222.661	-6.21
223.046	-17.64
223.43	15.58
223.815	-5.62
224.199	8.83
224.583	-5.93
224.968	3.62
225.352	-19.2
225.736	-7.31
226.121	-4.75
226.505	3.12
226.889	11.93
227.273	-1.18
227.657	2.4
228.041	10.42
228.425	-0.74
228.809	3.08
229.193	-0.33
229.577	5.55
229.961	2.16
230.344	4.49
230.728	3.89
231.112	4.83
231.495	3.88
231.879	5.51
232.263	1.88
232.646	1.46
233.03	3.7
233.413	2.02
233.797	2.86
234.18	-0.43
234.563	0.22
234.946	4.2
235.33	4.09
235.713	4.65
236.096	2.65
236.479	3.47
236.862	3.68
237.245	5.18
237.628	3.89
238.011	3.6
238.394	2.73
238.777	2.61
239.16	3.21
239.543	2.44
239.925	3.46
240.308	2.76
240.691	0.91
241.073	4.89
241.456	4.02
241.838	4.26
242.221	4.14
242.603	3.66
242.986	2.26
243.368	3.86
243.75	3.11
244.133	3.52
244.515	3.7
244.897	3.69
245.279	4.69
245.661	3.67
246.043	3.46
246.425	4.18
246.807	3.06
247.189	3.29
247.571	3.73
247.953	3.06
248.335	3.31
248.717	3.57
249.098	3.7
249.48	3.19
249.862	3.19
250.243	3.07
250.625	3.92
251.006	3.28
251.388	3.1
251.769	3.39
252.151	2.45
252.532	4.24
252.913	3.18
253.295	3.67
253.676	3.28
254.057	2.95
254.438	3.99
254.819	2.81
255.2	3.13
255.581	3.8
255.962	2.46
256.343	3.04
256.724	2.43
257.105	4.12
257.486	1.32
257.867	3.15
258.247	1.9
258.628	1.6
259.009	2.06
259.389	2.83
259.77	2.57
260.15	2.78
260.531	3.86
260.911	3.83
261.292	2.46
261.672	2.86
262.052	3.19
262.432	2.9
262.813	3.31
263.193	3.21
263.573	3.01
263.953	3.67
264.333	4.1
264.713	2.6
265.093	2.74
265.473	3.55
265.853	2.6
266.233	1.83
266.612	2.71
266.992	1.97
267.372	2.85
267.752	3.48
268.131	2.1
268.511	2.46
268.89	1.99
269.27	2.23
269.649	2.67
270.029	2.58
270.408	3.65
270.787	3.11
271.167	2.97
271.546	2.39
271.925	3.95
272.304	3.56
272.683	2.5
273.062	3.16
273.441	3.05
273.82	2.22
274.199	3.21
274.578	2.96
274.957	2.96
275.336	2.67
275.715	3.45
276.093	1.69
276.472	3.13
276.851	3.51
277.229	2.95
277.608	2.99
277.986	2.4
278.365	2.05
278.743	3.17
279.122	2.93
279.5	2.8
279.878	1.83
280.257	2.84
280.635	2.32
281.013	2.64
281.391	2.7
281.769	2.67
282.147	2.88
282.525	2.28
282.903	2.43
283.281	2.84
283.659	3.07
284.037	2.95
284.415	2.8
284.792	3.02
285.17	2.2
285.548	2.78
285.925	2.4
286.303	2.82
286.68	2.77
287.058	2.93
287.435	2.54
287.813	2.79
288.19	2.71
288.567	2.65
288.945	3.18
289.322	2.2
289.699	2.77
290.076	2.61
290.453	2.42
290.83	2.7
291.207	2.86
291.584	2.77
291.961	2.48
292.338	2.37
292.715	2.85
293.092	2.72
293.469	2.55
293.845	2.75
294.222	2.6
294.599	2.56
294.975	1.94
295.352	2.8
295.728	2.5
296.105	2.87
296.481	2.63
296.858	2.98
297.234	2.73
297.61	2.35
297.986	2.69
298.363	3.02
298.739	2.51
299.115	2.84
299.491	2.56
299.867	2.95
300.243	2.63
300.619	2.97
300.995	3.12
301.371	3.06
301.746	3.13
302.122	3.52
302.498	2.99
302.874	2.62
303.249	3.21
303.625	2.49
304	3.12
304.376	2.58
304.751	3.17
305.127	2.54
305.502	2.59
305.878	2.46
306.253	2.7
306.628	2.61
307.003	2.83
307.378	2.54
307.754	3.29
308.129	2.95
308.504	3.84
308.879	3.16
309.254	3.29
309.629	2.85
310.003	3.05
310.378	2.81
310.753	2.91
311.128	3
311.502	2.25
311.877	2.12
312.252	2.49
312.626	2.48
313.001	2.61
313.375	2.47
313.75	3.02
314.124	2.8
314.498	3.13
314.873	2.2
315.247	2.97
315.621	2.71
315.995	3.19
316.369	2.5
316.743	2.08
317.117	1.86
317.491	2.34
317.865	2.87
318.239	2.35
318.613	3.19
318.987	3.23
319.361	2.48
319.734	2.37
320.108	2.56
320.482	2.31
320.855	1.61
321.229	2.9
321.602	2.91
321.976	3.14
322.349	3.33
322.723	2.65
323.096	2.75
323.469	2.28
323.843	3.23
324.216	2.68
324.589	2.91
324.962	2.79
325.335	3.14
325.708	2.83
326.081	3.23
326.454	2.55
326.827	3.42
327.2	2.2
327.573	1.95
327.945	2.79
328.318	3.17
328.691	2.58
329.063	3.25
329.436	2.94
329.809	2.94
330.181	2.09
330.553	2.69
330.926	2.69
331.298	2.33
331.671	3.27
332.043	2.53
332.415	2.84
332.787	2.8
333.159	2.23
333.532	3.08
333.904	2.84
334.276	3.19
334.648	2.77
335.02	1.79
335.391	2.19
335.763	2.37
336.135	3.24
336.507	2.8
336.879	2.92
337.25	2.52
337.622	2.85
337.993	2.23
338.365	2.23
338.736	2.56
339.108	2.56
339.479	2.91
339.851	2.48
340.222	2.06
340.593	2.61
340.964	2.42
341.336	2.63
341.707	2.75
342.078	2.49
342.449	2.4
342.82	3.16
343.191	2.71
343.562	2.69
343.933	3.21
344.303	2.83
344.674	3.07
345.045	3.29
345.416	2.65
345.786	3.13
346.157	2.88
346.527	3.09
346.898	2.88
347.268	2.89
347.639	2.72
348.009	2.63
348.38	2.97
348.75	2.87
349.12	3.04
349.49	2.57
349.861	2.92
350.231	2.64
350.601	3.22
350.971	3.14
351.341	2.91
351.711	3.34
352.081	3.12
352.45	2.76
352.82	3.14
353.19	2.71
353.56	2.31
353.929	2.56
354.299	2.69
354.669	2.75
355.038	2.43
355.408	2.7
355.777	3.04
356.147	2.65
356.516	3.02
356.885	2.57
357.254	2.82
357.624	2.36
357.993	2.6
358.362	2.59
358.731	3.13
359.1	2.62
359.469	2.9
359.838	2.68
360.207	2.85
360.576	2.96
360.945	2.77
361.314	3.25
361.682	2.64
362.051	2.99
362.42	2.79
362.788	2.51
363.157	3.14
363.525	2.98
363.894	2.61
364.262	2.92
364.631	2.44
364.999	2.91
365.367	2.89
365.735	2.67
366.104	2.7
366.472	2.63
366.84	2.8
367.208	2.84
367.576	2.8
367.944	3.05
368.312	2.84
368.68	2.76
369.048	2.73
369.416	3.02
369.783	2.92
370.151	2.82
370.519	2.83
370.886	2.79
371.254	2.68
371.621	3.03
371.989	2.76
372.356	2.7
372.724	2.93
373.091	2.77
373.458	2.66
373.826	3.07
374.193	2.91
374.56	2.96
374.927	3.36
375.294	3.05
375.661	2.88
376.028	3.11
376.395	3.3
376.762	3.64
377.129	3.06
377.496	2.82
377.863	2.82
378.229	2.87
378.596	2.74
378.963	3.05
379.329	2.85
379.696	2.72
380.062	3.11
380.429	2.72
380.795	3.12
381.161	2.85
381.528	2.99
381.894	3.04
382.26	2.61
382.626	3
382.993	3.01
383.359	3.05
383.725	3.12
384.091	2.79
384.457	3.11
384.823	3.23
385.188	2.8
385.554	3.17
385.92	2.61
386.286	2.89
386.651	3.24
387.017	3.43
387.383	2.95
387.748	3.04
388.114	2.93
388.479	2.97
388.845	2.91
389.21	2.87
389.575	3.15
389.94	3.22
390.306	3.29
390.671	3.11
391.036	3.09
391.401	3.08
391.766	2.97
392.131	3.12
392.496	2.85
392.861	3.25
393.226	3.25
393.591	2.88
393.956	3
394.32	3.2
394.685	3.18
395.05	2.73
395.414	3.06
395.779	3.19
396.143	3.25
396.508	2.99
396.872	2.94
397.236	3.02
397.601	3.01
397.965	3.2
398.329	3.11
398.694	2.77
399.058	3.38
399.422	3.12
399.786	2.96
400.15	2.84
400.514	3.21
400.878	2.98
401.242	2.98
401.605	3.26
401.969	3.13
402.333	3.15
402.697	2.83
403.06	2.72
403.424	3.33
403.787	2.72
404.151	3.3
404.514	2.68
404.878	2.89
405.241	3.1
405.604	2.78
405.968	2.93
406.331	3.1
406.694	3.27
407.057	2.94
407.42	2.98
407.783	2.86
408.146	3.21
408.509	3.11
408.872	3.13
409.235	3.11
409.598	3.08
409.961	2.94
410.323	3.13
410.686	3.12
411.049	3.21
411.411	3.28
411.774	3.12
412.136	3.09
412.499	3.05
412.861	3.12
413.223	3.06
413.586	2.98
413.948	2.98
414.31	3.19
414.672	3.28
415.035	3.14
415.397	2.96
415.759	3.4
416.121	3.03
416.483	3.2
416.845	3.02
417.206	3.24
417.568	3.13
417.93	3.04
418.292	3.39
418.653	3.06
419.015	3.08
419.377	3.13
419.738	3.17
420.1	3.05
420.461	3.07
420.822	3.11
421.184	3.1
421.545	3.21
421.906	3.12
422.267	3.02
422.629	3.1
422.99	3.06
423.351	3.08
423.712	3.02
424.073	3.08
424.434	3.11
424.795	3.14
425.155	3.01
425.516	2.93
425.877	3.05
426.238	3.02
426.598	3.12
426.959	2.96
427.32	3.16
427.68	3.06
428.041	3.12
428.401	3.13
428.761	3.17
429.122	3.2
429.482	3.46
429.842	3.25
430.202	3.08
430.563	3.2
430.923	3.24
431.283	2.98
431.643	3.26
432.003	3.07
432.363	3.3
432.722	2.97
433.082	3.27
433.442	3.19
433.802	3.29
434.161	3.13
434.521	3.27
434.881	3.12
435.24	3.22
435.6	3.08
435.959	3.13
436.319	3.29
436.678	3.43
437.037	3.07
437.396	3.17
437.756	3.06
438.115	3.06
438.474	3.13
438.833	3.27
439.192	3.27
439.551	3.26
439.91	3.1
440.269	3.03
440.628	3.15
440.987	3.1
441.345	3.25
441.704	3.16
442.063	3.19
442.421	3.2
442.78	3.12
443.138	3.16
443.497	3.19
443.855	3.22
444.214	3.12
444.572	3.32
444.93	3.37
445.288	3.14
445.647	3.15
446.005	3.11
446.363	3.11
446.721	3.15
447.079	3.22
447.437	3.04
447.795	3.18
448.153	3.12
448.51	3.19
448.868	3.21
449.226	3.29
449.584	3.2
449.941	3.24
450.299	3.29
450.656	3.24
451.014	3.31
451.371	3.15
451.729	3.39
452.086	3.13
452.443	3.39
452.801	3.25
453.158	3.15
453.515	3.36
453.872	3.25
454.229	3.33
454.586	2.94
454.943	3.17
455.3	3.18
455.657	3.29
456.014	3.39
456.371	3.24
456.727	3.41
457.084	3.22
457.441	3.19
457.797	3.11
458.154	3.24
458.51	3.27
458.867	3.41
459.223	3.43
459.58	3.32
459.936	2.96
460.292	3.29
460.648	3.2
461.005	3.1
461.361	3.19
461.717	3.35
462.073	3.24
462.429	3.2
462.785	3.15
463.141	3.11
463.496	3.02
463.852	3.35
464.208	3.17
464.564	3.27
464.919	3.52
465.275	3.29
465.631	3.22
465.986	3.12
466.342	3.04
466.697	3.17
467.052	3.47
467.408	3.36
467.763	3.42
468.118	3.41
468.473	3.42
468.829	3.23
469.184	3.17
469.539	3.36
469.894	3.31
470.249	3.38
470.603	3.56
470.958	3.24
471.313	3.41
471.668	3.44
472.023	3.18
472.377	3.23
472.732	3.39
473.086	3.29
473.441	3.35
473.795	3.43
474.15	3.29
474.504	3.32
474.859	3.28
475.213	3.18
475.567	3.39
475.921	3.33
476.275	3.26
476.63	3.36
476.984	3.41
477.338	3.23
477.692	3.19
478.045	3.47
478.399	3.2
478.753	3.35
479.107	3.29
479.461	3.38
479.814	3.41
480.168	3.28
480.521	3.09
480.875	3.3
481.228	3.49
481.582	3.3
481.935	3.53
482.289	3.46
482.642	3.45
482.995	3.27
483.348	3.27
483.701	3.47
484.055	3.36
484.408	3.31
484.761	3.29
485.114	3.2
485.466	3.14
485.819	3.14
486.172	3.09
486.525	3.2
486.878	3.21
487.23	3.26
487.583	3.21
487.936	3.3
488.288	3.21
488.641	3.32
488.993	3.22
489.345	3.23
489.698	3.19
490.05	3.22
490.402	3.25
490.754	3.23
491.107	3.27
491.459	3.34
491.811	3.35
492.163	3.3
492.515	3.41
492.866	3.25
493.218	3.24
493.57	3.29
493.922	3.18
494.274	3.28
494.625	3.32
494.977	3.47
495.328	3.47
495.68	3.29
496.031	3.49
496.383	3.48
496.734	3.36
497.086	3.41
497.437	3.47
497.788	3.36
498.139	3.33
498.49	3.6
498.842	3.34
499.193	3.39
499.544	3.43
499.894	3.4
500.245	3.43
500.596	3.37
500.947	3.49
501.298	3.56
501.648	3.48
501.999	3.47
502.35	3.45
502.7	3.57
503.051	3.45
503.401	3.43
503.752	3.62
504.102	3.55
504.452	3.57
504.803	3.55
505.153	3.57
505.503	3.62
505.853	3.69
506.203	3.57
506.553	3.52
506.903	3.5
507.253	3.63
507.603	3.49
507.953	3.57
508.303	3.55
508.652	3.62
509.002	3.56
509.352	3.46
509.701	3.63
510.051	3.46
510.4	3.44
510.75	3.42
511.099	3.5
511.449	3.62
511.798	3.48
512.147	3.52
512.496	3.68
512.846	3.46
513.195	3.59
513.544	3.61
513.893	3.58
514.242	3.55
514.591	3.56
514.939	3.57
515.288	3.64
515.637	3.46
515.986	3.49
516.334	3.6
516.683	3.58
517.032	3.61
517.38	3.7
517.729	3.55
518.077	3.52
518.426	3.62
518.774	3.66
519.122	3.57
519.47	3.56
519.819	3.66
520.167	3.54
520.515	3.54
520.863	3.64
521.211	3.47
521.559	3.6
521.907	3.7
522.255	3.68
522.602	3.7
522.95	3.7
523.298	3.59
523.645	3.83
523.993	3.78
524.341	3.7
524.688	3.65
525.036	3.74
525.383	3.73
525.73	3.6
526.078	3.72
526.425	3.68
526.772	3.63
527.119	3.69
527.466	3.76
527.814	3.64
528.161	3.68
528.508	3.7
528.854	3.66
529.201	3.71
529.548	3.67
529.895	3.64
530.242	3.56
530.588	3.52
530.935	3.59
531.282	3.64
531.628	3.66
531.975	3.63
532.321	3.66
532.667	3.63
533.014	3.75
533.36	3.67
533.706	3.73
534.052	3.75
534.399	3.75
534.745	3.78
535.091	3.73
535.437	3.78
535.783	3.76
536.129	3.83
536.474	3.81
536.82	3.77
537.166	3.9
537.512	3.86
537.857	3.86
538.203	3.77
538.549	3.89
538.894	3.83
539.239	3.82
539.585	3.86
539.93	3.89
540.276	3.87
540.621	3.89
540.966	3.83
541.311	3.96
541.656	4.02
542.001	3.86
542.346	3.92
542.691	3.86
543.036	3.83
543.381	3.68
543.726	3.82
544.071	3.89
544.415	3.87
544.76	3.88
545.105	3.86
545.449	3.95
545.794	4.08
546.138	3.91
546.483	3.94
546.827	3.97
547.171	3.97
547.516	4.12
547.86	4.06
548.204	4.07
548.548	3.96
548.892	4.08
549.236	3.98
549.58	4.18
549.924	4.04
550.268	4.2
550.612	4.12
550.956	4.27
551.3	4.33
551.643	4.25
551.987	4.34
552.33	4.24
552.674	4.17
553.017	4.51
553.361	4.5
553.704	4.05
554.048	4.38
554.391	4.26
554.734	4.23
555.077	4.33
555.42	4.08
555.764	4.42
556.107	4.24
556.45	4.35
556.793	4.18
557.135	4.35
557.478	4.42
557.821	4.32
558.164	4.44
558.507	4.29
558.849	4.5
559.192	4.47
559.534	4.42
559.877	4.3
560.219	4.46
560.562	4.52
560.904	4.39
561.246	4.61
561.589	4.59
561.931	4.48
562.273	4.38
562.615	4.36
562.957	4.59
563.299	4.55
563.641	4.54
563.983	4.6
564.325	4.58
564.667	4.78
565.008	4.63
565.35	4.76
565.692	4.47
566.033	4.57
566.375	4.69
566.716	4.59
567.058	4.66
567.399	4.6
567.741	4.69
568.082	4.63
568.423	4.67
568.764	4.79
569.105	4.8
569.447	4.7
569.788	4.74
570.129	4.66
570.47	4.84
570.811	4.59
571.151	4.86
571.492	4.88
571.833	4.96
572.174	4.78
572.514	4.85
572.855	4.72
573.195	4.69
573.536	4.8
573.876	4.73
574.217	4.89
574.557	4.8
574.898	4.91
575.238	5.06
575.578	4.84
575.918	4.78
576.258	4.96
576.598	4.94
576.938	5.13
577.278	5
577.618	4.95
577.958	4.88
578.298	5.1
578.638	5.03
578.977	5.02
579.317	4.98
579.657	5.14
579.996	5.25
580.336	5.09
580.675	5.21
581.014	5.2
581.354	5.17
581.693	5.1
582.032	4.99
582.372	5.14
582.711	5.21
583.05	5.48
583.389	5.21
583.728	5.37
584.067	5.61
584.406	5.4
584.745	5.35
585.083	5.11
585.422	5.4
585.761	5.49
586.1	5.38
586.438	5.66
586.777	5.42
587.115	5.26
587.454	5.39
587.792	5.06
588.13	5.5
588.469	5.63
588.807	5.48
589.145	5.57
589.483	5.5
589.821	5.58
590.159	5.59
590.497	5.49
590.835	5.45
591.173	5.57
591.511	5.48
591.849	5.62
592.187	5.9
592.524	5.42
592.862	5.45
593.2	5.52
593.537	5.75
593.875	5.57
594.212	5.8
594.55	5.91
594.887	6.01
595.224	5.83
595.561	6.32
595.899	5.51
596.236	5.78
596.573	5.77
596.91	6.03
597.247	5.94
597.584	5.97
597.921	5.85
598.258	6.03
598.594	5.93
598.931	6.06
599.268	5.84
599.604	5.86
599.941	5.89
600.277	6.02
600.614	6.15
600.95	6.21
601.287	6.18
601.623	6.06
601.959	5.96
602.296	6.1
602.632	6.05
602.968	6.14
603.304	6.09
603.64	6.41
603.976	5.74
604.312	6.22
604.648	6.01
604.984	6.09
605.319	6.14
605.655	6.18
605.991	6.29
606.326	6.18
606.662	6.39
606.998	6.1
607.333	6.36
607.668	6.39
608.004	6.32
608.339	6.42
608.674	6.33
609.01	6.36
609.345	6.67
609.68	6.5
610.015	6.29
610.35	6.42
610.685	6.69
611.02	6.45
611.355	6.5
611.689	6.67
612.024	6.5
612.359	6.54
612.694	6.69
613.028	6.52
613.363	6.61
613.697	6.7
614.032	6.89
614.366	6.93
614.7	6.76
615.035	7.06
615.369	6.89
615.703	6.85
616.037	6.54
616.371	6.51
616.705	6.68
617.039	6.86
617.373	6.67
617.707	6.69
618.041	7.24
618.375	6.82
618.709	6.64
619.042	7.17
619.376	6.7
619.71	6.85
620.043	6.84
620.377	7.14
620.71	6.79
621.043	7.18
621.377	6.64
621.71	7.2
622.043	7.3
622.376	7.22
622.709	6.97
623.043	6.95
623.376	7.7
623.709	7.25
624.041	7.38
624.374	6.94
624.707	6.96
625.04	6.84
625.373	7.77
625.705	7.58
626.038	7.74
626.37	7.52
626.703	7.4
627.035	7.23
627.368	7.8
627.7	7.48
628.032	7.22
628.365	7.63
628.697	7.22
629.029	7.44
629.361	7.32
629.693	7.5
630.025	7.35
630.357	7.8
630.689	7.36
631.021	7.88
631.353	7.86
631.684	7.82
632.016	7.71
632.348	7.67
632.679	7.56
633.011	7.83
633.342	7.86
633.674	7.66
634.005	7.81
634.336	8.05
634.668	7.8
634.999	7.79
635.33	7.82
635.661	7.84
635.992	8
636.323	7.65
636.654	8.1
636.985	8.05
637.316	8.01
637.647	7.89
637.977	8.09
638.308	7.76
638.639	7.88
638.969	7.71
639.3	7.98
639.63	8.09
639.961	7.93
640.291	8.28
640.622	8.44
640.952	8.44
641.282	8.33
641.612	8.07
641.943	7.68
642.273	8.51
642.603	8.59
642.933	8.38
643.263	8.14
643.592	8.65
643.922	8.29
644.252	8.27
644.582	8.03
644.911	8.54
645.241	8.13
645.571	8.8
645.9	8.16
646.23	8.31
646.559	8.72
646.888	8.53
647.218	8.5
647.547	8.61
647.876	9.04
648.205	8.52
648.534	8.96
648.863	8.67
649.192	9.28
649.521	9.25
649.85	8.05
650.179	9.1
650.508	9.61
650.837	8.82
651.165	8.61
651.494	8.89
651.822	8.59
652.151	9.39
652.479	8.75
652.808	8.81
653.136	9.29
653.465	8.96
653.793	8.96
654.121	9.2
654.449	8.91
654.777	9.18
655.105	9.51
655.433	9.4
655.761	9.2
656.089	9.35
656.417	10
656.745	8.98
657.073	8.7
657.4	9.09
657.728	8.82
658.056	9.09
658.383	8.87
658.711	9.64
659.038	9.07
659.365	9.17
659.693	9.76
660.02	8.82
660.347	9.53
660.674	9.69
661.001	9.52
661.329	9.7
661.656	9.63
661.982	9.13
662.309	10.07
662.636	9.51
662.963	9.42
663.29	9.97
663.616	9.61
663.943	9.99
664.27	9.99
664.596	9.6
664.923	10.65
665.249	9.79
665.576	9.74
665.902	9.89
666.228	10.29
666.554	9.82
666.881	9.43
667.207	10.39
667.533	10.27
667.859	10.08
668.185	9.44
668.511	9.8
668.837	9.69
669.162	10.86
669.488	9.66
669.814	10.38
670.139	9.39
670.465	9.57
670.791	10.25
671.116	9.78
671.442	10.47
671.767	10.61
672.092	10.66
672.418	9.91
672.743	10.46
673.068	10.15
673.393	10.32
673.718	10.92
674.043	10.78
674.368	9.32
674.693	10.49
675.018	10.74
675.343	9.96
675.667	10.99
675.992	10.35
676.317	9.62
676.641	10.09
676.966	10.48
677.29	9.93
677.615	11.01
677.939	10.53
678.264	10.8
678.588	10.18
678.912	10.73
679.236	10.4
679.56	10.74
679.885	10.87
680.209	10.8
680.532	11.56
680.856	11.42
681.18	10.66
681.504	11.19
681.828	10.7
682.152	10.75
682.475	11.11
682.799	11.21
683.122	10.94
683.446	11.06
683.769	11.55
684.093	10.57
684.416	10.87
684.739	11.73
685.062	11.4
685.386	11.6
685.709	11.31
686.032	11.1
686.355	10.87
686.678	11.89
687.001	10.88
687.324	11.15
687.646	11.6
687.969	11.35
688.292	11.47
688.614	11.59
688.937	11.54
689.26	11.56
689.582	10.98
689.904	11.34
690.227	11.54
690.549	11.88
