Data from 0401_crown_Reflection__1__204.txt Node

Date: Tue Dec 12 20:06:23 CST 2023
User: ToomeyLab
Spectrometer: FLMS14357
Trigger mode: 0
Integration Time (sec): 1.000000E-2
Scans to average: 100
Electric dark correction enabled: true
Nonlinearity correction enabled: false
Boxcar width: 0
XAxis mode: Wavelengths
Number of Pixels in Spectrum: 2048
>>>>>Begin Spectral Data<<<<<
189.047	112.62
189.435	112.62
189.823	112.62
190.211	-55.87
190.599	-784.33
190.987	88.92
191.375	-2283.95
191.763	-134
192.151	99.68
192.538	-17.2
192.926	91.67
193.314	212.42
193.702	-75.22
194.089	23.84
194.477	-182.05
194.864	81.43
195.252	42.77
195.639	-78.08
196.027	-1220.26
196.414	-39.71
196.801	82.56
197.189	941.49
197.576	127.02
197.963	38
198.351	15.31
198.738	11.38
199.125	-6.64
199.512	-32.11
199.899	23.94
200.286	-4.51
200.673	-54.66
201.06	-99.21
201.447	-332.79
201.833	-66.69
202.22	-2.69
202.607	-181.08
202.994	-4.27
203.38	4.42
203.767	90.27
204.154	-2.06
204.54	9.79
204.927	-25.03
205.313	-13.22
205.699	-147.82
206.086	-8.84
206.472	4.78
206.858	8.64
207.245	-33.42
207.631	-9.9
208.017	18.71
208.403	-26.02
208.789	5.07
209.175	-94.68
209.561	1.44
209.947	-98.5
210.333	31.42
210.719	-10.32
211.105	-26.46
211.491	18.14
211.876	0.73
212.262	1.75
212.648	2.44
213.034	1.93
213.419	8.55
213.805	11.09
214.19	14.19
214.576	11.12
214.961	20.41
215.346	-22.76
215.732	26.28
216.117	-1.71
216.502	-30.89
216.888	-22.55
217.273	-21.29
217.658	-48.5
218.043	-22.72
218.428	17.3
218.813	25.66
219.198	-3.37
219.583	12.94
219.968	-8.67
220.353	-8
220.738	15.71
221.122	4.93
221.507	-15.41
221.892	-25.44
222.276	-3.23
222.661	-1.39
223.046	-8.53
223.43	3.54
223.815	3.66
224.199	11.6
224.583	-9.75
224.968	3.13
225.352	-13.04
225.736	16.12
226.121	7.82
226.505	3.78
226.889	18
227.273	3.87
227.657	16.69
228.041	13.35
228.425	2.54
228.809	5.96
229.193	6.87
229.577	8.45
229.961	6.67
230.344	9.77
230.728	10.77
231.112	10.37
231.495	9.45
231.879	11.51
232.263	8.85
232.646	8.77
233.03	9.27
233.413	8.08
233.797	7.82
234.18	5.67
234.563	6.33
234.946	10.74
235.33	9.91
235.713	8.48
236.096	6.94
236.479	7.63
236.862	9
237.245	8.53
237.628	7.9
238.011	8.65
238.394	9
238.777	10.21
239.16	7.17
239.543	9.62
239.925	11.95
240.308	11.63
240.691	7.35
241.073	10.78
241.456	8.24
241.838	7.19
242.221	9.52
242.603	8.85
242.986	8.75
243.368	8.36
243.75	7.84
244.133	8.77
244.515	8.97
244.897	9.23
245.279	8.85
245.661	8.42
246.043	6.83
246.425	9.08
246.807	7.66
247.189	8.66
247.571	9.37
247.953	8.33
248.335	8.31
248.717	7.89
249.098	8.44
249.48	8.17
249.862	8.13
250.243	7.67
250.625	8.35
251.006	8.13
251.388	8.56
251.769	7.77
252.151	6.89
252.532	8.46
252.913	7.61
253.295	8.63
253.676	7.49
254.057	7.82
254.438	8.11
254.819	7.82
255.2	7.04
255.581	7.37
255.962	6.66
256.343	7.14
256.724	6.59
257.105	7.59
257.486	6.72
257.867	7.09
258.247	6.15
258.628	6.59
259.009	6.59
259.389	6.71
259.77	7.55
260.15	7.15
260.531	7.57
260.911	8.17
261.292	7.16
261.672	7.51
262.052	7.4
262.432	7.73
262.813	7.35
263.193	8.06
263.573	7.31
263.953	7.87
264.333	7.66
264.713	7.31
265.093	7
265.473	7.37
265.853	6.69
266.233	7.36
266.612	6.55
266.992	6.8
267.372	7.14
267.752	7.2
268.131	6.44
268.511	6.57
268.89	6.67
269.27	6.35
269.649	6.77
270.029	6.55
270.408	6.96
270.787	7.17
271.167	6.1
271.546	7.15
271.925	7.85
272.304	7.61
272.683	6.46
273.062	6.93
273.441	6.82
273.82	6.65
274.199	7.3
274.578	6.4
274.957	6.93
275.336	7.16
275.715	7.24
276.093	6.86
276.472	6.5
276.851	7.62
277.229	6.67
277.608	7.37
277.986	6.5
278.365	6.79
278.743	6.17
279.122	7.34
279.5	6.26
279.878	6.14
280.257	6.29
280.635	6.14
281.013	6.46
281.391	6.75
281.769	6.86
282.147	6.4
282.525	5.97
282.903	5.95
283.281	6.59
283.659	6.27
284.037	6.99
284.415	6.51
284.792	6.62
285.17	6.22
285.548	6.37
285.925	6.53
286.303	6.16
286.68	6.52
287.058	6.86
287.435	6.66
287.813	5.88
288.19	6.39
288.567	6.58
288.945	6.8
289.322	6.21
289.699	6.7
290.076	6.26
290.453	6.94
290.83	6.38
291.207	6.71
291.584	6.64
291.961	6.16
292.338	6.25
292.715	6.35
293.092	6.25
293.469	6.22
293.845	6.11
294.222	5.86
294.599	6.15
294.975	6.3
295.352	6.2
295.728	6.18
296.105	6.19
296.481	6.51
296.858	6.51
297.234	6.58
297.61	6.53
297.986	5.82
298.363	6.26
298.739	6.15
299.115	6.03
299.491	6.07
299.867	6.13
300.243	5.78
300.619	6.29
300.995	6.7
301.371	6.44
301.746	6.52
302.122	6.48
302.498	6.28
302.874	6.05
303.249	6.3
303.625	5.93
304	5.98
304.376	5.99
304.751	6.65
305.127	5.89
305.502	6.61
305.878	5.7
306.253	6.03
306.628	5.7
307.003	6.09
307.378	6.11
307.754	6.14
308.129	6.23
308.504	6.8
308.879	5.75
309.254	6.07
309.629	5.58
310.003	5.74
310.378	5.9
310.753	6.34
311.128	6.17
311.502	5.74
311.877	6.02
312.252	5.73
312.626	5.71
313.001	5.79
313.375	5.9
313.75	5.79
314.124	6.59
314.498	5.46
314.873	6.04
315.247	6.08
315.621	5.71
315.995	6.12
316.369	5.94
316.743	5.48
317.117	5.03
317.491	6.36
317.865	6.16
318.239	5.5
318.613	6.16
318.987	5.99
319.361	5.61
319.734	5.73
320.108	6.12
320.482	6.35
320.855	5.82
321.229	5.95
321.602	5.6
321.976	5.81
322.349	6.16
322.723	5.69
323.096	6.18
323.469	5.44
323.843	6.19
324.216	6.19
324.589	5.77
324.962	6.17
325.335	5.87
325.708	5.77
326.081	5.65
326.454	5.59
326.827	6.61
327.2	6.16
327.573	5.5
327.945	5.6
328.318	5.84
328.691	5.44
329.063	5.97
329.436	5.69
329.809	5.58
330.181	5.45
330.553	5.5
330.926	5.62
331.298	4.91
331.671	5.17
332.043	5.29
332.415	5.75
332.787	5.84
333.159	5.29
333.532	5.45
333.904	5.3
334.276	6.32
334.648	5.47
335.02	5.38
335.391	5.71
335.763	5.46
336.135	5.42
336.507	5.24
336.879	5.51
337.25	5.64
337.622	5.73
337.993	5.36
338.365	5.14
338.736	5.75
339.108	5.95
339.479	5.67
339.851	5.2
340.222	5.47
340.593	5.58
340.964	6.1
341.336	5.63
341.707	5.66
342.078	5.2
342.449	5.7
342.82	5.61
343.191	5.43
343.562	6.17
343.933	6.08
344.303	6.06
344.674	6.29
345.045	6.09
345.416	5.64
345.786	5.8
346.157	5.53
346.527	6.2
346.898	5.68
347.268	5.67
347.639	5.55
348.009	5.81
348.38	5.33
348.75	6.13
349.12	6.07
349.49	5.75
349.861	6.08
350.231	5.57
350.601	6.32
350.971	5.97
351.341	6.14
351.711	6.19
352.081	5.88
352.45	6.13
352.82	6.14
353.19	5.57
353.56	5.35
353.929	5.5
354.299	5.93
354.669	5.96
355.038	5.44
355.408	5.7
355.777	6.25
356.147	5.75
356.516	6.17
356.885	5.98
357.254	6.11
357.624	5.79
357.993	5.89
358.362	5.86
358.731	6.11
359.1	5.46
359.469	6.05
359.838	5.69
360.207	5.6
360.576	6.07
360.945	5.84
361.314	5.87
361.682	5.75
362.051	6.19
362.42	6.06
362.788	5.82
363.157	6.39
363.525	6.02
363.894	5.88
364.262	6.13
364.631	5.88
364.999	6.21
365.367	6
365.735	5.84
366.104	5.73
366.472	5.85
366.84	6
367.208	6.07
367.576	5.98
367.944	6.26
368.312	6.41
368.68	6.08
369.048	5.95
369.416	6.08
369.783	6.16
370.151	5.95
370.519	5.86
370.886	6.32
371.254	5.53
371.621	6.37
371.989	5.89
372.356	6.09
372.724	5.89
373.091	6.01
373.458	5.89
373.826	6.07
374.193	6.08
374.56	6.2
374.927	6.26
375.294	6.44
375.661	6.35
376.028	6.33
376.395	6.47
376.762	6.71
377.129	6.34
377.496	6.56
377.863	6.1
378.229	6.24
378.596	6.27
378.963	6.27
379.329	6.14
379.696	6.09
380.062	6.28
380.429	6.29
380.795	6.23
381.161	6.34
381.528	6.6
381.894	6.35
382.26	6.11
382.626	6.04
382.993	6.21
383.359	6.13
383.725	6.18
384.091	5.86
384.457	6.05
384.823	5.98
385.188	6.43
385.554	6.44
385.92	6.06
386.286	6.26
386.651	6.38
387.017	6.61
387.383	6.27
387.748	6.08
388.114	6.37
388.479	6.51
388.845	6.11
389.21	6.49
389.575	5.82
389.94	6.4
390.306	6.5
390.671	6.43
391.036	6.03
391.401	6.36
391.766	6.55
392.131	6.46
392.496	6.36
392.861	6.35
393.226	6.38
393.591	6.46
393.956	6.31
394.32	6.55
394.685	6.54
395.05	6.17
395.414	6.39
395.779	6.32
396.143	6.51
396.508	6.26
396.872	6.21
397.236	6.29
397.601	6.3
397.965	6.54
398.329	6.64
398.694	6.04
399.058	6.66
399.422	6.42
399.786	6.3
400.15	6.24
400.514	6.5
400.878	6.58
401.242	6.28
401.605	6.54
401.969	6.29
402.333	6.5
402.697	6.46
403.06	6.35
403.424	6.65
403.787	6.12
404.151	6.57
404.514	5.87
404.878	6.2
405.241	6.37
405.604	6.11
405.968	6.42
406.331	6.41
406.694	6.54
407.057	6.33
407.42	6.35
407.783	6.54
408.146	6.27
408.509	6.34
408.872	6.57
409.235	6.37
409.598	6.31
409.961	6.44
410.323	6.6
410.686	6.14
411.049	6.43
411.411	6.49
411.774	6.46
412.136	6.53
412.499	6.59
412.861	6.37
413.223	6.48
413.586	6.26
413.948	6.66
414.31	6.47
414.672	6.59
415.035	6.49
415.397	6.42
415.759	6.49
416.121	6.32
416.483	6.68
416.845	6.55
417.206	6.7
417.568	6.33
417.93	6.34
418.292	6.53
418.653	6.34
419.015	6.4
419.377	6.37
419.738	6.41
420.1	6.18
420.461	6.34
420.822	6.54
421.184	6.33
421.545	6.53
421.906	6.43
422.267	6.4
422.629	6.41
422.99	6.45
423.351	6.37
423.712	6.3
424.073	6.47
424.434	6.37
424.795	6.56
425.155	6.29
425.516	6.31
425.877	6.38
426.238	6.5
426.598	6.38
426.959	6.48
427.32	6.35
427.68	6.38
428.041	6.54
428.401	6.48
428.761	6.54
429.122	6.43
429.482	6.56
429.842	6.64
430.202	6.49
430.563	6.7
430.923	6.71
431.283	6.47
431.643	6.63
432.003	6.44
432.363	6.59
432.722	6.4
433.082	6.65
433.442	6.61
433.802	6.63
434.161	6.78
434.521	6.57
434.881	6.49
435.24	6.4
435.6	6.47
435.959	6.55
436.319	6.57
436.678	6.62
437.037	6.51
437.396	6.42
437.756	6.46
438.115	6.7
438.474	6.46
438.833	6.53
439.192	6.54
439.551	6.52
439.91	6.4
440.269	6.54
440.628	6.42
440.987	6.46
441.345	6.45
441.704	6.39
442.063	6.46
442.421	6.43
442.78	6.6
443.138	6.48
443.497	6.47
443.855	6.51
444.214	6.43
444.572	6.52
444.93	6.43
445.288	6.38
445.647	6.62
446.005	6.43
446.363	6.45
446.721	6.38
447.079	6.47
447.437	6.37
447.795	6.32
448.153	6.46
448.51	6.5
448.868	6.34
449.226	6.56
449.584	6.37
449.941	6.33
450.299	6.48
450.656	6.41
451.014	6.58
451.371	6.49
451.729	6.52
452.086	6.52
452.443	6.71
452.801	6.7
453.158	6.55
453.515	6.71
453.872	6.6
454.229	6.47
454.586	6.46
454.943	6.5
455.3	6.39
455.657	6.48
456.014	6.61
456.371	6.67
456.727	6.66
457.084	6.6
457.441	6.54
457.797	6.55
458.154	6.53
458.51	6.58
458.867	6.59
459.223	6.7
459.58	6.62
459.936	6.27
460.292	6.51
460.648	6.49
461.005	6.41
461.361	6.4
461.717	6.5
462.073	6.34
462.429	6.3
462.785	6.35
463.141	6.44
463.496	6.5
463.852	6.92
464.208	6.61
464.564	6.6
464.919	6.77
465.275	6.63
465.631	6.51
465.986	6.52
466.342	6.51
466.697	6.67
467.052	6.69
467.408	6.57
467.763	6.65
468.118	6.72
468.473	6.62
468.829	6.6
469.184	6.48
469.539	6.78
469.894	6.83
470.249	6.67
470.603	6.57
470.958	6.59
471.313	6.81
471.668	6.55
472.023	6.57
472.377	6.56
472.732	6.66
473.086	6.64
473.441	6.64
473.795	6.43
474.15	6.58
474.504	6.43
474.859	6.55
475.213	6.41
475.567	6.68
475.921	6.49
476.275	6.5
476.63	6.63
476.984	6.6
477.338	6.48
477.692	6.39
478.045	6.76
478.399	6.54
478.753	6.56
479.107	6.44
479.461	6.57
479.814	6.56
480.168	6.39
480.521	6.44
480.875	6.48
481.228	6.69
481.582	6.66
481.935	6.59
482.289	6.52
482.642	6.57
482.995	6.55
483.348	6.43
483.701	6.69
484.055	6.5
484.408	6.35
484.761	6.39
485.114	6.21
485.466	6.16
485.819	6.11
486.172	6.09
486.525	6.19
486.878	6.24
487.23	6.24
487.583	6.32
487.936	6.36
488.288	6.35
488.641	6.28
488.993	6.29
489.345	6.2
489.698	6.21
490.05	6.21
490.402	6.24
490.754	6.31
491.107	6.34
491.459	6.45
491.811	6.42
492.163	6.35
492.515	6.42
492.866	6.35
493.218	6.27
493.57	6.19
493.922	6.19
494.274	6.32
494.625	6.4
494.977	6.5
495.328	6.52
495.68	6.36
496.031	6.49
496.383	6.5
496.734	6.44
497.086	6.5
497.437	6.56
497.788	6.52
498.139	6.53
498.49	6.48
498.842	6.45
499.193	6.47
499.544	6.54
499.894	6.41
500.245	6.46
500.596	6.52
500.947	6.54
501.298	6.55
501.648	6.67
501.999	6.45
502.35	6.5
502.7	6.43
503.051	6.48
503.401	6.49
503.752	6.68
504.102	6.63
504.452	6.57
504.803	6.62
505.153	6.57
505.503	6.56
505.853	6.56
506.203	6.55
506.553	6.65
506.903	6.58
507.253	6.49
507.603	6.44
507.953	6.54
508.303	6.56
508.652	6.47
509.002	6.54
509.352	6.59
509.701	6.62
510.051	6.57
510.4	6.5
510.75	6.39
511.099	6.51
511.449	6.45
511.798	6.44
512.147	6.42
512.496	6.58
512.846	6.5
513.195	6.41
513.544	6.5
513.893	6.46
514.242	6.4
514.591	6.41
514.939	6.54
515.288	6.43
515.637	6.32
515.986	6.44
516.334	6.62
516.683	6.54
517.032	6.59
517.38	6.45
517.729	6.45
518.077	6.48
518.426	6.48
518.774	6.47
519.122	6.42
519.47	6.54
519.819	6.32
520.167	6.39
520.515	6.29
520.863	6.41
521.211	6.29
521.559	6.56
521.907	6.41
522.255	6.52
522.602	6.51
522.95	6.57
523.298	6.46
523.645	6.46
523.993	6.51
524.341	6.62
524.688	6.53
525.036	6.57
525.383	6.56
525.73	6.57
526.078	6.4
526.425	6.44
526.772	6.41
527.119	6.4
527.466	6.46
527.814	6.35
528.161	6.49
528.508	6.51
528.854	6.35
529.201	6.35
529.548	6.36
529.895	6.21
530.242	6.21
530.588	6.1
530.935	6.18
531.282	6.22
531.628	6.21
531.975	6.27
532.321	6.26
532.667	6.27
533.014	6.35
533.36	6.35
533.706	6.35
534.052	6.39
534.399	6.38
534.745	6.27
535.091	6.21
535.437	6.3
535.783	6.26
536.129	6.36
536.474	6.3
536.82	6.32
537.166	6.43
537.512	6.3
537.857	6.42
538.203	6.27
538.549	6.29
538.894	6.41
539.239	6.34
539.585	6.23
539.93	6.43
540.276	6.35
540.621	6.4
540.966	6.34
541.311	6.38
541.656	6.41
542.001	6.49
542.346	6.35
542.691	6.3
543.036	6.26
543.381	6.16
543.726	6.12
544.071	6.23
544.415	6.27
544.76	6.27
545.105	6.36
545.449	6.42
545.794	6.46
546.138	6.34
546.483	6.33
546.827	6.42
547.171	6.35
547.516	6.42
547.86	6.42
548.204	6.37
548.548	6.35
548.892	6.46
549.236	6.41
549.58	6.44
549.924	6.45
550.268	6.55
550.612	6.29
550.956	6.31
551.3	6.55
551.643	6.41
551.987	6.66
552.33	6.52
552.674	6.59
553.017	6.69
553.361	6.59
553.704	6.44
554.048	6.46
554.391	6.41
554.734	6.43
555.077	6.58
555.42	6.26
555.764	6.39
556.107	6.54
556.45	6.48
556.793	6.32
557.135	6.64
557.478	6.48
557.821	6.25
558.164	6.5
558.507	6.57
558.849	6.38
559.192	6.43
559.534	6.48
559.877	6.49
560.219	6.54
560.562	6.4
560.904	6.58
561.246	6.46
561.589	6.48
561.931	6.38
562.273	6.31
562.615	6.44
562.957	6.35
563.299	6.57
563.641	6.56
563.983	6.41
564.325	6.47
564.667	6.62
565.008	6.36
565.35	6.37
565.692	6.41
566.033	6.53
566.375	6.39
566.716	6.38
567.058	6.56
567.399	6.42
567.741	6.46
568.082	6.32
568.423	6.51
568.764	6.36
569.105	6.42
569.447	6.44
569.788	6.37
570.129	6.12
570.47	6.44
570.811	6.24
571.151	6.53
571.492	6.59
571.833	6.53
572.174	6.28
572.514	6.33
572.855	6.34
573.195	6.29
573.536	6.24
573.876	6.31
574.217	6.43
574.557	6.37
574.898	6.24
575.238	6.42
575.578	6.26
575.918	6.46
576.258	6.49
576.598	6.36
576.938	6.41
577.278	6.44
577.618	6.33
577.958	6.2
578.298	6.46
578.638	6.35
578.977	6.39
579.317	6.47
579.657	6.27
579.996	6.5
580.336	6.51
580.675	6.3
581.014	6.48
581.354	6.34
581.693	6.27
582.032	6.37
582.372	6.46
582.711	6.21
583.05	6.61
583.389	6.5
583.728	6.34
584.067	6.55
584.406	6.74
584.745	6.55
585.083	6.47
585.422	6.41
585.761	6.48
586.1	6.48
586.438	6.53
586.777	6.41
587.115	6.14
587.454	6.36
587.792	6.3
588.13	6.49
588.469	6.32
588.807	6.36
589.145	6.26
589.483	6.39
589.821	6.41
590.159	6.56
590.497	6.3
590.835	6.54
591.173	6.52
591.511	6.38
591.849	6.24
592.187	6.32
592.524	6.24
592.862	6.16
593.2	6.08
593.537	6.3
593.875	6.47
594.212	6.37
594.55	6.64
594.887	6.83
595.224	6.33
595.561	6.61
595.899	6.38
596.236	6.37
596.573	6.42
596.91	6.67
597.247	6.33
597.584	6.4
597.921	6.26
598.258	6.6
598.594	6.67
598.931	6.5
599.268	6.29
599.604	6.28
599.941	6.21
600.277	6.23
600.614	6.56
600.95	6.41
601.287	6.21
601.623	6.3
601.959	6.41
602.296	6.44
602.632	6.18
602.968	6.41
603.304	6.18
603.64	6.49
603.976	6.22
604.312	6.37
604.648	6.17
604.984	6.26
605.319	6.16
605.655	6.24
605.991	6.38
606.326	6.18
606.662	6.16
606.998	6.05
607.333	6.25
607.668	6.48
608.004	6.2
608.339	6.29
608.674	6.42
609.01	6.51
609.345	6.28
609.68	6.2
610.015	6.07
610.35	6.32
610.685	6.4
611.02	6.22
611.355	6.21
611.689	6.08
612.024	6.13
612.359	6.16
612.694	6.16
613.028	6.21
613.363	6.2
613.697	6.35
614.032	6.4
614.366	6.53
614.7	6.31
615.035	6.56
615.369	6.22
615.703	6.14
616.037	6.24
616.371	6.06
616.705	6.19
617.039	6.39
617.373	6.21
617.707	6.03
618.041	6.21
618.375	6
618.709	6.23
619.042	6.57
619.376	6.16
619.71	5.92
620.043	6.46
620.377	5.96
620.71	5.99
621.043	6.21
621.377	6.19
621.71	6.33
622.043	6.2
622.376	6.48
622.709	6.31
623.043	6
623.376	6.79
623.709	6.45
624.041	6.47
624.374	6.11
624.707	5.86
625.04	6.52
625.373	6.32
625.705	6.49
626.038	6.07
626.37	6.3
626.703	6.5
627.035	5.86
627.368	6.54
627.7	6.17
628.032	6.44
628.365	6.21
628.697	6.3
629.029	6.02
629.361	6.22
629.693	6.19
630.025	6
630.357	6.44
630.689	5.91
631.021	6.15
631.353	6.46
631.684	6.1
632.016	6.05
632.348	6.44
632.679	6.01
633.011	6.53
633.342	6.79
633.674	6.42
634.005	6.65
634.336	6.65
634.668	6.25
634.999	6.48
635.33	6.17
635.661	6.42
635.992	6.38
636.323	6.02
636.654	6.43
636.985	5.88
637.316	6.12
637.647	6.11
637.977	6.27
638.308	6.29
638.639	5.97
638.969	5.95
639.3	6.21
639.63	6.58
639.961	6.35
640.291	6.46
640.622	6.3
640.952	6.14
641.282	6.51
641.612	6.5
641.943	6.01
642.273	6.33
642.603	6.32
642.933	6.16
643.263	5.87
643.592	6.8
643.922	6.63
644.252	6.24
644.582	5.66
644.911	6.4
645.241	5.85
645.571	6.62
645.9	5.97
646.23	6.04
646.559	6.72
646.888	6.33
647.218	6.16
647.547	6.08
647.876	5.99
648.205	6.44
648.534	6.37
648.863	6.51
649.192	6.55
649.521	6.49
649.85	5.52
650.179	6.67
650.508	6.58
650.837	6.61
651.165	5.81
651.494	6.21
651.822	6.09
652.151	6.69
652.479	6.04
652.808	6.37
653.136	6.56
653.465	6.55
653.793	6.31
654.121	6.07
654.449	6.03
654.777	6.46
655.105	6.12
655.433	6.19
655.761	6.17
656.089	6.05
656.417	6.65
656.745	6.46
657.073	6.41
657.4	6.6
657.728	6
658.056	6.8
658.383	5.5
658.711	6.13
659.038	5.57
659.365	6.66
659.693	6.72
660.02	5.98
660.347	6.35
660.674	5.99
661.001	6.32
661.329	6.42
661.656	6.49
661.982	5.98
662.309	6.53
662.636	6.7
662.963	6.69
663.29	6.54
663.616	6.39
663.943	6.16
664.27	6.82
664.596	6.02
664.923	6.81
665.249	6.1
665.576	6.15
665.902	6.27
666.228	6.56
666.554	6.22
666.881	5.7
667.207	6.73
667.533	6.15
667.859	5.68
668.185	6.16
668.511	6.12
668.837	5.67
669.162	6.95
669.488	6.49
669.814	6.55
670.139	5.97
670.465	5.7
670.791	6.55
671.116	5.71
671.442	6.35
671.767	6.37
672.092	6.84
672.418	6.12
672.743	6.43
673.068	5.93
673.393	5.76
673.718	6.27
674.043	5.88
674.368	5.46
674.693	6.06
675.018	6.12
675.343	6.04
675.667	6.65
675.992	6.22
676.317	5.81
676.641	6.61
676.966	6.13
677.29	6.19
677.615	6.15
677.939	6.65
678.264	6.83
678.588	6.19
678.912	6.66
679.236	5.69
679.56	6.69
679.885	6.68
680.209	6.59
680.532	6.44
680.856	6.55
681.18	6.25
681.504	6.21
681.828	5.93
682.152	6.34
682.475	6.76
682.799	6.4
683.122	6.4
683.446	6.24
683.769	6.88
684.093	5.44
684.416	6.32
684.739	6.97
685.062	6.61
685.386	6.5
685.709	6.35
686.032	6.23
686.355	5.68
686.678	7.04
687.001	6.07
687.324	6.5
687.646	6.14
687.969	6.4
688.292	6.18
688.614	6.78
688.937	6.27
689.26	6.43
689.582	5.34
689.904	5.9
690.227	7.06
690.549	6.17
690.871	5.91
691.194	7.31
691.516	6.54
691.838	6.16
692.16	6.56
692.482	6.19
