Data from 0401_crown_Reflection__0__203.txt Node

Date: Tue Dec 12 20:06:14 CST 2023
User: ToomeyLab
Spectrometer: FLMS14357
Trigger mode: 0
Integration Time (sec): 1.000000E-2
Scans to average: 100
Electric dark correction enabled: true
Nonlinearity correction enabled: false
Boxcar width: 0
XAxis mode: Wavelengths
Number of Pixels in Spectrum: 2048
>>>>>Begin Spectral Data<<<<<
189.047	9.23
189.435	9.23
189.823	9.23
190.211	-791.12
190.599	-553.61
190.987	127.18
191.375	-3488.89
191.763	-20.51
192.151	220.11
192.538	-120.07
192.926	28.67
193.314	1285.71
193.702	14.53
194.089	119.69
194.477	208.21
194.864	89.15
195.252	-513.37
195.639	162.42
196.027	-297.66
196.414	-42.93
196.801	44.11
197.189	381.29
197.576	951.04
197.963	83.7
198.351	36.51
198.738	14.17
199.125	12.32
199.512	-31.69
199.899	1.79
200.286	24.06
200.673	-94.73
201.06	-58.28
201.447	-251.46
201.833	-113.67
202.22	-32.67
202.607	-317.68
202.994	52.63
203.38	48.26
203.767	-76.76
204.154	12.64
204.54	6.83
204.927	-45.03
205.313	18.69
205.699	-106.46
206.086	-76.8
206.472	48.85
206.858	-17.05
207.245	-23.46
207.631	-15.75
208.017	-24.18
208.403	-44.87
208.789	5.18
209.175	-33.72
209.561	4.41
209.947	31.88
210.333	17.77
210.719	-47.87
211.105	-13.94
211.491	4.75
211.876	-9.52
212.262	18.03
212.648	-137.68
213.034	-6.32
213.419	-36.91
213.805	-25.64
214.19	18.24
214.576	-1.94
214.961	-29.59
215.346	37.11
215.732	28.75
216.117	-30.41
216.502	-64.32
216.888	-63.01
217.273	-46.93
217.658	-54.42
218.043	-40
218.428	-4.67
218.813	-17.46
219.198	-9.31
219.583	5.94
219.968	6.97
220.353	-27.61
220.738	-11.63
221.122	-34.64
221.507	-33.45
221.892	-28.48
222.276	6.79
222.661	-3.39
223.046	-5.67
223.43	5.31
223.815	-14.09
224.199	12.98
224.583	-3.18
224.968	-1.41
225.352	-5.85
225.736	6.4
226.121	-13.99
226.505	-6.19
226.889	8.47
227.273	3.9
227.657	14.5
228.041	7.05
228.425	5.13
228.809	-1.92
229.193	2.74
229.577	6.87
229.961	5.86
230.344	8.08
230.728	8.23
231.112	8.73
231.495	7.84
231.879	8.1
232.263	7.11
232.646	7.27
233.03	8.06
233.413	5.59
233.797	7.43
234.18	4.3
234.563	4.32
234.946	5.26
235.33	8.28
235.713	7.66
236.096	7.82
236.479	6.14
236.862	5.5
237.245	5.47
237.628	7.29
238.011	7.95
238.394	4.88
238.777	6.75
239.16	4.5
239.543	6.66
239.925	8.08
240.308	6.72
240.691	5.75
241.073	6.66
241.456	5.88
241.838	5.87
242.221	6.67
242.603	7.2
242.986	6.82
243.368	7.71
243.75	7.07
244.133	7.14
244.515	7.26
244.897	6.93
245.279	7.86
245.661	6.18
246.043	5.28
246.425	5.96
246.807	5.13
247.189	7.08
247.571	6.71
247.953	6.72
248.335	6.81
248.717	6.68
249.098	6.99
249.48	6.55
249.862	6.64
250.243	6.69
250.625	7.57
251.006	6.08
251.388	6.29
251.769	6.03
252.151	5.34
252.532	5.95
252.913	6.83
253.295	7.14
253.676	5.85
254.057	6.07
254.438	6.43
254.819	5.15
255.2	5.48
255.581	4.67
255.962	5.93
256.343	4.99
256.724	6.4
257.105	7.11
257.486	5.91
257.867	4.75
258.247	5.05
258.628	5.75
259.009	4.13
259.389	5.64
259.77	5.09
260.15	5.61
260.531	6.49
260.911	6.37
261.292	5.46
261.672	5.8
262.052	5.74
262.432	6.06
262.813	5.44
263.193	6
263.573	5.26
263.953	6.07
264.333	5.8
264.713	5.2
265.093	5.25
265.473	5.78
265.853	4.69
266.233	5.02
266.612	4.8
266.992	6.02
267.372	4.96
267.752	5.84
268.131	4.33
268.511	5.28
268.89	5.38
269.27	5.3
269.649	5.49
270.029	5.63
270.408	5.44
270.787	5.11
271.167	5.09
271.546	5.18
271.925	5.95
272.304	5.58
272.683	4.67
273.062	5.31
273.441	5.62
273.82	5.07
274.199	5.24
274.578	5.22
274.957	5.29
275.336	5.11
275.715	6.2
276.093	4.55
276.472	4.86
276.851	5.68
277.229	4.08
277.608	5.45
277.986	4.72
278.365	4.44
278.743	4.71
279.122	5.72
279.5	4.5
279.878	4.5
280.257	4.63
280.635	4.55
281.013	5.12
281.391	5.57
281.769	5
282.147	4.76
282.525	4.14
282.903	4.68
283.281	4.55
283.659	5.26
284.037	5.4
284.415	4.62
284.792	5.11
285.17	4.81
285.548	5.46
285.925	5.06
286.303	4.84
286.68	4.9
287.058	5.18
287.435	5.23
287.813	4.89
288.19	4.84
288.567	4.96
288.945	5.19
289.322	4.5
289.699	4.93
290.076	4.91
290.453	4.92
290.83	4.72
291.207	4.82
291.584	4.42
291.961	5.01
292.338	4.93
292.715	5.28
293.092	4.69
293.469	4.56
293.845	4.82
294.222	4.62
294.599	5.16
294.975	4.44
295.352	4.45
295.728	4.76
296.105	4.53
296.481	5.38
296.858	4.55
297.234	4.91
297.61	4.71
297.986	4.65
298.363	4.84
298.739	4.64
299.115	4.58
299.491	4.73
299.867	4.63
300.243	4.65
300.619	4.56
300.995	4.57
301.371	4.55
301.746	4.6
302.122	5.29
302.498	4.5
302.874	4.39
303.249	5.41
303.625	4.16
304	4.46
304.376	4.11
304.751	4.42
305.127	4.06
305.502	5.23
305.878	4.69
306.253	4.88
306.628	4.42
307.003	4.41
307.378	3.73
307.754	4.45
308.129	3.95
308.504	5.52
308.879	3.9
309.254	5.18
309.629	4.34
310.003	4.69
310.378	4.35
310.753	4.98
311.128	5.02
311.502	3.81
311.877	4.5
312.252	3.84
312.626	4.37
313.001	4.26
313.375	4.03
313.75	4.56
314.124	4.66
314.498	4.22
314.873	4.12
315.247	4.23
315.621	4.34
315.995	5.09
316.369	4.39
316.743	3.69
317.117	4.42
317.491	4.02
317.865	3.91
318.239	4.11
318.613	4.21
318.987	4.66
319.361	4.36
319.734	3.64
320.108	4.5
320.482	4.59
320.855	3.86
321.229	4.12
321.602	4.1
321.976	4.21
322.349	4.2
322.723	3.9
323.096	3.58
323.469	3.76
323.843	5.42
324.216	4.38
324.589	4.27
324.962	4.98
325.335	4.58
325.708	4.64
326.081	4.2
326.454	4.31
326.827	4.71
327.2	4.51
327.573	4.4
327.945	4.47
328.318	4.67
328.691	3.57
329.063	4.43
329.436	4.89
329.809	4.59
330.181	3.99
330.553	4.13
330.926	4.18
331.298	3.9
331.671	4.44
332.043	4.32
332.415	4.57
332.787	4.01
333.159	4.37
333.532	3.89
333.904	4.3
334.276	4.37
334.648	4.18
335.02	3.24
335.391	4.24
335.763	3.89
336.135	4.49
336.507	4.27
336.879	4.23
337.25	3.94
337.622	3.67
337.993	4.16
338.365	3.81
338.736	4.62
339.108	4.47
339.479	4.45
339.851	4
340.222	3.73
340.593	4.43
340.964	4.47
341.336	4.52
341.707	3.44
342.078	4.29
342.449	3.8
342.82	4.4
343.191	4.79
343.562	4.63
343.933	4.73
344.303	4.97
344.674	4.66
345.045	4.4
345.416	4.81
345.786	4.43
346.157	4.39
346.527	4.81
346.898	4.41
347.268	4.27
347.639	4.72
348.009	4.07
348.38	4.42
348.75	4.72
349.12	4.88
349.49	4.26
349.861	4.59
350.231	4.44
350.601	4.67
350.971	4.45
351.341	4.46
351.711	4.84
352.081	4.43
352.45	4.3
352.82	4.79
353.19	4.3
353.56	3.77
353.929	3.75
354.299	4.13
354.669	4.27
355.038	3.96
355.408	4.44
355.777	4.45
356.147	4.27
356.516	4.33
356.885	4.11
357.254	4.49
357.624	4.57
357.993	4.49
358.362	4.63
358.731	4.74
359.1	4.08
359.469	4.51
359.838	4.22
360.207	4.41
360.576	4.55
360.945	4.26
361.314	4.54
361.682	4.8
362.051	4.79
362.42	4.87
362.788	4.49
363.157	4.93
363.525	4.81
363.894	4.43
364.262	4.67
364.631	4.29
364.999	4.64
365.367	4.68
365.735	4.76
366.104	4.94
366.472	4.57
366.84	4.49
367.208	4.69
367.576	4.94
367.944	4.79
368.312	4.93
368.68	5.08
369.048	4.79
369.416	4.99
369.783	4.71
370.151	4.5
370.519	4.55
370.886	4.84
371.254	4.74
371.621	4.88
371.989	4.43
372.356	4.51
372.724	4.68
373.091	4.77
373.458	4.56
373.826	4.54
374.193	4.32
374.56	4.94
374.927	4.9
375.294	4.51
375.661	5.12
376.028	5.06
376.395	5.15
376.762	5.32
377.129	5.23
377.496	5.01
377.863	4.67
378.229	4.47
378.596	4.78
378.963	5.04
379.329	4.92
379.696	4.48
380.062	5.07
380.429	4.74
380.795	5.01
381.161	5.01
381.528	4.93
381.894	4.93
382.26	4.68
382.626	4.74
382.993	4.92
383.359	4.58
383.725	4.75
384.091	4.75
384.457	4.76
384.823	4.75
385.188	4.85
385.554	4.94
385.92	4.83
386.286	5.12
386.651	5.34
387.017	4.94
387.383	5.19
387.748	4.86
388.114	5.21
388.479	5.16
388.845	5.03
389.21	4.9
389.575	4.86
389.94	5.09
390.306	5.15
390.671	4.69
391.036	5.14
391.401	4.83
391.766	5
392.131	4.86
392.496	4.84
392.861	4.97
393.226	5.02
393.591	4.89
393.956	4.94
394.32	5.08
394.685	5.3
395.05	4.97
395.414	4.65
395.779	4.86
396.143	5.25
396.508	4.94
396.872	4.94
397.236	5.02
397.601	5.04
397.965	4.97
398.329	4.9
398.694	4.83
399.058	5.5
399.422	5.08
399.786	5.03
400.15	4.79
400.514	5.06
400.878	5.03
401.242	5.21
401.605	5.2
401.969	4.88
402.333	5.32
402.697	5.07
403.06	4.96
403.424	5.13
403.787	4.92
404.151	5.01
404.514	4.86
404.878	4.83
405.241	5.01
405.604	5.13
405.968	4.95
406.331	5.07
406.694	5.26
407.057	4.96
407.42	5.08
407.783	5.04
408.146	4.89
408.509	5.1
408.872	5.31
409.235	5.14
409.598	4.84
409.961	5.05
410.323	5.28
410.686	5.25
411.049	5.07
411.411	5.41
411.774	5.15
412.136	5.21
412.499	5.17
412.861	5.05
413.223	5.3
413.586	5.1
413.948	5.17
414.31	5.38
414.672	5.22
415.035	5.14
415.397	5.17
415.759	4.96
416.121	5.13
416.483	5.21
416.845	5.02
417.206	5.26
417.568	5.18
417.93	5.29
418.292	5.09
418.653	5.25
419.015	5.13
419.377	5.09
419.738	5.1
420.1	5.04
420.461	5.19
420.822	5.31
421.184	5.07
421.545	5.32
421.906	5.07
422.267	5.05
422.629	5.2
422.99	5.22
423.351	5.12
423.712	5.02
424.073	5.14
424.434	5.18
424.795	5.18
425.155	5.04
425.516	4.96
425.877	5.05
426.238	5.12
426.598	5.12
426.959	5.2
427.32	5.13
427.68	5.24
428.041	5.24
428.401	5.17
428.761	5.13
429.122	5.32
429.482	5.46
429.842	5.29
430.202	5.19
430.563	5.26
430.923	5.2
431.283	5.2
431.643	5.4
432.003	4.98
432.363	5.01
432.722	5.01
433.082	5.18
433.442	5.39
433.802	5.21
434.161	5.13
434.521	5.25
434.881	5.17
435.24	5.27
435.6	5.26
435.959	5.11
436.319	5.41
436.678	5.38
437.037	5.21
437.396	5.18
437.756	5.37
438.115	5.36
438.474	5.19
438.833	5.42
439.192	5.22
439.551	4.95
439.91	5.04
440.269	5.14
440.628	5.1
440.987	5.23
441.345	5.26
441.704	5.15
442.063	5.22
442.421	5.27
442.78	5.14
443.138	5.13
443.497	5.27
443.855	5.17
444.214	5.09
444.572	5.35
444.93	5.29
445.288	5.02
445.647	5.35
446.005	5.22
446.363	5.07
446.721	5.21
447.079	5.25
447.437	5.08
447.795	5.15
448.153	5.16
448.51	5.29
448.868	5.22
449.226	5.23
449.584	5.22
449.941	5.2
450.299	5.25
450.656	5.25
451.014	5.26
451.371	5.22
451.729	5.26
452.086	5.22
452.443	5.33
452.801	5.27
453.158	5.39
453.515	5.31
453.872	5.17
454.229	5.32
454.586	4.87
454.943	5.1
455.3	5.18
455.657	5.24
456.014	5.39
456.371	5.42
456.727	5.33
457.084	5.28
457.441	5.33
457.797	5.2
458.154	5.31
458.51	5.16
458.867	5.27
459.223	5.28
459.58	5.4
459.936	4.89
460.292	5.11
460.648	5.21
461.005	5.23
461.361	5.24
461.717	5.25
462.073	5.11
462.429	5.19
462.785	5.16
463.141	5.27
463.496	5.1
463.852	5.39
464.208	5.24
464.564	5.26
464.919	5.44
465.275	5.26
465.631	5.45
465.986	5.17
466.342	5.15
466.697	5.35
467.052	5.57
467.408	5.37
467.763	5.28
468.118	5.33
468.473	5.28
468.829	5.32
469.184	5.08
469.539	5.28
469.894	5.38
470.249	5.48
470.603	5.27
470.958	5.45
471.313	5.43
471.668	5.37
472.023	5.19
472.377	5.24
472.732	5.33
473.086	5.4
473.441	5.32
473.795	5.31
474.15	5.36
474.504	5.17
474.859	5.24
475.213	5.17
475.567	5.26
475.921	5.33
476.275	5.08
476.63	5.2
476.984	5.23
477.338	4.99
477.692	5.26
478.045	5.38
478.399	5.16
478.753	5.21
479.107	5.29
479.461	5.25
479.814	5.39
480.168	4.99
480.521	5.09
480.875	5.26
481.228	5.32
481.582	5.31
481.935	5.28
482.289	5.33
482.642	5.27
482.995	5.22
483.348	5.18
483.701	5.35
484.055	5.31
484.408	5.22
484.761	5.2
485.114	5.08
485.466	4.94
485.819	4.94
486.172	4.91
486.525	5.01
486.878	5.03
487.23	5.04
487.583	5.1
487.936	5.17
488.288	5.13
488.641	5.16
488.993	5.06
489.345	5.06
489.698	5.04
490.05	5.03
490.402	5.04
490.754	5.08
491.107	5.11
491.459	5.18
491.811	5.21
492.163	5.08
492.515	5.26
492.866	5.12
493.218	5.11
493.57	5.05
493.922	4.95
494.274	5.15
494.625	5.17
494.977	5.32
495.328	5.29
495.68	5.18
496.031	5.34
496.383	5.12
496.734	5.25
497.086	5.21
497.437	5.25
497.788	5.3
498.139	5.3
498.49	5.18
498.842	5.17
499.193	5.26
499.544	5.26
499.894	5.12
500.245	5.29
500.596	5.27
500.947	5.22
501.298	5.35
501.648	5.39
501.999	5.21
502.35	5.19
502.7	5.33
503.051	5.29
503.401	5.31
503.752	5.35
504.102	5.21
504.452	5.29
504.803	5.28
505.153	5.26
505.503	5.38
505.853	5.37
506.203	5.38
506.553	5.25
506.903	5.32
507.253	5.31
507.603	5.37
507.953	5.23
508.303	5.26
508.652	5.21
509.002	5.37
509.352	5.27
509.701	5.3
510.051	5.25
510.4	5.21
510.75	5.22
511.099	5.15
511.449	5.32
511.798	5.16
512.147	5.29
512.496	5.45
512.846	5.3
513.195	5.31
513.544	5.38
513.893	5.26
514.242	5.19
514.591	5.19
514.939	5.28
515.288	5.18
515.637	5.13
515.986	5.35
516.334	5.25
516.683	5.31
517.032	5.36
517.38	5.29
517.729	5.21
518.077	5.28
518.426	5.37
518.774	5.36
519.122	5.18
519.47	5.18
519.819	5.22
520.167	5.11
520.515	5.14
520.863	5.15
521.211	5.21
521.559	5.21
521.907	5.14
522.255	5.21
522.602	5.31
522.95	5.28
523.298	5.33
523.645	5.33
523.993	5.28
524.341	5.36
524.688	5.24
525.036	5.13
525.383	5.3
525.73	5.2
526.078	5.31
526.425	5.25
526.772	5.2
527.119	5.21
527.466	5.16
527.814	5.11
528.161	5.25
528.508	5.17
528.854	5.13
529.201	5.18
529.548	5.18
529.895	5.06
530.242	5.02
530.588	4.93
530.935	5.03
531.282	5.06
531.628	5.14
531.975	5.12
532.321	5.12
532.667	5.04
533.014	5.15
533.36	5.16
533.706	5.16
534.052	5.21
534.399	5.19
534.745	5.13
535.091	5.1
535.437	5.07
535.783	5.07
536.129	5.16
536.474	5.12
536.82	5.15
537.166	5.23
537.512	5.24
537.857	5.26
538.203	5.13
538.549	5.11
538.894	5.16
539.239	5.18
539.585	5.24
539.93	5.23
540.276	5.12
540.621	5.16
540.966	5.21
541.311	5.28
541.656	5.44
542.001	5.12
542.346	5.18
542.691	5.19
543.036	5.01
543.381	5
543.726	5.02
544.071	5.06
544.415	5.02
544.76	5.07
545.105	5.17
545.449	5.12
545.794	5.19
546.138	5.09
546.483	5.18
546.827	5.18
547.171	5.22
547.516	5.15
547.86	5.28
548.204	5.24
548.548	5.24
548.892	5.25
549.236	5.15
549.58	5.17
549.924	5.04
550.268	5.37
550.612	5.08
550.956	5.24
551.3	5.54
551.643	5.31
551.987	5.4
552.33	5.24
552.674	5.49
553.017	5.52
553.361	5.38
553.704	5.22
554.048	5.3
554.391	5.25
554.734	5.29
555.077	5.25
555.42	5.09
555.764	5.32
556.107	5.29
556.45	5.22
556.793	4.99
557.135	5.13
557.478	5.16
557.821	5.15
558.164	5.32
558.507	5.37
558.849	5.24
559.192	5.34
559.534	5.23
559.877	5.09
560.219	5.37
560.562	5.2
560.904	5.45
561.246	5.15
561.589	5.34
561.931	5.28
562.273	5.14
562.615	5.2
562.957	5.27
563.299	5.33
563.641	5.5
563.983	5.19
564.325	5.19
564.667	5.22
565.008	5.21
565.35	5.18
565.692	5.2
566.033	5.32
566.375	5.17
566.716	5.15
567.058	5.43
567.399	5.27
567.741	5.27
568.082	5.1
568.423	5.22
568.764	5.25
569.105	5.1
569.447	5.33
569.788	5.17
570.129	5.16
570.47	5.28
570.811	5.26
571.151	5.25
571.492	5.34
571.833	5.16
572.174	5.25
572.514	5.24
572.855	5.04
573.195	5.1
573.536	5.05
573.876	5.22
574.217	5.15
574.557	5.18
574.898	5.06
575.238	5.3
575.578	5.3
575.918	5.14
576.258	5.11
576.598	5.1
576.938	5.37
577.278	5.27
577.618	5.22
577.958	5.12
578.298	5.29
578.638	5.22
578.977	5.02
579.317	5.07
579.657	5.18
579.996	5.26
580.336	5.29
580.675	5.16
581.014	5.07
581.354	5.14
581.693	4.97
582.032	5.09
582.372	5.11
582.711	5.3
583.05	4.98
583.389	5.21
583.728	5.34
584.067	5.43
584.406	5.35
584.745	5.4
585.083	5.04
585.422	5.26
585.761	5.36
586.1	4.95
586.438	5.3
586.777	5.1
587.115	5.05
587.454	5.28
587.792	4.85
588.13	5.18
588.469	5.07
588.807	5.18
589.145	5
589.483	5.1
589.821	5.33
590.159	5.5
590.497	5.09
590.835	5.07
591.173	5.07
591.511	5.08
591.849	4.94
592.187	5.17
592.524	5.04
592.862	4.98
593.2	5.03
593.537	5
593.875	5.39
594.212	5.07
594.55	5.28
594.887	5.57
595.224	5.07
595.561	5.3
595.899	5.16
596.236	5.33
596.573	5.16
596.91	5.48
597.247	4.99
597.584	5.27
597.921	5.07
598.258	5.2
598.594	5.13
598.931	5.16
599.268	5.03
599.604	5.14
599.941	5.1
600.277	5.13
600.614	5.34
600.95	5.06
601.287	5.08
601.623	5.23
601.959	4.92
602.296	5.13
602.632	4.94
602.968	5.15
603.304	5.06
603.64	5.01
603.976	4.9
604.312	5.02
604.648	5.03
604.984	5.21
605.319	5.01
605.655	5.09
605.991	5.14
606.326	4.8
606.662	4.97
606.998	5.06
607.333	5.07
607.668	5.13
608.004	5.1
608.339	5.31
608.674	4.96
609.01	5.26
609.345	5.03
609.68	4.94
610.015	4.72
610.35	4.83
610.685	5.16
611.02	5.05
611.355	5.12
611.689	5.02
612.024	4.87
612.359	5.11
612.694	5.03
613.028	5.05
613.363	5.18
613.697	5.14
614.032	5.35
614.366	5.21
614.7	5.16
615.035	5.2
615.369	5.02
615.703	4.79
616.037	5.16
616.371	5.05
616.705	4.95
617.039	4.86
617.373	5.06
617.707	4.86
618.041	4.83
618.375	4.87
618.709	4.95
619.042	5.1
619.376	4.72
619.71	4.84
620.043	5.38
620.377	4.91
620.71	4.67
621.043	4.9
621.377	4.68
621.71	5.15
622.043	5.33
622.376	5.06
622.709	4.97
623.043	5.02
623.376	5.24
623.709	5.05
624.041	5.09
624.374	4.83
624.707	5.01
625.04	4.68
625.373	5.35
625.705	5.61
626.038	5.05
626.37	5.44
626.703	5.24
627.035	4.98
627.368	5.16
627.7	4.95
628.032	4.49
628.365	4.72
628.697	4.8
629.029	4.88
629.361	5.05
629.693	5.3
630.025	4.69
630.357	5.03
630.689	4.45
631.021	5.49
631.353	5.21
631.684	4.84
632.016	4.83
632.348	5.34
632.679	4.53
633.011	5.43
633.342	5.09
633.674	5.22
634.005	4.95
634.336	5.05
634.668	5.07
634.999	5.17
635.33	4.68
635.661	5.36
635.992	4.89
636.323	4.67
636.654	5.11
636.985	4.71
637.316	5.04
637.647	5.04
637.977	4.99
638.308	5.2
638.639	4.98
638.969	4.64
639.3	5
639.63	5.31
639.961	5.13
640.291	4.37
640.622	5.28
640.952	4.94
641.282	5.01
641.612	4.96
641.943	5.1
642.273	5.08
642.603	5.51
642.933	4.78
643.263	4.53
643.592	5.17
643.922	5.43
644.252	4.83
644.582	4.3
644.911	4.7
645.241	4.8
645.571	5.5
645.9	4.73
646.23	4.82
646.559	5.23
646.888	4.86
647.218	5.09
647.547	4.82
647.876	4.79
648.205	4.87
648.534	5.45
648.863	4.73
649.192	5.28
649.521	5.49
649.85	4.5
650.179	5.26
650.508	4.91
650.837	4.86
651.165	5.24
651.494	4.63
651.822	4.6
652.151	5.49
652.479	5.29
652.808	5.34
653.136	4.89
653.465	5.01
653.793	5.01
654.121	5.16
654.449	4.89
654.777	5.31
655.105	5.21
655.433	4.99
655.761	5.13
656.089	4.22
656.417	5.28
656.745	5.07
657.073	4.25
657.4	4.97
657.728	4.48
658.056	5.09
658.383	4
658.711	4.66
659.038	4.88
659.365	4.24
659.693	5
660.02	4.69
660.347	5.51
660.674	5.31
661.001	4.98
661.329	5
661.656	4.83
661.982	4.84
662.309	5.11
662.636	4.97
662.963	4.81
663.29	5.15
663.616	4.8
663.943	5.17
664.27	5.48
664.596	4.81
664.923	5.49
665.249	4.51
665.576	4.8
665.902	4.92
666.228	4.73
666.554	5.2
666.881	4.34
667.207	5.34
667.533	5.36
667.859	4.95
668.185	5.18
668.511	4.88
668.837	4.49
669.162	5.75
669.488	4.77
669.814	5.05
670.139	5.08
670.465	4.9
670.791	4.99
671.116	4.49
671.442	4.99
671.767	4.94
672.092	5.5
672.418	4.31
672.743	4.94
673.068	4.8
673.393	4.74
673.718	4.77
674.043	4.71
674.368	3.68
674.693	4.67
675.018	4.69
675.343	4.7
675.667	4.87
675.992	4.93
676.317	5.02
676.641	4.5
676.966	4.84
677.29	4.38
677.615	4.49
677.939	4.83
678.264	5.23
678.588	5.19
678.912	4.86
679.236	4.31
679.56	4.52
679.885	4.7
680.209	5.2
680.532	5.26
680.856	4.79
681.18	4.99
681.504	4.86
681.828	5.34
682.152	4.43
682.475	5.1
682.799	5.28
683.122	4.48
683.446	5.13
683.769	5.66
684.093	4.43
684.416	4.89
684.739	5.84
685.062	4.8
685.386	5.17
685.709	5.25
686.032	5.21
686.355	4.77
686.678	5.28
687.001	4.29
687.324	4.99
687.646	5.2
687.969	4.93
688.292	4.68
688.614	4.87
688.937	4.57
689.26	4.88
689.582	5.01
689.904	5.12
690.227	4.78
690.549	5.59
690.871	4.91
691.194	4.91
691.516	4.74
691.838	4.14
