Data from 0401_chest_Reflection__0__197.txt Node

Date: Tue Dec 12 20:04:11 CST 2023
User: ToomeyLab
Spectrometer: FLMS14357
Trigger mode: 0
Integration Time (sec): 1.000000E-2
Scans to average: 100
Electric dark correction enabled: true
Nonlinearity correction enabled: false
Boxcar width: 0
XAxis mode: Wavelengths
Number of Pixels in Spectrum: 2048
>>>>>Begin Spectral Data<<<<<
189.047	306.46
189.435	306.46
189.823	306.46
190.211	145.17
190.599	-36.36
190.987	66.14
191.375	123.46
191.763	-173.63
192.151	60.56
192.538	338.84
192.926	13.83
193.314	-345.34
193.702	276.24
194.089	-42.57
194.477	-65.87
194.864	55.3
195.252	-177.87
195.639	379.96
196.027	-1528.31
196.414	-12.69
196.801	341.57
197.189	277.22
197.576	666.05
197.963	133.75
198.351	40.51
198.738	46.87
199.125	-29.82
199.512	-68.45
199.899	-9.34
200.286	34.23
200.673	-74.8
201.06	-77.01
201.447	-290.96
201.833	-47.63
202.22	-9.62
202.607	-184.21
202.994	-19.41
203.38	4.08
203.767	-0.57
204.154	17.02
204.54	24.12
204.927	-14.11
205.313	21.34
205.699	-119.39
206.086	-36.6
206.472	0.52
206.858	-16.27
207.245	-16.51
207.631	30.73
208.017	18.85
208.403	-34.89
208.789	15.86
209.175	-108.15
209.561	1
209.947	-68.1
210.333	41.21
210.719	5.17
211.105	-50.64
211.491	30.53
211.876	17.47
212.262	-22.21
212.648	-91.19
213.034	-68.14
213.419	-32.74
213.805	11.8
214.19	8.57
214.576	-3.84
214.961	-1.93
215.346	-89.23
215.732	20.74
216.117	4.05
216.502	-27.27
216.888	-30.63
217.273	-40.11
217.658	-37.1
218.043	-35.02
218.428	-2.34
218.813	-6.7
219.198	-44.1
219.583	-15.62
219.968	23.85
220.353	-22.84
220.738	30.8
221.122	13.36
221.507	0.93
221.892	0.66
222.276	-2.95
222.661	-17.07
223.046	-32.43
223.43	-3.96
223.815	-15.31
224.199	9.94
224.583	-3.42
224.968	0.71
225.352	-8.24
225.736	4.07
226.121	-1.42
226.505	3.64
226.889	3.49
227.273	-4.16
227.657	4.8
228.041	4.07
228.425	0.82
228.809	-3.25
229.193	-0.72
229.577	3.7
229.961	-0.4
230.344	3.13
230.728	3.74
231.112	2.55
231.495	3.05
231.879	2.94
232.263	0.84
232.646	3.61
233.03	-0.09
233.413	0.78
233.797	2.4
234.18	-1.67
234.563	0.65
234.946	0.48
235.33	4.54
235.713	2.77
236.096	1.69
236.479	1.67
236.862	1.82
237.245	0.53
237.628	1.22
238.011	1.62
238.394	0.78
238.777	0.73
239.16	1.99
239.543	3.56
239.925	3.54
240.308	-0.22
240.691	2.05
241.073	2.72
241.456	1.97
241.838	1.96
242.221	3.5
242.603	2.57
242.986	0.86
243.368	2.42
243.75	2.35
244.133	2.59
244.515	3.04
244.897	2.52
245.279	3.43
245.661	1.12
246.043	1.04
246.425	3.06
246.807	1.01
247.189	2.63
247.571	2.79
247.953	2.37
248.335	2.57
248.717	2.72
249.098	2.56
249.48	2.43
249.862	2.72
250.243	1.67
250.625	2.76
251.006	2.2
251.388	2.54
251.769	2.34
252.151	1.22
252.532	2.73
252.913	2.65
253.295	2.65
253.676	1.64
254.057	1.78
254.438	2.85
254.819	1.68
255.2	2.33
255.581	1.21
255.962	0.63
256.343	2.46
256.724	1.77
257.105	2.79
257.486	1.96
257.867	0.32
258.247	1.9
258.628	3.31
259.009	1.91
259.389	1.7
259.77	2.56
260.15	1.88
260.531	2.66
260.911	2.49
261.292	1.95
261.672	2.13
262.052	2.21
262.432	2.36
262.813	2.32
263.193	2.3
263.573	2.96
263.953	2.69
264.333	3.29
264.713	2.27
265.093	2.6
265.473	3.03
265.853	1.79
266.233	1.82
266.612	0.79
266.992	2.06
267.372	2.39
267.752	2.76
268.131	1.19
268.511	1.51
268.89	0.98
269.27	0.91
269.649	1.85
270.029	2.08
270.408	2.34
270.787	1.52
271.167	1.9
271.546	1.91
271.925	2.16
272.304	2.07
272.683	1.75
273.062	2.47
273.441	2.57
273.82	1.66
274.199	2.47
274.578	1.99
274.957	2.09
275.336	2.12
275.715	1.93
276.093	1.92
276.472	2.03
276.851	1.72
277.229	1.71
277.608	2.23
277.986	1.35
278.365	1.7
278.743	2.26
279.122	2.5
279.5	1.65
279.878	1.65
280.257	2.17
280.635	2.05
281.013	1.62
281.391	2.09
281.769	1.62
282.147	2.2
282.525	1.75
282.903	1.77
283.281	1.79
283.659	1.9
284.037	2.45
284.415	2
284.792	2.16
285.17	1.62
285.548	2.88
285.925	2.05
286.303	2.07
286.68	2.36
287.058	2.22
287.435	1.96
287.813	1.49
288.19	1.69
288.567	2.01
288.945	2.13
289.322	1.19
289.699	1.67
290.076	2.2
290.453	2.18
290.83	1.99
291.207	2.27
291.584	2.34
291.961	2.39
292.338	2.14
292.715	1.76
293.092	1.65
293.469	1.98
293.845	2.3
294.222	1.88
294.599	2.17
294.975	2.43
295.352	1.7
295.728	1.95
296.105	2.08
296.481	2.23
296.858	2.59
297.234	2.56
297.61	2.32
297.986	2.11
298.363	2.36
298.739	2.29
299.115	1.98
299.491	2.29
299.867	2.4
300.243	2.23
300.619	2.41
300.995	1.95
301.371	2.17
301.746	1.75
302.122	1.99
302.498	2.03
302.874	2.1
303.249	2.75
303.625	1.99
304	2.15
304.376	2.35
304.751	2.38
305.127	2
305.502	2.16
305.878	1.82
306.253	1.87
306.628	1.93
307.003	2.27
307.378	2.1
307.754	2.51
308.129	1.8
308.504	2.8
308.879	1.71
309.254	2.69
309.629	2.01
310.003	1.94
310.378	2.3
310.753	2.83
311.128	2.64
311.502	1.72
311.877	1.91
312.252	1.81
312.626	2.14
313.001	2.03
313.375	1.92
313.75	2.06
314.124	2.28
314.498	2.3
314.873	1.91
315.247	2.58
315.621	2.02
315.995	2.58
316.369	2.27
316.743	1.98
317.117	2.07
317.491	2.06
317.865	2.09
318.239	1.92
318.613	2.27
318.987	1.78
319.361	1.44
319.734	1.67
320.108	2.69
320.482	2.07
320.855	1.77
321.229	2.12
321.602	2.62
321.976	2.13
322.349	2.13
322.723	2.21
323.096	1.78
323.469	2.43
323.843	2.33
324.216	2.46
324.589	2.05
324.962	2.7
325.335	2.8
325.708	2.2
326.081	2.4
326.454	1.82
326.827	2.76
327.2	2.23
327.573	2.07
327.945	2.24
328.318	2.2
328.691	1.72
329.063	2.57
329.436	2.47
329.809	2.02
330.181	1.47
330.553	2.08
330.926	2.39
331.298	2.31
331.671	1.77
332.043	2.1
332.415	2.13
332.787	1.95
333.159	2.17
333.532	2.19
333.904	2.51
334.276	2.98
334.648	1.52
335.02	1.51
335.391	1.82
335.763	1.73
336.135	2.24
336.507	2.55
336.879	2.04
337.25	2.51
337.622	1.78
337.993	1.96
338.365	1.82
338.736	2.03
339.108	2.33
339.479	2.44
339.851	2.17
340.222	1.63
340.593	2.19
340.964	1.89
341.336	2.69
341.707	2.24
342.078	1.66
342.449	2.01
342.82	2.12
343.191	2.41
343.562	1.86
343.933	2.49
344.303	2.51
344.674	2.61
345.045	1.92
345.416	2.3
345.786	2.18
346.157	1.83
346.527	2.43
346.898	2.42
347.268	2.11
347.639	2.17
348.009	2.09
348.38	2.05
348.75	2.14
349.12	2.14
349.49	2.03
349.861	2.77
350.231	2.06
350.601	2.44
350.971	2.51
351.341	2.3
351.711	2.43
352.081	2.21
352.45	1.91
352.82	2.34
353.19	2.17
353.56	1.79
353.929	2.02
354.299	1.72
354.669	2.1
355.038	1.65
355.408	1.95
355.777	2.21
356.147	1.99
356.516	2.41
356.885	2.01
357.254	2.03
357.624	1.81
357.993	2.34
358.362	2.36
358.731	2.33
359.1	1.82
359.469	2.15
359.838	1.94
360.207	2.06
360.576	2.52
360.945	2
361.314	2.06
361.682	2.25
362.051	2.41
362.42	2.34
362.788	2.18
363.157	2.75
363.525	2.29
363.894	2.26
364.262	2.35
364.631	2.2
364.999	2.46
365.367	2.47
365.735	2.22
366.104	1.9
366.472	2.12
366.84	2.16
367.208	2.36
367.576	2.17
367.944	2.56
368.312	2.51
368.68	2.41
369.048	2.56
369.416	2.17
369.783	2.16
370.151	2.37
370.519	2.07
370.886	2.32
371.254	1.95
371.621	2.61
371.989	2.1
372.356	2.53
372.724	2.41
373.091	2.55
373.458	2.48
373.826	2.45
374.193	2.07
374.56	2.61
374.927	2.44
375.294	1.95
375.661	2.43
376.028	2.57
376.395	2.83
376.762	3.04
377.129	2.29
377.496	2.4
377.863	2.14
378.229	2.26
378.596	2.19
378.963	2.22
379.329	2.04
379.696	2.03
380.062	2.68
380.429	2.32
380.795	2.57
381.161	2.41
381.528	2.05
381.894	2.44
382.26	2.31
382.626	2.42
382.993	2.68
383.359	2.24
383.725	2.4
384.091	2.46
384.457	2.43
384.823	2.58
385.188	2.14
385.554	2.46
385.92	2.25
386.286	2.49
386.651	2.79
387.017	2.89
387.383	2.31
387.748	2.4
388.114	2.53
388.479	2.65
388.845	2.4
389.21	2.27
389.575	2.1
389.94	2.44
390.306	2.63
390.671	2.34
391.036	2.74
391.401	2.28
391.766	2.65
392.131	2.63
392.496	2.27
392.861	2.15
393.226	2.52
393.591	2.35
393.956	2.48
394.32	2.74
394.685	2.69
395.05	2.34
395.414	2.51
395.779	2.37
396.143	2.39
396.508	2.35
396.872	2.44
397.236	2.64
397.601	2.3
397.965	2.32
398.329	2.56
398.694	2.56
399.058	2.68
399.422	2.47
399.786	2.33
400.15	2.39
400.514	2.61
400.878	2.42
401.242	2.35
401.605	2.67
401.969	2.36
402.333	2.47
402.697	2.45
403.06	2.32
403.424	2.57
403.787	2.16
404.151	2.8
404.514	2.22
404.878	2.49
405.241	2.59
405.604	2.5
405.968	2.39
406.331	2.64
406.694	2.76
407.057	2.37
407.42	2.45
407.783	2.48
408.146	2.41
408.509	2.33
408.872	2.46
409.235	2.42
409.598	2.46
409.961	2.45
410.323	2.57
410.686	2.4
411.049	2.74
411.411	2.71
411.774	2.72
412.136	2.61
412.499	2.65
412.861	2.57
413.223	2.73
413.586	2.4
413.948	2.68
414.31	2.75
414.672	2.52
415.035	2.58
415.397	2.34
415.759	2.8
416.121	2.61
416.483	2.55
416.845	2.34
417.206	2.67
417.568	2.43
417.93	2.4
418.292	2.36
418.653	2.7
419.015	2.52
419.377	2.45
419.738	2.63
420.1	2.52
420.461	2.61
420.822	2.56
421.184	2.62
421.545	2.68
421.906	2.6
422.267	2.49
422.629	2.56
422.99	2.56
423.351	2.46
423.712	2.53
424.073	2.49
424.434	2.55
424.795	2.53
425.155	2.53
425.516	2.52
425.877	2.62
426.238	2.5
426.598	2.52
426.959	2.55
427.32	2.59
427.68	2.52
428.041	2.66
428.401	2.56
428.761	2.51
429.122	2.58
429.482	2.86
429.842	2.55
430.202	2.64
430.563	2.72
430.923	2.45
431.283	2.56
431.643	2.69
432.003	2.5
432.363	2.65
432.722	2.39
433.082	2.72
433.442	2.69
433.802	2.59
434.161	2.6
434.521	2.67
434.881	2.58
435.24	2.76
435.6	2.6
435.959	2.77
436.319	2.63
436.678	2.77
437.037	2.55
437.396	2.62
437.756	2.65
438.115	2.83
438.474	2.6
438.833	2.73
439.192	2.71
439.551	2.72
439.91	2.59
440.269	2.59
440.628	2.46
440.987	2.59
441.345	2.66
441.704	2.63
442.063	2.81
442.421	2.71
442.78	2.73
443.138	2.67
443.497	2.65
443.855	2.72
444.214	2.68
444.572	2.74
444.93	2.74
445.288	2.51
445.647	2.75
446.005	2.69
446.363	2.47
446.721	2.63
447.079	2.72
447.437	2.55
447.795	2.63
448.153	2.71
448.51	2.68
448.868	2.79
449.226	2.81
449.584	2.65
449.941	2.58
450.299	2.69
450.656	2.63
451.014	2.74
451.371	2.78
451.729	2.83
452.086	2.66
452.443	2.75
452.801	2.74
453.158	2.69
453.515	2.66
453.872	2.67
454.229	2.79
454.586	2.56
454.943	2.73
455.3	2.63
455.657	2.7
456.014	2.88
456.371	2.82
456.727	2.65
457.084	2.81
457.441	2.72
457.797	2.82
458.154	2.71
458.51	2.73
458.867	2.92
459.223	2.78
459.58	2.76
459.936	2.58
460.292	2.81
460.648	2.7
461.005	2.78
461.361	2.79
461.717	2.76
462.073	2.65
462.429	2.7
462.785	2.72
463.141	2.63
463.496	2.67
463.852	2.99
464.208	2.87
464.564	2.73
464.919	2.97
465.275	2.8
465.631	2.81
465.986	2.75
466.342	2.59
466.697	2.98
467.052	3.21
467.408	2.93
467.763	2.95
468.118	2.86
468.473	2.81
468.829	2.97
469.184	2.69
469.539	2.87
469.894	2.83
470.249	2.88
470.603	2.86
470.958	2.81
471.313	3.12
471.668	3.07
472.023	2.75
472.377	2.73
472.732	2.93
473.086	2.81
473.441	2.91
473.795	2.91
474.15	2.7
474.504	2.59
474.859	2.98
475.213	2.86
475.567	2.91
475.921	3.04
476.275	2.85
476.63	2.87
476.984	2.95
477.338	2.89
477.692	2.94
478.045	2.94
478.399	2.9
478.753	2.81
479.107	2.89
479.461	2.95
479.814	2.92
480.168	2.8
480.521	2.82
480.875	2.96
481.228	3.04
481.582	2.86
481.935	2.99
482.289	2.99
482.642	3.11
482.995	2.91
483.348	2.87
483.701	3.07
484.055	2.92
484.408	2.87
484.761	2.83
485.114	2.81
485.466	2.78
485.819	2.73
486.172	2.76
486.525	2.8
486.878	2.84
487.23	2.83
487.583	2.8
487.936	2.99
488.288	2.78
488.641	2.93
488.993	2.84
489.345	2.86
489.698	2.82
490.05	2.81
490.402	2.87
490.754	2.81
491.107	2.84
491.459	2.91
491.811	2.93
492.163	2.91
492.515	2.95
492.866	2.91
493.218	2.86
493.57	2.87
493.922	2.83
494.274	2.94
494.625	3
494.977	3.07
495.328	3.11
495.68	2.88
496.031	3.08
496.383	2.99
496.734	3.09
497.086	3.08
497.437	3.08
497.788	3.05
498.139	2.98
498.49	3.08
498.842	3.01
499.193	3.07
499.544	3.08
499.894	3.05
500.245	3.1
500.596	3.18
500.947	3.07
501.298	3.23
501.648	3.2
501.999	3.16
502.35	3.19
502.7	3.12
503.051	3.13
503.401	3.14
503.752	3.24
504.102	3.13
504.452	3.17
504.803	3.15
505.153	3.13
505.503	3.36
505.853	3.2
506.203	3.18
506.553	3.11
506.903	3.21
507.253	3.12
507.603	3.27
507.953	3.21
508.303	3.22
508.652	3.28
509.002	3.17
509.352	3.19
509.701	3.26
510.051	3.23
510.4	3.07
510.75	3.15
511.099	3.04
511.449	3.24
511.798	3.14
512.147	3.17
512.496	3.23
512.846	3.27
513.195	3.16
513.544	3.29
513.893	3.34
514.242	3.18
514.591	3.29
514.939	3.24
515.288	3.23
515.637	3.24
515.986	3.28
516.334	3.39
516.683	3.24
517.032	3.33
517.38	3.33
517.729	3.43
518.077	3.32
518.426	3.43
518.774	3.35
519.122	3.27
519.47	3.3
519.819	3.23
520.167	3.2
520.515	3.13
520.863	3.3
521.211	3.23
521.559	3.33
521.907	3.28
522.255	3.41
522.602	3.48
522.95	3.43
523.298	3.38
523.645	3.36
523.993	3.48
524.341	3.38
524.688	3.38
525.036	3.53
525.383	3.41
525.73	3.32
526.078	3.35
526.425	3.41
526.772	3.37
527.119	3.38
527.466	3.44
527.814	3.35
528.161	3.42
528.508	3.45
528.854	3.38
529.201	3.38
529.548	3.34
529.895	3.33
530.242	3.23
530.588	3.27
530.935	3.34
531.282	3.35
531.628	3.46
531.975	3.43
532.321	3.42
532.667	3.39
533.014	3.48
533.36	3.51
533.706	3.44
534.052	3.4
534.399	3.59
534.745	3.6
535.091	3.39
535.437	3.44
535.783	3.43
536.129	3.56
536.474	3.59
536.82	3.54
537.166	3.56
537.512	3.61
537.857	3.65
538.203	3.56
538.549	3.58
538.894	3.61
539.239	3.65
539.585	3.64
539.93	3.77
540.276	3.6
540.621	3.71
540.966	3.66
541.311	3.78
541.656	3.82
542.001	3.67
542.346	3.69
542.691	3.63
543.036	3.6
543.381	3.58
543.726	3.66
544.071	3.67
544.415	3.65
544.76	3.68
545.105	3.73
545.449	3.73
545.794	3.79
546.138	3.67
546.483	3.8
546.827	3.85
547.171	3.9
547.516	3.8
547.86	3.81
548.204	3.89
548.548	3.83
548.892	3.93
549.236	3.89
549.58	3.95
549.924	3.85
550.268	3.99
550.612	3.83
550.956	4.22
551.3	4.04
551.643	3.97
551.987	4.09
552.33	3.99
552.674	4.18
553.017	4.34
553.361	4.23
553.704	4.13
554.048	4.04
554.391	3.99
554.734	4.13
555.077	4.12
555.42	4.11
555.764	4.23
556.107	4.23
556.45	4.06
556.793	4.11
557.135	4.29
557.478	4.4
557.821	4.36
558.164	4.41
558.507	4.26
558.849	4.2
559.192	4.28
559.534	4.28
559.877	4.29
560.219	4.23
560.562	4.07
560.904	4.27
561.246	4.36
561.589	4.28
561.931	4.38
562.273	4.33
562.615	4.33
562.957	4.48
563.299	4.46
563.641	4.49
563.983	4.55
564.325	4.45
564.667	4.56
565.008	4.11
565.35	4.52
565.692	4.41
566.033	4.55
566.375	4.45
566.716	4.39
567.058	4.77
567.399	4.7
567.741	4.76
568.082	4.43
568.423	4.64
568.764	4.55
569.105	4.52
569.447	4.75
569.788	4.72
570.129	4.57
570.47	4.58
570.811	4.74
571.151	4.66
571.492	4.8
571.833	4.72
572.174	4.72
572.514	4.7
572.855	4.68
573.195	4.6
573.536	4.71
573.876	4.74
574.217	4.81
574.557	4.59
574.898	4.78
575.238	4.86
575.578	4.82
575.918	4.87
576.258	4.86
576.598	4.84
576.938	4.91
577.278	4.88
577.618	4.89
577.958	4.94
578.298	5.01
578.638	4.93
578.977	4.79
579.317	5.07
579.657	5.02
579.996	5.06
580.336	5.23
580.675	5.24
581.014	5.26
581.354	5.13
581.693	5.13
582.032	5.02
582.372	5.12
582.711	5.02
583.05	5.36
583.389	5.28
583.728	5.4
584.067	5.26
584.406	5.46
584.745	5.44
585.083	5.01
585.422	5.43
585.761	5.53
586.1	5.44
586.438	5.5
586.777	5.47
587.115	5.2
587.454	5.35
587.792	5.49
588.13	5.68
588.469	5.54
588.807	5.28
589.145	5.64
589.483	5.63
589.821	5.58
590.159	5.51
590.497	5.43
590.835	5.67
591.173	5.38
591.511	5.57
591.849	5.58
592.187	5.81
592.524	5.62
592.862	5.62
593.2	5.37
593.537	5.62
593.875	5.59
594.212	5.94
594.55	6.15
594.887	6.16
595.224	5.83
595.561	6.09
595.899	5.74
596.236	5.64
596.573	5.92
596.91	6.01
597.247	6.07
597.584	5.79
597.921	5.86
598.258	5.91
598.594	6.04
598.931	5.82
599.268	5.98
599.604	5.88
599.941	6.04
600.277	5.97
600.614	6.15
600.95	6.18
601.287	6.18
601.623	6.45
601.959	6.09
602.296	6.46
602.632	6.08
602.968	6.2
603.304	6.27
603.64	6.31
603.976	6.4
604.312	6.51
604.648	6.25
604.984	6.44
605.319	6.35
605.655	6.27
605.991	6.22
606.326	6.3
606.662	6.37
606.998	6.19
607.333	6.35
607.668	6.53
608.004	6.56
608.339	6.41
608.674	6.4
609.01	6.47
609.345	6.8
609.68	6.66
610.015	6.32
610.35	6.54
610.685	6.62
611.02	6.9
611.355	6.57
611.689	6.71
612.024	6.44
612.359	6.73
612.694	6.67
613.028	6.89
613.363	6.56
613.697	6.69
614.032	6.91
614.366	7
614.7	6.91
615.035	7.13
615.369	6.82
615.703	6.93
616.037	6.96
616.371	6.67
616.705	6.91
617.039	6.71
617.373	6.75
617.707	6.8
618.041	6.88
618.375	6.83
618.709	7.12
619.042	6.88
619.376	7.13
619.71	6.88
620.043	7.01
620.377	7.16
620.71	6.91
621.043	6.78
621.377	6.67
621.71	7.28
622.043	7.31
622.376	7.32
622.709	7.5
623.043	7.33
623.376	7.61
623.709	7.79
624.041	7.57
624.374	7.51
624.707	7.38
625.04	7.62
625.373	8.09
625.705	7.64
626.038	7.39
626.37	7.63
626.703	7.75
627.035	7.35
627.368	7.55
627.7	7.39
628.032	7.53
628.365	7.72
628.697	7.65
629.029	7.39
629.361	7.49
629.693	7.41
630.025	7.49
630.357	7.76
630.689	7.77
631.021	8.01
631.353	8.04
631.684	8.17
632.016	8
632.348	7.67
632.679	7.33
633.011	8.43
633.342	8.21
633.674	8.13
634.005	8.25
634.336	8.27
634.668	8.1
634.999	8.24
635.33	8.17
635.661	8.01
635.992	8.35
636.323	7.84
636.654	8.04
636.985	8.13
637.316	8.32
637.647	8.17
637.977	8.26
638.308	8.36
638.639	8.27
638.969	8.31
639.3	8.17
639.63	8.35
639.961	8.66
640.291	8.02
640.622	8.55
640.952	8.62
641.282	8.08
641.612	8.59
641.943	8.49
642.273	8.55
642.603	9.02
642.933	8.43
643.263	8.29
643.592	8.91
643.922	8.72
644.252	8.93
644.582	8.33
644.911	8.47
645.241	8.95
645.571	9.11
645.9	8.9
646.23	8.7
646.559	8.75
646.888	8.75
647.218	9.11
647.547	8.84
647.876	9.17
648.205	9.39
648.534	9.11
648.863	8.97
649.192	9.4
649.521	9.34
649.85	8.98
650.179	9.26
650.508	9.25
650.837	9.41
651.165	9
651.494	8.91
651.822	9.1
652.151	9.27
652.479	9.41
652.808	9.17
653.136	9.29
653.465	9.55
653.793	9.14
654.121	9.59
654.449	9.25
654.777	9.72
655.105	9.59
655.433	9.59
655.761	9.35
656.089	9.08
656.417	9.84
656.745	9.75
657.073	8.63
657.4	9.89
657.728	9.32
658.056	9.9
658.383	9.24
658.711	9.61
659.038	9.46
659.365	9.51
659.693	9.81
660.02	9.13
660.347	9.79
660.674	9.92
661.001	9.79
661.329	10.07
661.656	10.07
661.982	9.82
662.309	10
662.636	9.89
662.963	9.97
663.29	10.56
663.616	9.67
663.943	10.41
664.27	10.27
664.596	10.23
664.923	10.49
665.249	9.73
665.576	10
665.902	10.06
666.228	10.45
666.554	10.39
666.881	9.49
667.207	10.05
667.533	10.72
667.859	10.28
668.185	10.51
668.511	10.79
668.837	10.02
669.162	10.5
669.488	9.7
669.814	10.05
670.139	10.4
670.465	9.52
670.791	10.19
671.116	10.28
671.442	10.65
671.767	10.61
672.092	11.43
672.418	10.53
672.743	10.98
673.068	10.41
673.393	10.25
673.718	10.47
674.043	10.82
674.368	10.26
674.693	10.91
675.018	10.96
675.343	10.74
675.667	10.88
675.992	11
676.317	10.5
676.641	10.55
676.966	10.85
677.29	10.42
677.615	10.48
677.939	11.19
678.264	11.43
678.588	10.78
678.912	11.74
679.236	10.24
679.56	11.19
679.885	11.17
680.209	11.07
680.532	11.67
680.856	11.55
681.18	11.11
681.504	11.22
681.828	11.5
682.152	11.05
682.475	11.59
682.799	11.36
683.122	11.53
683.446	11.4
683.769	12.18
684.093	10.31
684.416	10.96
684.739	11.7
685.062	10.92
685.386	11.13
685.709	11.88
686.032	11.37
686.355	11.68
686.678	12.42
687.001	11.82
687.324	12.59
687.646	11.91
687.969	10.97
688.292	11.59
688.614	12.36
688.937	12.1
689.26	11.78
689.582	11.47
