Data from 0401_forehead_Reflection__1__209.txt Node

Date: Tue Dec 12 20:07:46 CST 2023
User: ToomeyLab
Spectrometer: FLMS14357
Trigger mode: 0
Integration Time (sec): 1.000000E-2
Scans to average: 100
Electric dark correction enabled: true
Nonlinearity correction enabled: false
Boxcar width: 0
XAxis mode: Wavelengths
Number of Pixels in Spectrum: 2048
>>>>>Begin Spectral Data<<<<<
189.047	146.56
189.435	146.56
189.823	146.56
190.211	569.45
190.599	252.35
190.987	169.16
191.375	-2337.04
191.763	-50.96
192.151	135.16
192.538	-119.11
192.926	112.2
193.314	-1692.55
193.702	-70.25
194.089	232.19
194.477	-79.95
194.864	105.5
195.252	31.16
195.639	194.78
196.027	48.57
196.414	95.71
196.801	113.55
197.189	-492.33
197.576	1085.22
197.963	117.05
198.351	11.28
198.738	37.46
199.125	38.14
199.512	6.26
199.899	24.81
200.286	46.84
200.673	41.86
201.06	-14.37
201.447	-127.17
201.833	-25.27
202.22	33.13
202.607	-151.14
202.994	61.55
203.38	67.26
203.767	-22.26
204.154	46.52
204.54	38.3
204.927	68.98
205.313	17.65
205.699	30.45
206.086	-13.82
206.472	74.64
206.858	-57.29
207.245	23.66
207.631	2.66
208.017	23.93
208.403	-53.33
208.789	20.01
209.175	55.6
209.561	20.01
209.947	-40.57
210.333	57.42
210.719	10.51
211.105	-13.82
211.491	46.38
211.876	46.9
212.262	38.89
212.648	40.95
213.034	-8.81
213.419	-2.98
213.805	20.13
214.19	48.75
214.576	32.06
214.961	36.9
215.346	0.05
215.732	29.42
216.117	29.63
216.502	-12.49
216.888	-0.27
217.273	42.5
217.658	10.2
218.043	10.4
218.428	48.02
218.813	12.91
219.198	-11.56
219.583	61.56
219.968	29.33
220.353	15.57
220.738	30.63
221.122	35.23
221.507	-12.99
221.892	15.69
222.276	-2.98
222.661	3.55
223.046	-2.33
223.43	20.9
223.815	22.69
224.199	16.01
224.583	6.38
224.968	29.01
225.352	27.83
225.736	11.25
226.121	2.19
226.505	3.59
226.889	2.7
227.273	12.4
227.657	15.55
228.041	12.74
228.425	5.6
228.809	11.13
229.193	3.93
229.577	8.85
229.961	4.72
230.344	7.75
230.728	8.73
231.112	7.5
231.495	7.4
231.879	9.28
232.263	6.85
232.646	6.66
233.03	8.17
233.413	5.93
233.797	7.9
234.18	4.49
234.563	5.56
234.946	6.78
235.33	9.28
235.713	7.58
236.096	7.83
236.479	7.62
236.862	7.37
237.245	7.28
237.628	8.1
238.011	7.51
238.394	6.77
238.777	6.32
239.16	7.56
239.543	9.01
239.925	8.9
240.308	6.21
240.691	6.23
241.073	8.2
241.456	7.57
241.838	5.84
242.221	7.85
242.603	8.87
242.986	6.49
243.368	7.3
243.75	7.35
244.133	7.26
244.515	7.18
244.897	7.2
245.279	7.78
245.661	6.08
246.043	6.98
246.425	8.32
246.807	6.14
247.189	6.29
247.571	7.41
247.953	7.37
248.335	6.69
248.717	6.75
249.098	6.7
249.48	6.76
249.862	6.69
250.243	6.5
250.625	7.08
251.006	6.25
251.388	6.68
251.769	6.18
252.151	5.36
252.532	5.91
252.913	7.47
253.295	6.92
253.676	6.61
254.057	6.37
254.438	7.03
254.819	6.45
255.2	6.75
255.581	7.76
255.962	6.28
256.343	5.89
256.724	7.33
257.105	6.68
257.486	5.65
257.867	6.25
258.247	5.68
258.628	6.28
259.009	6.02
259.389	5.77
259.77	6.58
260.15	6.84
260.531	6.97
260.911	6.61
261.292	5.95
261.672	6.16
262.052	6.22
262.432	6.46
262.813	6.57
263.193	6.48
263.573	6.89
263.953	6.94
264.333	7.71
264.713	6.55
265.093	6.75
265.473	7.33
265.853	6.17
266.233	6.28
266.612	6.01
266.992	6.15
267.372	7.26
267.752	7.53
268.131	5.29
268.511	5.81
268.89	4.65
269.27	5.02
269.649	5.76
270.029	5.94
270.408	6.36
270.787	6.47
271.167	6.3
271.546	6.51
271.925	7.09
272.304	6.77
272.683	5.84
273.062	6.33
273.441	6.09
273.82	5.37
274.199	6.28
274.578	5.89
274.957	6.39
275.336	5.96
275.715	6.61
276.093	5.87
276.472	6.68
276.851	6.09
277.229	5.76
277.608	6.14
277.986	5.73
278.365	6.48
278.743	6.5
279.122	6.74
279.5	5.41
279.878	5.82
280.257	5.38
280.635	6.24
281.013	5.15
281.391	6.26
281.769	6.51
282.147	6.04
282.525	6.1
282.903	5.96
283.281	6.21
283.659	5.95
284.037	6.18
284.415	6.3
284.792	6.33
285.17	6.2
285.548	6.35
285.925	6.07
286.303	6.17
286.68	6.12
287.058	5.84
287.435	5.95
287.813	5.62
288.19	6.07
288.567	6.08
288.945	6.08
289.322	5.82
289.699	5.94
290.076	6.18
290.453	6.47
290.83	5.58
291.207	6.48
291.584	6.23
291.961	6
292.338	6.49
292.715	6.21
293.092	5.95
293.469	6.15
293.845	5.94
294.222	6.41
294.599	6.68
294.975	5.68
295.352	6.06
295.728	6.66
296.105	6.25
296.481	6.58
296.858	6.28
297.234	6.4
297.61	6.38
297.986	6.43
298.363	6.44
298.739	6.26
299.115	5.93
299.491	6.34
299.867	6.27
300.243	5.91
300.619	6.64
300.995	6.53
301.371	6.65
301.746	6.02
302.122	6.59
302.498	6.68
302.874	6.48
303.249	6.91
303.625	6.24
304	6.76
304.376	6.43
304.751	7.05
305.127	6.64
305.502	6.99
305.878	6.13
306.253	7.01
306.628	6.3
307.003	6.71
307.378	6.89
307.754	7.06
308.129	6.88
308.504	7.57
308.879	6.04
309.254	7.03
309.629	6.98
310.003	6.73
310.378	6.82
310.753	6.67
311.128	6.91
311.502	6.62
311.877	6.91
312.252	6.47
312.626	6.75
313.001	6.95
313.375	6.59
313.75	7.03
314.124	7.65
314.498	7.58
314.873	6.76
315.247	7.3
315.621	7.12
315.995	7.57
316.369	7.58
316.743	6.62
317.117	6.66
317.491	7.04
317.865	6.88
318.239	8.09
318.613	7.32
318.987	7.1
319.361	7.01
319.734	6.95
320.108	7.63
320.482	7.58
320.855	6.8
321.229	7.89
321.602	7.93
321.976	7.53
322.349	7.99
322.723	7.12
323.096	7.07
323.469	6.96
323.843	8.57
324.216	7.67
324.589	7.66
324.962	8.05
325.335	7.35
325.708	7.63
326.081	8.1
326.454	7.69
326.827	8.58
327.2	8.36
327.573	6.92
327.945	7.8
328.318	8.29
328.691	7.44
329.063	8.22
329.436	8.05
329.809	7.6
330.181	6.96
330.553	7.67
330.926	7.84
331.298	7.85
331.671	7.98
332.043	7.87
332.415	7.77
332.787	7.94
333.159	8.32
333.532	8.56
333.904	7.74
334.276	8.4
334.648	7.9
335.02	7.49
335.391	8.2
335.763	7.82
336.135	8.13
336.507	8.55
336.879	8.33
337.25	8.18
337.622	8.13
337.993	7.96
338.365	7.84
338.736	8.42
339.108	8.79
339.479	8.16
339.851	7.64
340.222	8.16
340.593	8.29
340.964	8.38
341.336	8.79
341.707	8.2
342.078	8.09
342.449	7.79
342.82	8.82
343.191	8.35
343.562	8.42
343.933	8.86
344.303	8.68
344.674	8.79
345.045	8.35
345.416	8.32
345.786	8.84
346.157	8.56
346.527	9.15
346.898	8.36
347.268	8.37
347.639	8.54
348.009	9.05
348.38	8.74
348.75	8.88
349.12	8.66
349.49	8.46
349.861	9.02
350.231	9
350.601	9.67
350.971	8.69
351.341	9.25
351.711	9.28
352.081	8.86
352.45	8.69
352.82	8.83
353.19	8.77
353.56	8.68
353.929	8.34
354.299	8.95
354.669	9.03
355.038	8.24
355.408	8.49
355.777	9.26
356.147	9.03
356.516	9.18
356.885	8.6
357.254	9.26
357.624	8.84
357.993	9.28
358.362	9.21
358.731	9.37
359.1	9.2
359.469	9.06
359.838	8.94
360.207	9.4
360.576	9.53
360.945	9.27
361.314	9.4
361.682	9.49
362.051	9.45
362.42	9.72
362.788	9.35
363.157	9.44
363.525	9.62
363.894	9.22
364.262	9.46
364.631	9.28
364.999	9.58
365.367	9.73
365.735	9.83
366.104	9.64
366.472	9.47
366.84	9.77
367.208	9.93
367.576	9.85
367.944	9.43
368.312	9.85
368.68	9.83
369.048	10.17
369.416	9.94
369.783	9.96
370.151	9.85
370.519	9.77
370.886	10.06
371.254	10.04
371.621	10.28
371.989	10.02
372.356	9.97
372.724	9.96
373.091	10.25
373.458	10.03
373.826	10.22
374.193	9.89
374.56	10.36
374.927	10.35
375.294	10.19
375.661	10.69
376.028	10.43
376.395	10.3
376.762	10.68
377.129	10.24
377.496	10.32
377.863	10.59
378.229	10.61
378.596	10.38
378.963	10.7
379.329	10.2
379.696	10.12
380.062	10.81
380.429	10.73
380.795	10.94
381.161	10.46
381.528	10.88
381.894	10.72
382.26	10.64
382.626	10.66
382.993	10.77
383.359	10.24
383.725	10.96
384.091	10.93
384.457	10.9
384.823	11.07
385.188	11.26
385.554	11.17
385.92	10.86
386.286	11.21
386.651	11.57
387.017	11.3
387.383	11.14
387.748	11.35
388.114	11.38
388.479	11.39
388.845	11.2
389.21	10.94
389.575	10.99
389.94	11.31
390.306	11.5
390.671	11.27
391.036	11.47
391.401	11.33
391.766	11.36
392.131	11.62
392.496	11.24
392.861	11.25
393.226	11.58
393.591	11.44
393.956	11.27
394.32	11.92
394.685	11.82
395.05	11.58
395.414	11.8
395.779	11.61
396.143	11.89
396.508	11.58
396.872	12.03
397.236	11.74
397.601	11.81
397.965	11.67
398.329	11.8
398.694	11.78
399.058	12.08
399.422	12.02
399.786	12.01
400.15	11.97
400.514	12.27
400.878	12.11
401.242	11.91
401.605	12.31
401.969	12.29
402.333	12.08
402.697	12.19
403.06	12.12
403.424	12.35
403.787	12.16
404.151	12.17
404.514	12.14
404.878	12.21
405.241	12.25
405.604	12.03
405.968	12.37
406.331	12.57
406.694	12.63
407.057	12.13
407.42	12.41
407.783	12.59
408.146	12.69
408.509	12.65
408.872	12.63
409.235	12.65
409.598	12.7
409.961	13.05
410.323	12.86
410.686	12.33
411.049	12.81
411.411	13.13
411.774	13.04
412.136	12.9
412.499	12.82
412.861	12.95
413.223	13.31
413.586	12.93
413.948	13.21
414.31	13.17
414.672	13.05
415.035	12.77
415.397	13.07
415.759	13.26
416.121	13.06
416.483	13.25
416.845	13.27
417.206	13.35
417.568	13.24
417.93	13.43
418.292	13.31
418.653	13.36
419.015	13.46
419.377	13.25
419.738	13.47
420.1	13.37
420.461	13.33
420.822	13.32
421.184	13.21
421.545	13.5
421.906	13.45
422.267	13.33
422.629	13.56
422.99	13.52
423.351	13.4
423.712	13.27
424.073	13.54
424.434	13.5
424.795	13.68
425.155	13.48
425.516	13.53
425.877	13.46
426.238	13.6
426.598	13.49
426.959	13.74
427.32	13.68
427.68	13.87
428.041	13.92
428.401	13.99
428.761	13.98
429.122	14.2
429.482	14.32
429.842	14.27
430.202	13.95
430.563	14.4
430.923	14.26
431.283	14.07
431.643	14.51
432.003	14.48
432.363	14.49
432.722	14.36
433.082	14.36
433.442	14.39
433.802	14.66
434.161	14.66
434.521	14.78
434.881	14.55
435.24	14.82
435.6	14.53
435.959	14.58
436.319	14.79
436.678	14.84
437.037	14.65
437.396	14.8
437.756	14.9
438.115	15
438.474	14.91
438.833	14.89
439.192	15.04
439.551	15.1
439.91	14.96
440.269	14.92
440.628	14.94
440.987	14.9
441.345	15.1
441.704	15.24
442.063	15.08
442.421	15.23
442.78	15.17
443.138	15.13
443.497	15.14
443.855	15.28
444.214	15.2
444.572	15.3
444.93	15.63
445.288	15.22
445.647	15.68
446.005	15.53
446.363	15.29
446.721	15.45
447.079	15.47
447.437	15.35
447.795	15.49
448.153	15.54
448.51	15.65
448.868	15.59
449.226	15.76
449.584	15.58
449.941	15.79
450.299	15.88
450.656	15.81
451.014	15.96
451.371	16.1
451.729	16.23
452.086	16.04
452.443	16.27
452.801	16.24
453.158	16.28
453.515	16.33
453.872	16.27
454.229	16.31
454.586	16.36
454.943	16.32
455.3	16.51
455.657	16.36
456.014	16.66
456.371	16.73
456.727	16.56
457.084	16.54
457.441	16.67
457.797	16.69
458.154	16.8
458.51	16.66
458.867	16.81
459.223	16.92
459.58	16.83
459.936	16.7
460.292	16.92
460.648	16.67
461.005	16.74
461.361	16.73
461.717	16.8
462.073	16.73
462.429	16.66
462.785	16.77
463.141	16.98
463.496	17.06
463.852	17.23
464.208	17.19
464.564	17.15
464.919	17.52
465.275	17.5
465.631	17.54
465.986	17.39
466.342	17.37
466.697	17.64
467.052	17.7
467.408	17.67
467.763	17.68
468.118	17.64
468.473	17.77
468.829	17.67
469.184	17.57
469.539	17.91
469.894	17.88
470.249	18
470.603	17.89
470.958	17.84
471.313	18.14
471.668	18.19
472.023	18.02
472.377	18.33
472.732	18.19
473.086	18.38
473.441	18.31
473.795	18.34
474.15	18.2
474.504	18.38
474.859	18.32
475.213	18.14
475.567	18.41
475.921	18.38
476.275	18.31
476.63	18.22
476.984	18.52
477.338	18.54
477.692	18.49
478.045	18.74
478.399	18.73
478.753	18.64
479.107	18.71
479.461	18.62
479.814	18.77
480.168	18.57
480.521	18.56
480.875	18.95
481.228	19
481.582	18.98
481.935	19.02
482.289	19.04
482.642	19.16
482.995	18.96
483.348	18.96
483.701	19.24
484.055	19.07
484.408	18.89
484.761	18.77
485.114	18.65
485.466	18.36
485.819	18.41
486.172	18.38
486.525	18.46
486.878	18.51
487.23	18.73
487.583	18.99
487.936	19.07
488.288	19.03
488.641	19.14
488.993	19.04
489.345	19.03
489.698	18.87
490.05	18.89
490.402	19.1
490.754	19.13
491.107	19.32
491.459	19.47
491.811	19.64
492.163	19.6
492.515	19.8
492.866	19.65
493.218	19.54
493.57	19.47
493.922	19.4
494.274	19.55
494.625	19.73
494.977	19.96
495.328	20.06
495.68	20.33
496.031	20.48
496.383	20.41
496.734	20.75
497.086	20.49
497.437	20.75
497.788	20.7
498.139	20.54
498.49	20.81
498.842	20.77
499.193	20.61
499.544	20.78
499.894	20.78
500.245	20.96
500.596	20.87
500.947	20.89
501.298	21.07
501.648	21.19
501.999	20.96
502.35	21.22
502.7	21.33
503.051	21.32
503.401	21.26
503.752	21.59
504.102	21.59
504.452	21.71
504.803	21.62
505.153	21.68
505.503	21.7
505.853	21.74
506.203	21.71
506.553	21.71
506.903	21.67
507.253	22
507.603	21.82
507.953	21.72
508.303	21.82
508.652	21.96
509.002	22.08
509.352	22.06
509.701	22.02
510.051	22.08
510.4	21.97
510.75	21.97
511.099	21.93
511.449	22.03
511.798	21.93
512.147	22.09
512.496	22.57
512.846	22.34
513.195	22.33
513.544	22.37
513.893	22.34
514.242	22.32
514.591	22.36
514.939	22.54
515.288	22.62
515.637	22.59
515.986	22.78
516.334	22.86
516.683	22.86
517.032	22.84
517.38	22.92
517.729	23.11
518.077	23.06
518.426	23.12
518.774	23.09
519.122	23.05
519.47	22.94
519.819	22.96
520.167	22.96
520.515	22.74
520.863	22.96
521.211	23.04
521.559	23.2
521.907	23.27
522.255	23.37
522.602	23.5
522.95	23.56
523.298	23.56
523.645	23.65
523.993	23.65
524.341	23.82
524.688	23.67
525.036	23.86
525.383	24.04
525.73	23.99
526.078	24.13
526.425	23.96
526.772	24
527.119	23.84
527.466	23.82
527.814	23.74
528.161	23.8
528.508	23.81
528.854	23.76
529.201	23.97
529.548	23.85
529.895	23.66
530.242	23.53
530.588	23.5
530.935	23.53
531.282	23.65
531.628	23.76
531.975	23.86
532.321	24.08
532.667	24.07
533.014	24.39
533.36	24.44
533.706	24.64
534.052	24.56
534.399	24.56
534.745	24.51
535.091	24.48
535.437	24.56
535.783	24.39
536.129	24.58
536.474	24.63
536.82	24.87
537.166	25.13
537.512	25.23
537.857	25.19
538.203	25.05
538.549	25.1
538.894	25.31
539.239	25.31
539.585	25.35
539.93	25.5
540.276	25.56
540.621	25.61
540.966	25.66
541.311	25.83
541.656	25.87
542.001	25.89
542.346	25.81
542.691	25.58
543.036	25.38
543.381	25.28
543.726	25.32
544.071	25.37
544.415	25.49
544.76	25.65
545.105	25.93
545.449	26.02
545.794	26.12
546.138	26.22
546.483	26.3
546.827	26.44
547.171	26.59
547.516	26.49
547.86	26.61
548.204	26.59
548.548	26.56
548.892	26.78
549.236	26.68
549.58	26.89
549.924	26.92
550.268	27.08
550.612	27.19
550.956	27.21
551.3	27.65
551.643	27.44
551.987	27.63
552.33	27.53
552.674	27.71
553.017	27.86
553.361	27.88
553.704	27.66
554.048	27.8
554.391	27.67
554.734	27.59
555.077	27.77
555.42	27.75
555.764	27.87
556.107	27.92
556.45	28.15
556.793	28.2
557.135	28.29
557.478	28.36
557.821	28.27
558.164	28.44
558.507	28.42
558.849	28.32
559.192	28.54
559.534	28.57
559.877	28.63
560.219	28.65
560.562	28.91
560.904	28.91
561.246	29.19
561.589	29.08
561.931	28.92
562.273	28.88
562.615	29
562.957	29.15
563.299	29.3
563.641	29.25
563.983	28.89
564.325	29.14
564.667	29.2
565.008	29.28
565.35	29.33
565.692	29.65
566.033	29.55
566.375	29.69
566.716	29.5
567.058	29.65
567.399	29.7
567.741	29.7
568.082	29.76
568.423	29.71
568.764	29.7
569.105	29.76
569.447	29.91
569.788	29.69
570.129	30.01
570.47	30.21
570.811	30.15
571.151	30.5
571.492	30
571.833	30.14
572.174	30.3
572.514	30.31
572.855	30.2
573.195	30.36
573.536	30.35
573.876	30.36
574.217	30.41
574.557	30.33
574.898	30.48
575.238	30.5
575.578	30.59
575.918	30.73
576.258	30.72
576.598	30.83
576.938	30.97
577.278	30.98
577.618	30.61
577.958	31.05
578.298	31.02
578.638	31.04
578.977	31.18
579.317	31.27
579.657	31.43
579.996	31.69
580.336	31.58
580.675	31.93
581.014	31.74
581.354	31.66
581.693	31.81
582.032	31.58
582.372	32.07
582.711	32.07
583.05	31.84
583.389	32.07
583.728	32.13
584.067	32.18
584.406	32.42
584.745	32.72
585.083	32.37
585.422	32.65
585.761	32.62
586.1	32.53
586.438	32.66
586.777	32.76
587.115	32.42
587.454	32.73
587.792	32.38
588.13	32.71
588.469	32.71
588.807	32.6
589.145	32.76
589.483	32.66
589.821	33.02
590.159	32.93
590.497	33.23
590.835	33.32
591.173	33.26
591.511	33.12
591.849	33.22
592.187	33.32
592.524	33.21
592.862	33.31
593.2	33.07
593.537	33
593.875	33.85
594.212	33.91
594.55	33.59
594.887	34.15
595.224	33.75
595.561	33.66
595.899	33.74
596.236	33.85
596.573	33.91
596.91	34
597.247	34.07
597.584	34.19
597.921	34.33
598.258	34.12
598.594	34.05
598.931	33.76
599.268	34.01
599.604	33.92
599.941	34.14
600.277	34.36
600.614	34.54
600.95	34.52
601.287	34.32
601.623	34.73
601.959	34.75
602.296	34.59
602.632	34.7
602.968	34.86
603.304	35.14
603.64	35
603.976	34.72
604.312	34.75
604.648	34.78
604.984	34.95
605.319	35.05
605.655	34.92
605.991	35.08
606.326	35.12
606.662	34.78
606.998	34.8
607.333	35.14
607.668	34.94
608.004	35.13
608.339	35.39
608.674	35.33
609.01	35.52
609.345	35.39
609.68	35.78
610.015	35.56
610.35	35.51
610.685	36.09
611.02	35.77
611.355	35.87
611.689	35.76
612.024	35.88
612.359	35.95
612.694	36.07
613.028	36.26
613.363	36.24
613.697	36.33
614.032	36.15
614.366	36.34
614.7	36.42
615.035	36.27
615.369	36.56
615.703	36.28
616.037	36.42
616.371	36.6
616.705	36.62
617.039	36.72
617.373	36.8
617.707	36.8
618.041	37.08
618.375	36.9
618.709	36.52
619.042	36.74
619.376	37.05
619.71	36.81
620.043	36.98
620.377	37.55
620.71	37.09
621.043	37.16
621.377	37.12
621.71	37.5
622.043	37.27
622.376	37.84
622.709	37.62
623.043	37.38
623.376	37.66
623.709	38.04
624.041	37.67
624.374	38.07
624.707	37.46
625.04	37.87
625.373	38.53
625.705	38.15
626.038	38.07
626.37	38.32
626.703	38.24
627.035	38.42
627.368	38.23
627.7	37.99
628.032	37.76
628.365	38.46
628.697	37.95
629.029	38.62
629.361	38.18
629.693	38.59
630.025	37.99
630.357	38.34
630.689	38.66
631.021	38.74
631.353	38.99
631.684	38.58
632.016	38.65
632.348	39
632.679	38.43
633.011	39.42
633.342	39.3
633.674	38.78
634.005	39.45
634.336	39.24
634.668	39.29
634.999	39.01
635.33	39.08
635.661	39.78
635.992	39.3
636.323	39.17
636.654	39.49
636.985	39.47
637.316	39.65
637.647	39.44
637.977	39.66
638.308	39.39
638.639	39.82
638.969	39.73
639.3	39.51
639.63	39.97
639.961	39.83
640.291	39.69
640.622	39.73
640.952	40.09
641.282	40.43
641.612	39.94
641.943	40.24
642.273	39.99
642.603	40.51
642.933	40.06
643.263	39.99
643.592	40.66
643.922	40.33
644.252	40.51
644.582	40.24
644.911	40.24
645.241	40.57
645.571	41.05
645.9	40.4
646.23	40.37
646.559	40.52
646.888	40.48
647.218	40.36
647.547	41.15
647.876	41.29
648.205	41.28
648.534	40.97
648.863	41.02
649.192	41.26
649.521	41.31
649.85	40.73
650.179	41.69
650.508	41.63
650.837	40.95
651.165	41.25
651.494	41.69
651.822	41.2
652.151	41.64
652.479	40.95
652.808	41.51
653.136	41.83
653.465	41.43
653.793	41.68
654.121	41.32
654.449	42.09
654.777	41.62
655.105	42.05
655.433	41.95
655.761	41.96
656.089	42.12
656.417	42.23
656.745	41.73
657.073	42.22
657.4	42.04
657.728	42.03
658.056	42.21
658.383	41.74
658.711	42.13
659.038	42.36
659.365	42.11
659.693	42.24
660.02	42.17
660.347	42.4
660.674	41.91
661.001	42.47
661.329	42.85
661.656	42.5
661.982	42.35
662.309	43.1
662.636	42.68
662.963	42.75
663.29	43.4
663.616	42.84
663.943	42.56
664.27	43.37
664.596	42.59
664.923	43.6
665.249	43.25
665.576	42.74
665.902	42.65
666.228	42.97
666.554	43.33
666.881	42.91
667.207	43.56
667.533	43.49
667.859	43.2
668.185	43.59
668.511	44.11
668.837	43.8
669.162	44.38
669.488	43.27
669.814	43.74
670.139	43.4
670.465	44.15
670.791	43.96
671.116	43.14
671.442	43.78
671.767	43.81
