Data from 0401_crown_Reflection__4__207.txt Node

Date: Tue Dec 12 20:06:50 CST 2023
User: ToomeyLab
Spectrometer: FLMS14357
Trigger mode: 0
Integration Time (sec): 1.000000E-2
Scans to average: 100
Electric dark correction enabled: true
Nonlinearity correction enabled: false
Boxcar width: 0
XAxis mode: Wavelengths
Number of Pixels in Spectrum: 2048
>>>>>Begin Spectral Data<<<<<
189.047	354.67
189.435	354.67
189.823	354.67
190.211	29.77
190.599	-69.59
190.987	27.75
191.375	5528.4
191.763	-125.98
192.151	199.42
192.538	486.71
192.926	148.18
193.314	754.04
193.702	17.59
194.089	225.24
194.477	98.62
194.864	68.18
195.252	-148.95
195.639	-196.66
196.027	452.47
196.414	56.35
196.801	112.16
197.189	1495.92
197.576	1547.81
197.963	64.09
198.351	-5.1
198.738	50.44
199.125	-29.29
199.512	-45.85
199.899	5.91
200.286	-74.78
200.673	-103.39
201.06	11.73
201.447	-318.04
201.833	-28.5
202.22	-28.11
202.607	-409.7
202.994	-21.33
203.38	-31.13
203.767	-78.15
204.154	50.48
204.54	22.53
204.927	-40.57
205.313	-10.67
205.699	-15.81
206.086	-69.85
206.472	39.25
206.858	-44.36
207.245	-64.48
207.631	27.87
208.017	0.73
208.403	-28.77
208.789	-4.41
209.175	-37.19
209.561	-17.68
209.947	-16.87
210.333	20.02
210.719	-4.39
211.105	-24.52
211.491	15.42
211.876	13.43
212.262	6.04
212.648	-27.13
213.034	-56.32
213.419	-0.14
213.805	-11.4
214.19	24.22
214.576	30.14
214.961	-22.07
215.346	-22.14
215.732	1.94
216.117	10.35
216.502	-12.95
216.888	-15.84
217.273	-29.86
217.658	-117.52
218.043	6.82
218.428	-25.31
218.813	-19.2
219.198	-47.09
219.583	-2.14
219.968	-0.24
220.353	-29.6
220.738	-11.91
221.122	-19.06
221.507	-21.33
221.892	-7.95
222.276	12.69
222.661	-2.87
223.046	-19.77
223.43	4.85
223.815	-17.97
224.199	13.76
224.583	5.08
224.968	4.82
225.352	-2.96
225.736	1
226.121	-2.13
226.505	1.41
226.889	-9.12
227.273	-4.46
227.657	10.7
228.041	2.46
228.425	1.5
228.809	2.14
229.193	5.56
229.577	6.5
229.961	5.3
230.344	5.21
230.728	6.81
231.112	6.96
231.495	5.65
231.879	5.23
232.263	2.57
232.646	4.26
233.03	5.05
233.413	4.4
233.797	5.75
234.18	2.54
234.563	2.76
234.946	5.98
235.33	7.47
235.713	5.4
236.096	4.88
236.479	5.77
236.862	4.01
237.245	5.17
237.628	3.92
238.011	6.17
238.394	3.5
238.777	6.74
239.16	7.15
239.543	4.64
239.925	4.35
240.308	5.22
240.691	3.07
241.073	6.15
241.456	4.1
241.838	6.88
242.221	6.04
242.603	5.38
242.986	4.82
243.368	5.98
243.75	4.86
244.133	5.78
244.515	5.91
244.897	6.01
245.279	6.21
245.661	4.39
246.043	3.47
246.425	4.95
246.807	4.23
247.189	5.95
247.571	4.75
247.953	4.44
248.335	5.21
248.717	5.25
249.098	5.25
249.48	5.36
249.862	4.99
250.243	4.35
250.625	5.44
251.006	5.05
251.388	5.42
251.769	4.36
252.151	3.47
252.532	4.34
252.913	4.69
253.295	5.05
253.676	4.55
254.057	4.63
254.438	5
254.819	4.84
255.2	5.3
255.581	4.15
255.962	3.76
256.343	4.83
256.724	4.99
257.105	4.01
257.486	4
257.867	4.49
258.247	3.29
258.628	5.13
259.009	4.22
259.389	4.89
259.77	4.12
260.15	4.11
260.531	4.85
260.911	4.92
261.292	4.44
261.672	4.64
262.052	4.66
262.432	4.76
262.813	4.95
263.193	4.67
263.573	5.24
263.953	5.14
264.333	5.73
264.713	4.3
265.093	4.25
265.473	4.68
265.853	3.59
266.233	3.89
266.612	4.52
266.992	4.31
267.372	5.12
267.752	5.15
268.131	3.24
268.511	4.31
268.89	3.7
269.27	3.56
269.649	4.39
270.029	4.11
270.408	4.45
270.787	3.8
271.167	3.89
271.546	4.4
271.925	5.2
272.304	4.2
272.683	3.58
273.062	4.27
273.441	4.5
273.82	3.73
274.199	4.3
274.578	3.88
274.957	4.09
275.336	4.42
275.715	4.21
276.093	3.15
276.472	4.93
276.851	4.43
277.229	3.69
277.608	3.74
277.986	3.35
278.365	4.5
278.743	4.22
279.122	5.06
279.5	3.54
279.878	3.98
280.257	4.22
280.635	4.14
281.013	4.09
281.391	4.28
281.769	3.63
282.147	3.99
282.525	3.64
282.903	3.62
283.281	3.5
283.659	3.97
284.037	4.38
284.415	4.18
284.792	4.54
285.17	3.75
285.548	4.18
285.925	3.34
286.303	4.19
286.68	4.3
287.058	4.55
287.435	3.85
287.813	3.55
288.19	4.15
288.567	4.08
288.945	4.38
289.322	3.61
289.699	3.63
290.076	3.46
290.453	4.13
290.83	3.58
291.207	4.98
291.584	4
291.961	4.09
292.338	4.09
292.715	4.12
293.092	4.07
293.469	4
293.845	4.01
294.222	3.77
294.599	4.14
294.975	3.75
295.352	3.89
295.728	3.81
296.105	3.17
296.481	4.23
296.858	3.9
297.234	3.76
297.61	4.3
297.986	3.73
298.363	3.91
298.739	3.69
299.115	3.65
299.491	4.14
299.867	4.16
300.243	4.09
300.619	3.8
300.995	4.23
301.371	4.2
301.746	4.05
302.122	4.44
302.498	3.81
302.874	4
303.249	4.54
303.625	3.25
304	4.01
304.376	3.56
304.751	3.8
305.127	3.7
305.502	4.39
305.878	3.76
306.253	4.32
306.628	3.67
307.003	3.74
307.378	3.41
307.754	4.02
308.129	3.13
308.504	4.27
308.879	3.35
309.254	4.16
309.629	3.79
310.003	3.85
310.378	3.95
310.753	4.13
311.128	4.15
311.502	3.06
311.877	3.5
312.252	3.24
312.626	4.04
313.001	3.46
313.375	3.67
313.75	3.97
314.124	4.01
314.498	3.73
314.873	3.42
315.247	3.77
315.621	3.26
315.995	3.85
316.369	4.22
316.743	2.98
317.117	3.53
317.491	3.5
317.865	3.62
318.239	3.49
318.613	4.28
318.987	3.72
319.361	2.56
319.734	3.57
320.108	3.77
320.482	3.28
320.855	3.19
321.229	4.06
321.602	3.73
321.976	3.43
322.349	3.52
322.723	3.18
323.096	3.22
323.469	3.29
323.843	3.89
324.216	4.16
324.589	3.98
324.962	3.63
325.335	4.11
325.708	3.85
326.081	3.35
326.454	3.35
326.827	4.15
327.2	3.42
327.573	2.88
327.945	3.61
328.318	4.24
328.691	3.45
329.063	3.87
329.436	3.79
329.809	3.02
330.181	3.68
330.553	3.65
330.926	3.51
331.298	3.56
331.671	2.98
332.043	3.82
332.415	3.73
332.787	3.84
333.159	3.99
333.532	3.72
333.904	3.48
334.276	4.38
334.648	3.51
335.02	3.63
335.391	3.18
335.763	3.6
336.135	3.66
336.507	3.9
336.879	3.12
337.25	3.7
337.622	3.51
337.993	3.39
338.365	3.81
338.736	3.92
339.108	4.17
339.479	4.07
339.851	3.67
340.222	3.41
340.593	3.73
340.964	3.7
341.336	3.54
341.707	3.47
342.078	3.23
342.449	3.69
342.82	3.94
343.191	3.74
343.562	3.73
343.933	4.12
344.303	3.7
344.674	3.84
345.045	3.95
345.416	3.96
345.786	3.7
346.157	3.6
346.527	3.92
346.898	3.31
347.268	3.5
347.639	4.16
348.009	3.77
348.38	3.55
348.75	3.74
349.12	3.56
349.49	3.8
349.861	3.66
350.231	3.61
350.601	4.29
350.971	4.08
351.341	3.87
351.711	4.02
352.081	3.68
352.45	3.5
352.82	3.69
353.19	3.61
353.56	3.61
353.929	3.65
354.299	3.28
354.669	4
355.038	3.3
355.408	3.79
355.777	3.79
356.147	3.77
356.516	4.28
356.885	3.64
357.254	3.72
357.624	3.31
357.993	3.87
358.362	3.85
358.731	3.69
359.1	3.54
359.469	3.66
359.838	3.44
360.207	3.78
360.576	3.89
360.945	3.8
361.314	3.86
361.682	3.88
362.051	4.06
362.42	3.81
362.788	3.65
363.157	4.15
363.525	4.14
363.894	3.7
364.262	3.8
364.631	3.5
364.999	3.86
365.367	4
365.735	3.92
366.104	3.64
366.472	3.8
366.84	4.14
367.208	3.73
367.576	3.7
367.944	4.04
368.312	3.52
368.68	3.96
369.048	4.26
369.416	3.95
369.783	4.01
370.151	3.88
370.519	3.94
370.886	4
371.254	3.86
371.621	4.1
371.989	3.63
372.356	3.87
372.724	3.82
373.091	3.25
373.458	4.08
373.826	4.21
374.193	4.15
374.56	4.1
374.927	3.76
375.294	4.12
375.661	4.12
376.028	4.37
376.395	3.97
376.762	4.35
377.129	4.21
377.496	4.06
377.863	3.98
378.229	3.96
378.596	3.99
378.963	4.2
379.329	3.96
379.696	3.89
380.062	4.24
380.429	4.2
380.795	4.13
381.161	4.17
381.528	4.02
381.894	3.97
382.26	3.69
382.626	3.88
382.993	4.21
383.359	3.75
383.725	4.07
384.091	4.18
384.457	4.09
384.823	3.95
385.188	4.25
385.554	4.04
385.92	3.82
386.286	4.03
386.651	4.26
387.017	4.12
387.383	4.22
387.748	3.96
388.114	4.17
388.479	4.28
388.845	4.13
389.21	4.27
389.575	4.12
389.94	4.16
390.306	4.02
390.671	3.88
391.036	3.99
391.401	4.02
391.766	4.09
392.131	4.2
392.496	4.24
392.861	4.02
393.226	4.16
393.591	4.16
393.956	3.91
394.32	4.18
394.685	4.2
395.05	3.91
395.414	4.04
395.779	4.03
396.143	4.4
396.508	3.86
396.872	3.98
397.236	4.24
397.601	4.07
397.965	4
398.329	4.17
398.694	3.97
399.058	4.28
399.422	4.1
399.786	4.26
400.15	3.8
400.514	4.14
400.878	4.21
401.242	4.11
401.605	4.35
401.969	4.02
402.333	4.16
402.697	4.21
403.06	4.11
403.424	4.36
403.787	3.99
404.151	4.45
404.514	3.97
404.878	3.98
405.241	4.09
405.604	3.75
405.968	3.9
406.331	4.26
406.694	4.49
407.057	4.2
407.42	4.12
407.783	4.13
408.146	4.13
408.509	4.15
408.872	4.03
409.235	4.1
409.598	3.95
409.961	3.98
410.323	4
410.686	4.08
411.049	4.14
411.411	4.11
411.774	4.42
412.136	4.26
412.499	4.12
412.861	4.33
413.223	4.64
413.586	4.08
413.948	4.15
414.31	4.21
414.672	4.3
415.035	4.13
415.397	4.18
415.759	4.03
416.121	3.97
416.483	4.3
416.845	3.97
417.206	4.32
417.568	4.13
417.93	4.26
418.292	4.11
418.653	4.26
419.015	4.17
419.377	4.16
419.738	4.07
420.1	4.12
420.461	4.16
420.822	4.16
421.184	4.1
421.545	4.36
421.906	4.11
422.267	4.17
422.629	4.08
422.99	4.16
423.351	4.14
423.712	4.09
424.073	4.11
424.434	4.07
424.795	4.22
425.155	4.08
425.516	3.95
425.877	4.05
426.238	4.1
426.598	4.12
426.959	4.06
427.32	4.13
427.68	4.15
428.041	4.13
428.401	4.18
428.761	4.16
429.122	4.25
429.482	4.39
429.842	4.27
430.202	4.22
430.563	4.1
430.923	4.19
431.283	4.08
431.643	4.33
432.003	4.15
432.363	4.18
432.722	4.09
433.082	4.35
433.442	4.16
433.802	4.23
434.161	4.15
434.521	4.25
434.881	4.27
435.24	4.15
435.6	4.22
435.959	4.31
436.319	4.12
436.678	4.13
437.037	4.19
437.396	4.08
437.756	4.14
438.115	4.21
438.474	4.04
438.833	4.21
439.192	4.3
439.551	4.25
439.91	4.08
440.269	4.15
440.628	4.21
440.987	4.07
441.345	4.29
441.704	4.14
442.063	4.12
442.421	4.12
442.78	4.26
443.138	4.13
443.497	4.11
443.855	4.16
444.214	4.25
444.572	4.16
444.93	4.28
445.288	3.98
445.647	4.3
446.005	4.17
446.363	4.06
446.721	4.04
447.079	4.18
447.437	3.96
447.795	4.09
448.153	4.04
448.51	4.13
448.868	4.1
449.226	4.19
449.584	4.17
449.941	4.17
450.299	4.23
450.656	4.14
451.014	4.32
451.371	4.17
451.729	4.28
452.086	4.25
452.443	4.38
452.801	4.34
453.158	4.3
453.515	4.25
453.872	4.21
454.229	4.25
454.586	4.07
454.943	4.14
455.3	4.03
455.657	4.14
456.014	4.31
456.371	4.28
456.727	4.21
457.084	4.25
457.441	4.13
457.797	4.25
458.154	4.14
458.51	3.86
458.867	4.27
459.223	4.26
459.58	4.16
459.936	4.05
460.292	4.16
460.648	4.16
461.005	4.14
461.361	4.07
461.717	4.19
462.073	4.11
462.429	4.16
462.785	4.14
463.141	4.13
463.496	4.23
463.852	4.44
464.208	4.31
464.564	4.31
464.919	4.26
465.275	4.33
465.631	4.32
465.986	4.25
466.342	4.1
466.697	4.12
467.052	4.37
467.408	4.19
467.763	4.19
468.118	4.22
468.473	4.3
468.829	4.37
469.184	4.08
469.539	4.31
469.894	4.43
470.249	4.13
470.603	4.17
470.958	4.3
471.313	4.34
471.668	4.34
472.023	4.17
472.377	4.27
472.732	4.09
473.086	4.3
473.441	4.26
473.795	4.18
474.15	4.16
474.504	4.05
474.859	4.4
475.213	4.07
475.567	4.27
475.921	4.2
476.275	4.15
476.63	4.31
476.984	4.34
477.338	4.15
477.692	4.22
478.045	4.18
478.399	4.09
478.753	4.25
479.107	4.17
479.461	4.24
479.814	4.32
480.168	4.07
480.521	4.17
480.875	4.26
481.228	4.2
481.582	4.2
481.935	4.16
482.289	4.2
482.642	4.22
482.995	4.32
483.348	4.21
483.701	4.27
484.055	4.19
484.408	4.13
484.761	4.12
485.114	4
485.466	3.94
485.819	3.96
486.172	3.9
486.525	3.99
486.878	4.06
487.23	4.02
487.583	4
487.936	4.07
488.288	4.03
488.641	4.03
488.993	4.03
489.345	4
489.698	3.97
490.05	4.03
490.402	4.06
490.754	3.98
491.107	4.11
491.459	4.14
491.811	4.2
492.163	4.21
492.515	4.19
492.866	4.06
493.218	4.01
493.57	4.01
493.922	3.98
494.274	4.05
494.625	4.15
494.977	4.18
495.328	4.2
495.68	4.14
496.031	4.27
496.383	4.32
496.734	4.24
497.086	4.06
497.437	4.2
497.788	4.23
498.139	4.18
498.49	4.26
498.842	4.19
499.193	4.17
499.544	4.28
499.894	4.14
500.245	4.24
500.596	4.21
500.947	4.14
501.298	4.21
501.648	4.21
501.999	4.17
502.35	4.28
502.7	4.35
503.051	4.19
503.401	4.37
503.752	4.3
504.102	4.29
504.452	4.15
504.803	4.17
505.153	4.07
505.503	4.17
505.853	4.34
506.203	4.1
506.553	4.23
506.903	4.19
507.253	4.17
507.603	4.1
507.953	4.2
508.303	4.24
508.652	4.2
509.002	4.25
509.352	4.12
509.701	4.26
510.051	4.16
510.4	4.1
510.75	4.12
511.099	4.13
511.449	4.17
511.798	4.22
512.147	4.22
512.496	4.2
512.846	4.19
513.195	4.09
513.544	4.31
513.893	4.17
514.242	4.13
514.591	4.11
514.939	4.19
515.288	4.1
515.637	4.2
515.986	4.18
516.334	4.36
516.683	4.08
517.032	4.23
517.38	4.24
517.729	4.25
518.077	4.16
518.426	4.24
518.774	4.17
519.122	4.18
519.47	4.14
519.819	4.04
520.167	4.05
520.515	4.03
520.863	4.12
521.211	4.08
521.559	4.23
521.907	4.19
522.255	4.2
522.602	4.32
522.95	4.23
523.298	4.26
523.645	4.27
523.993	4.18
524.341	4.08
524.688	4.15
525.036	4.23
525.383	4.3
525.73	4.1
526.078	4.08
526.425	3.99
526.772	4.1
527.119	4.11
527.466	4.08
527.814	4.02
528.161	4.12
528.508	4.17
528.854	4.06
529.201	4.07
529.548	4.07
529.895	4.03
530.242	3.96
530.588	3.95
530.935	3.97
531.282	4.01
531.628	4.07
531.975	4.05
532.321	4.04
532.667	4.03
533.014	4.01
533.36	4.15
533.706	4.07
534.052	4.08
534.399	4.12
534.745	4.1
535.091	3.99
535.437	4.04
535.783	4.04
536.129	4.17
536.474	4.07
536.82	4.12
537.166	4.28
537.512	4.09
537.857	4.16
538.203	4.1
538.549	4.12
538.894	4.12
539.239	4.12
539.585	4.14
539.93	4.18
540.276	4.15
540.621	4.19
540.966	4.06
541.311	4.26
541.656	4.13
542.001	4.18
542.346	4.08
542.691	3.99
543.036	4.01
543.381	3.93
543.726	4.02
544.071	4.02
544.415	4.04
544.76	4.08
545.105	4.06
545.449	4.13
545.794	4.2
546.138	4.01
546.483	4.15
546.827	4.19
547.171	4.14
547.516	4.04
547.86	4.19
548.204	4.11
548.548	4.11
548.892	4.18
549.236	4.08
549.58	4.27
549.924	4.16
550.268	4.16
550.612	4.05
550.956	4.31
551.3	4.21
551.643	4.15
551.987	4.12
552.33	4.27
552.674	4.27
553.017	4.21
553.361	4.38
553.704	4.04
554.048	4.21
554.391	4.12
554.734	4.16
555.077	4.24
555.42	4.09
555.764	4.2
556.107	4.14
556.45	4.19
556.793	4.02
557.135	4.21
557.478	4.22
557.821	4.09
558.164	4.22
558.507	4.17
558.849	4.27
559.192	4.22
559.534	4.14
559.877	4.3
560.219	3.96
560.562	4.22
560.904	4.47
561.246	4.19
561.589	4.07
561.931	4.12
562.273	4.08
562.615	4.04
562.957	4.1
563.299	4.22
563.641	4.29
563.983	4.29
564.325	4.27
564.667	4.26
565.008	4.05
565.35	4.14
565.692	4.25
566.033	4.18
566.375	4.01
566.716	4
567.058	4.32
567.399	4.1
567.741	4.18
568.082	4.22
568.423	4.29
568.764	4.23
569.105	4.14
569.447	4.27
569.788	4.1
570.129	3.99
570.47	4.47
570.811	4.25
571.151	4.21
571.492	4.07
571.833	4.25
572.174	4.1
572.514	4.25
572.855	4.31
573.195	4.14
573.536	4.01
573.876	4.22
574.217	4.32
574.557	4.02
574.898	4.11
575.238	4.35
575.578	3.98
575.918	4.22
576.258	4.36
576.598	4.29
576.938	4.1
577.278	4.25
577.618	4.12
577.958	4.31
578.298	4.28
578.638	4.03
578.977	4.09
579.317	4.2
579.657	4.29
579.996	4.34
580.336	3.87
580.675	4.11
581.014	4.2
581.354	4.12
581.693	4.21
582.032	3.96
582.372	4.33
582.711	4.25
583.05	4.2
583.389	4.21
583.728	4.15
584.067	4.58
584.406	4.46
584.745	4.14
585.083	4.01
585.422	4.27
585.761	4.36
586.1	4.04
586.438	4.35
586.777	4.41
587.115	4.15
587.454	4.43
587.792	3.64
588.13	4.06
588.469	4.21
588.807	3.9
589.145	4.42
589.483	4.17
589.821	4.37
590.159	4.12
590.497	4.01
590.835	4.01
591.173	4.31
591.511	4.1
591.849	4.03
592.187	4.1
592.524	4.02
592.862	4.19
593.2	4.1
593.537	3.96
593.875	4.36
594.212	4.24
594.55	4.28
594.887	4.62
595.224	4.18
595.561	3.96
595.899	3.85
596.236	4.36
596.573	4.03
596.91	4.32
597.247	4.1
597.584	4.36
597.921	4.17
598.258	4.14
598.594	4.21
598.931	4.13
599.268	4.01
599.604	4.08
599.941	4.04
600.277	3.96
600.614	4.34
600.95	4.18
601.287	3.9
601.623	4.09
601.959	4.15
602.296	4.28
602.632	3.9
602.968	4.16
603.304	4.09
603.64	4.17
603.976	4.17
604.312	4.14
604.648	4.25
604.984	3.95
605.319	4.12
605.655	4.11
605.991	4.01
606.326	4.01
606.662	4.29
606.998	4.06
607.333	4.11
607.668	4.06
608.004	4.26
608.339	4.14
608.674	4.13
609.01	4.13
609.345	4.3
609.68	4.15
610.015	3.97
610.35	4.12
610.685	4.27
611.02	4.12
611.355	3.99
611.689	4.05
612.024	4.16
612.359	4.18
612.694	4.06
613.028	4.21
613.363	4.26
613.697	4.26
614.032	4.25
614.366	4.08
614.7	3.79
615.035	4.13
615.369	4.03
615.703	4.31
616.037	4.21
616.371	3.94
616.705	4.18
617.039	4.25
617.373	4.22
617.707	3.83
618.041	4.26
618.375	3.8
618.709	3.89
619.042	4.14
619.376	3.92
619.71	4.1
620.043	4.09
620.377	4.03
620.71	3.79
621.043	3.97
621.377	3.59
621.71	4.14
622.043	4.36
622.376	4.4
622.709	3.96
623.043	4.16
623.376	4.48
623.709	4.23
624.041	4.14
624.374	4.11
624.707	3.97
625.04	4.02
625.373	4.13
625.705	4.15
626.038	3.97
626.37	4.34
626.703	4.18
627.035	3.87
627.368	4.15
627.7	4.14
628.032	3.77
628.365	4.09
628.697	4.16
629.029	4.26
629.361	4.1
629.693	3.89
630.025	3.85
630.357	3.98
630.689	3.91
631.021	4.06
631.353	4.26
631.684	4.07
632.016	3.86
632.348	4.48
632.679	3.85
633.011	4.33
633.342	4.15
633.674	4.35
634.005	4.31
634.336	4.2
634.668	3.99
634.999	4.27
635.33	4.1
635.661	3.8
635.992	3.91
636.323	3.85
636.654	4.3
636.985	4.13
637.316	4.34
637.647	4
637.977	4.24
638.308	4.46
638.639	4.55
638.969	4.1
639.3	4.09
639.63	4.73
639.961	4.57
640.291	3.39
640.622	3.7
640.952	4.53
641.282	4.16
641.612	3.91
641.943	3.99
642.273	4.11
642.603	4.68
642.933	3.9
643.263	3.74
643.592	4.52
643.922	4.24
644.252	4.17
644.582	3.68
644.911	4.12
645.241	3.83
645.571	4.82
645.9	4.14
646.23	3.88
646.559	3.92
646.888	3.92
647.218	4.41
647.547	3.79
647.876	4.07
648.205	4.02
648.534	3.94
648.863	4.25
649.192	4.3
649.521	4.56
649.85	3.19
650.179	4.37
650.508	4.54
650.837	4.17
651.165	3.9
651.494	4.04
651.822	3.67
652.151	4.43
652.479	4.13
652.808	4.14
653.136	4.39
653.465	4.21
653.793	4.37
654.121	4.28
654.449	4.27
654.777	4.44
655.105	4.46
655.433	4.26
655.761	4.48
656.089	4.18
656.417	4.53
656.745	4.27
657.073	4.01
657.4	4.23
657.728	3.83
658.056	4.67
658.383	3.91
658.711	4.06
659.038	4.29
659.365	3.97
659.693	4.33
660.02	4.02
660.347	4.42
660.674	3.99
661.001	4.22
661.329	4.16
661.656	4.27
661.982	3.89
662.309	4.28
662.636	3.85
662.963	4.42
663.29	4.54
663.616	4.15
663.943	3.8
664.27	4.57
664.596	4.49
664.923	4.72
665.249	4.11
665.576	3.76
665.902	4.38
666.228	4.5
666.554	3.99
666.881	3.5
667.207	4.24
667.533	4.63
667.859	4.29
668.185	4.39
668.511	4.1
668.837	4.05
669.162	4.57
669.488	3.87
669.814	3.62
670.139	4.6
670.465	3.33
670.791	4.15
671.116	3.84
671.442	4.22
671.767	4.16
672.092	4.88
672.418	4.02
672.743	4.06
673.068	3.35
673.393	3.43
673.718	4.66
674.043	4.12
674.368	3.42
674.693	4.16
675.018	3.86
675.343	4.11
675.667	4.36
675.992	4.26
676.317	3.46
676.641	3.2
676.966	4.16
677.29	3.33
677.615	4.35
677.939	3.58
678.264	4.65
678.588	4.31
678.912	3.58
679.236	4.21
679.56	4.51
679.885	4.74
680.209	4.46
680.532	4.08
680.856	4.01
681.18	3.76
681.504	4.08
681.828	4.32
682.152	4.11
682.475	3.97
682.799	4.23
683.122	4.12
683.446	4.6
683.769	4.99
684.093	3.68
684.416	3.73
684.739	4.2
685.062	4.36
685.386	4.17
685.709	4.43
686.032	4.08
686.355	2.99
686.678	4.53
687.001	4.29
687.324	4.15
687.646	4.32
687.969	3.73
688.292	4.43
688.614	3.88
688.937	4.85
689.26	4.25
689.582	3.45
689.904	4.61
690.227	4.47
690.549	4.16
690.871	3.97
691.194	3.61
691.516	4.2
691.838	3.95
692.16	4.08
692.482	4.19
