Data from 0401_chest_Reflection__4__201.txt Node

Date: Tue Dec 12 20:04:55 CST 2023
User: ToomeyLab
Spectrometer: FLMS14357
Trigger mode: 0
Integration Time (sec): 1.000000E-2
Scans to average: 100
Electric dark correction enabled: true
Nonlinearity correction enabled: false
Boxcar width: 0
XAxis mode: Wavelengths
Number of Pixels in Spectrum: 2048
>>>>>Begin Spectral Data<<<<<
189.047	-253.54
189.435	-253.54
189.823	-253.54
190.211	503.39
190.599	-759.87
190.987	15.34
191.375	-2933.33
191.763	-85.74
192.151	58.82
192.538	-153.61
192.926	47.37
193.314	-1386.34
193.702	208.41
194.089	130.02
194.477	156.95
194.864	-6.54
195.252	-229.74
195.639	-960.33
196.027	-1232.21
196.414	45.9
196.801	234.89
197.189	243.65
197.576	992.15
197.963	9.89
198.351	-9.46
198.738	13.43
199.125	-4.94
199.512	-88.96
199.899	-29.95
200.286	-9.74
200.673	-9.23
201.06	-49.7
201.447	-97.53
201.833	-65.29
202.22	-22.95
202.607	-301.72
202.994	-4.89
203.38	10.87
203.767	51.4
204.154	56.36
204.54	17.89
204.927	-94.96
205.313	16.7
205.699	-55.06
206.086	-17.84
206.472	44.55
206.858	-67.22
207.245	-38.86
207.631	-19
208.017	29.57
208.403	4.84
208.789	-10.5
209.175	-97.28
209.561	4.4
209.947	-50.81
210.333	21.01
210.719	-11.55
211.105	-20.9
211.491	6.5
211.876	33.52
212.262	36.22
212.648	-120.2
213.034	-33.82
213.419	19.7
213.805	3.37
214.19	15.56
214.576	-8.63
214.961	7.11
215.346	-24.7
215.732	-2.2
216.117	14.22
216.502	-42.58
216.888	-32.12
217.273	-16.89
217.658	-64.33
218.043	-32.02
218.428	11.97
218.813	55
219.198	-32.12
219.583	-14.33
219.968	4.9
220.353	3.64
220.738	-2.31
221.122	-6.81
221.507	-37.62
221.892	-9.27
222.276	15.92
222.661	4.04
223.046	-29.84
223.43	11.93
223.815	-0.31
224.199	12.92
224.583	0.85
224.968	-4.62
225.352	-4.61
225.736	2.89
226.121	-6.37
226.505	3.52
226.889	-5.24
227.273	-0.46
227.657	3.82
228.041	7.53
228.425	7.26
228.809	-6.08
229.193	-2.4
229.577	6.23
229.961	2.39
230.344	4.35
230.728	5.74
231.112	4.74
231.495	4.51
231.879	5.26
232.263	3.99
232.646	3.19
233.03	3.54
233.413	1.35
233.797	4.21
234.18	3.79
234.563	2.11
234.946	4.88
235.33	5.44
235.713	5.01
236.096	3.86
236.479	4.49
236.862	3.53
237.245	4.38
237.628	5.54
238.011	3.25
238.394	3.81
238.777	4.51
239.16	3.39
239.543	4.62
239.925	4.26
240.308	2.28
240.691	4.38
241.073	5.16
241.456	4.71
241.838	4.61
242.221	5.79
242.603	6.54
242.986	4.13
243.368	5.08
243.75	4.6
244.133	4.97
244.515	4.95
244.897	5.16
245.279	5.25
245.661	4.26
246.043	4.36
246.425	5.42
246.807	4.63
247.189	4.59
247.571	5.05
247.953	4.36
248.335	5.05
248.717	4.91
249.098	5.04
249.48	4.84
249.862	4.88
250.243	5.05
250.625	5.13
251.006	5.23
251.388	5.06
251.769	5.52
252.151	4.05
252.532	5.49
252.913	5.69
253.295	6.24
253.676	4.26
254.057	4.62
254.438	5.02
254.819	4.39
255.2	4.3
255.581	3.22
255.962	3.68
256.343	5.67
256.724	4.03
257.105	6.08
257.486	3.68
257.867	4.04
258.247	3.59
258.628	5.43
259.009	3.74
259.389	3.96
259.77	4.38
260.15	4.37
260.531	4.93
260.911	5.32
261.292	4.59
261.672	4.46
262.052	4.59
262.432	4.89
262.813	4.35
263.193	4.81
263.573	4.84
263.953	5.23
264.333	5.69
264.713	5.34
265.093	4.99
265.473	4.91
265.853	3.05
266.233	4.06
266.612	3.88
266.992	3.85
267.372	4.67
267.752	4.76
268.131	3.69
268.511	3.54
268.89	4.05
269.27	3.64
269.649	4.42
270.029	4.38
270.408	4.22
270.787	3.51
271.167	4.42
271.546	4.31
271.925	4.74
272.304	4.95
272.683	3.82
273.062	4.27
273.441	4.26
273.82	4.12
274.199	4.31
274.578	4.8
274.957	4.06
275.336	4.48
275.715	5
276.093	3.26
276.472	3.9
276.851	4.63
277.229	3.68
277.608	4.65
277.986	3.99
278.365	3.81
278.743	4.43
279.122	4.35
279.5	3.97
279.878	3.88
280.257	3.39
280.635	4.29
281.013	4.23
281.391	4.06
281.769	3.62
282.147	3.97
282.525	3.22
282.903	3.91
283.281	4.25
283.659	3.89
284.037	4.31
284.415	4.27
284.792	4.35
285.17	3.8
285.548	4.32
285.925	4.29
286.303	4.07
286.68	4.63
287.058	4.68
287.435	4.25
287.813	3.81
288.19	4.03
288.567	4.23
288.945	4.37
289.322	3.24
289.699	4.07
290.076	4.46
290.453	4.82
290.83	4.06
291.207	4.28
291.584	4.45
291.961	4.39
292.338	3.98
292.715	4.2
293.092	4.48
293.469	4.47
293.845	4.82
294.222	4.33
294.599	4.98
294.975	3.88
295.352	4.92
295.728	4.83
296.105	5.13
296.481	5.08
296.858	4.46
297.234	5.15
297.61	4.93
297.986	4.75
298.363	5.35
298.739	4.94
299.115	5.13
299.491	4.86
299.867	5.3
300.243	5.06
300.619	4.77
300.995	5.13
301.371	5.55
301.746	4.99
302.122	5.1
302.498	5.49
302.874	5.45
303.249	5.71
303.625	5.14
304	5.44
304.376	5.31
304.751	5.54
305.127	4.62
305.502	5.53
305.878	4.62
306.253	5.15
306.628	4.98
307.003	5.09
307.378	5.18
307.754	5.01
308.129	5
308.504	6.07
308.879	5.09
309.254	5.42
309.629	5.18
310.003	5.7
310.378	5.96
310.753	5.86
311.128	6.12
311.502	4.85
311.877	4.68
312.252	4.96
312.626	5.54
313.001	5.17
313.375	5.31
313.75	5.69
314.124	5.57
314.498	5.39
314.873	5.49
315.247	5.54
315.621	5.16
315.995	5.43
316.369	5.46
316.743	4.6
317.117	4.24
317.491	5.29
317.865	5.61
318.239	5.22
318.613	6.16
318.987	5.73
319.361	4.76
319.734	4.94
320.108	5.67
320.482	5.28
320.855	5.53
321.229	5.48
321.602	5.42
321.976	5.11
322.349	5.56
322.723	5.42
323.096	5.09
323.469	5.2
323.843	6.36
324.216	5.78
324.589	5.4
324.962	5.71
325.335	5.98
325.708	6.24
326.081	5.8
326.454	5.85
326.827	6.02
327.2	5.99
327.573	5.21
327.945	5.91
328.318	5.86
328.691	5.27
329.063	5.96
329.436	5.7
329.809	5.7
330.181	5.21
330.553	5.3
330.926	5.87
331.298	5.29
331.671	6.13
332.043	5.8
332.415	5.96
332.787	5.61
333.159	6.23
333.532	5.71
333.904	5.39
334.276	6.11
334.648	4.96
335.02	5.07
335.391	5.86
335.763	5.67
336.135	5.8
336.507	5.69
336.879	6.13
337.25	5.17
337.622	5.47
337.993	5.87
338.365	5.58
338.736	5.89
339.108	6.08
339.479	5.3
339.851	5.33
340.222	4.74
340.593	6.14
340.964	5.53
341.336	5.86
341.707	5.29
342.078	5.41
342.449	5.48
342.82	5.64
343.191	5.65
343.562	6.01
343.933	5.49
344.303	6.09
344.674	5.73
345.045	5.8
345.416	5.9
345.786	5.19
346.157	5.69
346.527	5.92
346.898	5.68
347.268	5.51
347.639	5.71
348.009	5.51
348.38	5.62
348.75	5.98
349.12	5.88
349.49	5.81
349.861	6.14
350.231	5.43
350.601	6.18
350.971	6.22
351.341	5.95
351.711	6.6
352.081	6.11
352.45	5.74
352.82	6.35
353.19	5.51
353.56	5.41
353.929	5.75
354.299	5.45
354.669	6.11
355.038	5.26
355.408	5.48
355.777	6.35
356.147	5.35
356.516	5.75
356.885	5.39
357.254	5.51
357.624	5.45
357.993	5.47
358.362	5.91
358.731	6.07
359.1	5.42
359.469	5.8
359.838	5.55
360.207	5.61
360.576	5.76
360.945	5.75
361.314	5.78
361.682	6.24
362.051	6.16
362.42	5.99
362.788	5.72
363.157	6.2
363.525	5.91
363.894	5.74
364.262	5.94
364.631	5.62
364.999	5.56
365.367	6.17
365.735	5.69
366.104	5.81
366.472	5.85
366.84	6.28
367.208	5.8
367.576	5.87
367.944	6.08
368.312	5.84
368.68	5.78
369.048	6.04
369.416	5.81
369.783	5.98
370.151	5.91
370.519	5.54
370.886	5.62
371.254	5.74
371.621	5.9
371.989	5.62
372.356	6.01
372.724	5.8
373.091	6.05
373.458	5.75
373.826	5.62
374.193	5.77
374.56	6.22
374.927	6.16
375.294	6.07
375.661	5.95
376.028	6.08
376.395	6.12
376.762	6.65
377.129	5.95
377.496	5.89
377.863	6.1
378.229	6
378.596	5.61
378.963	6.12
379.329	5.54
379.696	5.72
380.062	6.5
380.429	5.8
380.795	5.96
381.161	6.02
381.528	6.16
381.894	5.92
382.26	5.85
382.626	5.9
382.993	5.96
383.359	5.75
383.725	6.2
384.091	5.88
384.457	6.06
384.823	6.21
385.188	6.34
385.554	6.03
385.92	5.99
386.286	6.04
386.651	6.36
387.017	6.36
387.383	6.21
387.748	6.14
388.114	5.96
388.479	6.17
388.845	6.07
389.21	6.23
389.575	5.88
389.94	6.04
390.306	6.11
390.671	6.16
391.036	6.15
391.401	6.06
391.766	6.15
392.131	6.2
392.496	6.3
392.861	5.98
393.226	6.19
393.591	6.1
393.956	6.06
394.32	6.43
394.685	6.38
395.05	6.14
395.414	6.16
395.779	6.07
396.143	6.03
396.508	5.99
396.872	5.97
397.236	6.15
397.601	6.01
397.965	6.27
398.329	6.07
398.694	6.15
399.058	5.97
399.422	6.05
399.786	6.09
400.15	6.04
400.514	6.32
400.878	6.29
401.242	6.23
401.605	6.21
401.969	6.28
402.333	6.24
402.697	6.03
403.06	6.06
403.424	6.5
403.787	6.15
404.151	6.76
404.514	5.85
404.878	6.15
405.241	6.19
405.604	6.17
405.968	5.97
406.331	6.44
406.694	6.45
407.057	6.08
407.42	6.27
407.783	6.21
408.146	6.29
408.509	6.44
408.872	6.22
409.235	6.21
409.598	6.3
409.961	6.3
410.323	6.04
410.686	6.44
411.049	6.32
411.411	6.51
411.774	6.19
412.136	6.19
412.499	6.34
412.861	6.27
413.223	6.62
413.586	6.3
413.948	6.23
414.31	6.28
414.672	6.48
415.035	6.46
415.397	6.34
415.759	6.35
416.121	6.32
416.483	6.41
416.845	6.34
417.206	6.44
417.568	6.27
417.93	6.37
418.292	6.23
418.653	6.26
419.015	6.25
419.377	6.33
419.738	6.39
420.1	6.13
420.461	6.35
420.822	6.33
421.184	6.35
421.545	6.45
421.906	6.32
422.267	6.23
422.629	6.33
422.99	6.31
423.351	6.39
423.712	6.33
424.073	6.29
424.434	6.3
424.795	6.39
425.155	6.26
425.516	6.19
425.877	6.23
426.238	6.38
426.598	6.28
426.959	6.35
427.32	6.35
427.68	6.34
428.041	6.43
428.401	6.42
428.761	6.53
429.122	6.54
429.482	6.6
429.842	6.51
430.202	6.42
430.563	6.57
430.923	6.51
431.283	6.52
431.643	6.42
432.003	6.51
432.363	6.68
432.722	6.4
433.082	6.48
433.442	6.53
433.802	6.48
434.161	6.6
434.521	6.55
434.881	6.56
435.24	6.57
435.6	6.44
435.959	6.57
436.319	6.53
436.678	6.5
437.037	6.51
437.396	6.52
437.756	6.45
438.115	6.71
438.474	6.52
438.833	6.69
439.192	6.82
439.551	6.52
439.91	6.43
440.269	6.4
440.628	6.47
440.987	6.58
441.345	6.65
441.704	6.52
442.063	6.54
442.421	6.57
442.78	6.6
443.138	6.44
443.497	6.54
443.855	6.48
444.214	6.61
444.572	6.77
444.93	6.6
445.288	6.57
445.647	6.82
446.005	6.55
446.363	6.4
446.721	6.56
447.079	6.59
447.437	6.44
447.795	6.63
448.153	6.6
448.51	6.66
448.868	6.52
449.226	6.65
449.584	6.61
449.941	6.71
450.299	6.72
450.656	6.66
451.014	6.66
451.371	6.69
451.729	6.74
452.086	6.64
452.443	6.77
452.801	6.61
453.158	6.75
453.515	6.71
453.872	6.73
454.229	6.91
454.586	6.71
454.943	6.7
455.3	6.8
455.657	6.7
456.014	7.02
456.371	6.95
456.727	6.72
457.084	6.7
457.441	6.75
457.797	6.69
458.154	6.79
458.51	6.61
458.867	6.85
459.223	6.86
459.58	6.84
459.936	6.49
460.292	6.83
460.648	6.84
461.005	6.77
461.361	6.74
461.717	6.75
462.073	6.75
462.429	6.7
462.785	6.67
463.141	6.76
463.496	6.9
463.852	6.88
464.208	6.97
464.564	6.97
464.919	7.04
465.275	6.98
465.631	6.81
465.986	6.92
466.342	6.89
466.697	7
467.052	7.26
467.408	6.96
467.763	6.87
468.118	6.94
468.473	6.89
468.829	6.97
469.184	6.89
469.539	6.93
469.894	7.14
470.249	7.04
470.603	7.05
470.958	6.93
471.313	7.09
471.668	7.11
472.023	6.89
472.377	6.88
472.732	7.06
473.086	6.96
473.441	7.12
473.795	7.11
474.15	7.14
474.504	6.94
474.859	6.94
475.213	6.87
475.567	7.18
475.921	7.09
476.275	7.07
476.63	7.06
476.984	7.15
477.338	7
477.692	6.93
478.045	7.19
478.399	6.89
478.753	7.05
479.107	7.13
479.461	7.08
479.814	7.15
480.168	6.94
480.521	6.91
480.875	7.27
481.228	7.24
481.582	7.02
481.935	7.24
482.289	7.18
482.642	7.22
482.995	7.08
483.348	7.17
483.701	7.28
484.055	7.11
484.408	7.05
484.761	6.96
485.114	6.85
485.466	6.76
485.819	6.75
486.172	6.75
486.525	6.84
486.878	6.9
487.23	6.86
487.583	6.91
487.936	7.02
488.288	6.95
488.641	7
488.993	6.92
489.345	6.91
489.698	6.91
490.05	6.9
490.402	7.01
490.754	7.01
491.107	6.99
491.459	7.13
491.811	7.21
492.163	7.1
492.515	7.14
492.866	7.05
493.218	7
493.57	6.94
493.922	6.99
494.274	7.15
494.625	7.26
494.977	7.27
495.328	7.34
495.68	7.28
496.031	7.44
496.383	7.44
496.734	7.31
497.086	7.2
497.437	7.47
497.788	7.47
498.139	7.4
498.49	7.46
498.842	7.36
499.193	7.47
499.544	7.3
499.894	7.29
500.245	7.47
500.596	7.41
500.947	7.41
501.298	7.62
501.648	7.66
501.999	7.41
502.35	7.43
502.7	7.58
503.051	7.39
503.401	7.5
503.752	7.81
504.102	7.5
504.452	7.63
504.803	7.59
505.153	7.56
505.503	7.59
505.853	7.57
506.203	7.53
506.553	7.49
506.903	7.67
507.253	7.63
507.603	7.67
507.953	7.69
508.303	7.64
508.652	7.62
509.002	7.56
509.352	7.61
509.701	7.68
510.051	7.56
510.4	7.58
510.75	7.62
511.099	7.52
511.449	7.74
511.798	7.68
512.147	7.59
512.496	7.92
512.846	7.72
513.195	7.58
513.544	7.87
513.893	7.74
514.242	7.72
514.591	7.57
514.939	7.81
515.288	7.69
515.637	7.63
515.986	7.77
516.334	7.86
516.683	7.8
517.032	7.84
517.38	7.77
517.729	7.78
518.077	7.8
518.426	7.89
518.774	7.85
519.122	7.86
519.47	7.81
519.819	7.78
520.167	7.71
520.515	7.69
520.863	7.71
521.211	7.77
521.559	7.77
521.907	7.87
522.255	7.9
522.602	7.85
522.95	7.93
523.298	7.94
523.645	8.02
523.993	8.05
524.341	8.12
524.688	7.95
525.036	8.03
525.383	8.11
525.73	7.86
526.078	7.94
526.425	7.93
526.772	7.9
527.119	7.93
527.466	7.94
527.814	7.8
528.161	7.95
528.508	7.93
528.854	7.86
529.201	7.91
529.548	7.91
529.895	7.86
530.242	7.71
530.588	7.66
530.935	7.73
531.282	7.81
531.628	7.86
531.975	7.9
532.321	7.96
532.667	7.93
533.014	8.06
533.36	8.03
533.706	8.08
534.052	8.03
534.399	8.06
534.745	8.02
535.091	7.94
535.437	8
535.783	7.99
536.129	8.18
536.474	8.13
536.82	8.15
537.166	8.26
537.512	8.19
537.857	8.24
538.203	8.15
538.549	8.18
538.894	8.18
539.239	8.24
539.585	8.29
539.93	8.33
540.276	8.21
540.621	8.31
540.966	8.38
541.311	8.4
541.656	8.43
542.001	8.35
542.346	8.33
542.691	8.24
543.036	8.26
543.381	8.07
543.726	8.17
544.071	8.28
544.415	8.37
544.76	8.3
545.105	8.4
545.449	8.45
545.794	8.44
546.138	8.43
546.483	8.48
546.827	8.59
547.171	8.55
547.516	8.51
547.86	8.64
548.204	8.53
548.548	8.57
548.892	8.52
549.236	8.56
549.58	8.77
549.924	8.67
550.268	8.84
550.612	8.75
550.956	8.81
551.3	8.91
551.643	8.82
551.987	8.88
552.33	8.89
552.674	8.9
553.017	9.06
553.361	9.02
553.704	8.81
554.048	8.9
554.391	9.13
554.734	8.95
555.077	8.81
555.42	8.84
555.764	9.13
556.107	9.02
556.45	9.02
556.793	9.05
557.135	9.08
557.478	9.04
557.821	9.12
558.164	9.15
558.507	9.15
558.849	8.87
559.192	9.04
559.534	9.24
559.877	9.28
560.219	9.19
560.562	9.14
560.904	9.21
561.246	9.37
561.589	9.19
561.931	9.25
562.273	9.03
562.615	9.22
562.957	9.25
563.299	9.35
563.641	9.39
563.983	9.26
564.325	9.3
564.667	9.44
565.008	9.26
565.35	9.4
565.692	9.4
566.033	9.37
566.375	9.22
566.716	9.27
567.058	9.6
567.399	9.36
567.741	9.47
568.082	9.26
568.423	9.43
568.764	9.37
569.105	9.46
569.447	9.51
569.788	9.57
570.129	9.4
570.47	9.79
570.811	9.55
571.151	9.52
571.492	9.72
571.833	9.71
572.174	9.68
572.514	9.67
572.855	9.51
573.195	9.72
573.536	9.57
573.876	9.83
574.217	9.57
574.557	9.61
574.898	9.66
575.238	9.84
575.578	9.74
575.918	9.85
576.258	9.7
576.598	9.62
576.938	9.79
577.278	9.91
577.618	9.87
577.958	9.8
578.298	10.01
578.638	9.9
578.977	10.03
579.317	9.97
579.657	9.96
579.996	10.08
580.336	10.01
580.675	10
581.014	10.17
581.354	10.24
581.693	10.17
582.032	9.88
582.372	10.02
582.711	10.11
583.05	10.33
583.389	10.19
583.728	10.14
584.067	10.23
584.406	10.58
584.745	10.44
585.083	10.42
585.422	10.51
585.761	10.45
586.1	10.5
586.438	10.67
586.777	10.41
587.115	10.26
587.454	10.31
587.792	10.2
588.13	10.66
588.469	10.47
588.807	10.39
589.145	10.41
589.483	10.26
589.821	10.4
590.159	10.82
590.497	10.64
590.835	10.54
591.173	10.44
591.511	10.48
591.849	10.28
592.187	10.71
592.524	10.42
592.862	10.59
593.2	10.39
593.537	10.59
593.875	10.64
594.212	10.75
594.55	10.81
594.887	11.06
595.224	10.78
595.561	10.92
595.899	10.57
596.236	10.88
596.573	10.76
596.91	10.98
597.247	10.71
597.584	10.96
597.921	11.02
598.258	10.81
598.594	10.91
598.931	10.65
599.268	10.85
599.604	11.08
599.941	10.77
600.277	11.07
600.614	10.96
600.95	11.13
601.287	11.12
601.623	11.41
601.959	11
602.296	11.43
602.632	11
602.968	11.41
603.304	11.28
603.64	11.17
603.976	10.84
604.312	10.91
604.648	11.13
604.984	11.32
605.319	11.15
605.655	11.18
605.991	11.39
606.326	11.24
606.662	11.39
606.998	11.26
607.333	11.26
607.668	11.5
608.004	11.18
608.339	11.48
608.674	11.27
609.01	11.17
609.345	11.5
609.68	11.61
610.015	11.3
610.35	11.39
610.685	11.74
611.02	11.44
611.355	11.45
611.689	11.23
612.024	11.55
612.359	11.52
612.694	11.71
613.028	11.45
613.363	11.51
613.697	11.71
614.032	11.85
614.366	11.81
614.7	11.77
615.035	11.98
615.369	11.59
615.703	11.83
616.037	11.6
616.371	11.64
616.705	11.77
617.039	11.95
617.373	11.95
617.707	11.79
618.041	11.82
618.375	11.79
618.709	11.93
619.042	12.23
619.376	11.92
619.71	11.93
620.043	11.97
620.377	12.4
620.71	12.06
621.043	12.17
621.377	11.65
621.71	12.06
622.043	12.19
622.376	12.49
622.709	12.32
623.043	11.96
623.376	12.64
623.709	12.37
624.041	12.38
624.374	12.38
624.707	12.2
625.04	12.26
625.373	13.12
625.705	12.67
626.038	12.46
626.37	12.83
626.703	12.55
627.035	12.23
627.368	12.53
627.7	12.19
628.032	12.2
628.365	12.57
628.697	12.45
629.029	12.36
629.361	12.32
629.693	12.45
630.025	12.32
630.357	12.54
630.689	12.63
631.021	12.88
631.353	12.72
631.684	12.58
632.016	12.64
632.348	12.72
632.679	12.57
633.011	12.93
633.342	12.62
633.674	12.75
634.005	13.02
634.336	12.68
634.668	13.15
634.999	12.91
635.33	12.84
635.661	12.92
635.992	12.97
636.323	12.34
636.654	12.91
636.985	12.76
637.316	12.99
637.647	12.72
637.977	13.02
638.308	12.7
638.639	13.12
638.969	12.97
639.3	13.37
639.63	13.25
639.961	13.15
640.291	12.64
640.622	13.22
640.952	13.55
641.282	13.3
641.612	13.33
641.943	13.5
642.273	13.1
642.603	13.43
642.933	13.3
643.263	13.07
643.592	13.07
643.922	13.95
644.252	13.53
644.582	12.63
644.911	13.07
645.241	12.95
645.571	13.93
645.9	13.26
646.23	13.3
646.559	13.57
646.888	13.77
647.218	13.85
647.547	13.82
647.876	13.67
648.205	13.66
648.534	13.58
648.863	13.73
649.192	13.88
649.521	14.19
649.85	13.78
650.179	13.84
650.508	14
650.837	13.8
651.165	13.53
651.494	13.69
651.822	13.79
652.151	13.74
652.479	13.84
652.808	14.15
653.136	14.14
653.465	13.87
653.793	13.61
654.121	14
654.449	13.97
654.777	14.39
655.105	14.1
655.433	14.04
655.761	13.88
656.089	13.69
656.417	14.3
656.745	13.87
657.073	13.63
657.4	14.05
657.728	13.69
658.056	14.45
658.383	13.28
658.711	14.04
659.038	14.56
659.365	14.29
659.693	13.89
660.02	14.01
660.347	14.63
660.674	14.29
661.001	14.42
661.329	14.31
661.656	14.28
661.982	14.21
662.309	14.27
662.636	14.16
662.963	14.3
663.29	14.84
663.616	14.07
663.943	14.76
664.27	14.58
664.596	15.07
664.923	15.11
665.249	14.38
665.576	14.13
665.902	14.38
666.228	14.74
666.554	14.52
666.881	14.22
667.207	14.83
667.533	15.12
667.859	14.74
668.185	15.25
668.511	14.77
668.837	14.79
669.162	15.61
669.488	14.14
669.814	14.88
670.139	14.37
670.465	14.51
670.791	14.97
671.116	14.65
671.442	14.9
671.767	14.56
672.092	15.16
672.418	14.86
672.743	15.25
673.068	14.07
673.393	14.5
673.718	15.11
674.043	15.58
674.368	14.35
674.693	15.22
675.018	14.68
675.343	14.57
675.667	14.97
675.992	14.74
676.317	14.72
676.641	15.3
676.966	15.19
677.29	14.91
677.615	14.56
677.939	14.82
678.264	15.7
678.588	15.47
678.912	15.86
679.236	14.54
679.56	15.77
679.885	15.73
680.209	15.41
680.532	15.15
680.856	15.76
681.18	15.28
681.504	15.47
681.828	15.8
682.152	15.17
682.475	15.76
682.799	15.74
683.122	15.58
683.446	15.84
683.769	16.15
684.093	15.1
684.416	15.05
684.739	15.38
