Data from 0401_crown_Reflection__2__205.txt Node

Date: Tue Dec 12 20:06:32 CST 2023
User: ToomeyLab
Spectrometer: FLMS14357
Trigger mode: 0
Integration Time (sec): 1.000000E-2
Scans to average: 100
Electric dark correction enabled: true
Nonlinearity correction enabled: false
Boxcar width: 0
XAxis mode: Wavelengths
Number of Pixels in Spectrum: 2048
>>>>>Begin Spectral Data<<<<<
189.047	-142.67
189.435	-142.67
189.823	-142.67
190.211	1140.73
190.599	376.49
190.987	32.46
191.375	-929.63
191.763	103.55
192.151	125.98
192.538	-109.73
192.926	91.88
193.314	-726.09
193.702	-21.12
194.089	136.58
194.477	72.6
194.864	38.96
195.252	-56.55
195.639	-240.29
196.027	-648.57
196.414	-2.33
196.801	18.4
197.189	318.23
197.576	528.18
197.963	91.77
198.351	-9.38
198.738	51.65
199.125	-26.01
199.512	4.56
199.899	42.08
200.286	3.65
200.673	-53.97
201.06	-16.91
201.447	-308.01
201.833	-24.48
202.22	-2
202.607	-8.94
202.994	23.77
203.38	26.33
203.767	32.25
204.154	-20.32
204.54	8.31
204.927	-3.35
205.313	72.22
205.699	81.79
206.086	-60.68
206.472	12.72
206.858	3.51
207.245	-27.91
207.631	56.94
208.017	10.4
208.403	12.32
208.789	22.6
209.175	-93.06
209.561	11.77
209.947	-1.58
210.333	18.93
210.719	-23.48
211.105	-17.76
211.491	8.22
211.876	49.23
212.262	28.73
212.648	-27.91
213.034	-33.89
213.419	13.25
213.805	40.73
214.19	11.47
214.576	-4
214.961	-17.61
215.346	-33.68
215.732	13.12
216.117	-16.19
216.502	-20.74
216.888	-11.16
217.273	-16.97
217.658	41.75
218.043	-40.06
218.428	42.44
218.813	1.22
219.198	-19.74
219.583	-9.43
219.968	26.67
220.353	13.79
220.738	-19.12
221.122	19.44
221.507	-21.66
221.892	-11.34
222.276	28.98
222.661	15.46
223.046	-9.25
223.43	13.78
223.815	6.37
224.199	11.76
224.583	5.58
224.968	7.48
225.352	4.9
225.736	19.27
226.121	-2.89
226.505	-1.62
226.889	2.97
227.273	6.99
227.657	14.46
228.041	8.17
228.425	5.3
228.809	6.79
229.193	6.83
229.577	8.43
229.961	7.46
230.344	9.71
230.728	10.07
231.112	10.64
231.495	8.88
231.879	10.2
232.263	8.65
232.646	8.85
233.03	7.6
233.413	9.15
233.797	8.31
234.18	4.74
234.563	5.75
234.946	7.9
235.33	11.78
235.713	9.94
236.096	6.57
236.479	9.03
236.862	8.5
237.245	7.69
237.628	9.17
238.011	7.61
238.394	7.57
238.777	8.36
239.16	8.78
239.543	6.67
239.925	7.74
240.308	6.59
240.691	7.91
241.073	8.15
241.456	7.95
241.838	8.35
242.221	8.62
242.603	8.57
242.986	7.81
243.368	8.67
243.75	8.24
244.133	8.11
244.515	8.5
244.897	8.57
245.279	8.73
245.661	7.93
246.043	6.98
246.425	7.83
246.807	8.14
247.189	7.9
247.571	7.54
247.953	7.69
248.335	8.23
248.717	7.71
249.098	7.97
249.48	7.76
249.862	7.49
250.243	7.37
250.625	8.41
251.006	8.05
251.388	7.49
251.769	8.03
252.151	7.04
252.532	7.26
252.913	7.05
253.295	9.04
253.676	7.39
254.057	7.19
254.438	7.22
254.819	7.47
255.2	6.64
255.581	7.16
255.962	4.86
256.343	7.07
256.724	5.97
257.105	8.71
257.486	6.33
257.867	6.32
258.247	5.24
258.628	6.11
259.009	6.45
259.389	7.54
259.77	6.45
260.15	7.34
260.531	7.51
260.911	7.41
261.292	6.52
261.672	7
262.052	6.78
262.432	6.91
262.813	6.79
263.193	7.58
263.573	6.99
263.953	7.91
264.333	6.78
264.713	6.55
265.093	6.56
265.473	7.59
265.853	6.31
266.233	6.45
266.612	6.15
266.992	6.67
267.372	6.64
267.752	7.45
268.131	5.98
268.511	6.34
268.89	5.97
269.27	5.88
269.649	6.23
270.029	6.45
270.408	6.61
270.787	6.22
271.167	6.6
271.546	6.84
271.925	7.18
272.304	6.05
272.683	5.07
273.062	6.59
273.441	6.35
273.82	5.56
274.199	6.6
274.578	5.94
274.957	5.92
275.336	6.17
275.715	6.42
276.093	5.84
276.472	6.48
276.851	5.94
277.229	5.51
277.608	6.36
277.986	5.34
278.365	6.44
278.743	5.95
279.122	6.07
279.5	5.34
279.878	6.1
280.257	6
280.635	5.74
281.013	5.43
281.391	6.16
281.769	5.98
282.147	6.02
282.525	5.85
282.903	5.11
283.281	5.58
283.659	5.73
284.037	5.99
284.415	6.01
284.792	6.29
285.17	5.46
285.548	6.03
285.925	5.35
286.303	5.62
286.68	5.63
287.058	5.53
287.435	5.52
287.813	5.52
288.19	5.99
288.567	5.63
288.945	5.96
289.322	4.96
289.699	5.14
290.076	5.46
290.453	5.95
290.83	5.25
291.207	6.43
291.584	5.39
291.961	5.9
292.338	5.34
292.715	5.5
293.092	5.65
293.469	5.96
293.845	5.81
294.222	4.87
294.599	5.26
294.975	5.32
295.352	5.56
295.728	5.53
296.105	5.24
296.481	5.44
296.858	5.13
297.234	5.51
297.61	5.63
297.986	5.62
298.363	5.31
298.739	5.06
299.115	5.32
299.491	5.71
299.867	5.13
300.243	4.8
300.619	5.55
300.995	5.18
301.371	5.55
301.746	5.36
302.122	5.68
302.498	4.79
302.874	5.3
303.249	6.22
303.625	5.37
304	5.48
304.376	5.31
304.751	5.2
305.127	4.85
305.502	5.22
305.878	5.11
306.253	4.32
306.628	5.37
307.003	4.89
307.378	5.21
307.754	5.37
308.129	5.11
308.504	5.59
308.879	5.25
309.254	5.37
309.629	4.99
310.003	5.15
310.378	5.37
310.753	5.72
311.128	5.26
311.502	4.33
311.877	4.92
312.252	4.74
312.626	4.98
313.001	4.56
313.375	4.74
313.75	5
314.124	5.38
314.498	4.75
314.873	4.65
315.247	5.6
315.621	4.86
315.995	5.35
316.369	4.78
316.743	4.57
317.117	5.25
317.491	5.08
317.865	5.11
318.239	5.37
318.613	4.94
318.987	5.36
319.361	4.28
319.734	4.79
320.108	5.57
320.482	4.45
320.855	4.43
321.229	5.17
321.602	4.75
321.976	5.71
322.349	4.85
322.723	4.67
323.096	4.62
323.469	4.51
323.843	5.6
324.216	4.23
324.589	4.59
324.962	4.97
325.335	5.35
325.708	4.86
326.081	5.19
326.454	4.66
326.827	4.7
327.2	4.68
327.573	4.85
327.945	5.12
328.318	5.5
328.691	4.12
329.063	5.2
329.436	5.04
329.809	4.94
330.181	4.08
330.553	4.77
330.926	4.65
331.298	4.52
331.671	5.53
332.043	4.62
332.415	5.17
332.787	4.73
333.159	5.07
333.532	5.19
333.904	5.28
334.276	5.57
334.648	4.37
335.02	4.71
335.391	4.18
335.763	5.02
336.135	4.61
336.507	5.04
336.879	4.7
337.25	4.58
337.622	4.65
337.993	5.06
338.365	4.65
338.736	4.81
339.108	4.72
339.479	5.19
339.851	4.65
340.222	4.56
340.593	4.84
340.964	4.96
341.336	5.04
341.707	4.76
342.078	4.4
342.449	4.77
342.82	5.23
343.191	5.17
343.562	5.16
343.933	5.14
344.303	5.27
344.674	5.23
345.045	5.26
345.416	5.19
345.786	4.63
346.157	5.24
346.527	5.51
346.898	4.69
347.268	4.92
347.639	5.34
348.009	4.89
348.38	4.92
348.75	5.34
349.12	5.15
349.49	5.26
349.861	5.73
350.231	5.02
350.601	6.11
350.971	5.16
351.341	5.42
351.711	5.76
352.081	5.24
352.45	4.95
352.82	5.34
353.19	5.4
353.56	5.2
353.929	5.09
354.299	5.04
354.669	5.08
355.038	4.79
355.408	4.94
355.777	5.62
356.147	4.89
356.516	5.39
356.885	5.07
357.254	5.29
357.624	5.03
357.993	5.14
358.362	5.11
358.731	5.32
359.1	5.15
359.469	5.3
359.838	5.42
360.207	4.72
360.576	5.06
360.945	4.96
361.314	5.35
361.682	5.38
362.051	5.59
362.42	5.4
362.788	5.24
363.157	5.47
363.525	5.65
363.894	5.26
364.262	5.16
364.631	4.99
364.999	5.54
365.367	5.46
365.735	5.04
366.104	5.55
366.472	4.97
366.84	5.39
367.208	5.43
367.576	5.44
367.944	5.63
368.312	5.55
368.68	5.26
369.048	5.52
369.416	5.72
369.783	5.49
370.151	5.61
370.519	5.23
370.886	5.4
371.254	5.55
371.621	5.52
371.989	5.78
372.356	5.26
372.724	5.51
373.091	5.11
373.458	5.79
373.826	5.47
374.193	5.26
374.56	5.68
374.927	5.71
375.294	5.54
375.661	5.68
376.028	5.68
376.395	6.06
376.762	6.04
377.129	5.73
377.496	5.56
377.863	5.63
378.229	5.85
378.596	5.13
378.963	5.65
379.329	5.42
379.696	5.42
380.062	6.05
380.429	5.78
380.795	5.88
381.161	5.9
381.528	5.45
381.894	5.86
382.26	5.64
382.626	5.65
382.993	6.11
383.359	5.07
383.725	5.75
384.091	5.59
384.457	5.71
384.823	5.86
385.188	5.92
385.554	5.84
385.92	5.51
386.286	5.8
386.651	5.76
387.017	6.06
387.383	5.61
387.748	5.72
388.114	5.97
388.479	5.98
388.845	5.69
389.21	5.58
389.575	5.59
389.94	5.93
390.306	5.64
390.671	6.04
391.036	5.85
391.401	5.88
391.766	5.8
392.131	5.86
392.496	5.98
392.861	5.61
393.226	6.01
393.591	5.83
393.956	5.64
394.32	5.97
394.685	6.09
395.05	5.73
395.414	5.84
395.779	5.69
396.143	6.06
396.508	5.95
396.872	5.97
397.236	5.92
397.601	5.78
397.965	5.78
398.329	5.92
398.694	5.7
399.058	5.81
399.422	5.79
399.786	5.74
400.15	5.94
400.514	6.16
400.878	5.75
401.242	5.78
401.605	6.14
401.969	6.09
402.333	6
402.697	5.89
403.06	5.84
403.424	6.05
403.787	5.83
404.151	5.98
404.514	5.83
404.878	5.64
405.241	5.91
405.604	5.69
405.968	5.8
406.331	6.19
406.694	6.11
407.057	5.91
407.42	5.85
407.783	5.7
408.146	6
408.509	5.99
408.872	5.81
409.235	6.02
409.598	5.81
409.961	6.06
410.323	5.81
410.686	6.13
411.049	5.94
411.411	6.14
411.774	6.06
412.136	6
412.499	6.01
412.861	6.04
413.223	6.21
413.586	5.94
413.948	5.87
414.31	6.15
414.672	6.01
415.035	5.86
415.397	6
415.759	5.87
416.121	6
416.483	5.99
416.845	5.93
417.206	6.15
417.568	6.09
417.93	6.11
418.292	6.13
418.653	6.17
419.015	5.94
419.377	6.09
419.738	6.05
420.1	5.81
420.461	5.96
420.822	6.03
421.184	5.96
421.545	6.15
421.906	5.88
422.267	5.87
422.629	5.93
422.99	5.97
423.351	5.89
423.712	5.82
424.073	5.91
424.434	5.99
424.795	6.14
425.155	5.89
425.516	5.7
425.877	6
426.238	5.92
426.598	5.89
426.959	5.96
427.32	5.95
427.68	6
428.041	5.98
428.401	5.98
428.761	6.15
429.122	6.11
429.482	6.17
429.842	6.15
430.202	6.08
430.563	6.07
430.923	6.15
431.283	5.94
431.643	6.19
432.003	6.04
432.363	6.09
432.722	6.01
433.082	6.19
433.442	5.98
433.802	6.18
434.161	6.1
434.521	5.98
434.881	6.11
435.24	5.88
435.6	6.04
435.959	6.14
436.319	6.06
436.678	6.13
437.037	5.93
437.396	5.97
437.756	5.93
438.115	6.11
438.474	6.01
438.833	6.26
439.192	6.07
439.551	6.01
439.91	5.98
440.269	6.2
440.628	5.99
440.987	5.89
441.345	6.18
441.704	5.9
442.063	6.03
442.421	6
442.78	5.85
443.138	6.05
443.497	6
443.855	6.06
444.214	6.06
444.572	6.18
444.93	6.13
445.288	5.84
445.647	6.15
446.005	5.93
446.363	5.85
446.721	5.86
447.079	6
447.437	5.97
447.795	5.92
448.153	5.94
448.51	6.04
448.868	5.94
449.226	6.01
449.584	5.99
449.941	6.04
450.299	6.06
450.656	5.99
451.014	6.13
451.371	6.14
451.729	6.1
452.086	6
452.443	6.15
452.801	6.11
453.158	6.04
453.515	6.16
453.872	5.99
454.229	6.25
454.586	5.93
454.943	5.92
455.3	6.04
455.657	6.1
456.014	6.25
456.371	6.16
456.727	6.04
457.084	6
457.441	6.13
457.797	5.92
458.154	6.01
458.51	6.02
458.867	6.07
459.223	6.02
459.58	5.99
459.936	5.91
460.292	5.92
460.648	6
461.005	5.99
461.361	5.97
461.717	5.96
462.073	5.97
462.429	5.99
462.785	6.04
463.141	6.08
463.496	5.83
463.852	6.26
464.208	6.21
464.564	6.15
464.919	6.17
465.275	6.2
465.631	6.15
465.986	6.06
466.342	5.94
466.697	6.09
467.052	6.15
467.408	6.13
467.763	6.17
468.118	6
468.473	6.17
468.829	6.04
469.184	5.97
469.539	6.26
469.894	6.1
470.249	6.05
470.603	6.05
470.958	6.09
471.313	6.15
471.668	6.06
472.023	6.07
472.377	5.94
472.732	6.16
473.086	6.15
473.441	6.25
473.795	6.13
474.15	6.15
474.504	5.97
474.859	6.21
475.213	5.83
475.567	6.02
475.921	6.01
476.275	6.04
476.63	6.13
476.984	6.13
477.338	5.92
477.692	5.99
478.045	6.11
478.399	6.02
478.753	6.06
479.107	6.12
479.461	5.93
479.814	6.21
480.168	5.97
480.521	5.86
480.875	5.99
481.228	6.09
481.582	6.02
481.935	5.88
482.289	6
482.642	6.03
482.995	6.06
483.348	5.92
483.701	6.21
484.055	5.94
484.408	5.94
484.761	5.9
485.114	5.77
485.466	5.64
485.819	5.62
486.172	5.63
486.525	5.68
486.878	5.7
487.23	5.7
487.583	5.71
487.936	5.9
488.288	5.77
488.641	5.76
488.993	5.79
489.345	5.73
489.698	5.64
490.05	5.74
490.402	5.78
490.754	5.77
491.107	5.79
491.459	5.77
491.811	5.95
492.163	5.78
492.515	5.96
492.866	5.77
493.218	5.78
493.57	5.7
493.922	5.66
494.274	5.81
494.625	5.83
494.977	5.96
495.328	6.02
495.68	5.92
496.031	5.95
496.383	5.96
496.734	6.11
497.086	5.94
497.437	5.9
497.788	6.08
498.139	5.87
498.49	5.91
498.842	5.88
499.193	5.94
499.544	5.88
499.894	5.78
500.245	5.9
500.596	5.97
500.947	5.93
501.298	5.96
501.648	6.08
501.999	5.98
502.35	5.82
502.7	6.08
503.051	5.94
503.401	5.94
503.752	6.08
504.102	5.9
504.452	6.08
504.803	6
505.153	6.01
505.503	6.01
505.853	6.08
506.203	5.95
506.553	5.88
506.903	5.9
507.253	6
507.603	5.98
507.953	5.85
508.303	6.12
508.652	5.94
509.002	5.96
509.352	5.91
509.701	6.08
510.051	5.98
510.4	5.89
510.75	5.84
511.099	5.84
511.449	5.92
511.798	5.95
512.147	5.88
512.496	5.92
512.846	5.98
513.195	5.75
513.544	5.97
513.893	5.99
514.242	5.94
514.591	5.8
514.939	5.94
515.288	5.86
515.637	5.8
515.986	5.87
516.334	5.88
516.683	5.85
517.032	5.94
517.38	5.83
517.729	5.94
518.077	5.78
518.426	6.04
518.774	5.91
519.122	5.77
519.47	5.87
519.819	5.84
520.167	5.78
520.515	5.75
520.863	5.8
521.211	5.74
521.559	5.9
521.907	5.88
522.255	5.82
522.602	5.92
522.95	5.95
523.298	5.98
523.645	6.01
523.993	5.87
524.341	5.84
524.688	5.71
525.036	5.88
525.383	5.77
525.73	5.81
526.078	5.78
526.425	5.79
526.772	5.75
527.119	5.75
527.466	5.78
527.814	5.68
528.161	5.77
528.508	5.75
528.854	5.74
529.201	5.7
529.548	5.73
529.895	5.63
530.242	5.51
530.588	5.5
530.935	5.54
531.282	5.55
531.628	5.58
531.975	5.63
532.321	5.62
532.667	5.58
533.014	5.64
533.36	5.69
533.706	5.67
534.052	5.75
534.399	5.68
534.745	5.63
535.091	5.54
535.437	5.61
535.783	5.63
536.129	5.7
536.474	5.7
536.82	5.64
537.166	5.76
537.512	5.67
537.857	5.65
538.203	5.59
538.549	5.69
538.894	5.72
539.239	5.65
539.585	5.68
539.93	5.72
540.276	5.7
540.621	5.71
540.966	5.63
541.311	5.68
541.656	5.77
542.001	5.77
542.346	5.66
542.691	5.53
543.036	5.5
543.381	5.38
543.726	5.51
544.071	5.5
544.415	5.57
544.76	5.56
545.105	5.59
545.449	5.61
545.794	5.6
546.138	5.51
546.483	5.67
546.827	5.68
547.171	5.66
547.516	5.69
547.86	5.64
548.204	5.61
548.548	5.69
548.892	5.7
549.236	5.7
549.58	5.63
549.924	5.58
550.268	5.67
550.612	5.55
550.956	5.63
551.3	5.86
551.643	5.83
551.987	5.91
552.33	5.78
552.674	5.9
553.017	5.84
553.361	5.94
553.704	5.63
554.048	5.72
554.391	5.71
554.734	5.6
555.077	5.77
555.42	5.63
555.764	5.77
556.107	5.69
556.45	5.73
556.793	5.46
557.135	5.69
557.478	5.77
557.821	5.61
558.164	5.77
558.507	5.81
558.849	5.79
559.192	5.61
559.534	5.65
559.877	5.69
560.219	5.72
560.562	5.52
560.904	5.6
561.246	5.62
561.589	5.5
561.931	5.61
562.273	5.49
562.615	5.63
562.957	5.63
563.299	5.63
563.641	5.7
563.983	5.65
564.325	5.72
564.667	5.65
565.008	5.37
565.35	5.52
565.692	5.44
566.033	5.82
566.375	5.66
566.716	5.34
567.058	5.58
567.399	5.67
567.741	5.63
568.082	5.43
568.423	5.7
568.764	5.54
569.105	5.4
569.447	5.56
569.788	5.52
570.129	5.49
570.47	5.8
570.811	5.67
571.151	5.83
571.492	5.75
571.833	5.62
572.174	5.66
572.514	5.57
572.855	5.63
573.195	5.44
573.536	5.47
573.876	5.57
574.217	5.41
574.557	5.39
574.898	5.53
575.238	5.53
575.578	5.43
575.918	5.55
576.258	5.51
576.598	5.51
576.938	5.52
577.278	5.53
577.618	5.42
577.958	5.56
578.298	5.56
578.638	5.38
578.977	5.44
579.317	5.55
579.657	5.43
579.996	5.43
580.336	5.43
580.675	5.44
581.014	5.49
581.354	5.39
581.693	5.55
582.032	5.36
582.372	5.55
582.711	5.28
583.05	5.76
583.389	5.69
583.728	5.58
584.067	5.61
584.406	5.69
584.745	5.68
585.083	5.47
585.422	5.49
585.761	5.68
586.1	5.21
586.438	5.72
586.777	5.59
587.115	5.48
587.454	5.45
587.792	5.15
588.13	5.64
588.469	5.56
588.807	5.3
589.145	5.4
589.483	5.51
589.821	5.59
590.159	5.53
590.497	5.48
590.835	5.34
591.173	5.45
591.511	5.35
591.849	5.34
592.187	5.55
592.524	5.34
592.862	5.23
593.2	5.04
593.537	5.21
593.875	5.44
594.212	5.36
594.55	5.58
594.887	5.86
595.224	5.38
595.561	5.47
595.899	5.2
596.236	5.31
596.573	5.29
596.91	5.55
597.247	5.48
597.584	5.58
597.921	5.33
598.258	5.43
598.594	5.41
598.931	5.29
599.268	5.19
599.604	5.17
599.941	5.17
600.277	5.33
600.614	5.39
600.95	5.38
601.287	5.43
601.623	5.43
601.959	5.16
602.296	5.53
602.632	5.26
602.968	5.57
603.304	5.2
603.64	5.56
603.976	5.1
604.312	5.17
604.648	5.35
604.984	5.29
605.319	5.11
605.655	5.13
605.991	5.46
606.326	5.01
606.662	5.18
606.998	5.08
607.333	5.34
607.668	5.06
608.004	5.11
608.339	5.36
608.674	5.05
609.01	5.08
609.345	5.29
609.68	5.14
610.015	5.02
610.35	5.23
610.685	5.14
611.02	5.32
611.355	5.11
611.689	4.91
612.024	5.01
612.359	5.14
612.694	5.11
613.028	5.21
613.363	5.1
613.697	5.01
614.032	5.56
614.366	5.27
614.7	5.03
615.035	5.27
615.369	5
615.703	4.88
616.037	5
616.371	5.13
616.705	5.27
617.039	4.87
617.373	5.13
617.707	5.01
618.041	5.25
618.375	4.95
618.709	5.33
619.042	4.74
619.376	5.1
619.71	5.05
620.043	5.09
620.377	5.02
620.71	5.07
621.043	4.73
621.377	4.77
621.71	5.03
622.043	5.3
622.376	5.4
622.709	5.44
623.043	4.85
623.376	5.53
623.709	5.04
624.041	5.3
624.374	4.89
624.707	4.87
625.04	4.9
625.373	5.25
625.705	5.17
626.038	5.1
626.37	5.07
626.703	5.06
627.035	5.05
627.368	5.01
627.7	5.04
628.032	4.78
628.365	4.96
628.697	5.08
629.029	4.92
629.361	4.75
629.693	5.11
630.025	4.75
630.357	5.17
630.689	4.85
631.021	5.14
631.353	5.27
631.684	5.1
632.016	5.06
632.348	4.98
632.679	4.43
633.011	5.32
633.342	5.06
633.674	4.94
634.005	5.03
634.336	5.16
634.668	4.88
634.999	5.09
635.33	4.93
635.661	4.92
635.992	4.78
636.323	4.47
636.654	5.08
636.985	5.14
637.316	5.11
637.647	4.65
637.977	4.91
638.308	5.01
638.639	5.31
638.969	4.75
639.3	4.92
639.63	5.25
639.961	4.88
640.291	5.01
640.622	5.15
640.952	4.99
641.282	4.97
641.612	5.32
641.943	5.15
642.273	5.26
642.603	5.23
642.933	4.41
643.263	4.42
643.592	5.26
643.922	5.4
644.252	5.09
644.582	4.77
644.911	4.8
645.241	4.81
645.571	5.48
645.9	5.22
646.23	4.91
646.559	5.1
646.888	4.86
647.218	4.73
647.547	4.98
647.876	5.01
648.205	4.77
648.534	4.95
648.863	4.96
649.192	5.3
649.521	5.4
649.85	4.6
650.179	5.04
650.508	5.3
650.837	5.02
651.165	4.49
651.494	4.85
651.822	4.64
652.151	5.36
652.479	5.14
652.808	5.38
653.136	5.58
653.465	5.06
653.793	4.77
654.121	4.88
654.449	4.62
654.777	4.93
655.105	4.84
655.433	4.9
655.761	4.63
656.089	4.84
656.417	5.23
656.745	4.78
657.073	4.43
657.4	5.22
657.728	4.43
658.056	5.01
658.383	4.8
658.711	5.09
659.038	4.81
659.365	4.72
659.693	5.12
660.02	4.89
660.347	4.64
660.674	4.62
661.001	4.87
661.329	4.76
661.656	4.9
661.982	4.74
662.309	5.07
662.636	4.82
662.963	5.42
663.29	5.05
663.616	4.9
663.943	5.12
664.27	5.28
664.596	5.03
664.923	5.59
665.249	4.34
665.576	5.06
665.902	4.83
666.228	5.01
666.554	4.98
666.881	3.81
667.207	4.79
667.533	5.07
667.859	5.54
668.185	5.14
668.511	5.01
668.837	4.82
669.162	5.86
669.488	4.26
669.814	4.81
670.139	4.87
670.465	3.95
670.791	5.45
671.116	4.67
671.442	4.96
671.767	4.75
672.092	5.66
672.418	4.5
672.743	4.78
673.068	3.87
673.393	4.63
673.718	4.56
674.043	4.64
674.368	3.88
674.693	4.33
675.018	4.92
675.343	4.77
675.667	4.97
675.992	4.7
676.317	4.27
676.641	4.84
676.966	4.74
677.29	4.52
677.615	5
677.939	4.94
678.264	5.91
678.588	4.48
678.912	4.74
679.236	4.52
679.56	4.91
679.885	4.62
680.209	4.39
680.532	5.27
680.856	4.52
681.18	4.1
681.504	4.65
681.828	4.88
682.152	4.97
682.475	5.07
682.799	4.8
683.122	4.96
683.446	4.97
683.769	5.2
684.093	3.96
684.416	4.63
684.739	4.76
685.062	4.88
685.386	4.72
685.709	5.11
686.032	4.34
686.355	4.74
686.678	5.49
687.001	4.71
687.324	4.39
687.646	5.35
687.969	4.7
688.292	4.79
688.614	4.31
688.937	5.41
689.26	4.79
689.582	4.42
689.904	5.08
690.227	5.36
690.549	4.67
690.871	4.99
691.194	4.94
691.516	4.84
691.838	4.29
692.16	5.37
692.482	4.42
