Data from 0401_chest_Reflection__3__200.txt Node

Date: Tue Dec 12 20:04:43 CST 2023
User: ToomeyLab
Spectrometer: FLMS14357
Trigger mode: 0
Integration Time (sec): 1.000000E-2
Scans to average: 100
Electric dark correction enabled: true
Nonlinearity correction enabled: false
Boxcar width: 0
XAxis mode: Wavelengths
Number of Pixels in Spectrum: 2048
>>>>>Begin Spectral Data<<<<<
189.047	-20.51
189.435	-20.51
189.823	-20.51
190.211	-1054.83
190.599	-27.59
190.987	109.54
191.375	-661.73
191.763	436.08
192.151	96.02
192.538	-161.95
192.926	114.22
193.314	-1296.89
193.702	45.22
194.089	277.88
194.477	147.02
194.864	48.16
195.252	-412.22
195.639	-215.45
196.027	-1814.03
196.414	-0.15
196.801	130.32
197.189	-285.85
197.576	448.96
197.963	143.74
198.351	24.82
198.738	45.39
199.125	6.04
199.512	-58.79
199.899	-18.15
200.286	30
200.673	-32.25
201.06	-31.54
201.447	-232.84
201.833	18.59
202.22	32.38
202.607	-206.81
202.994	1.9
203.38	16.63
203.767	-25
204.154	32.04
204.54	20.09
204.927	-31.39
205.313	28.37
205.699	43.04
206.086	28.32
206.472	21.62
206.858	5.86
207.245	21.32
207.631	43.47
208.017	-11.17
208.403	-26.31
208.789	-24.01
209.175	-29.02
209.561	10.22
209.947	-22.72
210.333	52.02
210.719	1.51
211.105	-9.05
211.491	7.39
211.876	15.06
212.262	9.17
212.648	-19.67
213.034	-42.98
213.419	-7.1
213.805	28.82
214.19	16.45
214.576	-13.87
214.961	15.65
215.346	-46.51
215.732	23.42
216.117	-47.26
216.502	-10.88
216.888	-46.53
217.273	-35.4
217.658	-30.25
218.043	-21.01
218.428	-3.76
218.813	-31.7
219.198	-40.96
219.583	-13.87
219.968	-1.11
220.353	-3.74
220.738	8.61
221.122	-14.75
221.507	-1.44
221.892	-3.94
222.276	-1.19
222.661	0.92
223.046	3.24
223.43	-4.57
223.815	9.41
224.199	13.45
224.583	-1.27
224.968	8.22
225.352	-3.83
225.736	5.1
226.121	-2.71
226.505	-4.68
226.889	1.2
227.273	-6.25
227.657	5.67
228.041	4.4
228.425	1.56
228.809	-3.53
229.193	-0.58
229.577	3.81
229.961	2.45
230.344	4.53
230.728	5.18
231.112	5.28
231.495	4.69
231.879	6.19
232.263	2.17
232.646	3.45
233.03	5.44
233.413	3.63
233.797	4.46
234.18	0.62
234.563	2.16
234.946	4.9
235.33	6.54
235.713	5.3
236.096	4.13
236.479	3.45
236.862	4.62
237.245	4.16
237.628	1.17
238.011	3.46
238.394	2
238.777	3.04
239.16	2.84
239.543	3.27
239.925	4.47
240.308	2.53
240.691	3.6
241.073	4.67
241.456	5.91
241.838	3.19
242.221	4.74
242.603	4.58
242.986	2.81
243.368	4.86
243.75	4.05
244.133	4.19
244.515	4.04
244.897	4.14
245.279	4.73
245.661	4.28
246.043	3.61
246.425	4.93
246.807	3.81
247.189	4.75
247.571	4.28
247.953	3.5
248.335	3.85
248.717	3.81
249.098	4.02
249.48	3.65
249.862	3.38
250.243	3.47
250.625	3.92
251.006	3.51
251.388	3.89
251.769	3.76
252.151	3.09
252.532	2.91
252.913	4.32
253.295	3.65
253.676	3.07
254.057	3.84
254.438	3.89
254.819	2.54
255.2	3.02
255.581	2.95
255.962	3.18
256.343	3.7
256.724	3.4
257.105	3.12
257.486	1.81
257.867	2.94
258.247	3.45
258.628	3.97
259.009	2.19
259.389	3.86
259.77	2.9
260.15	2.71
260.531	3.44
260.911	3.91
261.292	3.42
261.672	3.14
262.052	3.55
262.432	3.7
262.813	3.86
263.193	3.37
263.573	3.73
263.953	5.15
264.333	4.68
264.713	4.16
265.093	3.7
265.473	4.39
265.853	1.69
266.233	2.73
266.612	3.78
266.992	3.51
267.372	4.12
267.752	4.15
268.131	2.82
268.511	3.34
268.89	3.16
269.27	3.28
269.649	3.66
270.029	3.37
270.408	4.19
270.787	3.04
271.167	3.58
271.546	3.33
271.925	3.71
272.304	3.81
272.683	3.12
273.062	3.08
273.441	4.11
273.82	2.92
274.199	3.13
274.578	3.19
274.957	3.48
275.336	3.55
275.715	3.57
276.093	2.34
276.472	3.49
276.851	3.71
277.229	3.05
277.608	3.03
277.986	2.78
278.365	3.57
278.743	3.37
279.122	3.27
279.5	2.76
279.878	2.95
280.257	3.34
280.635	2.93
281.013	3.7
281.391	2.99
281.769	3.06
282.147	2.79
282.525	2.99
282.903	3.03
283.281	3.23
283.659	3.26
284.037	3.39
284.415	2.84
284.792	3.12
285.17	2.51
285.548	3.73
285.925	3.41
286.303	2.87
286.68	3.15
287.058	3.5
287.435	3.32
287.813	2.74
288.19	3.08
288.567	3.16
288.945	3.46
289.322	2.49
289.699	2.93
290.076	3.16
290.453	3.44
290.83	2.72
291.207	4
291.584	3.22
291.961	3.2
292.338	2.91
292.715	2.77
293.092	2.95
293.469	2.82
293.845	2.86
294.222	2.78
294.599	3.38
294.975	3.29
295.352	3.35
295.728	3.01
296.105	3.27
296.481	3.42
296.858	3.3
297.234	3.29
297.61	3.54
297.986	3
298.363	2.99
298.739	3.05
299.115	2.82
299.491	3.09
299.867	3.38
300.243	2.9
300.619	2.96
300.995	3.58
301.371	3.31
301.746	2.9
302.122	3.7
302.498	3.23
302.874	3.14
303.249	3.91
303.625	2.3
304	3.28
304.376	3.15
304.751	3.58
305.127	3.25
305.502	3.23
305.878	3.27
306.253	2.87
306.628	3.42
307.003	3.46
307.378	3.23
307.754	3.08
308.129	2.86
308.504	4.26
308.879	2.65
309.254	3.5
309.629	2.99
310.003	3.6
310.378	3.37
310.753	3.55
311.128	3.41
311.502	3.02
311.877	2.71
312.252	2.72
312.626	3.08
313.001	2.98
313.375	2.72
313.75	3.35
314.124	3.35
314.498	3.11
314.873	3.02
315.247	3.39
315.621	2.89
315.995	3.16
316.369	2.6
316.743	2.75
317.117	2.16
317.491	2.94
317.865	2.92
318.239	3.04
318.613	3.45
318.987	3.45
319.361	2.45
319.734	2.88
320.108	3.47
320.482	2.47
320.855	2.81
321.229	3.05
321.602	2.9
321.976	2.78
322.349	3.49
322.723	2.44
323.096	2.59
323.469	2.65
323.843	3.31
324.216	3.63
324.589	2.47
324.962	3.75
325.335	3.43
325.708	3.16
326.081	3.53
326.454	2.69
326.827	3.03
327.2	3.09
327.573	3.03
327.945	3.31
328.318	3.43
328.691	2.67
329.063	3.35
329.436	3.46
329.809	3.42
330.181	2.33
330.553	3.31
330.926	3.39
331.298	2.88
331.671	3.03
332.043	2.8
332.415	3.57
332.787	3.09
333.159	2.98
333.532	3.28
333.904	2.71
334.276	3.33
334.648	2.91
335.02	2.64
335.391	2.96
335.763	3.25
336.135	2.62
336.507	3.33
336.879	2.63
337.25	2.95
337.622	3.13
337.993	2.93
338.365	3.36
338.736	2.81
339.108	2.8
339.479	3.43
339.851	3.26
340.222	2.72
340.593	3.14
340.964	3.36
341.336	3.58
341.707	2.94
342.078	2.82
342.449	3.25
342.82	3.29
343.191	2.73
343.562	3.07
343.933	3.23
344.303	3.09
344.674	3.28
345.045	3.2
345.416	3.16
345.786	3.43
346.157	2.75
346.527	3.36
346.898	2.51
347.268	3.23
347.639	3.4
348.009	3.25
348.38	2.98
348.75	3.39
349.12	3.26
349.49	3.43
349.861	3.28
350.231	3.2
350.601	3.62
350.971	3.35
351.341	3.42
351.711	3.17
352.081	3.36
352.45	3.21
352.82	3.26
353.19	2.93
353.56	2.78
353.929	2.97
354.299	2.93
354.669	3.02
355.038	2.74
355.408	2.75
355.777	3.77
356.147	2.94
356.516	3.4
356.885	2.93
357.254	3.28
357.624	2.77
357.993	2.87
358.362	3.09
358.731	3.65
359.1	2.61
359.469	2.78
359.838	3.07
360.207	3.17
360.576	3.57
360.945	3.24
361.314	3.03
361.682	3.2
362.051	3.54
362.42	3.67
362.788	3.15
363.157	3.49
363.525	3.12
363.894	3.15
364.262	3.29
364.631	3.02
364.999	3.17
365.367	3.14
365.735	3.03
366.104	2.97
366.472	2.8
366.84	3.12
367.208	3.17
367.576	3.49
367.944	3.65
368.312	2.92
368.68	3.25
369.048	3.25
369.416	3.43
369.783	3.57
370.151	3.57
370.519	3.18
370.886	2.9
371.254	3.13
371.621	3.58
371.989	2.86
372.356	3.15
372.724	3.33
373.091	3
373.458	3.37
373.826	3.41
374.193	2.92
374.56	3.14
374.927	3.52
375.294	3.17
375.661	3.6
376.028	3.68
376.395	3.18
376.762	3.39
377.129	3.24
377.496	3.24
377.863	3.17
378.229	3.3
378.596	3.16
378.963	3.3
379.329	3.35
379.696	3.18
380.062	3.46
380.429	3.28
380.795	3.65
381.161	3.37
381.528	3.31
381.894	3.22
382.26	3.09
382.626	3.26
382.993	3.64
383.359	3.02
383.725	3.18
384.091	3.49
384.457	3.2
384.823	3.37
385.188	3.6
385.554	3.26
385.92	3.5
386.286	3.4
386.651	3.66
387.017	3.48
387.383	3.28
387.748	3.61
388.114	3.42
388.479	3.29
388.845	3.4
389.21	3.44
389.575	3.19
389.94	3.27
390.306	3.67
390.671	3.35
391.036	3.69
391.401	3.14
391.766	3.26
392.131	3.3
392.496	3.27
392.861	3.21
393.226	3.4
393.591	3.17
393.956	3.16
394.32	3.49
394.685	3.43
395.05	3.2
395.414	2.95
395.779	3.51
396.143	3.47
396.508	3.25
396.872	3.17
397.236	3.44
397.601	3.15
397.965	3.37
398.329	3.35
398.694	3.09
399.058	3.59
399.422	3.19
399.786	3.06
400.15	3.14
400.514	3.46
400.878	3.4
401.242	3.19
401.605	3.41
401.969	3.24
402.333	3.57
402.697	3.35
403.06	3.12
403.424	3.8
403.787	3.27
404.151	3.46
404.514	3.3
404.878	3.39
405.241	3.46
405.604	3.19
405.968	3.46
406.331	3.42
406.694	3.56
407.057	3.28
407.42	3.24
407.783	3.22
408.146	3.42
408.509	3.38
408.872	3.22
409.235	3.33
409.598	3.25
409.961	3.3
410.323	3.14
410.686	3.54
411.049	3.55
411.411	3.68
411.774	3.51
412.136	3.38
412.499	3.37
412.861	3.29
413.223	3.62
413.586	3.27
413.948	3.37
414.31	3.3
414.672	3.5
415.035	3.15
415.397	3.3
415.759	3.46
416.121	3.32
416.483	3.27
416.845	3.51
417.206	3.35
417.568	3.21
417.93	3.47
418.292	3.57
418.653	3.4
419.015	3.35
419.377	3.37
419.738	3.36
420.1	3.35
420.461	3.42
420.822	3.36
421.184	3.32
421.545	3.55
421.906	3.31
422.267	3.31
422.629	3.4
422.99	3.38
423.351	3.37
423.712	3.27
424.073	3.3
424.434	3.39
424.795	3.52
425.155	3.29
425.516	3.19
425.877	3.37
426.238	3.43
426.598	3.3
426.959	3.28
427.32	3.33
427.68	3.35
428.041	3.36
428.401	3.43
428.761	3.42
429.122	3.46
429.482	3.63
429.842	3.52
430.202	3.31
430.563	3.35
430.923	3.31
431.283	3.53
431.643	3.55
432.003	3.39
432.363	3.46
432.722	3.38
433.082	3.33
433.442	3.36
433.802	3.62
434.161	3.31
434.521	3.59
434.881	3.43
435.24	3.58
435.6	3.49
435.959	3.52
436.319	3.35
436.678	3.63
437.037	3.43
437.396	3.44
437.756	3.35
438.115	3.57
438.474	3.25
438.833	3.65
439.192	3.46
439.551	3.35
439.91	3.4
440.269	3.55
440.628	3.28
440.987	3.37
441.345	3.31
441.704	3.38
442.063	3.49
442.421	3.52
442.78	3.4
443.138	3.4
443.497	3.53
443.855	3.55
444.214	3.4
444.572	3.48
444.93	3.45
445.288	3.18
445.647	3.56
446.005	3.49
446.363	3.26
446.721	3.3
447.079	3.5
447.437	3.28
447.795	3.47
448.153	3.43
448.51	3.38
448.868	3.47
449.226	3.57
449.584	3.32
449.941	3.35
450.299	3.4
450.656	3.41
451.014	3.49
451.371	3.4
451.729	3.55
452.086	3.41
452.443	3.6
452.801	3.53
453.158	3.4
453.515	3.36
453.872	3.43
454.229	3.49
454.586	3.36
454.943	3.46
455.3	3.46
455.657	3.49
456.014	3.45
456.371	3.49
456.727	3.57
457.084	3.42
457.441	3.59
457.797	3.44
458.154	3.47
458.51	3.43
458.867	3.58
459.223	3.61
459.58	3.51
459.936	3.24
460.292	3.44
460.648	3.44
461.005	3.42
461.361	3.45
461.717	3.49
462.073	3.36
462.429	3.39
462.785	3.38
463.141	3.47
463.496	3.43
463.852	3.76
464.208	3.6
464.564	3.51
464.919	3.5
465.275	3.47
465.631	3.64
465.986	3.73
466.342	3.35
466.697	3.36
467.052	3.64
467.408	3.49
467.763	3.32
468.118	3.61
468.473	3.52
468.829	3.51
469.184	3.34
469.539	3.64
469.894	3.49
470.249	3.69
470.603	3.62
470.958	3.58
471.313	3.66
471.668	3.7
472.023	3.58
472.377	3.44
472.732	3.63
473.086	3.54
473.441	3.7
473.795	3.52
474.15	3.58
474.504	3.34
474.859	3.48
475.213	3.36
475.567	3.48
475.921	3.57
476.275	3.35
476.63	3.55
476.984	3.58
477.338	3.44
477.692	3.44
478.045	3.67
478.399	3.43
478.753	3.51
479.107	3.59
479.461	3.54
479.814	3.56
480.168	3.37
480.521	3.54
480.875	3.55
481.228	3.52
481.582	3.55
481.935	3.61
482.289	3.69
482.642	3.65
482.995	3.53
483.348	3.42
483.701	3.67
484.055	3.5
484.408	3.45
484.761	3.44
485.114	3.35
485.466	3.28
485.819	3.29
486.172	3.32
486.525	3.36
486.878	3.36
487.23	3.38
487.583	3.41
487.936	3.47
488.288	3.4
488.641	3.39
488.993	3.33
489.345	3.38
489.698	3.32
490.05	3.39
490.402	3.41
490.754	3.39
491.107	3.44
491.459	3.53
491.811	3.57
492.163	3.46
492.515	3.53
492.866	3.5
493.218	3.42
493.57	3.38
493.922	3.37
494.274	3.43
494.625	3.55
494.977	3.62
495.328	3.59
495.68	3.65
496.031	3.71
496.383	3.65
496.734	3.62
497.086	3.57
497.437	3.6
497.788	3.56
498.139	3.64
498.49	3.53
498.842	3.57
499.193	3.64
499.544	3.58
499.894	3.65
500.245	3.67
500.596	3.64
500.947	3.6
501.298	3.72
501.648	3.7
501.999	3.56
502.35	3.65
502.7	3.66
503.051	3.52
503.401	3.57
503.752	3.73
504.102	3.57
504.452	3.61
504.803	3.59
505.153	3.69
505.503	3.89
505.853	3.81
506.203	3.69
506.553	3.7
506.903	3.83
507.253	3.68
507.603	3.61
507.953	3.65
508.303	3.72
508.652	3.74
509.002	3.73
509.352	3.75
509.701	3.72
510.051	3.65
510.4	3.61
510.75	3.62
511.099	3.62
511.449	3.76
511.798	3.67
512.147	3.65
512.496	3.78
512.846	3.67
513.195	3.69
513.544	3.73
513.893	3.74
514.242	3.65
514.591	3.58
514.939	3.77
515.288	3.67
515.637	3.64
515.986	3.77
516.334	3.7
516.683	3.71
517.032	3.63
517.38	3.65
517.729	3.78
518.077	3.67
518.426	3.75
518.774	3.62
519.122	3.79
519.47	3.67
519.819	3.67
520.167	3.58
520.515	3.6
520.863	3.65
521.211	3.62
521.559	3.7
521.907	3.75
522.255	3.79
522.602	3.74
522.95	3.74
523.298	3.81
523.645	3.88
523.993	3.9
524.341	3.9
524.688	3.65
525.036	3.79
525.383	3.83
525.73	3.66
526.078	3.65
526.425	3.69
526.772	3.74
527.119	3.66
527.466	3.76
527.814	3.64
528.161	3.76
528.508	3.71
528.854	3.77
529.201	3.75
529.548	3.71
529.895	3.7
530.242	3.6
530.588	3.58
530.935	3.63
531.282	3.7
531.628	3.74
531.975	3.7
532.321	3.74
532.667	3.72
533.014	3.81
533.36	3.76
533.706	3.87
534.052	3.74
534.399	3.75
534.745	3.77
535.091	3.78
535.437	3.73
535.783	3.74
536.129	3.8
536.474	3.85
536.82	3.86
537.166	3.97
537.512	3.78
537.857	3.97
538.203	3.8
538.549	3.86
538.894	3.95
539.239	4.01
539.585	3.88
539.93	3.97
540.276	3.91
540.621	3.84
540.966	3.83
541.311	4.05
541.656	3.98
542.001	4.02
542.346	3.9
542.691	3.91
543.036	3.81
543.381	3.78
543.726	3.84
544.071	3.88
544.415	3.83
544.76	3.87
545.105	3.98
545.449	3.94
545.794	4.03
546.138	3.98
546.483	3.97
546.827	3.95
547.171	4.05
547.516	4
547.86	4.08
548.204	4.09
548.548	4.06
548.892	4.06
549.236	4.04
549.58	4.11
549.924	4.05
550.268	4.1
550.612	4.03
550.956	4.13
551.3	4.36
551.643	4.09
551.987	4.35
552.33	4.28
552.674	4.32
553.017	4.13
553.361	4.42
553.704	4.23
554.048	4.31
554.391	4.2
554.734	4.13
555.077	4.34
555.42	4.13
555.764	4.31
556.107	4.25
556.45	4.22
556.793	4.08
557.135	4.46
557.478	4.41
557.821	4.36
558.164	4.38
558.507	4.5
558.849	4.24
559.192	4.41
559.534	4.47
559.877	4.39
560.219	4.35
560.562	4.41
560.904	4.49
561.246	4.35
561.589	4.51
561.931	4.5
562.273	4.39
562.615	4.28
562.957	4.59
563.299	4.51
563.641	4.48
563.983	4.38
564.325	4.4
564.667	4.76
565.008	4.29
565.35	4.48
565.692	4.46
566.033	4.52
566.375	4.42
566.716	4.54
567.058	4.6
567.399	4.7
567.741	4.55
568.082	4.58
568.423	4.65
568.764	4.8
569.105	4.46
569.447	4.58
569.788	4.55
570.129	4.57
570.47	4.77
570.811	4.71
571.151	4.73
571.492	4.65
571.833	4.82
572.174	4.78
572.514	4.74
572.855	4.84
573.195	4.71
573.536	4.63
573.876	4.65
574.217	4.79
574.557	4.76
574.898	4.8
575.238	4.79
575.578	4.69
575.918	4.74
576.258	4.73
576.598	4.84
576.938	4.8
577.278	4.88
577.618	4.86
577.958	4.85
578.298	4.89
578.638	4.88
578.977	4.85
579.317	4.85
579.657	4.87
579.996	4.95
580.336	4.95
580.675	5.12
581.014	4.9
581.354	5.02
581.693	4.87
582.032	4.91
582.372	5.06
582.711	4.96
583.05	5.3
583.389	5.16
583.728	5.11
584.067	5.23
584.406	5.29
584.745	5.13
585.083	5.06
585.422	5.42
585.761	5.34
586.1	5.05
586.438	5.47
586.777	5.26
587.115	5.11
587.454	5.3
587.792	4.96
588.13	5.28
588.469	5.19
588.807	5.11
589.145	5.1
589.483	5.3
589.821	5.35
590.159	5.4
590.497	5.48
590.835	5.4
591.173	5.41
591.511	5.37
591.849	5.41
592.187	5.33
592.524	5.1
592.862	5.39
593.2	5.24
593.537	5.5
593.875	5.47
594.212	5.55
594.55	5.2
594.887	5.93
595.224	5.47
595.561	5.61
595.899	5.49
596.236	5.59
596.573	5.48
596.91	5.55
597.247	5.49
597.584	5.53
597.921	5.65
598.258	5.71
598.594	5.74
598.931	5.67
599.268	5.47
599.604	5.49
599.941	5.61
600.277	5.72
600.614	5.81
600.95	5.84
601.287	5.72
601.623	5.72
601.959	5.93
602.296	6.15
602.632	5.76
602.968	5.87
603.304	5.82
603.64	5.93
603.976	5.72
604.312	5.8
604.648	6.08
604.984	5.95
605.319	5.8
605.655	5.88
605.991	6.08
606.326	5.73
606.662	5.77
606.998	5.94
607.333	5.94
607.668	5.8
608.004	6.11
608.339	6.26
608.674	6.1
609.01	6.1
609.345	6.44
609.68	6.03
610.015	5.91
610.35	6.14
610.685	6.19
611.02	6.08
611.355	6.14
611.689	6.11
612.024	5.9
612.359	6.08
612.694	6.21
613.028	6.3
613.363	6.14
613.697	6.1
614.032	6.42
614.366	6.51
614.7	6.27
615.035	6.86
615.369	6.29
615.703	6.48
616.037	6.32
616.371	6.47
616.705	6.38
617.039	6.42
617.373	6.46
617.707	6.62
618.041	6.66
618.375	6.59
618.709	6.75
619.042	6.73
619.376	6.37
619.71	6.52
620.043	6.5
620.377	6.6
620.71	6.6
621.043	6.41
621.377	6.48
621.71	7.07
622.043	6.69
622.376	6.9
622.709	6.82
623.043	6.53
623.376	7.27
623.709	7.06
624.041	6.98
624.374	7.02
624.707	6.97
625.04	6.9
625.373	7.58
625.705	7.35
626.038	6.7
626.37	6.94
626.703	7.29
627.035	7.4
627.368	7.12
627.7	6.84
628.032	6.91
628.365	7.15
628.697	7.09
629.029	6.8
629.361	6.8
629.693	7.07
630.025	6.88
630.357	7.27
630.689	7.15
631.021	7.18
631.353	7.42
631.684	7.39
632.016	7.37
632.348	7.08
632.679	6.77
633.011	7.56
633.342	7.69
633.674	7.36
634.005	7.76
634.336	7.75
634.668	7.48
634.999	7.46
635.33	7.3
635.661	7.68
635.992	7.32
636.323	7.14
636.654	7.71
636.985	7.61
637.316	7.43
637.647	7.13
637.977	7.63
638.308	7.64
638.639	7.5
638.969	7.87
639.3	7.54
639.63	7.87
639.961	7.73
640.291	7.41
640.622	7.87
640.952	7.95
641.282	7.98
641.612	7.87
641.943	7.62
642.273	7.53
642.603	7.92
642.933	8.1
643.263	7.66
643.592	8.06
643.922	8.6
644.252	7.98
644.582	7.15
644.911	7.99
645.241	7.88
645.571	8.35
645.9	7.87
646.23	8.07
646.559	8.35
646.888	7.85
647.218	8.14
647.547	8.06
647.876	7.72
648.205	8.19
648.534	8.1
648.863	8.32
649.192	8.73
649.521	8.6
649.85	7.9
650.179	8.83
650.508	8.37
650.837	7.96
651.165	7.68
651.494	7.85
651.822	8.48
652.151	9.04
652.479	8.78
652.808	8.33
653.136	8.47
653.465	8.47
653.793	8.7
654.121	8.59
654.449	8.35
654.777	9.06
655.105	8.5
655.433	8.94
655.761	8.72
656.089	8.55
656.417	8.53
656.745	8.48
657.073	8.2
657.4	9.15
657.728	8.2
658.056	8.96
658.383	8.47
658.711	8.71
659.038	8.7
659.365	9.03
659.693	9.2
660.02	8.62
660.347	9.15
660.674	9.37
661.001	8.92
661.329	8.95
661.656	8.94
661.982	8.91
662.309	9.39
662.636	9
662.963	9.08
663.29	9
663.616	8.95
663.943	9.25
664.27	9.96
664.596	9.24
664.923	9.89
665.249	8.81
665.576	9.43
665.902	9.34
666.228	9.26
666.554	8.97
666.881	9.11
667.207	9.59
667.533	9.27
667.859	9.17
668.185	9.1
668.511	9.87
668.837	9.05
669.162	10.23
669.488	9.03
669.814	9.87
670.139	9.96
670.465	9.04
670.791	9.5
671.116	9.56
671.442	9.11
671.767	8.98
672.092	10.06
672.418	9.68
672.743	9.55
673.068	9.13
673.393	9.89
673.718	10.27
674.043	10.12
674.368	8.63
674.693	10.01
675.018	9.78
675.343	9.92
675.667	10.28
675.992	9.78
676.317	9.57
676.641	10.11
676.966	9.89
677.29	10.06
677.615	9.65
677.939	9.72
678.264	9.5
678.588	10.01
678.912	10.8
679.236	10.39
679.56	10
679.885	10.71
680.209	11.13
680.532	10.29
680.856	10.18
681.18	9.72
681.504	10.51
681.828	10
682.152	9.97
682.475	10.32
682.799	10.13
683.122	10.47
683.446	10.65
683.769	10.94
684.093	10.4
684.416	10.46
684.739	10.57
685.062	10.66
685.386	10.25
685.709	11.28
686.032	10.02
686.355	9.86
686.678	10.53
687.001	10.76
687.324	10.85
687.646	10.94
687.969	9.96
688.292	10.69
688.614	10.9
688.937	10.38
689.26	10.68
689.582	10.31
689.904	10.43
690.227	11.01
690.549	10.55
690.871	11.59
691.194	11.49
