Data from 2019-3_chest_Reflection__3__161.txt Node

Date: Fri Nov 11 18:09:12 CST 2022
User: ToomeyLab
Spectrometer: FLMS14357
Trigger mode: 0
Integration Time (sec): 1.000000E-2
Scans to average: 100
Electric dark correction enabled: true
Nonlinearity correction enabled: false
Boxcar width: 0
XAxis mode: Wavelengths
Number of Pixels in Spectrum: 2048
>>>>>Begin Spectral Data<<<<<
189.047	122.34
189.435	122.34
189.823	122.34
190.211	-1063.76
190.599	70.74
190.987	79.32
191.375	212.38
191.763	217.81
192.151	237.8
192.538	70.77
192.926	-105.14
193.314	28.56
193.702	122.43
194.089	-10.64
194.477	114.58
194.864	367.37
195.252	37.68
195.639	112.23
196.027	1097.06
196.414	-8.57
196.801	-77.27
197.189	-357.12
197.576	-13.17
197.963	-98.42
198.351	3.92
198.738	0.94
199.125	24.99
199.512	-3.1
199.899	18.97
200.286	-4.1
200.673	-22.19
201.06	1.98
201.447	17.36
201.833	23.97
202.22	6.94
202.607	9.65
202.994	14.69
203.38	-44.69
203.767	28.57
204.154	-32.06
204.54	3.48
204.927	-27.1
205.313	-3.42
205.699	6.4
206.086	-35.09
206.472	-57.64
206.858	14.56
207.245	18.61
207.631	8.7
208.017	-23.26
208.403	11.39
208.789	59.25
209.175	-29.2
209.561	14.96
209.947	2.44
210.333	48.25
210.719	9.21
211.105	12.22
211.491	33.84
211.876	-21.73
212.262	-24.66
212.648	9.71
213.034	-7.5
213.419	19.97
213.805	29.53
214.19	7.96
214.576	4.22
214.961	-15.02
215.346	-5.12
215.732	21.08
216.117	35.12
216.502	21.16
216.888	-4.7
217.273	-15.74
217.658	-33.7
218.043	6.63
218.428	15.52
218.813	26.52
219.198	3.47
219.583	1.13
219.968	-33.12
220.353	0.52
220.738	-1.54
221.122	-14.25
221.507	19.7
221.892	1.23
222.276	-1.55
222.661	5.85
223.046	-0.19
223.43	11.61
223.815	-2.35
224.199	-9.92
224.583	22.04
224.968	11.67
225.352	8.02
225.736	6.15
226.121	4.35
226.505	3.85
226.889	9.41
227.273	6.24
227.657	5.24
228.041	5.11
228.425	1.86
228.809	3.22
229.193	5.13
229.577	5.03
229.961	3.29
230.344	3.56
230.728	4.17
231.112	3.22
231.495	4.32
231.879	4.65
232.263	4.66
232.646	3.92
233.03	3.09
233.413	4.48
233.797	4.52
234.18	0.32
234.563	4.17
234.946	2.69
235.33	4.95
235.713	1.66
236.096	3.81
236.479	2.19
236.862	2.82
237.245	3.23
237.628	3.41
238.011	1.66
238.394	4.83
238.777	4.17
239.16	4.42
239.543	5.47
239.925	3.57
240.308	4.23
240.691	5.45
241.073	4.66
241.456	4.57
241.838	3.26
242.221	4.02
242.603	3.09
242.986	4.25
243.368	4.05
243.75	4.09
244.133	4.2
244.515	4.14
244.897	4.2
245.279	4
245.661	3.77
246.043	3.65
246.425	3.68
246.807	4.02
247.189	4.06
247.571	3.31
247.953	3.41
248.335	4.01
248.717	4.24
249.098	4.22
249.48	4.03
249.862	4.08
250.243	3.67
250.625	3.9
251.006	3.51
251.388	3.46
251.769	3.45
252.151	4.54
252.532	4.8
252.913	3.78
253.295	3.85
253.676	4.24
254.057	4
254.438	3.68
254.819	3.32
255.2	5.43
255.581	3.82
255.962	4.17
256.343	2.5
256.724	3.01
257.105	3.33
257.486	3.94
257.867	4.2
258.247	3.92
258.628	4.1
259.009	3.76
259.389	3.57
259.77	4.25
260.15	3.46
260.531	4.28
260.911	3.65
261.292	3.6
261.672	3.74
262.052	3.71
262.432	3.76
262.813	4.15
263.193	3.86
263.573	3.59
263.953	4.28
264.333	3.26
264.713	3.53
265.093	4.24
265.473	4.09
265.853	4.41
266.233	4.13
266.612	4.46
266.992	3.68
267.372	4.43
267.752	3.99
268.131	3.97
268.511	3.65
268.89	4.03
269.27	3.61
269.649	3.93
270.029	3.7
270.408	3.35
270.787	4.53
271.167	3.76
271.546	3.88
271.925	3.66
272.304	3.43
272.683	3.7
273.062	3.54
273.441	3.43
273.82	3.79
274.199	3.64
274.578	3.41
274.957	3.74
275.336	3.61
275.715	3.8
276.093	4.02
276.472	3.61
276.851	3.64
277.229	3.29
277.608	3.16
277.986	3.7
278.365	2.93
278.743	3.98
279.122	3.72
279.5	3.58
279.878	3.57
280.257	3.66
280.635	3.86
281.013	3.5
281.391	3.81
281.769	3.09
282.147	3.91
282.525	4.07
282.903	3.89
283.281	4.34
283.659	3.72
284.037	4.12
284.415	3.33
284.792	3.88
285.17	3.8
285.548	3.96
285.925	3.75
286.303	3.41
286.68	3.48
287.058	4
287.435	3.69
287.813	3.83
288.19	3.69
288.567	3.44
288.945	3.29
289.322	3.54
289.699	4
290.076	3.74
290.453	4.01
290.83	3.4
291.207	3.91
291.584	3.87
291.961	3.9
292.338	4.05
292.715	3.56
293.092	4.02
293.469	3.88
293.845	3.99
294.222	4.14
294.599	4.16
294.975	3.54
295.352	4.38
295.728	3.81
296.105	4.21
296.481	4.61
296.858	4.32
297.234	4.41
297.61	3.84
297.986	3.8
298.363	4.39
298.739	4.16
299.115	4.42
299.491	4.15
299.867	4.51
300.243	3.7
300.619	4.05
300.995	4.47
301.371	4.73
301.746	3.95
302.122	3.9
302.498	4.43
302.874	4.47
303.249	4.22
303.625	4.68
304	3.88
304.376	4.66
304.751	4.58
305.127	4.57
305.502	4.55
305.878	4.34
306.253	4.24
306.628	4.4
307.003	4.32
307.378	4.06
307.754	4.42
308.129	4.46
308.504	4.04
308.879	4.49
309.254	4.36
309.629	4.58
310.003	4.7
310.378	4.8
310.753	4.33
311.128	4.67
311.502	4.13
311.877	4.48
312.252	4.87
312.626	4.63
313.001	4.67
313.375	4.06
313.75	5
314.124	4.68
314.498	4.52
314.873	4.94
315.247	4.88
315.621	4.95
315.995	4.9
316.369	4.28
316.743	4.64
317.117	4.66
317.491	4.48
317.865	5.14
318.239	5.13
318.613	5.1
318.987	4.44
319.361	5.19
319.734	4.6
320.108	4.08
320.482	4.53
320.855	4.86
321.229	4.73
321.602	4.76
321.976	5.01
322.349	4.97
322.723	4.98
323.096	5.15
323.469	5.11
323.843	4.77
324.216	4.83
324.589	4.81
324.962	4.43
325.335	4.82
325.708	4.61
326.081	4.44
326.454	4.8
326.827	4.92
327.2	5.17
327.573	4.73
327.945	5.06
328.318	4.85
328.691	4.31
329.063	4.53
329.436	4.44
329.809	4.75
330.181	4.94
330.553	4.56
330.926	4.82
331.298	4.53
331.671	4.72
332.043	4.69
332.415	4.87
332.787	4.96
333.159	4.62
333.532	4.95
333.904	5.13
334.276	4.8
334.648	4.32
335.02	5.07
335.391	4.75
335.763	5.25
336.135	5.11
336.507	5.23
336.879	5.29
337.25	5.35
337.622	5.77
337.993	5.09
338.365	5.22
338.736	4.69
339.108	5.18
339.479	5.15
339.851	5.22
340.222	5
340.593	4.32
340.964	4.88
341.336	4.92
341.707	4.94
342.078	4.85
342.449	5.22
342.82	5.34
343.191	5.17
343.562	5.2
343.933	4.45
344.303	4.94
344.674	5.27
345.045	5.12
345.416	5.04
345.786	4.82
346.157	4.7
346.527	4.91
346.898	4.99
347.268	4.86
347.639	5.08
348.009	4.89
348.38	5.53
348.75	5
349.12	5.06
349.49	5.15
349.861	4.92
350.231	5.08
350.601	5.05
350.971	5
351.341	5
351.711	4.9
352.081	5.22
352.45	4.76
352.82	5.29
353.19	5.62
353.56	5.68
353.929	4.96
354.299	4.96
354.669	5.27
355.038	5.4
355.408	4.88
355.777	5.27
356.147	5.22
356.516	5.01
356.885	5
357.254	5.5
357.624	4.56
357.993	4.85
358.362	5.19
358.731	4.72
359.1	5.18
359.469	5.08
359.838	5.25
360.207	5.26
360.576	5.04
360.945	5.31
361.314	5.25
361.682	5.24
362.051	5.21
362.42	4.82
362.788	5.18
363.157	5.14
363.525	5.04
363.894	5.15
364.262	4.9
364.631	5.03
364.999	5.17
365.367	5.1
365.735	5.03
366.104	5.21
366.472	5.32
366.84	5.17
367.208	5.24
367.576	5.12
367.944	5.11
368.312	5.03
368.68	5.23
369.048	5.28
369.416	5.11
369.783	5.3
370.151	4.92
370.519	5.16
370.886	5.35
371.254	5.38
371.621	5.14
371.989	5.37
372.356	4.92
372.724	5.15
373.091	5.49
373.458	4.99
373.826	5.14
374.193	5.33
374.56	5.28
374.927	5.04
375.294	5.13
375.661	5.14
376.028	5.42
376.395	5.19
376.762	5.21
377.129	5.29
377.496	5.22
377.863	5.14
378.229	5.1
378.596	5.26
378.963	5.2
379.329	5.3
379.696	5.18
380.062	5.3
380.429	5.22
380.795	4.99
381.161	5.46
381.528	5.29
381.894	5.15
382.26	4.96
382.626	5.31
382.993	4.97
383.359	4.85
383.725	5.28
384.091	5.16
384.457	5.48
384.823	4.93
385.188	5.25
385.554	5.25
385.92	5.44
386.286	5.37
386.651	5.36
387.017	5.04
387.383	5.48
387.748	5.44
388.114	5.12
388.479	5.22
388.845	5.22
389.21	5.1
389.575	5.19
389.94	5.4
390.306	5.58
390.671	5.33
391.036	5.34
391.401	5.34
391.766	5.56
392.131	5.27
392.496	5.16
392.861	5.11
393.226	5.3
393.591	5.69
393.956	5.55
394.32	5.42
394.685	5.3
395.05	5.42
395.414	5.52
395.779	5.18
396.143	5.44
396.508	5.3
396.872	5.33
397.236	5.27
397.601	5.47
397.965	5.21
398.329	5.45
398.694	5.59
399.058	5.34
399.422	5.58
399.786	5.52
400.15	5.67
400.514	5.35
400.878	5.2
401.242	5.23
401.605	5.41
401.969	5.28
402.333	5.55
402.697	5.62
403.06	5.51
403.424	5.66
403.787	5.69
404.151	5.59
404.514	5.48
404.878	5.3
405.241	5.48
405.604	5.47
405.968	5.45
406.331	5.26
406.694	5.32
407.057	5.27
407.42	5.33
407.783	5.47
408.146	5.6
408.509	5.38
408.872	5.54
409.235	5.81
409.598	5.4
409.961	5.65
410.323	5.54
410.686	5.71
411.049	5.57
411.411	5.77
411.774	5.68
412.136	5.32
412.499	5.52
412.861	5.55
413.223	5.51
413.586	5.36
413.948	5.64
414.31	5.52
414.672	5.6
415.035	5.44
415.397	5.62
415.759	5.7
416.121	5.71
416.483	5.35
416.845	5.2
417.206	5.66
417.568	5.5
417.93	5.68
418.292	5.56
418.653	5.48
419.015	5.46
419.377	5.52
419.738	5.57
420.1	5.5
420.461	5.69
420.822	5.6
421.184	5.55
421.545	5.57
421.906	5.54
422.267	5.47
422.629	5.43
422.99	5.43
423.351	5.62
423.712	5.54
424.073	5.45
424.434	5.63
424.795	5.6
425.155	5.57
425.516	5.41
425.877	5.47
426.238	5.56
426.598	5.5
426.959	5.46
427.32	5.52
427.68	5.64
428.041	5.5
428.401	5.84
428.761	5.58
429.122	5.73
429.482	5.66
429.842	5.72
430.202	5.74
430.563	5.65
430.923	5.75
431.283	5.77
431.643	5.67
432.003	5.8
432.363	5.67
432.722	5.81
433.082	5.73
433.442	5.87
433.802	5.7
434.161	5.75
434.521	5.78
434.881	5.6
435.24	5.64
435.6	5.71
435.959	5.65
436.319	5.82
436.678	5.78
437.037	5.75
437.396	5.87
437.756	5.92
438.115	5.84
438.474	5.77
438.833	5.85
439.192	5.63
439.551	5.79
439.91	5.91
440.269	5.75
440.628	5.86
440.987	5.72
441.345	5.87
441.704	5.76
442.063	5.86
442.421	5.72
442.78	5.77
443.138	5.85
443.497	5.85
443.855	5.85
444.214	5.91
444.572	6.06
444.93	5.87
445.288	5.89
445.647	5.97
446.005	5.9
446.363	5.9
446.721	5.93
447.079	5.76
447.437	5.89
447.795	5.89
448.153	5.93
448.51	5.91
448.868	5.84
449.226	5.86
449.584	5.92
449.941	6.03
450.299	5.93
450.656	5.94
451.014	5.98
451.371	6.15
451.729	5.98
452.086	6.09
452.443	6.12
452.801	6.02
453.158	5.92
453.515	6.18
453.872	6.1
454.229	5.93
454.586	6.16
454.943	6.13
455.3	6.23
455.657	5.95
456.014	6.18
456.371	6.23
456.727	6.15
457.084	6.14
457.441	5.97
457.797	6.02
458.154	6.25
458.51	6.17
458.867	6.04
459.223	6.18
459.58	6.25
459.936	6.12
460.292	6.17
460.648	6.08
461.005	6.17
461.361	6
461.717	6.11
462.073	6.11
462.429	5.93
462.785	6.09
463.141	6.17
463.496	6.07
463.852	6.37
464.208	6.3
464.564	6.14
464.919	6.32
465.275	6.22
465.631	6.31
465.986	6.15
466.342	6.32
466.697	6.37
467.052	6.27
467.408	6.53
467.763	6.43
468.118	6.35
468.473	6.32
468.829	6.2
469.184	6.2
469.539	6.38
469.894	6.37
470.249	6.32
470.603	6.35
470.958	6.48
471.313	6.2
471.668	6.36
472.023	6.36
472.377	6.55
472.732	6.53
473.086	6.36
473.441	6.36
473.795	6.47
474.15	6.39
474.504	6.43
474.859	6.53
475.213	6.4
475.567	6.46
475.921	6.45
476.275	6.4
476.63	6.39
476.984	6.59
477.338	6.4
477.692	6.57
478.045	6.36
478.399	6.31
478.753	6.34
479.107	6.56
479.461	6.59
479.814	6.48
480.168	6.45
480.521	6.57
480.875	6.47
481.228	6.58
481.582	6.49
481.935	6.41
482.289	6.47
482.642	6.48
482.995	6.45
483.348	6.3
483.701	6.4
484.055	6.37
484.408	6.26
484.761	6.29
485.114	6.24
485.466	6.15
485.819	6.16
486.172	6.22
486.525	6.23
486.878	6.33
487.23	6.38
487.583	6.4
487.936	6.37
488.288	6.43
488.641	6.36
488.993	6.24
489.345	6.3
489.698	6.34
490.05	6.38
490.402	6.42
490.754	6.46
491.107	6.48
491.459	6.56
491.811	6.49
492.163	6.61
492.515	6.57
492.866	6.47
493.218	6.44
493.57	6.49
493.922	6.5
494.274	6.54
494.625	6.64
494.977	6.57
495.328	6.76
495.68	6.8
496.031	6.8
496.383	6.74
496.734	6.76
497.086	6.87
497.437	6.91
497.788	6.87
498.139	6.86
498.49	6.81
498.842	6.78
499.193	6.89
499.544	6.91
499.894	6.9
500.245	6.92
500.596	6.94
500.947	6.91
501.298	7.07
501.648	7.03
501.999	7.08
502.35	7.1
502.7	6.94
503.051	7.01
503.401	6.95
503.752	7.04
504.102	7.13
504.452	7.03
504.803	6.97
505.153	7.12
505.503	7.12
505.853	7.02
506.203	7.08
506.553	7.03
506.903	7.08
507.253	7.2
507.603	7.09
507.953	7.06
508.303	7.11
508.652	7.16
509.002	7.17
509.352	7.05
509.701	7.11
510.051	7.21
510.4	7.29
510.75	7.2
511.099	7.14
511.449	7.15
511.798	7.29
512.147	7.24
512.496	7.23
512.846	7.25
513.195	7.25
513.544	7.29
513.893	7.17
514.242	7.21
514.591	7.2
514.939	7.31
515.288	7.31
515.637	7.26
515.986	7.21
516.334	7.33
516.683	7.42
517.032	7.37
517.38	7.48
517.729	7.29
518.077	7.48
518.426	7.36
518.774	7.24
519.122	7.32
519.47	7.38
519.819	7.26
520.167	7.3
520.515	7.26
520.863	7.34
521.211	7.41
521.559	7.38
521.907	7.41
522.255	7.47
522.602	7.42
522.95	7.57
523.298	7.6
523.645	7.55
523.993	7.56
524.341	7.72
524.688	7.54
525.036	7.69
525.383	7.73
525.73	7.7
526.078	7.59
526.425	7.6
526.772	7.56
527.119	7.49
527.466	7.54
527.814	7.41
528.161	7.49
528.508	7.66
528.854	7.57
529.201	7.65
529.548	7.51
529.895	7.38
530.242	7.4
530.588	7.38
530.935	7.44
531.282	7.48
531.628	7.57
531.975	7.62
532.321	7.66
532.667	7.73
533.014	7.8
533.36	7.78
533.706	7.86
534.052	7.79
534.399	7.68
534.745	7.7
535.091	7.63
535.437	7.72
535.783	7.79
536.129	7.79
536.474	7.83
536.82	7.91
537.166	8.03
537.512	7.97
537.857	7.96
538.203	7.93
538.549	7.99
538.894	7.98
539.239	7.99
539.585	8.14
539.93	8.15
540.276	8.07
540.621	8.23
540.966	8.22
541.311	8.27
541.656	8.26
542.001	8.23
542.346	8.21
542.691	8.02
543.036	8.01
543.381	7.98
543.726	8.01
544.071	8.14
544.415	8.16
544.76	8.19
545.105	8.17
545.449	8.14
545.794	8.32
546.138	8.44
546.483	8.37
546.827	8.36
547.171	8.51
547.516	8.44
547.86	8.38
548.204	8.5
548.548	8.47
548.892	8.46
549.236	8.56
549.58	8.51
549.924	8.61
550.268	8.68
550.612	8.77
550.956	8.78
551.3	8.7
551.643	8.8
551.987	8.86
552.33	9.03
552.674	8.93
553.017	8.88
553.361	8.95
553.704	9
554.048	8.85
554.391	8.75
554.734	8.92
555.077	8.82
555.42	9.06
555.764	9.04
556.107	8.84
556.45	9.1
556.793	9.25
557.135	9.14
557.478	9.06
557.821	9.26
558.164	9.19
558.507	9.13
558.849	9.33
559.192	9.34
559.534	9.4
559.877	9.42
560.219	9.27
560.562	9.13
560.904	9.52
561.246	9.37
561.589	9.51
561.931	9.38
562.273	9.45
562.615	9.41
562.957	9.41
563.299	9.45
563.641	9.6
563.983	9.43
564.325	9.38
564.667	9.33
565.008	9.57
565.35	9.64
565.692	9.66
566.033	9.55
566.375	9.6
566.716	9.55
567.058	9.64
567.399	9.67
567.741	9.79
568.082	9.77
568.423	9.66
568.764	9.75
569.105	9.83
569.447	9.81
569.788	9.98
570.129	9.85
570.47	9.97
570.811	9.91
571.151	9.92
571.492	9.9
571.833	9.92
572.174	9.95
572.514	10.05
572.855	9.94
573.195	10.02
573.536	10.06
573.876	9.96
574.217	9.96
574.557	10
574.898	10.26
575.238	10.27
575.578	10.21
575.918	10.01
576.258	10.03
576.598	10.2
576.938	10.39
577.278	10.27
577.618	10.18
577.958	10.21
578.298	10.51
578.638	10.5
578.977	10.42
579.317	10.57
579.657	10.73
579.996	10.6
580.336	10.62
580.675	10.59
581.014	10.54
581.354	10.79
581.693	10.94
582.032	10.67
582.372	10.59
582.711	10.76
583.05	10.64
583.389	10.81
583.728	10.76
584.067	10.92
584.406	10.87
584.745	11.16
585.083	10.86
585.422	11.07
585.761	11.23
586.1	11.07
586.438	10.79
586.777	11.07
587.115	11.22
587.454	11.26
587.792	11.15
588.13	11.24
588.469	11.16
588.807	11.13
589.145	11.33
589.483	11.1
589.821	11.37
590.159	11.35
590.497	11.2
590.835	11.64
591.173	11.28
591.511	11.43
591.849	11.2
592.187	11.52
592.524	11.38
592.862	11.52
593.2	11.37
593.537	11.07
593.875	11.8
594.212	11.69
594.55	11.6
594.887	11.76
595.224	11.76
595.561	11.68
595.899	11.65
596.236	11.48
596.573	11.98
596.91	11.85
597.247	11.77
597.584	11.76
597.921	11.67
598.258	12
598.594	11.74
598.931	11.63
599.268	11.79
599.604	11.88
599.941	12.06
600.277	11.99
600.614	12.18
600.95	12.3
601.287	12.2
601.623	12.19
601.959	12.25
602.296	12.25
602.632	12.04
602.968	12.28
603.304	12.25
603.64	12.59
603.976	12.49
604.312	12.36
604.648	12.43
604.984	12.52
605.319	12.42
605.655	12.11
605.991	12.51
606.326	12.35
606.662	12.51
606.998	12.36
607.333	12.49
607.668	12.56
608.004	12.59
608.339	12.64
608.674	12.68
609.01	12.71
609.345	12.83
609.68	12.8
610.015	12.72
610.35	12.66
610.685	12.82
611.02	12.72
611.355	12.95
611.689	12.88
612.024	13.18
612.359	12.95
612.694	12.94
613.028	13.16
613.363	13.09
613.697	13.25
614.032	13.09
614.366	13.25
614.7	13.25
615.035	13.51
615.369	13.2
615.703	13.06
616.037	13.14
616.371	13.56
616.705	13.67
617.039	13.39
617.373	13.63
617.707	13.65
618.041	13.6
618.375	13.46
618.709	13.65
619.042	13.47
619.376	13.48
619.71	13.8
620.043	13.72
620.377	13.72
620.71	13.72
621.043	13.82
621.377	13.76
621.71	13.69
622.043	14.36
622.376	13.95
622.709	13.71
623.043	14.21
623.376	14.03
623.709	13.86
624.041	14.24
624.374	14.07
624.707	13.95
625.04	14.24
625.373	14.19
625.705	14.09
626.038	14.3
626.37	14.11
626.703	14.26
627.035	13.97
627.368	14.1
627.7	14.42
628.032	14.52
628.365	14.47
628.697	14.56
629.029	14.51
629.361	14.52
629.693	14.81
630.025	14.73
630.357	14.6
630.689	14.59
631.021	14.48
631.353	14.64
631.684	14.79
632.016	14.93
632.348	14.5
632.679	14.94
633.011	14.84
633.342	14.81
633.674	14.76
634.005	14.7
634.336	15.22
634.668	14.83
634.999	15.09
635.33	15.18
635.661	14.95
635.992	14.97
636.323	14.99
636.654	15.06
636.985	14.94
637.316	15.26
637.647	15.17
637.977	15.45
638.308	15.4
638.639	15.53
638.969	15.3
639.3	15.39
639.63	15.34
639.961	15.6
640.291	15.57
640.622	15.41
640.952	15.53
641.282	15.77
641.612	15.77
641.943	15.61
642.273	15.72
642.603	15.85
642.933	15.59
643.263	15.67
643.592	15.64
643.922	15.41
644.252	16.06
644.582	16.02
644.911	16.26
645.241	15.81
645.571	16.34
645.9	15.8
646.23	16.14
646.559	16.45
646.888	15.71
647.218	15.88
647.547	16.2
647.876	16.31
648.205	16.41
648.534	16.04
648.863	16.14
649.192	16.72
649.521	16.37
649.85	15.98
650.179	16.23
650.508	16.57
650.837	16.67
651.165	15.93
651.494	16.53
651.822	16.37
652.151	16.77
652.479	16.77
652.808	16.57
653.136	16.31
653.465	16.75
653.793	16.7
654.121	16.77
654.449	16.68
654.777	16.25
655.105	17.01
655.433	16.98
655.761	17.2
656.089	16.64
656.417	17.78
656.745	16.91
657.073	16.71
657.4	16.91
657.728	17.12
658.056	16.85
658.383	16.99
658.711	17.13
659.038	17.72
659.365	17.2
659.693	16.91
660.02	17.65
660.347	17.26
660.674	16.94
661.001	17.33
661.329	17.4
661.656	17.4
661.982	17.35
662.309	17.7
662.636	17.83
662.963	16.8
663.29	17.47
663.616	17.62
663.943	17.92
664.27	17.59
664.596	17.63
664.923	17.11
665.249	17.1
665.576	18.17
665.902	17.41
666.228	18.01
666.554	18.63
666.881	17.67
667.207	18.01
667.533	18.53
667.859	17.34
668.185	17.36
668.511	18.17
668.837	18.3
669.162	18.38
669.488	18.22
669.814	18.68
670.139	18.13
670.465	17.96
670.791	18.41
671.116	18.04
671.442	18.64
671.767	18.94
672.092	17.8
672.418	18.37
672.743	18.11
673.068	18.61
673.393	18.59
673.718	18.35
674.043	18.57
674.368	18.77
674.693	18.88
675.018	19.08
675.343	19.18
675.667	18.99
675.992	18.9
676.317	18.25
676.641	18.61
676.966	18.88
677.29	19.09
677.615	18.97
677.939	19.17
678.264	19.35
678.588	19.27
678.912	18.86
679.236	18.91
679.56	18.41
679.885	18.68
680.209	18.67
680.532	18.45
680.856	19.31
681.18	19.6
681.504	19.22
681.828	19.52
682.152	18.83
682.475	19.52
682.799	19.59
683.122	19.03
683.446	19.79
683.769	19.22
684.093	19.24
684.416	19.69
684.739	19.87
685.062	19.36
685.386	19.14
