Data from 2019-3_forehead_Reflection__3__173.txt Node

Date: Fri Nov 11 18:13:34 CST 2022
User: ToomeyLab
Spectrometer: FLMS14357
Trigger mode: 0
Integration Time (sec): 1.000000E-2
Scans to average: 100
Electric dark correction enabled: true
Nonlinearity correction enabled: false
Boxcar width: 0
XAxis mode: Wavelengths
Number of Pixels in Spectrum: 2048
>>>>>Begin Spectral Data<<<<<
189.047	92.91
189.435	92.91
189.823	92.91
190.211	726.61
190.599	33.99
190.987	4.08
191.375	56.84
191.763	96.57
192.151	79.43
192.538	24.55
192.926	134.58
193.314	17.67
193.702	1113.62
194.089	210.8
194.477	32.6
194.864	416.99
195.252	-249.94
195.639	150.25
196.027	-200.62
196.414	19.77
196.801	199.61
197.189	-1499.03
197.576	12.52
197.963	17.58
198.351	2.51
198.738	40.16
199.125	18.22
199.512	18.41
199.899	26.67
200.286	-25.13
200.673	5.82
201.06	-21.43
201.447	37.87
201.833	37.79
202.22	31.73
202.607	61.13
202.994	26.94
203.38	10.95
203.767	20.41
204.154	-2
204.54	57.75
204.927	-7.26
205.313	5.92
205.699	15.22
206.086	52.28
206.472	-19.67
206.858	-6.29
207.245	33.49
207.631	10.76
208.017	-35
208.403	28.12
208.789	37.77
209.175	30.38
209.561	-5.32
209.947	9.95
210.333	66.36
210.719	22.36
211.105	-8.71
211.491	43.13
211.876	-1.37
212.262	-10.47
212.648	55.83
213.034	15.47
213.419	6.69
213.805	35.15
214.19	10.92
214.576	11.33
214.961	31.76
215.346	-22.92
215.732	18.8
216.117	23.95
216.502	21.71
216.888	9.7
217.273	2.3
217.658	11.3
218.043	-9.12
218.428	18.98
218.813	11.06
219.198	26.46
219.583	25.61
219.968	-25.53
220.353	7.08
220.738	23.89
221.122	-14.62
221.507	26.23
221.892	16.42
222.276	20.8
222.661	29.07
223.046	15.98
223.43	-1.03
223.815	7.78
224.199	4.59
224.583	17.74
224.968	21.23
225.352	8.72
225.736	5.09
226.121	3.86
226.505	9.79
226.889	6.96
227.273	9.16
227.657	6.69
228.041	5.48
228.425	4.45
228.809	4.77
229.193	3.37
229.577	4.51
229.961	3.2
230.344	3.34
230.728	3.12
231.112	4.11
231.495	4.64
231.879	4.45
232.263	4.52
232.646	3.33
233.03	2.34
233.413	3.01
233.797	4.65
234.18	2.11
234.563	4.51
234.946	4.1
235.33	3.75
235.713	2.89
236.096	3.82
236.479	3.14
236.862	3.7
237.245	3.67
237.628	2.4
238.011	4.38
238.394	3.93
238.777	2.68
239.16	4.95
239.543	5.93
239.925	4.14
240.308	4.12
240.691	5.17
241.073	3.64
241.456	3.7
241.838	4.01
242.221	3.69
242.603	3.13
242.986	4.17
243.368	3.26
243.75	4.02
244.133	3.54
244.515	3.79
244.897	4.15
245.279	4.37
245.661	3.93
246.043	4.19
246.425	4.45
246.807	4.76
247.189	3.94
247.571	4
247.953	3.83
248.335	4.13
248.717	3.88
249.098	3.89
249.48	3.89
249.862	3.57
250.243	3.88
250.625	3.64
251.006	3.58
251.388	4.09
251.769	4.48
252.151	4.83
252.532	4.7
252.913	4.34
253.295	3.9
253.676	4.15
254.057	4.41
254.438	3.54
254.819	4.26
255.2	5.08
255.581	4.48
255.962	4.19
256.343	4.31
256.724	3.68
257.105	4.22
257.486	3.59
257.867	4.42
258.247	4.49
258.628	4
259.009	3.99
259.389	3.89
259.77	4.43
260.15	3.24
260.531	3.99
260.911	3.89
261.292	3.92
261.672	3.81
262.052	3.75
262.432	3.47
262.813	4.2
263.193	3.88
263.573	4.08
263.953	4.09
264.333	3.2
264.713	4.26
265.093	4.12
265.473	4.6
265.853	3.9
266.233	4.8
266.612	4.68
266.992	3.61
267.372	4.39
267.752	4.04
268.131	4.54
268.511	4
268.89	4.19
269.27	4.11
269.649	4.24
270.029	3.98
270.408	3.81
270.787	4.78
271.167	4.17
271.546	4.27
271.925	3.92
272.304	4.15
272.683	4.19
273.062	3.81
273.441	3.73
273.82	4.42
274.199	3.97
274.578	3.54
274.957	4.12
275.336	3.76
275.715	4.29
276.093	3.91
276.472	4.48
276.851	4.25
277.229	3.95
277.608	3.24
277.986	4.21
278.365	3.93
278.743	4.1
279.122	4.57
279.5	4.31
279.878	4.13
280.257	4.02
280.635	4.23
281.013	3.51
281.391	4.59
281.769	3.72
282.147	4.1
282.525	4.17
282.903	4.12
283.281	4.83
283.659	4.19
284.037	4.07
284.415	3.78
284.792	3.89
285.17	4.27
285.548	4.11
285.925	3.55
286.303	3.8
286.68	3.7
287.058	4.28
287.435	4
287.813	3.98
288.19	4.05
288.567	3.42
288.945	4.1
289.322	3.93
289.699	4.13
290.076	4.24
290.453	4.65
290.83	4
291.207	3.76
291.584	4.56
291.961	4.28
292.338	4.17
292.715	4.44
293.092	4.53
293.469	4.18
293.845	4.46
294.222	4.7
294.599	4.65
294.975	4.13
295.352	5.01
295.728	4.64
296.105	4.58
296.481	4.61
296.858	5.31
297.234	4.83
297.61	4.7
297.986	4.94
298.363	4.88
298.739	4.74
299.115	4.85
299.491	5.04
299.867	5
300.243	4.76
300.619	5.16
300.995	5.1
301.371	5.34
301.746	4.75
302.122	5.19
302.498	5.81
302.874	5.47
303.249	5.42
303.625	5.45
304	5.52
304.376	5.34
304.751	5.63
305.127	5.81
305.502	5.13
305.878	5.81
306.253	5.75
306.628	6.09
307.003	6.15
307.378	5.8
307.754	5.82
308.129	6.16
308.504	5.95
308.879	6.55
309.254	5.85
309.629	6.91
310.003	6.69
310.378	6.83
310.753	6.26
311.128	6.66
311.502	6.03
311.877	6.77
312.252	7.2
312.626	7.04
313.001	7.07
313.375	6.46
313.75	6.88
314.124	7.28
314.498	7.16
314.873	7.17
315.247	7.11
315.621	7.3
315.995	7.06
316.369	7.39
316.743	7.3
317.117	7.31
317.491	7.73
317.865	8.06
318.239	7.79
318.613	7.92
318.987	7.73
319.361	8.22
319.734	8.28
320.108	8.4
320.482	8.11
320.855	8.08
321.229	8.45
321.602	8.09
321.976	8.5
322.349	8.98
322.723	9.31
323.096	8.7
323.469	9.13
323.843	8.73
324.216	8.58
324.589	9.23
324.962	8.63
325.335	8.5
325.708	9.18
326.081	8.53
326.454	8.91
326.827	9.13
327.2	9.85
327.573	9.19
327.945	9.42
328.318	9.08
328.691	9.45
329.063	9.21
329.436	9.5
329.809	9.71
330.181	9.52
330.553	9.73
330.926	10.19
331.298	9.55
331.671	9.92
332.043	10.27
332.415	9.62
332.787	9.71
333.159	9.75
333.532	9.7
333.904	10.13
334.276	10.35
334.648	9.93
335.02	10.15
335.391	10.37
335.763	10.25
336.135	10.68
336.507	10.89
336.879	10.54
337.25	10.82
337.622	11.2
337.993	11.13
338.365	10.88
338.736	10.82
339.108	10.94
339.479	10.86
339.851	10.97
340.222	10.93
340.593	10.69
340.964	10.9
341.336	10.89
341.707	11.16
342.078	11
342.449	11.38
342.82	11.46
343.191	11.69
343.562	11.95
343.933	11.07
344.303	11.19
344.674	11.47
345.045	11.9
345.416	11.4
345.786	11.88
346.157	11.76
346.527	12.04
346.898	11.72
347.268	11.49
347.639	11.71
348.009	11.79
348.38	12.12
348.75	12.42
349.12	12.4
349.49	12.12
349.861	12.2
350.231	12.27
350.601	12.08
350.971	12.23
351.341	12.67
351.711	12.36
352.081	12.6
352.45	12.97
352.82	12.55
353.19	12.93
353.56	12.89
353.929	12.12
354.299	12.43
354.669	12.7
355.038	12.95
355.408	12.74
355.777	12.96
356.147	13.11
356.516	12.93
356.885	13.12
357.254	13.71
357.624	12.92
357.993	12.74
358.362	13.25
358.731	13.29
359.1	13.43
359.469	13.28
359.838	13.31
360.207	13.37
360.576	13.53
360.945	13.46
361.314	13.56
361.682	13.83
362.051	13.72
362.42	13.5
362.788	13.8
363.157	13.47
363.525	13.78
363.894	13.74
364.262	13.64
364.631	13.92
364.999	14.17
365.367	14.08
365.735	14.38
366.104	14.3
366.472	14.26
366.84	14.47
367.208	14.29
367.576	14.22
367.944	14.58
368.312	14.16
368.68	14.38
369.048	14.47
369.416	14.65
369.783	14.77
370.151	14.81
370.519	14.99
370.886	14.75
371.254	15.13
371.621	15.4
371.989	15.17
372.356	15.01
372.724	14.9
373.091	15.16
373.458	15.33
373.826	15.47
374.193	15.24
374.56	15.44
374.927	15.75
375.294	15.67
375.661	15.49
376.028	15.87
376.395	15.7
376.762	15.65
377.129	15.76
377.496	16.11
377.863	15.65
378.229	15.89
378.596	15.75
378.963	16.14
379.329	15.87
379.696	16.09
380.062	16.16
380.429	15.93
380.795	16.07
381.161	16.07
381.528	16.43
381.894	16.38
382.26	16.23
382.626	16.17
382.993	16.2
383.359	16.51
383.725	16.84
384.091	16.88
384.457	16.87
384.823	16.63
385.188	16.86
385.554	16.84
385.92	17.03
386.286	16.99
386.651	16.81
387.017	17.14
387.383	16.92
387.748	16.88
388.114	17.08
388.479	16.93
388.845	17.18
389.21	17.19
389.575	17.28
389.94	17.65
390.306	17.4
390.671	17.16
391.036	17.71
391.401	17.76
391.766	17.84
392.131	17.73
392.496	17.72
392.861	17.69
393.226	17.48
393.591	17.88
393.956	17.92
394.32	17.95
394.685	18.08
395.05	18.17
395.414	18.26
395.779	18.24
396.143	18.14
396.508	18.32
396.872	18.04
397.236	18.38
397.601	18.39
397.965	18.44
398.329	18.59
398.694	18.58
399.058	18.52
399.422	18.88
399.786	18.72
400.15	18.88
400.514	18.73
400.878	18.91
401.242	18.8
401.605	18.77
401.969	18.86
402.333	19.09
402.697	19.23
403.06	19.17
403.424	19.23
403.787	19.33
404.151	19.35
404.514	19.47
404.878	19.11
405.241	19.49
405.604	19.48
405.968	19.47
406.331	19.08
406.694	19.45
407.057	19.39
407.42	19.63
407.783	19.6
408.146	19.52
408.509	19.84
408.872	19.97
409.235	20.04
409.598	20.07
409.961	20.01
410.323	20.07
410.686	20.36
411.049	20.07
411.411	20.26
411.774	20.12
412.136	20.06
412.499	20.42
412.861	20.3
413.223	20.28
413.586	20.46
413.948	20.37
414.31	20.34
414.672	20.63
415.035	20.66
415.397	20.9
415.759	21
416.121	20.85
416.483	20.89
416.845	20.95
417.206	20.9
417.568	21.03
417.93	20.83
418.292	20.77
418.653	20.84
419.015	20.93
419.377	20.79
419.738	20.83
420.1	20.95
420.461	21.06
420.822	21.1
421.184	21
421.545	21.05
421.906	21.15
422.267	20.92
422.629	20.78
422.99	20.83
423.351	21.16
423.712	21.04
424.073	21.28
424.434	21.38
424.795	21.51
425.155	21.34
425.516	21.31
425.877	21.22
426.238	21.21
426.598	21.57
426.959	21.75
427.32	21.93
427.68	21.93
428.041	22.02
428.401	22.35
428.761	22.42
429.122	22.34
429.482	22.63
429.842	22.64
430.202	22.85
430.563	22.8
430.923	22.7
431.283	22.91
431.643	22.59
432.003	22.91
432.363	23.01
432.722	23.02
433.082	23.1
433.442	23.37
433.802	22.88
434.161	22.99
434.521	23.1
434.881	22.74
435.24	22.94
435.6	23.08
435.959	23.03
436.319	23.47
436.678	23.36
437.037	23.43
437.396	23.55
437.756	23.63
438.115	23.67
438.474	23.75
438.833	23.67
439.192	23.77
439.551	24.04
439.91	23.91
440.269	23.89
440.628	23.73
440.987	23.87
441.345	23.68
441.704	23.68
442.063	23.92
442.421	23.84
442.78	23.83
443.138	24.11
443.497	24.18
443.855	24.36
444.214	24.53
444.572	24.67
444.93	24.5
445.288	24.47
445.647	24.7
446.005	24.51
446.363	24.66
446.721	24.48
447.079	24.5
447.437	24.3
447.795	24.25
448.153	24.37
448.51	24.29
448.868	24.55
449.226	24.55
449.584	24.71
449.941	25.03
450.299	25.09
450.656	25.2
451.014	25.55
451.371	25.53
451.729	25.62
452.086	25.74
452.443	25.67
452.801	25.72
453.158	25.65
453.515	25.63
453.872	25.66
454.229	25.89
454.586	25.77
454.943	25.91
455.3	26.06
455.657	26.03
456.014	26.28
456.371	26.25
456.727	26.1
457.084	26.38
457.441	26.26
457.797	26.37
458.154	26.57
458.51	26.62
458.867	26.63
459.223	26.7
459.58	26.66
459.936	26.39
460.292	26.54
460.648	26.47
461.005	26.3
461.361	26.3
461.717	26.23
462.073	26.15
462.429	26.37
462.785	26.84
463.141	26.76
463.496	26.81
463.852	27.27
464.208	27.28
464.564	27.33
464.919	27.47
465.275	27.48
465.631	27.59
465.986	27.71
466.342	27.57
466.697	27.6
467.052	27.69
467.408	27.87
467.763	27.85
468.118	27.81
468.473	27.93
468.829	27.56
469.184	27.81
469.539	27.84
469.894	27.72
470.249	27.91
470.603	28.23
470.958	28.02
471.313	27.99
471.668	28.13
472.023	28.31
472.377	28.51
472.732	28.51
473.086	28.4
473.441	28.73
473.795	28.85
474.15	28.6
474.504	28.49
474.859	28.68
475.213	28.76
475.567	29
475.921	28.87
476.275	28.99
476.63	29.11
476.984	29.14
477.338	29.05
477.692	29.11
478.045	28.94
478.399	29.06
478.753	29.15
479.107	29.22
479.461	29.17
479.814	29.31
480.168	29.26
480.521	29.24
480.875	29.35
481.228	29.45
481.582	29.54
481.935	29.44
482.289	29.5
482.642	29.53
482.995	29.52
483.348	29.39
483.701	29.37
484.055	29.33
484.408	29.29
484.761	29.06
485.114	28.75
485.466	28.41
485.819	28.41
486.172	28.64
486.525	28.74
486.878	29.13
487.23	29.31
487.583	29.47
487.936	29.46
488.288	29.5
488.641	29.33
488.993	29.09
489.345	29.13
489.698	29.09
490.05	29.25
490.402	29.57
490.754	29.8
491.107	29.97
491.459	30.27
491.811	30.52
492.163	30.55
492.515	30.45
492.866	30.09
493.218	29.78
493.57	29.71
493.922	29.91
494.274	30.19
494.625	30.5
494.977	30.66
495.328	31.09
495.68	31.33
496.031	31.5
496.383	31.41
496.734	31.57
497.086	31.45
497.437	31.56
497.788	31.56
498.139	31.57
498.49	31.26
498.842	31.4
499.193	31.49
499.544	31.37
499.894	31.68
500.245	31.64
500.596	31.81
500.947	31.72
501.298	31.89
501.648	32.16
501.999	32.28
502.35	32.28
502.7	32.25
503.051	32.54
503.401	32.5
503.752	32.45
504.102	32.41
504.452	32.54
504.803	32.58
505.153	32.67
505.503	32.62
505.853	32.7
506.203	32.71
506.553	32.7
506.903	32.74
507.253	32.95
507.603	32.9
507.953	33.01
508.303	32.96
508.652	32.95
509.002	33.13
509.352	33.03
509.701	32.77
510.051	32.96
510.4	33
510.75	33.02
511.099	33.09
511.449	33.01
511.798	33.22
512.147	33.23
512.496	33.47
512.846	33.45
513.195	33.43
513.544	33.7
513.893	33.46
514.242	33.4
514.591	33.46
514.939	33.72
515.288	33.79
515.637	33.83
515.986	33.9
516.334	34.18
516.683	34.21
517.032	34.36
517.38	34.39
517.729	34.29
518.077	34.5
518.426	34.37
518.774	34.28
519.122	34.11
519.47	34.19
519.819	33.9
520.167	33.87
520.515	33.74
520.863	33.8
521.211	34.18
521.559	34.26
521.907	34.35
522.255	34.35
522.602	34.7
522.95	34.68
523.298	35
523.645	35.13
523.993	35.16
524.341	35.23
524.688	35.31
525.036	35.34
525.383	35.44
525.73	35.43
526.078	35.18
526.425	35.23
526.772	35.18
527.119	34.79
527.466	34.98
527.814	34.85
528.161	34.9
528.508	34.98
528.854	35.23
529.201	35.32
529.548	35.12
529.895	34.59
530.242	34.5
530.588	34.41
530.935	34.73
531.282	34.74
531.628	34.87
531.975	35.1
532.321	35.33
532.667	35.58
533.014	35.78
533.36	35.85
533.706	35.72
534.052	35.87
534.399	35.87
534.745	35.45
535.091	35.19
535.437	35.34
535.783	35.56
536.129	35.88
536.474	35.97
536.82	36.36
537.166	36.6
537.512	36.58
537.857	36.44
538.203	36.26
538.549	36.31
538.894	36.42
539.239	36.31
539.585	36.5
539.93	36.76
540.276	37.11
540.621	37.41
540.966	37.5
541.311	37.48
541.656	37.36
542.001	37.27
542.346	37.13
542.691	36.7
543.036	36.1
543.381	36.05
543.726	36.33
544.071	36.57
544.415	36.9
544.76	36.97
545.105	37.15
545.449	37.2
545.794	37.47
546.138	37.65
546.483	37.75
546.827	37.77
547.171	37.82
547.516	37.57
547.86	37.84
548.204	37.94
548.548	37.5
548.892	37.67
549.236	37.83
549.58	38.09
549.924	38.35
550.268	38.66
550.612	38.85
550.956	38.86
551.3	38.9
551.643	38.92
551.987	39.02
552.33	39.1
552.674	39.19
553.017	39.31
553.361	38.99
553.704	39.24
554.048	39.18
554.391	38.85
554.734	39.12
555.077	38.98
555.42	39.32
555.764	39.35
556.107	39.36
556.45	39.71
556.793	39.68
557.135	39.69
557.478	39.66
557.821	39.8
558.164	40
558.507	40.17
558.849	40.1
559.192	39.78
559.534	40.24
559.877	40.33
560.219	40.26
560.562	40.35
560.904	40.29
561.246	40.31
561.589	40.41
561.931	40.34
562.273	40.74
562.615	40.54
562.957	40.29
563.299	40.47
563.641	40.58
563.983	40.63
564.325	40.55
564.667	40.57
565.008	40.83
565.35	40.79
565.692	40.71
566.033	40.87
566.375	40.91
566.716	40.83
567.058	40.74
567.399	40.77
567.741	40.71
568.082	40.68
568.423	40.58
568.764	40.83
569.105	41.03
569.447	41.28
569.788	41.36
570.129	41.13
570.47	41.63
570.811	41.49
571.151	41.55
571.492	41.53
571.833	41.43
572.174	41.5
572.514	41.89
572.855	41.64
573.195	41.46
573.536	41.52
573.876	41.33
574.217	41.51
574.557	41.48
574.898	41.73
575.238	41.88
575.578	42.05
575.918	41.75
576.258	42.08
576.598	42.05
576.938	42.06
577.278	42.15
577.618	42.14
577.958	42.44
578.298	42.3
578.638	42.41
578.977	42.64
579.317	42.5
579.657	42.77
579.996	42.51
580.336	42.83
580.675	42.96
581.014	42.67
581.354	43
581.693	43.08
582.032	43.15
582.372	43.17
582.711	43.37
583.05	43.44
583.389	43.01
583.728	43.21
584.067	43.53
584.406	43.41
584.745	43.39
585.083	43.89
585.422	43.45
585.761	43.7
586.1	43.58
586.438	43.8
586.777	43.57
587.115	43.86
587.454	43.74
587.792	43.71
588.13	44.15
588.469	43.7
588.807	44
589.145	44.13
589.483	43.99
589.821	44.13
590.159	44.01
590.497	44.17
590.835	44.12
591.173	44.28
591.511	44.13
591.849	44.01
592.187	43.93
592.524	44.25
592.862	43.97
593.2	44.38
593.537	44.23
593.875	44.73
594.212	44.63
594.55	44.89
594.887	44.88
595.224	44.76
595.561	44.81
595.899	44.8
596.236	44.52
596.573	44.65
596.91	44.89
597.247	44.83
597.584	45.04
597.921	44.79
598.258	45.08
598.594	44.58
598.931	44.44
599.268	44.55
599.604	44.77
599.941	45.06
600.277	45.15
600.614	45.34
600.95	45.49
601.287	45.57
601.623	45.74
601.959	45.78
602.296	45.64
602.632	45.92
602.968	45.5
603.304	45.66
603.64	46.01
603.976	45.62
604.312	45.71
604.648	45.79
604.984	45.69
605.319	45.66
605.655	45.42
605.991	45.54
606.326	45.42
606.662	45.69
606.998	45.38
607.333	45.69
607.668	45.87
608.004	45.99
608.339	46.38
608.674	46.13
609.01	46.5
609.345	46.37
609.68	46.39
610.015	46.46
610.35	46.6
610.685	46.48
611.02	46.1
611.355	46.11
611.689	46.23
612.024	46.33
612.359	46.24
612.694	46.67
613.028	46.7
613.363	46.73
613.697	47.02
614.032	47.46
614.366	47.44
614.7	46.73
615.035	47.25
615.369	47.64
615.703	47.11
616.037	47.34
616.371	47.53
616.705	47.31
617.039	47.62
617.373	47.73
617.707	47.53
618.041	47.95
618.375	47.66
618.709	47.89
619.042	47.59
619.376	47.51
619.71	47.82
620.043	47.94
620.377	47.81
620.71	48.29
621.043	48.04
621.377	48.07
621.71	48.36
622.043	48.56
622.376	48.14
622.709	48.19
623.043	48.24
623.376	48.54
623.709	48.54
624.041	48.69
624.374	48.94
624.707	48.41
625.04	48.45
625.373	48.49
625.705	48.8
626.038	48.65
626.37	48.52
626.703	48.53
627.035	48.52
627.368	48.85
627.7	48.83
628.032	48.55
628.365	48.6
628.697	48.9
629.029	48.8
629.361	48.56
629.693	48.61
630.025	48.4
630.357	48.6
630.689	49.16
631.021	49.01
631.353	48.98
631.684	49.5
632.016	49
632.348	49.48
632.679	49.43
633.011	49.21
633.342	49.22
633.674	49.46
634.005	49.6
634.336	49.57
634.668	49.79
634.999	49.99
635.33	49.6
635.661	49.51
635.992	49.68
636.323	49.36
636.654	49.71
636.985	49.8
637.316	50.13
637.647	50.47
637.977	50.16
638.308	49.98
638.639	50.34
638.969	50.07
639.3	50.52
639.63	50.36
639.961	50.36
640.291	50.37
640.622	50.31
640.952	50.58
641.282	50.34
641.612	50.45
641.943	50.57
642.273	50.31
642.603	50.54
642.933	50.12
643.263	50.48
643.592	50.84
643.922	50.64
644.252	51.15
644.582	51.12
644.911	51.1
645.241	50.97
645.571	50.91
645.9	50.99
646.23	50.99
646.559	50.73
646.888	50.6
647.218	51.43
647.547	51.35
647.876	50.39
648.205	51.35
648.534	50.95
648.863	50.92
649.192	51.32
649.521	51.33
649.85	51.22
650.179	51.59
650.508	51.06
650.837	50.89
651.165	51.74
651.494	51.41
651.822	50.91
652.151	51.33
652.479	51.62
652.808	51.68
653.136	51.63
653.465	52.09
653.793	52.09
654.121	51.47
654.449	52.24
654.777	51.62
655.105	52.43
655.433	52.48
655.761	51.63
656.089	51.87
656.417	52.2
656.745	52.1
657.073	52.31
657.4	52.58
657.728	52.26
658.056	52.37
658.383	52.6
658.711	52.21
659.038	52.44
659.365	52.98
659.693	52.92
660.02	52.56
660.347	52.78
660.674	52.25
661.001	52.04
661.329	52.32
661.656	52.47
661.982	52.79
662.309	52.43
662.636	53.1
662.963	52.22
663.29	52.33
663.616	52.38
663.943	52.97
664.27	52.92
664.596	52.73
664.923	52.15
665.249	52.98
665.576	52.9
665.902	53.14
666.228	53.41
666.554	53.15
666.881	53.15
667.207	52.72
667.533	53.44
667.859	52.94
668.185	52.91
668.511	53.15
668.837	53.06
669.162	53.31
669.488	53.34
669.814	53.57
670.139	53.37
670.465	52.99
670.791	53.8
671.116	54.13
