Data from 2019-3_crown_Reflection__4__169.txt Node

Date: Fri Nov 11 18:12:18 CST 2022
User: ToomeyLab
Spectrometer: FLMS14357
Trigger mode: 0
Integration Time (sec): 1.000000E-2
Scans to average: 100
Electric dark correction enabled: true
Nonlinearity correction enabled: false
Boxcar width: 0
XAxis mode: Wavelengths
Number of Pixels in Spectrum: 2048
>>>>>Begin Spectral Data<<<<<
189.047	73.15
189.435	73.15
189.823	73.15
190.211	446.79
190.599	65.67
190.987	61.93
191.375	75.97
191.763	33.02
192.151	26.41
192.538	45.47
192.926	-1322.43
193.314	89.47
193.702	-300.66
194.089	-133.08
194.477	47.54
194.864	-564.86
195.252	2.58
195.639	321.55
196.027	-197.83
196.414	-12.95
196.801	422.24
197.189	-129.77
197.576	19.58
197.963	28.06
198.351	21.05
198.738	-4.25
199.125	-6.23
199.512	-15.43
199.899	27.71
200.286	-45.3
200.673	-21.61
201.06	-50.16
201.447	-7.49
201.833	26.04
202.22	-14.17
202.607	36.3
202.994	31.28
203.38	27.88
203.767	-3.16
204.154	-40.57
204.54	15.98
204.927	-59.68
205.313	15.86
205.699	-9.36
206.086	-10.29
206.472	-48.61
206.858	15.46
207.245	1.36
207.631	14.26
208.017	-13.83
208.403	-12.21
208.789	28.71
209.175	-15.5
209.561	-16.96
209.947	2.65
210.333	29.97
210.719	12.63
211.105	28.34
211.491	32.14
211.876	-9.69
212.262	-28.27
212.648	24.7
213.034	13.53
213.419	-19.63
213.805	-5
214.19	-18.46
214.576	-4.23
214.961	-5.95
215.346	-8.38
215.732	11.81
216.117	22.55
216.502	18.67
216.888	-31.06
217.273	-15.52
217.658	7.2
218.043	6.37
218.428	30.96
218.813	12.65
219.198	24.54
219.583	-3.37
219.968	-16.63
220.353	25.45
220.738	0.21
221.122	-19.64
221.507	9
221.892	7.74
222.276	3.69
222.661	13.76
223.046	8.03
223.43	0.07
223.815	-6.59
224.199	-9.57
224.583	14.5
224.968	7.6
225.352	-2.7
225.736	0.06
226.121	3.11
226.505	1.48
226.889	3.74
227.273	4.4
227.657	7.27
228.041	-0.12
228.425	0.05
228.809	4.21
229.193	3.02
229.577	2.99
229.961	2.59
230.344	3.47
230.728	2.46
231.112	2.32
231.495	2.74
231.879	3.2
232.263	4.04
232.646	2.18
233.03	1.74
233.413	3.43
233.797	2.52
234.18	1.04
234.563	-0.69
234.946	2.66
235.33	3.14
235.713	1.12
236.096	2.43
236.479	0.82
236.862	2.26
237.245	1.73
237.628	0.4
238.011	1.43
238.394	3.02
238.777	2.14
239.16	2.87
239.543	2.36
239.925	2.07
240.308	2.6
240.691	5.66
241.073	4.02
241.456	3.17
241.838	2.82
242.221	2.62
242.603	1.92
242.986	2.37
243.368	2.96
243.75	2.84
244.133	2.79
244.515	2.86
244.897	2.98
245.279	2.9
245.661	2.76
246.043	2.71
246.425	3.02
246.807	2.78
247.189	2.57
247.571	2.84
247.953	2.92
248.335	2.79
248.717	2.88
249.098	2.78
249.48	2.89
249.862	3.19
250.243	2.68
250.625	2.63
251.006	2.19
251.388	2.47
251.769	2.48
252.151	3.83
252.532	3.14
252.913	2.15
253.295	2.23
253.676	3.12
254.057	2.29
254.438	2.44
254.819	2.72
255.2	3.82
255.581	2.27
255.962	2.16
256.343	2.63
256.724	2.09
257.105	2.15
257.486	2.25
257.867	1.73
258.247	2.61
258.628	2.98
259.009	2.06
259.389	2.43
259.77	3.2
260.15	2.2
260.531	2.34
260.911	2.38
261.292	2.22
261.672	2.55
262.052	2.53
262.432	2.33
262.813	2.63
263.193	2.9
263.573	2.65
263.953	2.27
264.333	1.98
264.713	2.96
265.093	2.35
265.473	3.15
265.853	2.38
266.233	3.2
266.612	2.78
266.992	1.81
267.372	3.35
267.752	2.68
268.131	2.96
268.511	2.42
268.89	2.69
269.27	2.63
269.649	2.8
270.029	2.53
270.408	2.05
270.787	3.09
271.167	3.18
271.546	2.77
271.925	2.44
272.304	2.83
272.683	2.55
273.062	2.57
273.441	1.83
273.82	2.54
274.199	2.68
274.578	2.08
274.957	2.65
275.336	2.25
275.715	2.87
276.093	2.41
276.472	2.7
276.851	2.6
277.229	2.79
277.608	1.88
277.986	2.57
278.365	2.6
278.743	2.73
279.122	2.51
279.5	2.15
279.878	2.7
280.257	2.43
280.635	2.05
281.013	2.41
281.391	2.33
281.769	2.01
282.147	2.94
282.525	2.78
282.903	2.5
283.281	3.16
283.659	2.45
284.037	2.58
284.415	2.43
284.792	2.9
285.17	2.55
285.548	2.41
285.925	2.03
286.303	2.28
286.68	2.22
287.058	2.59
287.435	2.5
287.813	2.63
288.19	2.47
288.567	1.84
288.945	2.39
289.322	2.67
289.699	2.15
290.076	2.66
290.453	2.56
290.83	2.06
291.207	2.39
291.584	2.64
291.961	2.37
292.338	2.43
292.715	2.32
293.092	2.51
293.469	2.13
293.845	2.29
294.222	2.73
294.599	2.32
294.975	1.76
295.352	2.51
295.728	2.26
296.105	2.46
296.481	2.84
296.858	2.95
297.234	2.19
297.61	2.53
297.986	2.01
298.363	2.47
298.739	2.1
299.115	2.49
299.491	2.2
299.867	3.1
300.243	1.87
300.619	2.27
300.995	2.67
301.371	2.87
301.746	2.27
302.122	2.37
302.498	2.8
302.874	2.83
303.249	2.27
303.625	2.54
304	2.45
304.376	2.35
304.751	2.21
305.127	2.28
305.502	2.2
305.878	2.25
306.253	2.38
306.628	1.87
307.003	2.67
307.378	2.08
307.754	2.34
308.129	2.6
308.504	2.05
308.879	2.74
309.254	2.67
309.629	2.5
310.003	2.56
310.378	2.34
310.753	2.15
311.128	2.47
311.502	1.9
311.877	2.26
312.252	2.82
312.626	2.53
313.001	2.58
313.375	1.89
313.75	2.47
314.124	2.46
314.498	2.1
314.873	2.3
315.247	2.13
315.621	2.42
315.995	2.19
316.369	2.44
316.743	2.55
317.117	2.58
317.491	2.23
317.865	2.62
318.239	2.79
318.613	2.61
318.987	2.3
319.361	2.83
319.734	2.85
320.108	1.89
320.482	2.59
320.855	2.27
321.229	2.59
321.602	2.39
321.976	2.94
322.349	2.55
322.723	2.95
323.096	2.58
323.469	2.74
323.843	2.1
324.216	2.54
324.589	2.5
324.962	2.11
325.335	1.93
325.708	2.55
326.081	2.52
326.454	2.45
326.827	2.59
327.2	2.86
327.573	2.46
327.945	2.77
328.318	2.36
328.691	2.48
329.063	2.22
329.436	2.68
329.809	2.74
330.181	2.13
330.553	2.55
330.926	2.45
331.298	2.16
331.671	2.52
332.043	2.46
332.415	2.35
332.787	2.11
333.159	2
333.532	1.89
333.904	2.73
334.276	2.73
334.648	1.82
335.02	2.06
335.391	2.09
335.763	2.4
336.135	2.09
336.507	2.66
336.879	2.6
337.25	2.63
337.622	2.67
337.993	2.88
338.365	3.19
338.736	2.45
339.108	2.58
339.479	2.24
339.851	2.63
340.222	2.46
340.593	2.52
340.964	2.16
341.336	2.05
341.707	2.56
342.078	2.27
342.449	2.31
342.82	2.73
343.191	2.8
343.562	2.89
343.933	2.32
344.303	2.34
344.674	2.31
345.045	2.67
345.416	2.8
345.786	2.43
346.157	2.55
346.527	2.73
346.898	2.29
347.268	2.54
347.639	2.48
348.009	2.61
348.38	2.87
348.75	2.75
349.12	2.71
349.49	2.42
349.861	2.32
350.231	2.8
350.601	2.49
350.971	2.48
351.341	2.89
351.711	2.8
352.081	2.25
352.45	2.31
352.82	2.3
353.19	2.6
353.56	2.89
353.929	2.29
354.299	2.47
354.669	2.48
355.038	2.6
355.408	2.34
355.777	2.4
356.147	2.64
356.516	2.2
356.885	2.72
357.254	2.91
357.624	2.28
357.993	2.5
358.362	2.59
358.731	2.47
359.1	2.88
359.469	2.58
359.838	2.58
360.207	2.65
360.576	2.24
360.945	2.51
361.314	2.51
361.682	2.49
362.051	2.58
362.42	2.23
362.788	2.53
363.157	2.3
363.525	2.43
363.894	2.58
364.262	2.37
364.631	2.57
364.999	2.59
365.367	2.45
365.735	2.72
366.104	2.65
366.472	2.61
366.84	2.65
367.208	2.45
367.576	2.82
367.944	2.51
368.312	2.38
368.68	2.48
369.048	2.79
369.416	3.03
369.783	2.73
370.151	2.41
370.519	2.63
370.886	2.57
371.254	2.52
371.621	2.74
371.989	2.93
372.356	2.31
372.724	2.49
373.091	2.56
373.458	2.57
373.826	2.66
374.193	2.54
374.56	2.33
374.927	2.63
375.294	2.92
375.661	2.69
376.028	2.95
376.395	2.85
376.762	2.34
377.129	2.47
377.496	3.09
377.863	2.44
378.229	2.74
378.596	2.48
378.963	2.75
379.329	2.71
379.696	2.57
380.062	2.39
380.429	2.41
380.795	2.27
381.161	2.54
381.528	2.75
381.894	2.83
382.26	2.48
382.626	2.59
382.993	2.48
383.359	2.39
383.725	2.58
384.091	2.69
384.457	2.63
384.823	2.26
385.188	2.57
385.554	2.82
385.92	2.97
386.286	2.9
386.651	2.78
387.017	2.47
387.383	2.55
387.748	2.7
388.114	2.5
388.479	2.73
388.845	2.75
389.21	2.62
389.575	2.72
389.94	2.8
390.306	2.62
390.671	2.37
391.036	2.63
391.401	2.66
391.766	3.12
392.131	2.72
392.496	2.74
392.861	2.41
393.226	2.62
393.591	2.62
393.956	2.67
394.32	2.87
394.685	2.65
395.05	2.49
395.414	2.87
395.779	2.51
396.143	2.52
396.508	2.76
396.872	2.38
397.236	2.62
397.601	2.73
397.965	2.47
398.329	2.64
398.694	2.84
399.058	2.73
399.422	2.66
399.786	2.52
400.15	2.75
400.514	2.78
400.878	2.57
401.242	2.77
401.605	2.43
401.969	2.5
402.333	2.51
402.697	2.92
403.06	2.74
403.424	2.69
403.787	2.73
404.151	2.7
404.514	2.83
404.878	2.48
405.241	2.67
405.604	2.71
405.968	2.74
406.331	2.55
406.694	2.75
407.057	2.64
407.42	2.68
407.783	2.67
408.146	2.67
408.509	2.64
408.872	2.77
409.235	2.8
409.598	2.6
409.961	2.9
410.323	2.86
410.686	2.74
411.049	2.92
411.411	2.81
411.774	2.72
412.136	2.59
412.499	2.75
412.861	2.74
413.223	2.67
413.586	2.77
413.948	2.62
414.31	2.68
414.672	2.67
415.035	2.62
415.397	2.81
415.759	2.91
416.121	2.97
416.483	2.64
416.845	2.5
417.206	2.8
417.568	2.81
417.93	2.69
418.292	2.75
418.653	2.67
419.015	2.78
419.377	2.61
419.738	2.78
420.1	2.69
420.461	2.78
420.822	2.79
421.184	2.76
421.545	2.76
421.906	2.81
422.267	2.68
422.629	2.6
422.99	2.67
423.351	2.7
423.712	2.6
424.073	2.72
424.434	2.78
424.795	2.64
425.155	2.64
425.516	2.58
425.877	2.53
426.238	2.69
426.598	2.73
426.959	2.71
427.32	2.65
427.68	2.82
428.041	2.65
428.401	2.77
428.761	2.8
429.122	2.77
429.482	2.89
429.842	2.71
430.202	2.74
430.563	2.86
430.923	2.75
431.283	2.84
431.643	2.63
432.003	2.73
432.363	2.63
432.722	2.6
433.082	2.82
433.442	2.96
433.802	2.61
434.161	2.78
434.521	2.9
434.881	2.63
435.24	2.61
435.6	2.77
435.959	2.77
436.319	2.91
436.678	2.74
437.037	2.94
437.396	2.94
437.756	2.8
438.115	2.77
438.474	2.77
438.833	2.88
439.192	2.79
439.551	2.92
439.91	2.76
440.269	2.83
440.628	2.8
440.987	2.71
441.345	2.72
441.704	2.73
442.063	2.83
442.421	2.76
442.78	2.65
443.138	2.76
443.497	2.81
443.855	2.81
444.214	2.79
444.572	2.78
444.93	2.79
445.288	2.67
445.647	2.84
446.005	2.73
446.363	2.76
446.721	2.82
447.079	2.69
447.437	2.7
447.795	2.72
448.153	2.66
448.51	2.78
448.868	2.7
449.226	2.75
449.584	2.82
449.941	2.78
450.299	2.8
450.656	2.85
451.014	2.79
451.371	2.9
451.729	2.8
452.086	3.03
452.443	2.93
452.801	2.78
453.158	2.79
453.515	2.95
453.872	2.89
454.229	2.97
454.586	2.82
454.943	3
455.3	2.9
455.657	2.83
456.014	2.89
456.371	3.06
456.727	2.88
457.084	2.9
457.441	2.78
457.797	2.8
458.154	2.88
458.51	2.86
458.867	2.92
459.223	2.95
459.58	2.93
459.936	2.84
460.292	2.89
460.648	2.8
461.005	2.91
461.361	2.78
461.717	2.79
462.073	2.84
462.429	2.73
462.785	2.9
463.141	2.76
463.496	2.89
463.852	3.04
464.208	2.86
464.564	2.89
464.919	2.93
465.275	2.95
465.631	2.98
465.986	2.88
466.342	3.01
466.697	2.79
467.052	2.95
467.408	3.07
467.763	2.95
468.118	3
468.473	2.83
468.829	2.7
469.184	2.81
469.539	2.96
469.894	2.95
470.249	2.94
470.603	2.88
470.958	2.93
471.313	2.77
471.668	2.94
472.023	2.93
472.377	3.02
472.732	2.91
473.086	2.94
473.441	2.87
473.795	3.02
474.15	2.92
474.504	2.98
474.859	2.97
475.213	2.92
475.567	3.09
475.921	3.13
476.275	3.06
476.63	3.01
476.984	2.97
477.338	2.84
477.692	2.87
478.045	2.83
478.399	2.91
478.753	2.88
479.107	3.05
479.461	2.9
479.814	2.9
480.168	2.9
480.521	2.95
480.875	2.93
481.228	2.98
481.582	3.06
481.935	2.88
482.289	2.83
482.642	2.86
482.995	2.88
483.348	2.82
483.701	2.85
484.055	2.96
484.408	2.77
484.761	2.75
485.114	2.64
485.466	2.61
485.819	2.65
486.172	2.72
486.525	2.79
486.878	2.86
487.23	2.84
487.583	2.88
487.936	2.81
488.288	2.82
488.641	2.79
488.993	2.73
489.345	2.72
489.698	2.75
490.05	2.75
490.402	2.84
490.754	2.89
491.107	2.84
491.459	2.91
491.811	2.79
492.163	2.9
492.515	2.85
492.866	2.84
493.218	2.7
493.57	2.76
493.922	2.83
494.274	2.91
494.625	3
494.977	2.89
495.328	3.06
495.68	3.09
496.031	2.96
496.383	2.95
496.734	2.98
497.086	3
497.437	3.01
497.788	3.03
498.139	2.93
498.49	3.01
498.842	2.95
499.193	2.94
499.544	2.98
499.894	3.07
500.245	3.02
500.596	2.99
500.947	2.95
501.298	2.91
501.648	2.98
501.999	3.01
502.35	2.98
502.7	2.99
503.051	3.04
503.401	2.98
503.752	2.92
504.102	3.01
504.452	3.02
504.803	2.95
505.153	3.03
505.503	3.07
505.853	2.96
506.203	3.05
506.553	2.94
506.903	3.1
507.253	3.06
507.603	3.06
507.953	2.97
508.303	3
508.652	3.02
509.002	3.03
509.352	2.98
509.701	2.96
510.051	2.99
510.4	3.11
510.75	2.95
511.099	2.99
511.449	3.05
511.798	3.17
512.147	3.05
512.496	2.91
512.846	3.07
513.195	2.99
513.544	2.96
513.893	2.96
514.242	2.96
514.591	2.91
514.939	3.01
515.288	3.04
515.637	3.03
515.986	3.01
516.334	3.01
516.683	3
517.032	3.14
517.38	3.04
517.729	2.98
518.077	3.07
518.426	2.93
518.774	3.03
519.122	3.02
519.47	2.98
519.819	2.98
520.167	2.98
520.515	2.93
520.863	2.99
521.211	3
521.559	2.94
521.907	3.05
522.255	2.99
522.602	3.03
522.95	3.01
523.298	3.13
523.645	3.06
523.993	3.08
524.341	3.12
524.688	3.04
525.036	3.03
525.383	3.09
525.73	3.14
526.078	3.11
526.425	3.02
526.772	3.03
527.119	2.88
527.466	2.97
527.814	2.9
528.161	2.93
528.508	3.02
528.854	2.94
529.201	2.98
529.548	2.93
529.895	2.8
530.242	2.8
530.588	2.81
530.935	2.86
531.282	2.87
531.628	2.92
531.975	3.02
532.321	2.93
532.667	3
533.014	2.99
533.36	3.02
533.706	3.08
534.052	3.01
534.399	2.95
534.745	2.88
535.091	2.85
535.437	2.91
535.783	2.94
536.129	3.04
536.474	2.98
536.82	3.06
537.166	3.03
537.512	3.03
537.857	3.01
538.203	3.01
538.549	3.02
538.894	3.02
539.239	3
539.585	3.04
539.93	3.11
540.276	3.06
540.621	3.17
540.966	3.15
541.311	3.13
541.656	3.13
542.001	3.04
542.346	3.03
542.691	2.93
543.036	2.87
543.381	2.87
543.726	2.87
544.071	2.94
544.415	3.04
544.76	2.97
545.105	3.02
545.449	2.99
545.794	3.08
546.138	3.07
546.483	3.06
546.827	2.93
547.171	3.06
547.516	2.95
547.86	3
548.204	2.95
548.548	2.96
548.892	2.97
549.236	3.01
549.58	3.09
549.924	3.16
550.268	3.08
550.612	3.16
550.956	3.1
551.3	3.14
551.643	3.08
551.987	3.09
552.33	3.15
552.674	3.15
553.017	3.24
553.361	3.11
553.704	3.18
554.048	3.06
554.391	3.07
554.734	3.1
555.077	3.02
555.42	3.15
555.764	3.17
556.107	3.01
556.45	3.12
556.793	3.31
557.135	3.11
557.478	3.19
557.821	3.16
558.164	3.16
558.507	3.09
558.849	3.12
559.192	3.31
559.534	3.35
559.877	3.36
560.219	3.05
560.562	3.21
560.904	3.16
561.246	2.98
561.589	3.24
561.931	3.14
562.273	3.46
562.615	3.31
562.957	3.15
563.299	3.02
563.641	3.29
563.983	3.22
564.325	3.07
564.667	3.15
565.008	3.07
565.35	3.19
565.692	3.3
566.033	3.13
566.375	3.2
566.716	2.97
567.058	3.02
567.399	3.11
567.741	3.21
568.082	3.06
568.423	3.19
568.764	3.12
569.105	3.34
569.447	3.28
569.788	3.24
570.129	3.11
570.47	3.17
570.811	3.13
571.151	3.09
571.492	3
571.833	3.04
572.174	3.13
572.514	3.15
572.855	3.03
573.195	2.96
573.536	3.13
573.876	2.95
574.217	3.02
574.557	3.15
574.898	3.34
575.238	3.2
575.578	3.08
575.918	3.05
576.258	3.08
576.598	3.19
576.938	3.25
577.278	3.13
577.618	3.2
577.958	3.27
578.298	3.37
578.638	3.19
578.977	3.22
579.317	3.36
579.657	3.18
579.996	3.32
580.336	3.27
580.675	3.3
581.014	3.02
581.354	3.27
581.693	3.12
582.032	3.15
582.372	2.87
582.711	3.36
583.05	3.2
583.389	3
583.728	3.33
584.067	3.47
584.406	3.22
584.745	3.48
585.083	3.1
585.422	3.24
585.761	3.12
586.1	3.38
586.438	3.23
586.777	3.26
587.115	3.37
587.454	3.15
587.792	3.16
588.13	3.23
588.469	3.31
588.807	3.23
589.145	3.21
589.483	3.27
589.821	3.25
590.159	3.18
590.497	3.1
590.835	3.32
591.173	3.3
591.511	3.21
591.849	3.33
592.187	3.09
592.524	3.05
592.862	3.18
593.2	3.05
593.537	3.17
593.875	3.18
594.212	3.23
594.55	3.21
594.887	3.23
595.224	3.07
595.561	3.16
595.899	3.16
596.236	3.15
596.573	3.06
596.91	3.23
597.247	3.24
597.584	3.17
597.921	3.18
598.258	3.16
598.594	3.06
598.931	2.96
599.268	3.05
599.604	3.1
599.941	3.14
600.277	3.12
600.614	3.12
600.95	3.21
601.287	3.1
601.623	3.13
601.959	3.24
602.296	3.38
602.632	3.14
602.968	3.35
603.304	3.05
603.64	3.47
603.976	3.36
604.312	3.17
604.648	2.89
604.984	3.07
605.319	3.14
605.655	3.04
605.991	3.16
606.326	3.09
606.662	3.2
606.998	3.16
607.333	3.22
607.668	3.23
608.004	3.35
608.339	3.24
608.674	3.3
609.01	3.16
609.345	3.17
609.68	3.04
610.015	3.23
610.35	3.16
610.685	3.17
611.02	3.25
611.355	3.19
611.689	3.24
612.024	3.19
612.359	3.29
612.694	3.28
613.028	3.25
613.363	3.01
613.697	3.03
614.032	3.22
614.366	3.28
614.7	3.06
615.035	3.09
615.369	3.14
615.703	3.03
616.037	3.12
616.371	3.06
616.705	3.57
617.039	3.13
617.373	3.09
617.707	3.24
618.041	3.32
618.375	3.39
618.709	2.9
619.042	2.98
619.376	3.04
619.71	3.38
620.043	3.19
620.377	3.11
620.71	3.62
621.043	3.35
621.377	3.34
621.71	3.17
622.043	3.29
622.376	3.22
622.709	3.01
623.043	3.48
623.376	3.47
623.709	3.01
624.041	3.53
624.374	3.36
624.707	3.15
625.04	3.38
625.373	3.38
625.705	3.21
626.038	2.75
626.37	2.79
626.703	3.1
627.035	2.96
627.368	3.05
627.7	3.27
628.032	3.14
628.365	3.27
628.697	3.26
629.029	3.19
629.361	3.22
629.693	3.29
630.025	3.57
630.357	3.3
630.689	3.51
631.021	3.17
631.353	3.53
631.684	3.1
632.016	3.24
632.348	3.37
632.679	3.26
633.011	3.09
633.342	3.35
633.674	3.21
634.005	2.74
634.336	3.36
634.668	3.29
634.999	3.32
635.33	3.25
635.661	3.05
635.992	3.17
636.323	3.31
636.654	3.3
636.985	3.64
637.316	3.36
637.647	3.48
637.977	3.25
638.308	3.27
638.639	3.17
638.969	3.13
639.3	3.56
639.63	3.17
639.961	3.14
640.291	3.23
640.622	2.96
640.952	3.45
641.282	3.57
641.612	3.63
641.943	3.77
642.273	3.43
642.603	2.99
642.933	3.54
643.263	3.24
643.592	3.41
643.922	3.13
644.252	3.43
644.582	3.12
644.911	3.35
645.241	3.07
645.571	3.38
645.9	3.09
646.23	3.6
646.559	3.35
646.888	2.98
647.218	3.46
647.547	3.21
647.876	3.34
648.205	3.27
648.534	3.53
648.863	3.13
649.192	3.57
649.521	3.6
649.85	3.57
650.179	3.43
650.508	3.25
650.837	3.48
651.165	3.12
651.494	3.28
651.822	2.92
652.151	3.59
652.479	3.24
652.808	3.73
653.136	3.47
653.465	2.78
653.793	3.59
654.121	3.37
654.449	3.15
654.777	3.53
655.105	3.23
655.433	3.25
655.761	3.77
656.089	3.19
656.417	3.48
656.745	3.47
657.073	3.57
657.4	3.36
657.728	3.03
658.056	3.45
658.383	3.28
658.711	2.89
659.038	3.49
659.365	3.65
659.693	3.01
660.02	3.71
660.347	3.76
660.674	3.2
661.001	3.41
661.329	3.51
661.656	3.22
661.982	3.59
662.309	3.42
662.636	3.66
662.963	3.27
663.29	3.27
663.616	3.23
663.943	3.86
664.27	3.68
664.596	3.36
664.923	2.92
665.249	3.05
665.576	3.06
665.902	3.3
666.228	2.8
666.554	3.54
666.881	3.54
667.207	3.01
667.533	3.55
667.859	3.25
668.185	2.41
668.511	3.54
668.837	3.69
669.162	3.42
669.488	3.52
669.814	3.63
670.139	3.59
670.465	2.91
670.791	3.6
671.116	3.38
671.442	3.97
671.767	3.58
672.092	2.92
672.418	3.87
672.743	3.45
673.068	3.9
673.393	3.7
673.718	4.12
674.043	2.93
674.368	3.59
674.693	4
675.018	3.79
675.343	3.71
675.667	2.71
675.992	3.15
676.317	3.5
676.641	2.98
676.966	3.7
677.29	3.05
677.615	3.06
677.939	3.52
678.264	4.05
678.588	3.71
678.912	3.57
679.236	2.58
679.56	3.13
679.885	3.59
680.209	3.24
680.532	3.04
680.856	3.29
681.18	3.54
681.504	3.35
681.828	3.33
682.152	3.56
682.475	3.51
682.799	3.45
683.122	3.08
683.446	4.14
683.769	3.87
684.093	3.25
684.416	3.24
684.739	3.44
685.062	2.91
685.386	3.24
685.709	3.16
686.032	3.62
686.355	3.65
686.678	3.17
687.001	3.42
687.324	3.77
687.646	3.72
687.969	3.36
688.292	3.03
688.614	3.6
688.937	3.17
689.26	2.74
689.582	3.57
689.904	2.96
690.227	3.69
690.549	4.08
690.871	3.01
691.194	3.62
691.516	3.1
691.838	2.99
692.16	2.39
692.482	3.8
692.804	3.54
