Data from 2019-3_chest_Reflection__6__164.txt Node

Date: Fri Nov 11 18:10:07 CST 2022
User: ToomeyLab
Spectrometer: FLMS14357
Trigger mode: 0
Integration Time (sec): 1.000000E-2
Scans to average: 100
Electric dark correction enabled: true
Nonlinearity correction enabled: false
Boxcar width: 0
XAxis mode: Wavelengths
Number of Pixels in Spectrum: 2048
>>>>>Begin Spectral Data<<<<<
189.047	82.5
189.435	82.5
189.823	82.5
190.211	-549.54
190.599	61.25
190.987	-9.99
191.375	121.32
191.763	339.05
192.151	-37.83
192.538	55.6
192.926	-883.18
193.314	110.66
193.702	234.22
194.089	-101.54
194.477	124.66
194.864	892.28
195.252	-158.45
195.639	93.48
196.027	-52.32
196.414	-17.14
196.801	123.98
197.189	-753.07
197.576	68.71
197.963	-11.65
198.351	-12.12
198.738	14.05
199.125	25.21
199.512	-13.73
199.899	11.66
200.286	-4.31
200.673	-27.16
201.06	-25.14
201.447	1.66
201.833	23.73
202.22	-118.54
202.607	28.41
202.994	57.81
203.38	-9.33
203.767	13.19
204.154	-61.19
204.54	-4.72
204.927	-17
205.313	-7.25
205.699	-47.71
206.086	-21.26
206.472	-51.84
206.858	24.01
207.245	-9.63
207.631	-11.99
208.017	-22.49
208.403	19.77
208.789	21.57
209.175	-30.22
209.561	-11.06
209.947	-4.61
210.333	18.52
210.719	15.15
211.105	10.42
211.491	12.38
211.876	-9.32
212.262	-42.43
212.648	-0.08
213.034	-9.87
213.419	16.4
213.805	3.41
214.19	20.24
214.576	-23.61
214.961	-10.01
215.346	-19.27
215.732	8.91
216.117	8.02
216.502	-3.1
216.888	-16.2
217.273	-11.49
217.658	-6.71
218.043	-9.76
218.428	29.37
218.813	-4.82
219.198	12.32
219.583	9.07
219.968	-61.51
220.353	4.46
220.738	-10.5
221.122	-29.44
221.507	13.12
221.892	8.78
222.276	9.81
222.661	15.93
223.046	-0.56
223.43	-5.68
223.815	-0.88
224.199	-7.13
224.583	16.97
224.968	10.74
225.352	3.59
225.736	3.24
226.121	1.06
226.505	-1.91
226.889	-5.73
227.273	6.22
227.657	3.02
228.041	-0.28
228.425	-2.39
228.809	3.58
229.193	2.83
229.577	1.82
229.961	0.61
230.344	0.61
230.728	0.37
231.112	0.53
231.495	0.75
231.879	0.53
232.263	1.13
232.646	0.51
233.03	-0.31
233.413	0.01
233.797	1.89
234.18	-3.37
234.563	-0.25
234.946	-1.34
235.33	1.27
235.713	-2.43
236.096	1.56
236.479	-0.99
236.862	-0.57
237.245	0.3
237.628	-1.32
238.011	-0.81
238.394	0.52
238.777	-0.66
239.16	1.4
239.543	2.4
239.925	-0.34
240.308	0.97
240.691	2.07
241.073	2.13
241.456	0.73
241.838	0.5
242.221	1.04
242.603	0.32
242.986	0.57
243.368	0.62
243.75	0.76
244.133	0.25
244.515	0.93
244.897	0.67
245.279	0.34
245.661	0.12
246.043	0.08
246.425	0.87
246.807	0.32
247.189	1.32
247.571	0.64
247.953	-0.02
248.335	0.96
248.717	1.07
249.098	1.16
249.48	0.79
249.862	0.57
250.243	0.73
250.625	0.51
251.006	0.58
251.388	1.49
251.769	0.88
252.151	2.13
252.532	0.66
252.913	0.82
253.295	0.64
253.676	1.47
254.057	1.14
254.438	0.81
254.819	0.87
255.2	2.05
255.581	-0.53
255.962	1.08
256.343	1.32
256.724	0.65
257.105	-0.07
257.486	0.38
257.867	0.18
258.247	0.44
258.628	0.99
259.009	0.94
259.389	0.6
259.77	0.8
260.15	0.98
260.531	0.31
260.911	0.47
261.292	0.46
261.672	0.71
262.052	0.75
262.432	0.46
262.813	0.91
263.193	1.24
263.573	0.5
263.953	1.09
264.333	0.72
264.713	1.05
265.093	1.07
265.473	0.83
265.853	0.81
266.233	1.76
266.612	1.46
266.992	0.72
267.372	1.5
267.752	0.18
268.131	0.82
268.511	1.05
268.89	1.13
269.27	0.71
269.649	0.89
270.029	0.89
270.408	0.34
270.787	1.1
271.167	0.41
271.546	1.04
271.925	0.78
272.304	0.98
272.683	0.84
273.062	0.69
273.441	0.56
273.82	1.12
274.199	0.89
274.578	0.99
274.957	0.72
275.336	0.7
275.715	0.86
276.093	1.15
276.472	1.06
276.851	0.68
277.229	0.83
277.608	0.75
277.986	0.84
278.365	0.47
278.743	0.43
279.122	1.06
279.5	0.46
279.878	0.79
280.257	1.21
280.635	0.95
281.013	0.8
281.391	1.19
281.769	0.53
282.147	1.12
282.525	1.01
282.903	0.81
283.281	1.1
283.659	0.54
284.037	0.8
284.415	0.75
284.792	0.99
285.17	0.9
285.548	0.83
285.925	0.81
286.303	0.62
286.68	0.7
287.058	0.99
287.435	0.66
287.813	0.93
288.19	0.53
288.567	0.5
288.945	0.45
289.322	0.47
289.699	0.88
290.076	0.92
290.453	0.91
290.83	0.57
291.207	0.95
291.584	0.76
291.961	0.79
292.338	0.8
292.715	0.91
293.092	0.7
293.469	0.48
293.845	0.85
294.222	0.84
294.599	0.71
294.975	0.42
295.352	0.89
295.728	0.57
296.105	0.94
296.481	0.99
296.858	1.33
297.234	1.07
297.61	1.06
297.986	0.5
298.363	1.11
298.739	0.79
299.115	1.14
299.491	0.89
299.867	1.12
300.243	1.03
300.619	1.16
300.995	1.17
301.371	1.21
301.746	0.63
302.122	0.88
302.498	1.11
302.874	1.43
303.249	0.96
303.625	1.08
304	0.96
304.376	0.96
304.751	0.95
305.127	1.04
305.502	0.84
305.878	0.94
306.253	1.01
306.628	1.04
307.003	1.23
307.378	0.79
307.754	0.53
308.129	1.18
308.504	1
308.879	1.55
309.254	0.69
309.629	1.18
310.003	1.45
310.378	1.14
310.753	0.89
311.128	1.36
311.502	0.87
311.877	1.28
312.252	1.39
312.626	1.35
313.001	0.72
313.375	0.74
313.75	1.16
314.124	0.89
314.498	1.16
314.873	1.44
315.247	1.06
315.621	1.1
315.995	1
316.369	0.85
316.743	0.98
317.117	0.88
317.491	0.82
317.865	1.77
318.239	1.36
318.613	1.36
318.987	0.8
319.361	1.59
319.734	1.7
320.108	0.9
320.482	1.15
320.855	0.77
321.229	1.15
321.602	1.02
321.976	1.38
322.349	1.23
322.723	1.3
323.096	0.91
323.469	1.19
323.843	0.77
324.216	0.53
324.589	1.48
324.962	0.78
325.335	1.19
325.708	1.37
326.081	1.14
326.454	0.91
326.827	1.15
327.2	1.36
327.573	0.91
327.945	1.77
328.318	1.32
328.691	1.17
329.063	1.38
329.436	1.26
329.809	1.54
330.181	0.84
330.553	0.9
330.926	1.48
331.298	1.29
331.671	1.23
332.043	1.42
332.415	1.44
332.787	1
333.159	1.59
333.532	1.24
333.904	1.51
334.276	1.3
334.648	1.02
335.02	1.27
335.391	1.08
335.763	1.47
336.135	1.67
336.507	1.6
336.879	1.09
337.25	1.28
337.622	1.54
337.993	1.63
338.365	2.01
338.736	1.04
339.108	1.24
339.479	1.29
339.851	1.28
340.222	1
340.593	0.96
340.964	1.17
341.336	1.35
341.707	0.96
342.078	1.12
342.449	1.38
342.82	1.7
343.191	1.39
343.562	1.54
343.933	0.83
344.303	1.15
344.674	1.28
345.045	1.61
345.416	0.92
345.786	1.35
346.157	1.35
346.527	1.08
346.898	1.19
347.268	1.36
347.639	1.34
348.009	1.57
348.38	1.33
348.75	1.33
349.12	1.27
349.49	1.51
349.861	1.18
350.231	1.32
350.601	1.62
350.971	1.57
351.341	1.21
351.711	1.27
352.081	1.2
352.45	1.39
352.82	1.32
353.19	1.98
353.56	1.7
353.929	1.22
354.299	1.46
354.669	1.24
355.038	1.5
355.408	0.97
355.777	1.3
356.147	1.28
356.516	1.32
356.885	1.08
357.254	1.65
357.624	1.42
357.993	1.5
358.362	1.59
358.731	1.25
359.1	1.62
359.469	1.25
359.838	1.46
360.207	1.49
360.576	1.19
360.945	1.52
361.314	1.47
361.682	1.43
362.051	1.43
362.42	1.31
362.788	1.36
363.157	1.29
363.525	1.4
363.894	1.4
364.262	1.09
364.631	1.42
364.999	1.26
365.367	1.58
365.735	1.9
366.104	1.54
366.472	1.56
366.84	1.61
367.208	1.48
367.576	1.81
367.944	1.16
368.312	1.02
368.68	1.33
369.048	1.48
369.416	1.44
369.783	1.64
370.151	0.98
370.519	1.16
370.886	1.23
371.254	1.39
371.621	1.49
371.989	1.59
372.356	1.1
372.724	1.19
373.091	1.25
373.458	1.24
373.826	1.56
374.193	1.21
374.56	1.34
374.927	1.38
375.294	1.54
375.661	1.48
376.028	1.48
376.395	1.6
376.762	1.47
377.129	1.36
377.496	1.79
377.863	1.08
378.229	1.15
378.596	1.43
378.963	1.9
379.329	1.4
379.696	1.5
380.062	1.39
380.429	1.42
380.795	1.1
381.161	1.39
381.528	1.79
381.894	1.36
382.26	1.16
382.626	1.34
382.993	1.18
383.359	1.21
383.725	1.41
384.091	1.35
384.457	1.39
384.823	1.28
385.188	1.42
385.554	1.73
385.92	1.64
386.286	1.58
386.651	1.58
387.017	1.42
387.383	1.38
387.748	1.28
388.114	1.31
388.479	1.46
388.845	1.41
389.21	1.1
389.575	1.26
389.94	1.38
390.306	1.42
390.671	1.66
391.036	1.4
391.401	1.54
391.766	1.63
392.131	1.6
392.496	1.44
392.861	1.28
393.226	1.33
393.591	1.33
393.956	1.53
394.32	1.52
394.685	1.29
395.05	1.27
395.414	1.4
395.779	1.32
396.143	1.52
396.508	1.51
396.872	1.31
397.236	1.27
397.601	1.53
397.965	1.33
398.329	1.4
398.694	1.69
399.058	1.47
399.422	1.51
399.786	1.51
400.15	1.45
400.514	1.53
400.878	1.56
401.242	1.39
401.605	1.35
401.969	1.48
402.333	1.39
402.697	1.69
403.06	1.42
403.424	1.35
403.787	1.33
404.151	1.4
404.514	1.53
404.878	1.47
405.241	1.5
405.604	1.52
405.968	1.48
406.331	1.39
406.694	1.41
407.057	1.43
407.42	1.45
407.783	1.28
408.146	1.5
408.509	1.31
408.872	1.55
409.235	1.68
409.598	1.32
409.961	1.36
410.323	1.47
410.686	1.71
411.049	1.44
411.411	1.6
411.774	1.52
412.136	1.41
412.499	1.61
412.861	1.57
413.223	1.48
413.586	1.39
413.948	1.5
414.31	1.63
414.672	1.35
415.035	1.6
415.397	1.63
415.759	1.63
416.121	1.64
416.483	1.67
416.845	1.26
417.206	1.43
417.568	1.4
417.93	1.44
418.292	1.48
418.653	1.48
419.015	1.48
419.377	1.29
419.738	1.47
420.1	1.5
420.461	1.58
420.822	1.52
421.184	1.46
421.545	1.5
421.906	1.51
422.267	1.46
422.629	1.45
422.99	1.49
423.351	1.46
423.712	1.43
424.073	1.41
424.434	1.47
424.795	1.4
425.155	1.45
425.516	1.4
425.877	1.46
426.238	1.48
426.598	1.5
426.959	1.49
427.32	1.49
427.68	1.55
428.041	1.37
428.401	1.6
428.761	1.5
429.122	1.59
429.482	1.54
429.842	1.36
430.202	1.6
430.563	1.55
430.923	1.55
431.283	1.65
431.643	1.55
432.003	1.54
432.363	1.45
432.722	1.55
433.082	1.41
433.442	1.51
433.802	1.41
434.161	1.62
434.521	1.65
434.881	1.42
435.24	1.36
435.6	1.48
435.959	1.44
436.319	1.62
436.678	1.44
437.037	1.69
437.396	1.68
437.756	1.55
438.115	1.5
438.474	1.45
438.833	1.49
439.192	1.46
439.551	1.44
439.91	1.44
440.269	1.59
440.628	1.55
440.987	1.58
441.345	1.51
441.704	1.51
442.063	1.47
442.421	1.59
442.78	1.54
443.138	1.53
443.497	1.35
443.855	1.6
444.214	1.53
444.572	1.66
444.93	1.47
445.288	1.47
445.647	1.58
446.005	1.6
446.363	1.46
446.721	1.6
447.079	1.48
447.437	1.48
447.795	1.56
448.153	1.52
448.51	1.61
448.868	1.55
449.226	1.5
449.584	1.56
449.941	1.59
450.299	1.51
450.656	1.55
451.014	1.66
451.371	1.69
451.729	1.45
452.086	1.55
452.443	1.7
452.801	1.57
453.158	1.59
453.515	1.57
453.872	1.56
454.229	1.6
454.586	1.64
454.943	1.65
455.3	1.62
455.657	1.55
456.014	1.62
456.371	1.79
456.727	1.61
457.084	1.62
457.441	1.57
457.797	1.59
458.154	1.6
458.51	1.64
458.867	1.75
459.223	1.76
459.58	1.62
459.936	1.59
460.292	1.68
460.648	1.56
461.005	1.69
461.361	1.57
461.717	1.58
462.073	1.65
462.429	1.47
462.785	1.63
463.141	1.61
463.496	1.51
463.852	1.73
464.208	1.56
464.564	1.67
464.919	1.66
465.275	1.44
465.631	1.43
465.986	1.49
466.342	1.68
466.697	1.56
467.052	1.65
467.408	1.76
467.763	1.68
468.118	1.71
468.473	1.66
468.829	1.51
469.184	1.49
469.539	1.61
469.894	1.61
470.249	1.59
470.603	1.64
470.958	1.6
471.313	1.45
471.668	1.6
472.023	1.7
472.377	1.79
472.732	1.61
473.086	1.75
473.441	1.64
473.795	1.59
474.15	1.57
474.504	1.73
474.859	1.61
475.213	1.76
475.567	1.79
475.921	1.79
476.275	1.57
476.63	1.63
476.984	1.65
477.338	1.58
477.692	1.72
478.045	1.49
478.399	1.6
478.753	1.66
479.107	1.82
479.461	1.67
479.814	1.53
480.168	1.68
480.521	1.78
480.875	1.65
481.228	1.76
481.582	1.81
481.935	1.62
482.289	1.65
482.642	1.71
482.995	1.69
483.348	1.56
483.701	1.67
484.055	1.72
484.408	1.62
484.761	1.62
485.114	1.53
485.466	1.52
485.819	1.54
486.172	1.59
486.525	1.61
486.878	1.65
487.23	1.66
487.583	1.65
487.936	1.62
488.288	1.66
488.641	1.65
488.993	1.58
489.345	1.6
489.698	1.6
490.05	1.6
490.402	1.67
490.754	1.72
491.107	1.63
491.459	1.67
491.811	1.61
492.163	1.66
492.515	1.69
492.866	1.67
493.218	1.57
493.57	1.64
493.922	1.66
494.274	1.73
494.625	1.7
494.977	1.68
495.328	1.8
495.68	1.83
496.031	1.75
496.383	1.71
496.734	1.79
497.086	1.75
497.437	1.79
497.788	1.77
498.139	1.68
498.49	1.68
498.842	1.66
499.193	1.72
499.544	1.76
499.894	1.81
500.245	1.78
500.596	1.83
500.947	1.69
501.298	1.72
501.648	1.81
501.999	1.85
502.35	1.77
502.7	1.71
503.051	1.91
503.401	1.69
503.752	1.74
504.102	1.78
504.452	1.75
504.803	1.65
505.153	1.81
505.503	1.81
505.853	1.78
506.203	1.89
506.553	1.86
506.903	1.8
507.253	1.83
507.603	1.82
507.953	1.9
508.303	1.89
508.652	1.95
509.002	1.86
509.352	1.79
509.701	1.77
510.051	1.84
510.4	1.78
510.75	1.79
511.099	1.8
511.449	1.82
511.798	1.82
512.147	1.91
512.496	1.84
512.846	1.89
513.195	1.89
513.544	1.94
513.893	1.78
514.242	1.76
514.591	1.78
514.939	1.93
515.288	1.78
515.637	1.83
515.986	1.88
516.334	1.84
516.683	1.93
517.032	1.88
517.38	1.91
517.729	1.81
518.077	1.88
518.426	1.81
518.774	1.81
519.122	1.81
519.47	1.88
519.819	1.82
520.167	1.88
520.515	1.8
520.863	1.8
521.211	1.89
521.559	1.87
521.907	1.95
522.255	1.9
522.602	1.88
522.95	1.9
523.298	2
523.645	1.88
523.993	1.85
524.341	1.97
524.688	1.94
525.036	1.95
525.383	1.86
525.73	2.04
526.078	1.97
526.425	1.88
526.772	1.94
527.119	1.87
527.466	1.96
527.814	1.81
528.161	1.88
528.508	1.97
528.854	1.89
529.201	2.01
529.548	1.87
529.895	1.86
530.242	1.84
530.588	1.8
530.935	1.86
531.282	1.88
531.628	1.9
531.975	1.92
532.321	1.91
532.667	1.98
533.014	1.98
533.36	2.06
533.706	2.02
534.052	2
534.399	1.95
534.745	1.87
535.091	1.91
535.437	1.93
535.783	1.93
536.129	1.94
536.474	2
536.82	1.94
537.166	2.04
537.512	2.07
537.857	2.04
538.203	2.02
538.549	2.01
538.894	1.97
539.239	1.98
539.585	2.03
539.93	2.09
540.276	2.09
540.621	2.25
540.966	2.07
541.311	2.14
541.656	2.09
542.001	2.16
542.346	2.04
542.691	1.99
543.036	1.94
543.381	2.02
543.726	1.96
544.071	2.04
544.415	2.07
544.76	2.06
545.105	2.08
545.449	2.02
545.794	2.12
546.138	2.13
546.483	2.12
546.827	2.13
547.171	2.21
547.516	2.14
547.86	2.1
548.204	2.08
548.548	2.09
548.892	2.15
549.236	2.21
549.58	2.17
549.924	2.2
550.268	2.18
550.612	2.25
550.956	2.15
551.3	2.15
551.643	2.1
551.987	2.19
552.33	2.37
552.674	2.36
553.017	2.43
553.361	2.28
553.704	2.31
554.048	2.22
554.391	2.17
554.734	2.26
555.077	2.21
555.42	2.39
555.764	2.27
556.107	2.26
556.45	2.28
556.793	2.42
557.135	2.48
557.478	2.25
557.821	2.44
558.164	2.43
558.507	2.23
558.849	2.34
559.192	2.48
559.534	2.57
559.877	2.47
560.219	2.27
560.562	2.45
560.904	2.49
561.246	2.45
561.589	2.38
561.931	2.38
562.273	2.6
562.615	2.42
562.957	2.41
563.299	2.36
563.641	2.52
563.983	2.54
564.325	2.32
564.667	2.42
565.008	2.46
565.35	2.55
565.692	2.57
566.033	2.51
566.375	2.57
566.716	2.46
567.058	2.28
567.399	2.61
567.741	2.47
568.082	2.54
568.423	2.56
568.764	2.63
569.105	2.52
569.447	2.64
569.788	2.6
570.129	2.64
570.47	2.65
570.811	2.53
571.151	2.4
571.492	2.48
571.833	2.59
572.174	2.38
572.514	2.64
572.855	2.52
573.195	2.51
573.536	2.56
573.876	2.54
574.217	2.6
574.557	2.43
574.898	2.73
575.238	2.84
575.578	2.65
575.918	2.49
576.258	2.47
576.598	2.7
576.938	2.73
577.278	2.59
577.618	2.76
577.958	2.65
578.298	2.81
578.638	2.62
578.977	2.67
579.317	2.9
579.657	2.9
579.996	2.81
580.336	2.74
580.675	2.86
581.014	2.7
581.354	3.06
581.693	2.82
582.032	2.88
582.372	2.64
582.711	2.99
583.05	2.79
583.389	2.8
583.728	2.75
584.067	3.01
584.406	2.85
584.745	3.14
585.083	2.81
585.422	2.94
585.761	2.87
586.1	2.95
586.438	2.94
586.777	2.88
587.115	3.3
587.454	2.74
587.792	3.1
588.13	2.91
588.469	2.99
588.807	3.02
589.145	2.87
589.483	2.95
589.821	3.16
590.159	3.09
590.497	2.81
590.835	3.13
591.173	2.9
591.511	3.13
591.849	3.11
592.187	2.85
592.524	3.07
592.862	3.03
593.2	2.99
593.537	2.89
593.875	3.24
594.212	2.89
594.55	3.17
594.887	3.25
595.224	3.2
595.561	3.16
595.899	3.05
596.236	3.12
596.573	3.03
596.91	3.26
597.247	3.25
597.584	3.31
597.921	3.31
598.258	3.15
598.594	2.99
598.931	3.07
599.268	3.07
599.604	3.07
599.941	3.14
600.277	3.28
600.614	3.09
600.95	3.45
601.287	3.18
601.623	3.18
601.959	3.22
602.296	3.35
602.632	3.18
602.968	3.37
603.304	3.26
603.64	3.35
603.976	3.44
604.312	3.21
604.648	3.32
604.984	3.39
605.319	3.33
605.655	2.98
605.991	3.37
606.326	3.38
606.662	3.37
606.998	3.26
607.333	3.54
607.668	3.38
608.004	3.45
608.339	3.44
608.674	3.43
609.01	3.42
609.345	3.65
609.68	3.38
610.015	3.67
610.35	3.32
610.685	3.5
611.02	3.52
611.355	3.58
611.689	3.48
612.024	3.39
612.359	3.36
612.694	3.77
613.028	3.64
613.363	3.36
613.697	3.5
614.032	3.46
614.366	3.79
614.7	3.66
615.035	3.36
615.369	3.42
615.703	3.44
616.037	3.7
616.371	3.75
616.705	3.9
617.039	3.9
617.373	3.78
617.707	3.77
618.041	3.93
618.375	3.99
618.709	3.39
619.042	3.92
619.376	4.1
619.71	3.82
620.043	4.19
620.377	3.71
620.71	4.08
621.043	3.86
621.377	4.04
621.71	3.92
622.043	4.07
622.376	3.88
622.709	3.48
623.043	4.05
623.376	3.74
623.709	3.8
624.041	4.06
624.374	4.08
624.707	3.68
625.04	4.12
625.373	4.03
625.705	3.84
626.038	3.89
626.37	3.7
626.703	4.03
627.035	3.96
627.368	3.96
627.7	4.22
628.032	3.89
628.365	3.96
628.697	4.19
629.029	3.83
629.361	4.01
629.693	4.08
630.025	4.18
630.357	4.2
630.689	4.17
631.021	3.85
631.353	4.27
631.684	4.59
632.016	4.32
632.348	4.19
632.679	4.38
633.011	4.05
633.342	4.26
633.674	4.11
634.005	3.89
634.336	4.25
634.668	4.22
634.999	4.62
635.33	4.17
635.661	4.24
635.992	4.48
636.323	3.98
636.654	4.36
636.985	4.36
637.316	4.22
637.647	4.41
637.977	4.57
638.308	4.6
638.639	4.2
638.969	4.34
639.3	4.73
639.63	4.42
639.961	4.51
640.291	4.78
640.622	4.39
640.952	4.77
641.282	4.75
641.612	4.74
641.943	5.02
642.273	4.56
642.603	4.57
642.933	4.59
643.263	4.27
643.592	4.68
643.922	4.63
644.252	4.4
644.582	4.56
644.911	4.73
645.241	4.49
645.571	4.85
645.9	4.38
646.23	5.04
646.559	4.94
646.888	4.5
647.218	4.77
647.547	4.85
647.876	4.63
648.205	4.61
648.534	4.69
648.863	5.01
649.192	5.49
649.521	4.76
649.85	4.75
650.179	4.85
650.508	4.91
650.837	4.84
651.165	4.56
651.494	4.85
651.822	4.77
652.151	5.03
652.479	4.72
652.808	4.93
653.136	5.19
653.465	5.06
653.793	4.94
654.121	4.72
654.449	4.94
654.777	4.85
655.105	5.04
655.433	5.01
655.761	5.25
656.089	4.92
656.417	5.28
656.745	4.75
657.073	4.9
657.4	5.56
657.728	4.91
658.056	5.29
658.383	4.6
658.711	4.71
659.038	5.53
659.365	5.42
659.693	5.08
660.02	5.34
660.347	5.02
660.674	4.96
661.001	5.12
661.329	5.27
661.656	5.42
661.982	5.66
662.309	5.59
662.636	5.67
662.963	5.4
663.29	5.25
663.616	5.53
663.943	5.38
664.27	5.59
664.596	5.24
664.923	4.7
665.249	4.81
665.576	5.77
665.902	5.7
666.228	5.1
666.554	5.96
666.881	5.39
667.207	5.64
667.533	5.75
667.859	5.25
668.185	4.7
668.511	4.87
668.837	5.94
669.162	5.82
669.488	5.68
669.814	5.5
670.139	5.75
670.465	5.34
670.791	5.39
671.116	5.66
671.442	5.93
671.767	6.18
672.092	5.38
672.418	5.55
672.743	5.36
673.068	5.96
673.393	5.73
673.718	5.75
674.043	5.6
674.368	6.59
674.693	6.51
675.018	5.61
675.343	6.27
675.667	5.35
675.992	5.66
676.317	6.21
676.641	5.88
676.966	5.85
677.29	5.76
677.615	5.56
677.939	6.05
678.264	6.22
678.588	5.96
678.912	5.55
679.236	5.5
679.56	5.51
679.885	6.14
680.209	5.18
680.532	5.2
680.856	5.79
681.18	5.63
681.504	6.1
681.828	6.31
682.152	5.68
682.475	5.95
682.799	6.31
683.122	6.24
683.446	6.47
683.769	6.06
684.093	5.95
684.416	6.36
684.739	6.16
685.062	6.23
685.386	5.8
685.709	6.39
686.032	6.68
686.355	6.13
686.678	6.12
687.001	6.01
687.324	5.78
687.646	6.64
687.969	6.53
688.292	6.31
688.614	6.52
688.937	5.83
689.26	6.07
689.582	5.77
689.904	6.03
690.227	6.07
690.549	6.42
690.871	6.36
691.194	6.25
691.516	6.22
691.838	5.51
