Data from 2019-3_crown_Reflection__0__165.txt Node

Date: Fri Nov 11 18:11:25 CST 2022
User: ToomeyLab
Spectrometer: FLMS14357
Trigger mode: 0
Integration Time (sec): 1.000000E-2
Scans to average: 100
Electric dark correction enabled: true
Nonlinearity correction enabled: false
Boxcar width: 0
XAxis mode: Wavelengths
Number of Pixels in Spectrum: 2048
>>>>>Begin Spectral Data<<<<<
189.047	33.94
189.435	33.94
189.823	33.94
190.211	-1692.66
190.599	35.98
190.987	-24.14
191.375	181.71
191.763	236.09
192.151	168.92
192.538	3.12
192.926	670.09
193.314	158.87
193.702	288.04
194.089	131.97
194.477	115.67
194.864	440.54
195.252	-128.67
195.639	192.56
196.027	514.24
196.414	-5.86
196.801	494.2
197.189	21.68
197.576	-17.46
197.963	7.84
198.351	-14.88
198.738	1.28
199.125	13.13
199.512	33.51
199.899	29.44
200.286	-39.34
200.673	-35.32
201.06	-5.63
201.447	-12.74
201.833	29.54
202.22	-137.22
202.607	21.5
202.994	7.33
203.38	58.04
203.767	18
204.154	-1.79
204.54	30.44
204.927	-19.24
205.313	-6.5
205.699	-12.75
206.086	-28.68
206.472	-55.07
206.858	7
207.245	28.17
207.631	-3.58
208.017	-27.74
208.403	-1.12
208.789	9.35
209.175	-46.39
209.561	18.99
209.947	-3.54
210.333	47.65
210.719	17.84
211.105	-25.34
211.491	6.25
211.876	-33.53
212.262	-20.07
212.648	33.71
213.034	-2.71
213.419	-35.5
213.805	15.65
214.19	-19.86
214.576	-5.76
214.961	29.16
215.346	-5.75
215.732	12.13
216.117	27.83
216.502	-0.13
216.888	-35.15
217.273	-37.62
217.658	-25.39
218.043	-2.47
218.428	20.11
218.813	0.58
219.198	21.11
219.583	17.62
219.968	-34.52
220.353	22.06
220.738	9.21
221.122	-20.82
221.507	4.42
221.892	13.65
222.276	10.27
222.661	4.72
223.046	-0.65
223.43	-2.93
223.815	4.94
224.199	2.38
224.583	13.27
224.968	10.3
225.352	-0.05
225.736	5.54
226.121	5.47
226.505	3.86
226.889	0.97
227.273	3.52
227.657	1.62
228.041	5.3
228.425	1.81
228.809	3.84
229.193	2.58
229.577	2.17
229.961	4.96
230.344	3.77
230.728	3.77
231.112	3.59
231.495	4.56
231.879	4.15
232.263	5.56
232.646	2.85
233.03	2.92
233.413	3.39
233.797	2.86
234.18	-0.01
234.563	4.5
234.946	2.71
235.33	3.9
235.713	2.8
236.096	4.02
236.479	1.9
236.862	2.89
237.245	4.8
237.628	2.99
238.011	3.23
238.394	2.78
238.777	4.52
239.16	2.4
239.543	3.55
239.925	2.68
240.308	4.26
240.691	5.92
241.073	3.95
241.456	3.45
241.838	3.69
242.221	3.28
242.603	2.46
242.986	3.42
243.368	4.39
243.75	3.4
244.133	3.29
244.515	3.86
244.897	3.87
245.279	3.7
245.661	4.25
246.043	2.57
246.425	3.22
246.807	3.63
247.189	2.87
247.571	3.74
247.953	3.26
248.335	3.88
248.717	3.93
249.098	3.85
249.48	3.49
249.862	3.55
250.243	3.46
250.625	3.12
251.006	3.02
251.388	3.59
251.769	2.85
252.151	3.87
252.532	3.33
252.913	3.42
253.295	3.15
253.676	4.4
254.057	3.43
254.438	3.19
254.819	3.24
255.2	4.01
255.581	3.66
255.962	3.8
256.343	3.46
256.724	2.52
257.105	3.65
257.486	3.31
257.867	4.09
258.247	3.07
258.628	4.33
259.009	2.79
259.389	3.35
259.77	3.75
260.15	3.2
260.531	3.73
260.911	3.17
261.292	3.17
261.672	3.32
262.052	3.36
262.432	3.06
262.813	3.39
263.193	3.64
263.573	3.56
263.953	3.26
264.333	3.39
264.713	3.61
265.093	3.21
265.473	3.47
265.853	3.31
266.233	3.23
266.612	3.47
266.992	2.75
267.372	3.83
267.752	3.39
268.131	3.21
268.511	3.08
268.89	3.24
269.27	2.89
269.649	3.21
270.029	2.97
270.408	2.54
270.787	3.22
271.167	3.59
271.546	3.04
271.925	3.39
272.304	3.64
272.683	3.32
273.062	3.17
273.441	2.62
273.82	3.46
274.199	2.84
274.578	3.18
274.957	3.26
275.336	2.5
275.715	2.93
276.093	3.04
276.472	4.01
276.851	3.62
277.229	3.12
277.608	2.62
277.986	3
278.365	3.01
278.743	3.54
279.122	3.23
279.5	3.19
279.878	3.68
280.257	2.75
280.635	2.66
281.013	2.8
281.391	3.35
281.769	2.34
282.147	3.05
282.525	3.38
282.903	2.98
283.281	3.64
283.659	2.99
284.037	2.8
284.415	2.95
284.792	3.33
285.17	3.02
285.548	2.89
285.925	2.94
286.303	2.74
286.68	2.55
287.058	3.01
287.435	3
287.813	3.3
288.19	3.07
288.567	2.58
288.945	3.35
289.322	2.88
289.699	2.79
290.076	2.53
290.453	2.98
290.83	2.6
291.207	3.15
291.584	3.02
291.961	2.9
292.338	3.14
292.715	2.94
293.092	2.94
293.469	2.52
293.845	2.95
294.222	3.49
294.599	2.63
294.975	2.63
295.352	3.22
295.728	2.97
296.105	3.01
296.481	3.25
296.858	3.23
297.234	3.08
297.61	3.1
297.986	2.86
298.363	2.96
298.739	2.93
299.115	3.14
299.491	3.23
299.867	3.29
300.243	3.02
300.619	3.25
300.995	2.78
301.371	3.55
301.746	3.02
302.122	2.84
302.498	3.13
302.874	2.8
303.249	2.98
303.625	3.08
304	2.71
304.376	3.05
304.751	2.95
305.127	2.76
305.502	2.8
305.878	3.14
306.253	3.09
306.628	2.77
307.003	2.9
307.378	2.62
307.754	2.86
308.129	2.93
308.504	3
308.879	3.67
309.254	3.01
309.629	3
310.003	2.86
310.378	2.9
310.753	3
311.128	3.22
311.502	2.45
311.877	3.05
312.252	3.14
312.626	3.23
313.001	3.1
313.375	2.89
313.75	2.9
314.124	2.81
314.498	2.71
314.873	2.88
315.247	3.15
315.621	3.25
315.995	2.77
316.369	3.1
316.743	3.11
317.117	2.84
317.491	2.84
317.865	3.47
318.239	3.12
318.613	3.09
318.987	2.86
319.361	3.2
319.734	3.35
320.108	2.28
320.482	2.93
320.855	2.7
321.229	2.83
321.602	3.07
321.976	3.08
322.349	3.05
322.723	2.92
323.096	2.74
323.469	3.11
323.843	3.06
324.216	2.99
324.589	3.1
324.962	2.52
325.335	2.86
325.708	2.79
326.081	2.7
326.454	2.97
326.827	2.86
327.2	3.39
327.573	2.66
327.945	3.61
328.318	2.94
328.691	2.9
329.063	2.97
329.436	2.94
329.809	2.89
330.181	2.27
330.553	2.48
330.926	2.75
331.298	2.76
331.671	2.66
332.043	3.09
332.415	2.62
332.787	3.27
333.159	2.69
333.532	2.97
333.904	2.5
334.276	3.15
334.648	2.99
335.02	2.86
335.391	2.91
335.763	3.13
336.135	3.42
336.507	3.04
336.879	2.71
337.25	3.39
337.622	3.8
337.993	3.04
338.365	3.45
338.736	2.79
339.108	3.04
339.479	2.71
339.851	3.07
340.222	2.89
340.593	2.95
340.964	3.04
341.336	2.85
341.707	3.01
342.078	2.73
342.449	3.01
342.82	3.34
343.191	3.14
343.562	2.86
343.933	2.44
344.303	3.2
344.674	3.34
345.045	3.07
345.416	2.95
345.786	2.96
346.157	2.78
346.527	3.16
346.898	2.82
347.268	2.92
347.639	3.18
348.009	2.9
348.38	3.12
348.75	3.06
349.12	2.87
349.49	2.71
349.861	2.74
350.231	3.26
350.601	3.48
350.971	3.04
351.341	2.86
351.711	2.84
352.081	3.08
352.45	3.22
352.82	3.18
353.19	3.71
353.56	3.86
353.929	2.56
354.299	2.42
354.669	2.73
355.038	3.17
355.408	2.68
355.777	3.1
356.147	2.78
356.516	3
356.885	3.05
357.254	3.41
357.624	2.73
357.993	2.75
358.362	3.02
358.731	3.08
359.1	3.13
359.469	3.11
359.838	2.96
360.207	3.24
360.576	3.01
360.945	3.09
361.314	3.18
361.682	3.18
362.051	3.26
362.42	2.85
362.788	3.2
363.157	2.88
363.525	2.99
363.894	3.26
364.262	2.86
364.631	3.17
364.999	2.98
365.367	3.16
365.735	3.08
366.104	3.41
366.472	3.08
366.84	3.38
367.208	3.12
367.576	3.15
367.944	2.98
368.312	2.95
368.68	3.13
369.048	3.27
369.416	2.82
369.783	3.13
370.151	2.76
370.519	2.94
370.886	3.01
371.254	2.84
371.621	3.15
371.989	3.33
372.356	2.66
372.724	2.86
373.091	3.1
373.458	2.87
373.826	3.48
374.193	2.96
374.56	3.12
374.927	3.07
375.294	3.19
375.661	3.09
376.028	3.06
376.395	3.12
376.762	3.08
377.129	2.84
377.496	3.43
377.863	3.14
378.229	3.35
378.596	3.06
378.963	3.21
379.329	3.2
379.696	3.3
380.062	3.08
380.429	2.85
380.795	2.9
381.161	3.02
381.528	3.22
381.894	2.86
382.26	2.86
382.626	3.35
382.993	2.96
383.359	3.05
383.725	3.33
384.091	3.1
384.457	3.14
384.823	2.99
385.188	3.13
385.554	3.33
385.92	3.09
386.286	3.34
386.651	3.07
387.017	3.22
387.383	3.11
387.748	2.98
388.114	3.19
388.479	3.01
388.845	3.34
389.21	2.91
389.575	2.84
389.94	3.48
390.306	3.38
390.671	3.06
391.036	3.26
391.401	3.43
391.766	3.71
392.131	3.29
392.496	2.98
392.861	2.83
393.226	3.07
393.591	3.2
393.956	3.16
394.32	3.05
394.685	3.24
395.05	3.17
395.414	3.25
395.779	3.11
396.143	3.24
396.508	3.31
396.872	3.19
397.236	3.17
397.601	3.35
397.965	3.21
398.329	3.38
398.694	3.45
399.058	3.29
399.422	3.47
399.786	3.38
400.15	3.53
400.514	3.21
400.878	3.34
401.242	3.24
401.605	2.96
401.969	3.33
402.333	3.13
402.697	3.38
403.06	3.3
403.424	3.26
403.787	3.26
404.151	3.55
404.514	3.58
404.878	3.11
405.241	3.31
405.604	3.39
405.968	3.36
406.331	3.18
406.694	3.27
407.057	3.15
407.42	3.31
407.783	3.14
408.146	3.31
408.509	3.3
408.872	3.25
409.235	3.49
409.598	3.3
409.961	3.29
410.323	3.28
410.686	3.54
411.049	3.45
411.411	3.31
411.774	3.35
412.136	3.13
412.499	3.44
412.861	3.4
413.223	3.38
413.586	3.17
413.948	3.24
414.31	3.15
414.672	3.15
415.035	3.27
415.397	3.51
415.759	3.55
416.121	3.51
416.483	3.27
416.845	3.09
417.206	3.27
417.568	3.28
417.93	3.42
418.292	3.22
418.653	3.29
419.015	3.34
419.377	3.24
419.738	3.4
420.1	3.22
420.461	3.34
420.822	3.37
421.184	3.3
421.545	3.37
421.906	3.32
422.267	3.26
422.629	3.26
422.99	3.25
423.351	3.27
423.712	3.2
424.073	3.21
424.434	3.31
424.795	3.24
425.155	3.2
425.516	3.27
425.877	3.14
426.238	3.2
426.598	3.28
426.959	3.33
427.32	3.28
427.68	3.51
428.041	3.28
428.401	3.41
428.761	3.32
429.122	3.36
429.482	3.39
429.842	3.35
430.202	3.61
430.563	3.38
430.923	3.38
431.283	3.42
431.643	3.16
432.003	3.33
432.363	3.22
432.722	3.42
433.082	3.5
433.442	3.47
433.802	3.31
434.161	3.45
434.521	3.43
434.881	3.34
435.24	3.23
435.6	3.43
435.959	3.3
436.319	3.4
436.678	3.43
437.037	3.58
437.396	3.32
437.756	3.27
438.115	3.38
438.474	3.32
438.833	3.44
439.192	3.25
439.551	3.41
439.91	3.39
440.269	3.33
440.628	3.45
440.987	3.34
441.345	3.4
441.704	3.45
442.063	3.43
442.421	3.31
442.78	3.38
443.138	3.41
443.497	3.38
443.855	3.39
444.214	3.44
444.572	3.58
444.93	3.39
445.288	3.38
445.647	3.5
446.005	3.42
446.363	3.4
446.721	3.51
447.079	3.3
447.437	3.36
447.795	3.39
448.153	3.33
448.51	3.34
448.868	3.43
449.226	3.36
449.584	3.46
449.941	3.39
450.299	3.47
450.656	3.46
451.014	3.49
451.371	3.62
451.729	3.38
452.086	3.54
452.443	3.49
452.801	3.3
453.158	3.41
453.515	3.36
453.872	3.37
454.229	3.48
454.586	3.38
454.943	3.53
455.3	3.43
455.657	3.42
456.014	3.58
456.371	3.56
456.727	3.49
457.084	3.58
457.441	3.3
457.797	3.45
458.154	3.63
458.51	3.57
458.867	3.39
459.223	3.45
459.58	3.61
459.936	3.46
460.292	3.48
460.648	3.32
461.005	3.45
461.361	3.38
461.717	3.38
462.073	3.52
462.429	3.31
462.785	3.57
463.141	3.39
463.496	3.48
463.852	3.59
464.208	3.5
464.564	3.45
464.919	3.51
465.275	3.51
465.631	3.53
465.986	3.45
466.342	3.6
466.697	3.41
467.052	3.46
467.408	3.82
467.763	3.53
468.118	3.54
468.473	3.59
468.829	3.35
469.184	3.56
469.539	3.46
469.894	3.54
470.249	3.4
470.603	3.54
470.958	3.58
471.313	3.37
471.668	3.52
472.023	3.45
472.377	3.49
472.732	3.75
473.086	3.64
473.441	3.59
473.795	3.61
474.15	3.48
474.504	3.58
474.859	3.29
475.213	3.6
475.567	3.69
475.921	3.67
476.275	3.58
476.63	3.47
476.984	3.48
477.338	3.38
477.692	3.64
478.045	3.49
478.399	3.51
478.753	3.51
479.107	3.71
479.461	3.57
479.814	3.55
480.168	3.49
480.521	3.62
480.875	3.5
481.228	3.56
481.582	3.57
481.935	3.57
482.289	3.66
482.642	3.64
482.995	3.49
483.348	3.46
483.701	3.44
484.055	3.56
484.408	3.43
484.761	3.42
485.114	3.29
485.466	3.23
485.819	3.22
486.172	3.27
486.525	3.39
486.878	3.46
487.23	3.42
487.583	3.49
487.936	3.37
488.288	3.42
488.641	3.41
488.993	3.36
489.345	3.34
489.698	3.39
490.05	3.37
490.402	3.42
490.754	3.48
491.107	3.44
491.459	3.49
491.811	3.43
492.163	3.55
492.515	3.53
492.866	3.32
493.218	3.35
493.57	3.37
493.922	3.42
494.274	3.44
494.625	3.52
494.977	3.56
495.328	3.66
495.68	3.58
496.031	3.64
496.383	3.58
496.734	3.65
497.086	3.55
497.437	3.66
497.788	3.63
498.139	3.59
498.49	3.57
498.842	3.57
499.193	3.63
499.544	3.55
499.894	3.66
500.245	3.62
500.596	3.65
500.947	3.57
501.298	3.59
501.648	3.64
501.999	3.57
502.35	3.56
502.7	3.47
503.051	3.63
503.401	3.62
503.752	3.65
504.102	3.55
504.452	3.53
504.803	3.65
505.153	3.63
505.503	3.73
505.853	3.54
506.203	3.76
506.553	3.65
506.903	3.76
507.253	3.73
507.603	3.6
507.953	3.6
508.303	3.65
508.652	3.71
509.002	3.67
509.352	3.64
509.701	3.58
510.051	3.68
510.4	3.61
510.75	3.69
511.099	3.64
511.449	3.76
511.798	3.75
512.147	3.62
512.496	3.63
512.846	3.69
513.195	3.66
513.544	3.63
513.893	3.58
514.242	3.58
514.591	3.59
514.939	3.67
515.288	3.73
515.637	3.65
515.986	3.65
516.334	3.66
516.683	3.78
517.032	3.65
517.38	3.81
517.729	3.65
518.077	3.84
518.426	3.72
518.774	3.68
519.122	3.63
519.47	3.57
519.819	3.52
520.167	3.61
520.515	3.54
520.863	3.49
521.211	3.6
521.559	3.57
521.907	3.71
522.255	3.59
522.602	3.68
522.95	3.58
523.298	3.78
523.645	3.62
523.993	3.72
524.341	3.68
524.688	3.6
525.036	3.73
525.383	3.68
525.73	3.71
526.078	3.65
526.425	3.67
526.772	3.63
527.119	3.54
527.466	3.55
527.814	3.53
528.161	3.59
528.508	3.58
528.854	3.62
529.201	3.6
529.548	3.55
529.895	3.44
530.242	3.43
530.588	3.41
530.935	3.44
531.282	3.5
531.628	3.56
531.975	3.65
532.321	3.59
532.667	3.61
533.014	3.69
533.36	3.71
533.706	3.61
534.052	3.72
534.399	3.59
534.745	3.51
535.091	3.48
535.437	3.52
535.783	3.54
536.129	3.67
536.474	3.62
536.82	3.62
537.166	3.65
537.512	3.74
537.857	3.76
538.203	3.57
538.549	3.62
538.894	3.59
539.239	3.66
539.585	3.6
539.93	3.71
540.276	3.71
540.621	3.85
540.966	3.76
541.311	3.8
541.656	3.74
542.001	3.75
542.346	3.64
542.691	3.55
543.036	3.53
543.381	3.53
543.726	3.5
544.071	3.57
544.415	3.66
544.76	3.59
545.105	3.56
545.449	3.54
545.794	3.71
546.138	3.73
546.483	3.67
546.827	3.62
547.171	3.63
547.516	3.66
547.86	3.65
548.204	3.62
548.548	3.67
548.892	3.65
549.236	3.73
549.58	3.79
549.924	3.8
550.268	3.72
550.612	3.88
550.956	3.75
551.3	3.74
551.643	3.88
551.987	3.63
552.33	3.89
552.674	3.86
553.017	3.8
553.361	3.77
553.704	3.81
554.048	3.58
554.391	3.68
554.734	3.73
555.077	3.75
555.42	3.86
555.764	3.78
556.107	3.71
556.45	3.83
556.793	3.87
557.135	3.78
557.478	3.66
557.821	3.84
558.164	4.01
558.507	3.67
558.849	3.76
559.192	3.72
559.534	4
559.877	3.84
560.219	3.76
560.562	3.69
560.904	3.85
561.246	3.78
561.589	3.91
561.931	3.76
562.273	3.96
562.615	3.93
562.957	3.77
563.299	3.78
563.641	3.89
563.983	3.66
564.325	3.78
564.667	3.86
565.008	3.81
565.35	4.02
565.692	3.87
566.033	3.83
566.375	3.83
566.716	3.74
567.058	3.77
567.399	3.73
567.741	3.78
568.082	3.77
568.423	3.81
568.764	3.87
569.105	3.81
569.447	3.85
569.788	3.89
570.129	3.77
570.47	3.9
570.811	3.83
571.151	3.79
571.492	3.81
571.833	3.68
572.174	3.72
572.514	4
572.855	3.72
573.195	3.57
573.536	3.82
573.876	3.65
574.217	3.77
574.557	3.73
574.898	3.96
575.238	3.92
575.578	3.72
575.918	3.76
576.258	3.7
576.598	3.73
576.938	3.84
577.278	3.8
577.618	3.81
577.958	3.66
578.298	3.91
578.638	3.76
578.977	3.83
579.317	3.85
579.657	4.02
579.996	3.9
580.336	4
580.675	3.84
581.014	3.6
581.354	4.09
581.693	3.97
582.032	4.06
582.372	3.94
582.711	3.99
583.05	3.85
583.389	3.86
583.728	3.79
584.067	4
584.406	3.99
584.745	4.1
585.083	3.82
585.422	3.73
585.761	4.04
586.1	3.98
586.438	3.71
586.777	3.98
587.115	3.9
587.454	3.7
587.792	3.98
588.13	4.03
588.469	3.98
588.807	3.83
589.145	4.01
589.483	3.95
589.821	3.98
590.159	3.99
590.497	3.69
590.835	4.1
591.173	3.85
591.511	3.97
591.849	3.93
592.187	3.78
592.524	3.81
592.862	3.73
593.2	3.78
593.537	3.65
593.875	3.96
594.212	3.94
594.55	3.79
594.887	3.96
595.224	4.01
595.561	3.76
595.899	3.82
596.236	3.98
596.573	3.66
596.91	3.84
597.247	3.78
597.584	3.89
597.921	3.93
598.258	3.78
598.594	3.84
598.931	3.67
599.268	3.79
599.604	3.67
599.941	3.89
600.277	4.05
600.614	3.74
600.95	3.97
601.287	3.81
601.623	3.73
601.959	4.07
602.296	4
602.632	3.95
602.968	4.05
603.304	3.84
603.64	4.02
603.976	4.14
604.312	3.99
604.648	3.79
604.984	3.81
605.319	3.72
605.655	3.61
605.991	3.85
606.326	3.85
606.662	3.83
606.998	3.8
607.333	3.94
607.668	3.81
608.004	3.92
608.339	3.95
608.674	4.06
609.01	3.72
609.345	4.16
609.68	3.81
610.015	3.75
610.35	3.74
610.685	3.77
611.02	3.88
611.355	3.7
611.689	3.81
612.024	3.88
612.359	3.81
612.694	3.94
613.028	3.98
613.363	3.51
613.697	3.73
614.032	3.81
614.366	4.16
614.7	3.85
615.035	3.77
615.369	3.93
615.703	3.75
616.037	3.79
616.371	4.01
616.705	4.06
617.039	3.99
617.373	3.76
617.707	3.92
618.041	4.26
618.375	4.02
618.709	3.75
619.042	3.94
619.376	3.94
619.71	3.99
620.043	3.99
620.377	3.71
620.71	4.15
621.043	3.93
621.377	4.08
621.71	3.93
622.043	4.03
622.376	3.83
622.709	3.7
623.043	3.97
623.376	3.52
623.709	3.67
624.041	4.14
624.374	3.69
624.707	4.03
625.04	3.94
625.373	3.88
625.705	3.68
626.038	3.65
626.37	3.72
626.703	3.51
627.035	4.05
627.368	3.98
627.7	4.06
628.032	3.87
628.365	3.93
628.697	3.97
629.029	3.88
629.361	3.92
629.693	4
630.025	4.1
630.357	3.89
630.689	4.3
631.021	3.79
631.353	4.03
631.684	3.96
632.016	3.84
632.348	3.68
632.679	4.06
633.011	3.97
633.342	3.84
633.674	3.72
634.005	3.47
634.336	4.38
634.668	3.97
634.999	3.89
635.33	4.02
635.661	3.72
635.992	3.94
636.323	4.02
636.654	3.74
636.985	3.93
637.316	3.77
637.647	4.44
637.977	3.97
638.308	4.07
638.639	3.97
638.969	3.77
639.3	3.95
639.63	3.94
639.961	4.2
640.291	4.2
640.622	3.85
640.952	4.23
641.282	4.2
641.612	4.11
641.943	4.15
642.273	4.09
642.603	4.05
642.933	4.06
643.263	3.55
643.592	4.04
643.922	3.86
644.252	4.01
644.582	3.61
644.911	4.32
645.241	3.57
645.571	4.09
645.9	3.89
646.23	4.36
646.559	4.23
646.888	3.88
647.218	4.13
647.547	4.08
647.876	4.01
648.205	3.95
648.534	3.8
648.863	3.55
649.192	4.26
649.521	3.83
649.85	3.97
650.179	4.08
650.508	4.1
650.837	3.94
651.165	3.67
651.494	3.81
651.822	4.01
652.151	3.98
652.479	3.79
652.808	4.03
653.136	4.19
653.465	3.71
653.793	3.96
654.121	3.84
654.449	4.13
654.777	3.49
655.105	4.12
655.433	3.73
655.761	3.85
656.089	3.94
656.417	4.29
656.745	3.94
657.073	4.24
657.4	4.37
657.728	3.95
658.056	4.36
658.383	3.31
658.711	4.17
659.038	4.26
659.365	4.25
659.693	3.86
660.02	4.23
660.347	3.89
660.674	3.74
661.001	4.01
661.329	4.43
661.656	4
661.982	4.2
662.309	4.17
662.636	4.25
662.963	3.89
663.29	3.92
663.616	4.41
663.943	4.42
664.27	4.08
664.596	3.78
664.923	3.56
665.249	3.89
665.576	4.17
665.902	4.41
666.228	3.68
666.554	4.19
666.881	4.24
667.207	3.82
667.533	4.13
667.859	3.63
668.185	3.45
668.511	3.87
668.837	4.39
669.162	4.12
669.488	4.24
669.814	3.85
670.139	4.03
670.465	3.86
670.791	3.78
671.116	3.92
671.442	4.83
671.767	4.53
672.092	3.6
672.418	3.9
672.743	3.43
673.068	4.55
673.393	4.43
673.718	4.41
674.043	3.66
674.368	4.27
674.693	4.37
675.018	4.4
675.343	4.41
675.667	4.18
675.992	3.71
676.317	4.26
676.641	3.89
676.966	3.46
677.29	4.49
677.615	4.18
677.939	4.51
678.264	4.52
678.588	4.51
678.912	3.69
679.236	3.73
679.56	3.76
679.885	3.98
680.209	3.55
680.532	3.25
680.856	3.98
681.18	3.89
681.504	4.08
681.828	3.98
682.152	4.01
682.475	3.86
682.799	4.41
683.122	3.71
683.446	4.5
683.769	4.59
684.093	3.85
684.416	4.37
684.739	4.49
685.062	3.91
685.386	3.59
685.709	4.94
686.032	4.51
686.355	4.12
686.678	3.99
687.001	4.13
687.324	4.06
687.646	4.46
687.969	4.25
688.292	3.56
688.614	4.45
688.937	4.08
689.26	3.52
689.582	4.55
689.904	4.13
690.227	5
690.549	4.9
690.871	3.82
691.194	4.14
691.516	3.98
691.838	3.71
692.16	3.64
