Data from 2019-3_chest_Reflection__0__158.txt Node

Date: Fri Nov 11 18:08:18 CST 2022
User: ToomeyLab
Spectrometer: FLMS14357
Trigger mode: 0
Integration Time (sec): 1.000000E-2
Scans to average: 100
Electric dark correction enabled: true
Nonlinearity correction enabled: false
Boxcar width: 0
XAxis mode: Wavelengths
Number of Pixels in Spectrum: 2048
>>>>>Begin Spectral Data<<<<<
189.047	53.21
189.435	53.21
189.823	53.21
190.211	-1816.51
190.599	40.57
190.987	-99.49
191.375	56.43
191.763	117.87
192.151	32.45
192.538	33.35
192.926	2336.45
193.314	144.25
193.702	-176.74
194.089	209.48
194.477	388.3
194.864	418.53
195.252	-304.14
195.639	94.97
196.027	-823.53
196.414	93.93
196.801	274.66
197.189	-612.3
197.576	63.42
197.963	29.01
198.351	-1.33
198.738	0.77
199.125	-22.86
199.512	19.66
199.899	26.63
200.286	-45.17
200.673	-25.34
201.06	-28.8
201.447	-17.29
201.833	29.63
202.22	14.28
202.607	27.26
202.994	36.72
203.38	-6.79
203.767	8.69
204.154	29.99
204.54	24.25
204.927	-30.8
205.313	-2.33
205.699	4.03
206.086	-71.41
206.472	-43.87
206.858	-20.52
207.245	-15.37
207.631	-50.74
208.017	-127.41
208.403	-14.12
208.789	38.94
209.175	-35.27
209.561	11.8
209.947	-5.03
210.333	17.93
210.719	-13.72
211.105	-31.38
211.491	-9.78
211.876	-19.06
212.262	-52.16
212.648	23.84
213.034	-0.59
213.419	-1.33
213.805	-11.52
214.19	2.84
214.576	5.4
214.961	-24.16
215.346	-31.48
215.732	23.32
216.117	17.52
216.502	-11.22
216.888	-60.63
217.273	-31.92
217.658	5.89
218.043	21.03
218.428	4.67
218.813	12.08
219.198	-8.81
219.583	14.36
219.968	-32.52
220.353	-5.07
220.738	-17.82
221.122	-42.38
221.507	5.42
221.892	0.66
222.276	-3.23
222.661	14.89
223.046	-10.58
223.43	3.68
223.815	0.06
224.199	-7.44
224.583	12.03
224.968	2.96
225.352	-1.35
225.736	-2.96
226.121	-11.22
226.505	-2.89
226.889	-3.48
227.273	8.7
227.657	1.83
228.041	0.93
228.425	-1.45
228.809	0.66
229.193	3.63
229.577	2.05
229.961	1.08
230.344	0.76
230.728	0.16
231.112	0.19
231.495	0.84
231.879	0.84
232.263	0.78
232.646	0.22
233.03	-0.52
233.413	0.28
233.797	0.42
234.18	-0.48
234.563	-0.24
234.946	0.88
235.33	1.56
235.713	-1.75
236.096	0.74
236.479	-1.89
236.862	0.17
237.245	1.34
237.628	-0.57
238.011	-0.4
238.394	0.66
238.777	0.2
239.16	1.54
239.543	1
239.925	-0.85
240.308	1.72
240.691	2.27
241.073	1.48
241.456	0.42
241.838	0.68
242.221	0.39
242.603	0.16
242.986	1.63
243.368	1.19
243.75	1.07
244.133	1.02
244.515	1.53
244.897	1.34
245.279	1.14
245.661	0.75
246.043	0.86
246.425	1.53
246.807	1.42
247.189	0.74
247.571	1.09
247.953	0.74
248.335	1.08
248.717	1.22
249.098	1.38
249.48	1.11
249.862	0.85
250.243	1.04
250.625	1.33
251.006	0.78
251.388	1.55
251.769	0.72
252.151	0.89
252.532	0.79
252.913	0.73
253.295	0.91
253.676	1.56
254.057	1.16
254.438	0.99
254.819	0.18
255.2	1.73
255.581	0.81
255.962	1.74
256.343	1.93
256.724	0.3
257.105	0.39
257.486	0.5
257.867	1.8
258.247	0.74
258.628	0.55
259.009	0.51
259.389	1.09
259.77	0.53
260.15	0.66
260.531	1.37
260.911	0.75
261.292	0.92
261.672	1.14
262.052	1.17
262.432	0.96
262.813	1.21
263.193	1.39
263.573	1.13
263.953	1
264.333	1.04
264.713	1.1
265.093	1.64
265.473	1.37
265.853	1.24
266.233	1.62
266.612	1.22
266.992	0.48
267.372	1.65
267.752	1.48
268.131	1.07
268.511	1.25
268.89	1.13
269.27	1.28
269.649	1.27
270.029	0.95
270.408	0.97
270.787	1.24
271.167	1.13
271.546	0.84
271.925	1.5
272.304	1.25
272.683	1.01
273.062	0.89
273.441	0.89
273.82	1.6
274.199	1.23
274.578	0.84
274.957	1.23
275.336	0.87
275.715	0.89
276.093	1.09
276.472	1.49
276.851	1.37
277.229	1.66
277.608	0.82
277.986	1.53
278.365	0.37
278.743	1.66
279.122	1.39
279.5	1.09
279.878	0.98
280.257	0.67
280.635	0.85
281.013	0.81
281.391	1.56
281.769	1.17
282.147	1.32
282.525	0.95
282.903	1.21
283.281	1.94
283.659	1.22
284.037	1.45
284.415	0.78
284.792	1.34
285.17	1.41
285.548	1.04
285.925	1.27
286.303	1.24
286.68	1.14
287.058	1.12
287.435	1.27
287.813	1.27
288.19	1.07
288.567	0.62
288.945	0.73
289.322	1.18
289.699	1.17
290.076	1.05
290.453	1.18
290.83	0.78
291.207	1.18
291.584	1.2
291.961	1.47
292.338	1.3
292.715	1.04
293.092	1.24
293.469	1.12
293.845	1.33
294.222	1.21
294.599	1.01
294.975	0.65
295.352	1.27
295.728	1.19
296.105	1.47
296.481	1.67
296.858	1.87
297.234	1.77
297.61	1.53
297.986	1.39
298.363	1.84
298.739	1.61
299.115	1.55
299.491	1.54
299.867	1.71
300.243	1.16
300.619	1.46
300.995	2
301.371	2.12
301.746	0.96
302.122	1.47
302.498	1.82
302.874	2.16
303.249	1.64
303.625	1.78
304	1.89
304.376	1.37
304.751	1.39
305.127	1.7
305.502	1.38
305.878	1.65
306.253	1.64
306.628	1.65
307.003	1.86
307.378	1.51
307.754	1.48
308.129	2.13
308.504	1.57
308.879	2.4
309.254	1.33
309.629	1.91
310.003	2.13
310.378	1.72
310.753	1.54
311.128	1.91
311.502	1.61
311.877	1.9
312.252	2.37
312.626	2.2
313.001	2.06
313.375	1.53
313.75	2.27
314.124	1.91
314.498	1.99
314.873	1.84
315.247	2.15
315.621	1.9
315.995	2.31
316.369	2.02
316.743	1.86
317.117	2.38
317.491	2.08
317.865	2.37
318.239	2.12
318.613	2.02
318.987	1.78
319.361	2.48
319.734	2.4
320.108	2.07
320.482	2
320.855	2.06
321.229	1.95
321.602	2.08
321.976	2.31
322.349	2.42
322.723	2.62
323.096	2.44
323.469	2.04
323.843	2.49
324.216	2.09
324.589	2.68
324.962	2.29
325.335	1.68
325.708	2.21
326.081	1.95
326.454	2.41
326.827	2.11
327.2	2.67
327.573	2.07
327.945	2.92
328.318	2.31
328.691	2.59
329.063	2.38
329.436	2.65
329.809	2.59
330.181	2.03
330.553	2.4
330.926	1.99
331.298	1.99
331.671	2.52
332.043	2.51
332.415	2.14
332.787	2.6
333.159	2.03
333.532	2.4
333.904	2.87
334.276	2.47
334.648	1.8
335.02	2.56
335.391	2.21
335.763	2.76
336.135	2.62
336.507	2.58
336.879	2.62
337.25	2.44
337.622	3.06
337.993	3.11
338.365	3.04
338.736	2.34
339.108	2.8
339.479	2.43
339.851	2.84
340.222	2.32
340.593	2.23
340.964	2.19
341.336	2.17
341.707	2.36
342.078	2.12
342.449	2.37
342.82	2.83
343.191	2.69
343.562	2.61
343.933	2.09
344.303	2.27
344.674	3.07
345.045	2.4
345.416	2.59
345.786	2.83
346.157	2.33
346.527	2.51
346.898	2.46
347.268	2.58
347.639	2.76
348.009	2.44
348.38	2.6
348.75	2.44
349.12	2.55
349.49	2.44
349.861	2.4
350.231	2.45
350.601	2.59
350.971	2.58
351.341	2.32
351.711	2.37
352.081	2.61
352.45	2.26
352.82	2.67
353.19	2.85
353.56	2.98
353.929	2.33
354.299	2.49
354.669	2.44
355.038	2.85
355.408	2.53
355.777	2.61
356.147	2.54
356.516	2.37
356.885	2.25
357.254	3
357.624	2.28
357.993	2.16
358.362	2.71
358.731	2.64
359.1	2.65
359.469	2.49
359.838	2.56
360.207	2.69
360.576	2.32
360.945	2.32
361.314	2.55
361.682	2.77
362.051	2.83
362.42	2.3
362.788	2.6
363.157	2.42
363.525	2.43
363.894	2.55
364.262	2.33
364.631	2.45
364.999	2.57
365.367	2.48
365.735	2.92
366.104	2.88
366.472	2.46
366.84	2.9
367.208	2.59
367.576	2.72
367.944	2.67
368.312	2.51
368.68	2.51
369.048	2.5
369.416	2.69
369.783	2.9
370.151	2.5
370.519	2.44
370.886	2.28
371.254	2.6
371.621	2.39
371.989	2.95
372.356	2.42
372.724	2.49
373.091	2.69
373.458	2.63
373.826	2.79
374.193	2.51
374.56	2.63
374.927	2.47
375.294	2.5
375.661	2.73
376.028	3.07
376.395	2.81
376.762	2.58
377.129	2.61
377.496	2.95
377.863	2.38
378.229	2.85
378.596	2.76
378.963	2.97
379.329	2.74
379.696	2.81
380.062	2.63
380.429	2.45
380.795	2.74
381.161	2.78
381.528	3
381.894	2.62
382.26	2.64
382.626	2.65
382.993	2.5
383.359	2.49
383.725	2.82
384.091	2.56
384.457	2.66
384.823	2.72
385.188	2.6
385.554	2.78
385.92	2.8
386.286	2.76
386.651	3
387.017	2.73
387.383	2.66
387.748	2.55
388.114	2.44
388.479	2.73
388.845	2.86
389.21	2.63
389.575	2.56
389.94	2.81
390.306	3.02
390.671	2.83
391.036	2.89
391.401	2.86
391.766	3.04
392.131	2.91
392.496	2.72
392.861	2.53
393.226	2.86
393.591	2.78
393.956	2.88
394.32	2.91
394.685	2.71
395.05	2.59
395.414	2.97
395.779	2.66
396.143	2.74
396.508	2.82
396.872	2.75
397.236	2.66
397.601	2.8
397.965	2.76
398.329	3.04
398.694	2.92
399.058	2.87
399.422	2.94
399.786	2.93
400.15	2.97
400.514	2.75
400.878	2.8
401.242	2.72
401.605	2.98
401.969	2.87
402.333	2.63
402.697	2.97
403.06	2.87
403.424	2.71
403.787	2.77
404.151	3.04
404.514	3.12
404.878	2.83
405.241	2.64
405.604	2.82
405.968	2.78
406.331	2.67
406.694	2.87
407.057	2.75
407.42	2.77
407.783	2.84
408.146	2.96
408.509	2.84
408.872	2.97
409.235	3.06
409.598	2.89
409.961	3.02
410.323	3.04
410.686	2.9
411.049	2.97
411.411	3.01
411.774	2.96
412.136	2.91
412.499	2.95
412.861	3.09
413.223	2.95
413.586	2.7
413.948	3.03
414.31	2.84
414.672	2.81
415.035	2.89
415.397	2.97
415.759	3.19
416.121	3.19
416.483	3.11
416.845	2.84
417.206	2.96
417.568	3.05
417.93	2.98
418.292	2.85
418.653	2.96
419.015	2.99
419.377	2.87
419.738	2.86
420.1	2.96
420.461	3.04
420.822	2.96
421.184	2.89
421.545	2.93
421.906	2.93
422.267	2.92
422.629	2.87
422.99	2.96
423.351	2.88
423.712	2.83
424.073	2.8
424.434	2.95
424.795	2.94
425.155	2.94
425.516	2.88
425.877	2.95
426.238	2.97
426.598	2.92
426.959	2.91
427.32	2.94
427.68	3.09
428.041	2.9
428.401	3.1
428.761	3.08
429.122	2.98
429.482	3.08
429.842	2.9
430.202	3.15
430.563	3.15
430.923	3.22
431.283	3.15
431.643	2.98
432.003	3.01
432.363	2.89
432.722	3.08
433.082	3.15
433.442	3.19
433.802	2.98
434.161	3.04
434.521	3.18
434.881	2.97
435.24	2.93
435.6	3.07
435.959	2.94
436.319	3.15
436.678	3.11
437.037	3.16
437.396	3.14
437.756	3.09
438.115	2.94
438.474	3.04
438.833	3.01
439.192	3.05
439.551	3.17
439.91	3.14
440.269	3.04
440.628	3.08
440.987	3.02
441.345	3.11
441.704	3.04
442.063	3.18
442.421	3.17
442.78	3.1
443.138	3.07
443.497	3.08
443.855	3.31
444.214	3.2
444.572	3.35
444.93	3.18
445.288	3.04
445.647	3.17
446.005	3.02
446.363	3.1
446.721	3.2
447.079	3.12
447.437	3.16
447.795	3.11
448.153	3.07
448.51	3.22
448.868	3.13
449.226	3.08
449.584	3.21
449.941	3.06
450.299	3.05
450.656	3.21
451.014	3.26
451.371	3.33
451.729	3.09
452.086	3.27
452.443	3.25
452.801	3.15
453.158	3.18
453.515	3.28
453.872	3.2
454.229	3.23
454.586	3.23
454.943	3.29
455.3	3.33
455.657	3.17
456.014	3.23
456.371	3.42
456.727	3.36
457.084	3.28
457.441	3.35
457.797	3.12
458.154	3.4
458.51	3.29
458.867	3.18
459.223	3.31
459.58	3.2
459.936	3.07
460.292	3.43
460.648	3.17
461.005	3.31
461.361	3.24
461.717	3.34
462.073	3.2
462.429	3.15
462.785	3.33
463.141	3.2
463.496	3.2
463.852	3.4
464.208	3.32
464.564	3.34
464.919	3.32
465.275	3.35
465.631	3.27
465.986	3.18
466.342	3.38
466.697	3.37
467.052	3.43
467.408	3.68
467.763	3.35
468.118	3.47
468.473	3.47
468.829	3.15
469.184	3.22
469.539	3.45
469.894	3.37
470.249	3.31
470.603	3.39
470.958	3.5
471.313	3.23
471.668	3.44
472.023	3.49
472.377	3.59
472.732	3.5
473.086	3.55
473.441	3.48
473.795	3.4
474.15	3.39
474.504	3.61
474.859	3.39
475.213	3.5
475.567	3.52
475.921	3.46
476.275	3.48
476.63	3.5
476.984	3.61
477.338	3.44
477.692	3.51
478.045	3.31
478.399	3.31
478.753	3.58
479.107	3.61
479.461	3.58
479.814	3.42
480.168	3.51
480.521	3.49
480.875	3.52
481.228	3.59
481.582	3.56
481.935	3.55
482.289	3.5
482.642	3.54
482.995	3.51
483.348	3.4
483.701	3.36
484.055	3.55
484.408	3.38
484.761	3.42
485.114	3.29
485.466	3.3
485.819	3.27
486.172	3.34
486.525	3.36
486.878	3.41
487.23	3.47
487.583	3.46
487.936	3.39
488.288	3.5
488.641	3.45
488.993	3.36
489.345	3.44
489.698	3.38
490.05	3.4
490.402	3.45
490.754	3.52
491.107	3.5
491.459	3.53
491.811	3.53
492.163	3.63
492.515	3.57
492.866	3.45
493.218	3.41
493.57	3.47
493.922	3.52
494.274	3.53
494.625	3.63
494.977	3.58
495.328	3.69
495.68	3.63
496.031	3.67
496.383	3.78
496.734	3.78
497.086	3.67
497.437	3.86
497.788	3.75
498.139	3.7
498.49	3.74
498.842	3.76
499.193	3.76
499.544	3.64
499.894	3.89
500.245	3.7
500.596	3.77
500.947	3.66
501.298	3.74
501.648	3.92
501.999	3.74
502.35	3.8
502.7	3.79
503.051	3.85
503.401	3.81
503.752	3.93
504.102	3.71
504.452	3.8
504.803	3.76
505.153	3.84
505.503	3.84
505.853	3.91
506.203	4.03
506.553	3.95
506.903	3.95
507.253	3.94
507.603	3.82
507.953	3.87
508.303	3.88
508.652	3.94
509.002	3.93
509.352	3.93
509.701	3.99
510.051	3.87
510.4	3.89
510.75	3.96
511.099	3.96
511.449	3.91
511.798	4.01
512.147	4.01
512.496	3.97
512.846	4.08
513.195	3.96
513.544	4.02
513.893	4
514.242	3.9
514.591	3.88
514.939	4.02
515.288	4.01
515.637	4.03
515.986	3.98
516.334	4.06
516.683	4.2
517.032	4.09
517.38	4.04
517.729	4
518.077	4.16
518.426	4.01
518.774	4.07
519.122	4.03
519.47	4
519.819	3.91
520.167	4.04
520.515	4.04
520.863	4.07
521.211	4.05
521.559	4.06
521.907	4.15
522.255	4.09
522.602	4.14
522.95	4.11
523.298	4.16
523.645	4.14
523.993	4.14
524.341	4.21
524.688	4.23
525.036	4.12
525.383	4.37
525.73	4.31
526.078	4.29
526.425	4.22
526.772	4.16
527.119	4.1
527.466	4.2
527.814	4.09
528.161	4.13
528.508	4.18
528.854	4.18
529.201	4.26
529.548	4.15
529.895	4.06
530.242	4.05
530.588	4.06
530.935	4.11
531.282	4.1
531.628	4.12
531.975	4.19
532.321	4.23
532.667	4.36
533.014	4.35
533.36	4.37
533.706	4.4
534.052	4.28
534.399	4.3
534.745	4.27
535.091	4.27
535.437	4.3
535.783	4.26
536.129	4.33
536.474	4.34
536.82	4.33
537.166	4.44
537.512	4.58
537.857	4.45
538.203	4.45
538.549	4.42
538.894	4.45
539.239	4.45
539.585	4.47
539.93	4.59
540.276	4.56
540.621	4.71
540.966	4.53
541.311	4.64
541.656	4.63
542.001	4.55
542.346	4.62
542.691	4.5
543.036	4.47
543.381	4.5
543.726	4.43
544.071	4.5
544.415	4.5
544.76	4.52
545.105	4.58
545.449	4.53
545.794	4.69
546.138	4.68
546.483	4.63
546.827	4.76
547.171	4.76
547.516	4.62
547.86	4.72
548.204	4.7
548.548	4.75
548.892	4.68
549.236	4.81
549.58	4.74
549.924	4.85
550.268	4.93
550.612	4.9
550.956	4.99
551.3	5
551.643	4.87
551.987	5.03
552.33	5.08
552.674	5.02
553.017	5.05
553.361	5.07
553.704	5.08
554.048	4.97
554.391	5.07
554.734	5.1
555.077	5.06
555.42	5.11
555.764	5.14
556.107	5.03
556.45	4.95
556.793	5.23
557.135	5.18
557.478	5.07
557.821	5.12
558.164	5.3
558.507	5.14
558.849	5.29
559.192	5.23
559.534	5.42
559.877	5.44
560.219	5.28
560.562	5.19
560.904	5.35
561.246	5.3
561.589	5.42
561.931	5.21
562.273	5.36
562.615	5.38
562.957	5.38
563.299	5.43
563.641	5.5
563.983	5.37
564.325	5.42
564.667	5.39
565.008	5.48
565.35	5.61
565.692	5.65
566.033	5.54
566.375	5.4
566.716	5.42
567.058	5.54
567.399	5.59
567.741	5.64
568.082	5.55
568.423	5.51
568.764	5.52
569.105	5.69
569.447	5.61
569.788	5.64
570.129	5.7
570.47	5.59
570.811	5.52
571.151	5.57
571.492	5.68
571.833	5.75
572.174	5.67
572.514	5.69
572.855	5.81
573.195	5.67
573.536	5.73
573.876	5.79
574.217	5.76
574.557	5.72
574.898	5.82
575.238	5.97
575.578	5.8
575.918	5.7
576.258	5.82
576.598	5.77
576.938	6.01
577.278	5.88
577.618	5.84
577.958	5.92
578.298	6.04
578.638	5.93
578.977	5.94
579.317	6.07
579.657	6
579.996	6.11
580.336	6.02
580.675	6.07
581.014	6.11
581.354	6.22
581.693	6.12
582.032	6.3
582.372	6.24
582.711	6.16
583.05	6.15
583.389	6.01
583.728	6.38
584.067	6.28
584.406	6.16
584.745	6.44
585.083	6.34
585.422	6.28
585.761	6.34
586.1	6.54
586.438	5.95
586.777	6.28
587.115	6.66
587.454	6.31
587.792	6.41
588.13	6.63
588.469	6.62
588.807	6.57
589.145	6.39
589.483	6.67
589.821	6.64
590.159	6.63
590.497	6.45
590.835	6.77
591.173	6.38
591.511	6.51
591.849	6.74
592.187	6.5
592.524	6.48
592.862	6.66
593.2	6.57
593.537	6.27
593.875	6.61
594.212	6.82
594.55	6.73
594.887	6.64
595.224	6.69
595.561	6.84
595.899	6.46
596.236	6.78
596.573	6.63
596.91	6.7
597.247	6.72
597.584	6.77
597.921	6.68
598.258	6.82
598.594	6.69
598.931	6.73
599.268	6.97
599.604	6.89
599.941	6.92
600.277	6.86
600.614	6.99
600.95	6.94
601.287	6.8
601.623	7.11
601.959	7.25
602.296	7.1
602.632	7.01
602.968	7.24
603.304	7.16
603.64	7.26
603.976	7.26
604.312	7
604.648	6.94
604.984	7.04
605.319	6.87
605.655	6.83
605.991	7.24
606.326	7.08
606.662	7.23
606.998	7.04
607.333	7.25
607.668	7.25
608.004	7.5
608.339	7.39
608.674	7.31
609.01	7.44
609.345	7.33
609.68	7.26
610.015	7.43
610.35	7.27
610.685	7.27
611.02	7.36
611.355	7.32
611.689	7.43
612.024	7.51
612.359	7.32
612.694	7.67
613.028	7.38
613.363	7.54
613.697	7.18
614.032	7.44
614.366	7.59
614.7	7.56
615.035	7.5
615.369	7.52
615.703	7.43
616.037	7.65
616.371	7.51
616.705	7.77
617.039	7.98
617.373	7.85
617.707	7.75
618.041	8.09
618.375	7.82
618.709	7.7
619.042	7.73
619.376	7.98
619.71	7.77
620.043	7.83
620.377	7.64
620.71	8.28
621.043	7.98
621.377	8.14
621.71	7.69
622.043	8.01
622.376	7.86
622.709	7.74
623.043	8.09
623.376	8.03
623.709	7.77
624.041	8.43
624.374	8.33
624.707	8.13
625.04	8.08
625.373	8.23
625.705	8.11
626.038	8.11
626.37	8.16
626.703	8.21
627.035	8.16
627.368	7.75
627.7	8.37
628.032	8.14
628.365	8.41
628.697	8.17
629.029	8.17
629.361	8.2
629.693	8.45
630.025	8.49
630.357	8.36
630.689	8.32
631.021	8.1
631.353	8.59
631.684	8.56
632.016	8.2
632.348	8.35
632.679	8.46
633.011	8.16
633.342	8.68
633.674	8.64
634.005	7.99
634.336	8.94
634.668	8.72
634.999	8.64
635.33	8.75
635.661	8.25
635.992	8.6
636.323	8.38
636.654	8.63
636.985	8.65
637.316	8.79
637.647	8.6
637.977	9
638.308	8.8
638.639	8.37
638.969	8.72
639.3	8.83
639.63	8.79
639.961	8.9
640.291	8.75
640.622	8.34
640.952	8.83
641.282	8.96
641.612	8.92
641.943	9.27
642.273	8.63
642.603	8.95
642.933	8.99
643.263	8.91
643.592	9.16
643.922	9.03
644.252	9.35
644.582	9.05
644.911	9.19
645.241	9.36
645.571	9.4
645.9	9.2
646.23	9.25
646.559	8.93
646.888	8.99
647.218	9.04
647.547	9.27
647.876	9.32
648.205	9.27
648.534	9.25
648.863	8.86
649.192	9.42
649.521	9.33
649.85	9.36
650.179	9.26
650.508	9.2
650.837	9.22
651.165	8.84
651.494	9.35
651.822	9.05
652.151	9.44
652.479	9.04
652.808	9.78
653.136	9.73
653.465	9.66
653.793	9.45
654.121	9.31
654.449	9.33
654.777	9.08
655.105	9.54
655.433	9.28
655.761	9.89
656.089	9.44
656.417	9.82
656.745	9.31
657.073	9.05
657.4	9.92
657.728	9.94
658.056	9.44
658.383	9.75
658.711	9.78
659.038	9.57
659.365	10.22
659.693	9.72
660.02	10.09
660.347	10.19
660.674	9.43
661.001	9.72
661.329	9.96
661.656	9.98
661.982	9.75
662.309	9.77
662.636	10.15
662.963	9.58
663.29	9.76
663.616	10.16
663.943	10.16
664.27	9.85
664.596	9.63
664.923	9.22
665.249	9.58
665.576	10.25
665.902	9.64
666.228	10.02
666.554	10.08
666.881	10.26
667.207	9.69
667.533	9.68
667.859	9.93
668.185	9.68
668.511	9.92
668.837	10.14
669.162	9.93
669.488	10.48
669.814	9.88
670.139	10.17
670.465	10.24
670.791	10.38
671.116	10.34
671.442	10.4
671.767	10.62
672.092	10.18
672.418	10.59
672.743	9.84
673.068	10.46
673.393	10.45
673.718	10.49
674.043	10.24
674.368	10.39
674.693	10.79
675.018	10.88
675.343	10.19
675.667	10.75
675.992	10.73
676.317	10.59
676.641	10.85
676.966	10.32
677.29	10.6
677.615	10.96
677.939	10.86
678.264	10.63
678.588	10.54
678.912	11.13
679.236	10.28
679.56	10.01
679.885	11.09
680.209	10.43
680.532	10.12
680.856	10.94
681.18	10.96
681.504	10.58
681.828	10.87
682.152	10.34
682.475	10.57
682.799	10.89
683.122	10.6
683.446	11.15
683.769	11.45
684.093	10.95
684.416	11.11
684.739	11.22
685.062	10.48
685.386	10.73
685.709	11.23
686.032	11.33
686.355	11.12
686.678	10.77
687.001	11.01
687.324	11.31
687.646	11.84
687.969	10.73
688.292	11.6
688.614	11.05
688.937	10.74
689.26	10.4
689.582	10.65
689.904	11.23
690.227	11.44
