Data from 2019-3_crown_Reflection__1__166.txt Node

Date: Fri Nov 11 18:11:41 CST 2022
User: ToomeyLab
Spectrometer: FLMS14357
Trigger mode: 0
Integration Time (sec): 1.000000E-2
Scans to average: 100
Electric dark correction enabled: true
Nonlinearity correction enabled: false
Boxcar width: 0
XAxis mode: Wavelengths
Number of Pixels in Spectrum: 2048
>>>>>Begin Spectral Data<<<<<
189.047	55.19
189.435	55.19
189.823	55.19
190.211	1338.07
190.599	139.75
190.987	-143.14
191.375	57.94
191.763	-3.49
192.151	-92.25
192.538	7.24
192.926	550.93
193.314	13.87
193.702	524.42
194.089	13.84
194.477	-118.44
194.864	950.39
195.252	122.12
195.639	97.34
196.027	-13.16
196.414	33.66
196.801	316.15
197.189	-594.66
197.576	26.15
197.963	150.81
198.351	-4.56
198.738	-7.09
199.125	10.51
199.512	17.37
199.899	31.28
200.286	-39.36
200.673	7.75
201.06	-9.18
201.447	16
201.833	32.27
202.22	-12.89
202.607	-8.2
202.994	12.8
203.38	-22.59
203.767	13.56
204.154	8.07
204.54	11.71
204.927	20.45
205.313	-13.46
205.699	5.8
206.086	-34.48
206.472	-51.81
206.858	61.54
207.245	-30.83
207.631	-40.62
208.017	-53.29
208.403	10.73
208.789	55.91
209.175	-61.3
209.561	-12.37
209.947	-25.64
210.333	37.81
210.719	-8.92
211.105	-7.19
211.491	27.85
211.876	-8.61
212.262	-45.71
212.648	30.87
213.034	5.7
213.419	4.19
213.805	26.37
214.19	1.72
214.576	-6.74
214.961	7.07
215.346	-37.17
215.732	8.49
216.117	15.42
216.502	11.92
216.888	-52.62
217.273	-10.74
217.658	-11.27
218.043	6.65
218.428	21.78
218.813	-0.61
219.198	-20.62
219.583	-2.91
219.968	-12.73
220.353	1.48
220.738	-26.88
221.122	-24.98
221.507	17.34
221.892	7.08
222.276	-4.54
222.661	0.54
223.046	-4.88
223.43	7.53
223.815	-1.14
224.199	-8.73
224.583	9.16
224.968	1.05
225.352	8.86
225.736	-6.49
226.121	-5.11
226.505	-1.17
226.889	5.05
227.273	1.94
227.657	-0.06
228.041	-0.4
228.425	-1.17
228.809	3.82
229.193	1.65
229.577	-0.13
229.961	0.29
230.344	0.56
230.728	0.48
231.112	1.24
231.495	1.63
231.879	0.86
232.263	1.19
232.646	-0.05
233.03	0.81
233.413	1.1
233.797	0.03
234.18	-1.12
234.563	2.29
234.946	0.97
235.33	2.6
235.713	-0.93
236.096	1.62
236.479	-1.53
236.862	0.48
237.245	2.45
237.628	-0.83
238.011	0.38
238.394	0.1
238.777	-1.08
239.16	0.9
239.543	1.37
239.925	-0.14
240.308	0.79
240.691	1.8
241.073	3.02
241.456	1.96
241.838	0.21
242.221	1.99
242.603	0.55
242.986	1.75
243.368	0.95
243.75	1.02
244.133	0.92
244.515	1.71
244.897	1.45
245.279	1.42
245.661	1.04
246.043	1.05
246.425	2.32
246.807	1.85
247.189	0.95
247.571	1.22
247.953	0.97
248.335	1.37
248.717	1.51
249.098	1.45
249.48	1.19
249.862	1.13
250.243	1.3
250.625	1.25
251.006	0.79
251.388	1.66
251.769	1.67
252.151	1.99
252.532	1.66
252.913	1.24
253.295	1
253.676	1.23
254.057	1.21
254.438	1.05
254.819	0.8
255.2	2.47
255.581	1.02
255.962	1.53
256.343	1.08
256.724	0.64
257.105	0.78
257.486	0.01
257.867	0.6
258.247	0.99
258.628	2.08
259.009	0.8
259.389	1.75
259.77	1.44
260.15	1.1
260.531	1.17
260.911	1.11
261.292	1.17
261.672	1.19
262.052	1.36
262.432	0.96
262.813	1.47
263.193	1.58
263.573	0.81
263.953	1.13
264.333	0.94
264.713	1.48
265.093	0.95
265.473	1.64
265.853	1.34
266.233	2.02
266.612	0.71
266.992	0.73
267.372	2.07
267.752	1.01
268.131	1.43
268.511	1.34
268.89	1.39
269.27	0.82
269.649	1.01
270.029	0.87
270.408	1.17
270.787	1.58
271.167	1.42
271.546	1.58
271.925	1.08
272.304	1.54
272.683	1.44
273.062	1.29
273.441	0.74
273.82	1.25
274.199	1.18
274.578	1.05
274.957	1.28
275.336	0.87
275.715	1.13
276.093	1.19
276.472	1.5
276.851	1.48
277.229	1.07
277.608	1.06
277.986	1.67
278.365	0.76
278.743	1.21
279.122	1.07
279.5	1.24
279.878	0.91
280.257	1.43
280.635	1.21
281.013	1.35
281.391	1.59
281.769	0.67
282.147	1.51
282.525	1.27
282.903	1.44
283.281	1.85
283.659	1.12
284.037	1.44
284.415	1.01
284.792	1.36
285.17	1.37
285.548	1.48
285.925	1.1
286.303	1
286.68	1.09
287.058	1.55
287.435	1.23
287.813	1.32
288.19	0.95
288.567	0.62
288.945	0.76
289.322	0.98
289.699	1.16
290.076	1.38
290.453	1.45
290.83	0.76
291.207	1.1
291.584	1.63
291.961	1.28
292.338	1.33
292.715	1.12
293.092	0.98
293.469	1.46
293.845	1.33
294.222	2.06
294.599	1.43
294.975	0.64
295.352	1.77
295.728	0.93
296.105	1.27
296.481	1.48
296.858	1.55
297.234	1.4
297.61	1.44
297.986	1.26
298.363	1.4
298.739	1.2
299.115	1.53
299.491	1.27
299.867	1.8
300.243	1.1
300.619	1.11
300.995	1.5
301.371	1.8
301.746	0.88
302.122	1.27
302.498	1.66
302.874	1.43
303.249	1.08
303.625	1.54
304	1.51
304.376	1.61
304.751	1.69
305.127	1.03
305.502	1.18
305.878	1.32
306.253	1.37
306.628	1.29
307.003	1.38
307.378	1.07
307.754	1.33
308.129	1.19
308.504	1.16
308.879	1.72
309.254	1.39
309.629	1.36
310.003	1.74
310.378	1.58
310.753	1.39
311.128	1.74
311.502	0.85
311.877	1.52
312.252	2.13
312.626	1.55
313.001	1.43
313.375	1.12
313.75	1.61
314.124	1.39
314.498	1.56
314.873	1
315.247	1.5
315.621	1.82
315.995	1.6
316.369	1.37
316.743	1.36
317.117	1.47
317.491	1.45
317.865	1.77
318.239	1.67
318.613	1.49
318.987	1.34
319.361	2.07
319.734	1.94
320.108	0.87
320.482	1.55
320.855	1.51
321.229	1.56
321.602	1.69
321.976	1.15
322.349	1.76
322.723	1.77
323.096	1.7
323.469	1.83
323.843	1.26
324.216	0.88
324.589	1.74
324.962	1.11
325.335	1.16
325.708	1.61
326.081	1.43
326.454	1.45
326.827	1.71
327.2	1.8
327.573	1.49
327.945	2.07
328.318	1.44
328.691	1.37
329.063	1.72
329.436	1.75
329.809	1.96
330.181	1.51
330.553	1.29
330.926	1.47
331.298	1.84
331.671	1.31
332.043	1.73
332.415	1.49
332.787	1.31
333.159	1.04
333.532	1.26
333.904	1.38
334.276	1.92
334.648	1.17
335.02	1.77
335.391	1.36
335.763	1.51
336.135	1.89
336.507	1.91
336.879	1.63
337.25	1.8
337.622	1.99
337.993	1.45
338.365	1.6
338.736	1.03
339.108	1.67
339.479	1.22
339.851	1.31
340.222	1.53
340.593	1.64
340.964	1.55
341.336	1.6
341.707	1.69
342.078	1.76
342.449	1.85
342.82	2.15
343.191	1.78
343.562	1.76
343.933	1.08
344.303	1.56
344.674	1.51
345.045	1.64
345.416	1.72
345.786	1.59
346.157	1.92
346.527	1.98
346.898	1.71
347.268	1.14
347.639	1.93
348.009	1.8
348.38	2
348.75	1.89
349.12	1.66
349.49	1.76
349.861	1.76
350.231	1.91
350.601	1.45
350.971	1.27
351.341	1.78
351.711	1.6
352.081	1.83
352.45	2.02
352.82	1.84
353.19	2.16
353.56	2.04
353.929	1.49
354.299	1.25
354.669	1.77
355.038	1.85
355.408	1.36
355.777	2.16
356.147	1.66
356.516	1.13
356.885	1.59
357.254	2.1
357.624	1.41
357.993	1.23
358.362	1.71
358.731	1.62
359.1	1.43
359.469	1.68
359.838	2.03
360.207	2.04
360.576	1.53
360.945	1.66
361.314	1.53
361.682	1.83
362.051	1.86
362.42	1.44
362.788	1.59
363.157	1.35
363.525	1.6
363.894	1.55
364.262	1.53
364.631	1.39
364.999	1.34
365.367	1.67
365.735	1.91
366.104	1.95
366.472	1.71
366.84	1.74
367.208	1.67
367.576	1.76
367.944	1.92
368.312	1.62
368.68	1.58
369.048	1.72
369.416	1.61
369.783	1.85
370.151	1.29
370.519	1.79
370.886	1.49
371.254	1.51
371.621	1.69
371.989	1.71
372.356	1.36
372.724	1.68
373.091	1.65
373.458	1.55
373.826	1.85
374.193	1.72
374.56	1.51
374.927	1.57
375.294	1.54
375.661	1.74
376.028	1.88
376.395	1.88
376.762	1.66
377.129	1.63
377.496	1.85
377.863	1.55
378.229	1.73
378.596	1.56
378.963	1.88
379.329	1.71
379.696	1.56
380.062	1.67
380.429	1.49
380.795	1.49
381.161	1.53
381.528	2
381.894	1.58
382.26	1.78
382.626	1.61
382.993	1.46
383.359	1.38
383.725	1.66
384.091	1.85
384.457	1.71
384.823	1.5
385.188	1.57
385.554	1.61
385.92	1.74
386.286	1.83
386.651	1.98
387.017	1.77
387.383	1.61
387.748	1.34
388.114	1.48
388.479	1.63
388.845	1.67
389.21	1.73
389.575	1.52
389.94	1.61
390.306	1.61
390.671	1.38
391.036	1.61
391.401	1.91
391.766	1.72
392.131	1.73
392.496	1.7
392.861	1.57
393.226	1.74
393.591	1.78
393.956	1.91
394.32	1.89
394.685	1.6
395.05	1.61
395.414	1.78
395.779	1.58
396.143	1.7
396.508	1.84
396.872	1.45
397.236	1.7
397.601	1.9
397.965	1.52
398.329	1.53
398.694	1.92
399.058	1.58
399.422	1.84
399.786	1.8
400.15	1.93
400.514	1.57
400.878	1.73
401.242	1.75
401.605	1.42
401.969	1.74
402.333	1.35
402.697	1.85
403.06	1.95
403.424	1.77
403.787	1.9
404.151	1.75
404.514	1.86
404.878	1.67
405.241	1.8
405.604	1.84
405.968	1.72
406.331	1.53
406.694	1.67
407.057	1.52
407.42	1.71
407.783	1.67
408.146	1.75
408.509	1.76
408.872	1.8
409.235	1.78
409.598	1.6
409.961	1.63
410.323	1.83
410.686	1.8
411.049	1.74
411.411	1.85
411.774	1.56
412.136	1.6
412.499	1.61
412.861	1.68
413.223	1.68
413.586	1.81
413.948	1.67
414.31	1.69
414.672	1.81
415.035	1.82
415.397	1.97
415.759	1.98
416.121	1.96
416.483	1.75
416.845	1.59
417.206	1.83
417.568	1.88
417.93	1.86
418.292	1.65
418.653	1.74
419.015	1.57
419.377	1.65
419.738	1.7
420.1	1.83
420.461	1.79
420.822	1.84
421.184	1.67
421.545	1.76
421.906	1.81
422.267	1.73
422.629	1.7
422.99	1.72
423.351	1.66
423.712	1.63
424.073	1.63
424.434	1.72
424.795	1.73
425.155	1.66
425.516	1.59
425.877	1.63
426.238	1.78
426.598	1.74
426.959	1.75
427.32	1.63
427.68	1.82
428.041	1.65
428.401	1.73
428.761	1.84
429.122	1.81
429.482	1.72
429.842	1.63
430.202	1.74
430.563	1.8
430.923	1.74
431.283	1.8
431.643	1.66
432.003	1.85
432.363	1.7
432.722	1.69
433.082	1.73
433.442	1.93
433.802	1.58
434.161	1.84
434.521	1.81
434.881	1.65
435.24	1.73
435.6	1.77
435.959	1.62
436.319	1.74
436.678	1.73
437.037	1.89
437.396	1.75
437.756	1.69
438.115	1.6
438.474	1.81
438.833	1.82
439.192	1.67
439.551	1.68
439.91	1.68
440.269	1.74
440.628	1.75
440.987	1.71
441.345	1.74
441.704	1.74
442.063	1.84
442.421	1.73
442.78	1.8
443.138	1.77
443.497	1.66
443.855	1.83
444.214	1.87
444.572	1.95
444.93	1.83
445.288	1.74
445.647	1.87
446.005	1.79
446.363	1.74
446.721	1.75
447.079	1.78
447.437	1.72
447.795	1.84
448.153	1.76
448.51	1.76
448.868	1.76
449.226	1.7
449.584	1.86
449.941	1.75
450.299	1.82
450.656	1.69
451.014	1.82
451.371	1.83
451.729	1.92
452.086	1.85
452.443	1.86
452.801	1.89
453.158	1.83
453.515	1.69
453.872	1.81
454.229	1.9
454.586	1.8
454.943	1.84
455.3	1.9
455.657	1.64
456.014	1.87
456.371	1.93
456.727	1.89
457.084	1.71
457.441	1.74
457.797	1.76
458.154	2.05
458.51	1.94
458.867	1.76
459.223	1.79
459.58	1.72
459.936	1.7
460.292	1.78
460.648	1.81
461.005	1.89
461.361	1.81
461.717	1.81
462.073	1.8
462.429	1.73
462.785	1.74
463.141	1.73
463.496	1.71
463.852	1.91
464.208	1.78
464.564	1.89
464.919	1.88
465.275	1.78
465.631	1.91
465.986	1.82
466.342	2.04
466.697	1.79
467.052	1.75
467.408	2.12
467.763	1.88
468.118	1.9
468.473	1.75
468.829	1.69
469.184	1.67
469.539	1.81
469.894	1.9
470.249	1.81
470.603	1.78
470.958	1.78
471.313	1.69
471.668	1.85
472.023	1.87
472.377	1.86
472.732	1.83
473.086	1.94
473.441	1.84
473.795	1.85
474.15	1.83
474.504	1.93
474.859	1.73
475.213	1.88
475.567	2
475.921	1.67
476.275	1.77
476.63	1.93
476.984	1.83
477.338	1.72
477.692	1.8
478.045	1.64
478.399	1.77
478.753	1.79
479.107	1.86
479.461	1.85
479.814	1.84
480.168	1.87
480.521	1.87
480.875	1.8
481.228	1.8
481.582	1.91
481.935	1.79
482.289	1.78
482.642	1.91
482.995	1.91
483.348	1.79
483.701	1.8
484.055	1.84
484.408	1.76
484.761	1.76
485.114	1.68
485.466	1.69
485.819	1.71
486.172	1.69
486.525	1.73
486.878	1.77
487.23	1.75
487.583	1.78
487.936	1.72
488.288	1.72
488.641	1.78
488.993	1.7
489.345	1.72
489.698	1.73
490.05	1.73
490.402	1.76
490.754	1.8
491.107	1.79
491.459	1.82
491.811	1.78
492.163	1.84
492.515	1.83
492.866	1.73
493.218	1.72
493.57	1.75
493.922	1.74
494.274	1.78
494.625	1.82
494.977	1.73
495.328	1.9
495.68	1.89
496.031	1.83
496.383	1.84
496.734	1.89
497.086	1.87
497.437	1.93
497.788	1.98
498.139	1.93
498.49	1.92
498.842	1.79
499.193	1.85
499.544	1.74
499.894	1.9
500.245	1.78
500.596	1.85
500.947	1.8
501.298	1.87
501.648	1.83
501.999	1.89
502.35	1.84
502.7	1.92
503.051	1.76
503.401	1.83
503.752	1.75
504.102	1.86
504.452	1.82
504.803	1.79
505.153	1.92
505.503	1.85
505.853	1.91
506.203	2.17
506.553	1.94
506.903	1.88
507.253	1.95
507.603	1.78
507.953	1.92
508.303	1.89
508.652	1.92
509.002	1.89
509.352	1.9
509.701	1.84
510.051	1.79
510.4	1.86
510.75	1.87
511.099	1.94
511.449	1.88
511.798	2.05
512.147	1.88
512.496	1.73
512.846	1.88
513.195	1.79
513.544	1.93
513.893	1.79
514.242	1.82
514.591	1.76
514.939	1.83
515.288	1.91
515.637	1.83
515.986	1.78
516.334	1.9
516.683	1.89
517.032	1.93
517.38	1.9
517.729	1.72
518.077	1.92
518.426	1.74
518.774	1.86
519.122	1.81
519.47	1.91
519.819	1.79
520.167	1.84
520.515	1.87
520.863	1.85
521.211	1.93
521.559	1.87
521.907	1.94
522.255	1.87
522.602	1.94
522.95	1.84
523.298	1.88
523.645	1.88
523.993	1.81
524.341	1.91
524.688	1.85
525.036	1.89
525.383	2.07
525.73	1.99
526.078	1.89
526.425	1.9
526.772	1.84
527.119	1.78
527.466	1.82
527.814	1.78
528.161	1.82
528.508	1.83
528.854	1.86
529.201	1.87
529.548	1.86
529.895	1.75
530.242	1.78
530.588	1.76
530.935	1.75
531.282	1.77
531.628	1.79
531.975	1.84
532.321	1.78
532.667	1.87
533.014	1.85
533.36	1.91
533.706	1.85
534.052	1.87
534.399	1.8
534.745	1.8
535.091	1.85
535.437	1.83
535.783	1.86
536.129	1.9
536.474	1.89
536.82	1.85
537.166	1.84
537.512	1.86
537.857	1.87
538.203	1.82
538.549	1.88
538.894	1.82
539.239	1.86
539.585	1.87
539.93	1.9
540.276	1.84
540.621	2.03
540.966	1.85
541.311	2.01
541.656	1.94
542.001	1.88
542.346	1.96
542.691	1.84
543.036	1.81
543.381	1.84
543.726	1.84
544.071	1.83
544.415	1.83
544.76	1.78
545.105	1.82
545.449	1.85
545.794	1.96
546.138	1.89
546.483	1.92
546.827	1.92
547.171	1.89
547.516	1.94
547.86	1.9
548.204	1.88
548.548	1.95
548.892	1.83
549.236	1.87
549.58	1.87
549.924	1.92
550.268	1.93
550.612	1.99
550.956	1.88
551.3	1.96
551.643	1.88
551.987	1.82
552.33	2.08
552.674	2.18
553.017	2.15
553.361	2.04
553.704	2.08
554.048	1.87
554.391	1.82
554.734	1.91
555.077	1.88
555.42	1.99
555.764	1.92
556.107	1.93
556.45	1.9
556.793	2.08
557.135	1.94
557.478	1.93
557.821	1.97
558.164	1.96
558.507	1.78
558.849	1.89
559.192	1.83
559.534	2.03
559.877	1.97
560.219	1.88
560.562	1.93
560.904	2.06
561.246	2.06
561.589	2.01
561.931	1.91
562.273	2.12
562.615	2.02
562.957	1.93
563.299	1.98
563.641	1.93
563.983	1.95
564.325	1.95
564.667	1.9
565.008	1.93
565.35	2.05
565.692	2.06
566.033	1.97
566.375	1.99
566.716	1.79
567.058	1.91
567.399	2.1
567.741	1.92
568.082	1.97
568.423	1.97
568.764	2.01
569.105	2.1
569.447	2.08
569.788	2.08
570.129	1.84
570.47	2.06
570.811	1.94
571.151	1.81
571.492	2.05
571.833	1.9
572.174	1.89
572.514	1.98
572.855	2
573.195	1.87
573.536	2.03
573.876	1.94
574.217	2.07
574.557	1.86
574.898	2.24
575.238	2.09
575.578	1.8
575.918	1.82
576.258	1.89
576.598	1.89
576.938	2.09
577.278	1.96
577.618	2.04
577.958	2
578.298	2.05
578.638	1.93
578.977	2.03
579.317	2.05
579.657	2.04
579.996	2.18
580.336	2.13
580.675	1.83
581.014	1.79
581.354	2.19
581.693	2.15
582.032	1.98
582.372	1.86
582.711	1.95
583.05	1.91
583.389	1.98
583.728	1.91
584.067	2.04
584.406	2.14
584.745	2.23
585.083	1.9
585.422	2.08
585.761	1.87
586.1	2.23
586.438	1.9
586.777	2.03
587.115	2.28
587.454	1.99
587.792	1.94
588.13	2.24
588.469	2.16
588.807	1.88
589.145	2.06
589.483	2.16
589.821	2.2
590.159	1.87
590.497	1.89
590.835	2.22
591.173	1.93
591.511	1.98
591.849	2.22
592.187	2.07
592.524	2.07
592.862	2.24
593.2	1.97
593.537	1.8
593.875	2.26
594.212	2
594.55	2.16
594.887	1.98
595.224	2.11
595.561	2.13
595.899	1.9
596.236	2.21
596.573	1.86
596.91	1.99
597.247	1.95
597.584	2.01
597.921	2.16
598.258	2.05
598.594	1.94
598.931	1.99
599.268	2
599.604	1.88
599.941	2.21
600.277	2.21
600.614	2.04
600.95	2.07
601.287	1.81
601.623	2.11
601.959	2.15
602.296	2.18
602.632	1.86
602.968	1.98
603.304	2.16
603.64	2.22
603.976	2.33
604.312	2.14
604.648	2.1
604.984	1.88
605.319	2.09
605.655	1.89
605.991	2.1
606.326	2.01
606.662	2.05
606.998	2.05
607.333	2.12
607.668	2.21
608.004	2.28
608.339	2.12
608.674	2.17
609.01	2.13
609.345	2.05
609.68	2.03
610.015	1.97
610.35	1.95
610.685	2.15
611.02	2.09
611.355	2.15
611.689	2.06
612.024	1.97
612.359	1.87
612.694	2.33
613.028	1.92
613.363	2.08
613.697	2.06
614.032	1.94
614.366	2.32
614.7	2.12
615.035	2.14
615.369	1.92
615.703	1.97
616.037	2.06
616.371	2.01
616.705	2.2
617.039	2.17
617.373	2.31
617.707	2.14
618.041	2.14
618.375	2.09
618.709	2
619.042	2.19
619.376	1.99
619.71	2.17
620.043	2.14
620.377	2.18
620.71	2.4
621.043	2.1
621.377	2.11
621.71	2.02
622.043	2.4
622.376	2.36
622.709	1.86
623.043	2.27
623.376	2.12
623.709	1.96
624.041	2.25
624.374	1.85
624.707	1.95
625.04	2.13
625.373	2.16
625.705	2.22
626.038	2.13
626.37	1.84
626.703	1.93
627.035	2.18
627.368	1.86
627.7	2.38
628.032	2
628.365	2.16
628.697	2.08
629.029	2.34
629.361	1.98
629.693	2.09
630.025	2.22
630.357	1.93
630.689	1.99
631.021	2.01
631.353	2.05
631.684	2.48
632.016	2.32
632.348	1.79
632.679	2.12
633.011	2.13
633.342	2.49
633.674	1.86
634.005	1.85
634.336	2.34
634.668	2.24
634.999	2.38
635.33	1.98
635.661	2.07
635.992	2.09
636.323	1.83
636.654	2.12
636.985	2.27
637.316	2.04
637.647	2.31
637.977	2.26
638.308	2.3
638.639	1.85
638.969	2.03
639.3	2.3
639.63	2.02
639.961	2.19
640.291	2.47
640.622	1.79
640.952	2.36
641.282	2.01
641.612	2.32
641.943	2.62
642.273	2.4
642.603	2.05
642.933	2.18
643.263	1.89
643.592	1.97
643.922	2.41
644.252	2.29
644.582	2.26
644.911	2.51
645.241	1.81
645.571	2.08
645.9	2.03
646.23	2.32
646.559	2.48
646.888	2.14
647.218	2.62
647.547	2.75
647.876	2.2
648.205	2.34
648.534	2.33
648.863	2.04
649.192	2.58
649.521	1.85
649.85	2.49
650.179	2.65
650.508	2.55
650.837	1.97
651.165	2.19
651.494	2.34
651.822	2.47
652.151	2.73
652.479	2.34
652.808	2.39
653.136	1.81
653.465	2.47
653.793	2.26
654.121	2.04
654.449	2.17
654.777	2.19
655.105	2.26
655.433	2.07
655.761	2.42
656.089	1.87
656.417	2.67
656.745	1.76
657.073	2.29
657.4	2.19
657.728	2.27
658.056	2.02
658.383	1.9
658.711	2.12
659.038	2.63
659.365	2.39
659.693	1.97
660.02	2.58
660.347	2.26
660.674	2.01
661.001	2.19
661.329	2.67
661.656	2.06
661.982	2.42
662.309	2.36
662.636	2.81
662.963	2.08
663.29	2.37
663.616	2.31
663.943	3.07
664.27	2.7
664.596	2.5
664.923	0.94
665.249	1.63
665.576	2.12
665.902	2.55
666.228	2.24
666.554	2.73
666.881	2.47
667.207	2.1
667.533	2.39
667.859	1.83
668.185	1.17
668.511	2.05
668.837	2.45
669.162	2.64
669.488	2.74
669.814	2.45
670.139	2.26
670.465	2.05
670.791	1.95
671.116	1.91
671.442	2.31
671.767	2.71
672.092	1.98
672.418	2.44
672.743	1.77
673.068	2.76
673.393	2.77
673.718	2.67
674.043	2.12
674.368	3.07
674.693	3.23
675.018	2.7
675.343	2.13
675.667	2.33
675.992	1.98
676.317	3.02
676.641	2.12
676.966	2.13
677.29	2.18
677.615	2.36
677.939	2.64
678.264	2.61
678.588	1.77
678.912	1.91
679.236	2.09
679.56	1.78
679.885	2.5
680.209	1.5
680.532	1.87
680.856	2.21
681.18	2.47
681.504	2.44
681.828	2.91
682.152	1.52
682.475	2.53
682.799	2.52
683.122	1.98
683.446	2.47
683.769	2.9
684.093	2.2
684.416	2.72
684.739	2.96
685.062	2.08
685.386	2.03
685.709	2.64
686.032	2.46
686.355	2.07
686.678	2.25
687.001	2.45
687.324	2.44
687.646	2.81
687.969	2.53
688.292	2.04
688.614	2.05
688.937	2.15
689.26	2.2
689.582	2.15
689.904	1.59
690.227	2.66
690.549	2.47
690.871	2.66
691.194	2.16
691.516	2.11
691.838	1.91
692.16	1.91
