Data from 2019-3_forehead_Reflection__1__171.txt Node

Date: Fri Nov 11 18:13:11 CST 2022
User: ToomeyLab
Spectrometer: FLMS14357
Trigger mode: 0
Integration Time (sec): 1.000000E-2
Scans to average: 100
Electric dark correction enabled: true
Nonlinearity correction enabled: false
Boxcar width: 0
XAxis mode: Wavelengths
Number of Pixels in Spectrum: 2048
>>>>>Begin Spectral Data<<<<<
189.047	80.94
189.435	80.94
189.823	80.94
190.211	-1147.71
190.599	-159.72
190.987	-16.7
191.375	287.25
191.763	184.26
192.151	143.09
192.538	100.82
192.926	1251.4
193.314	38.66
193.702	283.39
194.089	95.59
194.477	176.91
194.864	-29.73
195.252	-180.4
195.639	208.29
196.027	290.71
196.414	1.13
196.801	169.63
197.189	-402.27
197.576	16.79
197.963	91.21
198.351	59.81
198.738	41.05
199.125	10.21
199.512	26.97
199.899	28.01
200.286	-3.98
200.673	-29
201.06	16.64
201.447	11.48
201.833	28.68
202.22	-19.73
202.607	1.26
202.994	25.78
203.38	31.79
203.767	22.34
204.154	-16.4
204.54	-17.08
204.927	4.15
205.313	-7.1
205.699	-6.32
206.086	-18.74
206.472	-61.58
206.858	45.45
207.245	50.53
207.631	-7.59
208.017	-74.98
208.403	1.82
208.789	49.55
209.175	-42.85
209.561	31.53
209.947	10.37
210.333	57.38
210.719	19.41
211.105	44.35
211.491	31.53
211.876	-24.74
212.262	-30.23
212.648	40.42
213.034	18.73
213.419	18.88
213.805	27.25
214.19	12.66
214.576	9.28
214.961	-3.09
215.346	1.43
215.732	27.03
216.117	27
216.502	29.83
216.888	-1.44
217.273	8.8
217.658	13.99
218.043	-0.19
218.428	29.03
218.813	22.07
219.198	11.03
219.583	-11.5
219.968	-36.36
220.353	20.98
220.738	8.2
221.122	-14.07
221.507	19.73
221.892	14.1
222.276	5.18
222.661	14.76
223.046	-5.96
223.43	6.11
223.815	0.68
224.199	10.63
224.583	12.97
224.968	12.72
225.352	13.21
225.736	-3.69
226.121	4.08
226.505	7.92
226.889	3.96
227.273	8.11
227.657	5.76
228.041	1.57
228.425	1.52
228.809	10.93
229.193	2.56
229.577	2.86
229.961	4.27
230.344	2.87
230.728	2.56
231.112	2.8
231.495	4.36
231.879	3.28
232.263	4.96
232.646	4.41
233.03	3.07
233.413	3.72
233.797	4.17
234.18	0.39
234.563	2.89
234.946	1.71
235.33	2.98
235.713	1.38
236.096	3.62
236.479	3.2
236.862	4.29
237.245	4.51
237.628	2.03
238.011	2.03
238.394	3.2
238.777	2.94
239.16	3.43
239.543	4.96
239.925	2.82
240.308	4.39
240.691	5.28
241.073	2.39
241.456	3.05
241.838	3.47
242.221	3.35
242.603	3.07
242.986	2.87
243.368	3.62
243.75	3.1
244.133	2.79
244.515	3.48
244.897	3.72
245.279	3.54
245.661	2.98
246.043	3.21
246.425	3.88
246.807	4.4
247.189	4.12
247.571	3.88
247.953	3.53
248.335	3.51
248.717	3.48
249.098	3.47
249.48	3.39
249.862	3.34
250.243	3.29
250.625	3.17
251.006	3.08
251.388	3.88
251.769	3.03
252.151	4.25
252.532	4.15
252.913	3.46
253.295	3.35
253.676	4.03
254.057	3.18
254.438	3.04
254.819	3.76
255.2	4.43
255.581	3.17
255.962	3.61
256.343	3.42
256.724	3.18
257.105	3.39
257.486	4.01
257.867	3.03
258.247	3.37
258.628	4.03
259.009	3.47
259.389	3.19
259.77	3.67
260.15	3.31
260.531	3.75
260.911	3.19
261.292	3.28
261.672	3.25
262.052	3.31
262.432	3.15
262.813	3.71
263.193	4.11
263.573	3.7
263.953	3.68
264.333	2.79
264.713	3.39
265.093	3.82
265.473	3.75
265.853	4.09
266.233	4.12
266.612	3.96
266.992	3.23
267.372	3.98
267.752	3.86
268.131	4.12
268.511	3.12
268.89	3.75
269.27	3.2
269.649	3.16
270.029	3.21
270.408	2.91
270.787	3.78
271.167	3.53
271.546	3.88
271.925	3.31
272.304	3.68
272.683	3.37
273.062	3.27
273.441	2.98
273.82	3.46
274.199	3.12
274.578	3.25
274.957	3.55
275.336	3.06
275.715	3.48
276.093	3.53
276.472	3.62
276.851	3.42
277.229	3.63
277.608	3.1
277.986	3.89
278.365	3.37
278.743	3.05
279.122	3.4
279.5	3.5
279.878	3.48
280.257	3.35
280.635	3.19
281.013	3.38
281.391	3.62
281.769	2.84
282.147	3.62
282.525	3.39
282.903	3.9
283.281	3.82
283.659	3.24
284.037	3.54
284.415	3.15
284.792	3.61
285.17	3.81
285.548	3.48
285.925	3.45
286.303	3.43
286.68	3.28
287.058	3.77
287.435	3.52
287.813	3.64
288.19	3.63
288.567	2.95
288.945	3.4
289.322	3.37
289.699	3.7
290.076	3.79
290.453	3.39
290.83	3.41
291.207	3.35
291.584	3.88
291.961	3.48
292.338	3.32
292.715	3.77
293.092	3.84
293.469	4.05
293.845	3.83
294.222	4.15
294.599	4.45
294.975	3.38
295.352	3.86
295.728	3.68
296.105	3.96
296.481	4.35
296.858	4.12
297.234	4.23
297.61	3.69
297.986	4.12
298.363	4.37
298.739	3.97
299.115	4.28
299.491	4.15
299.867	4.61
300.243	4.49
300.619	4.48
300.995	4.56
301.371	4.9
301.746	4.32
302.122	4.41
302.498	4.91
302.874	4.63
303.249	4.79
303.625	4.68
304	5.01
304.376	4.35
304.751	4.71
305.127	5
305.502	4.93
305.878	4.97
306.253	5.1
306.628	5.33
307.003	5.44
307.378	4.72
307.754	5.11
308.129	5.64
308.504	4.79
308.879	5.82
309.254	5.6
309.629	5.84
310.003	5.4
310.378	6.09
310.753	5.45
311.128	5.89
311.502	5.19
311.877	5.7
312.252	6.34
312.626	5.81
313.001	6.01
313.375	5.47
313.75	6.26
314.124	6.07
314.498	6.48
314.873	6.67
315.247	6.32
315.621	6.59
315.995	6.19
316.369	6.52
316.743	6.83
317.117	6.57
317.491	7.19
317.865	7.9
318.239	7.33
318.613	6.89
318.987	7.03
319.361	7.38
319.734	7.62
320.108	7.33
320.482	7.27
320.855	7.41
321.229	7.17
321.602	7.74
321.976	8.08
322.349	7.72
322.723	8.2
323.096	7.91
323.469	7.96
323.843	7.95
324.216	7.8
324.589	8.53
324.962	7.4
325.335	7.79
325.708	8.12
326.081	7.67
326.454	8.69
326.827	7.92
327.2	8.62
327.573	8.5
327.945	8.41
328.318	8.26
328.691	8.33
329.063	8.35
329.436	8.83
329.809	8.23
330.181	8.35
330.553	8.32
330.926	8.52
331.298	8.82
331.671	8.84
332.043	8.88
332.415	8.74
332.787	8.73
333.159	8.79
333.532	8.95
333.904	9.38
334.276	8.98
334.648	8.79
335.02	9.53
335.391	9.26
335.763	9.36
336.135	9.63
336.507	9.96
336.879	9.87
337.25	9.97
337.622	9.94
337.993	9.7
338.365	10.22
338.736	9.49
339.108	10.1
339.479	9.72
339.851	9.78
340.222	9.86
340.593	9.74
340.964	9.8
341.336	9.74
341.707	9.89
342.078	9.85
342.449	10.29
342.82	10.59
343.191	10.41
343.562	10.69
343.933	10.04
344.303	10.18
344.674	10.87
345.045	10.33
345.416	10.7
345.786	10.76
346.157	10.85
346.527	10.8
346.898	10.6
347.268	10.29
347.639	10.7
348.009	11.07
348.38	11.25
348.75	11.35
349.12	10.91
349.49	10.76
349.861	11.18
350.231	11.2
350.601	11.48
350.971	11.14
351.341	11.52
351.711	11.34
352.081	11.42
352.45	11.3
352.82	11.8
353.19	11.65
353.56	12.12
353.929	11.23
354.299	11.57
354.669	11.64
355.038	11.8
355.408	11.3
355.777	11.78
356.147	11.9
356.516	11.71
356.885	12.1
357.254	12.43
357.624	11.85
357.993	11.81
358.362	12.19
358.731	12.13
359.1	12.52
359.469	12.31
359.838	12.24
360.207	12.33
360.576	12.37
360.945	12.52
361.314	12.71
361.682	12.55
362.051	12.92
362.42	12.48
362.788	12.65
363.157	12.5
363.525	12.56
363.894	12.61
364.262	12.58
364.631	12.81
364.999	12.83
365.367	12.74
365.735	12.86
366.104	13.21
366.472	13.35
366.84	13.37
367.208	13.22
367.576	13.37
367.944	13.35
368.312	13.22
368.68	13.47
369.048	13.33
369.416	13.69
369.783	13.77
370.151	13.42
370.519	13.85
370.886	13.79
371.254	14.01
371.621	13.74
371.989	14.09
372.356	13.85
372.724	13.96
373.091	13.8
373.458	13.92
373.826	14.17
374.193	14.06
374.56	14.1
374.927	14.29
375.294	14.32
375.661	14.24
376.028	14.39
376.395	14.51
376.762	14.43
377.129	14.41
377.496	14.62
377.863	14.35
378.229	14.54
378.596	14.65
378.963	14.82
379.329	14.68
379.696	14.65
380.062	14.65
380.429	14.93
380.795	14.84
381.161	15.05
381.528	15.39
381.894	15.03
382.26	15.08
382.626	15.28
382.993	15.17
383.359	15.21
383.725	15.45
384.091	15.29
384.457	15.67
384.823	15.61
385.188	15.63
385.554	15.56
385.92	15.47
386.286	15.64
386.651	15.55
387.017	15.84
387.383	15.94
387.748	15.75
388.114	15.64
388.479	15.93
388.845	16.14
389.21	15.91
389.575	15.82
389.94	16.49
390.306	16.16
390.671	16.02
391.036	16.25
391.401	16.53
391.766	16.79
392.131	16.69
392.496	16.42
392.861	16.16
393.226	16.54
393.591	16.61
393.956	16.79
394.32	16.63
394.685	16.74
395.05	16.64
395.414	16.83
395.779	16.66
396.143	16.94
396.508	17.03
396.872	16.78
397.236	17.05
397.601	17.12
397.965	17.12
398.329	17.23
398.694	17.18
399.058	17.34
399.422	17.47
399.786	17.45
400.15	17.48
400.514	17.54
400.878	17.56
401.242	17.53
401.605	17.3
401.969	17.71
402.333	17.61
402.697	17.87
403.06	17.82
403.424	17.82
403.787	17.93
404.151	17.94
404.514	17.73
404.878	17.77
405.241	17.94
405.604	17.88
405.968	17.93
406.331	17.84
406.694	17.94
407.057	18.02
407.42	18.09
407.783	18.16
408.146	18.26
408.509	18.53
408.872	18.65
409.235	18.68
409.598	18.76
409.961	18.68
410.323	18.84
410.686	18.83
411.049	18.79
411.411	19.01
411.774	18.77
412.136	18.79
412.499	18.95
412.861	18.78
413.223	18.87
413.586	18.84
413.948	19
414.31	19.13
414.672	19.21
415.035	19.16
415.397	19.2
415.759	19.37
416.121	19.37
416.483	19.32
416.845	19.3
417.206	19.54
417.568	19.47
417.93	19.57
418.292	19.3
418.653	19.52
419.015	19.42
419.377	19.39
419.738	19.39
420.1	19.45
420.461	19.62
420.822	19.57
421.184	19.65
421.545	19.61
421.906	19.67
422.267	19.55
422.629	19.4
422.99	19.45
423.351	19.59
423.712	19.64
424.073	19.78
424.434	19.99
424.795	19.98
425.155	19.94
425.516	19.87
425.877	19.9
426.238	19.83
426.598	20.03
426.959	20.22
427.32	20.33
427.68	20.59
428.041	20.55
428.401	20.88
428.761	20.87
429.122	21
429.482	20.98
429.842	21.07
430.202	21.2
430.563	21.28
430.923	21.23
431.283	21.46
431.643	21.04
432.003	21.32
432.363	21.35
432.722	21.44
433.082	21.53
433.442	21.54
433.802	21.47
434.161	21.64
434.521	21.45
434.881	21.42
435.24	21.5
435.6	21.41
435.959	21.33
436.319	21.96
436.678	21.65
437.037	21.99
437.396	22.2
437.756	22.06
438.115	22.14
438.474	22.11
438.833	22.11
439.192	22.1
439.551	22.26
439.91	22.27
440.269	22.13
440.628	22.24
440.987	22.15
441.345	22.04
441.704	22.28
442.063	22.24
442.421	22.22
442.78	22.25
443.138	22.41
443.497	22.43
443.855	22.62
444.214	22.77
444.572	22.93
444.93	22.92
445.288	22.93
445.647	22.93
446.005	23.17
446.363	22.87
446.721	22.89
447.079	22.86
447.437	22.71
447.795	22.69
448.153	22.73
448.51	22.76
448.868	22.83
449.226	22.92
449.584	23.17
449.941	23.28
450.299	23.31
450.656	23.55
451.014	23.78
451.371	23.76
451.729	23.88
452.086	23.93
452.443	23.8
452.801	24
453.158	24.14
453.515	24.09
453.872	24.09
454.229	24.09
454.586	24.05
454.943	24.19
455.3	24.16
455.657	24.16
456.014	24.4
456.371	24.4
456.727	24.29
457.084	24.68
457.441	24.68
457.797	24.7
458.154	24.86
458.51	24.89
458.867	24.86
459.223	25.02
459.58	25.05
459.936	24.74
460.292	24.75
460.648	24.63
461.005	24.71
461.361	24.4
461.717	24.51
462.073	24.55
462.429	24.41
462.785	24.76
463.141	24.86
463.496	25.04
463.852	25.25
464.208	25.18
464.564	25.47
464.919	25.63
465.275	25.6
465.631	25.52
465.986	25.75
466.342	25.88
466.697	25.67
467.052	25.91
467.408	25.99
467.763	25.95
468.118	25.94
468.473	25.83
468.829	25.81
469.184	25.91
469.539	26.02
469.894	25.98
470.249	26.16
470.603	26.18
470.958	26.35
471.313	26.18
471.668	26.34
472.023	26.34
472.377	26.59
472.732	26.41
473.086	26.54
473.441	26.63
473.795	26.68
474.15	26.68
474.504	26.9
474.859	26.74
475.213	27.01
475.567	26.89
475.921	26.74
476.275	27.05
476.63	27.13
476.984	27.23
477.338	27.07
477.692	27.21
478.045	27.05
478.399	27.16
478.753	27.17
479.107	27.29
479.461	27.35
479.814	27.39
480.168	27.17
480.521	27.3
480.875	27.4
481.228	27.48
481.582	27.41
481.935	27.61
482.289	27.6
482.642	27.47
482.995	27.51
483.348	27.44
483.701	27.41
484.055	27.48
484.408	27.39
484.761	27.12
485.114	26.85
485.466	26.67
485.819	26.56
486.172	26.59
486.525	26.59
486.878	26.86
487.23	27.07
487.583	27.23
487.936	27.42
488.288	27.45
488.641	27.41
488.993	27.2
489.345	27.25
489.698	27.2
490.05	27.25
490.402	27.37
490.754	27.57
491.107	27.77
491.459	27.96
491.811	28.21
492.163	28.4
492.515	28.33
492.866	28.18
493.218	27.97
493.57	27.76
493.922	27.79
494.274	27.94
494.625	28.22
494.977	28.51
495.328	28.86
495.68	29
496.031	29.16
496.383	29.2
496.734	29.36
497.086	29.3
497.437	29.46
497.788	29.42
498.139	29.34
498.49	29.24
498.842	29.19
499.193	29.33
499.544	29.29
499.894	29.36
500.245	29.52
500.596	29.63
500.947	29.65
501.298	29.67
501.648	29.81
501.999	29.91
502.35	30.14
502.7	30.17
503.051	30.18
503.401	30.3
503.752	30.06
504.102	30.16
504.452	30.26
504.803	30.41
505.153	30.5
505.503	30.54
505.853	30.39
506.203	30.56
506.553	30.53
506.903	30.54
507.253	30.53
507.603	30.69
507.953	30.77
508.303	30.84
508.652	30.7
509.002	30.8
509.352	30.72
509.701	30.71
510.051	30.66
510.4	30.68
510.75	30.64
511.099	30.72
511.449	30.85
511.798	30.97
512.147	31.02
512.496	31.04
512.846	31.19
513.195	31.25
513.544	31.24
513.893	31.13
514.242	31.16
514.591	31.14
514.939	31.39
515.288	31.5
515.637	31.52
515.986	31.71
516.334	31.62
516.683	31.76
517.032	31.91
517.38	32.06
517.729	31.85
518.077	32.16
518.426	32
518.774	31.81
519.122	31.83
519.47	31.93
519.819	31.85
520.167	31.69
520.515	31.56
520.863	31.61
521.211	31.69
521.559	31.62
521.907	31.78
522.255	31.97
522.602	32.17
522.95	32.32
523.298	32.49
523.645	32.55
523.993	32.54
524.341	32.66
524.688	32.64
525.036	32.84
525.383	32.97
525.73	32.8
526.078	32.78
526.425	32.76
526.772	32.65
527.119	32.61
527.466	32.5
527.814	32.2
528.161	32.36
528.508	32.51
528.854	32.6
529.201	32.8
529.548	32.61
529.895	32.35
530.242	32.15
530.588	32.09
530.935	32.05
531.282	31.98
531.628	32.05
531.975	32.23
532.321	32.58
532.667	32.67
533.014	33
533.36	33.18
533.706	33.1
534.052	33.26
534.399	33.04
534.745	32.98
535.091	32.56
535.437	32.79
535.783	32.9
536.129	33.01
536.474	33.12
536.82	33.42
537.166	33.71
537.512	33.8
537.857	33.83
538.203	33.49
538.549	33.71
538.894	33.66
539.239	33.55
539.585	33.86
539.93	34.01
540.276	34.22
540.621	34.49
540.966	34.75
541.311	34.63
541.656	34.67
542.001	34.54
542.346	34.39
542.691	34
543.036	33.68
543.381	33.68
543.726	33.59
544.071	33.71
544.415	33.9
544.76	33.91
545.105	34.25
545.449	34.28
545.794	34.54
546.138	34.72
546.483	34.77
546.827	34.9
547.171	34.99
547.516	34.88
547.86	34.93
548.204	34.95
548.548	35.03
548.892	34.9
549.236	35.01
549.58	35.11
549.924	35.38
550.268	35.62
550.612	35.68
550.956	35.96
551.3	36
551.643	35.91
551.987	35.87
552.33	36.21
552.674	36.21
553.017	36.23
553.361	36.11
553.704	36.38
554.048	36.11
554.391	36.21
554.734	36.03
555.077	36.07
555.42	36.15
555.764	36.45
556.107	36.55
556.45	36.5
556.793	36.78
557.135	36.71
557.478	36.8
557.821	36.58
558.164	36.81
558.507	36.82
558.849	37.03
559.192	37
559.534	37
559.877	37.13
560.219	37.21
560.562	37.43
560.904	37.31
561.246	37.29
561.589	37.18
561.931	37.4
562.273	37.79
562.615	37.47
562.957	37.53
563.299	37.41
563.641	37.35
563.983	37.38
564.325	37.51
564.667	37.5
565.008	37.82
565.35	37.64
565.692	37.8
566.033	37.88
566.375	37.99
566.716	37.78
567.058	37.66
567.399	37.95
567.741	37.87
568.082	37.81
568.423	37.82
568.764	37.62
569.105	37.9
569.447	38.08
569.788	38.06
570.129	37.92
570.47	38.48
570.811	38.11
571.151	38.18
571.492	38.2
571.833	38.35
572.174	38.23
572.514	38.64
572.855	38.39
573.195	38.5
573.536	38.44
573.876	38.25
574.217	38.45
574.557	38.32
574.898	38.42
575.238	38.52
575.578	38.69
575.918	38.65
576.258	38.78
576.598	38.67
576.938	38.96
577.278	38.83
577.618	38.81
577.958	38.88
578.298	38.87
578.638	39.17
578.977	39.19
579.317	39.18
579.657	39.42
579.996	39.37
580.336	39.28
580.675	39.68
581.014	39.53
581.354	39.68
581.693	39.88
582.032	39.63
582.372	39.85
582.711	39.96
583.05	39.89
583.389	40.14
583.728	39.89
584.067	40.06
584.406	39.66
584.745	40.12
585.083	40.17
585.422	40.24
585.761	40.02
586.1	40.28
586.438	40.25
586.777	40.26
587.115	40.55
587.454	40.32
587.792	40.45
588.13	40.23
588.469	40.68
588.807	40.75
589.145	40.47
589.483	40.64
589.821	40.78
590.159	40.91
590.497	40.61
590.835	40.76
591.173	40.68
591.511	40.82
591.849	40.8
592.187	41.01
592.524	40.81
592.862	40.84
593.2	40.91
593.537	40.89
593.875	41.23
594.212	40.96
594.55	41.43
594.887	41.28
595.224	41.22
595.561	41.19
595.899	41.19
596.236	41.28
596.573	41.21
596.91	41.32
597.247	41.44
597.584	41.33
597.921	41.35
598.258	41.43
598.594	41.12
598.931	41.01
599.268	41.11
599.604	41.12
599.941	41.16
600.277	41.06
600.614	41.5
600.95	41.53
601.287	41.92
601.623	41.94
601.959	42.04
602.296	42.03
602.632	42.03
602.968	42.1
603.304	42.29
603.64	42.56
603.976	42.15
604.312	42.18
604.648	42.15
604.984	41.88
605.319	41.93
605.655	41.82
605.991	41.77
606.326	41.65
606.662	41.96
606.998	41.94
607.333	42.23
607.668	42.3
608.004	41.95
608.339	42.41
608.674	42.48
609.01	42.64
609.345	42.47
609.68	42.53
610.015	42.71
610.35	43.1
610.685	43.03
611.02	42.6
611.355	42.53
611.689	42.56
612.024	42.5
612.359	42.56
612.694	42.99
613.028	42.81
613.363	43.03
613.697	43.25
614.032	43.46
614.366	43.48
614.7	43.39
615.035	43.01
615.369	43.67
615.703	43.23
616.037	43.73
616.371	43.67
616.705	43.41
617.039	43.56
617.373	43.53
617.707	43.64
618.041	44.22
618.375	44.05
618.709	43.52
619.042	43.99
619.376	44.14
619.71	43.64
620.043	43.97
620.377	43.99
620.71	44.72
621.043	44.06
621.377	44.09
621.71	43.88
622.043	44.29
622.376	43.94
622.709	44.07
623.043	44.45
623.376	44.24
623.709	44.65
624.041	44.19
624.374	44.51
624.707	44.28
625.04	44.27
625.373	44.54
625.705	44.6
626.038	44.6
626.37	44.6
626.703	44.93
627.035	44.85
627.368	44.8
627.7	44.99
628.032	45.04
628.365	44.82
628.697	44.81
629.029	44.68
629.361	44.78
629.693	44.74
630.025	45.13
630.357	44.97
630.689	44.93
631.021	44.58
631.353	45.15
631.684	44.76
632.016	45.26
632.348	45.26
632.679	45.32
633.011	44.97
633.342	45.52
633.674	45.4
634.005	45.2
634.336	45.53
634.668	45.14
634.999	45.83
635.33	45.51
635.661	45.48
635.992	45.42
636.323	45.49
636.654	45.48
636.985	45.54
637.316	45.47
637.647	45.87
637.977	46.3
638.308	45.85
638.639	45.88
638.969	45.99
639.3	46.06
639.63	46.11
639.961	46.03
640.291	46.51
640.622	45.87
640.952	45.97
641.282	46.27
641.612	46.18
641.943	46.5
642.273	46.09
642.603	46.21
642.933	46.13
643.263	46.4
643.592	46.35
643.922	46.78
644.252	46.82
644.582	46.56
644.911	46.64
645.241	46.53
645.571	46.33
645.9	46.64
646.23	46.64
646.559	46.17
646.888	46.74
647.218	47.09
647.547	47.28
647.876	47.2
648.205	46.89
648.534	46.98
648.863	46.74
649.192	46.98
649.521	47.27
649.85	46.87
650.179	47.14
650.508	46.65
650.837	47.17
651.165	46.95
651.494	47.36
651.822	47.14
652.151	46.97
652.479	47.65
652.808	46.97
653.136	47.77
653.465	47.75
653.793	47.43
654.121	47.38
654.449	47.81
654.777	47.47
655.105	47.32
655.433	47.77
655.761	47.58
656.089	47.33
656.417	47.84
656.745	47.61
657.073	47.75
657.4	48.27
657.728	47.48
658.056	47.76
658.383	47.56
658.711	47.86
659.038	48.45
659.365	48.3
659.693	48.33
660.02	48.4
660.347	48.42
660.674	48
661.001	47.69
661.329	48.14
661.656	48.62
661.982	48.21
662.309	47.76
662.636	48.03
662.963	48.02
663.29	48.03
663.616	48.19
663.943	49.19
664.27	48.54
664.596	48.35
664.923	48.22
665.249	48.12
665.576	48.61
665.902	48.49
666.228	49.03
666.554	49.12
666.881	48.93
667.207	48.57
667.533	48.47
667.859	48.57
668.185	48.3
668.511	48.59
668.837	48.48
669.162	48.76
669.488	49.2
669.814	49.5
670.139	49.24
670.465	49.01
