Data from 2019-3_forehead_Reflection__0__170.txt Node

Date: Fri Nov 11 18:12:58 CST 2022
User: ToomeyLab
Spectrometer: FLMS14357
Trigger mode: 0
Integration Time (sec): 1.000000E-2
Scans to average: 100
Electric dark correction enabled: true
Nonlinearity correction enabled: false
Boxcar width: 0
XAxis mode: Wavelengths
Number of Pixels in Spectrum: 2048
>>>>>Begin Spectral Data<<<<<
189.047	103.53
189.435	103.53
189.823	103.53
190.211	80.73
190.599	77.51
190.987	-118.45
191.375	141.27
191.763	80.47
192.151	85.14
192.538	39.28
192.926	1674.77
193.314	106.04
193.702	627.24
194.089	-151.71
194.477	-9.2
194.864	3.09
195.252	19.71
195.639	161.02
196.027	626.63
196.414	7.31
196.801	7.74
197.189	-626.54
197.576	52.77
197.963	-15.82
198.351	0.56
198.738	-2.58
199.125	1.53
199.512	28.69
199.899	33.5
200.286	-108.53
200.673	-11.39
201.06	2.75
201.447	33.43
201.833	40.45
202.22	14.14
202.607	23.09
202.994	38.59
203.38	-12.85
203.767	-2.45
204.154	10.79
204.54	17.15
204.927	-31.53
205.313	-2.7
205.699	6.4
206.086	-20.16
206.472	-80.02
206.858	34.49
207.245	42.45
207.631	-12.41
208.017	-38.78
208.403	29.4
208.789	36.91
209.175	-37.54
209.561	-9.31
209.947	8.79
210.333	28.07
210.719	3.78
211.105	10.2
211.491	23.87
211.876	-7.51
212.262	-37.35
212.648	12.54
213.034	0.92
213.419	-34.85
213.805	29.2
214.19	5.75
214.576	19.23
214.961	0.68
215.346	-5.12
215.732	13.46
216.117	29.72
216.502	1.36
216.888	-8.04
217.273	12.72
217.658	10.81
218.043	2.42
218.428	43.46
218.813	-0.43
219.198	24.69
219.583	20.78
219.968	-0.33
220.353	-1.68
220.738	5.88
221.122	-30.81
221.507	17.17
221.892	29.42
222.276	11.15
222.661	8.14
223.046	-4.95
223.43	9.23
223.815	10.44
224.199	0.32
224.583	15.21
224.968	7.63
225.352	5.01
225.736	2.06
226.121	6.03
226.505	0.94
226.889	-1.35
227.273	2.33
227.657	2.2
228.041	-0.25
228.425	0.45
228.809	1.59
229.193	1.87
229.577	2.8
229.961	2.25
230.344	1.84
230.728	1.25
231.112	2.02
231.495	2.18
231.879	2
232.263	3.19
232.646	0.84
233.03	0.51
233.413	2.13
233.797	2.87
234.18	1.22
234.563	0.11
234.946	-0.45
235.33	1.14
235.713	0.14
236.096	2.37
236.479	0.96
236.862	1.91
237.245	3.7
237.628	0.63
238.011	2.04
238.394	3.68
238.777	1.53
239.16	3.68
239.543	2.74
239.925	2.26
240.308	1.96
240.691	2.86
241.073	2.52
241.456	2.6
241.838	2.65
242.221	1.37
242.603	0.76
242.986	1.64
243.368	2.41
243.75	2.03
244.133	2
244.515	1.93
244.897	1.96
245.279	2.19
245.661	2.46
246.043	1.92
246.425	1.68
246.807	2.51
247.189	1.78
247.571	2.04
247.953	1.71
248.335	2.37
248.717	2.38
249.098	2.19
249.48	2.09
249.862	2.05
250.243	1.84
250.625	2.31
251.006	1.73
251.388	1.47
251.769	2.34
252.151	2.55
252.532	1.77
252.913	2.07
253.295	1.94
253.676	2.62
254.057	2.1
254.438	1.72
254.819	1.53
255.2	3.28
255.581	3.1
255.962	1.65
256.343	1.73
256.724	1.58
257.105	2.41
257.486	2.23
257.867	2.62
258.247	2.88
258.628	1.9
259.009	1.99
259.389	2.32
259.77	2.33
260.15	2.68
260.531	2.17
260.911	1.92
261.292	1.96
261.672	2.13
262.052	2.11
262.432	1.92
262.813	2.29
263.193	2.57
263.573	2.14
263.953	2.55
264.333	2.66
264.713	2.88
265.093	2.1
265.473	2.47
265.853	2.86
266.233	2.81
266.612	2.09
266.992	2.72
267.372	2.71
267.752	1.89
268.131	2.15
268.511	2.13
268.89	2.41
269.27	2.19
269.649	2.07
270.029	2.27
270.408	2.37
270.787	2.19
271.167	2.6
271.546	2.62
271.925	2.46
272.304	2.46
272.683	2.36
273.062	2.33
273.441	1.86
273.82	2.01
274.199	1.95
274.578	1.78
274.957	2.3
275.336	2.15
275.715	2.24
276.093	2.64
276.472	2.55
276.851	2.53
277.229	1.79
277.608	2.02
277.986	2.19
278.365	1.51
278.743	2.47
279.122	2.68
279.5	2.02
279.878	2.58
280.257	2.39
280.635	2.1
281.013	2.25
281.391	2.73
281.769	1.3
282.147	2.02
282.525	1.89
282.903	2.69
283.281	2.87
283.659	2.24
284.037	2.18
284.415	1.89
284.792	2.27
285.17	2.35
285.548	2.47
285.925	2.25
286.303	1.99
286.68	1.85
287.058	2.33
287.435	2.12
287.813	2.22
288.19	2.15
288.567	1.67
288.945	1.69
289.322	2.02
289.699	1.99
290.076	2.4
290.453	2.38
290.83	2.24
291.207	2.49
291.584	2.55
291.961	2.52
292.338	2.48
292.715	2.38
293.092	2.33
293.469	2.45
293.845	2.68
294.222	2.84
294.599	2.58
294.975	2.05
295.352	2.45
295.728	2.31
296.105	2.43
296.481	2.71
296.858	3.03
297.234	3.03
297.61	2.66
297.986	2.51
298.363	2.88
298.739	2.56
299.115	2.97
299.491	2.85
299.867	3.05
300.243	3.04
300.619	2.94
300.995	2.96
301.371	3.45
301.746	2.56
302.122	2.92
302.498	3.98
302.874	3.25
303.249	3.08
303.625	3.09
304	3.29
304.376	2.76
304.751	3.55
305.127	3.61
305.502	3.21
305.878	3.36
306.253	3.45
306.628	3.12
307.003	3.33
307.378	3.01
307.754	3.49
308.129	3.47
308.504	3.53
308.879	4.18
309.254	3.65
309.629	4.23
310.003	4
310.378	3.9
310.753	3.6
311.128	3.94
311.502	3.61
311.877	4.17
312.252	4.34
312.626	3.87
313.001	4.21
313.375	3.81
313.75	4.16
314.124	4.29
314.498	4.15
314.873	4.27
315.247	3.96
315.621	4.11
315.995	4.13
316.369	4.32
316.743	4.58
317.117	4.42
317.491	4.84
317.865	5.09
318.239	4.66
318.613	4.59
318.987	4.63
319.361	4.93
319.734	4.94
320.108	4.25
320.482	5.34
320.855	4.77
321.229	4.97
321.602	4.54
321.976	5.09
322.349	5.27
322.723	5.06
323.096	4.94
323.469	5.09
323.843	5.03
324.216	4.99
324.589	5.66
324.962	4.73
325.335	5.3
325.708	5.18
326.081	5.18
326.454	5.59
326.827	5.45
327.2	5.49
327.573	5.43
327.945	5.44
328.318	5.3
328.691	5.34
329.063	5.89
329.436	5.77
329.809	5.87
330.181	5.32
330.553	5.83
330.926	5.58
331.298	5.33
331.671	5.74
332.043	5.71
332.415	5.61
332.787	6.02
333.159	5.67
333.532	5.72
333.904	6.19
334.276	6.4
334.648	5.62
335.02	6.08
335.391	5.85
335.763	5.89
336.135	6.13
336.507	6.55
336.879	6.22
337.25	6.16
337.622	6.71
337.993	6.53
338.365	6.68
338.736	6.19
339.108	6.09
339.479	6.17
339.851	6.42
340.222	6.5
340.593	6.34
340.964	6.45
341.336	6.49
341.707	6.34
342.078	6.55
342.449	7.13
342.82	6.79
343.191	6.82
343.562	6.86
343.933	6.12
344.303	6.6
344.674	6.53
345.045	6.7
345.416	6.67
345.786	6.81
346.157	7.47
346.527	6.96
346.898	7.05
347.268	6.91
347.639	7.04
348.009	7.26
348.38	7.2
348.75	7.2
349.12	6.89
349.49	7.17
349.861	6.62
350.231	7.22
350.601	7.37
350.971	7.29
351.341	7.49
351.711	7.09
352.081	7.46
352.45	7.25
352.82	7.22
353.19	7.57
353.56	7.63
353.929	6.96
354.299	7.73
354.669	7.58
355.038	7.8
355.408	7.27
355.777	7.85
356.147	7.77
356.516	7.29
356.885	7.43
357.254	7.88
357.624	7.2
357.993	7.55
358.362	7.91
358.731	7.58
359.1	7.71
359.469	7.73
359.838	7.86
360.207	7.86
360.576	7.65
360.945	7.84
361.314	8.11
361.682	8.13
362.051	8.19
362.42	7.92
362.788	8.09
363.157	8
363.525	8.04
363.894	8.12
364.262	7.66
364.631	7.89
364.999	8.29
365.367	8.23
365.735	8.4
366.104	8.45
366.472	8.68
366.84	8.53
367.208	8.36
367.576	8.36
367.944	8.44
368.312	8.03
368.68	8.46
369.048	8.48
369.416	8.43
369.783	8.84
370.151	8.6
370.519	9.18
370.886	8.66
371.254	8.63
371.621	8.83
371.989	8.89
372.356	8.61
372.724	8.74
373.091	8.82
373.458	8.63
373.826	8.99
374.193	8.64
374.56	8.83
374.927	8.92
375.294	9.09
375.661	9.14
376.028	9.21
376.395	9.09
376.762	9.17
377.129	9.21
377.496	9.5
377.863	9.1
378.229	9.21
378.596	9.11
378.963	9.52
379.329	9.37
379.696	9.35
380.062	9.27
380.429	9.43
380.795	9.15
381.161	9.17
381.528	10
381.894	9.41
382.26	9.35
382.626	9.45
382.993	9.39
383.359	9.48
383.725	9.62
384.091	9.94
384.457	9.9
384.823	9.44
385.188	9.44
385.554	9.93
385.92	9.99
386.286	10.09
386.651	9.85
387.017	9.87
387.383	9.82
387.748	9.87
388.114	10.25
388.479	9.98
388.845	9.86
389.21	9.68
389.575	9.95
389.94	9.85
390.306	10.12
390.671	10.19
391.036	10.19
391.401	10.39
391.766	10.47
392.131	10.45
392.496	10.3
392.861	10.25
393.226	10.23
393.591	10.35
393.956	10.35
394.32	10.46
394.685	10.6
395.05	10.4
395.414	10.46
395.779	10.39
396.143	10.51
396.508	10.46
396.872	10.41
397.236	10.38
397.601	10.78
397.965	10.79
398.329	11.02
398.694	10.95
399.058	10.85
399.422	10.98
399.786	11.02
400.15	10.81
400.514	10.86
400.878	10.94
401.242	11
401.605	10.7
401.969	11.09
402.333	10.93
402.697	11.35
403.06	11.06
403.424	10.97
403.787	11.33
404.151	11.24
404.514	11.34
404.878	11.05
405.241	11.28
405.604	11.17
405.968	11.17
406.331	11.11
406.694	11.17
407.057	11.08
407.42	11.2
407.783	11.33
408.146	11.33
408.509	11.44
408.872	11.42
409.235	11.49
409.598	11.62
409.961	11.62
410.323	11.8
410.686	11.89
411.049	11.56
411.411	11.83
411.774	11.6
412.136	11.54
412.499	11.61
412.861	11.73
413.223	11.75
413.586	11.69
413.948	11.53
414.31	11.75
414.672	11.73
415.035	11.96
415.397	11.94
415.759	12.03
416.121	11.99
416.483	11.98
416.845	11.94
417.206	12.08
417.568	11.99
417.93	12.2
418.292	11.99
418.653	11.95
419.015	12.18
419.377	12.02
419.738	12.13
420.1	12.09
420.461	12.14
420.822	12.18
421.184	11.99
421.545	12.16
421.906	12.23
422.267	12.13
422.629	12.05
422.99	12.1
423.351	12.14
423.712	12.17
424.073	12.31
424.434	12.3
424.795	12.39
425.155	12.25
425.516	12.34
425.877	12.23
426.238	12.28
426.598	12.49
426.959	12.5
427.32	12.49
427.68	12.8
428.041	12.72
428.401	12.95
428.761	12.8
429.122	13.01
429.482	12.99
429.842	12.87
430.202	13.31
430.563	12.99
430.923	13.05
431.283	13.1
431.643	13.14
432.003	13.07
432.363	13.01
432.722	13.13
433.082	13.22
433.442	13.37
433.802	12.96
434.161	13.36
434.521	13.25
434.881	13.14
435.24	13.22
435.6	13.3
435.959	13.18
436.319	13.53
436.678	13.46
437.037	13.49
437.396	13.5
437.756	13.56
438.115	13.6
438.474	13.63
438.833	13.74
439.192	13.65
439.551	13.67
439.91	13.7
440.269	13.57
440.628	13.7
440.987	13.72
441.345	13.68
441.704	13.57
442.063	13.77
442.421	13.83
442.78	13.67
443.138	13.83
443.497	13.83
443.855	13.88
444.214	14.14
444.572	14.08
444.93	14.13
445.288	13.99
445.647	14.21
446.005	14.17
446.363	14.09
446.721	14.24
447.079	14
447.437	13.85
447.795	14.04
448.153	14.01
448.51	14.01
448.868	14.09
449.226	14.12
449.584	14.3
449.941	14.35
450.299	14.41
450.656	14.36
451.014	14.55
451.371	14.55
451.729	14.67
452.086	14.78
452.443	14.72
452.801	14.82
453.158	14.77
453.515	14.71
453.872	14.72
454.229	14.88
454.586	14.74
454.943	14.83
455.3	14.94
455.657	14.87
456.014	15
456.371	15.07
456.727	15.03
457.084	15.16
457.441	14.88
457.797	15.24
458.154	15.15
458.51	15.26
458.867	15.19
459.223	15.3
459.58	15.31
459.936	15.11
460.292	15.3
460.648	15.11
461.005	15.17
461.361	15.03
461.717	15.04
462.073	15.08
462.429	15.07
462.785	15.27
463.141	15.37
463.496	15.44
463.852	15.59
464.208	15.56
464.564	15.6
464.919	15.75
465.275	15.86
465.631	15.76
465.986	15.97
466.342	16.05
466.697	15.91
467.052	15.74
467.408	16.21
467.763	16.01
468.118	15.99
468.473	15.96
468.829	15.85
469.184	15.79
469.539	16.06
469.894	15.92
470.249	15.92
470.603	15.92
470.958	16.1
471.313	16.13
471.668	16.16
472.023	16.23
472.377	16.36
472.732	16.4
473.086	16.39
473.441	16.43
473.795	16.39
474.15	16.36
474.504	16.47
474.859	16.34
475.213	16.31
475.567	16.57
475.921	16.64
476.275	16.55
476.63	16.72
476.984	16.84
477.338	16.7
477.692	16.74
478.045	16.65
478.399	16.66
478.753	16.75
479.107	16.76
479.461	16.83
479.814	16.76
480.168	16.86
480.521	16.83
480.875	16.99
481.228	16.99
481.582	17.03
481.935	16.95
482.289	16.97
482.642	16.96
482.995	16.91
483.348	16.75
483.701	16.84
484.055	16.89
484.408	16.69
484.761	16.6
485.114	16.42
485.466	16.19
485.819	16.13
486.172	16.19
486.525	16.29
486.878	16.4
487.23	16.51
487.583	16.81
487.936	16.77
488.288	16.91
488.641	16.79
488.993	16.62
489.345	16.61
489.698	16.55
490.05	16.67
490.402	16.7
490.754	16.92
491.107	17.02
491.459	17.24
491.811	17.35
492.163	17.48
492.515	17.44
492.866	17.24
493.218	16.94
493.57	16.97
493.922	17.11
494.274	17.18
494.625	17.42
494.977	17.45
495.328	17.84
495.68	17.89
496.031	18.1
496.383	17.89
496.734	18.03
497.086	18
497.437	18.14
497.788	18.23
498.139	18.06
498.49	18.02
498.842	18.05
499.193	18.01
499.544	18.02
499.894	18.07
500.245	18.12
500.596	18.24
500.947	18.16
501.298	18.32
501.648	18.52
501.999	18.48
502.35	18.49
502.7	18.6
503.051	18.68
503.401	18.63
503.752	18.57
504.102	18.65
504.452	18.69
504.803	18.75
505.153	18.71
505.503	18.74
505.853	18.75
506.203	18.82
506.553	18.86
506.903	18.94
507.253	18.93
507.603	18.93
507.953	19.02
508.303	19.1
508.652	19.15
509.002	19.07
509.352	18.98
509.701	18.94
510.051	19.01
510.4	19.05
510.75	19.04
511.099	19.17
511.449	19.02
511.798	19.14
512.147	19.27
512.496	19.22
512.846	19.26
513.195	19.33
513.544	19.22
513.893	19.35
514.242	19.27
514.591	19.3
514.939	19.34
515.288	19.44
515.637	19.48
515.986	19.58
516.334	19.65
516.683	19.68
517.032	19.7
517.38	19.82
517.729	19.73
518.077	19.91
518.426	19.65
518.774	19.72
519.122	19.61
519.47	19.72
519.819	19.55
520.167	19.42
520.515	19.39
520.863	19.42
521.211	19.51
521.559	19.55
521.907	19.76
522.255	19.77
522.602	19.94
522.95	20.03
523.298	20.26
523.645	20.09
523.993	20.33
524.341	20.25
524.688	20.2
525.036	20.32
525.383	20.41
525.73	20.39
526.078	20.27
526.425	20.27
526.772	20.25
527.119	20.13
527.466	20.1
527.814	20.02
528.161	20.05
528.508	20.15
528.854	20.23
529.201	20.31
529.548	20.16
529.895	19.9
530.242	19.78
530.588	19.7
530.935	19.73
531.282	19.78
531.628	19.85
531.975	19.99
532.321	20.28
532.667	20.39
533.014	20.61
533.36	20.7
533.706	20.68
534.052	20.81
534.399	20.63
534.745	20.45
535.091	20.22
535.437	20.31
535.783	20.37
536.129	20.6
536.474	20.71
536.82	20.92
537.166	21.08
537.512	21.15
537.857	21.11
538.203	20.85
538.549	20.97
538.894	20.84
539.239	20.98
539.585	20.92
539.93	21.25
540.276	21.43
540.621	21.77
540.966	21.76
541.311	21.68
541.656	21.58
542.001	21.67
542.346	21.58
542.691	21.09
543.036	20.82
543.381	20.82
543.726	20.85
544.071	20.95
544.415	21.11
544.76	21.11
545.105	21.29
545.449	21.45
545.794	21.46
546.138	21.61
546.483	21.85
546.827	21.76
547.171	21.97
547.516	21.86
547.86	21.87
548.204	21.96
548.548	21.84
548.892	21.84
549.236	21.9
549.58	22.04
549.924	22.17
550.268	22.48
550.612	22.47
550.956	22.48
551.3	22.66
551.643	22.63
551.987	22.6
552.33	22.93
552.674	22.96
553.017	22.91
553.361	22.64
553.704	22.81
554.048	22.59
554.391	22.62
554.734	22.72
555.077	22.56
555.42	22.76
555.764	22.93
556.107	22.78
556.45	22.88
556.793	23.31
557.135	23.21
557.478	23.18
557.821	23.2
558.164	23.19
558.507	23.34
558.849	23.16
559.192	23.15
559.534	23.34
559.877	23.47
560.219	23.47
560.562	23.59
560.904	23.5
561.246	23.39
561.589	23.57
561.931	23.59
562.273	23.66
562.615	23.74
562.957	23.37
563.299	23.64
563.641	23.68
563.983	23.66
564.325	23.63
564.667	23.6
565.008	23.89
565.35	23.84
565.692	23.81
566.033	23.84
566.375	23.99
566.716	23.82
567.058	23.77
567.399	23.99
567.741	23.85
568.082	23.85
568.423	23.79
568.764	23.93
569.105	24.06
569.447	24.22
569.788	24.16
570.129	23.98
570.47	24.5
570.811	24.24
571.151	24.42
571.492	24.42
571.833	24.34
572.174	24.38
572.514	24.39
572.855	24.27
573.195	24.32
573.536	24.24
573.876	24.3
574.217	24.37
574.557	24.19
574.898	24.53
575.238	24.52
575.578	24.32
575.918	24.33
576.258	24.6
576.598	24.66
576.938	24.66
577.278	24.63
577.618	24.62
577.958	24.9
578.298	24.81
578.638	24.79
578.977	25.09
579.317	24.92
579.657	25
579.996	25.04
580.336	24.95
580.675	25.32
581.014	25.16
581.354	25.41
581.693	25.37
582.032	25.22
582.372	25.2
582.711	25.32
583.05	25.22
583.389	25.29
583.728	25.55
584.067	25.54
584.406	25.52
584.745	25.44
585.083	25.65
585.422	25.6
585.761	25.78
586.1	26.04
586.438	25.68
586.777	25.73
587.115	25.81
587.454	25.72
587.792	25.83
588.13	25.78
588.469	26.15
588.807	25.83
589.145	25.84
589.483	25.94
589.821	26.29
590.159	26.02
590.497	25.67
590.835	25.84
591.173	26.08
591.511	26.18
591.849	25.93
592.187	25.91
592.524	26.08
592.862	26.11
593.2	26.07
593.537	26.09
593.875	26.33
594.212	26.06
594.55	26.3
594.887	26.44
595.224	26.4
595.561	26.25
595.899	26.23
596.236	26.43
596.573	26.4
596.91	26.63
597.247	26.36
597.584	26.38
597.921	26.21
598.258	26.78
598.594	26.19
598.931	26.07
599.268	26.41
599.604	26.22
599.941	26.55
600.277	26.52
600.614	26.62
600.95	26.75
601.287	26.77
601.623	26.88
601.959	26.97
602.296	27.03
602.632	26.81
602.968	26.92
603.304	27.09
603.64	27.14
603.976	27.21
604.312	27.16
604.648	27.13
604.984	27
605.319	26.95
605.655	26.63
605.991	26.75
606.326	26.81
606.662	26.8
606.998	26.71
607.333	27.14
607.668	27.03
608.004	27.29
608.339	27.33
608.674	27.34
609.01	27.55
609.345	27.43
609.68	27.44
610.015	27.7
610.35	27.78
610.685	27.51
611.02	27.42
611.355	27.26
611.689	27.38
612.024	27.27
612.359	27.46
612.694	27.75
613.028	27.62
613.363	27.26
613.697	27.53
614.032	27.83
614.366	28.26
614.7	27.75
615.035	27.74
615.369	28.01
615.703	27.73
616.037	27.96
616.371	27.98
616.705	28.19
617.039	28.31
617.373	27.97
617.707	28.02
618.041	28.11
618.375	28.42
618.709	28.21
619.042	28.22
619.376	28.17
619.71	28.29
620.043	28.29
620.377	27.94
620.71	28.67
621.043	28.62
621.377	28.76
621.71	27.96
622.043	28.26
622.376	28.3
622.709	28.14
623.043	28.68
623.376	28.46
623.709	28.74
624.041	28.44
624.374	28.66
624.707	28.95
625.04	28.86
625.373	28.48
625.705	29.14
626.038	28.52
626.37	28.79
626.703	29.06
627.035	28.86
627.368	28.8
627.7	28.68
628.032	28.85
628.365	28.59
628.697	29.02
629.029	29
629.361	28.9
629.693	28.92
630.025	29.15
630.357	29.12
630.689	29.14
631.021	28.96
631.353	29.33
631.684	29.54
632.016	29.41
632.348	29.24
632.679	29.29
633.011	29.09
633.342	29.28
633.674	29.31
634.005	29.05
634.336	29.3
634.668	29.62
634.999	29.66
635.33	29.53
635.661	29.6
635.992	29.19
636.323	29.24
636.654	29.45
636.985	29.66
637.316	30.04
637.647	29.81
637.977	29.73
638.308	29.59
638.639	29.86
638.969	29.43
639.3	29.68
639.63	29.56
639.961	29.74
640.291	30.33
640.622	29.66
640.952	30.01
641.282	29.84
641.612	30.01
641.943	30.05
642.273	29.94
642.603	30.1
642.933	29.78
643.263	30.04
643.592	29.89
643.922	30.59
644.252	30.19
644.582	30.26
644.911	30.11
645.241	30.04
645.571	30.36
645.9	30.1
646.23	30.21
646.559	30.63
646.888	30.3
647.218	30.29
647.547	30.29
647.876	30.28
648.205	30.87
648.534	30.38
648.863	30.98
649.192	30.55
649.521	30.32
649.85	30.72
650.179	30.85
650.508	30.3
650.837	30.71
651.165	30.39
651.494	30.56
651.822	30.58
652.151	30.76
652.479	30.97
652.808	30.92
653.136	30.69
653.465	30.62
653.793	30.76
654.121	30.49
654.449	30.81
654.777	30.97
655.105	31.41
655.433	30.61
655.761	31.22
656.089	30.89
656.417	31.23
656.745	30.93
657.073	31.13
657.4	31.51
657.728	31.01
658.056	31.1
658.383	31.02
658.711	30.67
659.038	31.09
659.365	30.86
659.693	31.22
660.02	31.26
660.347	31.45
660.674	31.16
661.001	31.04
661.329	31.18
661.656	30.97
661.982	31.74
662.309	31.11
662.636	31.58
662.963	31.49
663.29	31.12
663.616	31.6
663.943	31.52
664.27	31.33
664.596	31.5
664.923	30.75
665.249	31.3
665.576	31.7
665.902	31.92
666.228	31.73
666.554	32.02
666.881	31.97
667.207	31.83
667.533	32.14
667.859	31.47
668.185	31.19
668.511	31.24
668.837	31.54
669.162	31.83
669.488	32
669.814	31.89
670.139	32.34
670.465	32.16
670.791	32.22
671.116	31.81
671.442	31.84
671.767	32.16
672.092	32.07
672.418	32.21
672.743	31.08
673.068	32.52
673.393	31.93
