Data from 2019-3_crown_Reflection__2__167.txt Node

Date: Fri Nov 11 18:11:53 CST 2022
User: ToomeyLab
Spectrometer: FLMS14357
Trigger mode: 0
Integration Time (sec): 1.000000E-2
Scans to average: 100
Electric dark correction enabled: true
Nonlinearity correction enabled: false
Boxcar width: 0
XAxis mode: Wavelengths
Number of Pixels in Spectrum: 2048
>>>>>Begin Spectral Data<<<<<
189.047	63.3
189.435	63.3
189.823	63.3
190.211	-31.65
190.599	26.15
190.987	-34.25
191.375	58.25
191.763	39.47
192.151	86.53
192.538	50.05
192.926	1146.26
193.314	-57.54
193.702	-407.48
194.089	-245.81
194.477	29.83
194.864	47.3
195.252	0.62
195.639	103.93
196.027	572.91
196.414	-36.24
196.801	279.59
197.189	-378.8
197.576	-78.25
197.963	-44.14
198.351	0.79
198.738	-14.8
199.125	-14.33
199.512	37.61
199.899	25.61
200.286	-2.88
200.673	-17.25
201.06	-27
201.447	-0.04
201.833	22.25
202.22	-65.29
202.607	31.07
202.994	23.09
203.38	10.91
203.767	1.71
204.154	-28.72
204.54	20.48
204.927	-2.3
205.313	4.01
205.699	7.12
206.086	-59.8
206.472	-50.39
206.858	57
207.245	-20.3
207.631	-0.76
208.017	-3.46
208.403	25.88
208.789	8.34
209.175	-2.24
209.561	27.77
209.947	23.79
210.333	33.52
210.719	4.79
211.105	9.31
211.491	8.32
211.876	-29.4
212.262	0.92
212.648	34.66
213.034	2.81
213.419	3.66
213.805	11.22
214.19	7.93
214.576	1.64
214.961	10.76
215.346	-48.85
215.732	10.09
216.117	12.22
216.502	9.4
216.888	-44.53
217.273	-30.2
217.658	-14.06
218.043	-22.23
218.428	16.55
218.813	0.72
219.198	-16.68
219.583	44.04
219.968	-2.46
220.353	18.29
220.738	2.62
221.122	-19.37
221.507	23.54
221.892	8.42
222.276	3.59
222.661	16.96
223.046	4.55
223.43	7.86
223.815	0.41
224.199	-10.33
224.583	9.2
224.968	9.72
225.352	5.32
225.736	-7.45
226.121	6.77
226.505	-1.46
226.889	4.19
227.273	1.69
227.657	2.58
228.041	1.44
228.425	-3.67
228.809	1.09
229.193	0.35
229.577	2.97
229.961	2.61
230.344	1
230.728	1.36
231.112	1.48
231.495	1.91
231.879	2.28
232.263	0.36
232.646	1.31
233.03	0.95
233.413	1.35
233.797	2.77
234.18	-1.7
234.563	2.49
234.946	1.57
235.33	3.95
235.713	-0.96
236.096	2.58
236.479	1.1
236.862	0.26
237.245	3.66
237.628	1.7
238.011	0.61
238.394	1.29
238.777	1.03
239.16	2.1
239.543	3.12
239.925	0.46
240.308	2.41
240.691	3.56
241.073	1.27
241.456	2.3
241.838	2.44
242.221	1.69
242.603	1.1
242.986	1.94
243.368	1.89
243.75	1.8
244.133	1.34
244.515	2.39
244.897	2.64
245.279	1.76
245.661	1.1
246.043	1.53
246.425	1.49
246.807	2.03
247.189	1.58
247.571	1.98
247.953	1.59
248.335	2.14
248.717	2.44
249.098	2.15
249.48	1.93
249.862	2.02
250.243	2.09
250.625	2.04
251.006	1.62
251.388	2.44
251.769	2.07
252.151	2.54
252.532	2.37
252.913	2.22
253.295	1.99
253.676	2.36
254.057	1.97
254.438	1.78
254.819	1.39
255.2	2.75
255.581	1.28
255.962	1.74
256.343	2.32
256.724	1.21
257.105	2.27
257.486	1.14
257.867	2.78
258.247	1.46
258.628	1.72
259.009	1.71
259.389	2.13
259.77	2.01
260.15	1.6
260.531	1.9
260.911	2.07
261.292	1.81
261.672	1.83
262.052	1.88
262.432	1.63
262.813	2.11
263.193	2.47
263.573	1
263.953	2.34
264.333	1.81
264.713	2.01
265.093	1.79
265.473	2.14
265.853	2.81
266.233	2.25
266.612	2.15
266.992	1.97
267.372	2.22
267.752	1.68
268.131	2.18
268.511	2.14
268.89	1.82
269.27	2.05
269.649	1.91
270.029	1.66
270.408	1.7
270.787	2.17
271.167	2.19
271.546	1.89
271.925	2.1
272.304	2.17
272.683	1.66
273.062	1.52
273.441	1.35
273.82	1.9
274.199	1.55
274.578	1.81
274.957	2.11
275.336	1.43
275.715	1.74
276.093	1.16
276.472	2.29
276.851	2.26
277.229	1.22
277.608	1.46
277.986	2.25
278.365	1.63
278.743	1.78
279.122	1.97
279.5	1.78
279.878	1.93
280.257	1.55
280.635	1.61
281.013	1.7
281.391	2.42
281.769	1.37
282.147	2.39
282.525	1.9
282.903	1.65
283.281	2.18
283.659	1.62
284.037	2.07
284.415	1.68
284.792	1.84
285.17	2.01
285.548	1.74
285.925	1.47
286.303	1.8
286.68	1.44
287.058	1.86
287.435	1.8
287.813	2
288.19	1.62
288.567	1.75
288.945	1.64
289.322	1.78
289.699	2.17
290.076	1.52
290.453	1.66
290.83	1.64
291.207	1.62
291.584	2.03
291.961	2.13
292.338	1.89
292.715	1.8
293.092	1.67
293.469	1.83
293.845	1.65
294.222	1.85
294.599	1.96
294.975	1.92
295.352	1.93
295.728	1.8
296.105	2.05
296.481	2.28
296.858	2.45
297.234	2.58
297.61	1.7
297.986	1.93
298.363	2.11
298.739	1.99
299.115	2.06
299.491	2.05
299.867	2.25
300.243	1.6
300.619	2.2
300.995	2.15
301.371	2.72
301.746	1.48
302.122	2.12
302.498	2.58
302.874	2.25
303.249	2.49
303.625	2.23
304	2.32
304.376	2.26
304.751	2.14
305.127	2.34
305.502	2.23
305.878	2.39
306.253	2.1
306.628	2.05
307.003	2.46
307.378	1.41
307.754	2.44
308.129	2.77
308.504	2.02
308.879	2.39
309.254	2.37
309.629	2.16
310.003	2.13
310.378	2.35
310.753	1.88
311.128	2.28
311.502	1.61
311.877	2.22
312.252	2.7
312.626	2.18
313.001	2.24
313.375	1.81
313.75	2.45
314.124	2.34
314.498	2.28
314.873	1.99
315.247	2.53
315.621	2.23
315.995	2.37
316.369	2.15
316.743	2.23
317.117	2.29
317.491	2.34
317.865	2.62
318.239	2.45
318.613	2.13
318.987	2.34
319.361	2.27
319.734	2.6
320.108	1.86
320.482	2.56
320.855	1.95
321.229	2.27
321.602	2.13
321.976	2.81
322.349	2.23
322.723	2.79
323.096	2.14
323.469	2.24
323.843	2.29
324.216	2.72
324.589	2.97
324.962	2.01
325.335	2.29
325.708	2.73
326.081	2.15
326.454	2.36
326.827	2.41
327.2	2.81
327.573	2.23
327.945	3.03
328.318	2.57
328.691	2.3
329.063	2.54
329.436	2.68
329.809	2.4
330.181	2.11
330.553	2.51
330.926	2.47
331.298	2.32
331.671	2.49
332.043	2.81
332.415	2.08
332.787	2.24
333.159	2.24
333.532	2.79
333.904	2.3
334.276	2.43
334.648	2.03
335.02	2.58
335.391	2.48
335.763	2.4
336.135	2.14
336.507	2.65
336.879	2.79
337.25	2.71
337.622	3.01
337.993	2.57
338.365	2.98
338.736	2.23
339.108	2.31
339.479	2.49
339.851	2.32
340.222	2.63
340.593	2.49
340.964	2.43
341.336	2.01
341.707	2.14
342.078	2.35
342.449	2.19
342.82	2.87
343.191	2.66
343.562	2.47
343.933	1.69
344.303	2.61
344.674	2.32
345.045	2.85
345.416	2.38
345.786	2.42
346.157	2.39
346.527	2.61
346.898	2.36
347.268	2.14
347.639	2.6
348.009	2.29
348.38	2.57
348.75	2.44
349.12	2.43
349.49	2.54
349.861	1.77
350.231	2.39
350.601	2.25
350.971	2.57
351.341	2.36
351.711	2.35
352.081	2.47
352.45	2.51
352.82	2.51
353.19	2.72
353.56	2.88
353.929	2.27
354.299	2.18
354.669	2.73
355.038	2.63
355.408	2.08
355.777	2.42
356.147	2.33
356.516	1.94
356.885	2.41
357.254	2.62
357.624	1.98
357.993	1.99
358.362	2.39
358.731	2.29
359.1	2.48
359.469	2.46
359.838	2.47
360.207	2.48
360.576	2.18
360.945	2.18
361.314	2.38
361.682	2.26
362.051	2.45
362.42	2.27
362.788	2.37
363.157	2.4
363.525	2.3
363.894	2.31
364.262	2.09
364.631	2.23
364.999	2.29
365.367	2.42
365.735	2.7
366.104	2.46
366.472	2.46
366.84	2.59
367.208	2.51
367.576	2.52
367.944	2.35
368.312	2.14
368.68	2.11
369.048	2.37
369.416	2.54
369.783	2.57
370.151	2.14
370.519	2.4
370.886	2.3
371.254	2.18
371.621	2.63
371.989	2.91
372.356	1.83
372.724	2.26
373.091	2.45
373.458	1.95
373.826	2.48
374.193	2.22
374.56	2.08
374.927	2.46
375.294	2.15
375.661	2.12
376.028	2.55
376.395	2.55
376.762	2.43
377.129	2.03
377.496	2.27
377.863	2.08
378.229	2.15
378.596	2.19
378.963	2.48
379.329	2.32
379.696	2.38
380.062	2.35
380.429	2.22
380.795	2.02
381.161	2.27
381.528	2.73
381.894	2.14
382.26	2.27
382.626	2.31
382.993	2.2
383.359	2.23
383.725	2.57
384.091	2.29
384.457	2.32
384.823	2.31
385.188	2.61
385.554	2.58
385.92	2.6
386.286	2.48
386.651	2.4
387.017	2.3
387.383	2.28
387.748	2.27
388.114	2.28
388.479	2.61
388.845	2.23
389.21	2.11
389.575	2.16
389.94	2.6
390.306	2.43
390.671	2.29
391.036	2.54
391.401	2.71
391.766	2.55
392.131	2.43
392.496	2.41
392.861	2.23
393.226	2.34
393.591	2.47
393.956	2.41
394.32	2.39
394.685	2.45
395.05	2.33
395.414	2.32
395.779	2.29
396.143	2.43
396.508	2.45
396.872	2.2
397.236	2.29
397.601	2.41
397.965	2.33
398.329	2.45
398.694	2.45
399.058	2.35
399.422	2.35
399.786	2.49
400.15	2.44
400.514	2.34
400.878	2.32
401.242	2.47
401.605	2.26
401.969	2.29
402.333	2.2
402.697	2.44
403.06	2.43
403.424	2.51
403.787	2.64
404.151	2.38
404.514	2.71
404.878	2.4
405.241	2.38
405.604	2.24
405.968	2.43
406.331	2.24
406.694	2.26
407.057	2.26
407.42	2.38
407.783	2.35
408.146	2.47
408.509	2.35
408.872	2.4
409.235	2.66
409.598	2.41
409.961	2.54
410.323	2.6
410.686	2.54
411.049	2.42
411.411	2.31
411.774	2.46
412.136	2.3
412.499	2.39
412.861	2.28
413.223	2.22
413.586	2.38
413.948	2.31
414.31	2.32
414.672	2.36
415.035	2.49
415.397	2.29
415.759	2.54
416.121	2.65
416.483	2.49
416.845	2.28
417.206	2.45
417.568	2.54
417.93	2.52
418.292	2.39
418.653	2.4
419.015	2.35
419.377	2.37
419.738	2.57
420.1	2.35
420.461	2.47
420.822	2.46
421.184	2.4
421.545	2.38
421.906	2.35
422.267	2.37
422.629	2.34
422.99	2.35
423.351	2.34
423.712	2.33
424.073	2.33
424.434	2.44
424.795	2.39
425.155	2.29
425.516	2.37
425.877	2.37
426.238	2.32
426.598	2.37
426.959	2.43
427.32	2.42
427.68	2.51
428.041	2.42
428.401	2.51
428.761	2.47
429.122	2.57
429.482	2.47
429.842	2.36
430.202	2.53
430.563	2.62
430.923	2.5
431.283	2.55
431.643	2.37
432.003	2.46
432.363	2.31
432.722	2.56
433.082	2.63
433.442	2.53
433.802	2.3
434.161	2.49
434.521	2.47
434.881	2.32
435.24	2.44
435.6	2.55
435.959	2.46
436.319	2.56
436.678	2.46
437.037	2.54
437.396	2.56
437.756	2.44
438.115	2.25
438.474	2.48
438.833	2.61
439.192	2.44
439.551	2.48
439.91	2.35
440.269	2.54
440.628	2.53
440.987	2.52
441.345	2.48
441.704	2.46
442.063	2.49
442.421	2.38
442.78	2.42
443.138	2.45
443.497	2.48
443.855	2.59
444.214	2.65
444.572	2.66
444.93	2.52
445.288	2.5
445.647	2.53
446.005	2.41
446.363	2.52
446.721	2.53
447.079	2.41
447.437	2.39
447.795	2.47
448.153	2.54
448.51	2.55
448.868	2.48
449.226	2.48
449.584	2.52
449.941	2.5
450.299	2.56
450.656	2.42
451.014	2.45
451.371	2.61
451.729	2.57
452.086	2.68
452.443	2.7
452.801	2.59
453.158	2.41
453.515	2.63
453.872	2.5
454.229	2.56
454.586	2.55
454.943	2.63
455.3	2.58
455.657	2.56
456.014	2.73
456.371	2.6
456.727	2.54
457.084	2.63
457.441	2.52
457.797	2.57
458.154	2.65
458.51	2.62
458.867	2.42
459.223	2.63
459.58	2.46
459.936	2.61
460.292	2.6
460.648	2.43
461.005	2.7
461.361	2.4
461.717	2.52
462.073	2.57
462.429	2.43
462.785	2.62
463.141	2.56
463.496	2.46
463.852	2.61
464.208	2.51
464.564	2.54
464.919	2.74
465.275	2.48
465.631	2.43
465.986	2.63
466.342	2.64
466.697	2.62
467.052	2.58
467.408	2.76
467.763	2.69
468.118	2.65
468.473	2.51
468.829	2.34
469.184	2.57
469.539	2.68
469.894	2.59
470.249	2.63
470.603	2.54
470.958	2.64
471.313	2.43
471.668	2.72
472.023	2.65
472.377	2.62
472.732	2.66
473.086	2.62
473.441	2.68
473.795	2.67
474.15	2.7
474.504	2.61
474.859	2.66
475.213	2.67
475.567	2.76
475.921	2.76
476.275	2.58
476.63	2.61
476.984	2.79
477.338	2.63
477.692	2.73
478.045	2.46
478.399	2.57
478.753	2.5
479.107	2.78
479.461	2.79
479.814	2.68
480.168	2.6
480.521	2.69
480.875	2.61
481.228	2.62
481.582	2.71
481.935	2.54
482.289	2.6
482.642	2.63
482.995	2.69
483.348	2.51
483.701	2.54
484.055	2.67
484.408	2.56
484.761	2.49
485.114	2.42
485.466	2.38
485.819	2.4
486.172	2.42
486.525	2.51
486.878	2.56
487.23	2.59
487.583	2.6
487.936	2.54
488.288	2.61
488.641	2.55
488.993	2.5
489.345	2.53
489.698	2.5
490.05	2.51
490.402	2.59
490.754	2.65
491.107	2.56
491.459	2.64
491.811	2.55
492.163	2.68
492.515	2.64
492.866	2.54
493.218	2.51
493.57	2.54
493.922	2.57
494.274	2.62
494.625	2.62
494.977	2.62
495.328	2.8
495.68	2.77
496.031	2.73
496.383	2.63
496.734	2.68
497.086	2.75
497.437	2.77
497.788	2.74
498.139	2.63
498.49	2.74
498.842	2.69
499.193	2.67
499.544	2.71
499.894	2.78
500.245	2.64
500.596	2.71
500.947	2.67
501.298	2.69
501.648	2.72
501.999	2.76
502.35	2.7
502.7	2.6
503.051	2.82
503.401	2.73
503.752	2.64
504.102	2.72
504.452	2.74
504.803	2.62
505.153	2.81
505.503	2.74
505.853	2.71
506.203	2.92
506.553	2.71
506.903	2.82
507.253	2.82
507.603	2.84
507.953	2.78
508.303	2.82
508.652	2.81
509.002	2.76
509.352	2.69
509.701	2.74
510.051	2.7
510.4	2.79
510.75	2.75
511.099	2.8
511.449	2.86
511.798	2.81
512.147	2.8
512.496	2.69
512.846	2.73
513.195	2.71
513.544	2.86
513.893	2.79
514.242	2.68
514.591	2.65
514.939	2.82
515.288	2.82
515.637	2.72
515.986	2.77
516.334	2.8
516.683	2.81
517.032	2.8
517.38	2.91
517.729	2.73
518.077	2.79
518.426	2.78
518.774	2.82
519.122	2.77
519.47	2.79
519.819	2.71
520.167	2.77
520.515	2.72
520.863	2.79
521.211	2.77
521.559	2.75
521.907	2.86
522.255	2.72
522.602	2.7
522.95	2.78
523.298	2.83
523.645	2.74
523.993	2.84
524.341	2.88
524.688	2.86
525.036	2.85
525.383	2.94
525.73	2.9
526.078	2.8
526.425	2.74
526.772	2.73
527.119	2.72
527.466	2.73
527.814	2.69
528.161	2.76
528.508	2.76
528.854	2.78
529.201	2.78
529.548	2.79
529.895	2.65
530.242	2.62
530.588	2.61
530.935	2.68
531.282	2.69
531.628	2.75
531.975	2.76
532.321	2.72
532.667	2.77
533.014	2.82
533.36	2.87
533.706	2.86
534.052	2.79
534.399	2.72
534.745	2.67
535.091	2.69
535.437	2.75
535.783	2.81
536.129	2.77
536.474	2.83
536.82	2.82
537.166	2.81
537.512	2.87
537.857	2.88
538.203	2.85
538.549	2.89
538.894	2.73
539.239	2.8
539.585	2.77
539.93	2.83
540.276	2.83
540.621	3.05
540.966	2.83
541.311	2.89
541.656	2.88
542.001	2.97
542.346	2.93
542.691	2.7
543.036	2.72
543.381	2.77
543.726	2.74
544.071	2.77
544.415	2.86
544.76	2.85
545.105	2.79
545.449	2.76
545.794	2.89
546.138	2.91
546.483	2.83
546.827	2.89
547.171	2.95
547.516	2.86
547.86	2.83
548.204	2.86
548.548	2.88
548.892	2.81
549.236	2.88
549.58	2.82
549.924	2.96
550.268	2.98
550.612	2.95
550.956	3.03
551.3	2.84
551.643	3.06
551.987	2.87
552.33	3.02
552.674	3.08
553.017	3.11
553.361	3
553.704	3
554.048	2.84
554.391	2.9
554.734	3
555.077	2.84
555.42	2.97
555.764	2.92
556.107	2.82
556.45	3.12
556.793	3.09
557.135	3.04
557.478	2.86
557.821	3.12
558.164	3.09
558.507	3.03
558.849	2.87
559.192	2.97
559.534	3.19
559.877	3.17
560.219	3
560.562	2.99
560.904	3.16
561.246	3.1
561.589	3.03
561.931	3.09
562.273	3.07
562.615	2.99
562.957	2.98
563.299	3.09
563.641	3.03
563.983	2.93
564.325	3.03
564.667	2.86
565.008	3.07
565.35	3.12
565.692	3.17
566.033	2.94
566.375	3
566.716	3.05
567.058	2.89
567.399	3.05
567.741	3.03
568.082	3.03
568.423	3.07
568.764	3.05
569.105	3.17
569.447	3.03
569.788	3.24
570.129	2.97
570.47	3.1
570.811	2.99
571.151	2.95
571.492	3.16
571.833	3
572.174	2.94
572.514	3.1
572.855	2.98
573.195	2.94
573.536	3.14
573.876	3.06
574.217	3.11
574.557	2.88
574.898	3.27
575.238	3.12
575.578	3.08
575.918	3.03
576.258	2.94
576.598	3.04
576.938	3.2
577.278	3.11
577.618	3.08
577.958	3.06
578.298	3.38
578.638	3.21
578.977	3.36
579.317	3.28
579.657	3.2
579.996	3.34
580.336	3.18
580.675	3.17
581.014	3.21
581.354	3.22
581.693	3.19
582.032	3.21
582.372	3.01
582.711	3.21
583.05	3.01
583.389	3.07
583.728	3.21
584.067	3.33
584.406	3.11
584.745	3.38
585.083	3.11
585.422	3.24
585.761	3.15
586.1	3.2
586.438	3.15
586.777	3.32
587.115	3.57
587.454	2.98
587.792	3.37
588.13	3.2
588.469	3.26
588.807	3.11
589.145	3.27
589.483	3.24
589.821	3.32
590.159	3.26
590.497	3.06
590.835	3.4
591.173	3.2
591.511	3.13
591.849	3.18
592.187	3.15
592.524	3.21
592.862	3.2
593.2	3.16
593.537	2.91
593.875	3.35
594.212	3.04
594.55	3.12
594.887	3.2
595.224	3.15
595.561	3.26
595.899	3.21
596.236	3.28
596.573	3.25
596.91	3.21
597.247	3.08
597.584	3.39
597.921	3.11
598.258	3.28
598.594	3.26
598.931	2.99
599.268	3.21
599.604	3.07
599.941	3.24
600.277	3.24
600.614	3.06
600.95	3.25
601.287	3.16
601.623	3.15
601.959	3.24
602.296	3.47
602.632	3.32
602.968	3.24
603.304	3.27
603.64	3.39
603.976	3.48
604.312	3.39
604.648	3.23
604.984	3.09
605.319	2.98
605.655	3.12
605.991	3.31
606.326	3.31
606.662	3.31
606.998	3.14
607.333	3.33
607.668	3.29
608.004	3.56
608.339	3.11
608.674	3.42
609.01	3.18
609.345	3.37
609.68	3.31
610.015	3.29
610.35	3.37
610.685	3.24
611.02	3.24
611.355	3.24
611.689	3.3
612.024	3.23
612.359	3.32
612.694	3.58
613.028	3.45
613.363	3.32
613.697	3.26
614.032	3.15
614.366	3.57
614.7	3.38
615.035	3.31
615.369	3.38
615.703	3.32
616.037	3.28
616.371	3.31
616.705	3.29
617.039	3.58
617.373	3.42
617.707	3.76
618.041	3.79
618.375	3.43
618.709	2.93
619.042	3.36
619.376	3.4
619.71	3.36
620.043	3.24
620.377	3
620.71	3.75
621.043	3.39
621.377	3.59
621.71	3.48
622.043	3.4
622.376	3.29
622.709	3.02
623.043	3.57
623.376	2.93
623.709	3.22
624.041	3.37
624.374	3.39
624.707	3.4
625.04	3.52
625.373	3.69
625.705	3.23
626.038	3.17
626.37	3.34
626.703	3.23
627.035	3.23
627.368	3.2
627.7	3.49
628.032	3.47
628.365	3.4
628.697	3.45
629.029	3.39
629.361	3.42
629.693	3.24
630.025	3.4
630.357	3.44
630.689	3.41
631.021	3.46
631.353	3.4
631.684	3.49
632.016	3.26
632.348	3.18
632.679	3.39
633.011	3.24
633.342	3.56
633.674	3.17
634.005	3.22
634.336	3.62
634.668	3.64
634.999	3.52
635.33	3.65
635.661	3.23
635.992	3.46
636.323	3.18
636.654	3.44
636.985	3.24
637.316	3.6
637.647	3.6
637.977	3.62
638.308	3.6
638.639	3.33
638.969	3.61
639.3	3.81
639.63	3.62
639.961	3.65
640.291	3.55
640.622	3.07
640.952	3.44
641.282	3.64
641.612	3.47
641.943	3.93
642.273	3.32
642.603	3.93
642.933	3.67
643.263	3.37
643.592	3.28
643.922	3.67
644.252	3.44
644.582	3.89
644.911	3.62
645.241	3.37
645.571	3.64
645.9	3.28
646.23	3.21
646.559	3.77
646.888	3.55
647.218	4.05
647.547	3.71
647.876	3.78
648.205	3.69
648.534	3.7
648.863	3.22
649.192	3.8
649.521	3.77
649.85	3.7
650.179	3.8
650.508	3.74
650.837	3.15
651.165	3.04
651.494	3.68
651.822	3.71
652.151	3.96
652.479	3.64
652.808	3.64
653.136	3.74
653.465	3.52
653.793	3.71
654.121	3.62
654.449	3.7
654.777	3.3
655.105	3.93
655.433	3.24
655.761	3.21
656.089	3.28
656.417	4.31
656.745	3.81
657.073	3.42
657.4	4.06
657.728	3.51
658.056	3.59
658.383	3.2
658.711	3.58
659.038	3.99
659.365	4.07
659.693	3.46
660.02	4.09
660.347	3.68
660.674	3.32
661.001	3.48
661.329	3.87
661.656	3.76
661.982	3.8
662.309	3.98
662.636	3.89
662.963	3.29
663.29	4.03
663.616	3.85
663.943	4.05
664.27	3.84
664.596	3.53
664.923	2.93
665.249	3.41
665.576	3.69
665.902	3.97
666.228	3.74
666.554	4.01
666.881	3.83
667.207	3.34
667.533	4.13
667.859	3.68
668.185	3.18
668.511	3.56
668.837	3.95
669.162	3.89
669.488	3.9
669.814	4.01
670.139	4.18
670.465	3.72
670.791	3.84
671.116	3.43
671.442	4.2
671.767	3.92
672.092	3.36
672.418	3.73
672.743	3.25
673.068	4.07
673.393	3.76
673.718	4.18
674.043	3.96
674.368	4.22
674.693	4.36
675.018	3.86
675.343	3.76
675.667	3.66
675.992	3.4
676.317	4.27
676.641	3.4
676.966	3.36
677.29	3.96
677.615	3.73
677.939	3.64
678.264	3.9
678.588	4.09
678.912	3.91
679.236	3.74
679.56	3.5
679.885	3.64
680.209	3.71
680.532	3.25
680.856	3.86
681.18	3.8
681.504	3.98
681.828	4.25
682.152	3.87
682.475	3.75
682.799	3.77
683.122	3.46
683.446	4.41
683.769	4.2
684.093	3.86
684.416	4.17
684.739	4.21
685.062	3.39
685.386	4.05
685.709	4.07
686.032	4.83
686.355	4.26
686.678	3.8
687.001	3.47
687.324	4.16
687.646	4.62
687.969	3.75
688.292	3.44
688.614	3.4
688.937	4.04
689.26	3.67
689.582	4.06
689.904	3.61
690.227	3.86
690.549	4.46
690.871	3.83
691.194	3.58
691.516	3.76
691.838	3.17
692.16	3.57
692.482	4.07
692.804	4.19
