Data from 2019-3_forehead_Reflection__2__172.txt Node

Date: Fri Nov 11 18:13:23 CST 2022
User: ToomeyLab
Spectrometer: FLMS14357
Trigger mode: 0
Integration Time (sec): 1.000000E-2
Scans to average: 100
Electric dark correction enabled: true
Nonlinearity correction enabled: false
Boxcar width: 0
XAxis mode: Wavelengths
Number of Pixels in Spectrum: 2048
>>>>>Begin Spectral Data<<<<<
189.047	58.54
189.435	58.54
189.823	58.54
190.211	744.5
190.599	32.38
190.987	32.42
191.375	-8.83
191.763	155.68
192.151	64.6
192.538	18.24
192.926	1035.98
193.314	86.58
193.702	583.22
194.089	-128.28
194.477	-1.31
194.864	341.51
195.252	11.14
195.639	246.95
196.027	3.87
196.414	41.03
196.801	314.8
197.189	405.02
197.576	167.59
197.963	-26.12
198.351	73.18
198.738	0.46
199.125	51.21
199.512	17.14
199.899	44.71
200.286	-9.22
200.673	8.83
201.06	-23.51
201.447	47.04
201.833	57.85
202.22	61.86
202.607	44.05
202.994	70
203.38	63.16
203.767	47.51
204.154	-4.25
204.54	39.07
204.927	25.34
205.313	57.23
205.699	16.94
206.086	7.18
206.472	-1.84
206.858	79
207.245	33.27
207.631	45.36
208.017	12.76
208.403	49.78
208.789	60.57
209.175	-17.03
209.561	31.96
209.947	40.07
210.333	67.82
210.719	37.54
211.105	34.56
211.491	26.39
211.876	40.57
212.262	-1.46
212.648	44.79
213.034	18.44
213.419	8.13
213.805	34.56
214.19	39.22
214.576	38.24
214.961	23.05
215.346	21.09
215.732	50.65
216.117	41.15
216.502	35.24
216.888	-12.83
217.273	56.98
217.658	19.72
218.043	35.56
218.428	40.58
218.813	39.12
219.198	22.74
219.583	22.03
219.968	32.96
220.353	31.55
220.738	25.02
221.122	6.27
221.507	21.95
221.892	31.25
222.276	23.53
222.661	25.27
223.046	22.99
223.43	17.83
223.815	13.38
224.199	11.91
224.583	21.57
224.968	24.78
225.352	14.28
225.736	12.48
226.121	19.08
226.505	13.7
226.889	15.99
227.273	12.68
227.657	6.91
228.041	8.23
228.425	6.41
228.809	8.77
229.193	8.63
229.577	7.86
229.961	5.48
230.344	6.13
230.728	6.14
231.112	5.61
231.495	6.29
231.879	5.96
232.263	7.12
232.646	5.01
233.03	5.79
233.413	5.21
233.797	7.32
234.18	6.2
234.563	6.17
234.946	5.78
235.33	8.52
235.713	5.54
236.096	6.88
236.479	5
236.862	4.86
237.245	6.93
237.628	5.82
238.011	5.47
238.394	6
238.777	5.29
239.16	6.5
239.543	7.36
239.925	5.22
240.308	6.06
240.691	8.32
241.073	7.9
241.456	5.79
241.838	5.14
242.221	6.49
242.603	5.72
242.986	5.58
243.368	6.12
243.75	5.43
244.133	4.93
244.515	5.63
244.897	5.57
245.279	5.81
245.661	6.34
246.043	5.72
246.425	5.28
246.807	5.61
247.189	5.95
247.571	6.22
247.953	5.27
248.335	5.12
248.717	5.39
249.098	5.44
249.48	5.6
249.862	5.47
250.243	5.05
250.625	5.39
251.006	5.3
251.388	5.62
251.769	5.52
252.151	6.55
252.532	6.34
252.913	5.19
253.295	5.3
253.676	6.01
254.057	5.49
254.438	5.82
254.819	5.69
255.2	6.54
255.581	6.53
255.962	5.48
256.343	6.1
256.724	6.18
257.105	6.27
257.486	5.43
257.867	5.97
258.247	5.9
258.628	6.57
259.009	5.5
259.389	4.96
259.77	5.97
260.15	5.71
260.531	5.34
260.911	5.28
261.292	5.09
261.672	5.23
262.052	5.04
262.432	5.09
262.813	5.83
263.193	5.89
263.573	5.71
263.953	5.79
264.333	5.23
264.713	5.6
265.093	5.75
265.473	5.38
265.853	6.69
266.233	6.48
266.612	6.13
266.992	4.86
267.372	6.56
267.752	5.61
268.131	5.92
268.511	5.55
268.89	5.56
269.27	5.43
269.649	5.62
270.029	5.32
270.408	5.12
270.787	5.21
271.167	5.85
271.546	5.36
271.925	5.56
272.304	6.25
272.683	5.36
273.062	5.25
273.441	5.12
273.82	5.65
274.199	5.21
274.578	5.41
274.957	5.85
275.336	5.17
275.715	5.44
276.093	6.04
276.472	5.77
276.851	5.74
277.229	5.35
277.608	5.26
277.986	5.82
278.365	5.87
278.743	5.58
279.122	5.84
279.5	5.39
279.878	5.51
280.257	5.87
280.635	4.89
281.013	5.05
281.391	5.87
281.769	4.94
282.147	5.7
282.525	5.36
282.903	5.5
283.281	5.69
283.659	5.56
284.037	5.36
284.415	5.17
284.792	6.03
285.17	5.87
285.548	5.64
285.925	5.2
286.303	5.28
286.68	5.49
287.058	5.64
287.435	5.36
287.813	5.47
288.19	5.34
288.567	5.24
288.945	5.05
289.322	6.04
289.699	6.08
290.076	5.75
290.453	5.98
290.83	5.42
291.207	5.69
291.584	6.04
291.961	6.12
292.338	5.8
292.715	5.86
293.092	5.75
293.469	5.92
293.845	5.59
294.222	6.36
294.599	5.89
294.975	5.73
295.352	6.6
295.728	5.81
296.105	5.99
296.481	6.32
296.858	6.64
297.234	6.33
297.61	6.2
297.986	6.19
298.363	6.52
298.739	6.29
299.115	6.52
299.491	6.35
299.867	6.53
300.243	6.49
300.619	6.57
300.995	6.56
301.371	6.91
301.746	6.44
302.122	6.96
302.498	7.83
302.874	7.32
303.249	7.26
303.625	7.09
304	7.08
304.376	7.25
304.751	7.4
305.127	7.88
305.502	7.14
305.878	7.79
306.253	7.43
306.628	7.54
307.003	7.86
307.378	7.13
307.754	7.86
308.129	8.42
308.504	7.95
308.879	8.54
309.254	7.86
309.629	8.37
310.003	8.46
310.378	8.28
310.753	8.01
311.128	8.47
311.502	8.34
311.877	8.42
312.252	9.1
312.626	8.79
313.001	8.73
313.375	8.71
313.75	8.97
314.124	9.15
314.498	9.21
314.873	9.74
315.247	9.25
315.621	9.56
315.995	9.4
316.369	9.6
316.743	9.79
317.117	9.74
317.491	9.32
317.865	10.61
318.239	9.83
318.613	10.34
318.987	9.94
319.361	10.51
319.734	10.86
320.108	9.78
320.482	10.41
320.855	10.38
321.229	10.65
321.602	10.12
321.976	10.57
322.349	10.79
322.723	10.94
323.096	11.05
323.469	10.87
323.843	11.56
324.216	10.61
324.589	11.7
324.962	10.79
325.335	10.81
325.708	11.29
326.081	11.07
326.454	11.28
326.827	11.56
327.2	12.24
327.573	11.33
327.945	11.81
328.318	11.98
328.691	11.75
329.063	11.76
329.436	11.72
329.809	12.36
330.181	11.58
330.553	12.07
330.926	12.11
331.298	12.54
331.671	12.54
332.043	12.3
332.415	12.15
332.787	12.15
333.159	12.42
333.532	12.47
333.904	12.79
334.276	13.01
334.648	12.12
335.02	13.19
335.391	12.99
335.763	12.83
336.135	13.15
336.507	12.94
336.879	12.79
337.25	13.24
337.622	13.64
337.993	13.78
338.365	13.65
338.736	13.35
339.108	13.41
339.479	13.35
339.851	13.58
340.222	13.42
340.593	13.64
340.964	13.76
341.336	13.7
341.707	13.64
342.078	13.63
342.449	13.95
342.82	14.54
343.191	14.31
343.562	14.06
343.933	13.67
344.303	14.02
344.674	14.72
345.045	14.11
345.416	14.35
345.786	14.27
346.157	14.8
346.527	14.61
346.898	14.28
347.268	14.69
347.639	14.91
348.009	14.51
348.38	15.02
348.75	14.87
349.12	15.25
349.49	14.99
349.861	14.93
350.231	15.37
350.601	15.09
350.971	15.57
351.341	15.7
351.711	15.37
352.081	15.36
352.45	15.47
352.82	15.38
353.19	16.06
353.56	16.1
353.929	15.59
354.299	15.79
354.669	15.71
355.038	15.94
355.408	15.96
355.777	16.16
356.147	16.5
356.516	15.58
356.885	15.98
357.254	16.08
357.624	16.15
357.993	16.17
358.362	16.51
358.731	16.11
359.1	16.63
359.469	16.42
359.838	16.38
360.207	16.57
360.576	16.14
360.945	16.71
361.314	16.78
361.682	16.85
362.051	17.14
362.42	16.55
362.788	16.7
363.157	16.74
363.525	16.88
363.894	16.86
364.262	16.86
364.631	17.04
364.999	17.26
365.367	17.36
365.735	17.59
366.104	17.84
366.472	17.74
366.84	18.1
367.208	17.73
367.576	17.81
367.944	17.66
368.312	17.85
368.68	17.74
369.048	17.9
369.416	18.06
369.783	18.2
370.151	18.15
370.519	18.25
370.886	18.5
371.254	18.63
371.621	18.51
371.989	18.3
372.356	18.42
372.724	18.7
373.091	18.52
373.458	18.62
373.826	18.91
374.193	18.79
374.56	18.93
374.927	18.92
375.294	19.09
375.661	18.99
376.028	19.12
376.395	19.33
376.762	19.14
377.129	19.23
377.496	19.48
377.863	19.08
378.229	19.26
378.596	19.37
378.963	19.68
379.329	19.73
379.696	19.86
380.062	19.69
380.429	19.83
380.795	19.43
381.161	19.77
381.528	20.11
381.894	20.15
382.26	20.09
382.626	20.04
382.993	20.28
383.359	20.38
383.725	20.52
384.091	20.43
384.457	20.77
384.823	20.18
385.188	20.7
385.554	20.77
385.92	20.91
386.286	20.89
386.651	20.87
387.017	20.97
387.383	21.11
387.748	20.88
388.114	20.91
388.479	21.15
388.845	20.89
389.21	21.16
389.575	21.19
389.94	21.5
390.306	21.47
390.671	21.31
391.036	21.78
391.401	21.89
391.766	21.85
392.131	21.84
392.496	21.71
392.861	21.67
393.226	21.63
393.591	22.07
393.956	21.92
394.32	21.93
394.685	22.13
395.05	21.98
395.414	22.02
395.779	22.16
396.143	22.4
396.508	22.34
396.872	21.93
397.236	22.17
397.601	22.58
397.965	22.4
398.329	22.71
398.694	22.78
399.058	22.63
399.422	23.23
399.786	22.88
400.15	23.1
400.514	22.8
400.878	22.9
401.242	23.02
401.605	23
401.969	23.29
402.333	23.26
402.697	23.36
403.06	23.55
403.424	23.58
403.787	23.51
404.151	23.74
404.514	23.7
404.878	23.59
405.241	23.69
405.604	23.68
405.968	23.65
406.331	23.74
406.694	23.61
407.057	23.95
407.42	23.85
407.783	23.84
408.146	24.03
408.509	24.14
408.872	24.32
409.235	24.4
409.598	24.44
409.961	24.56
410.323	24.54
410.686	24.85
411.049	24.63
411.411	24.61
411.774	24.79
412.136	24.81
412.499	24.77
412.861	24.88
413.223	25.03
413.586	25.05
413.948	25.32
414.31	25.1
414.672	25.21
415.035	25.06
415.397	25.28
415.759	25.49
416.121	25.43
416.483	25.43
416.845	25.39
417.206	25.66
417.568	25.62
417.93	25.54
418.292	25.42
418.653	25.57
419.015	25.56
419.377	25.47
419.738	25.49
420.1	25.53
420.461	25.7
420.822	25.58
421.184	25.74
421.545	25.73
421.906	25.88
422.267	25.7
422.629	25.45
422.99	25.66
423.351	25.73
423.712	25.83
424.073	26.04
424.434	26.15
424.795	26.25
425.155	26.27
425.516	26
425.877	26.03
426.238	26.11
426.598	26.13
426.959	26.42
427.32	26.69
427.68	27.08
428.041	26.79
428.401	27.15
428.761	27.14
429.122	27.42
429.482	27.48
429.842	27.47
430.202	27.63
430.563	27.69
430.923	27.71
431.283	27.92
431.643	27.83
432.003	27.84
432.363	27.84
432.722	27.82
433.082	28.12
433.442	28.32
433.802	28.15
434.161	28.18
434.521	28.17
434.881	27.73
435.24	27.78
435.6	28
435.959	28.01
436.319	28.5
436.678	28.55
437.037	28.77
437.396	28.68
437.756	28.75
438.115	28.81
438.474	28.83
438.833	28.84
439.192	28.79
439.551	29.27
439.91	29.17
440.269	29.12
440.628	29
440.987	28.87
441.345	29.01
441.704	29.14
442.063	29.1
442.421	29.14
442.78	29.19
443.138	29.25
443.497	29.52
443.855	29.56
444.214	29.8
444.572	29.94
444.93	29.96
445.288	30.17
445.647	30.01
446.005	30.06
446.363	29.9
446.721	29.93
447.079	29.86
447.437	29.92
447.795	29.72
448.153	29.6
448.51	29.81
448.868	29.87
449.226	30.04
449.584	30.24
449.941	30.4
450.299	30.82
450.656	30.77
451.014	30.93
451.371	31.09
451.729	31.17
452.086	31.32
452.443	31.34
452.801	31.49
453.158	31.35
453.515	31.48
453.872	31.54
454.229	31.36
454.586	31.36
454.943	31.46
455.3	31.57
455.657	31.67
456.014	31.86
456.371	31.84
456.727	31.87
457.084	31.9
457.441	31.92
457.797	32.23
458.154	32.18
458.51	32.35
458.867	32.31
459.223	32.66
459.58	32.54
459.936	32.16
460.292	32.24
460.648	32.15
461.005	32.26
461.361	31.76
461.717	31.83
462.073	32
462.429	32.03
462.785	32.44
463.141	32.56
463.496	32.76
463.852	33.01
464.208	32.99
464.564	33.34
464.919	33.32
465.275	33.48
465.631	33.43
465.986	33.78
466.342	33.64
466.697	33.54
467.052	33.56
467.408	34
467.763	33.86
468.118	33.75
468.473	33.75
468.829	33.61
469.184	33.7
469.539	33.88
469.894	33.72
470.249	34.01
470.603	34.16
470.958	34.19
471.313	34.33
471.668	34.22
472.023	34.33
472.377	34.41
472.732	34.69
473.086	34.74
473.441	34.88
473.795	34.8
474.15	34.65
474.504	34.82
474.859	34.65
475.213	34.84
475.567	35.07
475.921	35.02
476.275	35.11
476.63	35.06
476.984	35.43
477.338	35.3
477.692	35.57
478.045	35.31
478.399	35.31
478.753	35.45
479.107	35.57
479.461	35.45
479.814	35.73
480.168	35.55
480.521	35.79
480.875	35.79
481.228	35.92
481.582	35.83
481.935	35.92
482.289	35.91
482.642	35.81
482.995	35.89
483.348	35.69
483.701	35.69
484.055	35.81
484.408	35.59
484.761	35.35
485.114	35.1
485.466	34.91
485.819	34.84
486.172	35.08
486.525	35.15
486.878	35.48
487.23	35.52
487.583	35.76
487.936	35.9
488.288	35.98
488.641	35.72
488.993	35.48
489.345	35.52
489.698	35.61
490.05	35.77
490.402	35.91
490.754	36.16
491.107	36.48
491.459	36.68
491.811	36.97
492.163	37.03
492.515	36.95
492.866	36.77
493.218	36.29
493.57	36.34
493.922	36.4
494.274	36.72
494.625	37.07
494.977	37.34
495.328	37.65
495.68	37.77
496.031	38.07
496.383	38.29
496.734	38.42
497.086	38.15
497.437	38.34
497.788	38.39
498.139	38.16
498.49	38.06
498.842	38.04
499.193	38.17
499.544	38.09
499.894	38.48
500.245	38.43
500.596	38.64
500.947	38.74
501.298	38.73
501.648	38.83
501.999	39.04
502.35	38.99
502.7	39.24
503.051	39.36
503.401	39.49
503.752	39.26
504.102	39.42
504.452	39.43
504.803	39.73
505.153	39.54
505.503	39.48
505.853	39.49
506.203	39.47
506.553	39.5
506.903	39.92
507.253	40.02
507.603	40.06
507.953	40.11
508.303	40.06
508.652	39.99
509.002	40.03
509.352	40.05
509.701	40.08
510.051	39.85
510.4	40.05
510.75	39.98
511.099	40.08
511.449	40.17
511.798	40.47
512.147	40.34
512.496	40.51
512.846	40.36
513.195	40.55
513.544	40.69
513.893	40.51
514.242	40.47
514.591	40.61
514.939	40.83
515.288	41.13
515.637	41.2
515.986	41.15
516.334	41.33
516.683	41.35
517.032	41.75
517.38	41.61
517.729	41.71
518.077	41.91
518.426	41.62
518.774	41.63
519.122	41.15
519.47	41.52
519.819	41.31
520.167	41.34
520.515	41.01
520.863	41.18
521.211	41.36
521.559	41.44
521.907	41.61
522.255	41.61
522.602	42.05
522.95	42.11
523.298	42.38
523.645	42.47
523.993	42.51
524.341	42.6
524.688	42.67
525.036	42.64
525.383	42.79
525.73	42.77
526.078	42.76
526.425	42.67
526.772	42.42
527.119	42.44
527.466	42.3
527.814	42.27
528.161	42.34
528.508	42.53
528.854	42.6
529.201	42.74
529.548	42.49
529.895	42.07
530.242	41.99
530.588	41.9
530.935	42.07
531.282	42.15
531.628	42.21
531.975	42.37
532.321	42.91
532.667	42.98
533.014	43.39
533.36	43.41
533.706	43.41
534.052	43.38
534.399	43.25
534.745	42.89
535.091	42.59
535.437	42.95
535.783	43.08
536.129	43.35
536.474	43.47
536.82	43.87
537.166	44.08
537.512	44.27
537.857	44.23
538.203	43.89
538.549	43.81
538.894	43.84
539.239	44.14
539.585	44.43
539.93	44.52
540.276	44.81
540.621	45.09
540.966	45.19
541.311	45.18
541.656	45.1
542.001	44.94
542.346	44.92
542.691	44.33
543.036	43.8
543.381	43.91
543.726	43.97
544.071	44.18
544.415	44.5
544.76	44.64
545.105	44.77
545.449	44.89
545.794	45.22
546.138	45.44
546.483	45.48
546.827	45.49
547.171	45.47
547.516	45.49
547.86	45.63
548.204	45.56
548.548	45.52
548.892	45.62
549.236	45.6
549.58	45.79
549.924	46.08
550.268	46.38
550.612	46.67
550.956	46.78
551.3	46.69
551.643	46.79
551.987	46.94
552.33	47.25
552.674	47.25
553.017	47.22
553.361	47.19
553.704	47.23
554.048	47.02
554.391	47.03
554.734	47.1
555.077	46.88
555.42	47.31
555.764	47.39
556.107	47.4
556.45	47.61
556.793	47.94
557.135	47.88
557.478	48.01
557.821	47.96
558.164	47.77
558.507	48.07
558.849	48.16
559.192	48.18
559.534	48.4
559.877	48.42
560.219	48.39
560.562	48.48
560.904	48.45
561.246	48.35
561.589	48.49
561.931	48.83
562.273	48.43
562.615	48.45
562.957	48.53
563.299	48.73
563.641	48.8
563.983	48.64
564.325	48.97
564.667	48.87
565.008	49.28
565.35	48.85
565.692	49.26
566.033	49.06
566.375	49.04
566.716	48.94
567.058	48.85
567.399	49.01
567.741	48.98
568.082	49.04
568.423	48.74
568.764	49.04
569.105	49.19
569.447	49.71
569.788	49.63
570.129	49.53
570.47	49.96
570.811	49.91
571.151	49.87
571.492	49.95
571.833	50.13
572.174	49.99
572.514	50.25
572.855	49.92
573.195	49.82
573.536	49.95
573.876	49.58
574.217	49.86
574.557	50.06
574.898	50.22
575.238	49.88
575.578	50.37
575.918	50.33
576.258	50.5
576.598	50.33
576.938	50.34
577.278	50.31
577.618	50.35
577.958	50.72
578.298	50.68
578.638	51.12
578.977	50.9
579.317	51.01
579.657	51.34
579.996	51.19
580.336	51.01
580.675	51.42
581.014	51.62
581.354	51.5
581.693	51.64
582.032	51.44
582.372	51.75
582.711	51.98
583.05	51.6
583.389	51.86
583.728	51.74
584.067	52.16
584.406	51.88
584.745	52.1
585.083	52.22
585.422	52.3
585.761	52.29
586.1	52.33
586.438	52.46
586.777	52.15
587.115	52.41
587.454	52.4
587.792	52.56
588.13	52.51
588.469	52.31
588.807	52.82
589.145	52.67
589.483	52.84
589.821	52.84
590.159	52.89
590.497	52.7
590.835	52.84
591.173	52.73
591.511	52.68
591.849	52.64
592.187	52.91
592.524	52.75
592.862	52.73
593.2	53.13
593.537	53.13
593.875	53.63
594.212	53.48
594.55	53.54
594.887	53.51
595.224	53.58
595.561	53.41
595.899	53.36
596.236	53.21
596.573	53.68
596.91	54.01
597.247	53.87
597.584	54.01
597.921	53.52
598.258	53.71
598.594	53.21
598.931	53.09
599.268	53.14
599.604	53.33
599.941	53.78
600.277	53.91
600.614	54.46
600.95	54.54
601.287	54.34
601.623	54.72
601.959	54.45
602.296	54.88
602.632	54.54
602.968	54.56
603.304	54.73
603.64	54.78
603.976	54.71
604.312	54.91
604.648	54.68
604.984	54.58
605.319	54.45
605.655	54.4
605.991	54.44
606.326	54.18
606.662	54.34
606.998	54.44
607.333	54.85
607.668	54.79
608.004	54.76
608.339	55.22
608.674	55.16
609.01	55.26
609.345	55.63
609.68	55.47
610.015	55.24
610.35	55.7
610.685	55.41
611.02	55.33
611.355	54.86
611.689	55.17
612.024	55.47
612.359	55.33
612.694	55.9
613.028	55.84
613.363	55.92
613.697	56.23
614.032	56.66
614.366	56.49
614.7	56.11
615.035	55.91
615.369	56.46
615.703	56.42
616.037	56.6
616.371	56.97
616.705	56.41
617.039	56.58
617.373	56.62
617.707	56.6
618.041	57.35
618.375	56.77
618.709	56.7
619.042	56.61
619.376	57.3
619.71	56.98
620.043	57.13
620.377	57.23
620.71	57.61
621.043	57.17
621.377	57.27
621.71	57.4
622.043	57.42
622.376	57.04
622.709	57.41
623.043	57.6
623.376	57.59
623.709	57.62
624.041	57.88
624.374	57.76
624.707	58.17
625.04	57.83
625.373	57.56
625.705	58.01
626.038	57.94
626.37	57.59
626.703	58.12
627.035	58.15
627.368	58.17
627.7	57.86
628.032	58.15
628.365	58
628.697	57.9
629.029	57.78
629.361	57.96
629.693	57.92
630.025	58.28
630.357	58.16
630.689	58.72
631.021	58
631.353	58.69
631.684	58.57
632.016	58.52
632.348	58.71
632.679	58.72
633.011	58.91
633.342	58.89
633.674	58.96
634.005	58.58
634.336	58.68
634.668	59.15
634.999	59.33
635.33	59.43
635.661	59.01
635.992	58.77
636.323	59.04
636.654	59.03
636.985	59.12
637.316	59.05
637.647	59.63
637.977	59.76
638.308	59.56
638.639	59.49
638.969	59.28
639.3	59.62
639.63	59.73
639.961	59.84
640.291	59.79
640.622	59.83
640.952	59.92
641.282	59.65
641.612	59.81
641.943	60.68
642.273	60.22
642.603	60.02
642.933	59.96
643.263	59.88
643.592	60.15
643.922	60.11
644.252	60.9
644.582	60.39
644.911	60.64
645.241	61.13
645.571	59.86
645.9	60.52
646.23	60.62
646.559	59.84
646.888	60.34
647.218	60.71
647.547	60.94
647.876	60.86
648.205	61.01
648.534	60.82
648.863	61.1
649.192	61.58
649.521	61.31
649.85	60.89
650.179	61.38
650.508	61.17
650.837	61.37
651.165	61.02
651.494	61.01
651.822	60.8
652.151	61.54
652.479	61.11
652.808	61.6
653.136	61.34
653.465	61.91
653.793	61.9
654.121	61.42
654.449	61.66
654.777	61.5
655.105	62.09
655.433	62.03
655.761	61.88
656.089	62.04
656.417	62.6
656.745	61.69
657.073	61.86
657.4	61.68
657.728	61.99
658.056	61.54
658.383	62.46
658.711	61.9
659.038	62.73
659.365	62.27
659.693	62.45
660.02	62.19
660.347	62.41
660.674	61.66
661.001	61.76
661.329	61.47
661.656	61.96
661.982	62.47
662.309	62.16
662.636	62.65
662.963	62.14
663.29	62.29
663.616	62.59
663.943	62.66
664.27	63.12
664.596	62.96
664.923	62.72
665.249	62.63
665.576	62.87
665.902	63.31
666.228	63.84
666.554	63.29
666.881	63.28
667.207	62.85
667.533	63.35
667.859	62.58
668.185	63.18
668.511	63.57
668.837	63.28
