Data from 2019-3_forehead_Reflection__4__174.txt Node

Date: Fri Nov 11 18:13:45 CST 2022
User: ToomeyLab
Spectrometer: FLMS14357
Trigger mode: 0
Integration Time (sec): 1.000000E-2
Scans to average: 100
Electric dark correction enabled: true
Nonlinearity correction enabled: false
Boxcar width: 0
XAxis mode: Wavelengths
Number of Pixels in Spectrum: 2048
>>>>>Begin Spectral Data<<<<<
189.047	34.07
189.435	34.07
189.823	34.07
190.211	-2305.96
190.599	-34.08
190.987	-26.73
191.375	-92.95
191.763	306.57
192.151	90.75
192.538	14.81
192.926	756.54
193.314	53.12
193.702	-114.78
194.089	109.54
194.477	106.84
194.864	278.57
195.252	-162.32
195.639	30.16
196.027	-155.57
196.414	2.07
196.801	159.09
197.189	-308.58
197.576	85.18
197.963	7.51
198.351	27.05
198.738	-17.98
199.125	26.05
199.512	21.01
199.899	26.66
200.286	-42.07
200.673	23.95
201.06	-7.51
201.447	0.74
201.833	22.02
202.22	-29.48
202.607	21.01
202.994	31.01
203.38	-4.41
203.767	33.56
204.154	-16.37
204.54	-2.54
204.927	-25.77
205.313	-3.65
205.699	-21.65
206.086	-0.78
206.472	-37.25
206.858	-2.38
207.245	-0.99
207.631	-5.5
208.017	-44.11
208.403	-5.02
208.789	32.93
209.175	-8.65
209.561	17.59
209.947	-35.99
210.333	25.88
210.719	12.97
211.105	-11.81
211.491	7.89
211.876	-34.73
212.262	-50.88
212.648	14.63
213.034	0.81
213.419	-17.56
213.805	9.33
214.19	21.65
214.576	-8.45
214.961	-22.18
215.346	-49.11
215.732	13.94
216.117	43.49
216.502	9.88
216.888	-41.46
217.273	5.06
217.658	-3.43
218.043	1.68
218.428	30.77
218.813	31.86
219.198	-1.12
219.583	5.93
219.968	-26.21
220.353	-3.73
220.738	2.12
221.122	-18.28
221.507	30.72
221.892	8.82
222.276	6.84
222.661	4.48
223.046	-17.75
223.43	-0.48
223.815	-6.05
224.199	0.96
224.583	12.83
224.968	12.98
225.352	13.12
225.736	5.23
226.121	5.31
226.505	-2.84
226.889	-2.13
227.273	6.06
227.657	1.9
228.041	1.78
228.425	0.64
228.809	2.85
229.193	3.95
229.577	4.29
229.961	2.87
230.344	2.36
230.728	2.72
231.112	2.64
231.495	3.48
231.879	2.69
232.263	4.48
232.646	3.31
233.03	2.96
233.413	2.06
233.797	4.01
234.18	0.14
234.563	0.65
234.946	4.06
235.33	2.63
235.713	0.71
236.096	2.72
236.479	2.9
236.862	2.99
237.245	4.16
237.628	2.3
238.011	0.9
238.394	1.84
238.777	2.64
239.16	1.88
239.543	2.65
239.925	1.17
240.308	2.21
240.691	3.38
241.073	4.68
241.456	3.43
241.838	3.77
242.221	2.41
242.603	2.28
242.986	3.43
243.368	2.6
243.75	2.99
244.133	2.61
244.515	3.41
244.897	3.12
245.279	3.61
245.661	3.03
246.043	2.83
246.425	2.85
246.807	3.22
247.189	2.84
247.571	3.18
247.953	3
248.335	3.43
248.717	3.44
249.098	3.19
249.48	3.09
249.862	3.39
250.243	3.17
250.625	2.96
251.006	2.72
251.388	3.29
251.769	2.99
252.151	2.57
252.532	3.83
252.913	4.16
253.295	2.65
253.676	3.76
254.057	3.06
254.438	3.01
254.819	2.89
255.2	5.06
255.581	3.18
255.962	2.86
256.343	3.79
256.724	2.96
257.105	3.67
257.486	2.69
257.867	2.79
258.247	2.83
258.628	3.46
259.009	2.49
259.389	3.13
259.77	3.76
260.15	3.19
260.531	3.21
260.911	3.18
261.292	3.26
261.672	3.34
262.052	3.3
262.432	3
262.813	3.56
263.193	3.44
263.573	3.2
263.953	3.42
264.333	3.33
264.713	3.69
265.093	3.87
265.473	3.65
265.853	3.66
266.233	3.91
266.612	2.97
266.992	2.99
267.372	3.68
267.752	3.1
268.131	3.6
268.511	3.44
268.89	3.75
269.27	3.37
269.649	2.91
270.029	2.81
270.408	3.29
270.787	3.4
271.167	3.11
271.546	3.38
271.925	3.41
272.304	3.3
272.683	3.27
273.062	3.07
273.441	3.11
273.82	3.84
274.199	2.62
274.578	3.12
274.957	3.71
275.336	3.14
275.715	3.31
276.093	3.11
276.472	3.43
276.851	3.56
277.229	2.97
277.608	2.97
277.986	3.57
278.365	3.42
278.743	3.34
279.122	3.62
279.5	3.05
279.878	3.49
280.257	2.82
280.635	2.75
281.013	3.29
281.391	3.01
281.769	2.92
282.147	3.49
282.525	3.37
282.903	3.61
283.281	3.37
283.659	2.99
284.037	3.16
284.415	3.15
284.792	3.44
285.17	3.25
285.548	3.54
285.925	3
286.303	2.97
286.68	2.93
287.058	3.23
287.435	3.07
287.813	3.34
288.19	3.11
288.567	2.78
288.945	3.22
289.322	3.39
289.699	3.32
290.076	3.31
290.453	3.6
290.83	3.15
291.207	2.66
291.584	3.57
291.961	3.5
292.338	3.61
292.715	3.29
293.092	3.46
293.469	3.6
293.845	3.48
294.222	3.86
294.599	3.81
294.975	3.53
295.352	4.3
295.728	3.42
296.105	3.7
296.481	4.02
296.858	4.21
297.234	3.93
297.61	3.92
297.986	3.8
298.363	3.89
298.739	4.03
299.115	4.13
299.491	4
299.867	3.92
300.243	3.98
300.619	4
300.995	4.09
301.371	4.33
301.746	4.25
302.122	4.53
302.498	4.62
302.874	4.56
303.249	4.42
303.625	4.66
304	4.48
304.376	4.38
304.751	4.79
305.127	4.57
305.502	4.28
305.878	4.67
306.253	4.75
306.628	4.52
307.003	5.09
307.378	4.49
307.754	4.88
308.129	5.06
308.504	4.78
308.879	5.55
309.254	5.06
309.629	5.11
310.003	5.55
310.378	5.08
310.753	5.04
311.128	5.58
311.502	4.77
311.877	5.2
312.252	5.86
312.626	5.6
313.001	5.46
313.375	5.22
313.75	5.42
314.124	5.64
314.498	5.51
314.873	5.8
315.247	5.73
315.621	5.53
315.995	5.61
316.369	5.82
316.743	5.84
317.117	5.8
317.491	5.86
317.865	6.17
318.239	6.34
318.613	6.47
318.987	6.19
319.361	6.31
319.734	6.61
320.108	6.17
320.482	5.83
320.855	5.99
321.229	6.22
321.602	5.61
321.976	6.16
322.349	6.88
322.723	6.64
323.096	6.52
323.469	6.7
323.843	6.67
324.216	6.46
324.589	6.98
324.962	6.19
325.335	6.28
325.708	7.04
326.081	6.42
326.454	6.54
326.827	6.91
327.2	7.16
327.573	6.65
327.945	7.35
328.318	6.87
328.691	7.19
329.063	6.92
329.436	6.95
329.809	7.42
330.181	7
330.553	7.23
330.926	7.64
331.298	6.87
331.671	6.97
332.043	7.05
332.415	7.51
332.787	6.78
333.159	6.98
333.532	7.45
333.904	7.61
334.276	7.68
334.648	7.24
335.02	7.73
335.391	7.56
335.763	7.52
336.135	7.67
336.507	7.75
336.879	7.93
337.25	7.79
337.622	7.88
337.993	8.18
338.365	8
338.736	7.55
339.108	7.78
339.479	7.44
339.851	8.02
340.222	7.53
340.593	7.98
340.964	8.07
341.336	7.94
341.707	8.5
342.078	8.53
342.449	8.41
342.82	8.52
343.191	8.2
343.562	8.36
343.933	7.71
344.303	8.35
344.674	8.22
345.045	8.25
345.416	8.35
345.786	8.33
346.157	8.5
346.527	8.68
346.898	8.41
347.268	8.52
347.639	8.91
348.009	8.71
348.38	8.59
348.75	8.81
349.12	8.4
349.49	9.1
349.861	8.8
350.231	9.08
350.601	9.1
350.971	8.83
351.341	9.1
351.711	8.86
352.081	8.67
352.45	8.77
352.82	8.85
353.19	9.49
353.56	9.44
353.929	9.02
354.299	8.92
354.669	8.93
355.038	9.36
355.408	9.07
355.777	9.25
356.147	9.34
356.516	9.01
356.885	9.25
357.254	9.45
357.624	9.28
357.993	9.27
358.362	9.5
358.731	9.29
359.1	9.46
359.469	9.59
359.838	9.24
360.207	9.69
360.576	9.27
360.945	9.7
361.314	9.66
361.682	9.63
362.051	9.81
362.42	9.31
362.788	9.82
363.157	9.5
363.525	9.73
363.894	9.31
364.262	9.35
364.631	9.76
364.999	9.57
365.367	9.48
365.735	10.12
366.104	10
366.472	9.83
366.84	10.2
367.208	10.01
367.576	10.01
367.944	9.45
368.312	9.67
368.68	10.14
369.048	9.74
369.416	10.24
369.783	10.11
370.151	10.04
370.519	10.3
370.886	10.38
371.254	10.08
371.621	10.49
371.989	10.53
372.356	10.23
372.724	10.42
373.091	10.62
373.458	10.4
373.826	10.71
374.193	10.39
374.56	10.36
374.927	10.51
375.294	10.75
375.661	10.75
376.028	10.93
376.395	10.83
376.762	10.48
377.129	10.94
377.496	11.09
377.863	10.63
378.229	10.6
378.596	10.82
378.963	11.14
379.329	10.99
379.696	10.8
380.062	10.7
380.429	11.01
380.795	10.93
381.161	10.8
381.528	11.2
381.894	10.96
382.26	10.96
382.626	11.17
382.993	11.32
383.359	11.12
383.725	11.17
384.091	11.39
384.457	11.57
384.823	11.1
385.188	11.22
385.554	11.69
385.92	11.66
386.286	11.37
386.651	11.55
387.017	11.23
387.383	11.47
387.748	11.33
388.114	11.37
388.479	11.51
388.845	11.86
389.21	11.49
389.575	11.32
389.94	11.88
390.306	11.74
390.671	11.65
391.036	11.69
391.401	11.87
391.766	11.93
392.131	11.93
392.496	11.98
392.861	11.81
393.226	11.75
393.591	11.99
393.956	11.91
394.32	11.88
394.685	11.88
395.05	11.93
395.414	12.06
395.779	11.85
396.143	12.05
396.508	12.1
396.872	11.94
397.236	12.13
397.601	12.42
397.965	12.06
398.329	12.25
398.694	12.46
399.058	12.27
399.422	12.42
399.786	12.54
400.15	12.49
400.514	12.2
400.878	12.49
401.242	12.23
401.605	12.49
401.969	12.52
402.333	12.39
402.697	12.67
403.06	12.5
403.424	12.64
403.787	12.69
404.151	12.8
404.514	12.74
404.878	12.59
405.241	12.67
405.604	12.74
405.968	12.79
406.331	12.61
406.694	12.79
407.057	12.66
407.42	12.81
407.783	12.89
408.146	12.96
408.509	12.99
408.872	13.1
409.235	13.22
409.598	13.13
409.961	13.14
410.323	13.19
410.686	13.31
411.049	13.28
411.411	13.11
411.774	13.24
412.136	13.14
412.499	13.16
412.861	13.22
413.223	13.39
413.586	13.17
413.948	13.43
414.31	13.48
414.672	13.31
415.035	13.49
415.397	13.81
415.759	13.63
416.121	13.55
416.483	13.66
416.845	13.47
417.206	13.56
417.568	13.49
417.93	13.7
418.292	13.63
418.653	13.51
419.015	13.48
419.377	13.55
419.738	13.55
420.1	13.63
420.461	13.52
420.822	13.55
421.184	13.55
421.545	13.75
421.906	13.65
422.267	13.62
422.629	13.49
422.99	13.7
423.351	13.61
423.712	13.61
424.073	13.73
424.434	13.82
424.795	13.84
425.155	13.86
425.516	13.72
425.877	13.83
426.238	13.72
426.598	13.78
426.959	13.97
427.32	13.95
427.68	14.11
428.041	14.11
428.401	14.31
428.761	14.16
429.122	14.38
429.482	14.44
429.842	14.38
430.202	14.42
430.563	14.56
430.923	14.61
431.283	14.61
431.643	14.44
432.003	14.55
432.363	14.69
432.722	14.67
433.082	14.63
433.442	14.75
433.802	14.46
434.161	14.61
434.521	14.57
434.881	14.65
435.24	14.52
435.6	14.57
435.959	14.58
436.319	14.76
436.678	14.84
437.037	15.07
437.396	14.86
437.756	14.8
438.115	14.91
438.474	14.99
438.833	14.99
439.192	14.79
439.551	15.06
439.91	15.04
440.269	15
440.628	15.08
440.987	15.03
441.345	15.04
441.704	14.98
442.063	15.12
442.421	15.01
442.78	15.03
443.138	15.11
443.497	15.22
443.855	15.35
444.214	15.44
444.572	15.46
444.93	15.56
445.288	15.52
445.647	15.43
446.005	15.54
446.363	15.41
446.721	15.41
447.079	15.31
447.437	15.35
447.795	15.33
448.153	15.21
448.51	15.31
448.868	15.3
449.226	15.42
449.584	15.48
449.941	15.62
450.299	15.68
450.656	15.72
451.014	15.88
451.371	15.99
451.729	15.85
452.086	16.17
452.443	16.05
452.801	16.06
453.158	16.13
453.515	16.18
453.872	16.01
454.229	16.07
454.586	16.17
454.943	16.07
455.3	16.14
455.657	16.11
456.014	16.18
456.371	16.18
456.727	16.12
457.084	16.28
457.441	16.27
457.797	16.27
458.154	16.35
458.51	16.53
458.867	16.48
459.223	16.39
459.58	16.51
459.936	16.38
460.292	16.4
460.648	16.46
461.005	16.46
461.361	16.22
461.717	16.27
462.073	16.23
462.429	16.1
462.785	16.51
463.141	16.61
463.496	16.57
463.852	16.83
464.208	16.79
464.564	16.98
464.919	17.07
465.275	16.88
465.631	17.14
465.986	17.18
466.342	17.04
466.697	17.07
467.052	16.96
467.408	17.36
467.763	17.2
468.118	17.03
468.473	16.99
468.829	16.82
469.184	16.97
469.539	17.09
469.894	16.99
470.249	16.95
470.603	17.09
470.958	17.31
471.313	17.15
471.668	17.26
472.023	17.28
472.377	17.54
472.732	17.6
473.086	17.55
473.441	17.44
473.795	17.59
474.15	17.5
474.504	17.46
474.859	17.37
475.213	17.53
475.567	17.61
475.921	17.6
476.275	17.63
476.63	17.69
476.984	17.69
477.338	17.85
477.692	17.86
478.045	17.72
478.399	17.9
478.753	17.68
479.107	18.02
479.461	17.88
479.814	17.93
480.168	17.88
480.521	17.86
480.875	17.68
481.228	18
481.582	18.17
481.935	18.07
482.289	18.04
482.642	17.99
482.995	18
483.348	17.94
483.701	17.98
484.055	18.09
484.408	17.88
484.761	17.8
485.114	17.55
485.466	17.44
485.819	17.25
486.172	17.22
486.525	17.21
486.878	17.43
487.23	17.6
487.583	17.76
487.936	17.92
488.288	17.98
488.641	17.92
488.993	17.62
489.345	17.73
489.698	17.65
490.05	17.68
490.402	17.75
490.754	17.87
491.107	17.97
491.459	18.16
491.811	18.26
492.163	18.41
492.515	18.52
492.866	18.34
493.218	18.11
493.57	18.06
493.922	18.02
494.274	18.06
494.625	18.28
494.977	18.38
495.328	18.72
495.68	18.82
496.031	19.06
496.383	18.97
496.734	19.11
497.086	18.95
497.437	19.21
497.788	19.07
498.139	19.11
498.49	19.01
498.842	19.08
499.193	19.04
499.544	18.8
499.894	19.18
500.245	19.2
500.596	19.3
500.947	19.21
501.298	19.25
501.648	19.43
501.999	19.37
502.35	19.44
502.7	19.52
503.051	19.59
503.401	19.64
503.752	19.61
504.102	19.6
504.452	19.61
504.803	19.69
505.153	19.51
505.503	19.82
505.853	19.65
506.203	19.95
506.553	19.67
506.903	19.75
507.253	19.77
507.603	19.84
507.953	19.85
508.303	19.88
508.652	19.8
509.002	20
509.352	19.92
509.701	19.9
510.051	19.87
510.4	19.95
510.75	19.88
511.099	19.96
511.449	19.92
511.798	20.09
512.147	20.09
512.496	20.11
512.846	20.15
513.195	20.18
513.544	20.15
513.893	20.11
514.242	20.1
514.591	20.14
514.939	20.25
515.288	20.41
515.637	20.31
515.986	20.42
516.334	20.49
516.683	20.61
517.032	20.64
517.38	20.69
517.729	20.56
518.077	20.86
518.426	20.69
518.774	20.67
519.122	20.56
519.47	20.61
519.819	20.5
520.167	20.42
520.515	20.33
520.863	20.38
521.211	20.49
521.559	20.45
521.907	20.69
522.255	20.55
522.602	20.71
522.95	20.78
523.298	21.15
523.645	21.08
523.993	21.17
524.341	21.19
524.688	21.28
525.036	21.33
525.383	21.36
525.73	21.25
526.078	21.34
526.425	21.21
526.772	21.21
527.119	21
527.466	21.09
527.814	20.86
528.161	20.91
528.508	20.91
528.854	21.12
529.201	21.21
529.548	21.14
529.895	20.9
530.242	20.78
530.588	20.58
530.935	20.56
531.282	20.6
531.628	20.58
531.975	20.82
532.321	21.03
532.667	21.1
533.014	21.35
533.36	21.51
533.706	21.46
534.052	21.62
534.399	21.42
534.745	21.35
535.091	21.12
535.437	21.13
535.783	21.18
536.129	21.25
536.474	21.47
536.82	21.71
537.166	21.89
537.512	22.03
537.857	21.94
538.203	21.82
538.549	21.81
538.894	21.72
539.239	21.8
539.585	21.86
539.93	21.87
540.276	22.13
540.621	22.25
540.966	22.43
541.311	22.4
541.656	22.42
542.001	22.44
542.346	22.32
542.691	21.99
543.036	21.74
543.381	21.71
543.726	21.73
544.071	21.73
544.415	21.88
544.76	21.96
545.105	22.07
545.449	22.11
545.794	22.38
546.138	22.35
546.483	22.44
546.827	22.53
547.171	22.68
547.516	22.67
547.86	22.54
548.204	22.58
548.548	22.7
548.892	22.61
549.236	22.62
549.58	22.69
549.924	22.86
550.268	22.92
550.612	23.14
550.956	23.33
551.3	23.28
551.643	23.18
551.987	23.24
552.33	23.61
552.674	23.57
553.017	23.5
553.361	23.38
553.704	23.45
554.048	23.5
554.391	23.47
554.734	23.4
555.077	23.3
555.42	23.53
555.764	23.58
556.107	23.6
556.45	23.63
556.793	23.83
557.135	23.89
557.478	23.73
557.821	23.84
558.164	23.91
558.507	23.89
558.849	24.01
559.192	24.07
559.534	24.19
559.877	24.17
560.219	24.06
560.562	24.2
560.904	24.12
561.246	24.22
561.589	24.05
561.931	24.27
562.273	24.26
562.615	24.31
562.957	24.21
563.299	24.18
563.641	24.19
563.983	24.1
564.325	24.25
564.667	24.19
565.008	24.47
565.35	24.49
565.692	24.64
566.033	24.41
566.375	24.38
566.716	24.55
567.058	24.44
567.399	24.49
567.741	24.68
568.082	24.38
568.423	24.4
568.764	24.4
569.105	24.52
569.447	24.68
569.788	24.73
570.129	24.65
570.47	24.81
570.811	24.88
571.151	24.8
571.492	25.14
571.833	24.99
572.174	24.84
572.514	24.98
572.855	24.9
573.195	24.91
573.536	24.8
573.876	24.9
574.217	24.88
574.557	24.98
574.898	24.97
575.238	25.14
575.578	25.19
575.918	25.11
576.258	25.06
576.598	25.01
576.938	25.23
577.278	25.28
577.618	25.16
577.958	25.64
578.298	25.28
578.638	25.35
578.977	25.54
579.317	25.69
579.657	25.62
579.996	25.76
580.336	25.69
580.675	25.87
581.014	25.52
581.354	25.8
581.693	25.85
582.032	25.62
582.372	25.77
582.711	25.79
583.05	25.92
583.389	25.9
583.728	25.93
584.067	26.1
584.406	26.15
584.745	26.1
585.083	26.18
585.422	26.1
585.761	26.02
586.1	26.28
586.438	26.11
586.777	26.29
587.115	26.49
587.454	26.31
587.792	26.39
588.13	26.39
588.469	26.38
588.807	26.53
589.145	26.47
589.483	26.34
589.821	26.52
590.159	26.61
590.497	26.4
590.835	26.61
591.173	26.45
591.511	26.54
591.849	26.39
592.187	26.55
592.524	26.3
592.862	26.52
593.2	26.67
593.537	26.48
593.875	26.99
594.212	26.96
594.55	27.04
594.887	26.93
595.224	26.65
595.561	27.2
595.899	26.79
596.236	26.82
596.573	26.73
596.91	26.75
597.247	27.04
597.584	26.86
597.921	27.2
598.258	27.15
598.594	26.96
598.931	26.83
599.268	26.96
599.604	26.83
599.941	27.09
600.277	26.9
600.614	27.25
600.95	27.06
601.287	27.25
601.623	27.38
601.959	27.17
602.296	27.77
602.632	27.18
602.968	27.45
603.304	27.56
603.64	27.67
603.976	27.64
604.312	27.7
604.648	27.37
604.984	27.17
605.319	27.67
605.655	27.41
605.991	27.35
606.326	27.28
606.662	27.37
606.998	27.21
607.333	27.59
607.668	27.62
608.004	27.58
608.339	27.63
608.674	28.02
609.01	27.89
609.345	28.13
609.68	28.05
610.015	27.87
610.35	28.02
610.685	28.19
611.02	27.98
611.355	27.9
611.689	27.63
612.024	27.65
612.359	27.86
612.694	28.21
613.028	27.88
613.363	28.03
613.697	28.25
614.032	28.33
614.366	28.29
614.7	28.24
615.035	28.21
615.369	28.51
615.703	28.12
616.037	27.94
616.371	28.36
616.705	28.47
617.039	28.35
617.373	28.46
617.707	28.26
618.041	28.75
618.375	28.56
618.709	28.6
619.042	28.48
619.376	28.89
619.71	28.65
620.043	28.65
620.377	28.79
620.71	29.08
621.043	28.6
621.377	28.93
621.71	28.46
622.043	28.88
622.376	29.07
622.709	28.68
623.043	28.81
623.376	28.76
623.709	29.13
624.041	29.47
624.374	29.16
624.707	29.03
625.04	29.15
625.373	29.22
625.705	29.36
626.038	29.25
626.37	29.01
626.703	29.33
627.035	29.17
627.368	29.34
627.7	29.38
628.032	29.18
628.365	29.24
628.697	29.11
629.029	29.19
629.361	29.01
629.693	29.18
630.025	29.37
630.357	29.05
630.689	28.98
631.021	29.18
631.353	29.44
631.684	28.91
632.016	29.71
632.348	29.23
632.679	29.68
633.011	29.76
633.342	29.67
633.674	29.71
634.005	29.71
634.336	29.9
634.668	29.62
634.999	30.02
635.33	29.76
635.661	29.67
635.992	29.83
636.323	29.59
636.654	29.86
636.985	30.14
637.316	29.81
637.647	30.31
637.977	30.12
638.308	30.04
638.639	29.82
638.969	29.87
639.3	30.18
639.63	29.85
639.961	30.1
640.291	30.36
640.622	30
640.952	30.6
641.282	30.5
641.612	30.15
641.943	30.45
642.273	30.09
642.603	30.29
642.933	29.98
643.263	30.07
643.592	30.1
643.922	30.33
644.252	31.01
644.582	30.51
644.911	30.34
645.241	30.28
645.571	30.48
645.9	30.21
646.23	30.4
646.559	30.44
646.888	30.33
647.218	30.55
647.547	30.73
647.876	30.45
648.205	30.81
648.534	30.66
648.863	30.92
649.192	30.58
649.521	30.58
649.85	30.59
650.179	31.33
650.508	30.53
650.837	30.62
651.165	30.81
651.494	30.89
651.822	30.56
652.151	30.87
652.479	31.54
652.808	31.13
653.136	30.76
653.465	30.73
653.793	30.98
654.121	31.17
654.449	31.11
654.777	31.02
655.105	31.2
655.433	30.9
655.761	31.71
656.089	30.69
656.417	31.51
656.745	31.7
657.073	31.05
657.4	31.79
657.728	31.38
658.056	31.04
658.383	31.45
658.711	31.02
659.038	31.33
659.365	31.73
659.693	31.48
660.02	31.66
660.347	31.75
660.674	31.39
661.001	31.19
661.329	32.01
661.656	31.4
661.982	31.53
662.309	31.58
662.636	31.66
662.963	31.5
663.29	31.73
663.616	31.61
663.943	32.05
664.27	31.96
664.596	31.91
664.923	30.56
665.249	31.03
665.576	31.88
665.902	31.76
666.228	31.61
666.554	31.99
666.881	32
667.207	31.75
667.533	32.62
667.859	31.28
668.185	31.15
668.511	31.99
668.837	31.65
669.162	31.77
669.488	31.94
669.814	31.85
670.139	32.21
670.465	31.94
670.791	32.44
671.116	31.88
671.442	32.28
671.767	32.65
672.092	32.29
