Data from 0037_chest_Reflection__0__45.txt Node

Date: Fri Nov 04 15:04:22 CDT 2022
User: ToomeyLab
Spectrometer: FLMS14357
Trigger mode: 0
Integration Time (sec): 1.000000E-2
Scans to average: 100
Electric dark correction enabled: true
Nonlinearity correction enabled: false
Boxcar width: 0
XAxis mode: Wavelengths
Number of Pixels in Spectrum: 2048
>>>>>Begin Spectral Data<<<<<
189.047	-409.48
189.435	-409.48
189.823	-409.48
190.211	-161.63
190.599	-13.65
190.987	130.34
191.375	51.52
191.763	-2802.33
192.151	-18.14
192.538	115.92
192.926	37.48
193.314	285.3
193.702	74.09
194.089	-2255.28
194.477	119.46
194.864	89.33
195.252	82.51
195.639	7.18
196.027	269.73
196.414	-451.72
196.801	100
197.189	-32.1
197.576	153.31
197.963	-252.67
198.351	-26.17
198.738	-2.7
199.125	6.11
199.512	-63.76
199.899	-6.18
200.286	-14.15
200.673	-10.41
201.06	30.9
201.447	-36.24
201.833	16.31
202.22	-43.69
202.607	9.14
202.994	31.73
203.38	5.91
203.767	-2.6
204.154	21.48
204.54	-15.83
204.927	-13.54
205.313	-0.35
205.699	23.45
206.086	16.95
206.472	-16.78
206.858	-10.35
207.245	-5.08
207.631	-5.33
208.017	-16.02
208.403	15.69
208.789	16.92
209.175	-18.35
209.561	-31.97
209.947	-36.06
210.333	24.64
210.719	0.81
211.105	-71.64
211.491	1.67
211.876	-14.1
212.262	-43.94
212.648	-16.5
213.034	7.33
213.419	-31.58
213.805	-25.02
214.19	-28.44
214.576	-3.1
214.961	9.28
215.346	7.7
215.732	6.9
216.117	-14.28
216.502	-7.86
216.888	-27.6
217.273	-22.15
217.658	8.67
218.043	-1.29
218.428	15.58
218.813	8.3
219.198	-12.99
219.583	-33.39
219.968	10.43
220.353	-19.85
220.738	-10.86
221.122	-8.11
221.507	7.78
221.892	-19.64
222.276	-5.6
222.661	6.92
223.046	-2.43
223.43	-3.32
223.815	-2.91
224.199	6.89
224.583	1.25
224.968	-5.69
225.352	-0.76
225.736	-10.34
226.121	-12.96
226.505	-5.36
226.889	-7.64
227.273	-2.29
227.657	-7.17
228.041	0.77
228.425	0.92
228.809	1.31
229.193	1.09
229.577	-1.66
229.961	3.67
230.344	2.26
230.728	1.93
231.112	1.44
231.495	1.41
231.879	1.47
232.263	1.72
232.646	0.79
233.03	1.5
233.413	0.15
233.797	0.11
234.18	-0.61
234.563	2.11
234.946	0.83
235.33	1.47
235.713	1.03
236.096	2.79
236.479	0.35
236.862	0.81
237.245	0.68
237.628	0.93
238.011	1.34
238.394	1.41
238.777	0.34
239.16	2.08
239.543	0.24
239.925	0.8
240.308	1.38
240.691	1.51
241.073	1.55
241.456	0.94
241.838	0.97
242.221	0.92
242.603	1.84
242.986	0.46
243.368	1.83
243.75	1.74
244.133	1.95
244.515	1.95
244.897	1.83
245.279	1.75
245.661	2.03
246.043	2.05
246.425	1.49
246.807	2.71
247.189	2.47
247.571	2.09
247.953	1.58
248.335	1.68
248.717	1.83
249.098	1.79
249.48	2.06
249.862	2.02
250.243	1.69
250.625	1.37
251.006	1.3
251.388	1.99
251.769	1.8
252.151	1.73
252.532	1.54
252.913	1.08
253.295	2.38
253.676	1.85
254.057	1.53
254.438	1.9
254.819	1.95
255.2	1.65
255.581	1.89
255.962	2.4
256.343	0.75
256.724	1.62
257.105	0.75
257.486	2.53
257.867	3.3
258.247	2.9
258.628	1.12
259.009	1.22
259.389	2.15
259.77	2.03
260.15	1.68
260.531	1.87
260.911	1.45
261.292	1.7
261.672	1.94
262.052	1.74
262.432	1.96
262.813	1.51
263.193	1.08
263.573	1.16
263.953	2.08
264.333	1.63
264.713	1.66
265.093	1.49
265.473	1.8
265.853	0.7
266.233	1.01
266.612	2.03
266.992	2.19
267.372	1.14
267.752	1.87
268.131	1.57
268.511	1.55
268.89	1.73
269.27	1.05
269.649	1.97
270.029	1.15
270.408	1.3
270.787	1.57
271.167	1.86
271.546	2.15
271.925	1.79
272.304	1.33
272.683	1.7
273.062	1.56
273.441	1.87
273.82	1.31
274.199	1.66
274.578	1.56
274.957	1.57
275.336	1.29
275.715	1.62
276.093	1.17
276.472	1.12
276.851	1.62
277.229	1.51
277.608	1.35
277.986	1.63
278.365	1.74
278.743	1.59
279.122	1.65
279.5	1.91
279.878	1.84
280.257	1.28
280.635	1.7
281.013	1.64
281.391	1.54
281.769	1.54
282.147	1.33
282.525	1.67
282.903	1.56
283.281	1.99
283.659	1.48
284.037	1.55
284.415	1.52
284.792	1.84
285.17	1.65
285.548	1.65
285.925	1.61
286.303	1.85
286.68	2.09
287.058	1.57
287.435	1.3
287.813	1.47
288.19	1.76
288.567	1.49
288.945	1.55
289.322	1.8
289.699	2.02
290.076	1.97
290.453	1.32
290.83	1.6
291.207	1.6
291.584	1.93
291.961	1.87
292.338	2.09
292.715	1.71
293.092	1.94
293.469	1.69
293.845	1.85
294.222	1.57
294.599	1.84
294.975	1.88
295.352	1.76
295.728	2.12
296.105	2.01
296.481	2.02
296.858	1.93
297.234	2.01
297.61	2.29
297.986	1.86
298.363	1.7
298.739	2.08
299.115	2.25
299.491	2.21
299.867	2.26
300.243	1.94
300.619	2.18
300.995	2.34
301.371	2.45
301.746	2.18
302.122	1.99
302.498	1.97
302.874	2.57
303.249	1.89
303.625	2.15
304	2.17
304.376	1.85
304.751	1.99
305.127	1.48
305.502	2.41
305.878	2.48
306.253	2.17
306.628	1.83
307.003	1.73
307.378	2.16
307.754	2.21
308.129	1.96
308.504	2.31
308.879	2.39
309.254	2.45
309.629	2.42
310.003	2.12
310.378	2.08
310.753	2.76
311.128	2.47
311.502	1.86
311.877	2.52
312.252	2.12
312.626	2.44
313.001	2.19
313.375	2.48
313.75	1.9
314.124	2.08
314.498	2.3
314.873	2.5
315.247	2.22
315.621	2.87
315.995	2.75
316.369	2.29
316.743	2.4
317.117	3.01
317.491	2.5
317.865	2.05
318.239	2.53
318.613	2.73
318.987	2.64
319.361	2.76
319.734	2.63
320.108	2.64
320.482	2.26
320.855	2.75
321.229	2.49
321.602	2.5
321.976	2.88
322.349	3.38
322.723	2.43
323.096	2.34
323.469	2.36
323.843	2.48
324.216	2.27
324.589	2.4
324.962	2.4
325.335	2.71
325.708	2.31
326.081	2.49
326.454	2.72
326.827	2.8
327.2	2.46
327.573	2.35
327.945	2.9
328.318	2.19
328.691	2.66
329.063	2.33
329.436	2.63
329.809	2.24
330.181	2.46
330.553	2.21
330.926	2.73
331.298	2.85
331.671	2.18
332.043	2.8
332.415	2.84
332.787	1.95
333.159	2.32
333.532	2.26
333.904	2.3
334.276	2.5
334.648	2.83
335.02	1.88
335.391	2.62
335.763	2.6
336.135	2.84
336.507	2.84
336.879	2.14
337.25	3.2
337.622	2.77
337.993	2.62
338.365	2.42
338.736	2.97
339.108	3.1
339.479	2.69
339.851	2.1
340.222	2.52
340.593	2.65
340.964	2.71
341.336	2.17
341.707	2.36
342.078	2.35
342.449	2.64
342.82	2.6
343.191	2.35
343.562	2.94
343.933	3
344.303	3.07
344.674	2.29
345.045	2.09
345.416	2.28
345.786	2.74
346.157	2.64
346.527	2.96
346.898	2.44
347.268	2.18
347.639	2.65
348.009	2.45
348.38	2.48
348.75	2.61
349.12	2.46
349.49	2.64
349.861	2.26
350.231	2.87
350.601	2.51
350.971	2.24
351.341	2.61
351.711	2.67
352.081	2.92
352.45	2.71
352.82	2.81
353.19	2.56
353.56	2.8
353.929	2.5
354.299	3.01
354.669	2.54
355.038	3.12
355.408	2.54
355.777	2.49
356.147	2.58
356.516	2.41
356.885	2.77
357.254	2.46
357.624	2.69
357.993	2.82
358.362	2.3
358.731	2.66
359.1	2.45
359.469	2.54
359.838	2.54
360.207	2.44
360.576	2.43
360.945	2.83
361.314	2.75
361.682	2.47
362.051	2.65
362.42	2.81
362.788	2.62
363.157	2.55
363.525	2.69
363.894	2.44
364.262	2.78
364.631	2.94
364.999	2.68
365.367	2.59
365.735	2.84
366.104	2.42
366.472	2.78
366.84	2.43
367.208	2.58
367.576	2.53
367.944	2.57
368.312	2.6
368.68	2.39
369.048	2.58
369.416	2.5
369.783	2.66
370.151	2.32
370.519	2.93
370.886	2.5
371.254	2.57
371.621	2.83
371.989	2.55
372.356	2.82
372.724	2.84
373.091	2.54
373.458	2.56
373.826	2.84
374.193	2.55
374.56	2.3
374.927	2.97
375.294	2.71
375.661	2.82
376.028	2.55
376.395	2.72
376.762	2.68
377.129	2.79
377.496	2.81
377.863	2.71
378.229	2.6
378.596	2.35
378.963	2.74
379.329	2.61
379.696	2.6
380.062	2.92
380.429	2.7
380.795	2.86
381.161	2.54
381.528	2.76
381.894	2.24
382.26	2.99
382.626	2.51
382.993	2.67
383.359	2.73
383.725	2.71
384.091	2.45
384.457	2.82
384.823	2.85
385.188	2.78
385.554	2.84
385.92	2.64
386.286	2.61
386.651	2.8
387.017	2.42
387.383	2.63
387.748	2.45
388.114	2.52
388.479	3.22
388.845	2.65
389.21	2.83
389.575	2.97
389.94	2.8
390.306	2.59
390.671	2.71
391.036	2.83
391.401	3.07
391.766	2.72
392.131	2.4
392.496	2.64
392.861	2.72
393.226	2.7
393.591	2.75
393.956	2.75
394.32	2.65
394.685	2.84
395.05	2.95
395.414	2.85
395.779	2.95
396.143	2.54
396.508	2.83
396.872	2.86
397.236	2.87
397.601	2.72
397.965	2.78
398.329	2.79
398.694	2.94
399.058	2.82
399.422	2.77
399.786	2.63
400.15	2.76
400.514	2.77
400.878	2.83
401.242	2.93
401.605	2.84
401.969	2.96
402.333	2.73
402.697	2.7
403.06	2.84
403.424	2.78
403.787	2.91
404.151	2.86
404.514	2.83
404.878	2.87
405.241	2.77
405.604	3.03
405.968	2.84
406.331	2.79
406.694	2.81
407.057	2.89
407.42	2.81
407.783	2.65
408.146	3.02
408.509	2.97
408.872	3.02
409.235	2.96
409.598	2.94
409.961	2.84
410.323	2.77
410.686	2.89
411.049	3.23
411.411	2.85
411.774	2.8
412.136	3.12
412.499	3.15
412.861	3
413.223	2.93
413.586	2.84
413.948	2.92
414.31	2.7
414.672	3.01
415.035	2.95
415.397	2.78
415.759	3.03
416.121	2.81
416.483	2.95
416.845	2.82
417.206	2.83
417.568	3.13
417.93	2.85
418.292	2.9
418.653	2.93
419.015	2.9
419.377	2.88
419.738	2.87
420.1	3.01
420.461	2.92
420.822	3
421.184	3
421.545	2.77
421.906	2.88
422.267	2.73
422.629	3
422.99	2.88
423.351	2.72
423.712	2.82
424.073	2.94
424.434	2.83
424.795	2.92
425.155	2.98
425.516	2.97
425.877	2.81
426.238	2.77
426.598	2.87
426.959	2.8
427.32	2.9
427.68	2.97
428.041	2.93
428.401	3.03
428.761	3.1
429.122	2.99
429.482	2.99
429.842	2.82
430.202	3.12
430.563	2.88
430.923	3.1
431.283	2.8
431.643	2.91
432.003	3.23
432.363	3
432.722	3.12
433.082	3.23
433.442	2.98
433.802	2.95
434.161	3.04
434.521	2.94
434.881	3.05
435.24	2.86
435.6	3.03
435.959	2.95
436.319	2.98
436.678	3.08
437.037	3.09
437.396	3.18
437.756	3.06
438.115	2.95
438.474	3.12
438.833	3.17
439.192	2.94
439.551	3
439.91	3.18
440.269	2.96
440.628	3.15
440.987	3.08
441.345	2.95
441.704	3.01
442.063	3.06
442.421	3.06
442.78	3.12
443.138	3.07
443.497	3.07
443.855	2.9
444.214	3.06
444.572	3.03
444.93	3.07
445.288	3.18
445.647	3.01
446.005	3.19
446.363	3.15
446.721	2.97
447.079	3.01
447.437	3.07
447.795	3.12
448.153	2.94
448.51	3.05
448.868	2.96
449.226	3.01
449.584	3.02
449.941	3.06
450.299	3.03
450.656	3.11
451.014	3.16
451.371	3.16
451.729	3.16
452.086	3.12
452.443	3.06
452.801	3.23
453.158	3.18
453.515	3.19
453.872	3.05
454.229	3.25
454.586	3.19
454.943	3.2
455.3	3.16
455.657	3.18
456.014	3.25
456.371	3.24
456.727	3.26
457.084	3.31
457.441	3.19
457.797	3.16
458.154	3.25
458.51	3.4
458.867	3.08
459.223	3.12
459.58	3.4
459.936	3.11
460.292	3.23
460.648	3.24
461.005	3.12
461.361	3.19
461.717	3.2
462.073	3.17
462.429	3.2
462.785	3.22
463.141	3.3
463.496	3.33
463.852	3.21
464.208	3.14
464.564	3.16
464.919	3.33
465.275	3.35
465.631	3.4
465.986	3.26
466.342	3.28
466.697	3.15
467.052	3.25
467.408	3.3
467.763	3.15
468.118	3.47
468.473	3.35
468.829	3.21
469.184	3.41
469.539	3.22
469.894	3.41
470.249	3.4
470.603	3.46
470.958	3.22
471.313	3.27
471.668	3.23
472.023	3.22
472.377	3.23
472.732	3.23
473.086	3.24
473.441	3.45
473.795	3.4
474.15	3.39
474.504	3.31
474.859	3.37
475.213	3.35
475.567	3.27
475.921	3.24
476.275	3.44
476.63	3.42
476.984	3.49
477.338	3.35
477.692	3.43
478.045	3.45
478.399	3.32
478.753	3.42
479.107	3.52
479.461	3.55
479.814	3.35
480.168	3.41
480.521	3.33
480.875	3.47
481.228	3.48
481.582	3.46
481.935	3.44
482.289	3.39
482.642	3.31
482.995	3.39
483.348	3.34
483.701	3.43
484.055	3.23
484.408	3.39
484.761	3.33
485.114	3.23
485.466	3.21
485.819	3.15
486.172	3.18
486.525	3.2
486.878	3.28
487.23	3.33
487.583	3.33
487.936	3.37
488.288	3.32
488.641	3.37
488.993	3.28
489.345	3.24
489.698	3.27
490.05	3.33
490.402	3.25
490.754	3.36
491.107	3.4
491.459	3.42
491.811	3.38
492.163	3.5
492.515	3.55
492.866	3.39
493.218	3.35
493.57	3.28
493.922	3.36
494.274	3.33
494.625	3.41
494.977	3.52
495.328	3.61
495.68	3.47
496.031	3.54
496.383	3.54
496.734	3.45
497.086	3.67
497.437	3.68
497.788	3.57
498.139	3.47
498.49	3.5
498.842	3.63
499.193	3.5
499.544	3.61
499.894	3.5
500.245	3.61
500.596	3.51
500.947	3.61
501.298	3.58
501.648	3.67
501.999	3.67
502.35	3.61
502.7	3.6
503.051	3.68
503.401	3.62
503.752	3.78
504.102	3.72
504.452	3.7
504.803	3.61
505.153	3.56
505.503	3.65
505.853	3.69
506.203	3.69
506.553	3.8
506.903	3.62
507.253	3.69
507.603	3.7
507.953	3.66
508.303	3.68
508.652	3.67
509.002	3.72
509.352	3.82
509.701	3.74
510.051	3.61
510.4	3.74
510.75	3.67
511.099	3.77
511.449	3.69
511.798	3.62
512.147	3.75
512.496	3.65
512.846	3.65
513.195	3.75
513.544	3.61
513.893	3.69
514.242	3.71
514.591	3.66
514.939	3.81
515.288	3.76
515.637	3.85
515.986	3.83
516.334	3.83
516.683	3.82
517.032	3.81
517.38	3.84
517.729	3.73
518.077	3.92
518.426	3.83
518.774	3.84
519.122	3.78
519.47	3.85
519.819	3.86
520.167	3.77
520.515	3.81
520.863	3.76
521.211	3.75
521.559	3.91
521.907	3.79
522.255	3.9
522.602	3.92
522.95	3.85
523.298	3.91
523.645	3.93
523.993	3.97
524.341	3.87
524.688	4.08
525.036	3.93
525.383	3.96
525.73	3.97
526.078	4.03
526.425	3.89
526.772	3.85
527.119	3.83
527.466	3.91
527.814	3.77
528.161	3.88
528.508	3.86
528.854	3.81
529.201	3.86
529.548	3.88
529.895	3.81
530.242	3.77
530.588	3.74
530.935	3.77
531.282	3.84
531.628	3.8
531.975	3.96
532.321	4.01
532.667	3.99
533.014	3.99
533.36	4.05
533.706	4.06
534.052	4.01
534.399	4.09
534.745	3.94
535.091	3.95
535.437	3.87
535.783	3.92
536.129	3.99
536.474	4.07
536.82	4.1
537.166	4.1
537.512	4.1
537.857	4.02
538.203	3.97
538.549	3.97
538.894	4.11
539.239	4.16
539.585	4.13
539.93	4.11
540.276	4.09
540.621	4.16
540.966	4.23
541.311	4.11
541.656	4.14
542.001	4.1
542.346	4.14
542.691	4.13
543.036	4.01
543.381	4.03
543.726	4.04
544.071	4.13
544.415	4.12
544.76	4.19
545.105	4.14
545.449	4.24
545.794	4.17
546.138	4.19
546.483	4.35
546.827	4.4
547.171	4.33
547.516	4.27
547.86	4.28
548.204	4.37
548.548	4.3
548.892	4.22
549.236	4.26
549.58	4.34
549.924	4.38
550.268	4.46
550.612	4.23
550.956	4.42
551.3	4.56
551.643	4.46
551.987	4.26
552.33	4.39
552.674	4.45
553.017	4.55
553.361	4.68
553.704	4.39
554.048	4.44
554.391	4.34
554.734	4.51
555.077	4.55
555.42	4.62
555.764	4.72
556.107	4.55
556.45	4.7
556.793	4.56
557.135	4.63
557.478	4.37
557.821	4.67
558.164	4.53
558.507	4.53
558.849	4.78
559.192	4.79
559.534	4.52
559.877	4.68
560.219	4.69
560.562	4.81
560.904	4.89
561.246	4.59
561.589	4.86
561.931	4.64
562.273	4.83
562.615	4.58
562.957	4.6
563.299	4.65
563.641	4.78
563.983	4.78
564.325	4.67
564.667	4.74
565.008	4.58
565.35	4.77
565.692	5.02
566.033	4.85
566.375	4.87
566.716	4.92
567.058	4.91
567.399	4.84
567.741	4.8
568.082	4.72
568.423	4.78
568.764	4.78
569.105	4.83
569.447	4.87
569.788	4.89
570.129	5.06
570.47	4.92
570.811	5.01
571.151	5.12
571.492	5.23
571.833	5
572.174	5.12
572.514	4.88
572.855	4.88
573.195	5.04
573.536	5.06
573.876	4.94
574.217	4.88
574.557	4.95
574.898	4.98
575.238	4.94
575.578	5.15
575.918	5.11
576.258	5.13
576.598	5.17
576.938	5.18
577.278	5
577.618	4.99
577.958	5.18
578.298	5.19
578.638	5.14
578.977	5.25
579.317	5.25
579.657	5.23
579.996	5.43
580.336	5.16
580.675	5.09
581.014	5.45
581.354	5.2
581.693	5.47
582.032	5.18
582.372	5.42
582.711	5.31
583.05	5.45
583.389	5.46
583.728	5.2
584.067	5.58
584.406	5.4
584.745	5.53
585.083	5.38
585.422	5.64
585.761	5.37
586.1	5.29
586.438	5.24
586.777	5.38
587.115	5.33
587.454	5.57
587.792	5.77
588.13	5.5
588.469	5.6
588.807	5.59
589.145	5.63
589.483	5.27
589.821	5.59
590.159	5.23
590.497	5.81
590.835	5.5
591.173	5.27
591.511	5.61
591.849	5.75
592.187	5.56
592.524	5.71
592.862	5.63
593.2	5.56
593.537	5.54
593.875	5.61
594.212	5.5
594.55	5.78
594.887	5.76
595.224	5.63
595.561	5.55
595.899	5.67
596.236	5.98
596.573	5.74
596.91	5.78
597.247	5.81
597.584	5.68
597.921	5.92
598.258	5.77
598.594	5.56
598.931	5.67
599.268	5.79
599.604	5.71
599.941	5.96
600.277	5.94
600.614	5.85
600.95	5.82
601.287	5.67
601.623	5.95
601.959	5.95
602.296	6.14
602.632	5.97
602.968	6.01
603.304	5.89
603.64	5.8
603.976	5.75
604.312	6.07
604.648	5.9
604.984	5.98
605.319	5.73
605.655	5.83
605.991	6.02
606.326	5.79
606.662	5.81
606.998	5.81
607.333	5.94
607.668	6.15
608.004	6.09
608.339	5.95
608.674	6.21
609.01	6.49
609.345	6.03
609.68	6.1
610.015	6.16
610.35	6.11
610.685	6.22
611.02	6.24
611.355	6.1
611.689	6.02
612.024	6.11
612.359	6.18
612.694	6.28
613.028	6.41
613.363	6.33
613.697	6.31
614.032	6.41
614.366	6.19
614.7	6.34
615.035	6.56
615.369	6.42
615.703	6.64
616.037	6.6
616.371	6.61
616.705	6.29
617.039	6.49
617.373	6.5
617.707	6.53
618.041	6.6
618.375	6.5
618.709	6.6
619.042	6.61
619.376	6.57
619.71	6.59
620.043	7.13
620.377	6.62
620.71	6.72
621.043	6.69
621.377	6.92
621.71	6.9
622.043	6.75
622.376	6.7
622.709	6.56
623.043	6.48
623.376	6.9
623.709	6.64
624.041	7.08
624.374	6.41
624.707	6.45
625.04	6.61
625.373	6.73
625.705	6.74
626.038	6.55
626.37	6.69
626.703	6.92
627.035	6.87
627.368	6.86
627.7	6.46
628.032	6.65
628.365	6.94
628.697	6.96
629.029	6.76
629.361	6.72
629.693	6.88
630.025	6.66
630.357	6.75
630.689	6.88
631.021	6.85
631.353	7.15
631.684	6.74
632.016	6.82
632.348	6.61
632.679	7.02
633.011	6.88
633.342	7.39
633.674	6.76
634.005	7.12
634.336	7.23
634.668	6.99
634.999	7.18
635.33	7.14
635.661	7
635.992	7.08
636.323	7.32
636.654	6.71
636.985	7
637.316	6.89
637.647	6.87
637.977	7.47
638.308	7.65
638.639	7.2
638.969	6.89
639.3	7.22
639.63	7.07
639.961	7.18
640.291	7.39
640.622	7.39
640.952	7.46
641.282	7.51
641.612	7.39
641.943	7.25
642.273	7.03
642.603	7.03
642.933	7.21
643.263	6.94
643.592	6.95
643.922	7.7
644.252	7.62
644.582	7.4
644.911	7.41
645.241	7.26
645.571	7.13
645.9	7.55
646.23	6.85
646.559	7.97
646.888	7.35
647.218	7.8
647.547	7.41
647.876	7.81
648.205	7.38
648.534	7.62
648.863	7.53
649.192	7.59
649.521	7.53
649.85	8.17
650.179	7.72
650.508	7.37
650.837	7.9
651.165	7.6
651.494	7.72
651.822	7.87
652.151	7.45
652.479	7.39
652.808	7.58
653.136	7.69
653.465	7.48
653.793	7.65
654.121	7.89
654.449	7.32
654.777	7.53
655.105	7.68
655.433	7.6
655.761	7.85
656.089	7.57
656.417	7.65
656.745	7.41
657.073	7.96
657.4	7.9
657.728	7.65
658.056	7.67
658.383	8.06
658.711	8.05
659.038	7.99
659.365	8.65
659.693	8.38
660.02	8.16
660.347	8.13
660.674	8.03
661.001	8.2
661.329	7.56
661.656	8.17
661.982	8.02
662.309	7.79
662.636	8.65
662.963	7.82
663.29	7.57
663.616	8.13
663.943	8.17
664.27	8.6
664.596	7.71
664.923	8.19
665.249	8.7
665.576	8.1
665.902	7.65
666.228	7.69
666.554	8.59
666.881	7.8
667.207	8.46
667.533	8.54
667.859	7.84
668.185	8.46
668.511	8.96
668.837	8.14
669.162	8.14
669.488	7.93
669.814	8.18
670.139	8.38
670.465	8.75
670.791	8.49
671.116	8.05
671.442	8.36
671.767	8.61
672.092	8.3
672.418	8.5
672.743	8.86
673.068	8.07
673.393	8.91
673.718	8.36
674.043	7.97
674.368	7.94
674.693	8.18
675.018	8.26
675.343	7.96
675.667	8.65
675.992	8.38
676.317	8.39
676.641	8.04
676.966	8.52
677.29	8.33
677.615	8.72
677.939	9.01
678.264	8.82
678.588	8.72
678.912	8.93
679.236	8.77
679.56	8.47
679.885	8.62
680.209	8.52
680.532	8.76
680.856	8.75
681.18	8.31
681.504	8.65
681.828	8.29
682.152	9.29
682.475	8.48
682.799	9.1
683.122	8.61
683.446	8.7
683.769	8.28
684.093	8.97
684.416	7.81
684.739	8.7
685.062	8.93
685.386	8.88
685.709	9.04
686.032	8.79
686.355	9.95
686.678	8.7
687.001	9.1
687.324	9.14
687.646	9.19
687.969	8.76
688.292	8.99
688.614	9.8
688.937	9.08
689.26	8.73
689.582	8.85
689.904	9.48
690.227	9.39
690.549	9.29
690.871	9.17
691.194	9.4
691.516	8.96
691.838	8.97
692.16	9.14
692.482	8.81
