Data from 0037_forehead_Reflection__1__56.txt Node

Date: Fri Nov 04 15:09:44 CDT 2022
User: ToomeyLab
Spectrometer: FLMS14357
Trigger mode: 0
Integration Time (sec): 1.000000E-2
Scans to average: 100
Electric dark correction enabled: true
Nonlinearity correction enabled: false
Boxcar width: 0
XAxis mode: Wavelengths
Number of Pixels in Spectrum: 2048
>>>>>Begin Spectral Data<<<<<
189.047	484.08
189.435	484.08
189.823	484.08
190.211	-211.83
190.599	235.12
190.987	-43.36
191.375	130.01
191.763	-1291.47
192.151	26.06
192.538	-6.68
192.926	165.74
193.314	505.57
193.702	84.54
194.089	-2118.01
194.477	230.93
194.864	206.04
195.252	18.62
195.639	-88.71
196.027	511.39
196.414	20.69
196.801	70.74
197.189	-60.76
197.576	200.21
197.963	-94.29
198.351	31.9
198.738	20.68
199.125	25.31
199.512	-22.11
199.899	21.96
200.286	3.24
200.673	-21.74
201.06	-31.25
201.447	-1.21
201.833	6.79
202.22	31.09
202.607	-11.62
202.994	32.77
203.38	37.93
203.767	10.31
204.154	-0.01
204.54	11.97
204.927	18.04
205.313	38
205.699	44.06
206.086	5.37
206.472	11.99
206.858	10.54
207.245	17.12
207.631	24.81
208.017	-5.92
208.403	-12.59
208.789	46.78
209.175	13.43
209.561	-53.55
209.947	-50.01
210.333	16.23
210.719	26.27
211.105	-33.57
211.491	18.05
211.876	40.08
212.262	-11.52
212.648	-2.16
213.034	21.76
213.419	30.73
213.805	2.63
214.19	-4.05
214.576	21.1
214.961	25.93
215.346	22.36
215.732	28.37
216.117	14.59
216.502	1.51
216.888	11.32
217.273	4.17
217.658	2.32
218.043	4.02
218.428	42.58
218.813	17.08
219.198	36.56
219.583	-15.36
219.968	23.12
220.353	-17.9
220.738	4.38
221.122	12.64
221.507	22.68
221.892	-7.78
222.276	-1.2
222.661	11.27
223.046	19.18
223.43	17.75
223.815	-3.87
224.199	13.8
224.583	13.64
224.968	3.26
225.352	10.37
225.736	-3.12
226.121	1.22
226.505	17.81
226.889	8.46
227.273	12.79
227.657	9
228.041	10.47
228.425	8.32
228.809	7.69
229.193	6.58
229.577	4.28
229.961	7.46
230.344	5.61
230.728	5.54
231.112	5.37
231.495	5.49
231.879	6.21
232.263	5.55
232.646	6.01
233.03	4.21
233.413	5.26
233.797	4.86
234.18	5.64
234.563	4.68
234.946	4.13
235.33	7.78
235.713	5.57
236.096	5.61
236.479	4.31
236.862	4.95
237.245	5.51
237.628	5.09
238.011	4.77
238.394	6.75
238.777	7.43
239.16	6.81
239.543	5.21
239.925	5.74
240.308	7.79
240.691	6.17
241.073	5.84
241.456	4.52
241.838	4.2
242.221	5.93
242.603	5.17
242.986	5.65
243.368	5.39
243.75	5.14
244.133	5.27
244.515	5.31
244.897	5.06
245.279	5.02
245.661	5.53
246.043	5.46
246.425	5.09
246.807	5.12
247.189	4.84
247.571	5.7
247.953	5.17
248.335	4.78
248.717	4.91
249.098	5.13
249.48	5.32
249.862	5.28
250.243	5.39
250.625	4.84
251.006	5
251.388	5.38
251.769	5.24
252.151	5.67
252.532	5.27
252.913	4.74
253.295	5.13
253.676	4.74
254.057	4.73
254.438	4.86
254.819	5.19
255.2	5.13
255.581	5.4
255.962	5.68
256.343	5.46
256.724	5.79
257.105	5.87
257.486	5.19
257.867	6.78
258.247	6.55
258.628	5.54
259.009	4.71
259.389	5.14
259.77	5.63
260.15	4.88
260.531	5.02
260.911	4.77
261.292	4.79
261.672	4.65
262.052	4.83
262.432	4.89
262.813	4.81
263.193	4.56
263.573	5.12
263.953	5.3
264.333	5.34
264.713	5.53
265.093	4.6
265.473	5.44
265.853	4.98
266.233	5.31
266.612	5.67
266.992	5.46
267.372	4.99
267.752	5.14
268.131	5.26
268.511	5.31
268.89	5.2
269.27	4.7
269.649	4.92
270.029	4.48
270.408	4.9
270.787	4.93
271.167	4.49
271.546	5.11
271.925	5.27
272.304	5.1
272.683	4.37
273.062	5.07
273.441	5.16
273.82	4.81
274.199	4.71
274.578	4.57
274.957	4.57
275.336	4.56
275.715	4.49
276.093	4.37
276.472	4.74
276.851	4.32
277.229	5.15
277.608	4.86
277.986	5.08
278.365	5.23
278.743	5.14
279.122	4.54
279.5	4.84
279.878	5.03
280.257	4.72
280.635	4.38
281.013	4.92
281.391	5.04
281.769	5.01
282.147	4.48
282.525	4.73
282.903	4.6
283.281	5.36
283.659	4.63
284.037	4.88
284.415	4.83
284.792	4.92
285.17	4.26
285.548	5.37
285.925	4.7
286.303	4.55
286.68	4.82
287.058	4.63
287.435	4.69
287.813	4.48
288.19	4.57
288.567	4.5
288.945	4.85
289.322	4.76
289.699	5.04
290.076	4.92
290.453	4.76
290.83	4.37
291.207	4.82
291.584	5.08
291.961	5.16
292.338	5.26
292.715	4.9
293.092	5.07
293.469	5.44
293.845	4.58
294.222	4.6
294.599	4.92
294.975	5
295.352	4.98
295.728	5.26
296.105	4.95
296.481	4.91
296.858	5.23
297.234	5.41
297.61	4.89
297.986	4.78
298.363	4.61
298.739	5.18
299.115	5.13
299.491	4.94
299.867	4.85
300.243	4.88
300.619	4.98
300.995	5.35
301.371	5.33
301.746	5.57
302.122	5.01
302.498	4.8
302.874	5.47
303.249	5
303.625	5.06
304	5.23
304.376	5.05
304.751	4.98
305.127	4.92
305.502	5.73
305.878	5.42
306.253	5.39
306.628	4.76
307.003	5.61
307.378	5.73
307.754	5.33
308.129	4.44
308.504	5.25
308.879	5.57
309.254	5.71
309.629	5.66
310.003	5.66
310.378	5.51
310.753	5.63
311.128	5.14
311.502	5.28
311.877	5.45
312.252	5.32
312.626	5.9
313.001	5.72
313.375	5.67
313.75	5.52
314.124	5.71
314.498	5.66
314.873	5.84
315.247	5.67
315.621	5.77
315.995	6.29
316.369	5.85
316.743	6.31
317.117	6.31
317.491	5.64
317.865	5.64
318.239	5.97
318.613	6.38
318.987	5.96
319.361	6.11
319.734	6.6
320.108	6.03
320.482	5.65
320.855	6.3
321.229	6.19
321.602	5.91
321.976	6.42
322.349	6.45
322.723	6.36
323.096	6.82
323.469	6.16
323.843	6.04
324.216	6.67
324.589	6.38
324.962	6.73
325.335	6.71
325.708	6.32
326.081	6.42
326.454	6.35
326.827	6.57
327.2	6.62
327.573	6.17
327.945	6.81
328.318	6.09
328.691	6.54
329.063	6.52
329.436	6.87
329.809	6.5
330.181	6.64
330.553	6.47
330.926	6.75
331.298	7.15
331.671	7.15
332.043	6.39
332.415	6.95
332.787	6.77
333.159	6.7
333.532	7.13
333.904	7.24
334.276	6.84
334.648	7.45
335.02	6.54
335.391	7.29
335.763	7.29
336.135	6.96
336.507	7.38
336.879	7.16
337.25	7.37
337.622	7.4
337.993	7.13
338.365	7.28
338.736	7.39
339.108	7.44
339.479	7.67
339.851	7.18
340.222	7.09
340.593	7.45
340.964	7.45
341.336	7.37
341.707	6.89
342.078	7.38
342.449	7.64
342.82	7.36
343.191	7.38
343.562	7.52
343.933	7.93
344.303	7.87
344.674	7.76
345.045	7.73
345.416	7.71
345.786	7.85
346.157	8.09
346.527	8.07
346.898	8.01
347.268	7.73
347.639	7.58
348.009	8.28
348.38	7.74
348.75	8.11
349.12	7.94
349.49	8.14
349.861	7.92
350.231	8.27
350.601	8.03
350.971	8.14
351.341	8.27
351.711	8.07
352.081	8.23
352.45	8.28
352.82	8.59
353.19	8.4
353.56	8.37
353.929	9.03
354.299	8.76
354.669	8.69
355.038	8.68
355.408	8.64
355.777	8.64
356.147	8.28
356.516	8.67
356.885	8.68
357.254	8.91
357.624	9.01
357.993	9.01
358.362	8.93
358.731	8.84
359.1	9.12
359.469	8.81
359.838	9.28
360.207	8.98
360.576	9.11
360.945	9.14
361.314	9.34
361.682	9.01
362.051	9.25
362.42	9.23
362.788	9.24
363.157	9.4
363.525	9.31
363.894	9.34
364.262	9.56
364.631	9.44
364.999	9.39
365.367	9.11
365.735	9.83
366.104	9.54
366.472	9.76
366.84	9.25
367.208	9.84
367.576	9.44
367.944	9.98
368.312	9.93
368.68	10.03
369.048	9.89
369.416	9.98
369.783	10
370.151	9.92
370.519	10.53
370.886	9.68
371.254	10.14
371.621	10.09
371.989	10.01
372.356	10.6
372.724	10.41
373.091	10.21
373.458	10.38
373.826	10.53
374.193	10.26
374.56	10.52
374.927	10.89
375.294	10.57
375.661	10.77
376.028	10.81
376.395	11.02
376.762	10.89
377.129	10.52
377.496	10.79
377.863	10.62
378.229	10.76
378.596	10.83
378.963	10.98
379.329	11.01
379.696	11.08
380.062	11.1
380.429	11.14
380.795	11.1
381.161	11.13
381.528	11.46
381.894	11.01
382.26	11.39
382.626	11.13
382.993	11.42
383.359	11.59
383.725	11.57
384.091	11.82
384.457	11.69
384.823	11.95
385.188	12.15
385.554	11.59
385.92	11.64
386.286	12.05
386.651	11.88
387.017	11.9
387.383	12.07
387.748	11.96
388.114	11.97
388.479	12.76
388.845	12.38
389.21	12.53
389.575	12.48
389.94	12.26
390.306	12.56
390.671	12.54
391.036	12.65
391.401	12.7
391.766	12.46
392.131	12.58
392.496	12.54
392.861	12.59
393.226	12.7
393.591	12.87
393.956	13.12
394.32	12.96
394.685	13
395.05	13.08
395.414	13.11
395.779	13.1
396.143	13.19
396.508	13.2
396.872	13.29
397.236	13.37
397.601	13.26
397.965	13.48
398.329	13.67
398.694	13.41
399.058	13.74
399.422	13.7
399.786	13.42
400.15	13.36
400.514	13.81
400.878	13.73
401.242	13.89
401.605	13.78
401.969	14.17
402.333	13.88
402.697	14.12
403.06	14.19
403.424	14.14
403.787	14.12
404.151	14.24
404.514	14.45
404.878	14.31
405.241	14.43
405.604	14.52
405.968	14.42
406.331	14.57
406.694	14.5
407.057	14.58
407.42	14.55
407.783	14.33
408.146	14.78
408.509	14.62
408.872	14.64
409.235	14.88
409.598	14.79
409.961	14.87
410.323	14.95
410.686	15.22
411.049	15.04
411.411	14.9
411.774	15.3
412.136	15.29
412.499	15.3
412.861	15.36
413.223	15.28
413.586	15.3
413.948	15.63
414.31	15.33
414.672	15.56
415.035	15.83
415.397	15.63
415.759	15.91
416.121	15.51
416.483	15.73
416.845	15.72
417.206	15.7
417.568	16.11
417.93	15.96
418.292	16.09
418.653	15.96
419.015	16.13
419.377	16.01
419.738	16.02
420.1	16.23
420.461	16.25
420.822	16.1
421.184	16.26
421.545	16.13
421.906	16.18
422.267	16.12
422.629	16.18
422.99	16.22
423.351	16.21
423.712	16.37
424.073	16.37
424.434	16.38
424.795	16.58
425.155	16.53
425.516	16.59
425.877	16.5
426.238	16.62
426.598	16.71
426.959	16.67
427.32	16.73
427.68	16.87
428.041	17.03
428.401	17.09
428.761	17.22
429.122	17.16
429.482	17.46
429.842	17.21
430.202	17.57
430.563	17.45
430.923	17.69
431.283	17.57
431.643	17.79
432.003	17.78
432.363	18
432.722	17.87
433.082	17.97
433.442	17.8
433.802	17.8
434.161	18.07
434.521	18
434.881	18
435.24	18.12
435.6	18.22
435.959	18.41
436.319	18.27
436.678	18.29
437.037	18.39
437.396	18.46
437.756	18.53
438.115	18.41
438.474	18.55
438.833	18.62
439.192	18.69
439.551	18.8
439.91	18.76
440.269	18.85
440.628	18.96
440.987	18.91
441.345	19
441.704	18.75
442.063	18.84
442.421	19.01
442.78	19
443.138	19.02
443.497	19.07
443.855	19.16
444.214	19.35
444.572	19.1
444.93	19.31
445.288	19.48
445.647	19.54
446.005	19.44
446.363	19.4
446.721	19.61
447.079	19.59
447.437	19.58
447.795	19.71
448.153	19.51
448.51	19.71
448.868	19.55
449.226	19.71
449.584	19.78
449.941	19.83
450.299	19.93
450.656	19.95
451.014	20.2
451.371	20.29
451.729	20.33
452.086	20.4
452.443	20.42
452.801	20.53
453.158	20.61
453.515	20.59
453.872	20.67
454.229	20.89
454.586	20.74
454.943	20.82
455.3	20.91
455.657	20.84
456.014	21.02
456.371	21.07
456.727	21.28
457.084	21.31
457.441	21.18
457.797	21.2
458.154	21.44
458.51	21.59
458.867	21.33
459.223	21.54
459.58	21.58
459.936	21.56
460.292	21.52
460.648	21.66
461.005	21.37
461.361	21.61
461.717	21.57
462.073	21.63
462.429	21.5
462.785	21.53
463.141	21.81
463.496	21.79
463.852	22.06
464.208	22.04
464.564	22.13
464.919	22.36
465.275	22.45
465.631	22.58
465.986	22.54
466.342	22.46
466.697	22.59
467.052	22.45
467.408	22.63
467.763	22.63
468.118	22.9
468.473	22.89
468.829	22.81
469.184	22.91
469.539	23.13
469.894	22.98
470.249	23.14
470.603	23.15
470.958	23.12
471.313	23.14
471.668	23.28
472.023	23.31
472.377	23.39
472.732	23.24
473.086	23.52
473.441	23.47
473.795	23.56
474.15	23.82
474.504	23.69
474.859	23.68
475.213	23.91
475.567	23.81
475.921	23.72
476.275	24.07
476.63	23.87
476.984	24
477.338	24.02
477.692	24.2
478.045	24.29
478.399	24.21
478.753	24.46
479.107	24.36
479.461	24.41
479.814	24.49
480.168	24.37
480.521	24.48
480.875	24.59
481.228	24.54
481.582	24.59
481.935	24.7
482.289	24.73
482.642	24.57
482.995	24.84
483.348	24.62
483.701	24.81
484.055	24.59
484.408	24.6
484.761	24.39
485.114	24.08
485.466	24.09
485.819	24.28
486.172	24.41
486.525	24.34
486.878	24.22
487.23	24.3
487.583	24.29
487.936	24.56
488.288	24.67
488.641	24.74
488.993	24.86
489.345	24.86
489.698	24.81
490.05	24.96
490.402	24.86
490.754	25.07
491.107	25.03
491.459	25.32
491.811	25.38
492.163	25.5
492.515	25.75
492.866	25.54
493.218	25.42
493.57	25.52
493.922	25.67
494.274	25.67
494.625	25.69
494.977	25.87
495.328	26.06
495.68	26.29
496.031	26.7
496.383	26.77
496.734	26.87
497.086	27.07
497.437	27.2
497.788	27.15
498.139	26.99
498.49	27.03
498.842	27.07
499.193	27.14
499.544	27.16
499.894	27.25
500.245	27.24
500.596	27.35
500.947	27.31
501.298	27.56
501.648	27.73
501.999	27.79
502.35	27.73
502.7	27.7
503.051	27.88
503.401	28.05
503.752	28.13
504.102	28.18
504.452	28.38
504.803	28.46
505.153	28.34
505.503	28.44
505.853	28.53
506.203	28.49
506.553	28.66
506.903	28.61
507.253	28.59
507.603	28.49
507.953	28.73
508.303	28.8
508.652	29
509.002	29.05
509.352	29.01
509.701	29.06
510.051	28.97
510.4	28.94
510.75	29.14
511.099	29.09
511.449	29.01
511.798	29.18
512.147	29.17
512.496	29.13
512.846	29.26
513.195	29.19
513.544	29.42
513.893	29.41
514.242	29.27
514.591	29.33
514.939	29.72
515.288	29.69
515.637	29.94
515.986	29.77
516.334	29.9
516.683	29.94
517.032	30.04
517.38	30.15
517.729	30.24
518.077	30.2
518.426	30.29
518.774	30.36
519.122	30.16
519.47	30.23
519.819	30.18
520.167	30.13
520.515	30.2
520.863	30.1
521.211	30.06
521.559	30.23
521.907	30.17
522.255	30.45
522.602	30.56
522.95	30.76
523.298	30.91
523.645	30.93
523.993	31.07
524.341	31.04
524.688	31.06
525.036	31.24
525.383	31.36
525.73	31.36
526.078	31.27
526.425	31.39
526.772	31.22
527.119	31.16
527.466	31.24
527.814	31.17
528.161	31.16
528.508	31.07
528.854	31.02
529.201	31.08
529.548	31.03
529.895	30.96
530.242	30.88
530.588	31.13
530.935	31.24
531.282	31.21
531.628	30.95
531.975	31.04
532.321	31.17
532.667	31.51
533.014	31.6
533.36	31.84
533.706	31.89
534.052	32.03
534.399	32.11
534.745	32.12
535.091	31.84
535.437	32.04
535.783	32.02
536.129	32.11
536.474	32
536.82	32.25
537.166	32.31
537.512	32.44
537.857	32.48
538.203	32.51
538.549	32.77
538.894	32.89
539.239	32.98
539.585	32.69
539.93	32.75
540.276	32.88
540.621	33.31
540.966	33.45
541.311	33.41
541.656	33.61
542.001	33.63
542.346	33.33
542.691	33.35
543.036	33.19
543.381	33.17
543.726	33.25
544.071	33.31
544.415	33.19
544.76	33.24
545.105	33.33
545.449	33.69
545.794	33.68
546.138	33.73
546.483	34.01
546.827	34.04
547.171	34.34
547.516	34.41
547.86	34.52
548.204	34.5
548.548	34.45
548.892	34.3
549.236	34.66
549.58	34.62
549.924	34.95
550.268	35.02
550.612	34.93
550.956	35.15
551.3	35.25
551.643	35.37
551.987	35.45
552.33	35.81
552.674	35.69
553.017	35.7
553.361	36.1
553.704	36.12
554.048	36.11
554.391	35.9
554.734	35.78
555.077	36.14
555.42	36.08
555.764	36.2
556.107	36.15
556.45	36.41
556.793	36.25
557.135	36.43
557.478	36.68
557.821	36.72
558.164	36.78
558.507	36.58
558.849	36.97
559.192	36.81
559.534	37.19
559.877	36.92
560.219	37.14
560.562	37.11
560.904	37
561.246	37.3
561.589	37.06
561.931	37.32
562.273	37.43
562.615	37.41
562.957	37.73
563.299	37.52
563.641	37.44
563.983	37.34
564.325	37.69
564.667	37.67
565.008	37.69
565.35	37.56
565.692	37.79
566.033	38.24
566.375	37.88
566.716	38.12
567.058	38.19
567.399	38.18
567.741	38.08
568.082	38.08
568.423	38
568.764	38.02
569.105	38.04
569.447	37.99
569.788	38.11
570.129	38.28
570.47	38.78
570.811	38.56
571.151	38.53
571.492	38.72
571.833	38.87
572.174	38.79
572.514	38.63
572.855	38.66
573.195	38.74
573.536	38.89
573.876	39.09
574.217	39.1
574.557	38.93
574.898	39.01
575.238	39.04
575.578	39.22
575.918	39.13
576.258	39.33
576.598	39.25
576.938	39.42
577.278	39.45
577.618	39.42
577.958	39.43
578.298	39.45
578.638	39.65
578.977	39.83
579.317	39.96
579.657	39.97
579.996	40.1
580.336	39.83
580.675	40.06
581.014	40.31
581.354	40.38
581.693	40.44
582.032	40.29
582.372	40.51
582.711	40.73
583.05	40.71
583.389	40.91
583.728	40.69
584.067	40.96
584.406	41.19
584.745	41.15
585.083	41.1
585.422	41.21
585.761	41.32
586.1	41.05
586.438	41.16
586.777	41.19
587.115	41.19
587.454	41.49
587.792	41.56
588.13	41.59
588.469	41.51
588.807	41.94
589.145	41.59
589.483	41.7
589.821	41.78
590.159	41.6
590.497	42.04
590.835	41.72
591.173	41.83
591.511	41.85
591.849	41.88
592.187	41.85
592.524	41.92
592.862	42.01
593.2	41.87
593.537	42.13
593.875	42.15
594.212	42.24
594.55	42.15
594.887	42.37
595.224	42.73
595.561	42.19
595.899	42.28
596.236	42.72
596.573	42.42
596.91	42.41
597.247	42.64
597.584	42.45
597.921	42.35
598.258	42.39
598.594	42.44
598.931	42.51
599.268	42.8
599.604	42.56
599.941	42.77
600.277	42.5
600.614	42.99
600.95	42.91
601.287	43.18
601.623	43.33
601.959	43.33
602.296	43.23
602.632	43.63
602.968	43.48
603.304	43.36
603.64	43.6
603.976	43.66
604.312	43.62
604.648	43.36
604.984	43.42
605.319	43.98
605.655	43.55
605.991	43.84
606.326	43.44
606.662	43.81
606.998	43.63
607.333	43.57
607.668	43.88
608.004	43.98
608.339	43.81
608.674	43.73
609.01	44.09
609.345	44.22
609.68	44.28
610.015	44.43
610.35	44.27
610.685	44.48
611.02	44.68
611.355	44.47
611.689	44.4
612.024	44.31
612.359	44.56
612.694	44.65
613.028	44.52
613.363	44.7
613.697	44.78
614.032	44.73
614.366	44.82
614.7	44.94
615.035	45.18
615.369	45.53
615.703	45.27
616.037	45.43
616.371	45.79
616.705	45.43
617.039	45.62
617.373	45.56
617.707	45.6
618.041	45.79
618.375	45.51
618.709	45.84
619.042	46.35
619.376	45.87
619.71	46.29
620.043	46.42
620.377	46.08
620.71	46.56
621.043	46.19
621.377	46.54
621.71	46.43
622.043	46.21
622.376	46.17
622.709	46.21
623.043	46.65
623.376	47.02
623.709	46.4
624.041	46.38
624.374	46.47
624.707	46.29
625.04	46.94
625.373	46.98
625.705	46.54
626.038	46.73
626.37	47.16
626.703	47.73
627.035	46.96
627.368	46.96
627.7	47.05
628.032	47.3
628.365	47.09
628.697	46.89
629.029	47.01
629.361	46.92
629.693	47.16
630.025	47.5
630.357	46.83
630.689	47.03
631.021	46.88
631.353	47.53
631.684	47.77
632.016	47.67
632.348	47.26
632.679	47.8
633.011	47.82
633.342	47.86
633.674	47.93
634.005	47.92
634.336	47.9
634.668	48.01
634.999	48.45
635.33	47.7
635.661	48.17
635.992	48.09
636.323	48.27
636.654	48.1
636.985	48.21
637.316	48.16
637.647	48.29
637.977	48.92
638.308	48.27
638.639	48.44
638.969	48.58
639.3	48.62
639.63	48.65
639.961	49
640.291	49.05
640.622	48.79
640.952	49.02
641.282	49.05
641.612	49.26
641.943	48.89
642.273	48.95
642.603	49.06
642.933	49.59
643.263	49.05
643.592	49.74
643.922	49.82
644.252	49.65
644.582	49.41
644.911	49.32
645.241	49.42
645.571	49.29
645.9	49.54
646.23	49.14
646.559	49.97
646.888	49.43
647.218	49.52
647.547	50.01
647.876	49.58
648.205	49.8
648.534	50.16
648.863	50.02
649.192	49.94
649.521	50.02
649.85	49.73
650.179	50.7
650.508	50.17
650.837	50.92
651.165	50.68
651.494	50.57
651.822	50.61
652.151	50.63
652.479	50.58
652.808	50.36
653.136	50.61
653.465	50.57
653.793	50.56
654.121	50.46
654.449	50.2
654.777	50.2
655.105	51.07
655.433	50.95
655.761	50.57
656.089	50.84
656.417	50.47
656.745	50.88
657.073	50.84
657.4	51.03
657.728	51.15
658.056	51.15
658.383	51.6
658.711	50.78
659.038	51.36
659.365	51.77
659.693	51.51
660.02	51.42
660.347	50.97
660.674	51.51
661.001	51.39
661.329	51.23
661.656	51.76
661.982	51.2
662.309	51.92
662.636	51.52
662.963	51.46
663.29	51.03
663.616	51.83
663.943	51.74
664.27	52.23
664.596	51.64
664.923	52.02
665.249	52.44
665.576	52.15
665.902	52.18
666.228	51.98
666.554	52.28
666.881	52.22
667.207	52.2
667.533	52.59
667.859	52.63
668.185	52.56
668.511	52.9
668.837	52.25
669.162	52.57
669.488	52.35
669.814	52.5
670.139	51.95
670.465	52.73
670.791	52.96
671.116	53
671.442	52.67
671.767	53.29
672.092	52.92
