Data from 0037_forehead_Reflection__0__55.txt Node

Date: Fri Nov 04 15:09:28 CDT 2022
User: ToomeyLab
Spectrometer: FLMS14357
Trigger mode: 0
Integration Time (sec): 1.000000E-2
Scans to average: 100
Electric dark correction enabled: true
Nonlinearity correction enabled: false
Boxcar width: 0
XAxis mode: Wavelengths
Number of Pixels in Spectrum: 2048
>>>>>Begin Spectral Data<<<<<
189.047	1270.3
189.435	1270.3
189.823	1270.3
190.211	-3.7
190.599	-46.2
190.987	-256.84
191.375	554.94
191.763	-3482.95
192.151	75.08
192.538	-53.66
192.926	93.16
193.314	781.07
193.702	73.64
194.089	-2065.22
194.477	-82.28
194.864	-83.01
195.252	63.56
195.639	-160.49
196.027	42.9
196.414	9.83
196.801	-3.35
197.189	-74.88
197.576	-71.5
197.963	4.02
198.351	-63.48
198.738	17.25
199.125	31.84
199.512	-5.15
199.899	79.49
200.286	-39.45
200.673	40.35
201.06	-44.15
201.447	9.52
201.833	20.65
202.22	30.98
202.607	6.07
202.994	32.01
203.38	17.93
203.767	2.52
204.154	50.72
204.54	-25.29
204.927	11.18
205.313	50.41
205.699	27.8
206.086	9.42
206.472	-10.97
206.858	6.23
207.245	8.94
207.631	8.12
208.017	9.73
208.403	18.1
208.789	38.21
209.175	-19.39
209.561	-44.74
209.947	-5.31
210.333	27.21
210.719	-2.49
211.105	-5.02
211.491	13.98
211.876	21.33
212.262	1.01
212.648	4.41
213.034	12.23
213.419	2.55
213.805	-17.99
214.19	-15.04
214.576	-8.33
214.961	1.91
215.346	-9.33
215.732	15.91
216.117	-13.31
216.502	17.13
216.888	-12.3
217.273	-3.45
217.658	6.27
218.043	25.82
218.428	14.7
218.813	0.67
219.198	35.41
219.583	-18.83
219.968	32.3
220.353	-6.67
220.738	-12.84
221.122	-0.88
221.507	-1.06
221.892	-15.72
222.276	-0.61
222.661	10.75
223.046	-11.69
223.43	-7.06
223.815	6.32
224.199	13.11
224.583	13.42
224.968	5.94
225.352	8.64
225.736	4.88
226.121	-5.32
226.505	6.87
226.889	-0.76
227.273	6.99
227.657	-2.21
228.041	7.94
228.425	4.03
228.809	3.66
229.193	1.06
229.577	1.96
229.961	3.52
230.344	2.77
230.728	2.93
231.112	2.08
231.495	2.48
231.879	2.85
232.263	2.91
232.646	3.24
233.03	2.02
233.413	1.82
233.797	2.97
234.18	2.35
234.563	2.57
234.946	1.65
235.33	3.88
235.713	1.12
236.096	3.58
236.479	2.68
236.862	2.02
237.245	2.1
237.628	2.17
238.011	-0.08
238.394	3.78
238.777	3.27
239.16	4.7
239.543	1.59
239.925	3.37
240.308	3.13
240.691	2.34
241.073	3.98
241.456	2.19
241.838	1.12
242.221	3.15
242.603	2.13
242.986	1.86
243.368	3.07
243.75	2.21
244.133	2.7
244.515	2.51
244.897	2.18
245.279	2.19
245.661	2.83
246.043	3.19
246.425	1.95
246.807	2.73
247.189	2.51
247.571	2.21
247.953	2.38
248.335	2.1
248.717	2.5
249.098	2.42
249.48	2.18
249.862	2.61
250.243	2.62
250.625	2.24
251.006	2.15
251.388	2.6
251.769	2.77
252.151	3.33
252.532	2.68
252.913	2.72
253.295	3.46
253.676	2.38
254.057	2.19
254.438	2.49
254.819	2.05
255.2	1.4
255.581	2.57
255.962	2.73
256.343	2.08
256.724	2.58
257.105	2.11
257.486	2.34
257.867	3.84
258.247	3.17
258.628	2.32
259.009	1.37
259.389	2.51
259.77	3.28
260.15	2.51
260.531	2.46
260.911	1.99
261.292	2.17
261.672	2.14
262.052	2.47
262.432	2.27
262.813	1.9
263.193	1.51
263.573	2.39
263.953	2.32
264.333	3.01
264.713	2.58
265.093	2.24
265.473	2.19
265.853	1.07
266.233	2.47
266.612	3
266.992	2.86
267.372	1.72
267.752	2.36
268.131	2.62
268.511	2.44
268.89	2.91
269.27	2.19
269.649	2.38
270.029	1.91
270.408	2.78
270.787	2.57
271.167	2.29
271.546	2.96
271.925	2.47
272.304	2.38
272.683	1.97
273.062	2.22
273.441	2.68
273.82	2.11
274.199	2.55
274.578	2.22
274.957	2.19
275.336	2.15
275.715	2.41
276.093	2.34
276.472	2.14
276.851	1.86
277.229	2.45
277.608	2.59
277.986	2.19
278.365	2.45
278.743	2.21
279.122	1.89
279.5	2.06
279.878	2.32
280.257	2.31
280.635	2.02
281.013	2.24
281.391	2.73
281.769	1.93
282.147	1.64
282.525	2.42
282.903	2.3
283.281	2.8
283.659	2.27
284.037	2.02
284.415	2.06
284.792	2.65
285.17	1.93
285.548	2.27
285.925	2.02
286.303	2.3
286.68	2.45
287.058	2.37
287.435	2.16
287.813	2.22
288.19	2.2
288.567	2.07
288.945	2.44
289.322	2.45
289.699	2.51
290.076	2.31
290.453	2.16
290.83	2.24
291.207	2.15
291.584	2.5
291.961	2.5
292.338	2.22
292.715	2.31
293.092	2.6
293.469	2.1
293.845	2.05
294.222	2.08
294.599	2.12
294.975	2.04
295.352	2.44
295.728	3.05
296.105	2.57
296.481	2.07
296.858	2.45
297.234	3.21
297.61	2.9
297.986	2.4
298.363	2.37
298.739	2.44
299.115	2.64
299.491	2.42
299.867	2.31
300.243	2.2
300.619	2.71
300.995	3.04
301.371	2.93
301.746	2.48
302.122	2.82
302.498	2.29
302.874	2.65
303.249	2.52
303.625	2.63
304	2.48
304.376	2.43
304.751	2.61
305.127	2.1
305.502	2.76
305.878	2.58
306.253	2.86
306.628	2.42
307.003	2.71
307.378	2.81
307.754	2.71
308.129	2.21
308.504	2.36
308.879	3.26
309.254	2.73
309.629	2.97
310.003	3.01
310.378	2.83
310.753	3.47
311.128	2.53
311.502	2.78
311.877	2.85
312.252	2.62
312.626	2.89
313.001	3.17
313.375	2.7
313.75	3.06
314.124	2.79
314.498	3.07
314.873	3.09
315.247	3.32
315.621	3.34
315.995	3.32
316.369	2.96
316.743	3.58
317.117	3.38
317.491	3.44
317.865	2.94
318.239	3.4
318.613	3.65
318.987	3.11
319.361	3.26
319.734	3.19
320.108	3.1
320.482	2.76
320.855	2.96
321.229	3.34
321.602	3.3
321.976	3.31
322.349	3.96
322.723	3.19
323.096	2.99
323.469	3.34
323.843	3.15
324.216	3.65
324.589	3.49
324.962	3.66
325.335	3.9
325.708	3.06
326.081	3.37
326.454	3.72
326.827	3.63
327.2	3.35
327.573	3
327.945	3.97
328.318	3.56
328.691	3.52
329.063	3.54
329.436	3.87
329.809	3.75
330.181	4.26
330.553	3.49
330.926	4.28
331.298	3.84
331.671	4.01
332.043	3.76
332.415	3.74
332.787	3.65
333.159	3.61
333.532	3.58
333.904	4.14
334.276	4.06
334.648	4.13
335.02	3.35
335.391	4.19
335.763	4.01
336.135	3.78
336.507	4.19
336.879	3.76
337.25	3.85
337.622	4.2
337.993	4.28
338.365	4.06
338.736	4.23
339.108	4.64
339.479	4.59
339.851	4.07
340.222	4.08
340.593	4.72
340.964	4.56
341.336	3.62
341.707	4.18
342.078	4.29
342.449	4.05
342.82	4.45
343.191	4.11
343.562	4.68
343.933	4.47
344.303	4.44
344.674	4.71
345.045	4.42
345.416	4.17
345.786	4.64
346.157	4.87
346.527	4.16
346.898	4.79
347.268	4.5
347.639	4.34
348.009	4.73
348.38	4.51
348.75	4.95
349.12	4.5
349.49	4.53
349.861	4.49
350.231	4.9
350.601	4.47
350.971	4.43
351.341	5.03
351.711	4.95
352.081	4.87
352.45	4.94
352.82	5.15
353.19	4.67
353.56	4.96
353.929	4.91
354.299	5.18
354.669	5.32
355.038	5.46
355.408	4.9
355.777	5.36
356.147	5.06
356.516	5.12
356.885	5.09
357.254	5.33
357.624	5.49
357.993	4.96
358.362	5.17
358.731	5.24
359.1	5.26
359.469	5.54
359.838	5.48
360.207	5.24
360.576	5.57
360.945	5.67
361.314	5.59
361.682	5.56
362.051	5.48
362.42	5.71
362.788	5.51
363.157	5.4
363.525	5.56
363.894	5.48
364.262	5.89
364.631	5.86
364.999	5.56
365.367	5.5
365.735	5.97
366.104	5.72
366.472	5.71
366.84	5.52
367.208	6.12
367.576	5.7
367.944	5.7
368.312	5.89
368.68	6.05
369.048	5.88
369.416	5.74
369.783	5.79
370.151	5.75
370.519	6.44
370.886	5.96
371.254	6.19
371.621	6.02
371.989	6.01
372.356	6.47
372.724	6.43
373.091	6.25
373.458	6.34
373.826	6.36
374.193	6.55
374.56	6.06
374.927	6.25
375.294	6.23
375.661	6.39
376.028	6.49
376.395	6.77
376.762	6.65
377.129	6.58
377.496	7.01
377.863	6.6
378.229	6.51
378.596	6.84
378.963	6.84
379.329	6.57
379.696	6.81
380.062	6.85
380.429	6.99
380.795	6.83
381.161	6.87
381.528	7.13
381.894	6.77
382.26	7.11
382.626	6.82
382.993	7.32
383.359	6.97
383.725	7.23
384.091	7.23
384.457	7.45
384.823	7.37
385.188	7.46
385.554	7.17
385.92	7.19
386.286	7.2
386.651	7.59
387.017	7.28
387.383	7.31
387.748	7.17
388.114	7.31
388.479	7.88
388.845	7.67
389.21	7.7
389.575	7.68
389.94	7.86
390.306	7.65
390.671	7.87
391.036	7.49
391.401	8.17
391.766	7.71
392.131	7.75
392.496	7.82
392.861	8.06
393.226	7.98
393.591	7.95
393.956	8.13
394.32	7.85
394.685	8.14
395.05	8.47
395.414	7.94
395.779	7.98
396.143	7.77
396.508	8.28
396.872	8.24
397.236	7.96
397.601	8.2
397.965	8.24
398.329	8.35
398.694	8.44
399.058	8.64
399.422	8.36
399.786	8.35
400.15	8.36
400.514	8.55
400.878	8.57
401.242	8.79
401.605	8.48
401.969	8.71
402.333	8.81
402.697	8.72
403.06	8.98
403.424	8.57
403.787	8.85
404.151	8.95
404.514	8.82
404.878	9.23
405.241	9.09
405.604	8.98
405.968	8.73
406.331	8.89
406.694	9.04
407.057	8.91
407.42	8.97
407.783	8.98
408.146	9.36
408.509	9.2
408.872	9.35
409.235	9.27
409.598	9.36
409.961	9.29
410.323	9.34
410.686	9.38
411.049	9.64
411.411	9.21
411.774	9.54
412.136	9.71
412.499	9.49
412.861	9.41
413.223	9.65
413.586	9.6
413.948	9.94
414.31	9.62
414.672	10.08
415.035	9.97
415.397	9.78
415.759	9.9
416.121	9.8
416.483	9.94
416.845	9.8
417.206	9.82
417.568	10.04
417.93	9.94
418.292	10.07
418.653	9.93
419.015	10.02
419.377	10.05
419.738	10.14
420.1	10.15
420.461	10.1
420.822	9.91
421.184	10.08
421.545	10.08
421.906	10.09
422.267	9.88
422.629	10.16
422.99	10.01
423.351	9.9
423.712	10.15
424.073	10.27
424.434	10.24
424.795	10.3
425.155	10.51
425.516	10.38
425.877	10.33
426.238	10.31
426.598	10.38
426.959	10.39
427.32	10.42
427.68	10.6
428.041	10.46
428.401	10.74
428.761	10.79
429.122	10.65
429.482	10.71
429.842	10.72
430.202	11.06
430.563	11.15
430.923	11.21
431.283	10.97
431.643	11.16
432.003	11.38
432.363	11.26
432.722	11.26
433.082	11.39
433.442	11.33
433.802	11.19
434.161	11.32
434.521	11.13
434.881	11.35
435.24	11.27
435.6	11.37
435.959	11.31
436.319	11.34
436.678	11.44
437.037	11.37
437.396	11.72
437.756	11.7
438.115	11.48
438.474	11.84
438.833	11.67
439.192	11.77
439.551	11.74
439.91	11.75
440.269	11.68
440.628	11.87
440.987	11.93
441.345	11.79
441.704	11.92
442.063	11.79
442.421	11.92
442.78	11.79
443.138	11.99
443.497	11.85
443.855	11.93
444.214	12.18
444.572	12.11
444.93	12.11
445.288	12.23
445.647	12.02
446.005	12.23
446.363	12.35
446.721	12.24
447.079	12.15
447.437	12.11
447.795	12.32
448.153	12.18
448.51	12.32
448.868	12.26
449.226	12.3
449.584	12.39
449.941	12.42
450.299	12.53
450.656	12.54
451.014	12.72
451.371	12.74
451.729	12.78
452.086	12.63
452.443	12.83
452.801	12.9
453.158	12.99
453.515	12.91
453.872	12.76
454.229	13.06
454.586	12.88
454.943	13.04
455.3	13.14
455.657	13.03
456.014	13.13
456.371	13.26
456.727	13.35
457.084	13.36
457.441	13.39
457.797	13.36
458.154	13.35
458.51	13.39
458.867	13.31
459.223	13.5
459.58	13.67
459.936	13.39
460.292	13.65
460.648	13.66
461.005	13.51
461.361	13.58
461.717	13.42
462.073	13.42
462.429	13.44
462.785	13.59
463.141	13.62
463.496	13.79
463.852	13.88
464.208	13.85
464.564	13.93
464.919	14.08
465.275	14.05
465.631	14.32
465.986	14.31
466.342	14.14
466.697	14.16
467.052	14.32
467.408	14.23
467.763	14.39
468.118	14.68
468.473	14.37
468.829	14.21
469.184	14.46
469.539	14.59
469.894	14.67
470.249	14.59
470.603	14.7
470.958	14.55
471.313	14.6
471.668	14.63
472.023	14.62
472.377	14.75
472.732	15.01
473.086	14.98
473.441	14.83
473.795	14.9
474.15	14.98
474.504	15.12
474.859	14.89
475.213	15
475.567	14.95
475.921	15.2
476.275	15.25
476.63	15.22
476.984	15.25
477.338	15.35
477.692	15.39
478.045	15.1
478.399	15.31
478.753	15.37
479.107	15.46
479.461	15.5
479.814	15.46
480.168	15.37
480.521	15.44
480.875	15.58
481.228	15.48
481.582	15.76
481.935	15.72
482.289	15.6
482.642	15.61
482.995	15.76
483.348	15.65
483.701	15.55
484.055	15.46
484.408	15.6
484.761	15.3
485.114	15.16
485.466	14.9
485.819	14.91
486.172	14.99
486.525	14.96
486.878	15.14
487.23	15.23
487.583	15.29
487.936	15.49
488.288	15.59
488.641	15.47
488.993	15.47
489.345	15.4
489.698	15.41
490.05	15.44
490.402	15.53
490.754	15.67
491.107	15.8
491.459	16.03
491.811	16.03
492.163	16.14
492.515	16.34
492.866	16.06
493.218	15.94
493.57	15.86
493.922	15.94
494.274	15.98
494.625	16.2
494.977	16.32
495.328	16.49
495.68	16.56
496.031	16.82
496.383	16.91
496.734	16.97
497.086	17.19
497.437	17.01
497.788	17.13
498.139	17.09
498.49	16.95
498.842	17.11
499.193	17
499.544	17.1
499.894	17.15
500.245	17.28
500.596	17.2
500.947	17.27
501.298	17.33
501.648	17.5
501.999	17.64
502.35	17.68
502.7	17.66
503.051	17.78
503.401	17.74
503.752	17.92
504.102	17.86
504.452	17.97
504.803	17.96
505.153	17.71
505.503	17.93
505.853	17.84
506.203	18.01
506.553	18.06
506.903	18.05
507.253	18.17
507.603	17.95
507.953	18.16
508.303	18.22
508.652	18.36
509.002	18.19
509.352	18.39
509.701	18.22
510.051	18.34
510.4	18.23
510.75	18.22
511.099	18.34
511.449	18.4
511.798	18.34
512.147	18.52
512.496	18.35
512.846	18.46
513.195	18.44
513.544	18.55
513.893	18.58
514.242	18.56
514.591	18.53
514.939	18.69
515.288	18.78
515.637	18.8
515.986	18.77
516.334	19.02
516.683	18.96
517.032	19.16
517.38	19.15
517.729	19.15
518.077	19.07
518.426	19.17
518.774	19.18
519.122	19.11
519.47	19.06
519.819	18.97
520.167	19.03
520.515	19.01
520.863	18.81
521.211	18.96
521.559	19.14
521.907	19.06
522.255	19.21
522.602	19.29
522.95	19.3
523.298	19.56
523.645	19.66
523.993	19.68
524.341	19.74
524.688	19.65
525.036	19.58
525.383	19.76
525.73	19.85
526.078	19.77
526.425	19.87
526.772	19.82
527.119	19.5
527.466	19.59
527.814	19.54
528.161	19.56
528.508	19.57
528.854	19.58
529.201	19.57
529.548	19.53
529.895	19.42
530.242	19.07
530.588	19.25
530.935	19.3
531.282	19.45
531.628	19.32
531.975	19.56
532.321	19.72
532.667	19.87
533.014	20.02
533.36	20.05
533.706	20.34
534.052	20.12
534.399	20.13
534.745	20.17
535.091	19.89
535.437	19.94
535.783	20.05
536.129	20.09
536.474	20.29
536.82	20.39
537.166	20.51
537.512	20.6
537.857	20.54
538.203	20.52
538.549	20.52
538.894	20.73
539.239	20.75
539.585	20.74
539.93	20.87
540.276	20.87
540.621	21.05
540.966	21.28
541.311	21.14
541.656	21.31
542.001	21.2
542.346	21.05
542.691	20.82
543.036	20.6
543.381	20.64
543.726	20.75
544.071	20.77
544.415	20.9
544.76	21.03
545.105	21.08
545.449	21.25
545.794	21.21
546.138	21.53
546.483	21.57
546.827	21.52
547.171	21.7
547.516	21.82
547.86	21.86
548.204	21.87
548.548	21.79
548.892	21.71
549.236	21.85
549.58	21.96
549.924	21.98
550.268	22.19
550.612	22.19
550.956	22.21
551.3	22.53
551.643	22.56
551.987	22.6
552.33	22.65
552.674	23.08
553.017	22.87
553.361	23.13
553.704	22.86
554.048	22.77
554.391	22.75
554.734	22.75
555.077	22.82
555.42	22.79
555.764	22.81
556.107	22.84
556.45	23.05
556.793	23.09
557.135	23.18
557.478	23.19
557.821	23.4
558.164	23.43
558.507	23.43
558.849	23.44
559.192	23.53
559.534	23.6
559.877	23.68
560.219	23.6
560.562	23.79
560.904	23.88
561.246	23.97
561.589	23.76
561.931	23.62
562.273	23.78
562.615	23.74
562.957	23.96
563.299	23.89
563.641	23.87
563.983	23.87
564.325	23.84
564.667	23.78
565.008	24.14
565.35	24.17
565.692	24.18
566.033	24.35
566.375	24.25
566.716	24.3
567.058	24.18
567.399	24.27
567.741	24.07
568.082	24.19
568.423	24.22
568.764	24.26
569.105	24.25
569.447	24.1
569.788	24.42
570.129	24.42
570.47	24.47
570.811	24.61
571.151	24.64
571.492	24.88
571.833	24.48
572.174	24.92
572.514	24.62
572.855	24.62
573.195	24.67
573.536	24.55
573.876	24.77
574.217	24.57
574.557	24.54
574.898	24.78
575.238	24.77
575.578	25.21
575.918	24.91
576.258	25.02
576.598	25.31
576.938	25.18
577.278	25.16
577.618	24.94
577.958	25.19
578.298	25.11
578.638	25.34
578.977	25.36
579.317	25.49
579.657	25.55
579.996	25.47
580.336	25.32
580.675	25.46
581.014	25.85
581.354	25.7
581.693	25.86
582.032	25.49
582.372	26.06
582.711	25.99
583.05	26.04
583.389	26.12
583.728	26.03
584.067	25.94
584.406	26.24
584.745	26.2
585.083	26.06
585.422	26.58
585.761	26.35
586.1	26.09
586.438	26.39
586.777	26.36
587.115	26.38
587.454	26.48
587.792	26.55
588.13	26.23
588.469	26.66
588.807	26.81
589.145	26.5
589.483	26.56
589.821	26.63
590.159	26.42
590.497	26.89
590.835	26.57
591.173	26.67
591.511	26.64
591.849	26.55
592.187	26.69
592.524	26.79
592.862	26.79
593.2	26.82
593.537	26.77
593.875	27.23
594.212	27.17
594.55	27.28
594.887	27.18
595.224	27.57
595.561	27.18
595.899	26.99
596.236	27.32
596.573	27.1
596.91	27.13
597.247	27.21
597.584	27.1
597.921	27.11
598.258	27.21
598.594	26.98
598.931	26.99
599.268	27.18
599.604	27.3
599.941	27.21
600.277	27.11
600.614	27.29
600.95	27.57
601.287	27.73
601.623	27.59
601.959	27.91
602.296	27.5
602.632	27.99
602.968	27.97
603.304	27.87
603.64	27.92
603.976	27.71
604.312	27.7
604.648	27.65
604.984	27.88
605.319	27.84
605.655	27.86
605.991	27.91
606.326	27.66
606.662	27.6
606.998	27.61
607.333	27.74
607.668	27.82
608.004	27.93
608.339	27.94
608.674	28.18
609.01	28.08
609.345	28.09
609.68	28.4
610.015	28.31
610.35	28.42
610.685	28.37
611.02	28.12
611.355	28.09
611.689	28.03
612.024	28.19
612.359	28.33
612.694	28.4
613.028	28.7
613.363	28.82
613.697	28.25
614.032	28.62
614.366	28.61
614.7	28.59
615.035	28.88
615.369	28.42
615.703	29.21
616.037	28.82
616.371	29.33
616.705	29.04
617.039	29.3
617.373	28.85
617.707	29.57
618.041	28.86
618.375	29.22
618.709	29.4
619.042	29.29
619.376	29.32
619.71	29.33
620.043	29.53
620.377	29.82
620.71	29.62
621.043	29.44
621.377	29.67
621.71	29.77
622.043	29.84
622.376	29.55
622.709	29.92
623.043	29.74
623.376	30.13
623.709	29.88
624.041	29.3
624.374	29.4
624.707	29.72
625.04	29.86
625.373	29.93
625.705	29.84
626.038	29.89
626.37	30.22
626.703	30.2
627.035	29.98
627.368	29.75
627.7	29.94
628.032	30.04
628.365	29.98
628.697	29.95
629.029	30.03
629.361	30.1
629.693	30.26
630.025	30.24
630.357	29.82
630.689	30.21
631.021	29.71
631.353	30.12
631.684	30.38
632.016	30.72
632.348	30.49
632.679	30.44
633.011	30.61
633.342	30.28
633.674	30.34
634.005	30.39
634.336	30.41
634.668	30.77
634.999	30.78
635.33	30.61
635.661	30.67
635.992	30.66
636.323	30.5
636.654	30.35
636.985	30.88
637.316	30.58
637.647	30.6
637.977	31.42
638.308	30.99
638.639	30.53
638.969	30.77
639.3	30.64
639.63	31.1
639.961	30.85
640.291	31.15
640.622	31.53
640.952	31.17
641.282	30.84
641.612	31.22
641.943	31.07
642.273	30.97
642.603	30.87
642.933	30.97
643.263	30.53
643.592	31.53
643.922	31.69
644.252	31.47
644.582	31.39
644.911	31.27
645.241	31.44
645.571	31.21
645.9	31.5
646.23	31.3
646.559	31.71
646.888	31.78
647.218	31.6
647.547	31.88
647.876	31.42
648.205	31.09
648.534	31.98
648.863	32.08
649.192	31.65
649.521	31.86
649.85	31.77
650.179	31.99
650.508	31.79
650.837	32.6
651.165	32.22
651.494	32.39
651.822	31.54
652.151	32.01
652.479	31.83
652.808	31.68
653.136	32.15
653.465	32.1
653.793	32.16
654.121	31.71
654.449	31.97
654.777	32.07
655.105	32.64
655.433	32.36
655.761	31.72
656.089	32.05
656.417	32.49
656.745	32.21
657.073	32.26
657.4	31.59
657.728	32.19
658.056	32.11
658.383	32.24
658.711	31.64
659.038	32.89
659.365	33.37
659.693	32.41
660.02	32.86
660.347	32.5
660.674	32.99
661.001	32.54
661.329	32.36
661.656	32.69
661.982	32.12
662.309	32.79
662.636	32.35
662.963	32.51
663.29	32.14
663.616	32.99
663.943	32.84
664.27	32.98
664.596	33.04
664.923	32.98
665.249	33.22
665.576	32.56
665.902	32.33
666.228	32.97
666.554	33.67
666.881	33.21
667.207	33.42
667.533	33.54
667.859	33.28
668.185	33.41
668.511	33.45
668.837	32.84
669.162	33.94
669.488	32.56
669.814	32.99
670.139	33.7
670.465	33.26
670.791	33.76
671.116	33.22
671.442	33.31
671.767	33.45
672.092	33.32
672.418	33.64
672.743	33.57
673.068	34.13
673.393	34.07
673.718	33.7
674.043	33.53
674.368	33.2
674.693	33.67
