Data from 0037_forehead_Reflection__2__57.txt Node

Date: Fri Nov 04 15:09:58 CDT 2022
User: ToomeyLab
Spectrometer: FLMS14357
Trigger mode: 0
Integration Time (sec): 1.000000E-2
Scans to average: 100
Electric dark correction enabled: true
Nonlinearity correction enabled: false
Boxcar width: 0
XAxis mode: Wavelengths
Number of Pixels in Spectrum: 2048
>>>>>Begin Spectral Data<<<<<
189.047	203.58
189.435	203.58
189.823	203.58
190.211	268.04
190.599	-182.11
190.987	-141.77
191.375	112.81
191.763	134.88
192.151	77.74
192.538	113.86
192.926	-7.23
193.314	505.57
193.702	66.91
194.089	-3161.49
194.477	276.8
194.864	19.02
195.252	83.47
195.639	48.72
196.027	286.74
196.414	-126.44
196.801	-34.38
197.189	-8.73
197.576	156.74
197.963	120.96
198.351	-55.59
198.738	24.8
199.125	58.45
199.512	10.61
199.899	-6.07
200.286	-32.22
200.673	8.91
201.06	23.9
201.447	-63.76
201.833	-13.08
202.22	-26.27
202.607	7.89
202.994	48.68
203.38	50.61
203.767	19.33
204.154	37.79
204.54	-4.91
204.927	-2.41
205.313	47.22
205.699	26.76
206.086	0.09
206.472	29.49
206.858	18.92
207.245	9.8
207.631	6.45
208.017	39.5
208.403	40.1
208.789	15.92
209.175	-3.76
209.561	-59.27
209.947	7.27
210.333	39.86
210.719	5.59
211.105	-26.24
211.491	22.06
211.876	-10.79
212.262	7.33
212.648	4.28
213.034	20.74
213.419	14.23
213.805	-24.73
214.19	-25.9
214.576	6.95
214.961	20.09
215.346	4.23
215.732	28.18
216.117	-2.47
216.502	26.7
216.888	-31.39
217.273	22.67
217.658	8.07
218.043	1.64
218.428	31.13
218.813	9.83
219.198	29.67
219.583	1.69
219.968	23.72
220.353	-7.91
220.738	-18.62
221.122	-6.14
221.507	9.4
221.892	-26.92
222.276	8.96
222.661	6.05
223.046	-1.78
223.43	-1.16
223.815	-0.61
224.199	15.6
224.583	3.88
224.968	-7.11
225.352	11.36
225.736	9.09
226.121	-2.97
226.505	4.86
226.889	4.13
227.273	3.46
227.657	2.44
228.041	4.83
228.425	6.12
228.809	4.78
229.193	5.74
229.577	2.52
229.961	4.91
230.344	4.22
230.728	2.79
231.112	3.04
231.495	3.47
231.879	3.53
232.263	3.36
232.646	1.71
233.03	2.82
233.413	2.41
233.797	2.76
234.18	5.04
234.563	5.3
234.946	4.19
235.33	4.59
235.713	2.8
236.096	3.59
236.479	3.28
236.862	2.49
237.245	2.79
237.628	3.36
238.011	1.32
238.394	4.49
238.777	3.34
239.16	3.92
239.543	2.4
239.925	4.08
240.308	4.23
240.691	3.06
241.073	2.39
241.456	3.64
241.838	2.35
242.221	3.11
242.603	2.53
242.986	3.22
243.368	2.78
243.75	2.68
244.133	3.22
244.515	3.25
244.897	3
245.279	3.37
245.661	3.95
246.043	4.25
246.425	3.44
246.807	4.21
247.189	2.75
247.571	3.83
247.953	3.15
248.335	3
248.717	3.06
249.098	2.96
249.48	3
249.862	3.28
250.243	3.08
250.625	2.86
251.006	2.55
251.388	3.42
251.769	3.36
252.151	4.04
252.532	3.76
252.913	2.54
253.295	2.94
253.676	3.07
254.057	2.93
254.438	3.08
254.819	3.18
255.2	2.86
255.581	3.51
255.962	3.38
256.343	2.92
256.724	3.82
257.105	3.56
257.486	4.03
257.867	4.58
258.247	3.36
258.628	3.48
259.009	3.2
259.389	2.8
259.77	4.03
260.15	2.97
260.531	3.1
260.911	3.05
261.292	3.08
261.672	2.85
262.052	2.84
262.432	3.13
262.813	3
263.193	2.39
263.573	3.11
263.953	3.59
264.333	3.41
264.713	3.15
265.093	3
265.473	3.23
265.853	2.73
266.233	3.23
266.612	4.24
266.992	3.51
267.372	2.2
267.752	2.68
268.131	3.21
268.511	3.42
268.89	3.39
269.27	2.66
269.649	3
270.029	3.28
270.408	3.46
270.787	3.29
271.167	2.53
271.546	3.36
271.925	2.67
272.304	3.11
272.683	2.88
273.062	3.23
273.441	3.03
273.82	2.9
274.199	3.25
274.578	2.7
274.957	2.77
275.336	2.57
275.715	3.06
276.093	2.96
276.472	3.16
276.851	2.7
277.229	3.11
277.608	2.81
277.986	3.45
278.365	3.31
278.743	2.91
279.122	2.64
279.5	2.94
279.878	3.15
280.257	3.04
280.635	2.39
281.013	2.7
281.391	3.47
281.769	2.96
282.147	2.73
282.525	2.74
282.903	2.99
283.281	3.22
283.659	2.61
284.037	2.83
284.415	3.11
284.792	3.27
285.17	2.3
285.548	3.56
285.925	2.92
286.303	2.95
286.68	2.83
287.058	2.96
287.435	2.75
287.813	2.47
288.19	2.77
288.567	2.97
288.945	2.92
289.322	3.2
289.699	3.22
290.076	3.08
290.453	2.76
290.83	3.08
291.207	2.99
291.584	3.04
291.961	3.16
292.338	3.36
292.715	3.13
293.092	3.22
293.469	3.07
293.845	3.08
294.222	3.03
294.599	2.94
294.975	3.17
295.352	2.88
295.728	3.62
296.105	3.17
296.481	2.98
296.858	2.81
297.234	3.31
297.61	3.42
297.986	2.99
298.363	2.81
298.739	3.21
299.115	3.33
299.491	3.39
299.867	3.2
300.243	3.13
300.619	3.29
300.995	3.47
301.371	3.59
301.746	3.07
302.122	3.28
302.498	3.6
302.874	3.69
303.249	2.86
303.625	3.15
304	3.31
304.376	3.2
304.751	3.41
305.127	3.08
305.502	3.42
305.878	3.7
306.253	3.8
306.628	3.42
307.003	3.76
307.378	3.97
307.754	3.32
308.129	3.39
308.504	4.02
308.879	3.71
309.254	4.27
309.629	3.92
310.003	3.84
310.378	4.09
310.753	3.96
311.128	3.69
311.502	3.35
311.877	3.58
312.252	3.41
312.626	3.62
313.001	3.64
313.375	3.89
313.75	3.72
314.124	3.73
314.498	3.84
314.873	3.91
315.247	3.98
315.621	4.29
315.995	4.19
316.369	3.7
316.743	4.4
317.117	4.23
317.491	4.42
317.865	3.69
318.239	4.36
318.613	4.55
318.987	4.36
319.361	4.57
319.734	4.4
320.108	4.4
320.482	3.64
320.855	4.26
321.229	4.37
321.602	3.79
321.976	4.04
322.349	5.4
322.723	4.35
323.096	4.67
323.469	4.51
323.843	4.65
324.216	5.28
324.589	4.64
324.962	5.11
325.335	4.85
325.708	4.6
326.081	4.76
326.454	4.47
326.827	4.93
327.2	4.68
327.573	4.71
327.945	4.59
328.318	4.27
328.691	4.53
329.063	4.59
329.436	4.84
329.809	5.06
330.181	4.9
330.553	4.87
330.926	5.36
331.298	5.18
331.671	5.1
332.043	5.09
332.415	4.65
332.787	4.51
333.159	4.57
333.532	5.02
333.904	4.93
334.276	5.23
334.648	5.47
335.02	4.55
335.391	5.19
335.763	5.17
336.135	5.37
336.507	5.17
336.879	4.93
337.25	5.46
337.622	5.33
337.993	5.63
338.365	5.19
338.736	5.82
339.108	5.78
339.479	5.58
339.851	5.58
340.222	5.62
340.593	5.54
340.964	5.69
341.336	5.53
341.707	5.37
342.078	5.59
342.449	5.82
342.82	5.77
343.191	5.25
343.562	5.61
343.933	5.85
344.303	5.91
344.674	5.77
345.045	5.98
345.416	5.3
345.786	5.89
346.157	5.49
346.527	5.95
346.898	6.06
347.268	5.94
347.639	5.9
348.009	6.16
348.38	5.77
348.75	5.75
349.12	5.94
349.49	6.02
349.861	5.55
350.231	6
350.601	5.85
350.971	5.82
351.341	6.14
351.711	6.17
352.081	6.12
352.45	6.38
352.82	6.17
353.19	6.18
353.56	6.37
353.929	5.98
354.299	6.51
354.669	6.73
355.038	6.85
355.408	6.38
355.777	6.71
356.147	6.56
356.516	6.35
356.885	6.5
357.254	6.48
357.624	6.53
357.993	6.48
358.362	6.67
358.731	6.6
359.1	6.85
359.469	6.79
359.838	6.46
360.207	6.49
360.576	6.89
360.945	6.81
361.314	7.15
361.682	6.72
362.051	6.84
362.42	7.14
362.788	6.88
363.157	6.73
363.525	6.85
363.894	6.89
364.262	7.03
364.631	7.08
364.999	7.15
365.367	7.02
365.735	7.17
366.104	6.84
366.472	7.41
366.84	6.97
367.208	7.06
367.576	7.07
367.944	7.36
368.312	7.5
368.68	6.97
369.048	7.37
369.416	7.2
369.783	7.44
370.151	7.31
370.519	7.86
370.886	7.5
371.254	7.46
371.621	7.54
371.989	7.62
372.356	7.67
372.724	7.73
373.091	7.95
373.458	7.76
373.826	8.12
374.193	7.75
374.56	7.47
374.927	7.74
375.294	7.59
375.661	8.17
376.028	7.71
376.395	8.02
376.762	8.3
377.129	7.99
377.496	8.24
377.863	8.18
378.229	8.01
378.596	7.88
378.963	7.99
379.329	8.02
379.696	7.97
380.062	8.5
380.429	8.37
380.795	8.19
381.161	8.14
381.528	8.71
381.894	8.08
382.26	8.46
382.626	8.49
382.993	8.53
383.359	8.75
383.725	8.55
384.091	8.69
384.457	8.51
384.823	8.75
385.188	8.89
385.554	8.7
385.92	8.67
386.286	8.6
386.651	8.85
387.017	8.79
387.383	8.84
387.748	8.79
388.114	8.87
388.479	9.32
388.845	9
389.21	9.09
389.575	9.12
389.94	9.04
390.306	9.09
390.671	9.13
391.036	9.21
391.401	9.67
391.766	8.99
392.131	9.26
392.496	9.14
392.861	9.62
393.226	9.32
393.591	9.56
393.956	9.5
394.32	9.42
394.685	9.89
395.05	9.71
395.414	9.76
395.779	9.67
396.143	9.57
396.508	9.68
396.872	9.82
397.236	9.77
397.601	9.89
397.965	9.69
398.329	9.92
398.694	9.9
399.058	9.93
399.422	10.03
399.786	9.86
400.15	10.08
400.514	9.95
400.878	10.04
401.242	10.25
401.605	10.17
401.969	10.3
402.333	10.21
402.697	10.27
403.06	10.3
403.424	10.5
403.787	10.43
404.151	10.49
404.514	10.54
404.878	10.49
405.241	10.47
405.604	10.47
405.968	10.53
406.331	10.52
406.694	10.41
407.057	10.67
407.42	10.58
407.783	10.44
408.146	11.02
408.509	10.56
408.872	10.8
409.235	10.7
409.598	10.84
409.961	10.92
410.323	10.83
410.686	10.79
411.049	10.85
411.411	10.94
411.774	11.01
412.136	11.27
412.499	11.2
412.861	10.9
413.223	11.24
413.586	11.07
413.948	11.31
414.31	11.26
414.672	11.27
415.035	11.44
415.397	11.41
415.759	11.55
416.121	11.4
416.483	11.51
416.845	11.63
417.206	11.36
417.568	11.46
417.93	11.61
418.292	11.42
418.653	11.66
419.015	11.64
419.377	11.54
419.738	11.58
420.1	11.7
420.461	11.72
420.822	11.6
421.184	11.63
421.545	11.64
421.906	11.74
422.267	11.65
422.629	11.72
422.99	11.59
423.351	11.63
423.712	11.73
424.073	11.9
424.434	11.8
424.795	11.96
425.155	12.04
425.516	12.04
425.877	11.83
426.238	12
426.598	11.94
426.959	11.95
427.32	12.12
427.68	12.19
428.041	12.13
428.401	12.43
428.761	12.35
429.122	12.39
429.482	12.5
429.842	12.35
430.202	12.59
430.563	12.47
430.923	12.87
431.283	12.51
431.643	12.58
432.003	12.91
432.363	13.03
432.722	12.91
433.082	13.14
433.442	12.74
433.802	12.65
434.161	13.06
434.521	12.89
434.881	12.99
435.24	13.06
435.6	13.06
435.959	13.23
436.319	13.19
436.678	13.1
437.037	13.2
437.396	13.28
437.756	13.39
438.115	13.08
438.474	13.39
438.833	13.3
439.192	13.3
439.551	13.49
439.91	13.56
440.269	13.45
440.628	13.56
440.987	13.44
441.345	13.48
441.704	13.67
442.063	13.48
442.421	13.64
442.78	13.72
443.138	13.75
443.497	13.68
443.855	13.83
444.214	13.77
444.572	13.83
444.93	13.93
445.288	14.05
445.647	13.87
446.005	14.09
446.363	14.09
446.721	14.02
447.079	14.05
447.437	13.95
447.795	14.05
448.153	14.07
448.51	14.02
448.868	14.01
449.226	14.11
449.584	14.12
449.941	14.1
450.299	14.26
450.656	14.27
451.014	14.6
451.371	14.61
451.729	14.61
452.086	14.58
452.443	14.76
452.801	14.85
453.158	14.7
453.515	14.72
453.872	14.6
454.229	14.82
454.586	14.85
454.943	14.9
455.3	14.99
455.657	14.9
456.014	14.97
456.371	14.96
456.727	15.19
457.084	15.12
457.441	15.11
457.797	15.26
458.154	15.18
458.51	15.28
458.867	15.38
459.223	15.54
459.58	15.5
459.936	15.3
460.292	15.45
460.648	15.34
461.005	15.38
461.361	15.38
461.717	15.34
462.073	15.28
462.429	15.4
462.785	15.47
463.141	15.58
463.496	15.53
463.852	15.71
464.208	15.76
464.564	15.79
464.919	15.91
465.275	16.16
465.631	15.97
465.986	16.14
466.342	16.21
466.697	16.13
467.052	16.1
467.408	16.14
467.763	16.37
468.118	16.24
468.473	16.3
468.829	16.35
469.184	16.32
469.539	16.37
469.894	16.5
470.249	16.55
470.603	16.73
470.958	16.4
471.313	16.55
471.668	16.7
472.023	16.7
472.377	16.78
472.732	16.79
473.086	16.96
473.441	16.78
473.795	17.06
474.15	17.06
474.504	17.04
474.859	16.9
475.213	16.96
475.567	16.95
475.921	17.13
476.275	17.27
476.63	17.19
476.984	17.18
477.338	17.04
477.692	17.29
478.045	17.41
478.399	17.37
478.753	17.36
479.107	17.6
479.461	17.52
479.814	17.47
480.168	17.52
480.521	17.44
480.875	17.6
481.228	17.66
481.582	17.65
481.935	17.7
482.289	17.74
482.642	17.72
482.995	17.68
483.348	17.6
483.701	17.67
484.055	17.59
484.408	17.61
484.761	17.32
485.114	17.17
485.466	17.02
485.819	17.09
486.172	17.13
486.525	17.18
486.878	17.28
487.23	17.3
487.583	17.41
487.936	17.58
488.288	17.58
488.641	17.65
488.993	17.62
489.345	17.61
489.698	17.62
490.05	17.63
490.402	17.67
490.754	17.72
491.107	17.88
491.459	18.13
491.811	18.22
492.163	18.3
492.515	18.47
492.866	18.2
493.218	18.19
493.57	18.05
493.922	18.22
494.274	18.21
494.625	18.24
494.977	18.55
495.328	18.77
495.68	18.82
496.031	19.14
496.383	19.19
496.734	19.24
497.086	19.41
497.437	19.26
497.788	19.26
498.139	19.28
498.49	19.25
498.842	19.37
499.193	19.3
499.544	19.34
499.894	19.3
500.245	19.5
500.596	19.58
500.947	19.7
501.298	19.67
501.648	19.84
501.999	19.85
502.35	19.8
502.7	19.98
503.051	20.04
503.401	20.1
503.752	19.94
504.102	20.19
504.452	20.27
504.803	20.34
505.153	20.3
505.503	20.29
505.853	20.35
506.203	20.53
506.553	20.35
506.903	20.46
507.253	20.53
507.603	20.42
507.953	20.55
508.303	20.55
508.652	20.65
509.002	20.73
509.352	20.75
509.701	20.82
510.051	20.7
510.4	20.75
510.75	20.82
511.099	20.75
511.449	20.82
511.798	20.76
512.147	21
512.496	20.88
512.846	20.79
513.195	21.08
513.544	21.05
513.893	20.97
514.242	20.98
514.591	21.15
514.939	21.26
515.288	21.36
515.637	21.33
515.986	21.33
516.334	21.56
516.683	21.56
517.032	21.55
517.38	21.65
517.729	21.67
518.077	21.72
518.426	21.8
518.774	21.7
519.122	21.65
519.47	21.74
519.819	21.57
520.167	21.63
520.515	21.61
520.863	21.58
521.211	21.55
521.559	21.63
521.907	21.79
522.255	21.93
522.602	21.98
522.95	22.05
523.298	22.23
523.645	22.29
523.993	22.45
524.341	22.43
524.688	22.38
525.036	22.44
525.383	22.46
525.73	22.61
526.078	22.59
526.425	22.54
526.772	22.38
527.119	22.32
527.466	22.29
527.814	22.29
528.161	22.34
528.508	22.33
528.854	22.21
529.201	22.27
529.548	22.29
529.895	22.16
530.242	22
530.588	22.11
530.935	22.23
531.282	22.32
531.628	22.27
531.975	22.4
532.321	22.58
532.667	22.69
533.014	22.87
533.36	22.99
533.706	23.07
534.052	23.17
534.399	23.01
534.745	23.02
535.091	22.9
535.437	22.9
535.783	22.97
536.129	23.12
536.474	23.11
536.82	23.34
537.166	23.47
537.512	23.63
537.857	23.57
538.203	23.54
538.549	23.5
538.894	23.61
539.239	23.75
539.585	23.72
539.93	23.89
540.276	24.02
540.621	24.13
540.966	24.36
541.311	24.22
541.656	24.47
542.001	24.28
542.346	24.11
542.691	23.85
543.036	23.66
543.381	23.8
543.726	23.82
544.071	23.94
544.415	23.96
544.76	24.11
545.105	24.2
545.449	24.24
545.794	24.5
546.138	24.52
546.483	24.71
546.827	24.71
547.171	24.79
547.516	24.89
547.86	25.1
548.204	25.02
548.548	24.96
548.892	24.82
549.236	25.12
549.58	25.26
549.924	25.36
550.268	25.31
550.612	25.39
550.956	25.57
551.3	25.76
551.643	25.79
551.987	25.97
552.33	25.9
552.674	26.11
553.017	26.14
553.361	26.46
553.704	26.1
554.048	26.2
554.391	26.04
554.734	26.17
555.077	26.15
555.42	26.28
555.764	26.43
556.107	26.67
556.45	26.33
556.793	26.65
557.135	26.49
557.478	26.57
557.821	26.63
558.164	26.69
558.507	26.79
558.849	26.87
559.192	26.9
559.534	27.05
559.877	27.07
560.219	26.94
560.562	27.15
560.904	27.28
561.246	27.21
561.589	27.25
561.931	27.14
562.273	27.22
562.615	27.22
562.957	27.5
563.299	27.43
563.641	27.63
563.983	27.48
564.325	27.4
564.667	27.56
565.008	27.64
565.35	27.7
565.692	27.69
566.033	27.73
566.375	27.85
566.716	27.78
567.058	27.93
567.399	27.81
567.741	27.83
568.082	27.92
568.423	27.81
568.764	27.83
569.105	27.75
569.447	27.81
569.788	28.09
570.129	28.12
570.47	28.49
570.811	28.15
571.151	28.29
571.492	28.27
571.833	28.44
572.174	28.74
572.514	28.57
572.855	28.36
573.195	28.33
573.536	28.45
573.876	28.57
574.217	28.47
574.557	28.49
574.898	28.54
575.238	28.49
575.578	28.95
575.918	28.69
576.258	28.96
576.598	28.87
576.938	28.98
577.278	28.8
577.618	28.88
577.958	28.81
578.298	29.02
578.638	29.23
578.977	29.39
579.317	29.14
579.657	29.72
579.996	29.45
580.336	29.36
580.675	29.08
581.014	29.62
581.354	29.84
581.693	30.22
582.032	29.62
582.372	30.1
582.711	29.84
583.05	30.03
583.389	30.35
583.728	30.08
584.067	30.37
584.406	30.33
584.745	30.19
585.083	30.26
585.422	30.63
585.761	30.44
586.1	30.3
586.438	30.2
586.777	30.42
587.115	30.22
587.454	30.7
587.792	30.41
588.13	30.85
588.469	31.03
588.807	30.93
589.145	30.66
589.483	30.74
589.821	30.87
590.159	30.81
590.497	31.12
590.835	30.88
591.173	30.9
591.511	31
591.849	31.1
592.187	31.02
592.524	30.98
592.862	31.34
593.2	31
593.537	31.02
593.875	31.35
594.212	31.39
594.55	31.32
594.887	31.29
595.224	31.59
595.561	31.3
595.899	31.42
596.236	31.57
596.573	31.54
596.91	31.42
597.247	31.71
597.584	31.33
597.921	31.71
598.258	31.45
598.594	31.36
598.931	31.37
599.268	31.45
599.604	31.34
599.941	31.73
600.277	31.67
600.614	31.89
600.95	31.69
601.287	32.01
601.623	32.12
601.959	32.26
602.296	32.31
602.632	32.18
602.968	32.39
603.304	32.51
603.64	32.52
603.976	32.22
604.312	32.68
604.648	32.49
604.984	32.48
605.319	32.34
605.655	32.31
605.991	32.52
606.326	32.59
606.662	32.29
606.998	32.21
607.333	32.43
607.668	32.67
608.004	32.65
608.339	32.61
608.674	32.86
609.01	32.69
609.345	32.9
609.68	32.97
610.015	33.03
610.35	33.08
610.685	33.09
611.02	33.23
611.355	33.07
611.689	32.94
612.024	33.04
612.359	33.08
612.694	33.18
613.028	33.44
613.363	33.81
613.697	33.63
614.032	33.29
614.366	33.71
614.7	33.97
615.035	34.01
615.369	34.06
615.703	33.84
616.037	34.07
616.371	33.85
616.705	33.81
617.039	34.29
617.373	33.85
617.707	34.18
618.041	34.26
618.375	34.47
618.709	34.57
619.042	34.66
619.376	34.38
619.71	34.32
620.043	34.75
620.377	34.52
620.71	35.12
621.043	35
621.377	34.59
621.71	34.78
622.043	35.23
622.376	34.96
622.709	34.87
623.043	35
623.376	34.9
623.709	34.46
624.041	35.02
624.374	34.48
624.707	34.9
625.04	35.12
625.373	35.57
625.705	34.88
626.038	35.1
626.37	35.23
626.703	35.99
627.035	35.13
627.368	35.25
627.7	35.44
628.032	35.07
628.365	35.36
628.697	35.24
629.029	35.39
629.361	35.56
629.693	35.42
630.025	35.34
630.357	35.48
630.689	35.5
631.021	35.05
631.353	35.82
631.684	35.8
632.016	35.88
632.348	36.01
632.679	36.08
633.011	35.89
633.342	35.78
633.674	36.08
634.005	36.06
634.336	36.03
634.668	35.96
634.999	36.32
635.33	36.28
635.661	36.35
635.992	36.42
636.323	36.33
636.654	36.34
636.985	35.92
637.316	36.33
637.647	36.25
637.977	36.42
638.308	36.22
638.639	36.54
638.969	36.64
639.3	36.61
639.63	36.98
639.961	36.85
640.291	36.94
640.622	36.78
640.952	37.05
641.282	36.85
641.612	37.04
641.943	37.04
642.273	36.64
642.603	37
642.933	37.41
643.263	36.16
643.592	36.74
643.922	37.32
644.252	37.06
644.582	37.49
644.911	37.06
645.241	36.72
645.571	37.03
645.9	37.53
646.23	36.93
646.559	37.74
646.888	37.74
647.218	37.45
647.547	37.84
647.876	37.84
648.205	37.03
648.534	38.06
648.863	37.77
649.192	37.38
649.521	37.85
649.85	38.03
650.179	38.05
650.508	37.7
650.837	38.16
651.165	37.76
651.494	38.24
651.822	38.73
652.151	37.92
652.479	37.73
652.808	37.36
653.136	38.3
653.465	37.99
653.793	38.37
654.121	38.19
654.449	38.11
654.777	38.15
655.105	39.01
655.433	38.16
655.761	38.43
656.089	38.24
656.417	38.1
656.745	38.42
657.073	38.13
657.4	38.65
657.728	38.58
658.056	38.64
658.383	39.07
658.711	38.3
659.038	38.79
659.365	39.33
659.693	38.93
660.02	39.26
660.347	38.29
660.674	38.66
661.001	38.92
661.329	38.55
661.656	38.93
661.982	38.56
662.309	38.88
662.636	38.77
662.963	38.76
663.29	38.96
663.616	39.38
663.943	39.5
664.27	39.47
664.596	38.88
664.923	39.06
665.249	39.53
665.576	39.58
665.902	38.94
666.228	39.05
666.554	40.46
666.881	39.23
667.207	39
667.533	39.44
667.859	39.61
668.185	39.87
668.511	39.66
668.837	39.75
669.162	40.07
669.488	38.99
669.814	40.23
670.139	39.66
670.465	39.51
670.791	39.86
671.116	39.76
671.442	40.31
671.767	40.15
672.092	39.94
672.418	39.43
672.743	40.85
673.068	40.6
673.393	40.44
673.718	40.74
674.043	40.04
674.368	40.07
674.693	40.65
