Data from 0037_forehead_Reflection__3__58.txt Node

Date: Fri Nov 04 15:10:09 CDT 2022
User: ToomeyLab
Spectrometer: FLMS14357
Trigger mode: 0
Integration Time (sec): 1.000000E-2
Scans to average: 100
Electric dark correction enabled: true
Nonlinearity correction enabled: false
Boxcar width: 0
XAxis mode: Wavelengths
Number of Pixels in Spectrum: 2048
>>>>>Begin Spectral Data<<<<<
189.047	457.07
189.435	457.07
189.823	457.07
190.211	-187.59
190.599	18.58
190.987	-254.48
191.375	379.57
191.763	-3196.12
192.151	0.18
192.538	117.91
192.926	-41.32
193.314	-540.53
193.702	37.31
194.089	-1040.37
194.477	466.64
194.864	121.48
195.252	45.1
195.639	3.91
196.027	445.09
196.414	56.58
196.801	150.31
197.189	-103.89
197.576	187.54
197.963	-39.1
198.351	-4.68
198.738	10.11
199.125	28.82
199.512	-39.25
199.899	-20.48
200.286	7.93
200.673	21.18
201.06	-59.24
201.447	-16.75
201.833	-18.11
202.22	-23.32
202.607	-29.34
202.994	17.86
203.38	27.91
203.767	0.9
204.154	39.24
204.54	-29.34
204.927	-12.04
205.313	28.03
205.699	11.17
206.086	-12.6
206.472	-18.18
206.858	-5.29
207.245	-8.71
207.631	10.29
208.017	-23.72
208.403	21.47
208.789	33
209.175	13.25
209.561	-82.26
209.947	-44.23
210.333	-7.64
210.719	-4.42
211.105	-33.01
211.491	-7.78
211.876	7.63
212.262	-14.45
212.648	-36
213.034	7.56
213.419	-29.87
213.805	-36.39
214.19	-28.51
214.576	-19.94
214.961	17.55
215.346	2.69
215.732	1.53
216.117	-8.39
216.502	3.68
216.888	-3.12
217.273	4.83
217.658	1.03
218.043	-10.62
218.428	18.44
218.813	-20.23
219.198	-5.61
219.583	-22.86
219.968	15.26
220.353	-10.17
220.738	-24.49
221.122	-4.9
221.507	6.63
221.892	-22.53
222.276	-13.41
222.661	1.25
223.046	4.93
223.43	1.13
223.815	-1.62
224.199	11.07
224.583	7.48
224.968	-5.43
225.352	0.96
225.736	-5.73
226.121	-4.86
226.505	8.25
226.889	-2.67
227.273	1.94
227.657	-1.16
228.041	4.27
228.425	2.17
228.809	6.33
229.193	2.4
229.577	0.31
229.961	2.87
230.344	2.86
230.728	2.01
231.112	2.1
231.495	2.59
231.879	2.57
232.263	0.43
232.646	1.56
233.03	1.36
233.413	0.6
233.797	1.89
234.18	1.37
234.563	1.53
234.946	0.26
235.33	2.37
235.713	0.86
236.096	2.24
236.479	1.71
236.862	1.56
237.245	0.07
237.628	2.35
238.011	0.39
238.394	3.42
238.777	3
239.16	1.88
239.543	1.64
239.925	3.62
240.308	3.04
240.691	2.53
241.073	1.5
241.456	1.86
241.838	1.34
242.221	2.12
242.603	2.29
242.986	1.99
243.368	2.16
243.75	2.56
244.133	2.2
244.515	2.52
244.897	1.85
245.279	1.96
245.661	3.11
246.043	3.39
246.425	2.51
246.807	2.89
247.189	2.17
247.571	2.8
247.953	2.63
248.335	2.16
248.717	2.33
249.098	2.2
249.48	2.17
249.862	2.6
250.243	2.21
250.625	2.2
251.006	2.39
251.388	2.49
251.769	2.23
252.151	2.37
252.532	2.74
252.913	1.69
253.295	1.93
253.676	2.19
254.057	1.78
254.438	2.49
254.819	2.14
255.2	1.42
255.581	2.84
255.962	3.03
256.343	3.26
256.724	2.74
257.105	1.76
257.486	3.15
257.867	4.32
258.247	3.31
258.628	1.14
259.009	1.91
259.389	2.66
259.77	2.43
260.15	3.12
260.531	2.71
260.911	2.15
261.292	2.15
261.672	2.22
262.052	2.22
262.432	2.4
262.813	2.45
263.193	1.72
263.573	2.28
263.953	2.1
264.333	2.57
264.713	2.6
265.093	2.31
265.473	2.93
265.853	1.74
266.233	2.54
266.612	2.52
266.992	2.68
267.372	1.39
267.752	2.27
268.131	2.36
268.511	2.45
268.89	2.38
269.27	2.05
269.649	2.19
270.029	2.49
270.408	1.81
270.787	2.28
271.167	2.37
271.546	2.64
271.925	1.96
272.304	1.86
272.683	2.2
273.062	2.41
273.441	2.61
273.82	2.23
274.199	2.38
274.578	2.3
274.957	2.04
275.336	1.96
275.715	2.19
276.093	2.55
276.472	2.46
276.851	2.3
277.229	1.65
277.608	2.59
277.986	2.45
278.365	2.3
278.743	2.22
279.122	1.94
279.5	2.18
279.878	2.9
280.257	1.74
280.635	1.88
281.013	1.88
281.391	2.69
281.769	2.5
282.147	1.55
282.525	2.76
282.903	1.99
283.281	2.49
283.659	2.41
284.037	2.15
284.415	2.19
284.792	2.17
285.17	2.16
285.548	2.95
285.925	1.94
286.303	2.26
286.68	2.46
287.058	2.17
287.435	2.14
287.813	1.93
288.19	2.28
288.567	2.01
288.945	2.13
289.322	2.29
289.699	2.64
290.076	2.06
290.453	1.84
290.83	2.46
291.207	2.38
291.584	2.19
291.961	2.46
292.338	2.58
292.715	2.37
293.092	2.52
293.469	2.3
293.845	2.04
294.222	2.79
294.599	2.09
294.975	2.77
295.352	2.11
295.728	2.51
296.105	2.12
296.481	2.57
296.858	2.54
297.234	2.85
297.61	2.9
297.986	2.43
298.363	2.26
298.739	2.5
299.115	2.85
299.491	2.51
299.867	2.63
300.243	2.68
300.619	2.84
300.995	2.69
301.371	3.23
301.746	2.43
302.122	2.5
302.498	2.78
302.874	2.76
303.249	2.58
303.625	2.63
304	3.16
304.376	2.79
304.751	2.84
305.127	2.35
305.502	2.89
305.878	2.73
306.253	2.73
306.628	2.77
307.003	2.81
307.378	3.24
307.754	2.88
308.129	2.59
308.504	2.86
308.879	2.99
309.254	3.19
309.629	3.26
310.003	3.49
310.378	3.21
310.753	3.27
311.128	3.07
311.502	2.79
311.877	3.16
312.252	2.92
312.626	3.35
313.001	3.07
313.375	3.26
313.75	3
314.124	3.07
314.498	3.43
314.873	3.76
315.247	3.46
315.621	3.15
315.995	3.85
316.369	3.24
316.743	3.58
317.117	3.62
317.491	3.75
317.865	3.24
318.239	3.49
318.613	4.27
318.987	3.72
319.361	3.41
319.734	3.47
320.108	3.53
320.482	2.65
320.855	3.54
321.229	3.45
321.602	3.56
321.976	3.55
322.349	4.55
322.723	3.44
323.096	3.7
323.469	3.67
323.843	3.67
324.216	4.38
324.589	3.42
324.962	3.74
325.335	4.15
325.708	3.56
326.081	3.85
326.454	3.76
326.827	4.11
327.2	3.76
327.573	4.14
327.945	3.74
328.318	3.33
328.691	4.19
329.063	4.11
329.436	4.31
329.809	3.83
330.181	4.13
330.553	3.95
330.926	4.38
331.298	4.82
331.671	4.04
332.043	4.33
332.415	4.26
332.787	3.66
333.159	4.05
333.532	4.11
333.904	4.44
334.276	3.83
334.648	4.81
335.02	4.41
335.391	4.66
335.763	4.34
336.135	4.67
336.507	4.45
336.879	4.46
337.25	4.68
337.622	4.51
337.993	4.59
338.365	4.21
338.736	4.54
339.108	4.99
339.479	4.42
339.851	4.6
340.222	4.46
340.593	5.08
340.964	5.08
341.336	4.28
341.707	4.52
342.078	4.76
342.449	4.49
342.82	4.69
343.191	4.52
343.562	4.9
343.933	5.15
344.303	4.95
344.674	4.79
345.045	5.04
345.416	4.48
345.786	5.04
346.157	5.08
346.527	4.94
346.898	5.21
347.268	5.28
347.639	4.96
348.009	5.33
348.38	5.3
348.75	5.06
349.12	5.25
349.49	5.39
349.861	5.22
350.231	5.37
350.601	5.24
350.971	5.26
351.341	5.38
351.711	5.29
352.081	5.61
352.45	5.31
352.82	5.01
353.19	5.7
353.56	5.6
353.929	5.51
354.299	5.71
354.669	5.59
355.038	5.98
355.408	5.24
355.777	5.57
356.147	5.23
356.516	5.36
356.885	5.59
357.254	5.78
357.624	6.08
357.993	5.73
358.362	5.63
358.731	5.64
359.1	5.96
359.469	5.83
359.838	5.78
360.207	5.87
360.576	5.93
360.945	6.11
361.314	6.22
361.682	6.09
362.051	6
362.42	5.97
362.788	6.06
363.157	6.08
363.525	6.01
363.894	6.07
364.262	6.34
364.631	6.34
364.999	6.27
365.367	6.18
365.735	6.38
366.104	6.61
366.472	6.13
366.84	6.34
367.208	6.18
367.576	6.41
367.944	6.43
368.312	6.4
368.68	6.41
369.048	6.38
369.416	6.57
369.783	6.19
370.151	6.45
370.519	7.07
370.886	6.54
371.254	6.73
371.621	6.52
371.989	6.63
372.356	6.88
372.724	6.81
373.091	6.85
373.458	6.71
373.826	7.28
374.193	6.81
374.56	7.01
374.927	7.06
375.294	7.23
375.661	7.31
376.028	7.2
376.395	7.39
376.762	7.37
377.129	7.05
377.496	7.49
377.863	7.47
378.229	6.97
378.596	7.32
378.963	7.21
379.329	7
379.696	7.6
380.062	7.48
380.429	7.45
380.795	7.57
381.161	7.63
381.528	7.92
381.894	7.27
382.26	7.78
382.626	7.55
382.993	7.62
383.359	7.86
383.725	7.56
384.091	7.45
384.457	7.76
384.823	7.89
385.188	7.95
385.554	7.72
385.92	7.78
386.286	7.93
386.651	8.01
387.017	7.9
387.383	8.17
387.748	8.03
388.114	7.69
388.479	8.64
388.845	8.13
389.21	8.24
389.575	8.52
389.94	8.19
390.306	8.21
390.671	8.24
391.036	8.35
391.401	8.47
391.766	8.04
392.131	8.11
392.496	8.39
392.861	8.53
393.226	8.25
393.591	8.5
393.956	8.51
394.32	8.38
394.685	8.51
395.05	8.88
395.414	8.73
395.779	8.64
396.143	8.53
396.508	8.73
396.872	8.69
397.236	8.88
397.601	8.92
397.965	8.96
398.329	8.94
398.694	8.97
399.058	9.19
399.422	9.03
399.786	8.9
400.15	9.05
400.514	9
400.878	9.09
401.242	8.87
401.605	9.08
401.969	9.36
402.333	9.23
402.697	9.39
403.06	9.39
403.424	9.47
403.787	9.32
404.151	9.44
404.514	9.67
404.878	9.43
405.241	9.63
405.604	9.63
405.968	9.3
406.331	9.57
406.694	9.48
407.057	9.56
407.42	9.53
407.783	9.44
408.146	9.84
408.509	9.79
408.872	9.82
409.235	9.86
409.598	9.83
409.961	10.03
410.323	10.14
410.686	9.91
411.049	9.99
411.411	9.98
411.774	10.13
412.136	10.21
412.499	10.09
412.861	10.34
413.223	10.32
413.586	10.23
413.948	10.28
414.31	10.07
414.672	10.37
415.035	10.44
415.397	10.31
415.759	10.5
416.121	10.25
416.483	10.59
416.845	10.58
417.206	10.49
417.568	10.51
417.93	10.62
418.292	10.64
418.653	10.51
419.015	10.44
419.377	10.63
419.738	10.53
420.1	10.73
420.461	10.67
420.822	10.6
421.184	10.66
421.545	10.51
421.906	10.72
422.267	10.51
422.629	10.67
422.99	10.55
423.351	10.6
423.712	10.75
424.073	10.87
424.434	10.77
424.795	11.02
425.155	10.97
425.516	10.94
425.877	10.88
426.238	10.91
426.598	10.91
426.959	11.07
427.32	11.11
427.68	11.11
428.041	11.22
428.401	11.19
428.761	11.47
429.122	11.43
429.482	11.61
429.842	11.29
430.202	11.6
430.563	11.43
430.923	11.71
431.283	11.52
431.643	11.53
432.003	11.86
432.363	11.81
432.722	11.69
433.082	11.76
433.442	11.73
433.802	11.9
434.161	11.85
434.521	11.87
434.881	11.95
435.24	11.75
435.6	11.95
435.959	11.92
436.319	12.03
436.678	11.99
437.037	12.04
437.396	12.18
437.756	12.13
438.115	11.95
438.474	12.34
438.833	12.38
439.192	12.24
439.551	12.37
439.91	12.5
440.269	12.28
440.628	12.27
440.987	12.55
441.345	12.4
441.704	12.49
442.063	12.27
442.421	12.45
442.78	12.37
443.138	12.51
443.497	12.5
443.855	12.61
444.214	12.68
444.572	12.7
444.93	12.65
445.288	12.76
445.647	12.82
446.005	12.81
446.363	13.03
446.721	12.85
447.079	13.03
447.437	12.75
447.795	12.72
448.153	12.74
448.51	12.9
448.868	12.9
449.226	12.78
449.584	13.07
449.941	13.06
450.299	13.19
450.656	13.16
451.014	13.39
451.371	13.39
451.729	13.37
452.086	13.64
452.443	13.48
452.801	13.52
453.158	13.62
453.515	13.63
453.872	13.49
454.229	13.77
454.586	13.68
454.943	13.56
455.3	13.71
455.657	13.77
456.014	13.83
456.371	13.82
456.727	13.9
457.084	13.89
457.441	13.96
457.797	14.06
458.154	14.01
458.51	14.19
458.867	14.02
459.223	14.26
459.58	14.3
459.936	14.24
460.292	14.08
460.648	14.25
461.005	14.05
461.361	14.14
461.717	14.06
462.073	14.08
462.429	14.16
462.785	14.25
463.141	14.54
463.496	14.49
463.852	14.55
464.208	14.48
464.564	14.74
464.919	14.7
465.275	14.79
465.631	14.97
465.986	14.84
466.342	14.66
466.697	14.65
467.052	14.99
467.408	14.96
467.763	14.91
468.118	15.13
468.473	15.19
468.829	15.03
469.184	15.08
469.539	15.14
469.894	15.16
470.249	15.09
470.603	15.38
470.958	15.34
471.313	15.38
471.668	15.23
472.023	15.36
472.377	15.57
472.732	15.67
473.086	15.48
473.441	15.48
473.795	15.49
474.15	15.6
474.504	15.67
474.859	15.55
475.213	15.67
475.567	15.72
475.921	15.64
476.275	15.8
476.63	15.88
476.984	15.9
477.338	16.1
477.692	16.13
478.045	15.91
478.399	16.01
478.753	16.07
479.107	16.2
479.461	16.13
479.814	16.15
480.168	16.19
480.521	16.08
480.875	16.24
481.228	16.34
481.582	16.3
481.935	16.35
482.289	16.49
482.642	16.47
482.995	16.32
483.348	16.23
483.701	16.39
484.055	16.11
484.408	16.11
484.761	16.01
485.114	15.77
485.466	15.64
485.819	15.58
486.172	15.69
486.525	15.8
486.878	15.94
487.23	16.1
487.583	16.15
487.936	16.38
488.288	16.34
488.641	16.3
488.993	16.23
489.345	16.18
489.698	16.16
490.05	16.23
490.402	16.27
490.754	16.55
491.107	16.57
491.459	16.85
491.811	16.95
492.163	17.05
492.515	17.09
492.866	16.88
493.218	16.72
493.57	16.59
493.922	16.69
494.274	16.77
494.625	17.02
494.977	17.17
495.328	17.46
495.68	17.47
496.031	17.66
496.383	17.71
496.734	17.97
497.086	18.1
497.437	18.13
497.788	18.1
498.139	17.76
498.49	17.76
498.842	17.86
499.193	17.79
499.544	17.94
499.894	17.86
500.245	18.05
500.596	18.16
500.947	18.15
501.298	18.33
501.648	18.27
501.999	18.48
502.35	18.37
502.7	18.47
503.051	18.59
503.401	18.63
503.752	18.9
504.102	18.69
504.452	18.84
504.803	18.82
505.153	18.76
505.503	18.84
505.853	18.94
506.203	18.86
506.553	18.99
506.903	19
507.253	19.05
507.603	19.03
507.953	19.1
508.303	19
508.652	19.09
509.002	19.31
509.352	19.21
509.701	19.14
510.051	19.21
510.4	19.16
510.75	19.25
511.099	19.12
511.449	19.24
511.798	19.18
512.147	19.22
512.496	19.22
512.846	19.33
513.195	19.47
513.544	19.37
513.893	19.51
514.242	19.48
514.591	19.49
514.939	19.76
515.288	19.85
515.637	19.87
515.986	19.92
516.334	20.02
516.683	19.86
517.032	20.03
517.38	20.11
517.729	20.15
518.077	20.18
518.426	20.13
518.774	20.26
519.122	20.12
519.47	20.06
519.819	19.95
520.167	19.82
520.515	19.86
520.863	19.92
521.211	19.9
521.559	20.03
521.907	20.33
522.255	20.25
522.602	20.57
522.95	20.65
523.298	20.71
523.645	20.78
523.993	20.73
524.341	20.76
524.688	20.78
525.036	20.91
525.383	20.88
525.73	20.87
526.078	20.85
526.425	20.89
526.772	20.82
527.119	20.76
527.466	20.74
527.814	20.52
528.161	20.65
528.508	20.67
528.854	20.67
529.201	20.73
529.548	20.68
529.895	20.48
530.242	20.25
530.588	20.29
530.935	20.39
531.282	20.6
531.628	20.58
531.975	20.7
532.321	20.97
532.667	21.1
533.014	21.3
533.36	21.29
533.706	21.43
534.052	21.53
534.399	21.28
534.745	21.29
535.091	21.04
535.437	21.1
535.783	21.19
536.129	21.45
536.474	21.47
536.82	21.69
537.166	21.8
537.512	21.91
537.857	21.86
538.203	21.84
538.549	21.63
538.894	21.88
539.239	21.97
539.585	22.03
539.93	22.11
540.276	22.28
540.621	22.34
540.966	22.53
541.311	22.6
541.656	22.64
542.001	22.56
542.346	22.23
542.691	22.24
543.036	21.85
543.381	21.92
543.726	21.88
544.071	22.03
544.415	22.26
544.76	22.32
545.105	22.44
545.449	22.59
545.794	22.72
546.138	22.81
546.483	22.87
546.827	23.09
547.171	23.12
547.516	23.09
547.86	23.03
548.204	23.27
548.548	23.08
548.892	23.07
549.236	23.17
549.58	23.37
549.924	23.49
550.268	23.71
550.612	23.72
550.956	23.88
551.3	23.78
551.643	23.92
551.987	23.81
552.33	24.14
552.674	24.08
553.017	24.28
553.361	24.48
553.704	24.33
554.048	24.33
554.391	24.15
554.734	24.21
555.077	24.16
555.42	24.29
555.764	24.47
556.107	24.58
556.45	24.55
556.793	24.65
557.135	24.67
557.478	24.61
557.821	24.83
558.164	25.1
558.507	24.74
558.849	24.9
559.192	25.08
559.534	25.09
559.877	25.02
560.219	25.06
560.562	25.17
560.904	25.17
561.246	25.17
561.589	25.27
561.931	25.18
562.273	25.35
562.615	25.22
562.957	25.48
563.299	25.48
563.641	25.53
563.983	25.33
564.325	25.48
564.667	25.53
565.008	25.5
565.35	25.63
565.692	25.94
566.033	26.18
566.375	25.64
566.716	25.76
567.058	26.01
567.399	25.67
567.741	25.73
568.082	25.75
568.423	25.86
568.764	25.66
569.105	25.76
569.447	25.93
569.788	25.98
570.129	26.13
570.47	26.24
570.811	26.33
571.151	25.99
571.492	26.16
571.833	26.26
572.174	26.51
572.514	26.33
572.855	26.36
573.195	26.23
573.536	26.46
573.876	26.43
574.217	26.36
574.557	26.45
574.898	26.36
575.238	26.44
575.578	26.66
575.918	26.7
576.258	26.66
576.598	26.81
576.938	26.75
577.278	26.56
577.618	26.56
577.958	26.82
578.298	26.76
578.638	27.07
578.977	27.35
579.317	27.13
579.657	27.33
579.996	27.4
580.336	27.24
580.675	27.04
581.014	27.55
581.354	27.51
581.693	27.56
582.032	27.52
582.372	27.95
582.711	27.57
583.05	27.65
583.389	27.58
583.728	27.91
584.067	28.02
584.406	27.9
584.745	27.97
585.083	28.08
585.422	28.29
585.761	28.02
586.1	28.33
586.438	28.16
586.777	28.25
587.115	28.25
587.454	28.76
587.792	28.38
588.13	28.53
588.469	28.67
588.807	28.62
589.145	28.66
589.483	28.21
589.821	28.3
590.159	28.64
590.497	28.56
590.835	28.54
591.173	28.45
591.511	28.78
591.849	28.6
592.187	28.64
592.524	28.8
592.862	28.77
593.2	28.8
593.537	28.83
593.875	28.88
594.212	29.09
594.55	28.84
594.887	29.05
595.224	29.26
595.561	28.87
595.899	29
596.236	29.07
596.573	29.03
596.91	29.07
597.247	29.52
597.584	29.23
597.921	29.19
598.258	28.93
598.594	28.73
598.931	29.05
599.268	29.18
599.604	29.12
599.941	29.02
600.277	29.06
600.614	29.43
600.95	29.67
601.287	29.61
601.623	29.65
601.959	29.85
602.296	29.75
602.632	29.78
602.968	29.94
603.304	29.79
603.64	30.29
603.976	29.55
604.312	29.89
604.648	29.58
604.984	29.74
605.319	29.9
605.655	30.04
605.991	29.7
606.326	29.78
606.662	29.75
606.998	29.72
607.333	29.68
607.668	30.2
608.004	30.09
608.339	30.26
608.674	30.14
609.01	30.33
609.345	30.29
609.68	30.38
610.015	30.62
610.35	30.35
610.685	30.15
611.02	30.32
611.355	30.17
611.689	30.42
612.024	30.29
612.359	30.3
612.694	30.62
613.028	30.94
613.363	30.85
613.697	30.59
614.032	30.88
614.366	31.34
614.7	30.91
615.035	31.08
615.369	31.08
615.703	31.1
616.037	31.21
616.371	31.4
616.705	31.31
617.039	31.5
617.373	31.3
617.707	31.23
618.041	31.51
618.375	31.12
618.709	31.78
619.042	31.92
619.376	31.63
619.71	31.58
620.043	31.7
620.377	31.97
620.71	32.08
621.043	31.52
621.377	32.03
621.71	31.88
622.043	32.18
622.376	32.09
622.709	32.08
623.043	31.93
623.376	32.22
623.709	31.94
624.041	32.01
624.374	31.76
624.707	31.72
625.04	32.32
625.373	32.41
625.705	31.92
626.038	32.3
626.37	32.34
626.703	32.65
627.035	31.81
627.368	32.37
627.7	32.06
628.032	32.18
628.365	32.23
628.697	32.32
629.029	32.43
629.361	32.47
629.693	32.33
630.025	32.56
630.357	32.26
630.689	32.08
631.021	32.22
631.353	32.48
631.684	32.97
632.016	32.71
632.348	32.3
632.679	32.8
633.011	32.59
633.342	32.34
633.674	32.42
634.005	32.77
634.336	33.39
634.668	33.08
634.999	33.23
635.33	32.84
635.661	33.01
635.992	33.26
636.323	33.22
636.654	32.85
636.985	32.92
637.316	33.19
637.647	33.12
637.977	33.47
638.308	33.31
638.639	33.19
638.969	33.14
639.3	33.74
639.63	33.24
639.961	32.97
640.291	33.66
640.622	33.58
640.952	33.72
641.282	33.83
641.612	33.55
641.943	33.68
642.273	33.43
642.603	33.28
642.933	33.32
643.263	33.27
643.592	33.84
643.922	34.03
644.252	33.53
644.582	34.1
644.911	33.81
645.241	33.84
645.571	33.61
645.9	33.9
646.23	33.24
646.559	34.65
646.888	34.13
647.218	33.84
647.547	34.44
647.876	34.48
648.205	34.14
648.534	34.67
648.863	34.39
649.192	34.16
649.521	34.04
649.85	34.33
650.179	34.54
650.508	34.97
650.837	34.55
651.165	34.39
651.494	34.42
651.822	34.26
652.151	34.37
652.479	34.4
652.808	34.14
653.136	34.64
653.465	34.34
653.793	34.67
654.121	34.5
654.449	34.69
654.777	34.33
655.105	34.72
655.433	34.65
655.761	34.75
656.089	34.58
656.417	34.52
656.745	34.95
657.073	34.42
657.4	34.93
657.728	35.04
658.056	34.88
658.383	35.24
658.711	34.68
659.038	35.01
659.365	35.7
659.693	35.14
660.02	35.27
660.347	34.96
660.674	35.24
661.001	34.86
661.329	35.23
661.656	35.09
661.982	35.28
662.309	34.93
662.636	35.38
662.963	35.2
663.29	35.34
663.616	35.85
663.943	35.3
664.27	35.54
664.596	35.21
664.923	35.18
665.249	35.94
665.576	35.92
665.902	35.05
666.228	34.99
666.554	36.15
666.881	35.66
667.207	36.54
667.533	36.47
667.859	36.09
668.185	36.11
668.511	36.26
668.837	35.97
669.162	36.56
669.488	35.67
669.814	36.05
670.139	35.75
670.465	35.96
670.791	36.26
671.116	35.87
671.442	36.62
671.767	36.19
672.092	36.05
672.418	36.09
672.743	36.05
673.068	36.27
673.393	36.61
673.718	36.19
