Data from 0037_chest_Reflection__4__49.txt Node

Date: Fri Nov 04 15:05:13 CDT 2022
User: ToomeyLab
Spectrometer: FLMS14357
Trigger mode: 0
Integration Time (sec): 1.000000E-2
Scans to average: 100
Electric dark correction enabled: true
Nonlinearity correction enabled: false
Boxcar width: 0
XAxis mode: Wavelengths
Number of Pixels in Spectrum: 2048
>>>>>Begin Spectral Data<<<<<
189.047	-534.35
189.435	-534.35
189.823	-534.35
190.211	-204.19
190.599	84.54
190.987	136.39
191.375	-5.77
191.763	-810.08
192.151	99.79
192.538	131.13
192.926	80.4
193.314	693.76
193.702	58.25
194.089	-2507.45
194.477	-178.89
194.864	20.04
195.252	67.6
195.639	94.76
196.027	76.6
196.414	94.64
196.801	131.16
197.189	16.67
197.576	252.84
197.963	133.27
198.351	-24.37
198.738	8.63
199.125	-8.63
199.512	-11.37
199.899	-20.43
200.286	14.75
200.673	8.29
201.06	-29.12
201.447	6.8
201.833	-4.68
202.22	42.29
202.607	-5.22
202.994	22.52
203.38	37.72
203.767	3.66
204.154	48.45
204.54	-32.63
204.927	6.86
205.313	1.73
205.699	23.42
206.086	6.63
206.472	8.21
206.858	7.76
207.245	9.78
207.631	-3.72
208.017	14.72
208.403	8.94
208.789	22.74
209.175	24.64
209.561	-48.2
209.947	-48.86
210.333	18.31
210.719	9.56
211.105	-21.71
211.491	-6.18
211.876	-21.5
212.262	-4.2
212.648	-17.51
213.034	25.3
213.419	-1.72
213.805	-16.41
214.19	-32.8
214.576	-23.1
214.961	21.02
215.346	-4.5
215.732	3.13
216.117	-11.23
216.502	15.44
216.888	-12.53
217.273	-11.68
217.658	-0.53
218.043	-5.56
218.428	-0.29
218.813	-0.19
219.198	16.11
219.583	-27.67
219.968	10.01
220.353	-15.89
220.738	-18.31
221.122	-20.84
221.507	13.21
221.892	-24.28
222.276	7.97
222.661	-3.97
223.046	-15.81
223.43	1.71
223.815	-1.22
224.199	5.72
224.583	1.75
224.968	-3.85
225.352	0.47
225.736	-4.53
226.121	-9.86
226.505	4.55
226.889	-1.06
227.273	3.58
227.657	-0.09
228.041	1.5
228.425	5.59
228.809	2.38
229.193	2.66
229.577	1.8
229.961	2.95
230.344	2.75
230.728	2.79
231.112	2.42
231.495	2.86
231.879	3.14
232.263	2.02
232.646	1.23
233.03	1.93
233.413	0.4
233.797	1.16
234.18	3.34
234.563	2.53
234.946	1.83
235.33	2.56
235.713	2.75
236.096	2.89
236.479	2.64
236.862	3.02
237.245	2.44
237.628	2.68
238.011	0.53
238.394	3.79
238.777	3.5
239.16	2.81
239.543	0.85
239.925	2.75
240.308	3.05
240.691	3.97
241.073	2.13
241.456	2.97
241.838	1.48
242.221	2.43
242.603	2.76
242.986	1.5
243.368	3
243.75	2.59
244.133	2.82
244.515	2.49
244.897	2.53
245.279	2.68
245.661	2.68
246.043	2.75
246.425	2.64
246.807	3.1
247.189	2.6
247.571	2.95
247.953	2.66
248.335	2.4
248.717	2.66
249.098	2.54
249.48	2.78
249.862	2.82
250.243	2.63
250.625	2.06
251.006	2.51
251.388	2.46
251.769	3.34
252.151	3.08
252.532	1.64
252.913	1.42
253.295	2.95
253.676	2.31
254.057	2.8
254.438	2.55
254.819	1.79
255.2	1.8
255.581	2.67
255.962	2.99
256.343	1.47
256.724	3.04
257.105	1.97
257.486	3.24
257.867	2.88
258.247	2.51
258.628	1.91
259.009	2.04
259.389	2.65
259.77	2.64
260.15	2.69
260.531	2.41
260.911	2.27
261.292	2.14
261.672	2.45
262.052	2.37
262.432	2.61
262.813	2.27
263.193	1.7
263.573	2.22
263.953	1.71
264.333	2.11
264.713	2.44
265.093	2.46
265.473	2.63
265.853	1.66
266.233	2.71
266.612	3.25
266.992	2.89
267.372	2
267.752	2.36
268.131	2.29
268.511	2.54
268.89	2.43
269.27	2.36
269.649	2.29
270.029	2.11
270.408	2.29
270.787	2.27
271.167	2.35
271.546	3.04
271.925	1.86
272.304	2.19
272.683	2.54
273.062	2.13
273.441	2.59
273.82	1.89
274.199	2.56
274.578	1.98
274.957	1.92
275.336	1.64
275.715	1.62
276.093	1.77
276.472	2.15
276.851	2.15
277.229	2.06
277.608	2.26
277.986	2.59
278.365	2.66
278.743	2.48
279.122	2.01
279.5	1.88
279.878	2.31
280.257	2.57
280.635	1.84
281.013	2.05
281.391	2.6
281.769	2.13
282.147	2.06
282.525	2.4
282.903	2.12
283.281	2.27
283.659	2.21
284.037	2.26
284.415	2.13
284.792	2.35
285.17	1.81
285.548	2.36
285.925	2.19
286.303	2.51
286.68	2.59
287.058	2.28
287.435	2.15
287.813	1.89
288.19	2.34
288.567	1.93
288.945	2.31
289.322	2.62
289.699	2.62
290.076	2.44
290.453	1.81
290.83	2.17
291.207	1.97
291.584	2.29
291.961	2.24
292.338	2.39
292.715	2.49
293.092	2.33
293.469	2.51
293.845	2.02
294.222	1.93
294.599	1.86
294.975	1.68
295.352	2.01
295.728	2.39
296.105	2.35
296.481	2.02
296.858	2.22
297.234	2.34
297.61	2.72
297.986	2.19
298.363	1.87
298.739	2.01
299.115	2.35
299.491	2.08
299.867	2.07
300.243	2.53
300.619	2.29
300.995	2.7
301.371	2.82
301.746	2.32
302.122	2.15
302.498	2.12
302.874	2.54
303.249	2.21
303.625	2.2
304	2.44
304.376	2.24
304.751	2.01
305.127	1.73
305.502	2.3
305.878	2.51
306.253	2.12
306.628	1.97
307.003	2.09
307.378	2.2
307.754	2.14
308.129	2.01
308.504	2.24
308.879	2.54
309.254	2.66
309.629	2.32
310.003	2.15
310.378	2.55
310.753	2.35
311.128	2.32
311.502	2.03
311.877	2.53
312.252	2.09
312.626	2.47
313.001	2.34
313.375	2.21
313.75	2.2
314.124	2.26
314.498	2.58
314.873	2.23
315.247	2.44
315.621	2.36
315.995	2.63
316.369	1.98
316.743	2.48
317.117	2.51
317.491	2.44
317.865	2.16
318.239	2.13
318.613	2.8
318.987	2.34
319.361	2.29
319.734	2.78
320.108	2.22
320.482	1.39
320.855	2.49
321.229	2.12
321.602	2.49
321.976	2.68
322.349	2.84
322.723	2.11
323.096	2.32
323.469	2.08
323.843	2.29
324.216	2.54
324.589	2.63
324.962	2.72
325.335	2.75
325.708	2.03
326.081	2.5
326.454	2.44
326.827	2.39
327.2	2.46
327.573	2.59
327.945	2.61
328.318	1.91
328.691	2.05
329.063	2.42
329.436	2.53
329.809	2.36
330.181	2.78
330.553	2.17
330.926	2.56
331.298	2.6
331.671	2.09
332.043	2.59
332.415	2.53
332.787	2.21
333.159	2.35
333.532	2.28
333.904	2.63
334.276	2.12
334.648	2.85
335.02	2.14
335.391	2.46
335.763	2.58
336.135	2.12
336.507	2.34
336.879	2.17
337.25	2.62
337.622	2.66
337.993	3.08
338.365	2.54
338.736	2.68
339.108	2.58
339.479	2.47
339.851	2.27
340.222	2.21
340.593	2.89
340.964	2.74
341.336	2.97
341.707	2.07
342.078	2.61
342.449	2.72
342.82	2.83
343.191	2
343.562	2.47
343.933	2.59
344.303	2.59
344.674	2.49
345.045	2.3
345.416	2.17
345.786	2.65
346.157	2.74
346.527	2.51
346.898	2.84
347.268	2.52
347.639	2.53
348.009	2.72
348.38	2.4
348.75	2.18
349.12	2.42
349.49	2.68
349.861	2.43
350.231	2.62
350.601	2.74
350.971	2.35
351.341	2.35
351.711	2.7
352.081	2.41
352.45	2.69
352.82	2.44
353.19	2.47
353.56	2.69
353.929	2.38
354.299	2.88
354.669	2.35
355.038	2.69
355.408	2.3
355.777	2.62
356.147	2.52
356.516	2.42
356.885	2.38
357.254	2.77
357.624	2.38
357.993	2.5
358.362	2.45
358.731	2.47
359.1	2.7
359.469	2.46
359.838	2.61
360.207	2.64
360.576	3
360.945	2.77
361.314	2.79
361.682	2.33
362.051	2.17
362.42	2.56
362.788	2.42
363.157	2.52
363.525	2.6
363.894	2.63
364.262	2.63
364.631	2.73
364.999	2.74
365.367	2.4
365.735	2.64
366.104	2.69
366.472	2.66
366.84	2.32
367.208	2.69
367.576	2.41
367.944	2.85
368.312	2.47
368.68	2.56
369.048	2.62
369.416	2.55
369.783	2.4
370.151	2.12
370.519	2.96
370.886	2.31
371.254	2.72
371.621	2.58
371.989	2.57
372.356	2.52
372.724	2.85
373.091	2.79
373.458	2.46
373.826	2.73
374.193	2.63
374.56	2.33
374.927	2.83
375.294	2.55
375.661	2.79
376.028	2.35
376.395	2.71
376.762	2.93
377.129	2.78
377.496	2.74
377.863	2.57
378.229	2.72
378.596	2.28
378.963	2.69
379.329	2.54
379.696	2.51
380.062	2.86
380.429	2.54
380.795	2.66
381.161	2.46
381.528	2.94
381.894	2.49
382.26	2.78
382.626	2.52
382.993	2.67
383.359	2.82
383.725	2.46
384.091	2.77
384.457	2.86
384.823	2.58
385.188	2.79
385.554	2.86
385.92	2.56
386.286	2.74
386.651	2.54
387.017	2.69
387.383	2.68
387.748	2.6
388.114	2.5
388.479	3.06
388.845	2.45
389.21	3.28
389.575	3.02
389.94	2.91
390.306	3.01
390.671	2.58
391.036	2.39
391.401	2.88
391.766	2.68
392.131	2.65
392.496	2.92
392.861	2.77
393.226	2.5
393.591	2.87
393.956	2.94
394.32	2.7
394.685	2.91
395.05	2.84
395.414	2.7
395.779	2.95
396.143	2.55
396.508	2.86
396.872	2.83
397.236	3.04
397.601	2.79
397.965	2.77
398.329	2.72
398.694	2.75
399.058	2.83
399.422	2.77
399.786	2.89
400.15	2.92
400.514	2.61
400.878	2.67
401.242	2.85
401.605	2.68
401.969	2.9
402.333	2.89
402.697	2.84
403.06	3.01
403.424	2.94
403.787	2.83
404.151	3.11
404.514	2.97
404.878	2.98
405.241	2.77
405.604	2.82
405.968	2.89
406.331	2.9
406.694	2.63
407.057	2.77
407.42	2.8
407.783	2.68
408.146	2.91
408.509	2.87
408.872	2.99
409.235	2.92
409.598	2.93
409.961	2.92
410.323	2.87
410.686	2.85
411.049	2.61
411.411	2.77
411.774	2.87
412.136	3.02
412.499	3.04
412.861	2.79
413.223	2.72
413.586	2.8
413.948	3.15
414.31	2.73
414.672	2.96
415.035	3.01
415.397	2.77
415.759	3.04
416.121	2.88
416.483	3.04
416.845	2.93
417.206	2.89
417.568	3.12
417.93	2.83
418.292	2.89
418.653	2.98
419.015	2.96
419.377	2.81
419.738	2.87
420.1	2.9
420.461	2.97
420.822	2.82
421.184	2.99
421.545	2.83
421.906	2.85
422.267	2.68
422.629	2.83
422.99	2.84
423.351	2.71
423.712	2.75
424.073	2.84
424.434	2.8
424.795	2.91
425.155	2.95
425.516	2.88
425.877	2.84
426.238	2.8
426.598	2.85
426.959	2.8
427.32	2.77
427.68	2.91
428.041	2.86
428.401	2.99
428.761	2.89
429.122	2.83
429.482	2.97
429.842	2.77
430.202	2.97
430.563	2.99
430.923	3.14
431.283	2.81
431.643	3.04
432.003	3.17
432.363	3.08
432.722	3.01
433.082	3.13
433.442	3
433.802	2.87
434.161	2.85
434.521	2.92
434.881	2.94
435.24	2.9
435.6	2.96
435.959	2.98
436.319	2.99
436.678	2.94
437.037	3.06
437.396	2.95
437.756	3.03
438.115	2.92
438.474	3.18
438.833	3.03
439.192	3.1
439.551	2.99
439.91	3.08
440.269	3.06
440.628	3.13
440.987	3.09
441.345	2.99
441.704	2.91
442.063	2.88
442.421	3.02
442.78	3.01
443.138	3.01
443.497	2.9
443.855	2.88
444.214	3.2
444.572	2.99
444.93	3.02
445.288	3.09
445.647	3
446.005	2.96
446.363	3.07
446.721	2.93
447.079	2.97
447.437	2.91
447.795	3.05
448.153	2.95
448.51	3.04
448.868	2.92
449.226	2.91
449.584	2.99
449.941	2.89
450.299	2.94
450.656	3.04
451.014	3.02
451.371	3.24
451.729	3.08
452.086	3.02
452.443	2.99
452.801	3.16
453.158	3.01
453.515	3.15
453.872	2.96
454.229	3.06
454.586	3.18
454.943	3.27
455.3	3.1
455.657	3.01
456.014	3.03
456.371	3.12
456.727	3.12
457.084	3.07
457.441	2.98
457.797	3.05
458.154	3.04
458.51	3.02
458.867	2.96
459.223	3.23
459.58	3.34
459.936	3.05
460.292	3.03
460.648	3.14
461.005	2.97
461.361	3.06
461.717	3.09
462.073	3.11
462.429	3.12
462.785	3.1
463.141	3.17
463.496	3.11
463.852	3.16
464.208	3.15
464.564	3.06
464.919	3.23
465.275	3.29
465.631	3.2
465.986	3.08
466.342	3.05
466.697	3.27
467.052	3.11
467.408	3.05
467.763	3.14
468.118	3.32
468.473	3.3
468.829	3.07
469.184	3.19
469.539	3.07
469.894	3.2
470.249	2.95
470.603	3.28
470.958	3.09
471.313	3.05
471.668	3.09
472.023	3.01
472.377	3.3
472.732	3.17
473.086	3.08
473.441	3.09
473.795	3.1
474.15	3.21
474.504	3.16
474.859	3.1
475.213	3.11
475.567	3.03
475.921	3.17
476.275	3.26
476.63	3.07
476.984	3.17
477.338	3.15
477.692	3.24
478.045	3.31
478.399	3.05
478.753	3.2
479.107	3.24
479.461	3.28
479.814	3.27
480.168	3.32
480.521	3.16
480.875	3.28
481.228	3.28
481.582	3.34
481.935	3.17
482.289	3.18
482.642	3.31
482.995	3.27
483.348	3.21
483.701	3.23
484.055	3.23
484.408	3.2
484.761	3.14
485.114	3.06
485.466	3.04
485.819	3.01
486.172	3.05
486.525	3.06
486.878	3.15
487.23	3.14
487.583	3.12
487.936	3.2
488.288	3.22
488.641	3.17
488.993	3.13
489.345	3.11
489.698	3.12
490.05	3.1
490.402	3.11
490.754	3.17
491.107	3.17
491.459	3.27
491.811	3.24
492.163	3.22
492.515	3.35
492.866	3.2
493.218	3.17
493.57	3.16
493.922	3.18
494.274	3.19
494.625	3.19
494.977	3.3
495.328	3.22
495.68	3.27
496.031	3.28
496.383	3.27
496.734	3.34
497.086	3.46
497.437	3.39
497.788	3.38
498.139	3.27
498.49	3.28
498.842	3.4
499.193	3.36
499.544	3.43
499.894	3.26
500.245	3.28
500.596	3.29
500.947	3.38
501.298	3.24
501.648	3.45
501.999	3.44
502.35	3.29
502.7	3.35
503.051	3.41
503.401	3.39
503.752	3.49
504.102	3.36
504.452	3.45
504.803	3.44
505.153	3.34
505.503	3.38
505.853	3.44
506.203	3.43
506.553	3.49
506.903	3.38
507.253	3.47
507.603	3.37
507.953	3.4
508.303	3.41
508.652	3.4
509.002	3.46
509.352	3.54
509.701	3.51
510.051	3.45
510.4	3.46
510.75	3.36
511.099	3.49
511.449	3.37
511.798	3.43
512.147	3.63
512.496	3.49
512.846	3.37
513.195	3.57
513.544	3.52
513.893	3.57
514.242	3.49
514.591	3.36
514.939	3.5
515.288	3.53
515.637	3.64
515.986	3.59
516.334	3.63
516.683	3.52
517.032	3.58
517.38	3.66
517.729	3.56
518.077	3.52
518.426	3.48
518.774	3.56
519.122	3.53
519.47	3.64
519.819	3.46
520.167	3.58
520.515	3.47
520.863	3.53
521.211	3.53
521.559	3.57
521.907	3.59
522.255	3.54
522.602	3.65
522.95	3.59
523.298	3.65
523.645	3.74
523.993	3.75
524.341	3.66
524.688	3.66
525.036	3.54
525.383	3.76
525.73	3.7
526.078	3.73
526.425	3.65
526.772	3.58
527.119	3.62
527.466	3.66
527.814	3.63
528.161	3.62
528.508	3.59
528.854	3.63
529.201	3.61
529.548	3.67
529.895	3.58
530.242	3.52
530.588	3.59
530.935	3.56
531.282	3.59
531.628	3.58
531.975	3.69
532.321	3.71
532.667	3.74
533.014	3.79
533.36	3.79
533.706	3.85
534.052	3.78
534.399	3.73
534.745	3.73
535.091	3.69
535.437	3.75
535.783	3.75
536.129	3.83
536.474	3.79
536.82	3.82
537.166	3.76
537.512	3.86
537.857	3.85
538.203	3.76
538.549	3.78
538.894	3.85
539.239	3.9
539.585	3.81
539.93	3.88
540.276	3.93
540.621	4
540.966	4
541.311	3.83
541.656	3.93
542.001	4.1
542.346	3.9
542.691	3.86
543.036	3.77
543.381	3.87
543.726	3.89
544.071	3.86
544.415	3.89
544.76	3.92
545.105	3.94
545.449	4.02
545.794	4.03
546.138	3.92
546.483	4.02
546.827	4.11
547.171	4.12
547.516	4.13
547.86	4.11
548.204	4.02
548.548	4.04
548.892	4.02
549.236	4.15
549.58	4.1
549.924	4.25
550.268	4.26
550.612	4.12
550.956	4.3
551.3	4.25
551.643	4.22
551.987	4.12
552.33	4.37
552.674	4.27
553.017	4.4
553.361	4.33
553.704	4.37
554.048	4.34
554.391	4.24
554.734	4.41
555.077	4.38
555.42	4.46
555.764	4.51
556.107	4.36
556.45	4.43
556.793	4.51
557.135	4.42
557.478	4.27
557.821	4.53
558.164	4.46
558.507	4.43
558.849	4.55
559.192	4.5
559.534	4.41
559.877	4.44
560.219	4.52
560.562	4.63
560.904	4.72
561.246	4.59
561.589	4.55
561.931	4.51
562.273	4.68
562.615	4.48
562.957	4.69
563.299	4.68
563.641	4.63
563.983	4.57
564.325	4.7
564.667	4.67
565.008	4.67
565.35	4.72
565.692	4.87
566.033	4.71
566.375	4.86
566.716	4.8
567.058	4.82
567.399	4.85
567.741	4.82
568.082	4.95
568.423	4.88
568.764	4.68
569.105	4.77
569.447	4.84
569.788	4.95
570.129	4.85
570.47	4.98
570.811	5.05
571.151	4.93
571.492	5.17
571.833	5.04
572.174	5.06
572.514	4.86
572.855	4.8
573.195	5.02
573.536	4.87
573.876	4.98
574.217	4.95
574.557	4.84
574.898	5.05
575.238	4.95
575.578	5.23
575.918	5.2
576.258	5.19
576.598	5.11
576.938	5.12
577.278	5.06
577.618	5.07
577.958	5.12
578.298	5.24
578.638	5.25
578.977	5.32
579.317	5.47
579.657	5.26
579.996	5.27
580.336	5.34
580.675	5.14
581.014	5.32
581.354	5.4
581.693	5.42
582.032	5.34
582.372	5.58
582.711	5.32
583.05	5.66
583.389	5.47
583.728	5.43
584.067	5.63
584.406	5.35
584.745	5.77
585.083	5.57
585.422	5.67
585.761	5.55
586.1	5.42
586.438	5.35
586.777	5.64
587.115	5.7
587.454	5.92
587.792	5.95
588.13	5.69
588.469	5.81
588.807	5.77
589.145	5.98
589.483	5.42
589.821	5.79
590.159	5.62
590.497	5.94
590.835	5.69
591.173	5.83
591.511	5.98
591.849	5.87
592.187	5.87
592.524	6.01
592.862	5.79
593.2	6.07
593.537	5.86
593.875	5.85
594.212	5.78
594.55	6.11
594.887	6.07
595.224	6.12
595.561	5.88
595.899	5.99
596.236	6.13
596.573	6.03
596.91	6.05
597.247	5.99
597.584	5.92
597.921	6.21
598.258	6.12
598.594	5.95
598.931	6.18
599.268	6.28
599.604	6.2
599.941	6.38
600.277	6.16
600.614	6.37
600.95	6.37
601.287	6.22
601.623	6.47
601.959	6.55
602.296	6.41
602.632	6.43
602.968	6.41
603.304	6.55
603.64	6.7
603.976	6.25
604.312	6.37
604.648	6.54
604.984	6.44
605.319	6.36
605.655	6.45
605.991	6.69
606.326	6.5
606.662	6.48
606.998	6.49
607.333	6.43
607.668	6.8
608.004	6.47
608.339	6.65
608.674	6.92
609.01	6.77
609.345	7.08
609.68	6.63
610.015	6.97
610.35	6.64
610.685	6.77
611.02	6.81
611.355	6.75
611.689	6.87
612.024	6.93
612.359	6.86
612.694	7
613.028	6.98
613.363	7.05
613.697	6.84
614.032	7.14
614.366	6.97
614.7	6.82
615.035	7.21
615.369	7
615.703	7.37
616.037	6.96
616.371	7.3
616.705	7.36
617.039	7.3
617.373	7.27
617.707	7.72
618.041	7.36
618.375	7.43
618.709	7.38
619.042	7.36
619.376	7.33
619.71	7.54
620.043	7.42
620.377	7.77
620.71	7.68
621.043	7.02
621.377	7.47
621.71	7.28
622.043	7.66
622.376	7.91
622.709	7.92
623.043	7.43
623.376	7.94
623.709	7.32
624.041	7.77
624.374	7.91
624.707	7.17
625.04	7.82
625.373	7.61
625.705	7.57
626.038	7.63
626.37	7.98
626.703	8.1
627.035	7.81
627.368	7.95
627.7	7.57
628.032	7.71
628.365	7.97
628.697	7.85
629.029	7.93
629.361	7.83
629.693	8.06
630.025	8.07
630.357	8.01
630.689	7.95
631.021	7.76
631.353	7.98
631.684	8.53
632.016	7.92
632.348	7.91
632.679	7.68
633.011	8.31
633.342	8.25
633.674	8.07
634.005	8.27
634.336	8.44
634.668	8.27
634.999	8.56
635.33	8.29
635.661	8.4
635.992	8.49
636.323	8.28
636.654	8.24
636.985	8.43
637.316	8.48
637.647	8.29
637.977	8.61
638.308	8.87
638.639	8.77
638.969	8.39
639.3	9.14
639.63	8.4
639.961	8.76
640.291	8.75
640.622	8.93
640.952	8.88
641.282	8.83
641.612	8.55
641.943	8.67
642.273	8.77
642.603	8.66
642.933	8.9
643.263	8.8
643.592	9.01
643.922	9.36
644.252	8.6
644.582	9.15
644.911	8.81
645.241	8.59
645.571	8.71
645.9	9.01
646.23	8.72
646.559	9.15
646.888	8.7
647.218	9.38
647.547	9.26
647.876	8.79
648.205	8.76
648.534	9.41
648.863	9.32
649.192	9.28
649.521	9.14
649.85	9.48
650.179	9.18
650.508	9.31
650.837	9.17
651.165	9.52
651.494	9.19
651.822	9.45
652.151	9.6
652.479	9.21
652.808	9.1
653.136	9.56
653.465	9.55
653.793	9.84
654.121	9.15
654.449	9.25
654.777	9.27
655.105	9.58
655.433	9.72
655.761	9.71
656.089	9.86
656.417	9.67
656.745	9.45
657.073	9.8
657.4	9.62
657.728	9.54
658.056	9.68
658.383	9.99
658.711	9.48
659.038	9.55
659.365	10.33
659.693	10.44
660.02	10.03
660.347	9.67
660.674	9.88
661.001	10.31
661.329	9.85
661.656	10.3
661.982	9.96
662.309	10.3
662.636	10.08
662.963	9.89
663.29	9.7
663.616	10.18
663.943	10.55
664.27	10.4
664.596	10.16
664.923	10.21
665.249	10.77
665.576	10.08
665.902	9.75
666.228	9.88
666.554	10.66
666.881	10.51
667.207	10.82
667.533	10.58
667.859	10.53
668.185	10.26
668.511	10.52
668.837	10.12
669.162	10.8
669.488	9.94
669.814	11.09
670.139	10.65
670.465	10.64
670.791	10.58
671.116	10.74
671.442	10.35
671.767	10.94
672.092	10.91
672.418	10.48
672.743	11.18
673.068	10.46
673.393	11.28
673.718	11.12
674.043	11.28
674.368	10.33
674.693	10.86
675.018	10.71
675.343	11.03
675.667	11.32
675.992	10.72
676.317	11.3
676.641	10.85
676.966	10.73
677.29	10.97
677.615	11.43
677.939	11.01
678.264	11.3
678.588	11.39
678.912	11.05
679.236	11.14
679.56	11.2
679.885	11.17
680.209	11.24
680.532	11.38
680.856	11.39
681.18	10.91
681.504	11.43
681.828	11.4
682.152	12.25
682.475	11.17
682.799	11.61
683.122	12.06
683.446	11.26
683.769	11.32
684.093	11.56
684.416	11.44
684.739	11.17
685.062	12.53
685.386	11.18
685.709	11.63
686.032	12.05
686.355	12.12
686.678	12.03
687.001	12.55
687.324	12.13
687.646	11.86
687.969	11.47
688.292	11.76
688.614	12.1
688.937	11.92
689.26	11.8
689.582	12.64
689.904	12.13
690.227	12.03
