Data from 0037_crown_Reflection__3__53.txt Node

Date: Fri Nov 04 15:08:39 CDT 2022
User: ToomeyLab
Spectrometer: FLMS14357
Trigger mode: 0
Integration Time (sec): 1.000000E-2
Scans to average: 100
Electric dark correction enabled: true
Nonlinearity correction enabled: false
Boxcar width: 0
XAxis mode: Wavelengths
Number of Pixels in Spectrum: 2048
>>>>>Begin Spectral Data<<<<<
189.047	180.14
189.435	180.14
189.823	180.14
190.211	30.32
190.599	7.4
190.987	86.88
191.375	218.87
191.763	-4886.05
192.151	-35.75
192.538	94.31
192.926	104.17
193.314	1543.21
193.702	86.83
194.089	-2483.85
194.477	-215.55
194.864	149.98
195.252	69.48
195.639	-23.46
196.027	382.06
196.414	93.87
196.801	89.7
197.189	-41.28
197.576	167.25
197.963	346.01
198.351	-46.78
198.738	24.38
199.125	6.49
199.512	-21.11
199.899	-11.04
200.286	-44.47
200.673	-38.08
201.06	-12.61
201.447	-56.61
201.833	41.15
202.22	1.07
202.607	33.22
202.994	26.32
203.38	25.27
203.767	14.35
204.154	44.76
204.54	-6.14
204.927	-9.02
205.313	18.79
205.699	15.85
206.086	11.07
206.472	7.13
206.858	2.08
207.245	8.57
207.631	-15.68
208.017	22.65
208.403	11.02
208.789	23.96
209.175	-1.86
209.561	-6.22
209.947	-49.08
210.333	6.94
210.719	13.72
211.105	-24.25
211.491	22.37
211.876	5.31
212.262	-23.6
212.648	8.79
213.034	27.57
213.419	-25.58
213.805	5.8
214.19	-28.83
214.576	17.03
214.961	24.83
215.346	-3.84
215.732	7.23
216.117	1.29
216.502	-4.48
216.888	-2.24
217.273	0.72
217.658	-19.66
218.043	13.81
218.428	20.72
218.813	18.15
219.198	-18.32
219.583	-13.55
219.968	-1.33
220.353	-2.7
220.738	8.15
221.122	-5.1
221.507	8.99
221.892	5.69
222.276	-1.76
222.661	12.89
223.046	8.91
223.43	1.91
223.815	-2.45
224.199	1.07
224.583	2.91
224.968	0.22
225.352	4.28
225.736	-0.86
226.121	-4.04
226.505	1.1
226.889	-5.07
227.273	7.48
227.657	1.57
228.041	8.46
228.425	2.46
228.809	2.93
229.193	3.62
229.577	2.34
229.961	4.6
230.344	3.87
230.728	3.55
231.112	3.47
231.495	4.03
231.879	4.46
232.263	3.51
232.646	3.01
233.03	2.15
233.413	2.18
233.797	2.64
234.18	3.65
234.563	3.2
234.946	2.74
235.33	3.59
235.713	3.78
236.096	2.96
236.479	3.05
236.862	2.17
237.245	3.53
237.628	2.39
238.011	3.05
238.394	4.7
238.777	4.77
239.16	3.16
239.543	3.69
239.925	3.97
240.308	4.82
240.691	3.5
241.073	2.63
241.456	4.39
241.838	2.76
242.221	4.07
242.603	3.7
242.986	3.82
243.368	3.49
243.75	3.39
244.133	3.47
244.515	3.11
244.897	3.2
245.279	3.06
245.661	3.54
246.043	3.59
246.425	2.32
246.807	3.39
247.189	3.18
247.571	4.01
247.953	3.09
248.335	3.05
248.717	3.23
249.098	3.31
249.48	3.22
249.862	3.48
250.243	3.35
250.625	3.23
251.006	2.83
251.388	3.02
251.769	3.24
252.151	3.64
252.532	2.83
252.913	2.85
253.295	3.61
253.676	2.95
254.057	3.01
254.438	3.08
254.819	2.79
255.2	2.64
255.581	3.8
255.962	3.64
256.343	2.98
256.724	3.72
257.105	2.79
257.486	3.54
257.867	5
258.247	3.32
258.628	2.7
259.009	2.73
259.389	2.77
259.77	3.78
260.15	3.07
260.531	2.85
260.911	2.81
261.292	2.57
261.672	2.74
262.052	2.89
262.432	3.01
262.813	2.62
263.193	2.14
263.573	2.95
263.953	2.68
264.333	2.96
264.713	2.79
265.093	2.82
265.473	3.47
265.853	2.51
266.233	2.95
266.612	3.41
266.992	3.49
267.372	2.49
267.752	3.77
268.131	2.37
268.511	2.99
268.89	3.35
269.27	3
269.649	2.72
270.029	2.41
270.408	2.7
270.787	2.94
271.167	2.49
271.546	3.23
271.925	2.57
272.304	2.34
272.683	2.83
273.062	2.78
273.441	3
273.82	2.57
274.199	2.75
274.578	2.97
274.957	2.55
275.336	2.62
275.715	2.64
276.093	2.86
276.472	2.29
276.851	2.64
277.229	2.73
277.608	2.54
277.986	3.13
278.365	3.36
278.743	2.84
279.122	3.03
279.5	2.82
279.878	2.6
280.257	2.28
280.635	2.54
281.013	3.13
281.391	2.9
281.769	2.88
282.147	2.5
282.525	2.91
282.903	2.69
283.281	3.17
283.659	2.46
284.037	2.63
284.415	2.52
284.792	2.76
285.17	2.24
285.548	2.79
285.925	2.88
286.303	3.28
286.68	2.95
287.058	2.84
287.435	2.63
287.813	2.65
288.19	2.66
288.567	2.62
288.945	2.87
289.322	2.77
289.699	2.66
290.076	2.37
290.453	2.46
290.83	2.52
291.207	2.56
291.584	2.95
291.961	2.74
292.338	2.94
292.715	2.59
293.092	2.8
293.469	2.61
293.845	2.4
294.222	2.43
294.599	1.77
294.975	2.63
295.352	2.53
295.728	2.67
296.105	2.71
296.481	2.53
296.858	2.48
297.234	3.16
297.61	2.78
297.986	2.47
298.363	2.21
298.739	2.56
299.115	2.73
299.491	2.73
299.867	2.44
300.243	2.57
300.619	2.8
300.995	2.63
301.371	3.08
301.746	2.27
302.122	2.53
302.498	2.52
302.874	2.62
303.249	2.52
303.625	2.4
304	2.61
304.376	2.12
304.751	2.36
305.127	2.22
305.502	2.56
305.878	2.24
306.253	2.62
306.628	2.09
307.003	2.54
307.378	2.49
307.754	2.44
308.129	2.18
308.504	2.52
308.879	2.45
309.254	2.99
309.629	2.49
310.003	2.3
310.378	2.82
310.753	2.76
311.128	2.57
311.502	2.62
311.877	2.49
312.252	2.27
312.626	2.37
313.001	2.23
313.375	2.45
313.75	2.21
314.124	2.65
314.498	2.62
314.873	2.49
315.247	2.77
315.621	2.36
315.995	2.65
316.369	2.64
316.743	2.75
317.117	2.34
317.491	2.48
317.865	2.32
318.239	2.64
318.613	3.31
318.987	2.24
319.361	2.5
319.734	2.61
320.108	2.61
320.482	1.81
320.855	2.47
321.229	2.07
321.602	2.21
321.976	2.1
322.349	2.96
322.723	2.14
323.096	2.55
323.469	2.7
323.843	2.71
324.216	2.9
324.589	2.57
324.962	2.59
325.335	2.57
325.708	2.07
326.081	2.76
326.454	2.13
326.827	2.6
327.2	2.24
327.573	2.39
327.945	2.93
328.318	1.96
328.691	2.48
329.063	2.41
329.436	2.6
329.809	2.55
330.181	2.66
330.553	2.74
330.926	2.55
331.298	2.78
331.671	2.15
332.043	2.39
332.415	2.83
332.787	2.15
333.159	2.33
333.532	2.26
333.904	2.85
334.276	2.41
334.648	2.78
335.02	1.9
335.391	2.46
335.763	2.69
336.135	2.79
336.507	2.43
336.879	2.36
337.25	3.03
337.622	2.9
337.993	2.23
338.365	2.79
338.736	2.95
339.108	2.7
339.479	2.58
339.851	2.48
340.222	2.78
340.593	2.8
340.964	2.69
341.336	2.16
341.707	2.1
342.078	2.88
342.449	2.31
342.82	2.57
343.191	2.51
343.562	2.7
343.933	2.43
344.303	2.74
344.674	2.85
345.045	2.34
345.416	2.23
345.786	2.85
346.157	2.79
346.527	2.93
346.898	2.96
347.268	2.06
347.639	2.5
348.009	2.4
348.38	2.34
348.75	2.5
349.12	2.09
349.49	2.86
349.861	2.65
350.231	2.78
350.601	2.58
350.971	2.61
351.341	2.68
351.711	2.75
352.081	2.77
352.45	2.6
352.82	2.35
353.19	2.52
353.56	2.84
353.929	2.5
354.299	2.94
354.669	2.89
355.038	3.16
355.408	2.47
355.777	2.53
356.147	2.29
356.516	2.58
356.885	2.68
357.254	2.78
357.624	2.63
357.993	2.6
358.362	2.41
358.731	2.81
359.1	2.62
359.469	2.69
359.838	3
360.207	2.48
360.576	2.9
360.945	3.07
361.314	3
361.682	2.85
362.051	2.64
362.42	2.87
362.788	2.54
363.157	2.8
363.525	2.82
363.894	2.71
364.262	2.9
364.631	2.89
364.999	2.76
365.367	2.63
365.735	2.93
366.104	2.62
366.472	2.67
366.84	2.58
367.208	2.9
367.576	2.76
367.944	2.92
368.312	2.85
368.68	2.79
369.048	2.97
369.416	2.51
369.783	2.38
370.151	2.65
370.519	3.34
370.886	2.82
371.254	2.73
371.621	2.78
371.989	2.7
372.356	3
372.724	3.14
373.091	2.98
373.458	2.67
373.826	3.04
374.193	2.76
374.56	2.8
374.927	2.98
375.294	2.61
375.661	3.18
376.028	2.71
376.395	2.81
376.762	3.11
377.129	2.82
377.496	2.8
377.863	2.91
378.229	2.79
378.596	2.84
378.963	2.51
379.329	2.61
379.696	2.61
380.062	3.05
380.429	2.85
380.795	2.69
381.161	2.75
381.528	2.87
381.894	2.79
382.26	2.97
382.626	2.65
382.993	3.07
383.359	2.95
383.725	2.89
384.091	2.99
384.457	2.81
384.823	3.15
385.188	2.79
385.554	2.54
385.92	2.64
386.286	2.8
386.651	2.89
387.017	2.74
387.383	2.82
387.748	2.52
388.114	2.73
388.479	3.44
388.845	2.88
389.21	3.11
389.575	2.92
389.94	2.83
390.306	3
390.671	2.88
391.036	2.48
391.401	3.16
391.766	2.67
392.131	2.67
392.496	3.05
392.861	2.99
393.226	2.63
393.591	2.95
393.956	2.96
394.32	2.68
394.685	2.91
395.05	3.11
395.414	2.96
395.779	3.06
396.143	2.84
396.508	2.9
396.872	2.88
397.236	3.16
397.601	2.95
397.965	2.9
398.329	2.99
398.694	3.04
399.058	3
399.422	2.92
399.786	2.85
400.15	2.87
400.514	2.9
400.878	3
401.242	2.87
401.605	2.82
401.969	3.08
402.333	3.11
402.697	2.97
403.06	3
403.424	3.02
403.787	2.85
404.151	2.9
404.514	3.09
404.878	3.09
405.241	2.96
405.604	3.1
405.968	2.9
406.331	2.84
406.694	2.81
407.057	2.94
407.42	3.02
407.783	2.75
408.146	2.85
408.509	2.98
408.872	3.04
409.235	2.81
409.598	2.88
409.961	3.07
410.323	2.98
410.686	3.01
411.049	2.96
411.411	2.92
411.774	2.89
412.136	3.11
412.499	3.02
412.861	3.05
413.223	2.94
413.586	2.92
413.948	3.02
414.31	3.02
414.672	3.1
415.035	2.98
415.397	2.73
415.759	3.07
416.121	3
416.483	2.84
416.845	2.9
417.206	2.82
417.568	2.99
417.93	2.96
418.292	2.88
418.653	3.04
419.015	3.03
419.377	2.86
419.738	3.05
420.1	3.04
420.461	3.03
420.822	2.85
421.184	2.93
421.545	2.92
421.906	2.91
422.267	2.89
422.629	2.95
422.99	2.89
423.351	2.8
423.712	2.89
424.073	2.96
424.434	2.86
424.795	2.98
425.155	3
425.516	2.96
425.877	2.94
426.238	2.89
426.598	2.86
426.959	2.92
427.32	2.88
427.68	2.93
428.041	2.88
428.401	3.05
428.761	3.03
429.122	2.89
429.482	3.05
429.842	2.72
430.202	3.08
430.563	3.06
430.923	3.08
431.283	3.12
431.643	3.08
432.003	3.11
432.363	3.02
432.722	2.94
433.082	3.11
433.442	2.92
433.802	2.81
434.161	3.01
434.521	3.02
434.881	2.97
435.24	2.84
435.6	3.04
435.959	3.02
436.319	3.04
436.678	3.07
437.037	3.03
437.396	3.14
437.756	3.05
438.115	2.92
438.474	3.13
438.833	3.06
439.192	2.84
439.551	2.98
439.91	3.18
440.269	3.05
440.628	3.01
440.987	3.08
441.345	3.1
441.704	3.02
442.063	2.93
442.421	3.07
442.78	3.05
443.138	2.98
443.497	3.01
443.855	2.91
444.214	3.19
444.572	2.98
444.93	3.01
445.288	3.01
445.647	3.11
446.005	2.97
446.363	2.97
446.721	2.95
447.079	2.97
447.437	2.94
447.795	2.99
448.153	2.87
448.51	3
448.868	2.94
449.226	2.97
449.584	2.99
449.941	2.96
450.299	3.03
450.656	3
451.014	3.02
451.371	3.16
451.729	3.05
452.086	3.01
452.443	3.01
452.801	3.08
453.158	3.25
453.515	3.15
453.872	2.93
454.229	3.2
454.586	2.95
454.943	3.08
455.3	2.97
455.657	2.96
456.014	3
456.371	3.04
456.727	3.14
457.084	3.15
457.441	3.09
457.797	3.1
458.154	3.12
458.51	3.21
458.867	2.93
459.223	3.09
459.58	3.27
459.936	3.02
460.292	3.13
460.648	2.98
461.005	2.91
461.361	3.03
461.717	3.02
462.073	3.05
462.429	3.06
462.785	3.04
463.141	3.2
463.496	3.04
463.852	3.16
464.208	3.21
464.564	3.1
464.919	3.28
465.275	3.17
465.631	3.24
465.986	3.14
466.342	3.08
466.697	3.11
467.052	3.21
467.408	3.12
467.763	3.08
468.118	3.25
468.473	3.12
468.829	2.98
469.184	3.11
469.539	3.13
469.894	3.3
470.249	2.99
470.603	3.04
470.958	3.07
471.313	3.13
471.668	3.02
472.023	3.05
472.377	3.19
472.732	3.1
473.086	3.2
473.441	3.21
473.795	3.19
474.15	3.22
474.504	3.15
474.859	2.98
475.213	3.07
475.567	2.93
475.921	3.05
476.275	3.19
476.63	3.1
476.984	3.12
477.338	3.14
477.692	3.21
478.045	3.18
478.399	3.09
478.753	3.18
479.107	3.12
479.461	3.26
479.814	3.26
480.168	3.15
480.521	3.01
480.875	3.21
481.228	3.17
481.582	3.25
481.935	3.12
482.289	3.11
482.642	3.17
482.995	3.22
483.348	3.2
483.701	3.12
484.055	2.99
484.408	3.08
484.761	3
485.114	2.89
485.466	2.84
485.819	2.82
486.172	2.84
486.525	2.89
486.878	3.02
487.23	3.07
487.583	3.07
487.936	3.16
488.288	3.1
488.641	3
488.993	2.92
489.345	2.93
489.698	2.86
490.05	2.96
490.402	2.9
490.754	3
491.107	3.08
491.459	3.15
491.811	3.14
492.163	3.14
492.515	3.1
492.866	3.03
493.218	2.95
493.57	2.94
493.922	3
494.274	3
494.625	3.11
494.977	3.17
495.328	3.21
495.68	3.08
496.031	3.27
496.383	3.11
496.734	3.15
497.086	3.21
497.437	3.28
497.788	3.15
498.139	3.12
498.49	2.95
498.842	3.18
499.193	3.12
499.544	3.16
499.894	3.07
500.245	3.1
500.596	3.14
500.947	3.22
501.298	3.1
501.648	3.16
501.999	3.29
502.35	3.19
502.7	3.1
503.051	3.18
503.401	3.12
503.752	3.39
504.102	3.22
504.452	3.12
504.803	3.26
505.153	3.17
505.503	3.2
505.853	3.05
506.203	3.17
506.553	3.26
506.903	3.27
507.253	3.21
507.603	3.18
507.953	3.19
508.303	3.31
508.652	3.26
509.002	3.22
509.352	3.3
509.701	3.22
510.051	3.21
510.4	3.08
510.75	3.17
511.099	3.21
511.449	3.14
511.798	3.1
512.147	3.16
512.496	3.1
512.846	3
513.195	3.2
513.544	3.15
513.893	3.13
514.242	3.05
514.591	3.11
514.939	3.23
515.288	3.14
515.637	3.12
515.986	3.12
516.334	3.19
516.683	3.18
517.032	3.21
517.38	3.29
517.729	3.17
518.077	3.27
518.426	3.15
518.774	3.26
519.122	3.24
519.47	3.2
519.819	3.11
520.167	3.16
520.515	3.11
520.863	2.95
521.211	3.04
521.559	3.18
521.907	3.09
522.255	3.22
522.602	3.21
522.95	3.25
523.298	3.28
523.645	3.22
523.993	3.17
524.341	3.13
524.688	3.24
525.036	3.14
525.383	3.18
525.73	3.27
526.078	3.18
526.425	3.15
526.772	3.12
527.119	3.05
527.466	3.12
527.814	3.01
528.161	3.01
528.508	3.02
528.854	3.08
529.201	3.03
529.548	3.02
529.895	2.96
530.242	2.89
530.588	2.88
530.935	2.89
531.282	2.98
531.628	3
531.975	3.12
532.321	3.13
532.667	3.12
533.014	3.14
533.36	3.11
533.706	3.15
534.052	3.09
534.399	3.09
534.745	3.07
535.091	2.96
535.437	2.95
535.783	3.01
536.129	3.11
536.474	3.12
536.82	3.13
537.166	3.1
537.512	3.23
537.857	3.17
538.203	3.06
538.549	3
538.894	3.11
539.239	3.07
539.585	3.08
539.93	3.15
540.276	3.13
540.621	3.09
540.966	3.2
541.311	3.02
541.656	3.16
542.001	3.06
542.346	3.05
542.691	3.05
543.036	2.91
543.381	2.95
543.726	2.98
544.071	3.02
544.415	3.05
544.76	3.04
545.105	3.05
545.449	3.1
545.794	3.08
546.138	3.06
546.483	3.12
546.827	3.17
547.171	3.18
547.516	3.15
547.86	3.15
548.204	3.13
548.548	3.04
548.892	3.01
549.236	3.05
549.58	3.15
549.924	3.25
550.268	3.21
550.612	3.01
550.956	3.18
551.3	3.21
551.643	3.21
551.987	3.11
552.33	3.24
552.674	3.12
553.017	3.28
553.361	3.28
553.704	3.09
554.048	3.23
554.391	3.09
554.734	3.1
555.077	3.09
555.42	3.2
555.764	3.31
556.107	3.27
556.45	3.28
556.793	3.26
557.135	3.31
557.478	3.14
557.821	3.19
558.164	3.23
558.507	3.04
558.849	3.12
559.192	3.34
559.534	3.03
559.877	3.32
560.219	3.06
560.562	3.24
560.904	3.3
561.246	3.1
561.589	3.31
561.931	3.19
562.273	3.18
562.615	3.16
562.957	3.04
563.299	3.19
563.641	3.16
563.983	3.05
564.325	3.21
564.667	3.17
565.008	3.06
565.35	3.25
565.692	3.43
566.033	3.15
566.375	3.18
566.716	3.2
567.058	3.18
567.399	3.19
567.741	3.29
568.082	3.18
568.423	3.1
568.764	3.15
569.105	3.06
569.447	3.14
569.788	3.22
570.129	3.25
570.47	3.18
570.811	3.04
571.151	3.11
571.492	3.37
571.833	3
572.174	3.32
572.514	2.99
572.855	2.97
573.195	3.03
573.536	3.03
573.876	3.07
574.217	3.11
574.557	3.09
574.898	3.09
575.238	3.05
575.578	3.35
575.918	3.21
576.258	3.06
576.598	3.17
576.938	3.21
577.278	2.86
577.618	2.91
577.958	2.97
578.298	3.11
578.638	3.17
578.977	3.25
579.317	3.08
579.657	3.09
579.996	3.27
580.336	3.3
580.675	3.01
581.014	3.15
581.354	3.05
581.693	3.3
582.032	3.05
582.372	3.45
582.711	3.27
583.05	3.25
583.389	3.13
583.728	3.04
584.067	3.36
584.406	2.98
584.745	3.36
585.083	3.22
585.422	3.14
585.761	3.02
586.1	3.14
586.438	3.02
586.777	3.18
587.115	3.33
587.454	3.37
587.792	3.24
588.13	3.18
588.469	3.34
588.807	3.12
589.145	3.1
589.483	2.98
589.821	3.24
590.159	3.15
590.497	3.4
590.835	3.04
591.173	2.99
591.511	3.17
591.849	3.13
592.187	3.01
592.524	3.2
592.862	3.16
593.2	3.09
593.537	3.16
593.875	3.25
594.212	3.04
594.55	3.02
594.887	3.15
595.224	3.18
595.561	2.81
595.899	3.08
596.236	3.14
596.573	2.99
596.91	3.1
597.247	3.29
597.584	2.95
597.921	3.26
598.258	3.19
598.594	2.75
598.931	3.05
599.268	3.2
599.604	3.02
599.941	3.09
600.277	3.19
600.614	3.22
600.95	3.17
601.287	2.93
601.623	3.2
601.959	3.12
602.296	3.07
602.632	3.24
602.968	3.16
603.304	3.03
603.64	3.36
603.976	2.86
604.312	3.04
604.648	3.02
604.984	2.9
605.319	3.04
605.655	3.07
605.991	3.09
606.326	3.02
606.662	2.95
606.998	3.07
607.333	2.91
607.668	3.14
608.004	3.07
608.339	3.14
608.674	3.17
609.01	3.14
609.345	3.2
609.68	2.89
610.015	3.21
610.35	3.14
610.685	3.14
611.02	3.04
611.355	3.07
611.689	3.08
612.024	3.2
612.359	3.15
612.694	3.07
613.028	3.26
613.363	3.35
613.697	3.12
614.032	3.26
614.366	3.04
614.7	3.16
615.035	3.24
615.369	2.89
615.703	3.57
616.037	3.03
616.371	3.15
616.705	3.16
617.039	3.18
617.373	3.05
617.707	3.33
618.041	2.96
618.375	3.28
618.709	3.54
619.042	3.17
619.376	3.43
619.71	2.91
620.043	3.48
620.377	3.46
620.71	3.36
621.043	3
621.377	3.44
621.71	3.32
622.043	3.22
622.376	3.28
622.709	3.36
623.043	3.19
623.376	3.59
623.709	3.2
624.041	3.6
624.374	3.31
624.707	3.05
625.04	3.42
625.373	3.28
625.705	3.01
626.038	3.1
626.37	3.07
626.703	3.15
627.035	3.38
627.368	3.24
627.7	2.88
628.032	2.94
628.365	3.35
628.697	3.02
629.029	3.12
629.361	3.08
629.693	3.1
630.025	3.38
630.357	3.09
630.689	3.25
631.021	3
631.353	3.08
631.684	3.24
632.016	3.19
632.348	3.29
632.679	3.1
633.011	3.02
633.342	2.95
633.674	2.95
634.005	3.45
634.336	3.43
634.668	3.52
634.999	3.09
635.33	2.94
635.661	3.32
635.992	3.22
636.323	3.22
636.654	3.02
636.985	3.3
637.316	3.14
637.647	2.86
637.977	3.38
638.308	3.46
638.639	3.28
638.969	3.07
639.3	3.44
639.63	3.2
639.961	3.21
640.291	3.35
640.622	3.19
640.952	3.36
641.282	3.23
641.612	3.18
641.943	2.78
642.273	2.9
642.603	3.19
642.933	2.96
643.263	2.9
643.592	3.17
643.922	3.68
644.252	3.5
644.582	3.14
644.911	3.12
645.241	2.78
645.571	3.26
645.9	3.04
646.23	2.79
646.559	3.34
646.888	2.54
647.218	3.25
647.547	3.51
647.876	3.47
648.205	2.69
648.534	3.56
648.863	3.23
649.192	3.07
649.521	3.12
649.85	3.57
650.179	3.27
650.508	2.9
650.837	3.34
651.165	3.18
651.494	3.25
651.822	3.12
652.151	2.94
652.479	2.71
652.808	3.02
653.136	3.41
653.465	3.01
653.793	3.38
654.121	3.08
654.449	2.76
654.777	2.8
655.105	2.98
655.433	2.97
655.761	2.98
656.089	3.02
656.417	3.13
656.745	3.01
657.073	2.95
657.4	3.12
657.728	3.14
658.056	2.45
658.383	3.54
658.711	3.29
659.038	3.18
659.365	3.89
659.693	3.6
660.02	3.41
660.347	3.1
660.674	3.38
661.001	3.05
661.329	2.99
661.656	3.19
661.982	2.88
662.309	3.4
662.636	3.2
662.963	2.78
663.29	2.94
663.616	3.68
663.943	3.29
664.27	3.56
664.596	3.4
664.923	3.08
665.249	3.57
665.576	3.16
665.902	2.34
666.228	2.95
666.554	3.65
666.881	3.72
667.207	3.29
667.533	2.93
667.859	3.4
668.185	3.65
668.511	3.28
668.837	3.22
669.162	3.27
669.488	3.06
669.814	2.75
670.139	3.3
670.465	3.45
670.791	3.05
671.116	3.08
671.442	3.33
671.767	3.08
672.092	2.81
672.418	3.11
672.743	3.81
673.068	3.21
673.393	3.85
673.718	3.15
674.043	3.13
674.368	2.17
674.693	3.2
675.018	3.12
675.343	3.01
675.667	3.5
675.992	3.69
676.317	2.99
676.641	3.11
676.966	3.23
677.29	3.06
677.615	3.31
677.939	3.08
678.264	3.54
678.588	3.62
678.912	4
679.236	3.13
679.56	3.24
679.885	3.16
680.209	3.62
680.532	2.88
680.856	3.15
681.18	2.76
681.504	3.69
681.828	2.82
682.152	3.5
682.475	3.24
682.799	3.47
683.122	3.36
683.446	3.12
683.769	2.66
684.093	3.23
684.416	2.82
684.739	3.46
685.062	3.99
685.386	3.48
685.709	3.55
686.032	3.58
686.355	4.08
686.678	3.45
687.001	3.57
687.324	3.25
687.646	3.39
687.969	3.19
688.292	3.06
688.614	3.43
688.937	3.07
689.26	3.47
689.582	4.03
689.904	4.14
690.227	3.12
690.549	3.61
690.871	3.51
691.194	3.47
691.516	2.87
691.838	3
692.16	3.87
692.482	2.73
692.804	2.49
693.126	2.9
693.448	3.12
693.769	3.79
