Data from 0037_crown_Reflection__2__52.txt Node

Date: Fri Nov 04 15:08:24 CDT 2022
User: ToomeyLab
Spectrometer: FLMS14357
Trigger mode: 0
Integration Time (sec): 1.000000E-2
Scans to average: 100
Electric dark correction enabled: true
Nonlinearity correction enabled: false
Boxcar width: 0
XAxis mode: Wavelengths
Number of Pixels in Spectrum: 2048
>>>>>Begin Spectral Data<<<<<
189.047	972.09
189.435	972.09
189.823	972.09
190.211	-174.36
190.599	-196.05
190.987	80.88
191.375	213.69
191.763	41.86
192.151	55.31
192.538	92.82
192.926	203.52
193.314	396.88
193.702	82.31
194.089	440.99
194.477	127.37
194.864	-93.58
195.252	42.63
195.639	-46.58
196.027	485.18
196.414	-542.27
196.801	118.16
197.189	-31.94
197.576	395.8
197.963	-119.76
198.351	-15.98
198.738	3.62
199.125	21.4
199.512	-17.99
199.899	5.31
200.286	-21.25
200.673	-29.41
201.06	-55.58
201.447	-49.19
201.833	20.13
202.22	44.67
202.607	-46.99
202.994	23.55
203.38	18.91
203.767	-1.7
204.154	35.82
204.54	-25.06
204.927	-24.52
205.313	11.27
205.699	7.48
206.086	3.17
206.472	-41.67
206.858	-10.42
207.245	-9.24
207.631	-10.94
208.017	-4.17
208.403	6.63
208.789	1.72
209.175	-19.02
209.561	-79.22
209.947	-67.39
210.333	9.89
210.719	-9.67
211.105	-51.89
211.491	4.24
211.876	-26.36
212.262	-6.41
212.648	-32.77
213.034	-7.49
213.419	-15.24
213.805	-18.78
214.19	-43.66
214.576	-13.31
214.961	6.56
215.346	-22.34
215.732	-21.79
216.117	3.34
216.502	-3.29
216.888	-6.17
217.273	-10.02
217.658	5.28
218.043	-15.21
218.428	2.33
218.813	-9
219.198	-0.13
219.583	-20.88
219.968	1.96
220.353	20.28
220.738	-34.63
221.122	-11.92
221.507	4.91
221.892	-1.87
222.276	-16.1
222.661	-3.36
223.046	4.47
223.43	2.52
223.815	-2.51
224.199	12.53
224.583	-2.18
224.968	-7.03
225.352	3.36
225.736	-1.59
226.121	-7.02
226.505	5.1
226.889	1.5
227.273	-0.99
227.657	-0.65
228.041	3.79
228.425	5.6
228.809	2.1
229.193	5.06
229.577	4.34
229.961	5.95
230.344	5.74
230.728	4.99
231.112	4.94
231.495	5.43
231.879	5.44
232.263	4.15
232.646	4.66
233.03	2.25
233.413	2.92
233.797	4.53
234.18	3.86
234.563	5.23
234.946	4.43
235.33	5.22
235.713	5.27
236.096	6.15
236.479	5.3
236.862	3.38
237.245	4.53
237.628	3.58
238.011	2.27
238.394	4.01
238.777	5.77
239.16	5.16
239.543	3.27
239.925	4.84
240.308	4.59
240.691	4.86
241.073	4.8
241.456	4.21
241.838	3.82
242.221	5.18
242.603	5.51
242.986	4.52
243.368	5.49
243.75	5.16
244.133	5.09
244.515	4.93
244.897	5.31
245.279	4.92
245.661	5
246.043	5.19
246.425	4.3
246.807	4.92
247.189	4.89
247.571	4.93
247.953	4.96
248.335	4.58
248.717	4.75
249.098	4.71
249.48	4.8
249.862	4.94
250.243	4.59
250.625	4.41
251.006	4.36
251.388	4.86
251.769	3.98
252.151	5.68
252.532	4.42
252.913	3.66
253.295	5.04
253.676	4.51
254.057	4.14
254.438	4.31
254.819	4.69
255.2	3.7
255.581	4.24
255.962	5.34
256.343	4.38
256.724	3.36
257.105	4.19
257.486	4.93
257.867	6.59
258.247	4
258.628	3.1
259.009	4.1
259.389	4.36
259.77	4.72
260.15	3.57
260.531	4.3
260.911	3.73
261.292	4.4
261.672	4.36
262.052	4.3
262.432	4.34
262.813	4.22
263.193	3.55
263.573	4.51
263.953	4.05
264.333	3.97
264.713	4.21
265.093	3.77
265.473	4.52
265.853	3.08
266.233	3.89
266.612	4.64
266.992	3.55
267.372	3
267.752	3.66
268.131	4.3
268.511	4.09
268.89	4.2
269.27	4.06
269.649	4.29
270.029	3.93
270.408	3.72
270.787	4.26
271.167	3.3
271.546	4.27
271.925	4
272.304	3.85
272.683	4.08
273.062	4.32
273.441	4.45
273.82	3.68
274.199	3.98
274.578	3.85
274.957	3.74
275.336	3.62
275.715	3.58
276.093	3.72
276.472	3.63
276.851	3.58
277.229	3.61
277.608	3.73
277.986	4.14
278.365	3.8
278.743	3.55
279.122	3.76
279.5	3.95
279.878	3.76
280.257	3.91
280.635	3.72
281.013	4.16
281.391	3.92
281.769	3.69
282.147	2.76
282.525	3.91
282.903	3.78
283.281	4.17
283.659	3.69
284.037	3.56
284.415	3.49
284.792	3.83
285.17	3.33
285.548	4.09
285.925	3.4
286.303	3.57
286.68	4.15
287.058	3.48
287.435	3.69
287.813	3.38
288.19	3.76
288.567	3.52
288.945	3.55
289.322	4.08
289.699	3.91
290.076	3.67
290.453	3.26
290.83	3.43
291.207	3.18
291.584	4.04
291.961	3.58
292.338	3.87
292.715	3.81
293.092	3.57
293.469	3.54
293.845	3.61
294.222	3.8
294.599	3.03
294.975	3.39
295.352	3.34
295.728	3.51
296.105	3.83
296.481	3.55
296.858	3.83
297.234	3.7
297.61	3.87
297.986	3.22
298.363	3.28
298.739	3.47
299.115	3.72
299.491	3.63
299.867	3.53
300.243	3.54
300.619	3.51
300.995	3.51
301.371	3.95
301.746	3.36
302.122	3.45
302.498	3.37
302.874	3.45
303.249	2.93
303.625	3.1
304	3.51
304.376	3.26
304.751	3.43
305.127	2.66
305.502	3.63
305.878	3.67
306.253	3.62
306.628	3.19
307.003	3.33
307.378	3.45
307.754	3.73
308.129	3.22
308.504	3.14
308.879	3.55
309.254	3.49
309.629	3.55
310.003	3.18
310.378	3.44
310.753	3.54
311.128	3.26
311.502	3.33
311.877	3.19
312.252	3.77
312.626	3.25
313.001	3.71
313.375	3.23
313.75	3.52
314.124	3.36
314.498	3.65
314.873	3.49
315.247	3.45
315.621	3.51
315.995	3.71
316.369	3.44
316.743	3.39
317.117	3.65
317.491	3.76
317.865	3.42
318.239	3.17
318.613	3.54
318.987	3.5
319.361	3.57
319.734	3.65
320.108	3.55
320.482	2.44
320.855	3.27
321.229	3.32
321.602	3.28
321.976	3.54
322.349	3.66
322.723	3.28
323.096	3.46
323.469	3.08
323.843	3.52
324.216	3.27
324.589	2.82
324.962	3.59
325.335	3.27
325.708	3.04
326.081	3.25
326.454	3.33
326.827	3.43
327.2	3.69
327.573	3.26
327.945	3.61
328.318	3.09
328.691	3.21
329.063	3.11
329.436	3.56
329.809	3.72
330.181	3.34
330.553	3.3
330.926	3.41
331.298	3.61
331.671	3.41
332.043	3.49
332.415	3.12
332.787	3.25
333.159	3.23
333.532	3.21
333.904	3.32
334.276	3.16
334.648	3.79
335.02	3.4
335.391	3.83
335.763	3.56
336.135	3.13
336.507	3.38
336.879	3.39
337.25	3.63
337.622	3.44
337.993	3.61
338.365	3.37
338.736	3.82
339.108	3.23
339.479	3.87
339.851	3.12
340.222	3.55
340.593	3.34
340.964	3.48
341.336	3.56
341.707	3.34
342.078	3.57
342.449	3.79
342.82	3.43
343.191	3.22
343.562	3.59
343.933	3.93
344.303	3.7
344.674	3.66
345.045	3.47
345.416	3.02
345.786	3.77
346.157	3.83
346.527	3.59
346.898	3.96
347.268	3.18
347.639	3.3
348.009	4.05
348.38	3.44
348.75	3.47
349.12	3.48
349.49	3.86
349.861	3.37
350.231	3.81
350.601	3.3
350.971	3.59
351.341	3.84
351.711	3.48
352.081	3.52
352.45	3.84
352.82	3.85
353.19	3.86
353.56	3.83
353.929	3.42
354.299	4.21
354.669	3.71
355.038	4.04
355.408	3.23
355.777	3.64
356.147	3.38
356.516	3.38
356.885	3.38
357.254	3.65
357.624	3.82
357.993	3.79
358.362	3.49
358.731	3.63
359.1	3.68
359.469	3.81
359.838	3.82
360.207	3.65
360.576	3.81
360.945	3.82
361.314	3.65
361.682	3.7
362.051	3.82
362.42	4
362.788	3.74
363.157	3.81
363.525	3.98
363.894	3.91
364.262	3.78
364.631	3.99
364.999	4.06
365.367	3.72
365.735	4.12
366.104	3.37
366.472	3.91
366.84	3.59
367.208	3.82
367.576	3.89
367.944	4.13
368.312	3.97
368.68	3.69
369.048	3.69
369.416	3.8
369.783	3.54
370.151	3.65
370.519	4.22
370.886	3.71
371.254	3.83
371.621	3.9
371.989	3.8
372.356	3.6
372.724	3.66
373.091	4.06
373.458	3.72
373.826	3.97
374.193	3.73
374.56	3.74
374.927	4.02
375.294	3.81
375.661	3.9
376.028	3.71
376.395	3.94
376.762	4.02
377.129	3.99
377.496	4.23
377.863	3.91
378.229	3.89
378.596	3.89
378.963	3.86
379.329	3.71
379.696	3.89
380.062	4.1
380.429	3.88
380.795	3.78
381.161	3.9
381.528	4.14
381.894	3.55
382.26	4.15
382.626	3.65
382.993	3.96
383.359	3.93
383.725	3.95
384.091	4.1
384.457	3.83
384.823	4.06
385.188	3.98
385.554	4.07
385.92	3.61
386.286	3.95
386.651	3.87
387.017	4.03
387.383	3.99
387.748	3.73
388.114	3.97
388.479	4.41
388.845	4.05
389.21	4.32
389.575	4.31
389.94	4.11
390.306	4.16
390.671	4.16
391.036	3.77
391.401	4.3
391.766	3.96
392.131	3.92
392.496	4.19
392.861	4.14
393.226	3.94
393.591	4.01
393.956	4.37
394.32	3.98
394.685	4.04
395.05	4.27
395.414	4.03
395.779	4.13
396.143	3.99
396.508	4.29
396.872	4.23
397.236	4.16
397.601	3.86
397.965	4.07
398.329	4.1
398.694	4.25
399.058	4.03
399.422	4
399.786	4.08
400.15	4.09
400.514	4.01
400.878	4.04
401.242	4.22
401.605	3.95
401.969	4.22
402.333	4.17
402.697	4.1
403.06	4.09
403.424	3.99
403.787	4.23
404.151	4.22
404.514	4.19
404.878	4.27
405.241	4.09
405.604	4.37
405.968	4.1
406.331	4.23
406.694	4.13
407.057	4.21
407.42	4.21
407.783	4.01
408.146	4.07
408.509	4.17
408.872	4.26
409.235	4.2
409.598	4.18
409.961	4.13
410.323	3.83
410.686	4.22
411.049	4.11
411.411	4.02
411.774	4.13
412.136	4.41
412.499	4.38
412.861	4.2
413.223	4.21
413.586	4.06
413.948	4.3
414.31	4.05
414.672	4.39
415.035	4.21
415.397	4.24
415.759	4.22
416.121	4.13
416.483	4.42
416.845	4.33
417.206	4.23
417.568	4.14
417.93	4.3
418.292	4.14
418.653	4.22
419.015	4.04
419.377	4.19
419.738	4.25
420.1	4.31
420.461	4.19
420.822	4.12
421.184	4.12
421.545	4.08
421.906	4.29
422.267	4.02
422.629	4.18
422.99	4.09
423.351	4.1
423.712	4.13
424.073	4.18
424.434	4.1
424.795	4.21
425.155	4.29
425.516	4.26
425.877	4.16
426.238	4.17
426.598	4.08
426.959	4.06
427.32	4.17
427.68	4.25
428.041	4.2
428.401	4.21
428.761	4.27
429.122	4.16
429.482	4.28
429.842	3.98
430.202	4.42
430.563	4.19
430.923	4.4
431.283	4.26
431.643	4.27
432.003	4.37
432.363	4.3
432.722	4.15
433.082	4.36
433.442	4.24
433.802	4.27
434.161	4.23
434.521	4.14
434.881	4.35
435.24	4.18
435.6	4.33
435.959	4.19
436.319	4.18
436.678	4.29
437.037	4.29
437.396	4.49
437.756	4.32
438.115	4.14
438.474	4.36
438.833	4.34
439.192	4.16
439.551	4.42
439.91	4.29
440.269	4.26
440.628	4.23
440.987	4.31
441.345	4.31
441.704	4.18
442.063	4.23
442.421	4.26
442.78	4.33
443.138	4.27
443.497	4.2
443.855	4.24
444.214	4.31
444.572	4.22
444.93	4.07
445.288	4.31
445.647	4.28
446.005	4.28
446.363	4.27
446.721	4.23
447.079	4.27
447.437	4.28
447.795	4.27
448.153	4.25
448.51	4.28
448.868	4.18
449.226	4.25
449.584	4.29
449.941	4.27
450.299	4.23
450.656	4.26
451.014	4.38
451.371	4.29
451.729	4.43
452.086	4.39
452.443	4.27
452.801	4.38
453.158	4.2
453.515	4.35
453.872	4.3
454.229	4.37
454.586	4.2
454.943	4.44
455.3	4.4
455.657	4.31
456.014	4.38
456.371	4.34
456.727	4.5
457.084	4.37
457.441	4.3
457.797	4.41
458.154	4.46
458.51	4.45
458.867	4.34
459.223	4.38
459.58	4.5
459.936	4.21
460.292	4.35
460.648	4.28
461.005	4.33
461.361	4.34
461.717	4.27
462.073	4.33
462.429	4.39
462.785	4.38
463.141	4.37
463.496	4.45
463.852	4.48
464.208	4.28
464.564	4.46
464.919	4.49
465.275	4.51
465.631	4.47
465.986	4.44
466.342	4.31
466.697	4.59
467.052	4.28
467.408	4.36
467.763	4.32
468.118	4.59
468.473	4.52
468.829	4.42
469.184	4.45
469.539	4.35
469.894	4.43
470.249	4.36
470.603	4.51
470.958	4.42
471.313	4.36
471.668	4.16
472.023	4.45
472.377	4.3
472.732	4.38
473.086	4.37
473.441	4.47
473.795	4.43
474.15	4.46
474.504	4.32
474.859	4.28
475.213	4.49
475.567	4.47
475.921	4.49
476.275	4.49
476.63	4.45
476.984	4.3
477.338	4.44
477.692	4.33
478.045	4.28
478.399	4.32
478.753	4.48
479.107	4.44
479.461	4.56
479.814	4.48
480.168	4.35
480.521	4.31
480.875	4.42
481.228	4.42
481.582	4.36
481.935	4.36
482.289	4.37
482.642	4.42
482.995	4.34
483.348	4.38
483.701	4.42
484.055	4.22
484.408	4.28
484.761	4.25
485.114	4.13
485.466	4.13
485.819	4.06
486.172	4.12
486.525	4.17
486.878	4.23
487.23	4.29
487.583	4.27
487.936	4.31
488.288	4.3
488.641	4.29
488.993	4.17
489.345	4.21
489.698	4.17
490.05	4.22
490.402	4.17
490.754	4.29
491.107	4.29
491.459	4.31
491.811	4.26
492.163	4.36
492.515	4.42
492.866	4.3
493.218	4.22
493.57	4.22
493.922	4.28
494.274	4.25
494.625	4.31
494.977	4.4
495.328	4.45
495.68	4.37
496.031	4.35
496.383	4.41
496.734	4.43
497.086	4.45
497.437	4.51
497.788	4.5
498.139	4.34
498.49	4.37
498.842	4.41
499.193	4.36
499.544	4.43
499.894	4.44
500.245	4.43
500.596	4.33
500.947	4.32
501.298	4.35
501.648	4.46
501.999	4.58
502.35	4.35
502.7	4.32
503.051	4.5
503.401	4.48
503.752	4.55
504.102	4.48
504.452	4.49
504.803	4.38
505.153	4.39
505.503	4.36
505.853	4.52
506.203	4.48
506.553	4.51
506.903	4.4
507.253	4.41
507.603	4.41
507.953	4.46
508.303	4.44
508.652	4.36
509.002	4.44
509.352	4.44
509.701	4.45
510.051	4.41
510.4	4.39
510.75	4.5
511.099	4.36
511.449	4.35
511.798	4.33
512.147	4.38
512.496	4.39
512.846	4.3
513.195	4.53
513.544	4.4
513.893	4.45
514.242	4.3
514.591	4.35
514.939	4.48
515.288	4.44
515.637	4.54
515.986	4.43
516.334	4.25
516.683	4.32
517.032	4.4
517.38	4.45
517.729	4.45
518.077	4.43
518.426	4.48
518.774	4.51
519.122	4.34
519.47	4.4
519.819	4.34
520.167	4.44
520.515	4.34
520.863	4.3
521.211	4.29
521.559	4.37
521.907	4.38
522.255	4.38
522.602	4.45
522.95	4.43
523.298	4.4
523.645	4.35
523.993	4.45
524.341	4.43
524.688	4.37
525.036	4.39
525.383	4.33
525.73	4.51
526.078	4.3
526.425	4.37
526.772	4.29
527.119	4.37
527.466	4.37
527.814	4.31
528.161	4.24
528.508	4.27
528.854	4.26
529.201	4.25
529.548	4.24
529.895	4.25
530.242	4.08
530.588	4.15
530.935	4.14
531.282	4.19
531.628	4.14
531.975	4.23
532.321	4.33
532.667	4.26
533.014	4.27
533.36	4.37
533.706	4.35
534.052	4.27
534.399	4.25
534.745	4.3
535.091	4.2
535.437	4.25
535.783	4.22
536.129	4.29
536.474	4.34
536.82	4.31
537.166	4.35
537.512	4.33
537.857	4.29
538.203	4.17
538.549	4.17
538.894	4.34
539.239	4.32
539.585	4.19
539.93	4.22
540.276	4.38
540.621	4.34
540.966	4.3
541.311	4.25
541.656	4.31
542.001	4.37
542.346	4.25
542.691	4.31
543.036	4.15
543.381	4.15
543.726	4.15
544.071	4.18
544.415	4.27
544.76	4.25
545.105	4.24
545.449	4.33
545.794	4.3
546.138	4.27
546.483	4.33
546.827	4.25
547.171	4.29
547.516	4.33
547.86	4.28
548.204	4.3
548.548	4.17
548.892	4.18
549.236	4.28
549.58	4.28
549.924	4.44
550.268	4.26
550.612	4.19
550.956	4.4
551.3	4.3
551.643	4.35
551.987	4.33
552.33	4.39
552.674	4.22
553.017	4.35
553.361	4.47
553.704	4.36
554.048	4.31
554.391	4.16
554.734	4.23
555.077	4.4
555.42	4.37
555.764	4.38
556.107	4.28
556.45	4.26
556.793	4.2
557.135	4.44
557.478	4.2
557.821	4.45
558.164	4.35
558.507	4.45
558.849	4.49
559.192	4.48
559.534	4.42
559.877	4.31
560.219	4.25
560.562	4.38
560.904	4.47
561.246	4.23
561.589	4.19
561.931	4.34
562.273	4.32
562.615	4.21
562.957	4.24
563.299	4.39
563.641	4.41
563.983	4.31
564.325	4.2
564.667	4.28
565.008	4.22
565.35	4.23
565.692	4.33
566.033	4.36
566.375	4.32
566.716	4.3
567.058	4.22
567.399	4.32
567.741	4.27
568.082	4.21
568.423	4.27
568.764	4.3
569.105	4.27
569.447	4.23
569.788	4.24
570.129	4.33
570.47	4.31
570.811	4.34
571.151	4.26
571.492	4.45
571.833	4.26
572.174	4.35
572.514	4.31
572.855	4.12
573.195	4.24
573.536	4.23
573.876	4.27
574.217	4.22
574.557	4.12
574.898	4.23
575.238	4.19
575.578	4.32
575.918	4.18
576.258	4.12
576.598	4.36
576.938	4.37
577.278	4.18
577.618	4.15
577.958	4.25
578.298	4.09
578.638	4.13
578.977	4.25
579.317	4.22
579.657	4.28
579.996	4.36
580.336	4.18
580.675	4
581.014	4.35
581.354	4.27
581.693	4.37
582.032	3.95
582.372	4.33
582.711	4.18
583.05	4.29
583.389	4.17
583.728	4.17
584.067	4.25
584.406	4.01
584.745	4.2
585.083	4.04
585.422	4.41
585.761	4.32
586.1	4.02
586.438	4.08
586.777	4.27
587.115	4.22
587.454	4.26
587.792	4.4
588.13	4.28
588.469	4.16
588.807	4.2
589.145	4.33
589.483	4.06
589.821	4.3
590.159	4.06
590.497	4.36
590.835	4.1
591.173	4.03
591.511	4.17
591.849	4.31
592.187	4.02
592.524	4.04
592.862	4.16
593.2	4.27
593.537	4.21
593.875	4.24
594.212	4.07
594.55	4.04
594.887	4.28
595.224	4.2
595.561	3.95
595.899	4.05
596.236	4.44
596.573	4.29
596.91	4.29
597.247	3.92
597.584	3.99
597.921	4.33
598.258	4.22
598.594	3.77
598.931	4.01
599.268	4.34
599.604	4.11
599.941	4.11
600.277	4.14
600.614	4.27
600.95	4.21
601.287	4.07
601.623	4.23
601.959	4.12
602.296	4.15
602.632	4.24
602.968	4.41
603.304	4.32
603.64	4.41
603.976	3.92
604.312	4.06
604.648	4.02
604.984	4.05
605.319	4.18
605.655	4.1
605.991	4.2
606.326	3.97
606.662	4.14
606.998	3.97
607.333	3.93
607.668	4.23
608.004	4.05
608.339	4.08
608.674	4.21
609.01	4.2
609.345	3.97
609.68	3.88
610.015	4.23
610.35	4.24
610.685	3.91
611.02	4.28
611.355	4.18
611.689	4.13
612.024	4.16
612.359	4.04
612.694	4.15
613.028	4.26
613.363	4.19
613.697	4.01
614.032	4.06
614.366	3.91
614.7	4.01
615.035	4.13
615.369	4.1
615.703	4.56
616.037	4.01
616.371	4.06
616.705	3.72
617.039	4.11
617.373	4.34
617.707	4.35
618.041	3.74
618.375	3.94
618.709	4.42
619.042	3.97
619.376	3.91
619.71	4.14
620.043	4.28
620.377	4.1
620.71	4.27
621.043	4.01
621.377	4.14
621.71	4.29
622.043	4.39
622.376	4.09
622.709	4.02
623.043	4.15
623.376	4.47
623.709	4.11
624.041	3.97
624.374	3.96
624.707	3.64
625.04	4.26
625.373	4.4
625.705	3.81
626.038	3.99
626.37	4.05
626.703	4.2
627.035	4.12
627.368	4.04
627.7	4.07
628.032	4.01
628.365	4.31
628.697	4.03
629.029	3.97
629.361	3.92
629.693	4.03
630.025	4.27
630.357	3.95
630.689	4.19
631.021	4
631.353	3.82
631.684	4.11
632.016	4.19
632.348	4
632.679	4.15
633.011	4
633.342	3.85
633.674	3.81
634.005	4.18
634.336	4.4
634.668	4.35
634.999	4.26
635.33	3.82
635.661	4.34
635.992	4.06
636.323	3.99
636.654	3.88
636.985	4.11
637.316	4.08
637.647	3.67
637.977	4.21
638.308	4.19
638.639	4.05
638.969	3.39
639.3	4.49
639.63	4.04
639.961	4.59
640.291	4.33
640.622	4.5
640.952	4.07
641.282	3.88
641.612	4.23
641.943	3.72
642.273	3.8
642.603	4.05
642.933	4.19
643.263	3.4
643.592	3.98
643.922	4.39
644.252	4.37
644.582	4.04
644.911	4.08
645.241	3.6
645.571	4.02
645.9	4.35
646.23	4.1
646.559	4.12
646.888	4.04
647.218	4.33
647.547	3.9
647.876	4.44
648.205	3.73
648.534	4.19
648.863	4.03
649.192	4.03
649.521	3.74
649.85	4.38
650.179	4.24
650.508	4.26
650.837	4.35
651.165	4.09
651.494	3.91
651.822	4.2
652.151	4.02
652.479	3.81
652.808	3.99
653.136	4.07
653.465	4.09
653.793	4.06
654.121	4.03
654.449	3.89
654.777	3.68
655.105	4.31
655.433	3.89
655.761	4.07
656.089	4.18
656.417	3.78
656.745	3.62
657.073	3.84
657.4	3.99
657.728	4.04
658.056	3.64
658.383	4.55
658.711	3.77
659.038	4.33
659.365	4.65
659.693	4.45
660.02	4.01
660.347	3.99
660.674	4.15
661.001	4.31
661.329	4.01
661.656	4.17
661.982	4.07
662.309	4.06
662.636	4.09
662.963	3.63
663.29	3.54
663.616	4.56
663.943	4.37
664.27	4.13
664.596	4.29
664.923	4.06
665.249	4.33
665.576	4.17
665.902	3.45
666.228	3.89
666.554	4.72
666.881	4.22
667.207	4.32
667.533	3.77
667.859	4.05
668.185	3.98
668.511	4.23
668.837	3.91
669.162	4.33
669.488	4.19
669.814	3.8
670.139	4.05
670.465	4.08
670.791	4.03
671.116	4.16
671.442	3.9
671.767	4.59
672.092	3.7
672.418	3.88
672.743	4.66
673.068	4.29
673.393	4.15
673.718	4.28
674.043	3.96
674.368	3.66
674.693	3.64
675.018	4.1
675.343	3.91
675.667	3.9
675.992	4.18
676.317	3.88
676.641	4
676.966	3.69
677.29	3.68
677.615	4.24
677.939	4.18
678.264	4.58
678.588	3.93
678.912	4.6
679.236	4.09
679.56	4.09
679.885	4.35
680.209	3.91
680.532	4.28
680.856	4.27
681.18	3.84
681.504	4.28
681.828	4.53
682.152	5.01
682.475	3.98
682.799	4.03
683.122	4.49
683.446	4.17
683.769	3.3
684.093	4.51
684.416	3.42
684.739	3.88
685.062	4.92
685.386	3.65
685.709	4.83
686.032	4.2
686.355	5.09
686.678	4.61
687.001	4.61
687.324	4.33
687.646	4.58
687.969	4.1
688.292	4.12
688.614	4.33
688.937	3.83
689.26	4.4
689.582	4.02
689.904	4.04
690.227	4.25
690.549	4.05
690.871	4.14
691.194	4.1
691.516	4.01
691.838	4.43
692.16	4.25
