Data from 0037_chest_Reflection__3__48.txt Node

Date: Fri Nov 04 15:05:01 CDT 2022
User: ToomeyLab
Spectrometer: FLMS14357
Trigger mode: 0
Integration Time (sec): 1.000000E-2
Scans to average: 100
Electric dark correction enabled: true
Nonlinearity correction enabled: false
Boxcar width: 0
XAxis mode: Wavelengths
Number of Pixels in Spectrum: 2048
>>>>>Begin Spectral Data<<<<<
189.047	240.97
189.435	240.97
189.823	240.97
190.211	136.48
190.599	69.88
190.987	-91.7
191.375	339.69
191.763	-2011.63
192.151	22.04
192.538	110.52
192.926	136.6
193.314	1061.25
193.702	59.07
194.089	-2297.52
194.477	440.92
194.864	14.5
195.252	67.95
195.639	25.32
196.027	578.63
196.414	45.34
196.801	225.61
197.189	-89.35
197.576	210.92
197.963	-104.92
198.351	-28.41
198.738	5.72
199.125	50.62
199.512	-37.51
199.899	16.03
200.286	4.49
200.673	-39.61
201.06	-17.14
201.447	-6.44
201.833	26.54
202.22	-1.55
202.607	30.59
202.994	34.07
203.38	40.35
203.767	-23.06
204.154	8.85
204.54	-42
204.927	-4.14
205.313	25
205.699	27.48
206.086	1.55
206.472	-12.63
206.858	1.56
207.245	-6.71
207.631	-15.2
208.017	39.21
208.403	3.33
208.789	13.45
209.175	17.17
209.561	-34.37
209.947	-21.64
210.333	-8.68
210.719	18.49
211.105	-29.02
211.491	16.88
211.876	11.87
212.262	-9.24
212.648	-16.33
213.034	37.72
213.419	-14.82
213.805	-10.6
214.19	-6.12
214.576	3.42
214.961	-1.73
215.346	-7.16
215.732	4.06
216.117	-17.4
216.502	8.54
216.888	-10.27
217.273	3.54
217.658	-12.43
218.043	-14.03
218.428	26.93
218.813	27.4
219.198	-6.83
219.583	12.64
219.968	17.57
220.353	-20.47
220.738	-30.84
221.122	-0.71
221.507	12.29
221.892	-16.06
222.276	3.2
222.661	12.18
223.046	1.16
223.43	3.32
223.815	-0.86
224.199	9.41
224.583	7.49
224.968	6.21
225.352	10.65
225.736	-7.32
226.121	-7.52
226.505	1.65
226.889	1.18
227.273	2.21
227.657	0.94
228.041	7.41
228.425	7.81
228.809	7.53
229.193	7.19
229.577	3.04
229.961	5.62
230.344	5.39
230.728	4.96
231.112	4.04
231.495	4.64
231.879	3.62
232.263	3.56
232.646	3.83
233.03	2.96
233.413	3.14
233.797	3.17
234.18	2.61
234.563	6.3
234.946	3.48
235.33	6.6
235.713	4.46
236.096	5.99
236.479	3.69
236.862	4.92
237.245	3.49
237.628	3.74
238.011	3.13
238.394	6.73
238.777	4.84
239.16	5.49
239.543	3.84
239.925	5.28
240.308	7.11
240.691	5.18
241.073	4.75
241.456	4.77
241.838	3.67
242.221	4.47
242.603	4.67
242.986	4.39
243.368	5.19
243.75	5.11
244.133	5.07
244.515	5.07
244.897	4.94
245.279	4.66
245.661	5.4
246.043	5.86
246.425	4.57
246.807	5.65
247.189	4.75
247.571	5.48
247.953	4.5
248.335	4.57
248.717	4.59
249.098	4.57
249.48	4.72
249.862	5.05
250.243	4.53
250.625	4.33
251.006	4.75
251.388	5.03
251.769	5.4
252.151	5.09
252.532	4.43
252.913	4.43
253.295	5.12
253.676	4.3
254.057	4.88
254.438	4.59
254.819	5.37
255.2	4.04
255.581	5.22
255.962	5.58
256.343	4.25
256.724	4.16
257.105	3.81
257.486	5.68
257.867	6.43
258.247	5.44
258.628	4.49
259.009	4.21
259.389	4.68
259.77	5.06
260.15	4.93
260.531	4.56
260.911	4.52
261.292	4.21
261.672	4.37
262.052	4.42
262.432	4.32
262.813	4.26
263.193	3.82
263.573	4.24
263.953	4.04
264.333	4.63
264.713	4.86
265.093	4.5
265.473	4.86
265.853	4.15
266.233	3.93
266.612	4.29
266.992	5.1
267.372	3.38
267.752	4.23
268.131	4.47
268.511	4.31
268.89	4.75
269.27	4.29
269.649	4.4
270.029	3.66
270.408	4.66
270.787	4.76
271.167	4.13
271.546	5.31
271.925	4.41
272.304	4.53
272.683	4.07
273.062	4.22
273.441	4.42
273.82	4.17
274.199	4.12
274.578	3.9
274.957	3.94
275.336	4
275.715	3.99
276.093	4.28
276.472	4.23
276.851	3.81
277.229	4.3
277.608	3.96
277.986	4.89
278.365	4.57
278.743	4.7
279.122	4.48
279.5	4.36
279.878	4.13
280.257	4.02
280.635	3.66
281.013	4.33
281.391	4.97
281.769	4.14
282.147	4.19
282.525	4.08
282.903	4.3
283.281	4.55
283.659	4.25
284.037	3.78
284.415	4.02
284.792	4.18
285.17	3.77
285.548	4.51
285.925	4.26
286.303	4.26
286.68	4.66
287.058	4.2
287.435	4.21
287.813	4.18
288.19	4.31
288.567	4.06
288.945	4.23
289.322	4.22
289.699	4.23
290.076	4.04
290.453	3.74
290.83	4.06
291.207	4.28
291.584	4.22
291.961	4.5
292.338	4.4
292.715	4.36
293.092	4.39
293.469	4.48
293.845	4.17
294.222	3.86
294.599	4.27
294.975	4.47
295.352	4.32
295.728	4.6
296.105	4.22
296.481	4.39
296.858	4.28
297.234	4.85
297.61	4.54
297.986	4.5
298.363	4.35
298.739	4.47
299.115	4.45
299.491	4.29
299.867	4.38
300.243	4.26
300.619	4.57
300.995	5.02
301.371	5.23
301.746	4.19
302.122	4.36
302.498	4.44
302.874	4.57
303.249	4.38
303.625	4.66
304	4.84
304.376	4.43
304.751	4.35
305.127	3.9
305.502	4.27
305.878	4.81
306.253	4.58
306.628	4.44
307.003	4.46
307.378	4.7
307.754	4.16
308.129	4.11
308.504	4.71
308.879	4.56
309.254	4.54
309.629	4.75
310.003	4.71
310.378	4.56
310.753	5.13
311.128	4.45
311.502	4.02
311.877	4.66
312.252	4.43
312.626	4.46
313.001	4.38
313.375	4.51
313.75	4.64
314.124	4.36
314.498	4.4
314.873	4.94
315.247	4.74
315.621	4.78
315.995	5.15
316.369	4.71
316.743	4.94
317.117	4.72
317.491	4.87
317.865	4.47
318.239	5.03
318.613	4.69
318.987	4.64
319.361	4.96
319.734	4.76
320.108	4.7
320.482	4.31
320.855	4.71
321.229	4.71
321.602	4.65
321.976	4.4
322.349	5.5
322.723	4.97
323.096	4.49
323.469	4.31
323.843	4.69
324.216	4.97
324.589	5.18
324.962	4.97
325.335	5.14
325.708	4.46
326.081	4.92
326.454	4.49
326.827	4.9
327.2	4.6
327.573	4.66
327.945	5.02
328.318	4.39
328.691	4.55
329.063	4.81
329.436	4.97
329.809	4.7
330.181	4.19
330.553	4.68
330.926	4.61
331.298	4.87
331.671	4.74
332.043	4.83
332.415	5.06
332.787	4.28
333.159	4.56
333.532	4.55
333.904	5.05
334.276	4.86
334.648	4.86
335.02	4.36
335.391	4.6
335.763	4.52
336.135	4.93
336.507	4.97
336.879	4.72
337.25	4.92
337.622	5.06
337.993	5.01
338.365	4.74
338.736	5.16
339.108	4.87
339.479	5.11
339.851	4.26
340.222	4.7
340.593	5.51
340.964	5.05
341.336	4.51
341.707	4.75
342.078	4.8
342.449	5.12
342.82	5.36
343.191	4.88
343.562	4.87
343.933	5.13
344.303	4.95
344.674	4.81
345.045	4.55
345.416	4.76
345.786	4.91
346.157	5.17
346.527	4.93
346.898	5.23
347.268	4.87
347.639	5.2
348.009	5.28
348.38	4.96
348.75	4.53
349.12	4.68
349.49	4.93
349.861	5.18
350.231	5.15
350.601	4.67
350.971	4.87
351.341	4.93
351.711	4.78
352.081	4.64
352.45	5.2
352.82	5.14
353.19	4.65
353.56	5
353.929	4.88
354.299	5.19
354.669	5.11
355.038	5.21
355.408	4.98
355.777	5.24
356.147	4.85
356.516	4.76
356.885	5.03
357.254	5.13
357.624	4.99
357.993	4.92
358.362	5.2
358.731	4.74
359.1	4.99
359.469	4.77
359.838	4.93
360.207	4.76
360.576	5.2
360.945	5.39
361.314	5.2
361.682	4.97
362.051	5.03
362.42	5.28
362.788	5.17
363.157	5.13
363.525	5.09
363.894	5.09
364.262	5.3
364.631	5.42
364.999	4.91
365.367	4.87
365.735	5.27
366.104	5.29
366.472	5.23
366.84	5.15
367.208	5.15
367.576	4.98
367.944	5.34
368.312	5.33
368.68	5.39
369.048	4.93
369.416	5.15
369.783	4.81
370.151	4.86
370.519	5.6
370.886	5.03
371.254	5.26
371.621	5.02
371.989	4.98
372.356	5.23
372.724	5.19
373.091	5.06
373.458	5.13
373.826	5.41
374.193	5.24
374.56	4.99
374.927	5.75
375.294	4.88
375.661	5.22
376.028	5.15
376.395	5.41
376.762	5.3
377.129	5.23
377.496	5.42
377.863	5.6
378.229	4.91
378.596	5.16
378.963	5.22
379.329	4.94
379.696	5.25
380.062	5.28
380.429	5.47
380.795	5.11
381.161	5.31
381.528	5.28
381.894	5.16
382.26	5.37
382.626	5.13
382.993	5.46
383.359	5.28
383.725	5.27
384.091	5.22
384.457	5.35
384.823	5.14
385.188	5.51
385.554	5.25
385.92	5.2
386.286	5.22
386.651	5.12
387.017	5.22
387.383	5.2
387.748	5.08
388.114	5.18
388.479	5.78
388.845	5.31
389.21	5.77
389.575	5.53
389.94	5.33
390.306	5.26
390.671	5.62
391.036	5.29
391.401	5.68
391.766	5.06
392.131	5.16
392.496	5.37
392.861	5.63
393.226	5.25
393.591	5.53
393.956	5.52
394.32	5.02
394.685	5.37
395.05	5.46
395.414	5.22
395.779	5.32
396.143	5.23
396.508	5.48
396.872	5.41
397.236	5.29
397.601	5.33
397.965	5.31
398.329	5.35
398.694	5.67
399.058	5.39
399.422	5.42
399.786	5.12
400.15	5.23
400.514	5.44
400.878	5.35
401.242	5.38
401.605	5.12
401.969	5.49
402.333	5.46
402.697	5.6
403.06	5.69
403.424	5.35
403.787	5.54
404.151	5.6
404.514	5.6
404.878	5.46
405.241	5.45
405.604	5.68
405.968	5.43
406.331	5.41
406.694	5.36
407.057	5.57
407.42	5.38
407.783	5.32
408.146	5.49
408.509	5.45
408.872	5.56
409.235	5.32
409.598	5.42
409.961	5.75
410.323	5.27
410.686	5.42
411.049	5.5
411.411	5.45
411.774	5.49
412.136	5.71
412.499	5.58
412.861	5.56
413.223	5.65
413.586	5.72
413.948	5.66
414.31	5.55
414.672	5.55
415.035	5.93
415.397	5.59
415.759	5.67
416.121	5.29
416.483	5.48
416.845	5.53
417.206	5.44
417.568	5.62
417.93	5.69
418.292	5.57
418.653	5.7
419.015	5.45
419.377	5.37
419.738	5.56
420.1	5.6
420.461	5.48
420.822	5.42
421.184	5.61
421.545	5.29
421.906	5.45
422.267	5.41
422.629	5.39
422.99	5.43
423.351	5.35
423.712	5.45
424.073	5.51
424.434	5.41
424.795	5.54
425.155	5.58
425.516	5.65
425.877	5.42
426.238	5.49
426.598	5.44
426.959	5.45
427.32	5.46
427.68	5.59
428.041	5.49
428.401	5.61
428.761	5.68
429.122	5.54
429.482	5.6
429.842	5.51
430.202	5.72
430.563	5.62
430.923	5.72
431.283	5.55
431.643	5.8
432.003	5.88
432.363	5.74
432.722	5.66
433.082	5.75
433.442	5.69
433.802	5.62
434.161	5.66
434.521	5.57
434.881	5.65
435.24	5.64
435.6	5.66
435.959	5.74
436.319	5.73
436.678	5.6
437.037	5.65
437.396	5.87
437.756	5.83
438.115	5.54
438.474	5.82
438.833	5.8
439.192	5.65
439.551	5.81
439.91	5.72
440.269	5.7
440.628	5.61
440.987	5.68
441.345	5.73
441.704	5.54
442.063	5.62
442.421	5.57
442.78	5.68
443.138	5.61
443.497	5.63
443.855	5.59
444.214	5.81
444.572	5.82
444.93	5.68
445.288	5.71
445.647	5.68
446.005	5.85
446.363	5.82
446.721	5.74
447.079	5.79
447.437	5.76
447.795	5.68
448.153	5.57
448.51	5.67
448.868	5.71
449.226	5.71
449.584	5.78
449.941	5.65
450.299	5.78
450.656	5.71
451.014	5.85
451.371	5.76
451.729	5.91
452.086	5.81
452.443	5.85
452.801	5.96
453.158	5.96
453.515	6.03
453.872	5.84
454.229	5.97
454.586	5.88
454.943	5.93
455.3	5.97
455.657	5.72
456.014	5.79
456.371	5.94
456.727	6
457.084	6.09
457.441	5.94
457.797	5.9
458.154	5.92
458.51	6.02
458.867	5.73
459.223	6
459.58	6.1
459.936	5.86
460.292	5.93
460.648	5.97
461.005	5.76
461.361	5.85
461.717	5.92
462.073	5.95
462.429	5.96
462.785	5.93
463.141	5.9
463.496	5.88
463.852	5.97
464.208	5.84
464.564	6.01
464.919	6.07
465.275	6.09
465.631	6.1
465.986	5.99
466.342	6.05
466.697	6.07
467.052	5.97
467.408	6.07
467.763	5.98
468.118	6.17
468.473	6.04
468.829	5.94
469.184	6.08
469.539	5.94
469.894	6.05
470.249	6.17
470.603	6.15
470.958	6.06
471.313	5.98
471.668	6.06
472.023	6.06
472.377	6.08
472.732	6.16
473.086	5.98
473.441	6.09
473.795	6.19
474.15	6.09
474.504	6.15
474.859	6.1
475.213	6.08
475.567	6.08
475.921	6.07
476.275	6.21
476.63	6.13
476.984	6.06
477.338	6.27
477.692	6.05
478.045	6.2
478.399	6.15
478.753	6.26
479.107	6.16
479.461	6.25
479.814	6.25
480.168	6.17
480.521	6.13
480.875	6.22
481.228	6.16
481.582	6.22
481.935	6.19
482.289	6.13
482.642	6.24
482.995	6.18
483.348	6.12
483.701	6.23
484.055	6.1
484.408	6.08
484.761	6.02
485.114	5.94
485.466	5.89
485.819	5.88
486.172	5.89
486.525	5.87
486.878	5.94
487.23	5.99
487.583	5.99
487.936	6.11
488.288	6
488.641	6.04
488.993	6.05
489.345	6
489.698	5.99
490.05	6.02
490.402	6.02
490.754	6.14
491.107	6.1
491.459	6.25
491.811	6.14
492.163	6.26
492.515	6.23
492.866	6.2
493.218	6.11
493.57	6.12
493.922	6.1
494.274	6.09
494.625	6.19
494.977	6.22
495.328	6.24
495.68	6.33
496.031	6.27
496.383	6.41
496.734	6.39
497.086	6.51
497.437	6.49
497.788	6.47
498.139	6.28
498.49	6.35
498.842	6.43
499.193	6.34
499.544	6.41
499.894	6.38
500.245	6.4
500.596	6.44
500.947	6.39
501.298	6.46
501.648	6.49
501.999	6.64
502.35	6.49
502.7	6.44
503.051	6.55
503.401	6.5
503.752	6.66
504.102	6.48
504.452	6.66
504.803	6.66
505.153	6.51
505.503	6.53
505.853	6.68
506.203	6.65
506.553	6.72
506.903	6.58
507.253	6.54
507.603	6.74
507.953	6.66
508.303	6.72
508.652	6.76
509.002	6.68
509.352	6.81
509.701	6.62
510.051	6.75
510.4	6.51
510.75	6.63
511.099	6.58
511.449	6.64
511.798	6.6
512.147	6.68
512.496	6.58
512.846	6.57
513.195	6.8
513.544	6.74
513.893	6.75
514.242	6.74
514.591	6.69
514.939	6.87
515.288	6.75
515.637	6.78
515.986	6.71
516.334	6.74
516.683	6.74
517.032	6.76
517.38	6.82
517.729	6.78
518.077	6.91
518.426	6.86
518.774	6.88
519.122	6.83
519.47	6.79
519.819	6.77
520.167	6.8
520.515	6.82
520.863	6.76
521.211	6.73
521.559	6.79
521.907	6.77
522.255	6.93
522.602	6.92
522.95	6.88
523.298	6.95
523.645	7.01
523.993	6.95
524.341	6.91
524.688	7.07
525.036	7
525.383	7.08
525.73	6.98
526.078	7.09
526.425	7.03
526.772	6.87
527.119	7.01
527.466	6.95
527.814	6.94
528.161	6.9
528.508	6.89
528.854	6.85
529.201	6.92
529.548	6.9
529.895	6.8
530.242	6.72
530.588	6.78
530.935	6.75
531.282	6.77
531.628	6.73
531.975	6.86
532.321	7.04
532.667	6.97
533.014	7.03
533.36	7.14
533.706	7.11
534.052	7.11
534.399	7.06
534.745	7.05
535.091	6.95
535.437	7
535.783	7.01
536.129	7.13
536.474	7.13
536.82	7.11
537.166	7.15
537.512	7.17
537.857	7.23
538.203	7.1
538.549	7.21
538.894	7.28
539.239	7.34
539.585	7.2
539.93	7.29
540.276	7.27
540.621	7.43
540.966	7.38
541.311	7.28
541.656	7.43
542.001	7.46
542.346	7.35
542.691	7.4
543.036	7.17
543.381	7.25
543.726	7.29
544.071	7.28
544.415	7.33
544.76	7.32
545.105	7.36
545.449	7.5
545.794	7.5
546.138	7.47
546.483	7.5
546.827	7.46
547.171	7.63
547.516	7.68
547.86	7.67
548.204	7.61
548.548	7.63
548.892	7.53
549.236	7.59
549.58	7.65
549.924	7.74
550.268	7.84
550.612	7.67
550.956	7.76
551.3	7.83
551.643	7.77
551.987	7.65
552.33	7.9
552.674	7.96
553.017	7.9
553.361	8.09
553.704	7.99
554.048	7.93
554.391	7.88
554.734	8.04
555.077	8.03
555.42	8.06
555.764	8.18
556.107	8.08
556.45	8.15
556.793	8.06
557.135	8.17
557.478	8.06
557.821	8.01
558.164	8.2
558.507	8.3
558.849	8.23
559.192	8.28
559.534	8.11
559.877	8.16
560.219	8.24
560.562	8.18
560.904	8.28
561.246	8.18
561.589	8.43
561.931	8.33
562.273	8.51
562.615	8.43
562.957	8.43
563.299	8.32
563.641	8.44
563.983	8.36
564.325	8.4
564.667	8.4
565.008	8.45
565.35	8.43
565.692	8.62
566.033	8.65
566.375	8.49
566.716	8.65
567.058	8.64
567.399	8.68
567.741	8.56
568.082	8.55
568.423	8.61
568.764	8.63
569.105	8.56
569.447	8.67
569.788	8.63
570.129	8.77
570.47	8.87
570.811	8.91
571.151	8.7
571.492	8.9
571.833	8.82
572.174	8.9
572.514	8.86
572.855	8.83
573.195	8.77
573.536	8.96
573.876	8.89
574.217	8.88
574.557	8.78
574.898	8.97
575.238	8.87
575.578	9.12
575.918	8.96
576.258	8.97
576.598	9.04
576.938	9.17
577.278	8.98
577.618	8.9
577.958	8.98
578.298	8.96
578.638	9.14
578.977	9.2
579.317	9.26
579.657	9.31
579.996	9.21
580.336	9.24
580.675	9.02
581.014	9.46
581.354	9.41
581.693	9.74
582.032	9.16
582.372	9.55
582.711	9.24
583.05	9.53
583.389	9.37
583.728	9.4
584.067	9.7
584.406	9.36
584.745	9.67
585.083	9.43
585.422	9.47
585.761	9.61
586.1	9.63
586.438	9.61
586.777	9.86
587.115	9.7
587.454	9.78
587.792	10.01
588.13	9.71
588.469	9.9
588.807	10.07
589.145	9.96
589.483	9.51
589.821	9.78
590.159	9.66
590.497	10.01
590.835	9.86
591.173	9.89
591.511	10.13
591.849	10.1
592.187	9.94
592.524	9.92
592.862	10.05
593.2	9.99
593.537	9.94
593.875	10.1
594.212	10.02
594.55	9.99
594.887	10.16
595.224	10.36
595.561	9.72
595.899	10.17
596.236	10.29
596.573	10.57
596.91	10.25
597.247	10.3
597.584	10.06
597.921	10.38
598.258	10.38
598.594	10.05
598.931	10.25
599.268	10.29
599.604	10.19
599.941	10.51
600.277	10.3
600.614	10.52
600.95	10.5
601.287	10.5
601.623	10.49
601.959	10.58
602.296	10.7
602.632	10.47
602.968	10.8
603.304	10.82
603.64	10.75
603.976	10.46
604.312	10.72
604.648	10.83
604.984	10.55
605.319	10.8
605.655	10.68
605.991	10.92
606.326	10.93
606.662	10.82
606.998	10.85
607.333	10.78
607.668	10.87
608.004	10.85
608.339	10.85
608.674	11.27
609.01	11.04
609.345	11.12
609.68	11.03
610.015	10.86
610.35	11.16
610.685	11.14
611.02	11.31
611.355	11.27
611.689	11.23
612.024	11.15
612.359	11.32
612.694	11.01
613.028	11.36
613.363	11.4
613.697	11.14
614.032	11.32
614.366	11.56
614.7	11.54
615.035	11.56
615.369	11.27
615.703	11.67
616.037	11.82
616.371	11.65
616.705	11.16
617.039	11.64
617.373	11.77
617.707	11.8
618.041	11.75
618.375	11.46
618.709	11.61
619.042	11.64
619.376	11.74
619.71	11.71
620.043	12.1
620.377	11.99
620.71	12.17
621.043	11.97
621.377	11.84
621.71	12.09
622.043	12.07
622.376	12.16
622.709	11.9
623.043	11.97
623.376	12.38
623.709	11.96
624.041	12.26
624.374	12.24
624.707	11.87
625.04	12.48
625.373	12.54
625.705	11.87
626.038	12.42
626.37	12.31
626.703	12.58
627.035	12.33
627.368	12.19
627.7	12.25
628.032	12.16
628.365	12.65
628.697	12.56
629.029	12.47
629.361	12.64
629.693	12.47
630.025	12.62
630.357	12.47
630.689	12.66
631.021	12.26
631.353	12.62
631.684	12.71
632.016	12.79
632.348	12.66
632.679	12.84
633.011	12.85
633.342	13.1
633.674	12.76
634.005	12.77
634.336	12.88
634.668	12.84
634.999	13.12
635.33	12.73
635.661	12.89
635.992	12.91
636.323	13.21
636.654	12.61
636.985	13
637.316	12.97
637.647	12.86
637.977	13.58
638.308	13.24
638.639	13.37
638.969	13.25
639.3	13.22
639.63	13.08
639.961	13.31
640.291	13.53
640.622	13.6
640.952	13.52
641.282	13.27
641.612	13.44
641.943	13.54
642.273	13.46
642.603	13.69
642.933	13.66
643.263	13.02
643.592	13.53
643.922	14.01
644.252	13.54
644.582	13.56
644.911	14.05
645.241	13.33
645.571	13.5
645.9	13.6
646.23	13.83
646.559	14.11
646.888	14.32
647.218	13.89
647.547	14.17
647.876	13.77
648.205	13.96
648.534	14.49
648.863	13.93
649.192	14.02
649.521	13.99
649.85	14.33
650.179	14.28
650.508	14.48
650.837	14.11
651.165	14.2
651.494	14.38
651.822	14.04
652.151	14.26
652.479	14.08
652.808	13.89
653.136	14.32
653.465	14.12
653.793	15.06
654.121	14.22
654.449	14.4
654.777	14.38
655.105	14.73
655.433	14.23
655.761	14.38
656.089	14.42
656.417	14.46
656.745	14.27
657.073	14.4
657.4	14.69
657.728	14.95
658.056	14.38
658.383	14.82
658.711	14.22
659.038	14.32
659.365	15.21
659.693	15.27
660.02	14.84
660.347	14.71
660.674	15.1
661.001	15.05
661.329	14.77
661.656	14.98
661.982	14.82
662.309	14.73
662.636	14.93
662.963	14.7
663.29	15.02
663.616	14.88
663.943	14.9
664.27	15.65
664.596	14.99
664.923	15.19
665.249	14.94
665.576	15.37
665.902	14.53
666.228	15.21
666.554	15.85
666.881	14.92
667.207	15.25
667.533	15.53
667.859	15.39
668.185	15.67
668.511	15.56
668.837	15.73
669.162	15.67
669.488	15.31
669.814	15.43
670.139	15.64
670.465	15.38
670.791	15.44
671.116	15.51
671.442	15.53
671.767	15.79
672.092	15.55
672.418	15.88
672.743	16.12
673.068	16.07
673.393	15.73
673.718	15.91
674.043	16.01
674.368	15.62
674.693	15.82
675.018	16.17
675.343	16.04
675.667	16.17
675.992	15.99
676.317	16.31
676.641	16.54
676.966	15.6
677.29	16.33
677.615	16.65
677.939	16.14
678.264	16.96
678.588	16.17
678.912	16.69
679.236	16.44
679.56	16.98
679.885	16.59
680.209	16.62
680.532	16.5
680.856	16.45
681.18	16.26
681.504	16.8
681.828	16.59
682.152	17.62
682.475	16.23
682.799	16.95
683.122	16.77
683.446	16.55
683.769	16.32
684.093	16.82
684.416	16.51
684.739	16.93
685.062	17.33
685.386	17.41
685.709	17.9
