Data from 0037_crown_Reflection__0__50.txt Node

Date: Fri Nov 04 15:08:04 CDT 2022
User: ToomeyLab
Spectrometer: FLMS14357
Trigger mode: 0
Integration Time (sec): 1.000000E-2
Scans to average: 100
Electric dark correction enabled: true
Nonlinearity correction enabled: false
Boxcar width: 0
XAxis mode: Wavelengths
Number of Pixels in Spectrum: 2048
>>>>>Begin Spectral Data<<<<<
189.047	-245.08
189.435	-245.08
189.823	-245.08
190.211	-120.13
190.599	-102.27
190.987	22.45
191.375	601.17
191.763	-1827.91
192.151	240.04
192.538	33.4
192.926	192.97
193.314	412.03
193.702	52.1
194.089	95.65
194.477	209.04
194.864	75.61
195.252	41.68
195.639	-15.15
196.027	328.55
196.414	129.5
196.801	136.28
197.189	-38.44
197.576	287.34
197.963	-204.08
198.351	-11.21
198.738	26.83
199.125	52.68
199.512	-9.7
199.899	-20.05
200.286	-28.11
200.673	-13.6
201.06	35.48
201.447	10.81
201.833	6.44
202.22	3.74
202.607	25.26
202.994	23.31
203.38	38.78
203.767	5.83
204.154	32.12
204.54	-8.79
204.927	12.83
205.313	50.8
205.699	32.82
206.086	16.22
206.472	19.8
206.858	-12.46
207.245	2.2
207.631	8.17
208.017	3.04
208.403	18.76
208.789	27.17
209.175	3.35
209.561	-33.56
209.947	-28.82
210.333	18.4
210.719	-10.33
211.105	-12.44
211.491	-0.23
211.876	21.76
212.262	-29.2
212.648	-23.38
213.034	26
213.419	-2.47
213.805	-12.35
214.19	-11.75
214.576	-6.41
214.961	5.55
215.346	12.76
215.732	25.07
216.117	-2.81
216.502	18.4
216.888	-16.31
217.273	20.7
217.658	-7.03
218.043	-4.7
218.428	28.41
218.813	14.29
219.198	1.22
219.583	-24.45
219.968	23.44
220.353	-24.33
220.738	-24.23
221.122	5.72
221.507	7.43
221.892	-30.79
222.276	-4.32
222.661	13.16
223.046	3.88
223.43	2.34
223.815	-2.11
224.199	5.99
224.583	4.11
224.968	7.65
225.352	1.62
225.736	-1.85
226.121	0.84
226.505	12.19
226.889	8.52
227.273	10.52
227.657	6.25
228.041	8.09
228.425	5.68
228.809	6.43
229.193	9.16
229.577	6.7
229.961	7.71
230.344	6.31
230.728	6.34
231.112	5.69
231.495	6.29
231.879	6.62
232.263	5.12
232.646	5.65
233.03	5.86
233.413	4.17
233.797	6.84
234.18	6.97
234.563	6.29
234.946	3.64
235.33	7.75
235.713	4.94
236.096	7.32
236.479	6.15
236.862	5.33
237.245	5.15
237.628	5.7
238.011	5.67
238.394	7.73
238.777	4.84
239.16	6.21
239.543	5.23
239.925	6.86
240.308	6.65
240.691	5.5
241.073	4.87
241.456	5.43
241.838	5.21
242.221	6.6
242.603	5.43
242.986	5.56
243.368	6.22
243.75	6.01
244.133	5.87
244.515	5.78
244.897	5.78
245.279	5.54
245.661	5.97
246.043	5.71
246.425	6.07
246.807	6.58
247.189	6.2
247.571	6.4
247.953	5.78
248.335	5.39
248.717	5.6
249.098	5.58
249.48	5.57
249.862	5.7
250.243	5.2
250.625	5.46
251.006	5.7
251.388	5.61
251.769	5.72
252.151	6.25
252.532	5.41
252.913	5.04
253.295	5.66
253.676	5.02
254.057	5.24
254.438	5.3
254.819	5.18
255.2	4.67
255.581	6.1
255.962	4.85
256.343	5.45
256.724	6.07
257.105	4.85
257.486	5.8
257.867	6.65
258.247	5.29
258.628	5.23
259.009	4.25
259.389	4.78
259.77	5.9
260.15	5.66
260.531	5.01
260.911	5.01
261.292	4.96
261.672	5.01
262.052	4.95
262.432	4.92
262.813	4.54
263.193	4.3
263.573	5.4
263.953	4.64
264.333	5.48
264.713	5.39
265.093	4.9
265.473	5.26
265.853	3.79
266.233	4.82
266.612	5.37
266.992	5.07
267.372	4.62
267.752	4.95
268.131	4.77
268.511	5.16
268.89	5.26
269.27	4.65
269.649	4.91
270.029	4.4
270.408	4.45
270.787	5.49
271.167	4.65
271.546	5.21
271.925	5.18
272.304	4.42
272.683	4.38
273.062	4.59
273.441	4.63
273.82	4.48
274.199	5.01
274.578	4.49
274.957	4.62
275.336	4.32
275.715	4.16
276.093	4.59
276.472	4.61
276.851	4.25
277.229	4.6
277.608	4.22
277.986	5.09
278.365	4.75
278.743	4.49
279.122	4.83
279.5	3.96
279.878	5.01
280.257	4.65
280.635	4.21
281.013	4.29
281.391	5.05
281.769	4.57
282.147	3.8
282.525	4.61
282.903	4.72
283.281	4.62
283.659	4.29
284.037	4.24
284.415	4.49
284.792	4.39
285.17	4.5
285.548	4.79
285.925	4.72
286.303	4.75
286.68	4.64
287.058	4.7
287.435	4.16
287.813	4.38
288.19	4.23
288.567	4.32
288.945	4.24
289.322	4.45
289.699	4.55
290.076	4.5
290.453	3.71
290.83	3.97
291.207	4.14
291.584	4.6
291.961	4.58
292.338	4.37
292.715	4.18
293.092	4.62
293.469	4.5
293.845	3.92
294.222	4.05
294.599	3.74
294.975	4.34
295.352	4.06
295.728	4.07
296.105	3.91
296.481	4.24
296.858	4.18
297.234	4.45
297.61	4.23
297.986	3.94
298.363	3.97
298.739	3.98
299.115	4.35
299.491	4.04
299.867	4.11
300.243	4.21
300.619	4.35
300.995	4.55
301.371	4.47
301.746	4.19
302.122	4.41
302.498	4.12
302.874	4.32
303.249	3.97
303.625	4.04
304	4.12
304.376	3.99
304.751	4.57
305.127	3.89
305.502	4.39
305.878	4.27
306.253	4.23
306.628	3.88
307.003	4.58
307.378	4.08
307.754	4
308.129	3.43
308.504	4.24
308.879	4.63
309.254	4.14
309.629	4.44
310.003	4.25
310.378	3.93
310.753	4.27
311.128	4.29
311.502	3.86
311.877	4.14
312.252	4.14
312.626	4.11
313.001	4.1
313.375	4.02
313.75	4.28
314.124	4.05
314.498	4.21
314.873	4.45
315.247	4.07
315.621	4.22
315.995	4.34
316.369	4.1
316.743	4.75
317.117	4.73
317.491	4.35
317.865	4.04
318.239	4.18
318.613	4.8
318.987	4.43
319.361	4.18
319.734	4.77
320.108	4.12
320.482	3.58
320.855	4.25
321.229	4.2
321.602	3.49
321.976	4.02
322.349	4.36
322.723	4.08
323.096	3.34
323.469	3.84
323.843	4.34
324.216	4.21
324.589	4.02
324.962	4.7
325.335	4.33
325.708	4.16
326.081	3.79
326.454	4.01
326.827	4.25
327.2	4.21
327.573	4.1
327.945	4.6
328.318	3.69
328.691	4.04
329.063	3.94
329.436	4.44
329.809	4.13
330.181	3.99
330.553	4.15
330.926	4.4
331.298	4.05
331.671	4.26
332.043	4.18
332.415	3.84
332.787	4.03
333.159	3.91
333.532	3.63
333.904	4.55
334.276	4
334.648	4.24
335.02	3.79
335.391	4.33
335.763	4.39
336.135	4.33
336.507	4.08
336.879	4.19
337.25	4.05
337.622	4.32
337.993	3.98
338.365	4.3
338.736	4.65
339.108	4.48
339.479	4.3
339.851	3.97
340.222	4.16
340.593	4.43
340.964	4.33
341.336	3.73
341.707	4.07
342.078	4.35
342.449	4.05
342.82	4.35
343.191	3.94
343.562	4.45
343.933	4.37
344.303	4.43
344.674	4.28
345.045	4.26
345.416	3.69
345.786	4.36
346.157	4.64
346.527	4.46
346.898	4.76
347.268	4.22
347.639	4.28
348.009	4.59
348.38	4.58
348.75	4.18
349.12	4.16
349.49	4.35
349.861	4.33
350.231	4.55
350.601	4.12
350.971	4.09
351.341	4.27
351.711	4.58
352.081	4.34
352.45	4.44
352.82	4.28
353.19	4.41
353.56	4.76
353.929	4.24
354.299	4.72
354.669	4.6
355.038	4.69
355.408	4.03
355.777	4.7
356.147	4.16
356.516	4.34
356.885	4.54
357.254	4.52
357.624	4.56
357.993	4.26
358.362	4.25
358.731	4.6
359.1	4.59
359.469	4.38
359.838	4.62
360.207	4.21
360.576	4.31
360.945	4.75
361.314	4.55
361.682	4.52
362.051	4.4
362.42	4.49
362.788	4.32
363.157	4.41
363.525	4.45
363.894	4.49
364.262	4.58
364.631	4.86
364.999	4.56
365.367	4.42
365.735	4.69
366.104	4.29
366.472	4.59
366.84	4.14
367.208	4.44
367.576	4.42
367.944	4.78
368.312	4.76
368.68	4.56
369.048	4.73
369.416	4.48
369.783	4.27
370.151	4.81
370.519	5.34
370.886	4.42
371.254	4.46
371.621	4.62
371.989	4.82
372.356	4.67
372.724	4.73
373.091	4.52
373.458	4.88
373.826	4.57
374.193	4.61
374.56	4.47
374.927	4.76
375.294	4.35
375.661	4.75
376.028	4.8
376.395	4.63
376.762	4.55
377.129	4.79
377.496	4.94
377.863	4.73
378.229	4.42
378.596	4.55
378.963	4.54
379.329	4.41
379.696	4.6
380.062	4.87
380.429	4.61
380.795	4.8
381.161	4.62
381.528	5
381.894	4.76
382.26	4.75
382.626	4.63
382.993	4.88
383.359	4.75
383.725	4.69
384.091	4.77
384.457	4.75
384.823	4.84
385.188	4.79
385.554	4.66
385.92	4.52
386.286	4.63
386.651	4.65
387.017	4.71
387.383	4.66
387.748	4.59
388.114	4.53
388.479	5.19
388.845	4.78
389.21	5.12
389.575	4.95
389.94	4.86
390.306	4.75
390.671	4.88
391.036	4.71
391.401	5.1
391.766	4.52
392.131	4.62
392.496	4.97
392.861	4.77
393.226	4.89
393.591	4.74
393.956	5.05
394.32	4.52
394.685	4.91
395.05	5.13
395.414	4.91
395.779	4.87
396.143	4.68
396.508	4.83
396.872	4.75
397.236	4.84
397.601	4.74
397.965	4.87
398.329	4.82
398.694	4.96
399.058	5.06
399.422	4.75
399.786	4.95
400.15	4.61
400.514	4.69
400.878	4.98
401.242	5
401.605	4.84
401.969	4.94
402.333	5
402.697	4.91
403.06	5.01
403.424	4.89
403.787	4.9
404.151	4.94
404.514	5.1
404.878	4.9
405.241	4.8
405.604	4.85
405.968	4.87
406.331	4.85
406.694	4.77
407.057	4.96
407.42	4.92
407.783	4.99
408.146	5.03
408.509	4.7
408.872	4.92
409.235	4.87
409.598	4.94
409.961	4.98
410.323	4.9
410.686	4.88
411.049	4.82
411.411	4.93
411.774	4.97
412.136	5.03
412.499	5.07
412.861	4.97
413.223	5.1
413.586	4.99
413.948	4.94
414.31	4.93
414.672	5.08
415.035	5.1
415.397	4.95
415.759	5.18
416.121	4.64
416.483	4.84
416.845	4.85
417.206	4.83
417.568	5.04
417.93	4.96
418.292	4.92
418.653	4.84
419.015	4.76
419.377	4.82
419.738	4.81
420.1	5.03
420.461	4.8
420.822	4.81
421.184	5.02
421.545	4.81
421.906	4.88
422.267	4.77
422.629	4.89
422.99	4.73
423.351	4.75
423.712	4.81
424.073	4.92
424.434	4.78
424.795	4.89
425.155	5
425.516	4.91
425.877	4.76
426.238	4.8
426.598	4.89
426.959	4.77
427.32	4.78
427.68	4.86
428.041	4.9
428.401	5
428.761	4.98
429.122	4.92
429.482	4.9
429.842	4.76
430.202	5.16
430.563	4.95
430.923	5.17
431.283	4.88
431.643	5.11
432.003	5.11
432.363	5.09
432.722	5.02
433.082	5.13
433.442	4.98
433.802	4.91
434.161	4.93
434.521	4.82
434.881	5.05
435.24	5
435.6	4.99
435.959	4.9
436.319	4.94
436.678	5.01
437.037	5
437.396	5.05
437.756	4.97
438.115	4.94
438.474	5.18
438.833	5.04
439.192	5
439.551	5.1
439.91	5.09
440.269	5.14
440.628	5.06
440.987	4.98
441.345	4.96
441.704	5.01
442.063	4.95
442.421	4.96
442.78	4.99
443.138	4.97
443.497	5
443.855	4.93
444.214	5.08
444.572	5.05
444.93	4.96
445.288	5.1
445.647	4.97
446.005	4.93
446.363	5.04
446.721	4.86
447.079	4.98
447.437	4.93
447.795	4.96
448.153	4.74
448.51	4.94
448.868	4.88
449.226	4.86
449.584	4.93
449.941	4.88
450.299	5
450.656	5
451.014	5.17
451.371	5.15
451.729	5.01
452.086	5.05
452.443	5
452.801	5.16
453.158	5.13
453.515	5.19
453.872	4.92
454.229	5.05
454.586	5.09
454.943	5.11
455.3	5.03
455.657	5
456.014	5.07
456.371	5.05
456.727	5.01
457.084	5.05
457.441	5.15
457.797	5.1
458.154	5.12
458.51	5.12
458.867	5
459.223	5.16
459.58	5.25
459.936	4.96
460.292	5.02
460.648	5.04
461.005	4.97
461.361	5.13
461.717	5.05
462.073	5.07
462.429	5.02
462.785	5.01
463.141	5.04
463.496	4.99
463.852	5.07
464.208	5.02
464.564	5.01
464.919	5.16
465.275	5.17
465.631	5.29
465.986	5.31
466.342	5.1
466.697	5.04
467.052	4.96
467.408	5.18
467.763	5.09
468.118	5.18
468.473	5.26
468.829	5.1
469.184	5.11
469.539	5.05
469.894	5.08
470.249	5.22
470.603	5.25
470.958	5.02
471.313	5.05
471.668	5.17
472.023	5.03
472.377	5.22
472.732	5.12
473.086	5.2
473.441	5.17
473.795	5.08
474.15	5.24
474.504	5.16
474.859	5.1
475.213	5.27
475.567	5.05
475.921	5.13
476.275	5.19
476.63	5.08
476.984	5.21
477.338	5.14
477.692	5.15
478.045	5.16
478.399	5
478.753	5.11
479.107	5.16
479.461	5.19
479.814	5.26
480.168	5.19
480.521	5.12
480.875	5.17
481.228	5.22
481.582	5.16
481.935	5.13
482.289	5.04
482.642	5.15
482.995	5.15
483.348	5.12
483.701	5.11
484.055	5.01
484.408	5.04
484.761	5.06
485.114	4.93
485.466	4.83
485.819	4.76
486.172	4.79
486.525	4.8
486.878	4.92
487.23	4.93
487.583	4.86
487.936	5.01
488.288	4.97
488.641	4.95
488.993	4.88
489.345	4.84
489.698	4.85
490.05	4.89
490.402	4.85
490.754	4.97
491.107	4.99
491.459	5.04
491.811	5.04
492.163	5.11
492.515	5.09
492.866	5.02
493.218	4.9
493.57	4.86
493.922	4.95
494.274	4.9
494.625	4.99
494.977	5.1
495.328	5.2
495.68	5.02
496.031	5.11
496.383	5.27
496.734	5.06
497.086	5.29
497.437	5.22
497.788	5.15
498.139	5.05
498.49	5.05
498.842	5.18
499.193	5.12
499.544	5.13
499.894	4.97
500.245	5.2
500.596	5.13
500.947	5.1
501.298	5.07
501.648	5.26
501.999	5.31
502.35	5.17
502.7	4.97
503.051	5.19
503.401	5.09
503.752	5.29
504.102	5.25
504.452	5.19
504.803	5.18
505.153	5.06
505.503	5.12
505.853	5.22
506.203	5.19
506.553	5.11
506.903	5.18
507.253	5.23
507.603	5.02
507.953	5.14
508.303	5.24
508.652	5.17
509.002	5.13
509.352	5.3
509.701	5.11
510.051	5.17
510.4	5.1
510.75	5.09
511.099	5.18
511.449	5.07
511.798	5.11
512.147	5.15
512.496	5.08
512.846	5
513.195	5.14
513.544	5
513.893	5.13
514.242	5.02
514.591	5.07
514.939	5.23
515.288	5.1
515.637	5.15
515.986	5.13
516.334	5.06
516.683	5.09
517.032	5.15
517.38	5.19
517.729	5.11
518.077	5.07
518.426	5.11
518.774	5.1
519.122	5.01
519.47	5.04
519.819	5.09
520.167	5.14
520.515	5.01
520.863	5.02
521.211	5.02
521.559	5.17
521.907	5.09
522.255	5.14
522.602	5.16
522.95	5.12
523.298	5.15
523.645	5.1
523.993	5.13
524.341	5.09
524.688	5.25
525.036	4.99
525.383	5.2
525.73	5.24
526.078	5.11
526.425	5.09
526.772	4.9
527.119	4.95
527.466	4.92
527.814	4.92
528.161	4.94
528.508	4.97
528.854	4.92
529.201	4.9
529.548	4.92
529.895	4.83
530.242	4.8
530.588	4.79
530.935	4.84
531.282	4.84
531.628	4.76
531.975	4.93
532.321	4.95
532.667	4.9
533.014	4.98
533.36	4.94
533.706	5.06
534.052	4.99
534.399	5
534.745	4.99
535.091	4.89
535.437	4.85
535.783	4.87
536.129	4.97
536.474	5.04
536.82	4.92
537.166	5.01
537.512	4.98
537.857	4.94
538.203	4.89
538.549	4.92
538.894	5.09
539.239	5.06
539.585	4.91
539.93	5.02
540.276	4.98
540.621	5.05
540.966	5.15
541.311	4.93
541.656	4.98
542.001	5.05
542.346	4.92
542.691	4.89
543.036	4.8
543.381	4.8
543.726	4.82
544.071	4.84
544.415	4.92
544.76	4.93
545.105	4.93
545.449	4.92
545.794	4.93
546.138	4.92
546.483	4.94
546.827	4.89
547.171	4.97
547.516	5.01
547.86	5
548.204	4.96
548.548	4.87
548.892	4.95
549.236	4.88
549.58	4.89
549.924	5.07
550.268	5.1
550.612	4.88
550.956	4.97
551.3	4.88
551.643	5
551.987	4.9
552.33	4.99
552.674	4.97
553.017	5.19
553.361	5.07
553.704	5.03
554.048	5
554.391	4.91
554.734	5.1
555.077	5.08
555.42	4.97
555.764	5.12
556.107	5.14
556.45	5.13
556.793	4.92
557.135	4.92
557.478	4.98
557.821	5.2
558.164	5.14
558.507	4.93
558.849	5.09
559.192	5.09
559.534	5.02
559.877	4.91
560.219	4.96
560.562	5.03
560.904	5.07
561.246	4.94
561.589	4.96
561.931	4.91
562.273	5.12
562.615	5.06
562.957	5.05
563.299	4.86
563.641	4.91
563.983	5.07
564.325	4.84
564.667	4.79
565.008	5.07
565.35	5.06
565.692	5.17
566.033	5.09
566.375	4.88
566.716	5.17
567.058	4.98
567.399	4.97
567.741	5.02
568.082	4.99
568.423	4.78
568.764	4.89
569.105	4.9
569.447	4.96
569.788	4.97
570.129	5.01
570.47	4.91
570.811	5.02
571.151	4.98
571.492	4.99
571.833	5.02
572.174	4.97
572.514	4.95
572.855	4.84
573.195	4.79
573.536	4.82
573.876	4.89
574.217	4.87
574.557	4.71
574.898	4.96
575.238	4.89
575.578	5.07
575.918	4.99
576.258	4.99
576.598	4.9
576.938	4.92
577.278	4.83
577.618	4.76
577.958	4.87
578.298	4.82
578.638	4.96
578.977	4.96
579.317	5.01
579.657	4.88
579.996	4.8
580.336	4.77
580.675	4.77
581.014	4.97
581.354	4.86
581.693	5.12
582.032	4.8
582.372	4.97
582.711	5.01
583.05	4.8
583.389	4.87
583.728	4.78
584.067	4.85
584.406	4.72
584.745	4.97
585.083	4.82
585.422	5.11
585.761	5.03
586.1	4.62
586.438	4.74
586.777	4.83
587.115	4.85
587.454	4.98
587.792	5.13
588.13	4.81
588.469	4.86
588.807	5.07
589.145	4.86
589.483	4.51
589.821	4.95
590.159	4.67
590.497	5
590.835	4.76
591.173	4.66
591.511	4.98
591.849	5.04
592.187	4.86
592.524	4.86
592.862	4.55
593.2	5.05
593.537	4.93
593.875	4.82
594.212	4.66
594.55	4.64
594.887	4.91
595.224	4.92
595.561	4.48
595.899	4.46
596.236	4.86
596.573	4.87
596.91	4.85
597.247	4.86
597.584	4.7
597.921	4.77
598.258	4.73
598.594	4.61
598.931	4.79
599.268	4.7
599.604	4.71
599.941	4.92
600.277	4.68
600.614	4.98
600.95	4.93
601.287	4.6
601.623	4.95
601.959	4.8
602.296	4.98
602.632	4.76
602.968	4.95
603.304	4.62
603.64	4.84
603.976	4.61
604.312	4.77
604.648	4.85
604.984	4.78
605.319	4.82
605.655	4.62
605.991	4.79
606.326	4.66
606.662	4.72
606.998	4.78
607.333	4.58
607.668	4.84
608.004	4.74
608.339	4.87
608.674	5.04
609.01	4.77
609.345	4.73
609.68	4.81
610.015	4.62
610.35	4.8
610.685	4.76
611.02	4.74
611.355	4.93
611.689	4.64
612.024	4.61
612.359	4.68
612.694	4.68
613.028	4.82
613.363	4.87
613.697	4.64
614.032	4.88
614.366	4.77
614.7	4.41
615.035	4.79
615.369	4.64
615.703	4.94
616.037	4.78
616.371	4.63
616.705	4.79
617.039	5
617.373	5.07
617.707	5.04
618.041	4.86
618.375	4.82
618.709	4.85
619.042	4.73
619.376	4.91
619.71	4.73
620.043	5.04
620.377	5.09
620.71	5.09
621.043	4.61
621.377	5.05
621.71	4.93
622.043	4.94
622.376	4.96
622.709	4.68
623.043	4.83
623.376	5.42
623.709	4.78
624.041	4.99
624.374	4.66
624.707	4.58
625.04	5.06
625.373	4.88
625.705	4.69
626.038	4.71
626.37	4.85
626.703	4.91
627.035	4.57
627.368	4.83
627.7	4.9
628.032	4.6
628.365	5.06
628.697	4.68
629.029	4.8
629.361	4.67
629.693	4.79
630.025	4.88
630.357	4.68
630.689	4.75
631.021	4.64
631.353	4.59
631.684	4.7
632.016	5.05
632.348	4.56
632.679	4.83
633.011	4.77
633.342	4.76
633.674	4.79
634.005	4.83
634.336	4.91
634.668	4.65
634.999	5.09
635.33	4.7
635.661	4.79
635.992	4.75
636.323	4.54
636.654	4.4
636.985	4.74
637.316	4.58
637.647	4.62
637.977	5.17
638.308	4.79
638.639	5.02
638.969	4.44
639.3	4.81
639.63	4.46
639.961	4.68
640.291	4.84
640.622	5.08
640.952	4.86
641.282	4.43
641.612	4.76
641.943	4.54
642.273	4.6
642.603	4.86
642.933	4.77
643.263	4.11
643.592	4.42
643.922	5.24
644.252	4.86
644.582	4.92
644.911	5.09
645.241	4.63
645.571	4.45
645.9	4.7
646.23	4.57
646.559	5.17
646.888	4.51
647.218	4.74
647.547	4.72
647.876	4.72
648.205	4.5
648.534	5.28
648.863	5
649.192	5.34
649.521	4.73
649.85	4.84
650.179	4.81
650.508	4.74
650.837	4.84
651.165	4.72
651.494	4.44
651.822	4.69
652.151	5.05
652.479	5.1
652.808	4.34
653.136	4.88
653.465	4.97
653.793	4.97
654.121	4.49
654.449	4.37
654.777	4.22
655.105	5.05
655.433	4.51
655.761	4.65
656.089	4.71
656.417	4.12
656.745	4.57
657.073	4.5
657.4	4.66
657.728	5
658.056	4.19
658.383	5.02
658.711	4.56
659.038	4.82
659.365	5.13
659.693	5.32
660.02	4.77
660.347	4.61
660.674	4.78
661.001	4.82
661.329	4.8
661.656	5.02
661.982	4.62
662.309	4.7
662.636	4.97
662.963	4.46
663.29	4.89
663.616	5.24
663.943	4.67
664.27	5.16
664.596	4.64
664.923	4.91
665.249	5.16
665.576	4.75
665.902	3.99
666.228	4.41
666.554	5.15
666.881	4.45
667.207	5.09
667.533	4.68
667.859	4.61
668.185	5.18
668.511	4.92
668.837	4.66
669.162	4.91
669.488	4.84
669.814	4.45
670.139	4.91
670.465	4.9
670.791	4.74
671.116	4.86
671.442	4.62
671.767	4.88
672.092	4.63
672.418	4.85
672.743	5.58
673.068	4.71
673.393	5.21
673.718	4.79
674.043	5.16
674.368	3.91
674.693	5
675.018	5.03
675.343	4.61
675.667	5.47
675.992	5.65
676.317	4.81
676.641	4.91
676.966	4.27
677.29	5.03
677.615	5.19
677.939	4.89
678.264	4.85
678.588	5.47
678.912	5.27
679.236	5.07
679.56	4.7
679.885	4.67
680.209	4.38
680.532	4.91
680.856	4.61
681.18	4.48
681.504	4.7
681.828	4.54
682.152	5.29
682.475	5.14
682.799	5.03
683.122	5.21
683.446	4.84
683.769	4.27
684.093	5.38
684.416	4.17
684.739	5.03
685.062	5.67
685.386	4.74
685.709	5.56
686.032	4.82
686.355	5.86
686.678	5.3
687.001	4.86
687.324	4.82
687.646	5.31
687.969	4.94
688.292	4.69
688.614	5.7
688.937	4.49
689.26	4.96
689.582	5.45
689.904	5.13
690.227	5.55
690.549	4.93
690.871	4.24
691.194	5.19
691.516	5.46
691.838	5.29
692.16	5.7
692.482	4.95
692.804	5.19
693.126	5.29
693.448	4.92
693.769	5.25
