Data from 0037_forehead_Reflection__4__59.txt Node

Date: Fri Nov 04 15:10:20 CDT 2022
User: ToomeyLab
Spectrometer: FLMS14357
Trigger mode: 0
Integration Time (sec): 1.000000E-2
Scans to average: 100
Electric dark correction enabled: true
Nonlinearity correction enabled: false
Boxcar width: 0
XAxis mode: Wavelengths
Number of Pixels in Spectrum: 2048
>>>>>Begin Spectral Data<<<<<
189.047	84.26
189.435	84.26
189.823	84.26
190.211	262.37
190.599	-14.96
190.987	138.13
191.375	734.21
191.763	-836.43
192.151	-5.93
192.538	204.05
192.926	14.3
193.314	91.09
193.702	112.21
194.089	949.69
194.477	13.12
194.864	135.1
195.252	49.59
195.639	-15.12
196.027	61.31
196.414	-409.83
196.801	231.51
197.189	-52.76
197.576	117.63
197.963	242.7
198.351	10.4
198.738	31.69
199.125	-8.65
199.512	-41.32
199.899	17.44
200.286	10.35
200.673	-52.74
201.06	-5.06
201.447	-40.86
201.833	9.46
202.22	11.62
202.607	16.36
202.994	28.02
203.38	24.84
203.767	21.58
204.154	36.75
204.54	-12.75
204.927	23.31
205.313	32.44
205.699	9.23
206.086	10.93
206.472	7.99
206.858	-11.98
207.245	15.13
207.631	23.95
208.017	4.02
208.403	16.47
208.789	28.58
209.175	15.27
209.561	-63.2
209.947	-40.55
210.333	26.97
210.719	14.46
211.105	-83.61
211.491	2.4
211.876	15.18
212.262	-16.71
212.648	-20.16
213.034	14.3
213.419	-5.01
213.805	9.82
214.19	1.14
214.576	-10.84
214.961	9.67
215.346	-9.69
215.732	-0.95
216.117	-9.96
216.502	7.01
216.888	-27.02
217.273	5.48
217.658	7.8
218.043	-0.1
218.428	7.62
218.813	-6.3
219.198	4.04
219.583	-3.99
219.968	19.02
220.353	-19.54
220.738	-9.22
221.122	11.91
221.507	-10.22
221.892	-23.21
222.276	5.42
222.661	2.49
223.046	1.75
223.43	4.92
223.815	-3.32
224.199	-3.91
224.583	9.31
224.968	4.08
225.352	7.13
225.736	1.56
226.121	-9.01
226.505	0.92
226.889	2.69
227.273	1.52
227.657	1.87
228.041	6.77
228.425	7.88
228.809	0.46
229.193	5.19
229.577	2.22
229.961	3.93
230.344	2.06
230.728	1.87
231.112	1.97
231.495	2.2
231.879	2.31
232.263	2.53
232.646	1.5
233.03	0.89
233.413	0.25
233.797	0.15
234.18	2.64
234.563	0.75
234.946	0.54
235.33	3.71
235.713	-0.08
236.096	2.67
236.479	1.91
236.862	2.31
237.245	2.92
237.628	2.22
238.011	0.62
238.394	2.49
238.777	1.49
239.16	2
239.543	1.96
239.925	1.38
240.308	4.51
240.691	2.4
241.073	0.9
241.456	2.29
241.838	1.81
242.221	2.36
242.603	2.3
242.986	2.15
243.368	2.81
243.75	1.84
244.133	2.24
244.515	1.98
244.897	2.37
245.279	1.71
245.661	3.31
246.043	2.61
246.425	1.25
246.807	2.75
247.189	2.63
247.571	3.33
247.953	2.14
248.335	2.01
248.717	2.24
249.098	2.17
249.48	2.1
249.862	2.43
250.243	2.39
250.625	1.68
251.006	2.03
251.388	2.63
251.769	2.67
252.151	3.55
252.532	2.64
252.913	2.14
253.295	2.59
253.676	2.35
254.057	1.67
254.438	2.18
254.819	2.44
255.2	2.48
255.581	2.32
255.962	2.41
256.343	1.94
256.724	3.44
257.105	1.37
257.486	2.58
257.867	3.61
258.247	2.9
258.628	1.69
259.009	1.98
259.389	2.39
259.77	2.36
260.15	1.75
260.531	2.12
260.911	2
261.292	1.81
261.672	2.1
262.052	2.09
262.432	2.28
262.813	1.92
263.193	1.28
263.573	2.08
263.953	2.08
264.333	1.86
264.713	2.55
265.093	2.15
265.473	2.07
265.853	1.5
266.233	2.6
266.612	2.47
266.992	3.19
267.372	1.14
267.752	2.21
268.131	2.16
268.511	2.48
268.89	2.05
269.27	2.29
269.649	2.09
270.029	2.06
270.408	1.71
270.787	2.3
271.167	2.07
271.546	3.04
271.925	2.45
272.304	1.6
272.683	1.89
273.062	2.08
273.441	2.35
273.82	1.9
274.199	2.31
274.578	2.05
274.957	1.75
275.336	1.89
275.715	1.56
276.093	2.24
276.472	2.53
276.851	1.57
277.229	1.98
277.608	2.21
277.986	2.08
278.365	2.26
278.743	2.69
279.122	2.07
279.5	2.05
279.878	2.01
280.257	2.4
280.635	1.63
281.013	2.22
281.391	2.49
281.769	1.97
282.147	1.78
282.525	2.48
282.903	2.15
283.281	2.51
283.659	2.08
284.037	1.63
284.415	1.77
284.792	2.28
285.17	1.79
285.548	2.53
285.925	2.26
286.303	2.4
286.68	2.32
287.058	1.93
287.435	2.11
287.813	2.3
288.19	2.13
288.567	1.83
288.945	2.02
289.322	2.36
289.699	2.47
290.076	2.36
290.453	1.95
290.83	1.8
291.207	2.2
291.584	2.23
291.961	2.23
292.338	2.41
292.715	2.48
293.092	2.43
293.469	2.36
293.845	2.11
294.222	2.18
294.599	1.85
294.975	2.12
295.352	2.23
295.728	2.16
296.105	2.25
296.481	2.32
296.858	2.49
297.234	2.86
297.61	2.71
297.986	2.15
298.363	2.15
298.739	2.25
299.115	2.44
299.491	2.42
299.867	2.63
300.243	2.27
300.619	2.59
300.995	2.75
301.371	3.15
301.746	2.52
302.122	2.86
302.498	2.33
302.874	2.82
303.249	2.23
303.625	2.49
304	3.12
304.376	2.35
304.751	2.36
305.127	2.64
305.502	2.56
305.878	2.83
306.253	2.85
306.628	2.38
307.003	2.59
307.378	2.98
307.754	2.87
308.129	2.15
308.504	2.85
308.879	3.07
309.254	3.05
309.629	3.11
310.003	2.72
310.378	2.71
310.753	3.3
311.128	2.58
311.502	2.44
311.877	2.92
312.252	3
312.626	3.05
313.001	2.93
313.375	2.67
313.75	2.8
314.124	2.68
314.498	2.89
314.873	3.09
315.247	3.5
315.621	3.38
315.995	3.42
316.369	3.05
316.743	3.77
317.117	3.74
317.491	3.66
317.865	3.19
318.239	3.51
318.613	3.71
318.987	3.56
319.361	3.41
319.734	3.79
320.108	3.1
320.482	2.79
320.855	3.17
321.229	3.36
321.602	3.15
321.976	3.72
322.349	3.89
322.723	3.7
323.096	3.59
323.469	2.99
323.843	2.94
324.216	3.59
324.589	3.8
324.962	4.27
325.335	3.29
325.708	3.38
326.081	3.56
326.454	3.65
326.827	3.65
327.2	3.49
327.573	3.44
327.945	3.92
328.318	3.34
328.691	3.46
329.063	3.79
329.436	3.68
329.809	3.66
330.181	3.69
330.553	4.09
330.926	3.67
331.298	4.11
331.671	3.59
332.043	4.05
332.415	4.29
332.787	4.16
333.159	3.46
333.532	3.46
333.904	4.2
334.276	4.05
334.648	3.61
335.02	3.45
335.391	4.15
335.763	4.22
336.135	4.56
336.507	4.04
336.879	4.02
337.25	4.39
337.622	4.41
337.993	4.41
338.365	4.05
338.736	4.66
339.108	4.94
339.479	4.61
339.851	4.23
340.222	3.97
340.593	4.45
340.964	4.16
341.336	4.22
341.707	3.71
342.078	4.03
342.449	4.21
342.82	4.39
343.191	4.4
343.562	4.47
343.933	4.79
344.303	4.7
344.674	4.57
345.045	4.51
345.416	4.49
345.786	4.67
346.157	4.69
346.527	4.62
346.898	5.06
347.268	4.44
347.639	4.49
348.009	4.66
348.38	4.49
348.75	4.75
349.12	4.48
349.49	4.49
349.861	4.78
350.231	5.16
350.601	4.77
350.971	4.62
351.341	4.74
351.711	4.64
352.081	4.66
352.45	4.9
352.82	5.05
353.19	5.11
353.56	5.26
353.929	5.04
354.299	5.25
354.669	5.35
355.038	5.14
355.408	4.85
355.777	5.04
356.147	5.09
356.516	4.81
356.885	4.97
357.254	5.27
357.624	5.5
357.993	5.22
358.362	5.06
358.731	5.31
359.1	5.62
359.469	5.29
359.838	5.34
360.207	5.28
360.576	5.27
360.945	5.58
361.314	5.83
361.682	5.36
362.051	5.57
362.42	5.58
362.788	5.41
363.157	5.47
363.525	5.45
363.894	5.28
364.262	5.57
364.631	5.6
364.999	5.93
365.367	5.41
365.735	5.66
366.104	5.56
366.472	5.45
366.84	5.5
367.208	5.9
367.576	5.42
367.944	5.89
368.312	5.85
368.68	6.01
369.048	5.78
369.416	5.97
369.783	5.57
370.151	5.91
370.519	6.42
370.886	6.05
371.254	6.23
371.621	6.22
371.989	5.96
372.356	6.27
372.724	6.18
373.091	6.09
373.458	6.04
373.826	6.37
374.193	6.27
374.56	6.13
374.927	6.68
375.294	6.28
375.661	6.55
376.028	6.46
376.395	6.51
376.762	6.62
377.129	6.61
377.496	6.66
377.863	6.59
378.229	6.41
378.596	6.34
378.963	6.66
379.329	6.43
379.696	6.55
380.062	7.03
380.429	6.74
380.795	6.76
381.161	6.76
381.528	6.91
381.894	6.76
382.26	7.03
382.626	6.65
382.993	6.83
383.359	6.88
383.725	6.98
384.091	7.12
384.457	6.83
384.823	6.94
385.188	6.96
385.554	6.79
385.92	6.89
386.286	7.21
386.651	7.12
387.017	6.95
387.383	7.04
387.748	7.14
388.114	6.9
388.479	7.57
388.845	7.28
389.21	7.64
389.575	7.42
389.94	7.39
390.306	7.37
390.671	7.58
391.036	7.26
391.401	7.52
391.766	7.56
392.131	7.59
392.496	7.54
392.861	7.67
393.226	7.56
393.591	7.64
393.956	7.83
394.32	7.45
394.685	7.89
395.05	7.92
395.414	7.91
395.779	7.93
396.143	7.57
396.508	7.74
396.872	7.93
397.236	7.91
397.601	7.76
397.965	7.83
398.329	7.89
398.694	8.17
399.058	8.09
399.422	8.01
399.786	7.9
400.15	8.16
400.514	8.06
400.878	8.15
401.242	8.33
401.605	8.32
401.969	8.53
402.333	8.28
402.697	8.39
403.06	8.54
403.424	8.38
403.787	8.67
404.151	8.45
404.514	8.56
404.878	8.56
405.241	8.46
405.604	8.39
405.968	8.3
406.331	8.62
406.694	8.43
407.057	8.67
407.42	8.54
407.783	8.43
408.146	8.76
408.509	8.65
408.872	8.78
409.235	8.68
409.598	8.98
409.961	8.87
410.323	8.72
410.686	8.76
411.049	8.96
411.411	8.94
411.774	8.93
412.136	9.08
412.499	9.18
412.861	9.31
413.223	9.17
413.586	9.16
413.948	9.15
414.31	9.1
414.672	8.94
415.035	9.51
415.397	9.05
415.759	9.41
416.121	8.99
416.483	9.2
416.845	9.36
417.206	9.19
417.568	9.27
417.93	9.46
418.292	9.36
418.653	9.5
419.015	9.38
419.377	9.42
419.738	9.37
420.1	9.57
420.461	9.42
420.822	9.45
421.184	9.57
421.545	9.41
421.906	9.49
422.267	9.48
422.629	9.48
422.99	9.42
423.351	9.34
423.712	9.57
424.073	9.66
424.434	9.56
424.795	9.76
425.155	9.73
425.516	9.64
425.877	9.67
426.238	9.69
426.598	9.65
426.959	9.76
427.32	9.88
427.68	9.82
428.041	9.8
428.401	9.97
428.761	10.09
429.122	9.89
429.482	10.08
429.842	10.01
430.202	10.25
430.563	10.14
430.923	10.35
431.283	10.28
431.643	10.37
432.003	10.49
432.363	10.59
432.722	10.42
433.082	10.52
433.442	10.43
433.802	10.35
434.161	10.44
434.521	10.35
434.881	10.43
435.24	10.47
435.6	10.47
435.959	10.69
436.319	10.58
436.678	10.6
437.037	10.68
437.396	10.91
437.756	10.83
438.115	10.69
438.474	10.89
438.833	10.89
439.192	10.82
439.551	10.73
439.91	10.95
440.269	10.86
440.628	10.91
440.987	10.91
441.345	10.96
441.704	10.84
442.063	10.9
442.421	10.96
442.78	11.08
443.138	11.08
443.497	10.87
443.855	11
444.214	11.24
444.572	11.15
444.93	11.17
445.288	11.17
445.647	11.07
446.005	11.31
446.363	11.27
446.721	11.43
447.079	11.34
447.437	11.33
447.795	11.25
448.153	11.15
448.51	11.34
448.868	11.24
449.226	11.35
449.584	11.36
449.941	11.25
450.299	11.51
450.656	11.52
451.014	11.6
451.371	11.68
451.729	11.67
452.086	11.74
452.443	11.79
452.801	11.96
453.158	11.89
453.515	12
453.872	11.7
454.229	11.94
454.586	11.92
454.943	11.98
455.3	12.04
455.657	12.08
456.014	12.06
456.371	12.08
456.727	12.22
457.084	12.23
457.441	12.15
457.797	12.13
458.154	12.34
458.51	12.35
458.867	12.25
459.223	12.27
459.58	12.4
459.936	12.24
460.292	12.23
460.648	12.32
461.005	12.33
461.361	12.23
461.717	12.27
462.073	12.3
462.429	12.33
462.785	12.35
463.141	12.45
463.496	12.49
463.852	12.76
464.208	12.7
464.564	12.91
464.919	12.87
465.275	12.71
465.631	12.86
465.986	13.03
466.342	12.89
466.697	12.88
467.052	12.87
467.408	12.93
467.763	12.99
468.118	13.11
468.473	13.09
468.829	13.08
469.184	13.05
469.539	13.15
469.894	13.25
470.249	13.29
470.603	13.27
470.958	13.14
471.313	13.34
471.668	13.23
472.023	13.12
472.377	13.5
472.732	13.42
473.086	13.46
473.441	13.58
473.795	13.52
474.15	13.55
474.504	13.53
474.859	13.5
475.213	13.69
475.567	13.61
475.921	13.66
476.275	13.76
476.63	13.93
476.984	13.72
477.338	13.92
477.692	13.81
478.045	13.89
478.399	13.81
478.753	13.95
479.107	13.8
479.461	14.02
479.814	13.93
480.168	13.92
480.521	13.88
480.875	13.96
481.228	14.07
481.582	14.1
481.935	14.02
482.289	14.09
482.642	14.09
482.995	14.22
483.348	14.06
483.701	14.06
484.055	13.96
484.408	13.97
484.761	13.82
485.114	13.64
485.466	13.42
485.819	13.38
486.172	13.54
486.525	13.59
486.878	13.73
487.23	13.86
487.583	13.91
487.936	14.01
488.288	14.04
488.641	14.04
488.993	13.98
489.345	13.89
489.698	13.94
490.05	13.95
490.402	14
490.754	14.17
491.107	14.25
491.459	14.38
491.811	14.4
492.163	14.53
492.515	14.67
492.866	14.42
493.218	14.22
493.57	14.3
493.922	14.4
494.274	14.53
494.625	14.68
494.977	14.77
495.328	15
495.68	14.96
496.031	15.12
496.383	15.24
496.734	15.25
497.086	15.41
497.437	15.51
497.788	15.4
498.139	15.3
498.49	15.3
498.842	15.29
499.193	15.29
499.544	15.38
499.894	15.41
500.245	15.5
500.596	15.59
500.947	15.58
501.298	15.72
501.648	15.77
501.999	15.83
502.35	15.74
502.7	15.88
503.051	15.87
503.401	16.04
503.752	16.11
504.102	16.02
504.452	16.16
504.803	15.99
505.153	16.06
505.503	16.22
505.853	16.25
506.203	16.12
506.553	16.18
506.903	16.24
507.253	16.28
507.603	16.27
507.953	16.3
508.303	16.35
508.652	16.36
509.002	16.54
509.352	16.54
509.701	16.4
510.051	16.43
510.4	16.35
510.75	16.4
511.099	16.45
511.449	16.51
511.798	16.39
512.147	16.69
512.496	16.42
512.846	16.52
513.195	16.66
513.544	16.7
513.893	16.81
514.242	16.61
514.591	16.71
514.939	16.81
515.288	16.85
515.637	16.96
515.986	16.96
516.334	17.08
516.683	17.09
517.032	17.15
517.38	17.19
517.729	17.26
518.077	17.19
518.426	17.16
518.774	17.16
519.122	17.24
519.47	17.07
519.819	17.03
520.167	17.04
520.515	16.88
520.863	16.96
521.211	16.99
521.559	17.12
521.907	17.18
522.255	17.4
522.602	17.38
522.95	17.41
523.298	17.6
523.645	17.79
523.993	17.71
524.341	17.78
524.688	17.78
525.036	17.72
525.383	17.68
525.73	17.85
526.078	17.67
526.425	17.91
526.772	17.8
527.119	17.65
527.466	17.62
527.814	17.56
528.161	17.65
528.508	17.6
528.854	17.63
529.201	17.56
529.548	17.51
529.895	17.42
530.242	17.19
530.588	17.26
530.935	17.34
531.282	17.41
531.628	17.46
531.975	17.72
532.321	17.76
532.667	17.87
533.014	18.11
533.36	18.18
533.706	18.21
534.052	18.36
534.399	18.11
534.745	18.19
535.091	17.92
535.437	18.01
535.783	18
536.129	18.18
536.474	18.29
536.82	18.42
537.166	18.48
537.512	18.78
537.857	18.58
538.203	18.5
538.549	18.47
538.894	18.66
539.239	18.69
539.585	18.75
539.93	18.86
540.276	18.9
540.621	19
540.966	19.24
541.311	19.13
541.656	19.21
542.001	19.09
542.346	18.96
542.691	18.83
543.036	18.56
543.381	18.57
543.726	18.67
544.071	18.74
544.415	18.95
544.76	19.03
545.105	19.06
545.449	19.17
545.794	19.28
546.138	19.32
546.483	19.39
546.827	19.51
547.171	19.68
547.516	19.68
547.86	19.64
548.204	19.58
548.548	19.57
548.892	19.56
549.236	19.61
549.58	19.75
549.924	19.98
550.268	20.15
550.612	19.95
550.956	20.31
551.3	20.48
551.643	20.32
551.987	20.51
552.33	20.52
552.674	20.61
553.017	20.7
553.361	20.81
553.704	20.52
554.048	20.64
554.391	20.55
554.734	20.54
555.077	20.65
555.42	20.75
555.764	20.83
556.107	20.84
556.45	20.99
556.793	21.06
557.135	21.17
557.478	20.88
557.821	21.24
558.164	21.26
558.507	21.06
558.849	21.37
559.192	21.32
559.534	21.1
559.877	21.26
560.219	21.21
560.562	21.6
560.904	21.32
561.246	21.49
561.589	21.5
561.931	21.53
562.273	21.57
562.615	21.42
562.957	21.7
563.299	21.57
563.641	21.54
563.983	21.59
564.325	21.47
564.667	21.65
565.008	21.81
565.35	21.86
565.692	22.05
566.033	22.06
566.375	22.09
566.716	21.98
567.058	21.91
567.399	21.93
567.741	21.93
568.082	22.09
568.423	21.91
568.764	22.02
569.105	22
569.447	22.14
569.788	22.03
570.129	22.12
570.47	22.52
570.811	22.3
571.151	22.36
571.492	22.59
571.833	22.51
572.174	22.45
572.514	22.41
572.855	22.29
573.195	22.52
573.536	22.4
573.876	22.49
574.217	22.37
574.557	22.48
574.898	22.59
575.238	22.45
575.578	22.75
575.918	22.76
576.258	22.77
576.598	22.71
576.938	22.84
577.278	22.9
577.618	22.78
577.958	22.89
578.298	23
578.638	22.89
578.977	23.11
579.317	23.16
579.657	23.34
579.996	23.33
580.336	23.12
580.675	23.05
581.014	23.39
581.354	23.3
581.693	23.71
582.032	23.38
582.372	23.45
582.711	23.72
583.05	23.83
583.389	23.77
583.728	23.62
584.067	23.99
584.406	23.58
584.745	24.15
585.083	24.07
585.422	23.79
585.761	24.03
586.1	23.83
586.438	23.62
586.777	23.78
587.115	24.12
587.454	24.46
587.792	24.27
588.13	24.25
588.469	24.49
588.807	24.72
589.145	24.39
589.483	24.19
589.821	24.37
590.159	24.31
590.497	24.5
590.835	24.5
591.173	24.31
591.511	24.26
591.849	24.4
592.187	24.56
592.524	24.57
592.862	24.57
593.2	24.72
593.537	24.58
593.875	24.64
594.212	24.77
594.55	24.67
594.887	24.7
595.224	24.97
595.561	24.59
595.899	25.1
596.236	25.31
596.573	24.99
596.91	24.68
597.247	25.14
597.584	24.91
597.921	25.17
598.258	24.79
598.594	24.51
598.931	25.02
599.268	24.87
599.604	24.97
599.941	25
600.277	25.09
600.614	25.25
600.95	25.38
601.287	25.26
601.623	25.32
601.959	25.54
602.296	25.46
602.632	25.59
602.968	25.7
603.304	25.54
603.64	25.72
603.976	25.63
604.312	25.75
604.648	25.43
604.984	25.28
605.319	25.54
605.655	25.66
605.991	25.69
606.326	25.68
606.662	25.66
606.998	25.51
607.333	25.6
607.668	25.79
608.004	25.62
608.339	25.78
608.674	25.9
609.01	26.11
609.345	26.04
609.68	26.01
610.015	26.22
610.35	26.13
610.685	26.22
611.02	26.15
611.355	25.97
611.689	25.86
612.024	25.88
612.359	26.12
612.694	26.22
613.028	26.54
613.363	26.58
613.697	26.39
614.032	26.49
614.366	26.79
614.7	26.75
615.035	26.68
615.369	26.8
615.703	26.75
616.037	26.64
616.371	27.02
616.705	26.51
617.039	27.04
617.373	27.05
617.707	26.97
618.041	26.88
618.375	26.94
618.709	27.24
619.042	26.87
619.376	27.28
619.71	27.23
620.043	27.41
620.377	27.35
620.71	27.31
621.043	27
621.377	27.53
621.71	27.63
622.043	27.45
622.376	27.5
622.709	27.05
623.043	28.01
623.376	27.81
623.709	27.47
624.041	27.45
624.374	27.24
624.707	27.28
625.04	27.84
625.373	27.86
625.705	27.62
626.038	27.55
626.37	27.82
626.703	28.28
627.035	27.86
627.368	27.67
627.7	27.77
628.032	27.5
628.365	28.1
628.697	27.74
629.029	27.63
629.361	27.56
629.693	27.75
630.025	28.11
630.357	27.78
630.689	27.98
631.021	27.75
631.353	28.42
631.684	28.4
632.016	28.04
632.348	28.31
632.679	28.15
633.011	28.53
633.342	28.37
633.674	28.15
634.005	28.47
634.336	28.46
634.668	28.09
634.999	28.7
635.33	28.18
635.661	28.4
635.992	28.76
636.323	28.32
636.654	28.16
636.985	28.66
637.316	28.51
637.647	28.45
637.977	28.86
638.308	29.26
638.639	28.58
638.969	28.62
639.3	29.2
639.63	28.78
639.961	28.86
640.291	28.96
640.622	29.04
640.952	29.02
641.282	28.81
641.612	28.83
641.943	28.67
642.273	28.47
642.603	28.81
642.933	28.99
643.263	28.7
643.592	29.3
643.922	29.56
644.252	29.18
644.582	29.28
644.911	29.28
645.241	29.45
645.571	29.37
645.9	29.5
646.23	29.11
646.559	29.71
646.888	29.55
647.218	29.72
647.547	29.45
647.876	29.18
648.205	29.17
648.534	29.7
648.863	29.35
649.192	29.43
649.521	29.32
649.85	29.85
650.179	30.06
650.508	29.98
650.837	30.07
651.165	30.06
651.494	30.32
651.822	30.29
652.151	30.37
652.479	29.48
652.808	29.98
653.136	29.98
653.465	29.66
653.793	29.97
654.121	29.76
654.449	29.78
654.777	30
655.105	30.12
655.433	30.51
655.761	30.19
656.089	30.15
656.417	30.02
656.745	30.13
657.073	29.8
657.4	29.6
657.728	30.09
658.056	30.23
658.383	30.81
658.711	30.11
659.038	30.33
659.365	30.85
659.693	31.19
660.02	30.44
660.347	30.2
660.674	30.26
661.001	30.45
661.329	30.71
661.656	30.57
661.982	30.34
662.309	30.77
662.636	30.9
662.963	30.32
663.29	30.3
663.616	30.97
663.943	30.79
664.27	30.98
664.596	30.92
664.923	30.98
665.249	31.63
665.576	30.8
665.902	30.34
666.228	30.63
666.554	31.46
666.881	30.97
667.207	31.6
667.533	31.88
667.859	31.02
668.185	31.38
668.511	31.48
668.837	30.85
669.162	31.44
669.488	30.85
669.814	31.69
670.139	30.69
670.465	30.87
670.791	31.2
671.116	31.39
671.442	31.1
671.767	31.37
672.092	31.25
672.418	30.95
672.743	31.47
673.068	31.65
673.393	31.33
673.718	31.36
674.043	31.95
674.368	30.88
674.693	31.04
675.018	32.1
675.343	31.71
675.667	31.96
675.992	31.96
