Data from 001-17_forehead_Reflection__1__162.txt Node

Date: Fri Sep 30 19:22:26 CDT 2022
User: ToomeyLab
Spectrometer: FLMS14357
Trigger mode: 0
Integration Time (sec): 1.000000E-2
Scans to average: 100
Electric dark correction enabled: true
Nonlinearity correction enabled: false
Boxcar width: 0
XAxis mode: Wavelengths
Number of Pixels in Spectrum: 2048
>>>>>Begin Spectral Data<<<<<
189.047	46.78
189.435	46.78
189.823	46.78
190.211	666.3
190.599	55.53
190.987	-334.83
191.375	140.71
191.763	88.85
192.151	66.26
192.538	72.42
192.926	131.2
193.314	6027.27
193.702	-1644.98
194.089	-2.27
194.477	171.58
194.864	134.68
195.252	80.25
195.639	49.93
196.027	44.72
196.414	162.46
196.801	10277.78
197.189	90.3
197.576	140.77
197.963	-20.27
198.351	1.77
198.738	7.44
199.125	27.57
199.512	23.79
199.899	-23
200.286	6.17
200.673	-44.93
201.06	13.63
201.447	-26.18
201.833	28.56
202.22	-29.21
202.607	2.14
202.994	-23.57
203.38	35.78
203.767	19.87
204.154	18.93
204.54	25.65
204.927	-136.37
205.313	14.83
205.699	11.33
206.086	20.65
206.472	13.94
206.858	12.53
207.245	-51.73
207.631	25.08
208.017	25.81
208.403	19.24
208.789	41.24
209.175	18.16
209.561	-1.25
209.947	18.41
210.333	25.96
210.719	-0.38
211.105	-10.99
211.491	17.62
211.876	24.33
212.262	15.72
212.648	1.26
213.034	28.15
213.419	10.63
213.805	25.26
214.19	-12.12
214.576	-10.81
214.961	18.92
215.346	1.17
215.732	22.07
216.117	18.61
216.502	-7.51
216.888	-16.96
217.273	48.08
217.658	10.73
218.043	17.92
218.428	6.56
218.813	-7.45
219.198	23.26
219.583	20.09
219.968	7.57
220.353	-38.1
220.738	-2.33
221.122	16.82
221.507	9.07
221.892	2.79
222.276	-1.91
222.661	-0.42
223.046	-8.27
223.43	7.44
223.815	4.73
224.199	9.19
224.583	12.63
224.968	2.72
225.352	1.25
225.736	-1.53
226.121	12.3
226.505	5.6
226.889	6.44
227.273	5.76
227.657	-1.75
228.041	2.34
228.425	-0.35
228.809	2.86
229.193	3.59
229.577	2.95
229.961	0.29
230.344	1.96
230.728	2.92
231.112	2.86
231.495	2.9
231.879	2.49
232.263	4.44
232.646	2.45
233.03	0.95
233.413	2.44
233.797	1.35
234.18	1.77
234.563	3.2
234.946	3.19
235.33	2.68
235.713	-0.16
236.096	3.68
236.479	2.56
236.862	4.51
237.245	0.68
237.628	3.2
238.011	1.15
238.394	-0.54
238.777	1.38
239.16	2.86
239.543	2.47
239.925	0.44
240.308	2.42
240.691	0.72
241.073	3.24
241.456	2.89
241.838	2
242.221	2.99
242.603	3.16
242.986	2.61
243.368	2.44
243.75	2.38
244.133	2.49
244.515	1.88
244.897	2.47
245.279	1.57
245.661	2.89
246.043	2.87
246.425	2.86
246.807	2.82
247.189	2.08
247.571	3.02
247.953	2.65
248.335	2.76
248.717	2.33
249.098	2.73
249.48	2.85
249.862	2.24
250.243	2.59
250.625	2.9
251.006	3.37
251.388	2.67
251.769	2
252.151	1.57
252.532	2.34
252.913	1.44
253.295	2.6
253.676	2.91
254.057	3.14
254.438	2.75
254.819	3.23
255.2	3.13
255.581	3.53
255.962	3.61
256.343	0.65
256.724	2.91
257.105	2.15
257.486	1.91
257.867	3.2
258.247	2.75
258.628	2.39
259.009	2.51
259.389	2.79
259.77	2.37
260.15	2.37
260.531	2.85
260.911	2.66
261.292	2.9
261.672	2.47
262.052	2.39
262.432	2.74
262.813	3.22
263.193	2.59
263.573	2.88
263.953	3.09
264.333	3.04
264.713	2.74
265.093	2.52
265.473	3.04
265.853	2.24
266.233	2.47
266.612	2.43
266.992	2.52
267.372	3.24
267.752	2.1
268.131	2.54
268.511	2.35
268.89	2.74
269.27	2.76
269.649	3.01
270.029	2.49
270.408	2.73
270.787	3.13
271.167	2.62
271.546	2.06
271.925	2.96
272.304	2.55
272.683	2.59
273.062	2.61
273.441	2.28
273.82	2.26
274.199	2.57
274.578	2.52
274.957	2.66
275.336	2.8
275.715	2.77
276.093	2.84
276.472	2.81
276.851	3.33
277.229	2.82
277.608	2.56
277.986	2.42
278.365	3.13
278.743	2.91
279.122	1.97
279.5	2.95
279.878	2.91
280.257	2.39
280.635	2.57
281.013	2.81
281.391	2.9
281.769	2.48
282.147	2.32
282.525	2.89
282.903	2.43
283.281	2.84
283.659	2.91
284.037	2.72
284.415	2.3
284.792	2.6
285.17	2.53
285.548	3
285.925	2.48
286.303	2.51
286.68	2.26
287.058	2.62
287.435	2.75
287.813	2.71
288.19	2.48
288.567	2.64
288.945	1.95
289.322	3.04
289.699	2.59
290.076	2.77
290.453	3.05
290.83	2.55
291.207	3.06
291.584	2.59
291.961	2.89
292.338	2.52
292.715	3
293.092	3.12
293.469	3.25
293.845	2.95
294.222	3.12
294.599	3.27
294.975	3.14
295.352	3.35
295.728	3.08
296.105	3.82
296.481	3.48
296.858	3
297.234	2.97
297.61	3.24
297.986	3.63
298.363	3.32
298.739	3.69
299.115	3.24
299.491	3.48
299.867	3.63
300.243	3.62
300.619	3.45
300.995	3.64
301.371	4.29
301.746	4.14
302.122	3.77
302.498	3.51
302.874	3.42
303.249	3.9
303.625	3.74
304	4.12
304.376	4.32
304.751	4.52
305.127	3.85
305.502	4.09
305.878	4.03
306.253	4.46
306.628	4.39
307.003	4.39
307.378	4.56
307.754	4.03
308.129	4.68
308.504	4.88
308.879	4.99
309.254	4.28
309.629	4.83
310.003	4.39
310.378	4.85
310.753	4.23
311.128	4.91
311.502	4.99
311.877	4.7
312.252	4.51
312.626	4.68
313.001	4.59
313.375	4.56
313.75	5.23
314.124	5.02
314.498	5
314.873	4.84
315.247	4.95
315.621	5.77
315.995	5.16
316.369	5.63
316.743	5.01
317.117	5.46
317.491	4.86
317.865	5.47
318.239	5.49
318.613	5.46
318.987	6.05
319.361	5.62
319.734	5.73
320.108	5.76
320.482	6.07
320.855	6.02
321.229	5.7
321.602	6.3
321.976	6.41
322.349	6.14
322.723	6.16
323.096	5.69
323.469	6.49
323.843	6.36
324.216	6.37
324.589	6.98
324.962	6.78
325.335	6.58
325.708	6.66
326.081	7.12
326.454	7.22
326.827	7.15
327.2	7.06
327.573	7.3
327.945	6.93
328.318	7.3
328.691	6.55
329.063	7.44
329.436	7.15
329.809	7.07
330.181	7.08
330.553	7.07
330.926	7.45
331.298	7.2
331.671	7.45
332.043	7.31
332.415	7.83
332.787	7.58
333.159	7.35
333.532	7.76
333.904	7.73
334.276	7.59
334.648	7.72
335.02	7.91
335.391	7.55
335.763	7.55
336.135	7.59
336.507	7.85
336.879	7.55
337.25	8.13
337.622	8.28
337.993	7.91
338.365	8.53
338.736	7.36
339.108	7.99
339.479	8.03
339.851	7.98
340.222	8.06
340.593	8.29
340.964	8.44
341.336	8.26
341.707	8.15
342.078	8.66
342.449	8.22
342.82	8.47
343.191	8.27
343.562	8.7
343.933	8.28
344.303	8.56
344.674	8.45
345.045	8.7
345.416	8.81
345.786	8.87
346.157	8.38
346.527	8.59
346.898	8.46
347.268	8.79
347.639	8.36
348.009	8.8
348.38	8.73
348.75	8.53
349.12	8.58
349.49	8.78
349.861	9.19
350.231	8.9
350.601	8.87
350.971	9.05
351.341	9.22
351.711	9.14
352.081	9.04
352.45	8.98
352.82	9.15
353.19	8.75
353.56	9.32
353.929	9.64
354.299	9.23
354.669	9.17
355.038	10.03
355.408	9.86
355.777	9.58
356.147	9.47
356.516	9.84
356.885	9.65
357.254	9.6
357.624	9.55
357.993	9.79
358.362	9.62
358.731	9.78
359.1	9.73
359.469	10.01
359.838	9.82
360.207	9.91
360.576	10.01
360.945	10.06
361.314	9.73
361.682	9.8
362.051	10.1
362.42	9.83
362.788	9.97
363.157	9.93
363.525	10.16
363.894	10.2
364.262	9.84
364.631	10.24
364.999	10.6
365.367	10.29
365.735	10.42
366.104	10.39
366.472	10.6
366.84	10.71
367.208	10.4
367.576	10.42
367.944	10.19
368.312	10.38
368.68	10.34
369.048	10.79
369.416	10.78
369.783	10.69
370.151	10.87
370.519	10.4
370.886	10.65
371.254	10.97
371.621	11.33
371.989	10.78
372.356	11.05
372.724	10.57
373.091	10.93
373.458	10.59
373.826	10.92
374.193	11.5
374.56	11.06
374.927	11.02
375.294	11.06
375.661	10.96
376.028	11.17
376.395	11.44
376.762	11.09
377.129	11.47
377.496	11.14
377.863	10.96
378.229	11.27
378.596	11.31
378.963	11.18
379.329	11.01
379.696	11.18
380.062	11.72
380.429	11.54
380.795	11.21
381.161	11.45
381.528	11.3
381.894	11.67
382.26	12.02
382.626	11.62
382.993	11.8
383.359	11.86
383.725	11.93
384.091	11.66
384.457	12.15
384.823	12.01
385.188	11.98
385.554	11.72
385.92	11.73
386.286	11.97
386.651	12.12
387.017	11.78
387.383	12.29
387.748	11.96
388.114	12.31
388.479	12.34
388.845	12.09
389.21	12.15
389.575	12.36
389.94	12.08
390.306	12.23
390.671	12.24
391.036	12.16
391.401	12.09
391.766	12.32
392.131	12.12
392.496	12.11
392.861	12.35
393.226	12.45
393.591	12.39
393.956	12.87
394.32	12.33
394.685	12.53
395.05	12.51
395.414	12.52
395.779	12.36
396.143	12.48
396.508	12.7
396.872	12.59
397.236	12.59
397.601	13.09
397.965	12.96
398.329	12.4
398.694	12.72
399.058	13.14
399.422	13
399.786	13.14
400.15	13.07
400.514	13.31
400.878	13.02
401.242	13.06
401.605	13.08
401.969	12.92
402.333	13.13
402.697	13.36
403.06	13.11
403.424	13.19
403.787	13.23
404.151	13.08
404.514	13.01
404.878	13.03
405.241	13.39
405.604	13.13
405.968	13.21
406.331	13.2
406.694	13.39
407.057	13.57
407.42	13.49
407.783	13.43
408.146	13.57
408.509	13.76
408.872	13.51
409.235	13.48
409.598	13.46
409.961	13.63
410.323	13.21
410.686	13.7
411.049	13.36
411.411	13.56
411.774	13.65
412.136	13.7
412.499	13.6
412.861	13.78
413.223	13.81
413.586	13.79
413.948	13.68
414.31	13.87
414.672	14.07
415.035	13.79
415.397	13.72
415.759	14.1
416.121	14.15
416.483	13.69
416.845	13.94
417.206	14.12
417.568	14.2
417.93	13.81
418.292	14.06
418.653	13.99
419.015	13.91
419.377	13.78
419.738	13.85
420.1	13.74
420.461	13.86
420.822	13.85
421.184	13.78
421.545	13.9
421.906	13.94
422.267	13.9
422.629	13.76
422.99	13.89
423.351	14.07
423.712	14.2
424.073	14.22
424.434	14.16
424.795	14.19
425.155	14.07
425.516	13.96
425.877	13.9
426.238	14.21
426.598	14.28
426.959	14.41
427.32	14.67
427.68	14.67
428.041	14.59
428.401	14.64
428.761	14.71
429.122	14.83
429.482	14.72
429.842	14.63
430.202	14.95
430.563	14.59
430.923	14.88
431.283	14.8
431.643	14.95
432.003	14.87
432.363	14.95
432.722	15
433.082	14.92
433.442	14.89
433.802	15.02
434.161	15
434.521	14.69
434.881	14.83
435.24	14.88
435.6	14.86
435.959	15.13
436.319	15.23
436.678	15.25
437.037	15.26
437.396	15.2
437.756	15.29
438.115	15.25
438.474	15.43
438.833	15.21
439.192	15.24
439.551	15.36
439.91	15.27
440.269	15.22
440.628	15.02
440.987	15.27
441.345	15.26
441.704	15.21
442.063	15.28
442.421	15.29
442.78	15.33
443.138	15.33
443.497	15.59
443.855	15.77
444.214	15.61
444.572	15.67
444.93	15.49
445.288	15.64
445.647	15.51
446.005	15.57
446.363	15.56
446.721	15.53
447.079	15.49
447.437	15.37
447.795	15.47
448.153	15.43
448.51	15.46
448.868	15.6
449.226	15.62
449.584	15.84
449.941	15.95
450.299	15.98
450.656	15.87
451.014	15.89
451.371	16.05
451.729	16.1
452.086	16.44
452.443	16.3
452.801	16.23
453.158	16.16
453.515	16.06
453.872	15.98
454.229	16.18
454.586	16.02
454.943	16.32
455.3	16.44
455.657	16.7
456.014	16.59
456.371	16.48
456.727	16.29
457.084	16.44
457.441	16.65
457.797	16.42
458.154	16.8
458.51	16.5
458.867	16.64
459.223	16.52
459.58	16.4
459.936	16.52
460.292	16.57
460.648	16.23
461.005	16.13
461.361	15.99
461.717	16.06
462.073	16.49
462.429	16.84
462.785	16.98
463.141	16.9
463.496	17.16
463.852	17.09
464.208	17.1
464.564	16.97
464.919	17.02
465.275	17.16
465.631	17.11
465.986	17.17
466.342	16.98
466.697	17.07
467.052	17.14
467.408	17.33
467.763	17.22
468.118	17.2
468.473	17.08
468.829	17.12
469.184	17.16
469.539	17.37
469.894	17.45
470.249	17.51
470.603	17.56
470.958	17.49
471.313	17.29
471.668	17.2
472.023	17.3
472.377	17.43
472.732	17.45
473.086	17.6
473.441	17.44
473.795	17.72
474.15	17.65
474.504	17.46
474.859	17.64
475.213	17.58
475.567	17.67
475.921	17.84
476.275	17.63
476.63	17.92
476.984	17.68
477.338	17.76
477.692	17.67
478.045	17.67
478.399	17.69
478.753	17.68
479.107	17.86
479.461	17.81
479.814	17.87
480.168	17.88
480.521	17.75
480.875	17.85
481.228	18.1
481.582	18.17
481.935	17.97
482.289	17.71
482.642	17.96
482.995	17.77
483.348	17.72
483.701	17.66
484.055	17.55
484.408	17.33
484.761	16.97
485.114	16.5
485.466	16.4
485.819	16.69
486.172	17.3
486.525	17.87
486.878	18.13
487.23	18.39
487.583	18.3
487.936	17.98
488.288	17.65
488.641	17.26
488.993	17.09
489.345	17.27
489.698	17.49
490.05	17.69
490.402	18
490.754	18.34
491.107	18.51
491.459	18.51
491.811	18.44
492.163	18.34
492.515	17.8
492.866	17.53
493.218	17.2
493.57	17.48
493.922	17.98
494.274	18.46
494.625	18.93
494.977	18.89
495.328	18.95
495.68	19.02
496.031	18.99
496.383	18.85
496.734	18.84
497.086	18.9
497.437	18.69
497.788	18.66
498.139	18.74
498.49	18.43
498.842	18.85
499.193	18.92
499.544	19.05
499.894	19.04
500.245	19.18
500.596	19.11
500.947	19.07
501.298	19.31
501.648	19.39
501.999	19.29
502.35	19.37
502.7	19.56
503.051	19.54
503.401	19.58
503.752	19.33
504.102	19.4
504.452	19.55
504.803	19.36
505.153	19.26
505.503	19.35
505.853	19.3
506.203	19.45
506.553	19.49
506.903	19.59
507.253	19.65
507.603	19.81
507.953	19.59
508.303	19.72
508.652	19.51
509.002	19.49
509.352	19.58
509.701	19.54
510.051	19.61
510.4	19.6
510.75	19.48
511.099	19.51
511.449	19.61
511.798	19.69
512.147	19.61
512.496	19.79
512.846	19.69
513.195	19.86
513.544	19.71
513.893	19.79
514.242	19.81
514.591	19.94
514.939	19.97
515.288	20.03
515.637	19.92
515.986	20.05
516.334	20.17
516.683	20.12
517.032	20.26
517.38	20.18
517.729	20.21
518.077	20.32
518.426	20.13
518.774	19.94
519.122	19.92
519.47	19.85
519.819	19.59
520.167	19.49
520.515	19.57
520.863	19.86
521.211	20.11
521.559	20.29
521.907	20.33
522.255	20.44
522.602	20.53
522.95	20.37
523.298	20.42
523.645	20.53
523.993	20.47
524.341	20.53
524.688	20.63
525.036	20.47
525.383	20.46
525.73	20.46
526.078	20.43
526.425	20.18
526.772	20.04
527.119	19.85
527.466	19.83
527.814	20.07
528.161	20.28
528.508	20.43
528.854	20.28
529.201	20.05
529.548	19.72
529.895	19.22
530.242	19.07
530.588	19.35
530.935	19.97
531.282	20.47
531.628	20.67
531.975	20.91
532.321	20.95
532.667	20.87
533.014	20.95
533.36	20.83
533.706	20.69
534.052	20.67
534.399	20.21
534.745	19.85
535.091	19.81
535.437	20.26
535.783	20.72
536.129	21.08
536.474	21.3
536.82	21.35
537.166	21.3
537.512	21.09
537.857	20.69
538.203	20.45
538.549	20.54
538.894	20.92
539.239	21.27
539.585	21.46
539.93	21.73
540.276	21.68
540.621	21.61
540.966	21.41
541.311	21.39
541.656	21.08
542.001	20.84
542.346	20.52
542.691	20.22
543.036	19.96
543.381	20.4
543.726	20.84
544.071	21.27
544.415	21.55
544.76	21.47
545.105	21.36
545.449	21.44
545.794	21.65
546.138	21.78
546.483	21.75
546.827	21.7
547.171	21.75
547.516	21.57
547.86	21.52
548.204	21.43
548.548	21.35
548.892	21.58
549.236	21.89
549.58	22.07
549.924	22.3
550.268	22.45
550.612	22.47
550.956	22.38
551.3	22.3
551.643	22.41
551.987	22.54
552.33	22.44
552.674	22.49
553.017	22.23
553.361	22.52
553.704	22.29
554.048	22.12
554.391	22.07
554.734	22.23
555.077	22.26
555.42	22.45
555.764	22.75
556.107	22.79
556.45	22.78
556.793	22.88
557.135	22.65
557.478	22.8
557.821	22.81
558.164	22.76
558.507	23.02
558.849	22.87
559.192	23.01
559.534	23.05
559.877	23.06
560.219	22.96
560.562	23.09
560.904	23.02
561.246	23.2
561.589	22.85
561.931	23.12
562.273	22.7
562.615	22.92
562.957	22.84
563.299	23.03
563.641	23.21
563.983	23.05
564.325	22.95
564.667	23.26
565.008	23.26
565.35	23.25
565.692	23
566.033	23.48
566.375	23.04
566.716	23.05
567.058	23.14
567.399	22.84
567.741	22.93
568.082	22.82
568.423	22.93
568.764	23.04
569.105	23.35
569.447	23.38
569.788	23.52
570.129	23.38
570.47	23.56
570.811	23.33
571.151	23.43
571.492	23.48
571.833	23.47
572.174	23.54
572.514	23.35
572.855	23.45
573.195	23.29
573.536	23.27
573.876	22.95
574.217	23.31
574.557	23.47
574.898	23.65
575.238	23.5
575.578	23.47
575.918	23.59
576.258	23.41
576.598	23.55
576.938	23.44
577.278	23.62
577.618	23.59
577.958	23.71
578.298	24.08
578.638	24.1
578.977	23.86
579.317	23.94
579.657	23.88
579.996	24.15
580.336	24.24
580.675	23.88
581.014	24.22
581.354	24.25
581.693	24.54
582.032	24.09
582.372	24.21
582.711	24.24
583.05	24.33
583.389	24.08
583.728	24.18
584.067	24.44
584.406	24.26
584.745	24.16
585.083	24.4
585.422	24.2
585.761	24.54
586.1	24.65
586.438	24.32
586.777	24.37
587.115	24.52
587.454	24.58
587.792	24.45
588.13	24.76
588.469	24.68
588.807	24.62
589.145	24.64
589.483	24.77
589.821	24.72
590.159	24.6
590.497	24.49
590.835	24.44
591.173	24.41
591.511	24.56
591.849	24.46
592.187	24.95
592.524	24.73
592.862	24.54
593.2	24.72
593.537	24.73
593.875	24.66
594.212	24.77
594.55	24.63
594.887	24.63
595.224	24.96
595.561	24.94
595.899	24.76
596.236	24.77
596.573	24.88
596.91	24.82
597.247	24.86
597.584	24.98
597.921	24.51
598.258	24.74
598.594	24.11
598.931	24.56
599.268	24.73
599.604	24.92
599.941	25.14
600.277	25.36
600.614	25.52
600.95	25.48
601.287	25.41
601.623	25.07
601.959	25.48
602.296	25.26
602.632	25.1
602.968	25.21
603.304	25.27
603.64	25.37
603.976	25.32
604.312	24.92
604.648	25.23
604.984	24.73
605.319	24.82
605.655	25.02
605.991	25.05
606.326	24.85
606.662	24.93
606.998	25.34
607.333	25.49
607.668	25.53
608.004	25.65
608.339	25.84
608.674	25.75
609.01	25.63
609.345	25.61
609.68	25.6
610.015	25.62
610.35	25.55
610.685	25.38
611.02	25.18
611.355	24.98
611.689	25.47
612.024	25.54
612.359	25.75
612.694	25.87
613.028	26.03
613.363	25.98
613.697	25.92
614.032	25.95
614.366	26.1
614.7	25.86
615.035	25.98
615.369	26.22
615.703	25.79
616.037	25.85
616.371	26.07
616.705	26.1
617.039	26.32
617.373	25.68
617.707	25.84
618.041	26.12
618.375	26.13
618.709	26.51
619.042	26.49
619.376	26.26
619.71	26.04
620.043	26.4
620.377	26.21
620.71	26.41
621.043	26.24
621.377	26.49
621.71	26.12
622.043	26.2
622.376	26.67
622.709	26.53
623.043	26.15
623.376	26.77
623.709	26.72
624.041	26.04
624.374	26.99
624.707	26.74
625.04	26.72
625.373	26.52
625.705	26.42
626.038	26.47
626.37	26.6
626.703	26.57
627.035	26.41
627.368	26.42
627.7	26.7
628.032	25.99
628.365	26.16
628.697	26.35
629.029	26.31
629.361	26.28
629.693	26.85
630.025	26.93
630.357	26.97
630.689	26.69
631.021	26.51
631.353	26.79
631.684	26.4
632.016	26.83
632.348	26.67
632.679	26.69
633.011	26.83
633.342	26.51
633.674	26.71
634.005	26.86
634.336	26.93
634.668	26.98
634.999	27
635.33	27.19
635.661	26.58
635.992	27.04
636.323	27
636.654	27.03
636.985	26.86
637.316	26.95
637.647	27.35
637.977	27.07
638.308	27.34
638.639	27.19
638.969	27
639.3	26.9
639.63	27.34
639.961	27.37
640.291	27.21
640.622	27
640.952	27.73
641.282	27
641.612	27.14
641.943	26.93
642.273	27.46
642.603	27.29
642.933	27.23
643.263	27.59
643.592	27.1
643.922	27.59
644.252	27.34
644.582	27.28
644.911	27.27
645.241	27.42
645.571	27.84
645.9	27.78
646.23	27.6
646.559	27.28
646.888	27.76
647.218	27.93
647.547	27.9
647.876	27.42
648.205	27.85
648.534	27.1
648.863	27.43
649.192	28.26
649.521	27.49
649.85	27.94
650.179	28.21
650.508	27.56
650.837	27.48
651.165	27.68
651.494	27.73
651.822	27.92
652.151	27.74
652.479	27.91
652.808	27.63
653.136	27.86
653.465	27.61
653.793	27.61
654.121	27.79
654.449	27.62
654.777	27.99
655.105	28.03
655.433	27.46
655.761	27.89
656.089	27.99
656.417	27.77
656.745	27.86
657.073	27.84
657.4	27.77
657.728	28.3
658.056	27.81
658.383	28.25
658.711	27.75
659.038	28.17
659.365	27.67
659.693	28.54
660.02	28.09
660.347	28.05
660.674	28.21
661.001	27.79
661.329	28.03
661.656	28.26
661.982	27.75
662.309	27.92
662.636	28.74
662.963	28.42
663.29	28.33
663.616	28.27
663.943	28.45
664.27	28.33
664.596	28.39
664.923	28.4
665.249	28.22
665.576	28.23
665.902	28.86
666.228	28.09
666.554	28.56
666.881	28.8
667.207	28.61
667.533	28.59
667.859	28.25
668.185	29.22
668.511	28.79
668.837	29.19
669.162	28.41
669.488	28.44
669.814	28.44
670.139	27.62
670.465	28.25
670.791	28.65
671.116	28.38
671.442	29.34
671.767	28.45
