Data from 001-17_forehead_Reflection__0__161.txt Node

Date: Fri Sep 30 19:22:14 CDT 2022
User: ToomeyLab
Spectrometer: FLMS14357
Trigger mode: 0
Integration Time (sec): 1.000000E-2
Scans to average: 100
Electric dark correction enabled: true
Nonlinearity correction enabled: false
Boxcar width: 0
XAxis mode: Wavelengths
Number of Pixels in Spectrum: 2048
>>>>>Begin Spectral Data<<<<<
189.047	-38.22
189.435	-38.22
189.823	-38.22
190.211	88.03
190.599	155.61
190.987	125.09
191.375	61.27
191.763	325.48
192.151	58.22
192.538	-18.19
192.926	275.55
193.314	18172.73
193.702	-1571.62
194.089	112.24
194.477	99.88
194.864	16.99
195.252	14.29
195.639	1.82
196.027	-29.43
196.414	132.88
196.801	-1603.7
197.189	91.08
197.576	27.36
197.963	59.61
198.351	36.43
198.738	24.2
199.125	33.63
199.512	20.56
199.899	7.18
200.286	13.33
200.673	25.59
201.06	21.43
201.447	9.89
201.833	17.22
202.22	-6.35
202.607	7.34
202.994	5.92
203.38	41.94
203.767	27.97
204.154	18.05
204.54	16.73
204.927	-147.12
205.313	55.28
205.699	36.1
206.086	28.74
206.472	37.22
206.858	39.89
207.245	-39.05
207.631	26.1
208.017	3.37
208.403	35.3
208.789	51.09
209.175	33.52
209.561	39.87
209.947	18.36
210.333	53.04
210.719	19.2
211.105	-29.2
211.491	30.99
211.876	12.88
212.262	50.57
212.648	-3.15
213.034	30.5
213.419	-11.09
213.805	-6.82
214.19	15.28
214.576	29.26
214.961	12.82
215.346	26.11
215.732	20.15
216.117	5.06
216.502	7.3
216.888	2.62
217.273	56.91
217.658	13.84
218.043	44.28
218.428	24.72
218.813	8.58
219.198	7.81
219.583	-1.63
219.968	-0.73
220.353	11.96
220.738	31.08
221.122	-0.25
221.507	5.71
221.892	8.97
222.276	-0.17
222.661	-1.28
223.046	-2.71
223.43	10.12
223.815	13.58
224.199	11.14
224.583	7.54
224.968	-2.23
225.352	2.63
225.736	15.33
226.121	4.19
226.505	14.14
226.889	6.45
227.273	4.25
227.657	2.42
228.041	0.52
228.425	3.56
228.809	3.1
229.193	3.73
229.577	2.67
229.961	3.05
230.344	2.57
230.728	2.85
231.112	2.9
231.495	2.65
231.879	3.7
232.263	3.38
232.646	1.86
233.03	3.33
233.413	3
233.797	2.51
234.18	2.62
234.563	4.6
234.946	2.08
235.33	1.87
235.713	0.9
236.096	2.72
236.479	3.92
236.862	3.01
237.245	2.64
237.628	3.84
238.011	3.2
238.394	2.99
238.777	2.2
239.16	2.51
239.543	2.98
239.925	2.86
240.308	1.82
240.691	1.95
241.073	2.52
241.456	2.32
241.838	2.74
242.221	2.29
242.603	2.9
242.986	2.91
243.368	2.39
243.75	2.37
244.133	2.12
244.515	2.25
244.897	2.22
245.279	2.63
245.661	4.11
246.043	2.81
246.425	2.39
246.807	2.82
247.189	2.69
247.571	2.85
247.953	2.51
248.335	2.55
248.717	2.58
249.098	2.94
249.48	2.92
249.862	2.11
250.243	3.22
250.625	2.6
251.006	3.64
251.388	2.41
251.769	2.11
252.151	2.88
252.532	3.12
252.913	2.11
253.295	2.97
253.676	3.13
254.057	3.09
254.438	3.13
254.819	3.75
255.2	2.38
255.581	3.54
255.962	3.69
256.343	2.24
256.724	3.66
257.105	2.23
257.486	2.73
257.867	3.65
258.247	2.7
258.628	3.16
259.009	2.34
259.389	3.69
259.77	1.88
260.15	3
260.531	3.05
260.911	2.89
261.292	2.92
261.672	2.76
262.052	2.96
262.432	2.96
262.813	3.67
263.193	3.06
263.573	3.46
263.953	2.48
264.333	2.66
264.713	2.82
265.093	3.01
265.473	3.47
265.853	2.31
266.233	3.08
266.612	3.59
266.992	2.47
267.372	2.67
267.752	2.7
268.131	3.34
268.511	3.31
268.89	2.96
269.27	3.72
269.649	3.26
270.029	3.12
270.408	3.36
270.787	3.49
271.167	2.82
271.546	2.54
271.925	3.12
272.304	2.98
272.683	3.02
273.062	2.99
273.441	2.64
273.82	2.8
274.199	3.02
274.578	2.86
274.957	2.8
275.336	2.64
275.715	2.63
276.093	2.59
276.472	2.58
276.851	3.51
277.229	3.81
277.608	2.84
277.986	2.5
278.365	3.35
278.743	3.88
279.122	2.25
279.5	3.31
279.878	3.2
280.257	3.01
280.635	3.16
281.013	2.62
281.391	3.13
281.769	3.45
282.147	2.81
282.525	3.26
282.903	2.81
283.281	3.03
283.659	3.05
284.037	3.12
284.415	2.67
284.792	3.11
285.17	3.14
285.548	2.8
285.925	2.57
286.303	2.73
286.68	2.51
287.058	3.11
287.435	2.93
287.813	2.74
288.19	2.64
288.567	2.77
288.945	2.47
289.322	3.2
289.699	2.75
290.076	3.28
290.453	3.14
290.83	2.79
291.207	3.39
291.584	3.06
291.961	3.1
292.338	3.07
292.715	3.24
293.092	3.44
293.469	3.58
293.845	3.48
294.222	3.9
294.599	2.9
294.975	3.64
295.352	3.74
295.728	3.51
296.105	3.73
296.481	3.77
296.858	3.29
297.234	3.38
297.61	3.76
297.986	3.78
298.363	3.69
298.739	4.06
299.115	3.57
299.491	3.88
299.867	4.08
300.243	4.53
300.619	4.2
300.995	4.13
301.371	4.41
301.746	4.66
302.122	4.18
302.498	4.09
302.874	3.88
303.249	4.35
303.625	4.38
304	4.51
304.376	4.6
304.751	4.58
305.127	4.4
305.502	4.61
305.878	5.09
306.253	5.06
306.628	4.87
307.003	5.06
307.378	4.88
307.754	4.7
308.129	5.03
308.504	4.89
308.879	5.03
309.254	4.55
309.629	4.86
310.003	5.13
310.378	5.38
310.753	5.36
311.128	5.11
311.502	5.58
311.877	5.48
312.252	5.41
312.626	5.43
313.001	5.7
313.375	5.61
313.75	5.78
314.124	5.59
314.498	6.06
314.873	6.12
315.247	5.93
315.621	6.4
315.995	6.54
316.369	5.99
316.743	6.64
317.117	6.47
317.491	6.27
317.865	6.58
318.239	7.06
318.613	6.59
318.987	6.64
319.361	7.22
319.734	6.83
320.108	6.82
320.482	7.41
320.855	6.93
321.229	7.27
321.602	7.61
321.976	7.41
322.349	7.01
322.723	7.13
323.096	7.12
323.469	7.93
323.843	7.45
324.216	7.96
324.589	8.17
324.962	8.06
325.335	8.25
325.708	8.22
326.081	8.55
326.454	8.34
326.827	7.57
327.2	8.26
327.573	8.57
327.945	8.42
328.318	8.21
328.691	8.29
329.063	8.37
329.436	8.7
329.809	8.61
330.181	8.69
330.553	9.24
330.926	9.13
331.298	9.16
331.671	9.7
332.043	8.92
332.415	9.02
332.787	9.75
333.159	9.21
333.532	9.27
333.904	9.31
334.276	9.39
334.648	9.62
335.02	9.6
335.391	9.46
335.763	9.74
336.135	9.7
336.507	9.83
336.879	9.33
337.25	9.38
337.622	9.53
337.993	9.54
338.365	10.39
338.736	9.86
339.108	10.44
339.479	10.98
339.851	10.14
340.222	9.91
340.593	9.91
340.964	10.5
341.336	10.08
341.707	9.62
342.078	10.06
342.449	10.14
342.82	10.43
343.191	10.31
343.562	10.68
343.933	11.08
344.303	10.7
344.674	10.99
345.045	10.69
345.416	11
345.786	10.94
346.157	10.71
346.527	10.68
346.898	11.09
347.268	11.31
347.639	10.55
348.009	10.78
348.38	11.1
348.75	11.34
349.12	11.66
349.49	11.25
349.861	11.44
350.231	11.7
350.601	10.99
350.971	11.72
351.341	11.95
351.711	11.48
352.081	11.46
352.45	11.53
352.82	12.19
353.19	11.62
353.56	11.94
353.929	11.76
354.299	11.92
354.669	11.64
355.038	12.26
355.408	11.67
355.777	12.04
356.147	11.95
356.516	12.38
356.885	12.38
357.254	12.56
357.624	12.5
357.993	12.42
358.362	12.51
358.731	12.4
359.1	12.3
359.469	12.77
359.838	12.36
360.207	12.95
360.576	12.66
360.945	12.69
361.314	12.64
361.682	12.75
362.051	12.72
362.42	12.61
362.788	12.73
363.157	12.86
363.525	12.98
363.894	13.02
364.262	12.91
364.631	13.75
364.999	13.46
365.367	13.17
365.735	13.17
366.104	13.07
366.472	13.5
366.84	13.17
367.208	13.38
367.576	13.4
367.944	13.68
368.312	13.52
368.68	13.73
369.048	13.85
369.416	13.75
369.783	14.23
370.151	13.82
370.519	13.89
370.886	13.9
371.254	14.31
371.621	14.41
371.989	14.13
372.356	14.17
372.724	14.26
373.091	14.44
373.458	14.16
373.826	14.17
374.193	14.67
374.56	14.59
374.927	14.75
375.294	14.21
375.661	14.63
376.028	14.98
376.395	14.96
376.762	14.66
377.129	14.79
377.496	14.96
377.863	14.91
378.229	15.11
378.596	14.65
378.963	14.78
379.329	14.99
379.696	14.98
380.062	15.24
380.429	15.22
380.795	15.11
381.161	15.08
381.528	15.37
381.894	15.47
382.26	15.44
382.626	15.14
382.993	15.43
383.359	15.49
383.725	15.74
384.091	15.46
384.457	15.77
384.823	15.9
385.188	15.62
385.554	15.87
385.92	16.01
386.286	15.81
386.651	16.07
387.017	16.04
387.383	16.07
387.748	16.24
388.114	16.21
388.479	16.14
388.845	15.79
389.21	15.73
389.575	16.25
389.94	16.1
390.306	16.39
390.671	16.31
391.036	16.55
391.401	16.31
391.766	16.45
392.131	16.47
392.496	16.4
392.861	16.48
393.226	16.31
393.591	16.46
393.956	16.8
394.32	16.87
394.685	16.5
395.05	16.66
395.414	16.54
395.779	16.83
396.143	16.85
396.508	16.89
396.872	17.08
397.236	17.11
397.601	17.04
397.965	16.99
398.329	16.86
398.694	17.25
399.058	17.17
399.422	17.35
399.786	17.5
400.15	17.32
400.514	17.77
400.878	17.29
401.242	17.16
401.605	17.58
401.969	17.34
402.333	17.56
402.697	17.94
403.06	17.42
403.424	17.59
403.787	17.61
404.151	17.68
404.514	17.64
404.878	17.77
405.241	17.95
405.604	17.75
405.968	17.61
406.331	17.88
406.694	17.99
407.057	17.98
407.42	18.08
407.783	18.07
408.146	18.01
408.509	18.19
408.872	17.96
409.235	18.26
409.598	18.42
409.961	18.55
410.323	18.17
410.686	18.34
411.049	18.21
411.411	18.11
411.774	18.52
412.136	18.52
412.499	18.47
412.861	18.67
413.223	18.53
413.586	18.63
413.948	18.77
414.31	18.85
414.672	18.89
415.035	18.7
415.397	18.77
415.759	18.73
416.121	18.66
416.483	18.75
416.845	18.59
417.206	18.93
417.568	18.86
417.93	18.65
418.292	19.02
418.653	18.88
419.015	18.86
419.377	18.9
419.738	18.89
420.1	18.79
420.461	18.82
420.822	18.93
421.184	18.83
421.545	18.83
421.906	18.73
422.267	18.83
422.629	18.61
422.99	18.72
423.351	18.98
423.712	19.23
424.073	19.18
424.434	19.19
424.795	19.22
425.155	18.95
425.516	18.93
425.877	19.03
426.238	19.13
426.598	19.19
426.959	19.45
427.32	19.61
427.68	19.78
428.041	19.72
428.401	19.81
428.761	19.94
429.122	19.77
429.482	20.18
429.842	19.88
430.202	20.03
430.563	20.05
430.923	20.11
431.283	20.21
431.643	20.23
432.003	20.08
432.363	20.26
432.722	20.13
433.082	20.45
433.442	20.22
433.802	20.17
434.161	20.19
434.521	20.28
434.881	20.29
435.24	20.33
435.6	20.55
435.959	20.45
436.319	20.61
436.678	20.7
437.037	20.75
437.396	20.59
437.756	20.64
438.115	20.98
438.474	20.87
438.833	20.65
439.192	20.76
439.551	20.82
439.91	20.8
440.269	20.74
440.628	20.85
440.987	20.77
441.345	20.93
441.704	20.88
442.063	20.87
442.421	20.86
442.78	20.85
443.138	21.03
443.497	21.13
443.855	21.33
444.214	21.39
444.572	21.4
444.93	21.33
445.288	21.59
445.647	21.14
446.005	21.43
446.363	21.43
446.721	21.33
447.079	21.2
447.437	21.18
447.795	21.07
448.153	21.17
448.51	21.16
448.868	21.34
449.226	21.51
449.584	21.68
449.941	21.9
450.299	21.78
450.656	21.85
451.014	21.97
451.371	22.08
451.729	22.01
452.086	22.14
452.443	22.16
452.801	22.07
453.158	22.06
453.515	21.96
453.872	22.05
454.229	21.94
454.586	22.18
454.943	22.29
455.3	22.43
455.657	22.65
456.014	22.58
456.371	22.71
456.727	22.55
457.084	22.58
457.441	22.77
457.797	22.51
458.154	22.84
458.51	22.7
458.867	22.68
459.223	22.68
459.58	22.55
459.936	22.7
460.292	22.69
460.648	22.43
461.005	22.23
461.361	22.29
461.717	22.29
462.073	22.65
462.429	23
462.785	23.09
463.141	23.11
463.496	23.28
463.852	23.29
464.208	23.45
464.564	23.28
464.919	23.36
465.275	23.47
465.631	23.49
465.986	23.51
466.342	23.55
466.697	23.38
467.052	23.59
467.408	23.74
467.763	23.64
468.118	23.72
468.473	23.65
468.829	23.61
469.184	23.85
469.539	23.75
469.894	24.09
470.249	23.95
470.603	24.09
470.958	23.93
471.313	24
471.668	23.99
472.023	23.95
472.377	24.01
472.732	23.88
473.086	24.09
473.441	24.06
473.795	24.4
474.15	24.24
474.504	23.96
474.859	24.38
475.213	24.42
475.567	24.41
475.921	24.6
476.275	24.61
476.63	24.43
476.984	24.4
477.338	24.55
477.692	24.32
478.045	24.36
478.399	24.39
478.753	24.46
479.107	24.58
479.461	24.47
479.814	24.64
480.168	24.58
480.521	24.61
480.875	24.8
481.228	24.9
481.582	24.9
481.935	24.77
482.289	24.48
482.642	24.72
482.995	24.46
483.348	24.5
483.701	24.34
484.055	24.35
484.408	24.13
484.761	23.67
485.114	23.23
485.466	23.18
485.819	23.6
486.172	24.22
486.525	24.71
486.878	24.98
487.23	24.96
487.583	24.99
487.936	24.74
488.288	24.35
488.641	24.05
488.993	24.08
489.345	24.15
489.698	24.41
490.05	24.61
490.402	24.92
490.754	25.25
491.107	25.56
491.459	25.36
491.811	25.42
492.163	25.27
492.515	24.72
492.866	24.53
493.218	24.17
493.57	24.69
493.922	25.12
494.274	25.5
494.625	25.92
494.977	25.93
495.328	26.13
495.68	26.02
496.031	25.96
496.383	26.09
496.734	26.18
497.086	26.15
497.437	26
497.788	25.9
498.139	26.01
498.49	25.79
498.842	25.95
499.193	26.14
499.544	26.22
499.894	26.29
500.245	26.39
500.596	26.42
500.947	26.55
501.298	26.75
501.648	26.69
501.999	26.7
502.35	26.73
502.7	26.75
503.051	26.83
503.401	26.95
503.752	26.79
504.102	26.88
504.452	26.98
504.803	26.68
505.153	26.8
505.503	26.89
505.853	26.65
506.203	27
506.553	26.92
506.903	27.06
507.253	27.26
507.603	27.41
507.953	27.2
508.303	27.21
508.652	27.11
509.002	27.37
509.352	27.28
509.701	27.16
510.051	27.13
510.4	27.24
510.75	27.08
511.099	27.25
511.449	27.26
511.798	27.49
512.147	27.41
512.496	27.52
512.846	27.33
513.195	27.54
513.544	27.43
513.893	27.44
514.242	27.59
514.591	27.68
514.939	27.82
515.288	27.98
515.637	27.85
515.986	27.93
516.334	27.96
516.683	27.9
517.032	28.19
517.38	28.1
517.729	28.04
518.077	28.19
518.426	27.95
518.774	27.8
519.122	27.81
519.47	27.8
519.819	27.66
520.167	27.38
520.515	27.64
520.863	27.87
521.211	28.06
521.559	28.25
521.907	28.16
522.255	28.51
522.602	28.56
522.95	28.39
523.298	28.51
523.645	28.67
523.993	28.43
524.341	28.7
524.688	28.69
525.036	28.51
525.383	28.8
525.73	28.46
526.078	28.67
526.425	28.35
526.772	28.16
527.119	28.02
527.466	28.05
527.814	28.24
528.161	28.58
528.508	28.55
528.854	28.41
529.201	28.21
529.548	27.83
529.895	27.28
530.242	27.31
530.588	27.68
530.935	28.27
531.282	28.62
531.628	28.91
531.975	29.03
532.321	29.15
532.667	29.14
533.014	28.96
533.36	29.11
533.706	29.02
534.052	28.84
534.399	28.53
534.745	28.24
535.091	28.23
535.437	28.58
535.783	29.05
536.129	29.41
536.474	29.5
536.82	29.62
537.166	29.65
537.512	29.49
537.857	29.13
538.203	28.96
538.549	29.04
538.894	29.51
539.239	29.53
539.585	29.96
539.93	29.93
540.276	30.16
540.621	30.11
540.966	30.02
541.311	29.96
541.656	29.83
542.001	29.34
542.346	29.16
542.691	28.75
543.036	28.71
543.381	29.08
543.726	29.56
544.071	29.88
544.415	30.19
544.76	29.92
545.105	29.99
545.449	30.15
545.794	30.29
546.138	30.5
546.483	30.56
546.827	30.58
547.171	30.41
547.516	30.37
547.86	30.41
548.204	30.41
548.548	30.21
548.892	30.45
549.236	30.6
549.58	30.97
549.924	31.11
550.268	31.13
550.612	31.32
550.956	31.27
551.3	31.38
551.643	31.26
551.987	31.2
552.33	31.46
552.674	31.43
553.017	31.23
553.361	31.57
553.704	31.28
554.048	31.34
554.391	31.3
554.734	31.35
555.077	31.38
555.42	31.61
555.764	31.72
556.107	31.72
556.45	31.68
556.793	31.8
557.135	31.82
557.478	31.85
557.821	31.74
558.164	31.93
558.507	31.95
558.849	32.14
559.192	31.98
559.534	32.14
559.877	32.29
560.219	32.2
560.562	32.36
560.904	31.96
561.246	32.48
561.589	32.42
561.931	32.3
562.273	32.2
562.615	32.26
562.957	32.25
563.299	32.28
563.641	32.47
563.983	32.63
564.325	32.48
564.667	32.54
565.008	32.72
565.35	32.42
565.692	32.65
566.033	32.72
566.375	32.62
566.716	32.5
567.058	32.53
567.399	32.52
567.741	32.49
568.082	32.42
568.423	32.6
568.764	32.58
569.105	32.89
569.447	33.08
569.788	32.81
570.129	32.96
570.47	33.05
570.811	32.94
571.151	33.02
571.492	33.01
571.833	33.09
572.174	33.13
572.514	33.03
572.855	33.1
573.195	32.98
573.536	32.83
573.876	33
574.217	32.93
574.557	33.46
574.898	33.39
575.238	33.23
575.578	33.33
575.918	33.49
576.258	33.25
576.598	33.21
576.938	33.15
577.278	33.34
577.618	33.5
577.958	33.9
578.298	33.81
578.638	33.98
578.977	33.83
579.317	34.02
579.657	33.64
579.996	33.74
580.336	33.76
580.675	33.92
581.014	34.15
581.354	34.05
581.693	34.11
582.032	34.22
582.372	34.11
582.711	34.3
583.05	34.84
583.389	34.33
583.728	34.37
584.067	34.55
584.406	34.32
584.745	34.65
585.083	34.84
585.422	34.62
585.761	34.47
586.1	34.62
586.438	34.84
586.777	34.39
587.115	34.69
587.454	34.67
587.792	35.03
588.13	34.66
588.469	34.67
588.807	34.66
589.145	34.82
589.483	34.97
589.821	34.94
590.159	34.99
590.497	35.17
590.835	35.03
591.173	34.99
591.511	34.59
591.849	34.62
592.187	34.83
592.524	34.98
592.862	35.19
593.2	35.19
593.537	35.06
593.875	35.21
594.212	35.4
594.55	35.21
594.887	35.15
595.224	35
595.561	35.37
595.899	35.43
596.236	35.37
596.573	35.41
596.91	35.31
597.247	35.18
597.584	35.53
597.921	35.12
598.258	35.13
598.594	34.98
598.931	35.24
599.268	35.3
599.604	35.39
599.941	35.39
600.277	35.54
600.614	36.06
600.95	35.97
601.287	35.91
601.623	35.77
601.959	35.89
602.296	35.99
602.632	36.02
602.968	35.74
603.304	35.62
603.64	36.1
603.976	35.9
604.312	35.89
604.648	35.84
604.984	35.56
605.319	35.73
605.655	35.55
605.991	35.85
606.326	35.77
606.662	35.63
606.998	35.87
607.333	36.26
607.668	36.39
608.004	36.49
608.339	36.24
608.674	36.48
609.01	36.59
609.345	36.66
609.68	36.4
610.015	36.38
610.35	36.26
610.685	35.99
611.02	36.03
611.355	36.06
611.689	36.23
612.024	36.38
612.359	36.54
612.694	36.74
613.028	36.96
613.363	36.91
613.697	37.1
614.032	36.75
614.366	37
614.7	36.76
615.035	36.96
615.369	37.56
615.703	36.93
616.037	37.06
616.371	37.36
616.705	37.28
617.039	37.55
617.373	37.02
617.707	37.43
618.041	37.04
618.375	37.58
618.709	37.44
619.042	37.5
619.376	37.43
619.71	37.45
620.043	37.49
620.377	37.53
620.71	37.62
621.043	37.25
621.377	37.83
621.71	37.31
622.043	37.52
622.376	38.05
622.709	37.95
623.043	37.78
623.376	37.71
623.709	37.78
624.041	37.81
624.374	37.75
624.707	37.94
625.04	38.34
625.373	38.2
625.705	38.26
626.038	38.13
626.37	37.89
626.703	37.82
627.035	38
627.368	38.03
627.7	37.73
628.032	37.67
628.365	38.04
628.697	37.98
629.029	37.94
629.361	38.07
629.693	38.13
630.025	38.35
630.357	38.37
630.689	38.48
631.021	38.54
631.353	38.51
631.684	38.18
632.016	37.76
632.348	38.52
632.679	38.49
633.011	38.14
633.342	38.47
633.674	38.6
634.005	38.49
634.336	38.72
634.668	38.51
634.999	38.76
635.33	38.58
635.661	38.41
635.992	38.48
636.323	38.64
636.654	38.94
636.985	38.18
637.316	38.48
637.647	38.81
637.977	39.11
638.308	38.72
638.639	38.95
638.969	38.57
639.3	38.97
639.63	39.12
639.961	38.92
640.291	39.24
640.622	38.84
640.952	39.12
641.282	38.58
641.612	39.4
641.943	39.06
642.273	39.25
642.603	39.29
642.933	39
643.263	39.4
643.592	39.63
643.922	39.36
644.252	38.97
644.582	39.93
644.911	39.16
645.241	39.73
645.571	39.03
645.9	39.44
646.23	39.41
646.559	39.4
646.888	39.07
647.218	39.86
647.547	39.83
647.876	39.79
648.205	39.79
648.534	39.41
648.863	39.4
649.192	39.79
649.521	39.71
649.85	40.03
650.179	39.72
650.508	40.11
650.837	39.99
651.165	39.93
651.494	40.1
651.822	40.21
652.151	39.9
652.479	40.43
652.808	39.82
653.136	40.57
653.465	40.05
653.793	40.25
654.121	40.2
654.449	40.38
654.777	39.99
655.105	40.68
655.433	40.15
655.761	40.38
656.089	40.48
656.417	40.29
656.745	40.78
657.073	39.72
657.4	40.72
657.728	40.53
658.056	40.76
658.383	40.91
658.711	40.74
659.038	39.8
659.365	40.67
659.693	40.63
660.02	40.59
660.347	40.49
660.674	40.3
661.001	40.15
661.329	40.66
661.656	40.41
661.982	40.17
662.309	40.54
662.636	40.58
662.963	40.93
663.29	40.69
663.616	40.35
663.943	40.49
664.27	40.37
664.596	40.83
664.923	41
665.249	41.12
665.576	41.19
665.902	41.12
666.228	41.33
666.554	41.44
666.881	41.72
667.207	41.72
667.533	41.32
667.859	41.32
668.185	41.21
668.511	41.76
668.837	41.69
669.162	41.36
669.488	41.47
669.814	41.34
670.139	40.51
670.465	41.18
