Data from 001-17_chest_Reflection__2__153.txt Node

Date: Fri Sep 30 19:18:46 CDT 2022
User: ToomeyLab
Spectrometer: FLMS14357
Trigger mode: 0
Integration Time (sec): 1.000000E-2
Scans to average: 100
Electric dark correction enabled: true
Nonlinearity correction enabled: false
Boxcar width: 0
XAxis mode: Wavelengths
Number of Pixels in Spectrum: 2048
>>>>>Begin Spectral Data<<<<<
189.047	31.94
189.435	31.94
189.823	31.94
190.211	-117.01
190.599	199.02
190.987	-278.01
191.375	18.83
191.763	314.43
192.151	-21.69
192.538	109.69
192.926	282.31
193.314	47209.09
193.702	415.28
194.089	-206.22
194.477	127.51
194.864	300.94
195.252	-38.83
195.639	32.72
196.027	-88.08
196.414	99.91
196.801	-3996.3
197.189	155.42
197.576	42.73
197.963	19.59
198.351	36.63
198.738	-4.27
199.125	-6.07
199.512	-2.35
199.899	-13.89
200.286	-31.16
200.673	-25.46
201.06	-15.89
201.447	-25.92
201.833	48.73
202.22	-27.12
202.607	7.71
202.994	-21.3
203.38	6.15
203.767	-10.67
204.154	24.3
204.54	20.55
204.927	-148.37
205.313	40.44
205.699	15.69
206.086	41.04
206.472	20.21
206.858	22.41
207.245	-41.45
207.631	41.71
208.017	15.19
208.403	7.2
208.789	41.96
209.175	67.66
209.561	-50.95
209.947	45.28
210.333	22.33
210.719	15.11
211.105	-21.25
211.491	-19.6
211.876	40.69
212.262	25.35
212.648	-11.81
213.034	12.02
213.419	5.16
213.805	-5.17
214.19	-38.17
214.576	-14.86
214.961	23.43
215.346	19.8
215.732	-11.27
216.117	8.59
216.502	13.28
216.888	0.05
217.273	23.24
217.658	2.27
218.043	33.17
218.428	16.83
218.813	9.3
219.198	8.25
219.583	0.97
219.968	12.23
220.353	11.08
220.738	14.27
221.122	3.46
221.507	3.61
221.892	16.08
222.276	-21.44
222.661	4.21
223.046	-7.55
223.43	13.63
223.815	12.82
224.199	8.73
224.583	8.87
224.968	-2.99
225.352	4.29
225.736	9.08
226.121	6.69
226.505	3.83
226.889	-3.34
227.273	0.99
227.657	-1.45
228.041	-0.68
228.425	2.5
228.809	3.18
229.193	3.6
229.577	4.21
229.961	2
230.344	3.48
230.728	3.18
231.112	3.47
231.495	2.53
231.879	2.66
232.263	3.91
232.646	2.98
233.03	3.03
233.413	2.4
233.797	1.24
234.18	3
234.563	6.14
234.946	3.31
235.33	3.3
235.713	0.9
236.096	3.01
236.479	4.44
236.862	4.98
237.245	3.2
237.628	3.99
238.011	2.21
238.394	1.41
238.777	1.14
239.16	3.5
239.543	4.91
239.925	1.68
240.308	0.81
240.691	2.79
241.073	2.44
241.456	2.87
241.838	2.8
242.221	3.65
242.603	3.62
242.986	3.13
243.368	3.64
243.75	2.66
244.133	3.02
244.515	2.88
244.897	3.02
245.279	2.83
245.661	4.41
246.043	2.17
246.425	3.96
246.807	2.7
247.189	3.16
247.571	3.95
247.953	3.27
248.335	3.48
248.717	2.91
249.098	3.42
249.48	3.36
249.862	2.89
250.243	3.54
250.625	2.99
251.006	3.52
251.388	3.09
251.769	3.64
252.151	2.7
252.532	2.65
252.913	2.56
253.295	3.02
253.676	3.34
254.057	3.43
254.438	3.28
254.819	3.65
255.2	3.74
255.581	3.09
255.962	4.13
256.343	1.7
256.724	3.87
257.105	2.87
257.486	3.05
257.867	3.43
258.247	2.93
258.628	2.98
259.009	2.34
259.389	3.22
259.77	2.67
260.15	2.75
260.531	3.58
260.911	2.88
261.292	3.3
261.672	2.94
262.052	3.19
262.432	3.44
262.813	3.32
263.193	2.76
263.573	3.51
263.953	3.34
264.333	2.62
264.713	2.79
265.093	3.2
265.473	3.84
265.853	2.95
266.233	2.95
266.612	3.14
266.992	2.97
267.372	3.65
267.752	2.68
268.131	3.21
268.511	2.94
268.89	2.66
269.27	4.02
269.649	2.81
270.029	2.78
270.408	3.29
270.787	3.22
271.167	3.42
271.546	3.11
271.925	2.87
272.304	3.42
272.683	2.64
273.062	2.95
273.441	2.57
273.82	3.04
274.199	3.08
274.578	3.07
274.957	2.81
275.336	2.93
275.715	2.71
276.093	3.12
276.472	2.59
276.851	3.43
277.229	3.42
277.608	2.84
277.986	2.54
278.365	3.09
278.743	3.21
279.122	2.31
279.5	2.94
279.878	2.55
280.257	2.5
280.635	2.8
281.013	3.64
281.391	2.59
281.769	2.91
282.147	2.84
282.525	3.72
282.903	2.53
283.281	3.2
283.659	3.28
284.037	3.11
284.415	2.67
284.792	3.12
285.17	2.96
285.548	2.98
285.925	2.71
286.303	2.6
286.68	2.66
287.058	2.72
287.435	2.83
287.813	2.78
288.19	2.84
288.567	2.72
288.945	2.83
289.322	3.36
289.699	3.01
290.076	2.94
290.453	3.24
290.83	2.65
291.207	3.27
291.584	2.88
291.961	3.06
292.338	3.03
292.715	3.28
293.092	3.27
293.469	2.67
293.845	3.09
294.222	3.49
294.599	3.05
294.975	2.84
295.352	3.15
295.728	3.11
296.105	2.92
296.481	3.11
296.858	2.57
297.234	2.65
297.61	2.92
297.986	3.31
298.363	2.97
298.739	3.23
299.115	3.06
299.491	3.26
299.867	3.19
300.243	3.19
300.619	3.12
300.995	3.56
301.371	3.84
301.746	3.49
302.122	3.44
302.498	3.05
302.874	3.24
303.249	3.63
303.625	3.15
304	3.44
304.376	3.54
304.751	3.7
305.127	3.1
305.502	3.19
305.878	3.23
306.253	3.93
306.628	3.15
307.003	3.5
307.378	3.25
307.754	3.66
308.129	3.78
308.504	3.14
308.879	3.57
309.254	3.09
309.629	3.16
310.003	3.11
310.378	3.55
310.753	3.46
311.128	3.52
311.502	3.7
311.877	3.54
312.252	3.18
312.626	3.22
313.001	3.01
313.375	3.58
313.75	3.86
314.124	3.42
314.498	3.48
314.873	3.1
315.247	3.37
315.621	3.46
315.995	3.36
316.369	3.61
316.743	3.65
317.117	3.72
317.491	3.36
317.865	3.73
318.239	3.69
318.613	3.31
318.987	3.89
319.361	3.37
319.734	3.68
320.108	3.7
320.482	3.85
320.855	4.03
321.229	3.95
321.602	4.02
321.976	4.01
322.349	3.23
322.723	3.34
323.096	3.4
323.469	4.32
323.843	3.45
324.216	3.73
324.589	3.78
324.962	3.21
325.335	3.89
325.708	3.48
326.081	4.11
326.454	4.13
326.827	3.24
327.2	3.38
327.573	3.73
327.945	3.71
328.318	4.03
328.691	3.61
329.063	3.61
329.436	3.78
329.809	3.8
330.181	3.77
330.553	3.98
330.926	3.48
331.298	3.71
331.671	3.88
332.043	3.72
332.415	4
332.787	3.99
333.159	4.02
333.532	4.08
333.904	3.99
334.276	4.25
334.648	3.61
335.02	4.03
335.391	3.88
335.763	3.4
336.135	3.62
336.507	4.26
336.879	4.07
337.25	4.3
337.622	3.73
337.993	3.42
338.365	4.14
338.736	3.77
339.108	3.89
339.479	4.2
339.851	4.04
340.222	3.82
340.593	3.9
340.964	3.78
341.336	3.66
341.707	3.83
342.078	3.86
342.449	3.91
342.82	3.76
343.191	3.5
343.562	3.7
343.933	4.05
344.303	3.93
344.674	4
345.045	4.13
345.416	3.93
345.786	3.97
346.157	3.52
346.527	3.93
346.898	3.95
347.268	4.06
347.639	3.5
348.009	3.55
348.38	3.79
348.75	3.99
349.12	3.87
349.49	3.16
349.861	3.84
350.231	4.17
350.601	3.8
350.971	3.79
351.341	3.89
351.711	3.63
352.081	3.58
352.45	3.4
352.82	3.77
353.19	3.84
353.56	4.06
353.929	4.04
354.299	3.84
354.669	3.64
355.038	3.98
355.408	3.77
355.777	3.94
356.147	3.88
356.516	4.25
356.885	3.76
357.254	4.19
357.624	4.01
357.993	3.75
358.362	3.61
358.731	3.4
359.1	3.93
359.469	3.88
359.838	4.04
360.207	4.06
360.576	4.08
360.945	3.75
361.314	3.87
361.682	3.88
362.051	4.07
362.42	3.54
362.788	3.82
363.157	3.83
363.525	3.83
363.894	3.88
364.262	3.74
364.631	4.11
364.999	4.21
365.367	4.12
365.735	4.05
366.104	3.76
366.472	3.85
366.84	4.09
367.208	3.89
367.576	4.39
367.944	4.03
368.312	4.02
368.68	3.81
369.048	3.86
369.416	4.26
369.783	4.1
370.151	3.88
370.519	3.9
370.886	4.03
371.254	4.4
371.621	4.86
371.989	4.03
372.356	4.24
372.724	4.08
373.091	3.78
373.458	3.7
373.826	3.89
374.193	4.46
374.56	4.11
374.927	4.35
375.294	3.91
375.661	4.16
376.028	4.29
376.395	4.07
376.762	4.1
377.129	4.16
377.496	3.74
377.863	3.92
378.229	4.06
378.596	3.98
378.963	3.81
379.329	3.91
379.696	3.97
380.062	4.31
380.429	4.07
380.795	3.97
381.161	4.06
381.528	4.17
381.894	4.01
382.26	4.02
382.626	4.13
382.993	4.23
383.359	4.13
383.725	4
384.091	3.89
384.457	4.37
384.823	4.44
385.188	4.43
385.554	4.12
385.92	4.19
386.286	4.12
386.651	4.18
387.017	4.25
387.383	4.41
387.748	4.2
388.114	4.09
388.479	4.38
388.845	4.17
389.21	3.97
389.575	4.05
389.94	4.06
390.306	4.03
390.671	4.19
391.036	4.1
391.401	4.31
391.766	4.11
392.131	4.28
392.496	4.19
392.861	4.45
393.226	3.98
393.591	4.37
393.956	4.25
394.32	4.29
394.685	4.19
395.05	4.26
395.414	4.15
395.779	4.3
396.143	4.13
396.508	4.2
396.872	4.29
397.236	4.22
397.601	4.49
397.965	4.31
398.329	3.82
398.694	4.26
399.058	4.56
399.422	4.32
399.786	4.52
400.15	4.38
400.514	4.46
400.878	4.2
401.242	4.21
401.605	4.26
401.969	4.06
402.333	4.43
402.697	4.68
403.06	4.24
403.424	4.46
403.787	4.42
404.151	4.2
404.514	4.08
404.878	4.23
405.241	4.38
405.604	4.36
405.968	4.27
406.331	4.39
406.694	4.08
407.057	4.5
407.42	4.32
407.783	4.41
408.146	4.26
408.509	4.51
408.872	4.19
409.235	4.27
409.598	4.46
409.961	4.37
410.323	4.27
410.686	4.35
411.049	4.22
411.411	4.44
411.774	4.33
412.136	4.45
412.499	4.47
412.861	4.37
413.223	4.36
413.586	4.41
413.948	4.45
414.31	4.53
414.672	4.7
415.035	4.27
415.397	4.29
415.759	4.48
416.121	4.49
416.483	4.3
416.845	4.27
417.206	4.55
417.568	4.67
417.93	4.22
418.292	4.44
418.653	4.39
419.015	4.52
419.377	4.3
419.738	4.44
420.1	4.32
420.461	4.29
420.822	4.35
421.184	4.28
421.545	4.27
421.906	4.35
422.267	4.28
422.629	4.25
422.99	4.33
423.351	4.32
423.712	4.39
424.073	4.39
424.434	4.37
424.795	4.42
425.155	4.34
425.516	4.31
425.877	4.45
426.238	4.38
426.598	4.28
426.959	4.43
427.32	4.49
427.68	4.52
428.041	4.41
428.401	4.5
428.761	4.54
429.122	4.63
429.482	4.59
429.842	4.56
430.202	4.49
430.563	4.38
430.923	4.73
431.283	4.36
431.643	4.59
432.003	4.63
432.363	4.69
432.722	4.56
433.082	4.57
433.442	4.6
433.802	4.52
434.161	4.52
434.521	4.33
434.881	4.25
435.24	4.35
435.6	4.41
435.959	4.45
436.319	4.48
436.678	4.68
437.037	4.63
437.396	4.49
437.756	4.48
438.115	4.74
438.474	4.58
438.833	4.52
439.192	4.55
439.551	4.7
439.91	4.53
440.269	4.68
440.628	4.46
440.987	4.63
441.345	4.51
441.704	4.51
442.063	4.62
442.421	4.51
442.78	4.53
443.138	4.55
443.497	4.55
443.855	4.77
444.214	4.66
444.572	4.54
444.93	4.57
445.288	4.7
445.647	4.52
446.005	4.63
446.363	4.63
446.721	4.59
447.079	4.52
447.437	4.54
447.795	4.54
448.153	4.54
448.51	4.45
448.868	4.61
449.226	4.46
449.584	4.71
449.941	4.62
450.299	4.75
450.656	4.59
451.014	4.53
451.371	4.72
451.729	4.67
452.086	4.65
452.443	4.92
452.801	4.52
453.158	4.71
453.515	4.55
453.872	4.83
454.229	4.77
454.586	4.52
454.943	4.67
455.3	4.7
455.657	4.84
456.014	4.8
456.371	4.79
456.727	4.67
457.084	4.83
457.441	4.66
457.797	4.65
458.154	4.88
458.51	4.79
458.867	4.82
459.223	4.91
459.58	4.67
459.936	4.78
460.292	4.77
460.648	4.58
461.005	4.64
461.361	4.64
461.717	4.58
462.073	4.65
462.429	4.81
462.785	4.82
463.141	4.75
463.496	4.89
463.852	4.71
464.208	4.9
464.564	5.03
464.919	4.68
465.275	4.88
465.631	4.85
465.986	4.79
466.342	4.85
466.697	4.73
467.052	4.81
467.408	4.68
467.763	4.94
468.118	4.9
468.473	4.94
468.829	4.71
469.184	4.86
469.539	4.9
469.894	4.89
470.249	4.86
470.603	5.12
470.958	4.97
471.313	4.8
471.668	4.91
472.023	4.81
472.377	4.99
472.732	4.82
473.086	4.88
473.441	4.79
473.795	5.01
474.15	4.91
474.504	4.74
474.859	5.02
475.213	4.9
475.567	4.88
475.921	5.13
476.275	5
476.63	5.04
476.984	4.83
477.338	4.95
477.692	4.86
478.045	4.81
478.399	4.95
478.753	4.88
479.107	4.91
479.461	4.76
479.814	5
480.168	5.07
480.521	4.83
480.875	4.99
481.228	5.02
481.582	5.03
481.935	4.77
482.289	4.84
482.642	5.01
482.995	4.8
483.348	4.92
483.701	4.93
484.055	4.91
484.408	4.86
484.761	4.75
485.114	4.58
485.466	4.56
485.819	4.59
486.172	4.71
486.525	4.88
486.878	4.95
487.23	4.97
487.583	5.04
487.936	4.95
488.288	4.92
488.641	4.74
488.993	4.76
489.345	4.76
489.698	4.78
490.05	4.85
490.402	4.89
490.754	5.01
491.107	5.07
491.459	5.05
491.811	5.07
492.163	5.07
492.515	4.87
492.866	4.83
493.218	4.78
493.57	4.82
493.922	4.86
494.274	4.98
494.625	5.17
494.977	5.11
495.328	5.08
495.68	5.23
496.031	5.23
496.383	5.17
496.734	5.2
497.086	5.15
497.437	5.06
497.788	5
498.139	5.1
498.49	5
498.842	5.13
499.193	5.18
499.544	5.11
499.894	5.18
500.245	5.35
500.596	5.18
500.947	5.23
501.298	5.25
501.648	5.15
501.999	5.27
502.35	5.3
502.7	5.25
503.051	5.5
503.401	5.43
503.752	5.26
504.102	5.26
504.452	5.24
504.803	5.34
505.153	5.38
505.503	5.3
505.853	5.27
506.203	5.31
506.553	5.35
506.903	5.35
507.253	5.26
507.603	5.49
507.953	5.17
508.303	5.44
508.652	5.18
509.002	5.42
509.352	5.39
509.701	5.28
510.051	5.37
510.4	5.39
510.75	5.29
511.099	5.32
511.449	5.36
511.798	5.32
512.147	5.42
512.496	5.41
512.846	5.45
513.195	5.38
513.544	5.47
513.893	5.41
514.242	5.36
514.591	5.56
514.939	5.39
515.288	5.55
515.637	5.51
515.986	5.47
516.334	5.49
516.683	5.69
517.032	5.62
517.38	5.56
517.729	5.55
518.077	5.7
518.426	5.66
518.774	5.59
519.122	5.53
519.47	5.49
519.819	5.49
520.167	5.38
520.515	5.48
520.863	5.52
521.211	5.54
521.559	5.54
521.907	5.54
522.255	5.6
522.602	5.8
522.95	5.7
523.298	5.61
523.645	5.67
523.993	5.78
524.341	5.6
524.688	5.67
525.036	5.59
525.383	5.8
525.73	5.68
526.078	5.71
526.425	5.69
526.772	5.6
527.119	5.6
527.466	5.56
527.814	5.56
528.161	5.69
528.508	5.72
528.854	5.78
529.201	5.64
529.548	5.62
529.895	5.4
530.242	5.36
530.588	5.41
530.935	5.57
531.282	5.66
531.628	5.74
531.975	5.79
532.321	5.87
532.667	5.88
533.014	5.92
533.36	5.88
533.706	5.93
534.052	5.83
534.399	5.73
534.745	5.67
535.091	5.65
535.437	5.74
535.783	5.82
536.129	5.94
536.474	5.98
536.82	5.99
537.166	6.07
537.512	5.95
537.857	5.96
538.203	5.91
538.549	5.94
538.894	6.12
539.239	6.13
539.585	6.19
539.93	6.28
540.276	6.31
540.621	6.16
540.966	6.19
541.311	6.17
541.656	6.25
542.001	6.04
542.346	6.04
542.691	5.92
543.036	5.83
543.381	5.91
543.726	6.08
544.071	6.15
544.415	6.33
544.76	6.22
545.105	6.23
545.449	6.24
545.794	6.21
546.138	6.47
546.483	6.42
546.827	6.43
547.171	6.38
547.516	6.37
547.86	6.47
548.204	6.24
548.548	6.36
548.892	6.42
549.236	6.47
549.58	6.44
549.924	6.56
550.268	6.63
550.612	6.66
550.956	6.73
551.3	6.57
551.643	6.57
551.987	6.6
552.33	6.91
552.674	6.73
553.017	6.78
553.361	6.95
553.704	6.84
554.048	6.61
554.391	6.82
554.734	6.71
555.077	6.61
555.42	7.01
555.764	6.78
556.107	6.88
556.45	6.93
556.793	6.98
557.135	6.82
557.478	6.85
557.821	6.88
558.164	7.07
558.507	7.09
558.849	7.03
559.192	7.07
559.534	6.93
559.877	7.24
560.219	7.14
560.562	7.31
560.904	7.17
561.246	7.12
561.589	7.1
561.931	7.15
562.273	7.08
562.615	7.16
562.957	7.03
563.299	7.22
563.641	7.3
563.983	7.32
564.325	7.24
564.667	7.18
565.008	7.72
565.35	7.25
565.692	7.25
566.033	7.33
566.375	7.23
566.716	7.31
567.058	7.42
567.399	7.2
567.741	7.33
568.082	7.47
568.423	7.47
568.764	7.49
569.105	7.52
569.447	7.47
569.788	7.67
570.129	7.6
570.47	7.47
570.811	7.48
571.151	7.48
571.492	7.63
571.833	7.67
572.174	7.6
572.514	7.69
572.855	7.63
573.195	7.59
573.536	7.73
573.876	7.72
574.217	7.54
574.557	7.81
574.898	7.72
575.238	7.79
575.578	7.75
575.918	7.94
576.258	7.83
576.598	7.8
576.938	7.91
577.278	7.94
577.618	8.15
577.958	8.06
578.298	8.23
578.638	8.27
578.977	8.1
579.317	8.22
579.657	8.14
579.996	8.17
580.336	8.12
580.675	8.24
581.014	8.21
581.354	8.3
581.693	8.45
582.032	8.08
582.372	8.2
582.711	8.21
583.05	8.38
583.389	8.26
583.728	8.41
584.067	8.68
584.406	8.34
584.745	8.57
585.083	8.69
585.422	8.69
585.761	8.52
586.1	8.84
586.438	8.57
586.777	8.62
587.115	8.44
587.454	8.74
587.792	8.72
588.13	8.94
588.469	8.76
588.807	8.78
589.145	9.01
589.483	8.76
589.821	9.12
590.159	8.79
590.497	8.84
590.835	8.71
591.173	8.79
591.511	8.94
591.849	8.7
592.187	9.08
592.524	9.09
592.862	9
593.2	9.16
593.537	9.24
593.875	9.03
594.212	9.16
594.55	9.05
594.887	9.16
595.224	9.34
595.561	9.32
595.899	9.31
596.236	9.1
596.573	9.27
596.91	9.29
597.247	9.38
597.584	9.38
597.921	9.44
598.258	9.43
598.594	9.05
598.931	9.39
599.268	9.4
599.604	9.5
599.941	9.35
600.277	9.8
600.614	9.94
600.95	9.61
601.287	9.68
601.623	9.51
601.959	9.53
602.296	9.81
602.632	9.53
602.968	9.75
603.304	9.92
603.64	9.9
603.976	9.75
604.312	9.62
604.648	9.99
604.984	9.6
605.319	9.9
605.655	9.85
605.991	9.98
606.326	9.83
606.662	9.89
606.998	9.85
607.333	10.12
607.668	10.1
608.004	10.31
608.339	10.18
608.674	10.07
609.01	10.33
609.345	10.02
609.68	10.06
610.015	10.18
610.35	10.35
610.685	10.32
611.02	10.1
611.355	10.17
611.689	10.37
612.024	10.22
612.359	10.41
612.694	10.6
613.028	10.67
613.363	10.66
613.697	10.89
614.032	10.65
614.366	10.58
614.7	10.65
615.035	10.83
615.369	10.74
615.703	10.77
616.037	10.69
616.371	11.13
616.705	10.55
617.039	10.58
617.373	10.55
617.707	10.81
618.041	10.79
618.375	10.98
618.709	11.09
619.042	11.42
619.376	11.39
619.71	11.05
620.043	11.15
620.377	11.16
620.71	10.97
621.043	11.07
621.377	11.1
621.71	11.52
622.043	10.94
622.376	11.37
622.709	11.32
623.043	10.95
623.376	11.43
623.709	11.44
624.041	11.02
624.374	11.65
624.707	11.52
625.04	11.68
625.373	11.35
625.705	11.5
626.038	11.81
626.37	11.37
626.703	11.59
627.035	11.24
627.368	11.5
627.7	11.57
628.032	11.29
628.365	11.62
628.697	11.67
629.029	11.71
629.361	11.56
629.693	11.44
630.025	11.39
630.357	11.86
630.689	11.38
631.021	11.89
631.353	11.94
631.684	11.9
632.016	11.63
632.348	11.61
632.679	12.07
633.011	12.08
633.342	11.9
633.674	11.91
634.005	12.31
634.336	12.05
634.668	12.05
634.999	12.24
635.33	12.43
635.661	12.32
635.992	12.37
636.323	12.29
636.654	12.34
636.985	12.38
637.316	12.6
637.647	12.5
637.977	12.51
638.308	12.4
638.639	12.52
638.969	12.22
639.3	12.3
639.63	13.03
639.961	13.05
640.291	12.24
640.622	12.72
640.952	12.93
641.282	12.68
641.612	12.7
641.943	12.58
642.273	12.88
642.603	12.93
642.933	12.9
643.263	12.34
643.592	13.13
643.922	12.97
644.252	13.02
644.582	13.11
644.911	13.07
645.241	13.29
645.571	13.1
645.9	13.35
646.23	12.98
646.559	13.03
646.888	13.29
647.218	13.66
647.547	13
647.876	13.35
648.205	13.1
648.534	12.75
648.863	13.56
649.192	13.56
649.521	13.07
649.85	13.68
650.179	12.83
650.508	13.42
650.837	13.14
651.165	13.08
651.494	13.3
651.822	13.48
652.151	13.08
652.479	13.5
652.808	13.68
653.136	13.62
653.465	13.03
653.793	13.18
654.121	13.59
654.449	13.85
654.777	13.47
655.105	13.99
655.433	13.68
655.761	13.82
656.089	13.99
656.417	13.93
656.745	13.87
657.073	14.07
657.4	14.21
657.728	14.23
658.056	14.11
658.383	14.18
658.711	13.66
659.038	14.25
659.365	14.15
659.693	14.06
660.02	14.29
660.347	14.12
660.674	14.36
661.001	14.19
661.329	14.27
661.656	14.27
661.982	14.02
662.309	14.06
662.636	14.1
662.963	14.19
663.29	14.19
663.616	14.03
663.943	14.69
664.27	14.72
664.596	14.18
664.923	14.75
665.249	14.85
665.576	14.42
665.902	14.77
666.228	14.56
666.554	14.45
666.881	14.99
667.207	15.24
667.533	14.75
667.859	14.42
668.185	14.96
668.511	15.04
668.837	15.05
669.162	15.14
669.488	15.14
669.814	15.41
670.139	14.38
670.465	14.69
670.791	14.93
671.116	14.52
671.442	15.12
671.767	14.83
672.092	14.92
672.418	15.08
672.743	16.05
673.068	15.73
673.393	15.54
673.718	15.21
674.043	14.93
674.368	15.28
674.693	14.94
675.018	15.64
675.343	14.85
675.667	15.15
675.992	15.14
676.317	15.42
676.641	15.36
676.966	15.21
677.29	15.95
677.615	15.26
677.939	15.79
678.264	15.58
678.588	16
678.912	15.19
679.236	14.7
679.56	15.39
679.885	16.1
680.209	15.66
680.532	15.19
680.856	15.66
681.18	15.56
681.504	15.23
681.828	16.05
682.152	15.9
682.475	15.6
682.799	16
683.122	15.39
683.446	15.74
683.769	15.54
684.093	16.22
684.416	16.75
684.739	15.84
685.062	16.34
685.386	15.99
685.709	16.38
686.032	16.28
686.355	16.54
686.678	16.19
687.001	16.33
