Data from 001-17_chest_Reflection__3__154.txt Node

Date: Fri Sep 30 19:18:57 CDT 2022
User: ToomeyLab
Spectrometer: FLMS14357
Trigger mode: 0
Integration Time (sec): 1.000000E-2
Scans to average: 100
Electric dark correction enabled: true
Nonlinearity correction enabled: false
Boxcar width: 0
XAxis mode: Wavelengths
Number of Pixels in Spectrum: 2048
>>>>>Begin Spectral Data<<<<<
189.047	-108.5
189.435	-108.5
189.823	-108.5
190.211	458.74
190.599	46.34
190.987	22.51
191.375	81.13
191.763	309.62
192.151	-26.85
192.538	-14.59
192.926	367.05
193.314	22118.18
193.702	6.55
194.089	-148.57
194.477	225.23
194.864	101.02
195.252	19.47
195.639	32.81
196.027	190.73
196.414	195.61
196.801	11262.96
197.189	51.18
197.576	7.38
197.963	28.76
198.351	51.52
198.738	-9.19
199.125	-4.92
199.512	26.81
199.899	-39.59
200.286	30.57
200.673	-10.56
201.06	20.22
201.447	1.26
201.833	31.47
202.22	-51.57
202.607	0.32
202.994	-22.31
203.38	31.1
203.767	-4.2
204.154	30.47
204.54	4.52
204.927	-82.68
205.313	22.12
205.699	-7.33
206.086	5.32
206.472	47.38
206.858	32.42
207.245	-24.77
207.631	15.86
208.017	40.21
208.403	-0.69
208.789	44.1
209.175	38.49
209.561	8.77
209.947	26.63
210.333	26.34
210.719	20.3
211.105	-13.27
211.491	-8.59
211.876	34.57
212.262	18.58
212.648	-26.87
213.034	33.26
213.419	31.33
213.805	25.2
214.19	-2.9
214.576	3.58
214.961	14.11
215.346	20.75
215.732	-24.92
216.117	17.29
216.502	19.43
216.888	35.51
217.273	61.2
217.658	1.73
218.043	20.26
218.428	23.92
218.813	14.12
219.198	5.82
219.583	11.84
219.968	-3.87
220.353	-5.76
220.738	14.01
221.122	5.17
221.507	4.09
221.892	5.15
222.276	-13.82
222.661	1.03
223.046	-8.51
223.43	10.46
223.815	12.11
224.199	7.35
224.583	6.53
224.968	0.88
225.352	6.25
225.736	6.47
226.121	13.19
226.505	10.8
226.889	0.81
227.273	5.38
227.657	-3.22
228.041	2.49
228.425	4.11
228.809	10.11
229.193	3.8
229.577	3.17
229.961	4.42
230.344	3.89
230.728	3.73
231.112	4.16
231.495	4.24
231.879	4.1
232.263	4.14
232.646	4.87
233.03	5.51
233.413	3.8
233.797	4.15
234.18	4.08
234.563	3.18
234.946	3.36
235.33	3
235.713	1.68
236.096	5.39
236.479	3.15
236.862	4.76
237.245	4.53
237.628	3.51
238.011	4.66
238.394	2.37
238.777	4.59
239.16	3.41
239.543	5.14
239.925	1.87
240.308	2.55
240.691	3.1
241.073	4.24
241.456	5.11
241.838	3.46
242.221	4.36
242.603	4.57
242.986	3.47
243.368	4.15
243.75	3.28
244.133	3.54
244.515	3.57
244.897	3.65
245.279	3.75
245.661	4.19
246.043	4.55
246.425	4.51
246.807	3.84
247.189	3.67
247.571	4.16
247.953	3.51
248.335	3.73
248.717	3.61
249.098	3.96
249.48	3.97
249.862	3.51
250.243	3.68
250.625	3.5
251.006	4.42
251.388	3.99
251.769	3.4
252.151	3.49
252.532	3.53
252.913	2.68
253.295	3.68
253.676	4.09
254.057	3.83
254.438	3.72
254.819	4.28
255.2	3.62
255.581	4.12
255.962	4.03
256.343	2.83
256.724	4.53
257.105	3.06
257.486	2.78
257.867	4.78
258.247	3.76
258.628	3.69
259.009	3.83
259.389	3.93
259.77	3.45
260.15	3.27
260.531	3.7
260.911	3.4
261.292	3.79
261.672	3.43
262.052	3.59
262.432	3.65
262.813	4.13
263.193	3.66
263.573	3.71
263.953	3.55
264.333	3.38
264.713	3.38
265.093	3.67
265.473	4.04
265.853	3.4
266.233	2.79
266.612	3.5
266.992	3.45
267.372	3.94
267.752	2.98
268.131	3.32
268.511	3.55
268.89	3.58
269.27	3.72
269.649	3.53
270.029	3.61
270.408	3.74
270.787	3.49
271.167	3.57
271.546	3.72
271.925	3.25
272.304	3.43
272.683	3.18
273.062	3.3
273.441	3.31
273.82	3.1
274.199	3.58
274.578	3.6
274.957	3.53
275.336	3.36
275.715	3.58
276.093	3.34
276.472	3.56
276.851	4.13
277.229	3.95
277.608	3.71
277.986	2.81
278.365	3.6
278.743	3.28
279.122	2.79
279.5	3.79
279.878	3.21
280.257	3.16
280.635	3.46
281.013	4
281.391	3.12
281.769	3.2
282.147	3.24
282.525	3.48
282.903	3.67
283.281	3.86
283.659	3.26
284.037	3.62
284.415	2.87
284.792	3.27
285.17	3.47
285.548	3.33
285.925	3.27
286.303	3.29
286.68	3.27
287.058	3.59
287.435	3.15
287.813	3.28
288.19	2.79
288.567	3.28
288.945	3
289.322	3.28
289.699	2.93
290.076	3.64
290.453	3.24
290.83	3.3
291.207	3.76
291.584	3.34
291.961	3.4
292.338	3.11
292.715	3.49
293.092	3.58
293.469	3.12
293.845	3.83
294.222	3.86
294.599	3.44
294.975	3.48
295.352	3.93
295.728	3.31
296.105	3.38
296.481	3.82
296.858	3.4
297.234	2.66
297.61	3.46
297.986	3.68
298.363	3.35
298.739	3.63
299.115	3.25
299.491	3.48
299.867	3.35
300.243	3.62
300.619	3.35
300.995	3.4
301.371	3.82
301.746	4.36
302.122	3.49
302.498	3.54
302.874	2.92
303.249	3.32
303.625	3.65
304	3.3
304.376	3.32
304.751	4.08
305.127	3.37
305.502	3.01
305.878	3.5
306.253	4.1
306.628	3.55
307.003	3.56
307.378	3.35
307.754	3.66
308.129	3.44
308.504	3.72
308.879	4
309.254	3.09
309.629	3.22
310.003	3.51
310.378	3.77
310.753	3.67
311.128	3.12
311.502	3.58
311.877	3.75
312.252	3.45
312.626	3.7
313.001	3.31
313.375	3.21
313.75	3.73
314.124	3.35
314.498	3.82
314.873	3.7
315.247	3.81
315.621	3.49
315.995	3.33
316.369	3.43
316.743	3.72
317.117	3.42
317.491	3.25
317.865	3.35
318.239	3.72
318.613	3.92
318.987	3.22
319.361	3.38
319.734	3.91
320.108	3.52
320.482	3.81
320.855	3.59
321.229	3.71
321.602	3.43
321.976	3.53
322.349	3.29
322.723	2.9
323.096	3.17
323.469	3.9
323.843	3.54
324.216	3.27
324.589	3.85
324.962	3.88
325.335	3.48
325.708	3.36
326.081	3.58
326.454	3.93
326.827	4.22
327.2	3.92
327.573	3.79
327.945	3.96
328.318	3.96
328.691	3.32
329.063	3.95
329.436	3.75
329.809	3.72
330.181	3.66
330.553	3.95
330.926	3.72
331.298	3.71
331.671	3.7
332.043	3.74
332.415	4.44
332.787	3.88
333.159	4.35
333.532	3.85
333.904	3.68
334.276	3.87
334.648	3.99
335.02	3.61
335.391	3.17
335.763	4.09
336.135	2.97
336.507	3.9
336.879	3.6
337.25	3.53
337.622	3.95
337.993	3.54
338.365	4.21
338.736	3.74
339.108	3.96
339.479	3.65
339.851	3.25
340.222	3.55
340.593	4.05
340.964	4.05
341.336	3.36
341.707	3.69
342.078	3.69
342.449	3.64
342.82	3.95
343.191	3.85
343.562	3.89
343.933	4.08
344.303	3.81
344.674	3.75
345.045	3.83
345.416	3.82
345.786	3.94
346.157	3.28
346.527	3.71
346.898	3.55
347.268	3.73
347.639	3.54
348.009	3.42
348.38	3.83
348.75	3.62
349.12	3.63
349.49	3.48
349.861	3.9
350.231	4.27
350.601	3.32
350.971	3.56
351.341	3.69
351.711	3.92
352.081	3.32
352.45	3.41
352.82	3.56
353.19	3.53
353.56	3.46
353.929	3.56
354.299	3.7
354.669	3.8
355.038	4.01
355.408	4.08
355.777	3.81
356.147	3.71
356.516	3.87
356.885	3.61
357.254	3.77
357.624	3.56
357.993	3.79
358.362	3.66
358.731	3.47
359.1	3.65
359.469	3.83
359.838	3.64
360.207	3.79
360.576	3.76
360.945	3.61
361.314	3.71
361.682	3.94
362.051	3.98
362.42	3.59
362.788	3.8
363.157	3.58
363.525	3.82
363.894	3.71
364.262	3.68
364.631	3.79
364.999	4.12
365.367	3.6
365.735	3.62
366.104	3.49
366.472	3.7
366.84	3.68
367.208	3.82
367.576	3.82
367.944	3.97
368.312	3.74
368.68	3.97
369.048	3.86
369.416	3.65
369.783	3.79
370.151	3.77
370.519	3.88
370.886	4.22
371.254	4.09
371.621	4.25
371.989	4.02
372.356	3.84
372.724	3.79
373.091	3.95
373.458	3.65
373.826	3.93
374.193	3.95
374.56	4.1
374.927	3.78
375.294	3.88
375.661	3.84
376.028	4.35
376.395	4.17
376.762	3.96
377.129	4.07
377.496	3.8
377.863	3.92
378.229	3.71
378.596	3.78
378.963	3.63
379.329	3.98
379.696	3.82
380.062	3.76
380.429	3.68
380.795	3.79
381.161	3.95
381.528	3.78
381.894	3.94
382.26	4
382.626	4
382.993	4.13
383.359	4.19
383.725	4.19
384.091	3.83
384.457	4.19
384.823	4.14
385.188	3.85
385.554	4.02
385.92	3.97
386.286	3.97
386.651	4.21
387.017	3.9
387.383	3.99
387.748	4.11
388.114	4.06
388.479	4.08
388.845	3.77
389.21	3.84
389.575	4.14
389.94	3.63
390.306	3.92
390.671	3.79
391.036	3.96
391.401	3.93
391.766	3.97
392.131	4.05
392.496	3.79
392.861	4.02
393.226	3.97
393.591	3.74
393.956	4.19
394.32	3.99
394.685	4.02
395.05	4.1
395.414	3.78
395.779	4.04
396.143	3.86
396.508	4.06
396.872	3.93
397.236	3.93
397.601	4.13
397.965	4.02
398.329	3.67
398.694	3.94
399.058	4.35
399.422	4.16
399.786	4.12
400.15	4.14
400.514	4.26
400.878	3.96
401.242	4.03
401.605	4.16
401.969	3.79
402.333	3.95
402.697	4.38
403.06	4.06
403.424	4.13
403.787	4.1
404.151	3.93
404.514	3.93
404.878	3.96
405.241	4.17
405.604	4.14
405.968	3.99
406.331	4.22
406.694	4.13
407.057	4.04
407.42	4.16
407.783	4.21
408.146	4.16
408.509	4.08
408.872	4
409.235	4.22
409.598	4.11
409.961	4.09
410.323	3.82
410.686	4.09
411.049	3.79
411.411	4.12
411.774	3.9
412.136	4.39
412.499	3.94
412.861	4.12
413.223	4.07
413.586	4.06
413.948	4
414.31	4.39
414.672	4.59
415.035	4.03
415.397	3.9
415.759	4.11
416.121	4.03
416.483	3.79
416.845	4.07
417.206	4.1
417.568	4.34
417.93	3.81
418.292	4.16
418.653	4.05
419.015	4.06
419.377	4.02
419.738	3.95
420.1	3.99
420.461	3.99
420.822	4.05
421.184	3.94
421.545	4.1
421.906	3.94
422.267	3.97
422.629	3.91
422.99	3.96
423.351	4.06
423.712	3.98
424.073	4.06
424.434	4.08
424.795	4.07
425.155	4.02
425.516	3.96
425.877	3.98
426.238	3.94
426.598	3.98
426.959	4.07
427.32	4.09
427.68	4.12
428.041	4.02
428.401	4.1
428.761	4.19
429.122	4.08
429.482	4.27
429.842	4.31
430.202	4.22
430.563	4.1
430.923	4.29
431.283	4.12
431.643	4.26
432.003	4.26
432.363	4.23
432.722	4.05
433.082	4.25
433.442	4.16
433.802	4.2
434.161	4.19
434.521	4.11
434.881	4.01
435.24	4.04
435.6	4.16
435.959	4.17
436.319	4.07
436.678	4.2
437.037	4.22
437.396	4.12
437.756	4.18
438.115	4.2
438.474	4.26
438.833	4.07
439.192	4.08
439.551	4.15
439.91	3.98
440.269	4.09
440.628	4.02
440.987	4.27
441.345	4.12
441.704	4.07
442.063	4.21
442.421	4.1
442.78	4.06
443.138	4.05
443.497	4.1
443.855	4.3
444.214	4.2
444.572	4.16
444.93	4.11
445.288	4.33
445.647	4.16
446.005	4.22
446.363	4.24
446.721	4.17
447.079	4.16
447.437	4.1
447.795	4.11
448.153	4.18
448.51	4.11
448.868	4.18
449.226	4.11
449.584	4.04
449.941	4.23
450.299	4.15
450.656	4.08
451.014	4.1
451.371	4.1
451.729	4.2
452.086	4.26
452.443	4.38
452.801	4.22
453.158	4.28
453.515	4.29
453.872	4.3
454.229	4.29
454.586	4.1
454.943	4.22
455.3	4.29
455.657	4.32
456.014	4.36
456.371	4.25
456.727	4.29
457.084	4.42
457.441	4.34
457.797	4.16
458.154	4.21
458.51	4.3
458.867	4.44
459.223	4.39
459.58	4.39
459.936	4.26
460.292	4.44
460.648	4.22
461.005	4.17
461.361	4.07
461.717	4.04
462.073	4.16
462.429	4.25
462.785	4.21
463.141	4.31
463.496	4.38
463.852	4.3
464.208	4.3
464.564	4.41
464.919	4.22
465.275	4.51
465.631	4.4
465.986	4.32
466.342	4.35
466.697	4.35
467.052	4.3
467.408	4.33
467.763	4.43
468.118	4.17
468.473	4.55
468.829	4.19
469.184	4.3
469.539	4.39
469.894	4.47
470.249	4.41
470.603	4.56
470.958	4.26
471.313	4.23
471.668	4.3
472.023	4.33
472.377	4.38
472.732	4.36
473.086	4.38
473.441	4.22
473.795	4.54
474.15	4.49
474.504	4.35
474.859	4.43
475.213	4.45
475.567	4.17
475.921	4.45
476.275	4.36
476.63	4.5
476.984	4.36
477.338	4.44
477.692	4.39
478.045	4.35
478.399	4.43
478.753	4.26
479.107	4.29
479.461	4.3
479.814	4.46
480.168	4.48
480.521	4.38
480.875	4.43
481.228	4.3
481.582	4.55
481.935	4.18
482.289	4.3
482.642	4.44
482.995	4.28
483.348	4.35
483.701	4.29
484.055	4.37
484.408	4.32
484.761	4.2
485.114	4.03
485.466	3.98
485.819	4.06
486.172	4.11
486.525	4.22
486.878	4.31
487.23	4.37
487.583	4.31
487.936	4.32
488.288	4.28
488.641	4.17
488.993	4.19
489.345	4.15
489.698	4.18
490.05	4.2
490.402	4.27
490.754	4.4
491.107	4.45
491.459	4.38
491.811	4.46
492.163	4.37
492.515	4.33
492.866	4.24
493.218	4.19
493.57	4.25
493.922	4.25
494.274	4.38
494.625	4.55
494.977	4.52
495.328	4.47
495.68	4.49
496.031	4.54
496.383	4.48
496.734	4.57
497.086	4.51
497.437	4.5
497.788	4.3
498.139	4.51
498.49	4.34
498.842	4.43
499.193	4.44
499.544	4.51
499.894	4.48
500.245	4.66
500.596	4.5
500.947	4.6
501.298	4.68
501.648	4.52
501.999	4.49
502.35	4.49
502.7	4.74
503.051	4.71
503.401	4.75
503.752	4.49
504.102	4.44
504.452	4.45
504.803	4.48
505.153	4.6
505.503	4.47
505.853	4.47
506.203	4.6
506.553	4.62
506.903	4.62
507.253	4.7
507.603	4.83
507.953	4.59
508.303	4.72
508.652	4.66
509.002	4.69
509.352	4.69
509.701	4.64
510.051	4.67
510.4	4.71
510.75	4.57
511.099	4.59
511.449	4.58
511.798	4.52
512.147	4.63
512.496	4.65
512.846	4.58
513.195	4.65
513.544	4.65
513.893	4.58
514.242	4.63
514.591	4.7
514.939	4.77
515.288	4.74
515.637	4.65
515.986	4.75
516.334	4.68
516.683	4.8
517.032	4.85
517.38	4.78
517.729	4.79
518.077	4.91
518.426	4.84
518.774	4.78
519.122	4.72
519.47	4.73
519.819	4.78
520.167	4.63
520.515	4.67
520.863	4.65
521.211	4.79
521.559	4.77
521.907	4.69
522.255	4.74
522.602	4.99
522.95	4.81
523.298	4.8
523.645	4.87
523.993	4.79
524.341	4.85
524.688	4.9
525.036	4.78
525.383	4.87
525.73	4.79
526.078	4.86
526.425	4.82
526.772	4.7
527.119	4.75
527.466	4.66
527.814	4.72
528.161	4.81
528.508	4.91
528.854	4.87
529.201	4.88
529.548	4.71
529.895	4.67
530.242	4.58
530.588	4.61
530.935	4.74
531.282	4.81
531.628	4.92
531.975	4.87
532.321	4.97
532.667	4.97
533.014	5.06
533.36	5.01
533.706	5.01
534.052	5.01
534.399	4.93
534.745	4.81
535.091	4.82
535.437	4.89
535.783	4.97
536.129	5.02
536.474	5.11
536.82	5.09
537.166	5.07
537.512	5.15
537.857	5.14
538.203	4.93
538.549	5.01
538.894	5.15
539.239	5.17
539.585	5.16
539.93	5.36
540.276	5.26
540.621	5.17
540.966	5.18
541.311	5.17
541.656	5.14
542.001	5.16
542.346	5.07
542.691	4.97
543.036	5.02
543.381	5.07
543.726	5.14
544.071	5.18
544.415	5.35
544.76	5.26
545.105	5.23
545.449	5.37
545.794	5.27
546.138	5.5
546.483	5.42
546.827	5.35
547.171	5.33
547.516	5.43
547.86	5.42
548.204	5.34
548.548	5.36
548.892	5.5
549.236	5.38
549.58	5.56
549.924	5.59
550.268	5.62
550.612	5.71
550.956	5.67
551.3	5.55
551.643	5.5
551.987	5.54
552.33	5.73
552.674	5.73
553.017	5.61
553.361	5.72
553.704	5.58
554.048	5.68
554.391	5.75
554.734	5.63
555.077	5.69
555.42	5.71
555.764	5.69
556.107	5.71
556.45	5.8
556.793	5.99
557.135	5.85
557.478	5.72
557.821	5.82
558.164	6.07
558.507	6.08
558.849	6.1
559.192	6.02
559.534	6.08
559.877	6.25
560.219	6.04
560.562	6.23
560.904	6.15
561.246	6.11
561.589	5.99
561.931	6.18
562.273	6.05
562.615	6.19
562.957	5.97
563.299	6.1
563.641	6.19
563.983	6.36
564.325	6.17
564.667	6.21
565.008	6.35
565.35	6.15
565.692	6.18
566.033	6.18
566.375	6.22
566.716	6.38
567.058	6.35
567.399	6.11
567.741	6.16
568.082	6.27
568.423	6.22
568.764	6.4
569.105	6.39
569.447	6.35
569.788	6.42
570.129	6.42
570.47	6.43
570.811	6.37
571.151	6.35
571.492	6.44
571.833	6.47
572.174	6.52
572.514	6.58
572.855	6.57
573.195	6.52
573.536	6.6
573.876	6.41
574.217	6.54
574.557	6.7
574.898	6.65
575.238	6.67
575.578	6.53
575.918	6.8
576.258	6.76
576.598	6.68
576.938	6.68
577.278	6.78
577.618	6.88
577.958	6.98
578.298	6.89
578.638	7.17
578.977	6.98
579.317	7.01
579.657	6.87
579.996	6.9
580.336	6.92
580.675	6.92
581.014	7.08
581.354	6.92
581.693	7.24
582.032	7.2
582.372	7.09
582.711	7.03
583.05	7.63
583.389	7.24
583.728	7.11
584.067	7.39
584.406	7.39
584.745	7.34
585.083	7.29
585.422	7.39
585.761	7.51
586.1	7.56
586.438	7.4
586.777	7.31
587.115	7.38
587.454	7.54
587.792	7.42
588.13	7.76
588.469	7.55
588.807	7.52
589.145	7.65
589.483	7.62
589.821	7.82
590.159	7.58
590.497	7.8
590.835	7.71
591.173	7.74
591.511	7.85
591.849	7.72
592.187	8.02
592.524	7.93
592.862	7.51
593.2	7.88
593.537	7.99
593.875	7.84
594.212	8.01
594.55	8.06
594.887	8.06
595.224	8
595.561	8.09
595.899	8.27
596.236	8.12
596.573	8.29
596.91	8.25
597.247	8.03
597.584	8.23
597.921	8.09
598.258	8.23
598.594	7.83
598.931	8.25
599.268	8.08
599.604	8.27
599.941	8.22
600.277	8.45
600.614	8.47
600.95	8.61
601.287	8.36
601.623	8.23
601.959	8.41
602.296	8.52
602.632	8.57
602.968	8.41
603.304	8.69
603.64	8.66
603.976	8.79
604.312	8.43
604.648	8.69
604.984	8.61
605.319	8.55
605.655	8.62
605.991	8.75
606.326	8.66
606.662	8.77
606.998	8.7
607.333	8.82
607.668	8.91
608.004	8.8
608.339	8.86
608.674	9.24
609.01	9.23
609.345	8.87
609.68	8.89
610.015	9.02
610.35	8.94
610.685	8.72
611.02	9.12
611.355	9.1
611.689	9.18
612.024	9.06
612.359	9.03
612.694	9.26
613.028	9.59
613.363	9.19
613.697	9.73
614.032	9.49
614.366	9.44
614.7	9.38
615.035	9.46
615.369	9.46
615.703	9.56
616.037	9.26
616.371	9.81
616.705	9.29
617.039	9.88
617.373	9.6
617.707	9.56
618.041	9.7
618.375	10.06
618.709	9.93
619.042	10.06
619.376	9.86
619.71	9.83
620.043	10.15
620.377	9.88
620.71	9.88
621.043	10.03
621.377	10.07
621.71	9.87
622.043	9.89
622.376	10.28
622.709	10.31
623.043	10.33
623.376	10.18
623.709	10.29
624.041	10.29
624.374	10.31
624.707	10
625.04	10.7
625.373	10.46
625.705	10.48
626.038	10.44
626.37	10.47
626.703	10.66
627.035	10.4
627.368	10.71
627.7	10.72
628.032	10.45
628.365	10.34
628.697	10.67
629.029	10.51
629.361	10.61
629.693	10.53
630.025	11.04
630.357	10.83
630.689	10.59
631.021	10.67
631.353	10.81
631.684	10.67
632.016	10.67
632.348	10.97
632.679	10.95
633.011	11.09
633.342	11.04
633.674	11.08
634.005	11.09
634.336	10.93
634.668	11.08
634.999	11.15
635.33	11.33
635.661	11.14
635.992	11.06
636.323	11.01
636.654	11.32
636.985	11.39
637.316	11.47
637.647	11.47
637.977	11.58
638.308	11.46
638.639	11.55
638.969	11.36
639.3	11.2
639.63	11.96
639.961	11.72
640.291	11.74
640.622	11.67
640.952	11.7
641.282	11.6
641.612	11.71
641.943	11.82
642.273	11.94
642.603	11.92
642.933	11.85
643.263	11.74
643.592	12.08
643.922	12.02
644.252	12
644.582	12.27
644.911	11.65
645.241	12.45
645.571	12.42
645.9	11.91
646.23	12.04
646.559	12.04
646.888	12.52
647.218	12.65
647.547	12.9
647.876	12.57
648.205	12.5
648.534	12.3
648.863	11.96
649.192	12.35
649.521	12.45
649.85	12.51
650.179	12.73
650.508	12.68
650.837	12.25
651.165	12.27
651.494	12.8
651.822	12.78
652.151	12.88
652.479	12.99
652.808	12.88
653.136	13.01
653.465	12.34
653.793	12.6
654.121	12.81
654.449	13.16
654.777	12.58
655.105	13.04
655.433	13.22
655.761	13.14
656.089	13
656.417	13.27
656.745	13.12
657.073	12.97
657.4	13.61
657.728	13.06
658.056	13.51
658.383	13.79
658.711	13.13
659.038	13.36
659.365	13.46
659.693	13.79
660.02	13.83
660.347	13.31
660.674	13.41
661.001	13.44
661.329	13.72
661.656	13.83
661.982	13.52
662.309	13.75
662.636	13.74
662.963	13.85
663.29	14.08
663.616	12.97
663.943	13.7
664.27	14.02
664.596	13.76
664.923	13.97
665.249	14.21
665.576	13.95
665.902	14.68
666.228	14.34
666.554	13.93
666.881	13.69
667.207	14.44
667.533	13.89
667.859	13.67
668.185	14.48
668.511	14.37
668.837	14.79
669.162	14.43
669.488	14.46
669.814	14.82
670.139	13.81
670.465	14.96
670.791	14.22
671.116	14.55
671.442	14.89
671.767	14.17
672.092	14.52
672.418	14.51
672.743	14.83
673.068	14.65
673.393	14.62
673.718	14.59
674.043	14.87
674.368	14.98
674.693	14.42
675.018	14.8
675.343	14.72
675.667	14.65
675.992	14.89
676.317	14.89
676.641	15.02
676.966	15.06
677.29	15.06
677.615	14.9
677.939	15.43
678.264	15.71
678.588	15.15
678.912	14.73
679.236	15.48
679.56	15.31
679.885	15.16
680.209	15.9
680.532	15.48
680.856	14.97
681.18	15.41
681.504	15.78
681.828	15.79
682.152	15.48
682.475	15.46
682.799	15.54
683.122	15.35
683.446	15.56
683.769	15.44
684.093	15.8
684.416	15.42
684.739	16.56
685.062	15.73
685.386	16.12
685.709	15.62
686.032	16.4
686.355	15.92
686.678	15.74
687.001	15.76
687.324	15.76
687.646	15.76
687.969	16.55
