Data from 001-17_chest_Reflection__1__152.txt Node

Date: Fri Sep 30 19:18:34 CDT 2022
User: ToomeyLab
Spectrometer: FLMS14357
Trigger mode: 0
Integration Time (sec): 1.000000E-2
Scans to average: 100
Electric dark correction enabled: true
Nonlinearity correction enabled: false
Boxcar width: 0
XAxis mode: Wavelengths
Number of Pixels in Spectrum: 2048
>>>>>Begin Spectral Data<<<<<
189.047	-77.35
189.435	-77.35
189.823	-77.35
190.211	471.02
190.599	41.04
190.987	-194.91
191.375	-99.59
191.763	204.76
192.151	-92.83
192.538	33.65
192.926	651.8
193.314	-29972.73
193.702	-6.55
194.089	-25.17
194.477	208.73
194.864	33.31
195.252	13.6
195.639	27.48
196.027	-244.5
196.414	96.69
196.801	3018.52
197.189	-12.9
197.576	145.87
197.963	15.88
198.351	37.14
198.738	-24.18
199.125	-5.36
199.512	2.45
199.899	-34.38
200.286	-0.65
200.673	28.49
201.06	-9.16
201.447	-28.51
201.833	28.43
202.22	-48.2
202.607	-8.53
202.994	29.97
203.38	24.36
203.767	-1.04
204.154	2.78
204.54	13.59
204.927	-125.14
205.313	34.49
205.699	25.49
206.086	24.32
206.472	9.35
206.858	19.25
207.245	-36.28
207.631	-34.72
208.017	2.98
208.403	35.52
208.789	28.63
209.175	41.06
209.561	48.94
209.947	31.03
210.333	38.34
210.719	42.4
211.105	13.04
211.491	41.26
211.876	15.92
212.262	12.32
212.648	4.58
213.034	18.71
213.419	10.68
213.805	-5.68
214.19	14.47
214.576	21.18
214.961	38.51
215.346	25.43
215.732	-23.25
216.117	12.25
216.502	10.27
216.888	-12.13
217.273	36.1
217.658	10.86
218.043	24.21
218.428	28.01
218.813	20.37
219.198	18.07
219.583	6.9
219.968	-12.87
220.353	0.23
220.738	6.93
221.122	-21.53
221.507	12.53
221.892	-18.87
222.276	-4.7
222.661	1.04
223.046	-4.96
223.43	8.62
223.815	-1.43
224.199	5.64
224.583	11.18
224.968	-2.29
225.352	-5.54
225.736	7.99
226.121	2.56
226.505	7.24
226.889	2.27
227.273	-2.95
227.657	-6.16
228.041	2.25
228.425	0.57
228.809	3.8
229.193	0.34
229.577	1.85
229.961	1.81
230.344	1.68
230.728	2.13
231.112	2.92
231.495	1.86
231.879	2.42
232.263	1.01
232.646	3.36
233.03	3.13
233.413	0.85
233.797	-2.21
234.18	0.25
234.563	3.67
234.946	3.14
235.33	1.85
235.713	-1.36
236.096	1.03
236.479	1.98
236.862	1.9
237.245	2.29
237.628	0.63
238.011	1.14
238.394	0.45
238.777	0.62
239.16	2.05
239.543	1.52
239.925	0.35
240.308	0.83
240.691	0.63
241.073	2.09
241.456	0.92
241.838	1.33
242.221	2.81
242.603	1.89
242.986	1.66
243.368	1.74
243.75	1.59
244.133	1.22
244.515	1.11
244.897	1.31
245.279	0.87
245.661	1.63
246.043	2.33
246.425	1.37
246.807	1.47
247.189	1.36
247.571	2.26
247.953	1.67
248.335	1.8
248.717	1.46
249.098	1.64
249.48	1.45
249.862	1.18
250.243	1.74
250.625	1.51
251.006	2.47
251.388	1.42
251.769	1.83
252.151	1
252.532	1.23
252.913	1.62
253.295	1.48
253.676	1.81
254.057	1.53
254.438	1.41
254.819	2.19
255.2	1.13
255.581	2.36
255.962	3.09
256.343	0.85
256.724	1.93
257.105	0.28
257.486	2.14
257.867	2.24
258.247	2.26
258.628	1.66
259.009	1.23
259.389	2.55
259.77	1.48
260.15	1.76
260.531	1.84
260.911	1.46
261.292	1.78
261.672	1.38
262.052	1.55
262.432	1.65
262.813	1.9
263.193	1.52
263.573	1.48
263.953	2.17
264.333	1.78
264.713	1.89
265.093	2.05
265.473	1.75
265.853	1.39
266.233	1.31
266.612	1.94
266.992	1.69
267.372	1.79
267.752	1.2
268.131	1.47
268.511	1.79
268.89	1.24
269.27	2.38
269.649	2.24
270.029	1.5
270.408	1.66
270.787	2.22
271.167	1.09
271.546	1.37
271.925	1.56
272.304	1.58
272.683	1.45
273.062	1.65
273.441	1.34
273.82	1.22
274.199	1.81
274.578	1.61
274.957	1.58
275.336	1.44
275.715	1.3
276.093	1.5
276.472	1.78
276.851	2.14
277.229	1.94
277.608	1.3
277.986	1.01
278.365	2.01
278.743	2.4
279.122	0.87
279.5	1.79
279.878	1.55
280.257	1.08
280.635	1.96
281.013	2.13
281.391	1.64
281.769	2.32
282.147	1.71
282.525	1.86
282.903	1.34
283.281	1.34
283.659	1.67
284.037	1.13
284.415	1.13
284.792	1.46
285.17	1.58
285.548	1.58
285.925	1.41
286.303	1.22
286.68	1.31
287.058	1.42
287.435	1.29
287.813	1.52
288.19	1.34
288.567	1.67
288.945	1.12
289.322	1.51
289.699	1.36
290.076	1.87
290.453	1.51
290.83	1.08
291.207	1.81
291.584	1.32
291.961	1.57
292.338	1.37
292.715	1.65
293.092	1.48
293.469	1.65
293.845	1.25
294.222	1.62
294.599	1.77
294.975	2.11
295.352	1.61
295.728	1.86
296.105	1.66
296.481	1.55
296.858	1.3
297.234	1.1
297.61	1.62
297.986	1.78
298.363	1.49
298.739	1.94
299.115	1.62
299.491	1.76
299.867	1.91
300.243	1.91
300.619	1.57
300.995	1.63
301.371	2.28
301.746	1.93
302.122	1.75
302.498	1.36
302.874	1.73
303.249	1.83
303.625	1.41
304	1.84
304.376	1.35
304.751	1.86
305.127	2.14
305.502	1.59
305.878	1.69
306.253	1.9
306.628	1.48
307.003	2.03
307.378	1.95
307.754	1.81
308.129	2.24
308.504	1.72
308.879	1.83
309.254	1.23
309.629	1.71
310.003	1.7
310.378	2.18
310.753	1.63
311.128	1.79
311.502	2.02
311.877	1.62
312.252	2.13
312.626	1.9
313.001	1.54
313.375	1.71
313.75	2.07
314.124	1.54
314.498	2.07
314.873	2.16
315.247	1.87
315.621	1.94
315.995	1.92
316.369	1.94
316.743	2.26
317.117	1.38
317.491	1.85
317.865	2.08
318.239	2.26
318.613	2.06
318.987	2.05
319.361	1.85
319.734	1.61
320.108	1.75
320.482	1.71
320.855	1.92
321.229	2.34
321.602	2.64
321.976	2.62
322.349	1.62
322.723	1.86
323.096	1.71
323.469	2.09
323.843	1.85
324.216	1.75
324.589	2.14
324.962	1.77
325.335	1.92
325.708	2.32
326.081	2.08
326.454	1.96
326.827	1.88
327.2	2.04
327.573	2.41
327.945	2.08
328.318	2.09
328.691	1.94
329.063	1.76
329.436	1.44
329.809	2.21
330.181	2.14
330.553	2.41
330.926	2.1
331.298	2.24
331.671	2.26
332.043	1.98
332.415	2.31
332.787	2.52
333.159	2.15
333.532	1.75
333.904	1.88
334.276	2.13
334.648	2.02
335.02	2.3
335.391	1.93
335.763	2.32
336.135	1.75
336.507	2.62
336.879	2.1
337.25	2.21
337.622	2.43
337.993	2.32
338.365	2.77
338.736	2.25
339.108	2.25
339.479	3.05
339.851	2.12
340.222	1.61
340.593	2.43
340.964	2.11
341.336	2.24
341.707	1.74
342.078	2.35
342.449	2.24
342.82	2.25
343.191	1.81
343.562	2.19
343.933	2.19
344.303	1.78
344.674	2.42
345.045	2.19
345.416	2.04
345.786	2.21
346.157	1.88
346.527	2.03
346.898	2.35
347.268	2.26
347.639	1.95
348.009	1.68
348.38	1.76
348.75	2.16
349.12	2.08
349.49	1.83
349.861	2.23
350.231	2.48
350.601	1.74
350.971	1.71
351.341	2.32
351.711	2.42
352.081	2.03
352.45	1.96
352.82	2.21
353.19	2.2
353.56	2.06
353.929	2.08
354.299	2.07
354.669	1.85
355.038	2.23
355.408	2
355.777	2.23
356.147	2.25
356.516	2.39
356.885	2.25
357.254	2.43
357.624	2.29
357.993	2.24
358.362	1.94
358.731	1.8
359.1	1.84
359.469	2.25
359.838	2.25
360.207	2.3
360.576	2.2
360.945	2.05
361.314	2.13
361.682	2.33
362.051	2.34
362.42	1.87
362.788	2.04
363.157	2.03
363.525	2.05
363.894	2.17
364.262	1.79
364.631	2.32
364.999	2.15
365.367	2.06
365.735	2.09
366.104	1.94
366.472	2.31
366.84	2.24
367.208	1.83
367.576	2.05
367.944	2.01
368.312	2.21
368.68	2.1
369.048	2.16
369.416	2.16
369.783	2.03
370.151	2.25
370.519	2.21
370.886	2.57
371.254	2.21
371.621	2.52
371.989	2.33
372.356	1.89
372.724	2.15
373.091	2.16
373.458	2.07
373.826	1.89
374.193	2.31
374.56	2.45
374.927	2.45
375.294	2.02
375.661	2.34
376.028	2.47
376.395	2.22
376.762	2.4
377.129	2.31
377.496	2.15
377.863	2.13
378.229	2.34
378.596	2.06
378.963	2.04
379.329	2.24
379.696	1.92
380.062	2.09
380.429	2.01
380.795	1.87
381.161	2.19
381.528	2.21
381.894	2.34
382.26	2
382.626	2.34
382.993	2.48
383.359	2.06
383.725	2.37
384.091	2.14
384.457	2.27
384.823	2.51
385.188	2.26
385.554	2.28
385.92	2.16
386.286	2.24
386.651	2.32
387.017	2.22
387.383	2.32
387.748	2.34
388.114	2.46
388.479	2.39
388.845	2.02
389.21	1.96
389.575	2.28
389.94	2.21
390.306	2.24
390.671	2.42
391.036	2.05
391.401	2.15
391.766	2.25
392.131	2.37
392.496	2.26
392.861	2.47
393.226	2.2
393.591	2.36
393.956	2.53
394.32	2.16
394.685	2.11
395.05	2.12
395.414	2.22
395.779	2.26
396.143	2.27
396.508	2.58
396.872	2.24
397.236	2.36
397.601	2.37
397.965	2.26
398.329	2.01
398.694	2.21
399.058	2.54
399.422	2.56
399.786	2.46
400.15	2.47
400.514	2.75
400.878	2.31
401.242	2.27
401.605	2.72
401.969	2.29
402.333	2.48
402.697	2.69
403.06	2.65
403.424	2.35
403.787	2.29
404.151	2.32
404.514	2.51
404.878	2.23
405.241	2.63
405.604	2.32
405.968	2.34
406.331	2.48
406.694	2.45
407.057	2.28
407.42	2.37
407.783	2.33
408.146	2.36
408.509	2.42
408.872	2.25
409.235	2.37
409.598	2.32
409.961	2.35
410.323	2.15
410.686	2.53
411.049	2.2
411.411	2.45
411.774	2.17
412.136	2.55
412.499	2.35
412.861	2.5
413.223	2.49
413.586	2.39
413.948	2.25
414.31	2.67
414.672	2.68
415.035	2.17
415.397	2.28
415.759	2.55
416.121	2.49
416.483	2.39
416.845	2.35
417.206	2.53
417.568	2.48
417.93	2.31
418.292	2.48
418.653	2.45
419.015	2.46
419.377	2.13
419.738	2.43
420.1	2.33
420.461	2.29
420.822	2.29
421.184	2.3
421.545	2.33
421.906	2.31
422.267	2.4
422.629	2.23
422.99	2.34
423.351	2.38
423.712	2.47
424.073	2.4
424.434	2.33
424.795	2.31
425.155	2.28
425.516	2.32
425.877	2.33
426.238	2.31
426.598	2.31
426.959	2.34
427.32	2.45
427.68	2.46
428.041	2.46
428.401	2.43
428.761	2.37
429.122	2.37
429.482	2.55
429.842	2.54
430.202	2.56
430.563	2.49
430.923	2.71
431.283	2.5
431.643	2.61
432.003	2.51
432.363	2.45
432.722	2.35
433.082	2.55
433.442	2.59
433.802	2.45
434.161	2.43
434.521	2.39
434.881	2.38
435.24	2.45
435.6	2.47
435.959	2.56
436.319	2.43
436.678	2.54
437.037	2.57
437.396	2.4
437.756	2.5
438.115	2.52
438.474	2.62
438.833	2.58
439.192	2.41
439.551	2.55
439.91	2.45
440.269	2.43
440.628	2.31
440.987	2.52
441.345	2.4
441.704	2.43
442.063	2.47
442.421	2.49
442.78	2.42
443.138	2.42
443.497	2.46
443.855	2.6
444.214	2.48
444.572	2.5
444.93	2.4
445.288	2.61
445.647	2.48
446.005	2.52
446.363	2.6
446.721	2.6
447.079	2.35
447.437	2.45
447.795	2.38
448.153	2.54
448.51	2.51
448.868	2.53
449.226	2.48
449.584	2.53
449.941	2.49
450.299	2.54
450.656	2.48
451.014	2.47
451.371	2.58
451.729	2.62
452.086	2.69
452.443	2.68
452.801	2.51
453.158	2.51
453.515	2.42
453.872	2.74
454.229	2.57
454.586	2.47
454.943	2.55
455.3	2.64
455.657	2.68
456.014	2.67
456.371	2.58
456.727	2.58
457.084	2.69
457.441	2.69
457.797	2.36
458.154	2.63
458.51	2.72
458.867	2.69
459.223	2.77
459.58	2.57
459.936	2.67
460.292	2.7
460.648	2.61
461.005	2.5
461.361	2.5
461.717	2.44
462.073	2.56
462.429	2.57
462.785	2.64
463.141	2.64
463.496	2.76
463.852	2.76
464.208	2.72
464.564	2.75
464.919	2.46
465.275	2.66
465.631	2.65
465.986	2.81
466.342	2.67
466.697	2.5
467.052	2.56
467.408	2.65
467.763	2.69
468.118	2.74
468.473	2.81
468.829	2.62
469.184	2.75
469.539	2.74
469.894	2.77
470.249	2.77
470.603	2.94
470.958	2.7
471.313	2.52
471.668	2.73
472.023	2.55
472.377	2.76
472.732	2.6
473.086	2.78
473.441	2.62
473.795	2.96
474.15	2.68
474.504	2.68
474.859	2.88
475.213	2.91
475.567	2.69
475.921	2.75
476.275	2.66
476.63	2.82
476.984	2.61
477.338	2.84
477.692	2.87
478.045	2.75
478.399	2.78
478.753	2.83
479.107	2.77
479.461	2.68
479.814	2.77
480.168	2.75
480.521	2.81
480.875	2.79
481.228	2.79
481.582	2.95
481.935	2.71
482.289	2.57
482.642	2.8
482.995	2.78
483.348	2.75
483.701	2.72
484.055	2.77
484.408	2.73
484.761	2.67
485.114	2.53
485.466	2.5
485.819	2.53
486.172	2.59
486.525	2.7
486.878	2.74
487.23	2.83
487.583	2.78
487.936	2.75
488.288	2.76
488.641	2.62
488.993	2.68
489.345	2.65
489.698	2.66
490.05	2.7
490.402	2.69
490.754	2.76
491.107	2.87
491.459	2.79
491.811	2.88
492.163	2.87
492.515	2.7
492.866	2.72
493.218	2.7
493.57	2.7
493.922	2.69
494.274	2.82
494.625	2.92
494.977	2.96
495.328	2.89
495.68	2.92
496.031	2.87
496.383	2.94
496.734	2.94
497.086	3.02
497.437	2.82
497.788	2.78
498.139	2.95
498.49	2.84
498.842	3.03
499.193	2.84
499.544	2.88
499.894	2.99
500.245	3.1
500.596	2.95
500.947	3.12
501.298	3
501.648	2.91
501.999	3
502.35	3.03
502.7	3.13
503.051	3.13
503.401	3.06
503.752	2.96
504.102	3.03
504.452	2.98
504.803	3.06
505.153	2.92
505.503	2.83
505.853	2.99
506.203	3.04
506.553	3.04
506.903	3.17
507.253	3.21
507.603	3.29
507.953	3.06
508.303	3.06
508.652	3.02
509.002	3.13
509.352	3.16
509.701	3.09
510.051	3.09
510.4	3.11
510.75	3.11
511.099	3.13
511.449	2.94
511.798	3.08
512.147	3.06
512.496	3.18
512.846	3.1
513.195	3.18
513.544	3.18
513.893	3.15
514.242	3.1
514.591	3.24
514.939	3.14
515.288	3.2
515.637	3.23
515.986	3.1
516.334	3.23
516.683	3.18
517.032	3.29
517.38	3.32
517.729	3.36
518.077	3.37
518.426	3.29
518.774	3.2
519.122	3.31
519.47	3.17
519.819	3.24
520.167	3.18
520.515	3.23
520.863	3.22
521.211	3.24
521.559	3.23
521.907	3.27
522.255	3.32
522.602	3.4
522.95	3.31
523.298	3.25
523.645	3.42
523.993	3.24
524.341	3.44
524.688	3.35
525.036	3.31
525.383	3.46
525.73	3.31
526.078	3.35
526.425	3.37
526.772	3.38
527.119	3.28
527.466	3.22
527.814	3.26
528.161	3.41
528.508	3.47
528.854	3.36
529.201	3.38
529.548	3.34
529.895	3.23
530.242	3.19
530.588	3.2
530.935	3.28
531.282	3.32
531.628	3.44
531.975	3.44
532.321	3.51
532.667	3.51
533.014	3.52
533.36	3.54
533.706	3.51
534.052	3.55
534.399	3.44
534.745	3.41
535.091	3.4
535.437	3.43
535.783	3.48
536.129	3.58
536.474	3.58
536.82	3.58
537.166	3.63
537.512	3.55
537.857	3.59
538.203	3.56
538.549	3.56
538.894	3.67
539.239	3.68
539.585	3.69
539.93	3.75
540.276	3.88
540.621	3.78
540.966	3.83
541.311	3.77
541.656	3.7
542.001	3.68
542.346	3.63
542.691	3.52
543.036	3.56
543.381	3.63
543.726	3.67
544.071	3.73
544.415	3.85
544.76	3.8
545.105	3.84
545.449	3.88
545.794	3.79
546.138	3.92
546.483	3.97
546.827	3.93
547.171	4.01
547.516	3.9
547.86	3.93
548.204	3.89
548.548	3.87
548.892	4.02
549.236	4.02
549.58	3.94
549.924	4.12
550.268	4.26
550.612	4.19
550.956	4.22
551.3	4.18
551.643	4.15
551.987	4.07
552.33	4.42
552.674	4.04
553.017	4.1
553.361	4.28
553.704	4.12
554.048	4.16
554.391	4.21
554.734	4.16
555.077	4.14
555.42	4.24
555.764	4.36
556.107	4.49
556.45	4.48
556.793	4.44
557.135	4.28
557.478	4.58
557.821	4.43
558.164	4.55
558.507	4.61
558.849	4.47
559.192	4.57
559.534	4.53
559.877	4.65
560.219	4.73
560.562	4.54
560.904	4.55
561.246	4.63
561.589	4.72
561.931	4.57
562.273	4.34
562.615	4.38
562.957	4.61
563.299	4.67
563.641	4.78
563.983	4.79
564.325	4.59
564.667	4.76
565.008	4.96
565.35	4.58
565.692	4.79
566.033	4.78
566.375	4.69
566.716	4.73
567.058	4.73
567.399	4.75
567.741	4.68
568.082	4.76
568.423	4.83
568.764	4.73
569.105	4.74
569.447	4.87
569.788	5.02
570.129	5.06
570.47	4.95
570.811	4.84
571.151	4.96
571.492	4.91
571.833	4.9
572.174	5.05
572.514	5.15
572.855	5
573.195	4.97
573.536	5.14
573.876	4.91
574.217	5.04
574.557	5.22
574.898	5.2
575.238	5.09
575.578	5.08
575.918	5.42
576.258	5.21
576.598	5.11
576.938	5.18
577.278	5.16
577.618	5.28
577.958	5.26
578.298	5.4
578.638	5.48
578.977	5.39
579.317	5.36
579.657	5.33
579.996	5.46
580.336	5.4
580.675	5.3
581.014	5.52
581.354	5.51
581.693	5.7
582.032	5.65
582.372	5.83
582.711	5.58
583.05	5.82
583.389	5.44
583.728	5.84
584.067	5.83
584.406	5.77
584.745	5.77
585.083	5.88
585.422	5.81
585.761	5.71
586.1	6.02
586.438	5.8
586.777	5.85
587.115	5.79
587.454	5.94
587.792	6.04
588.13	6.19
588.469	5.97
588.807	6.03
589.145	6.19
589.483	6.12
589.821	6.22
590.159	6.04
590.497	6.12
590.835	6.33
591.173	5.92
591.511	6.15
591.849	5.97
592.187	6.19
592.524	6.35
592.862	6.12
593.2	6.23
593.537	6.19
593.875	6.33
594.212	6.22
594.55	6.42
594.887	6.33
595.224	6.24
595.561	6.51
595.899	6.59
596.236	6.36
596.573	6.61
596.91	6.63
597.247	6.59
597.584	6.7
597.921	6.42
598.258	6.64
598.594	6.37
598.931	6.64
599.268	6.47
599.604	6.65
599.941	6.69
600.277	6.83
600.614	6.92
600.95	6.76
601.287	6.54
601.623	6.85
601.959	6.82
602.296	7.03
602.632	6.72
602.968	6.69
603.304	6.81
603.64	7.03
603.976	6.85
604.312	6.82
604.648	6.99
604.984	6.8
605.319	6.92
605.655	6.91
605.991	6.97
606.326	7.03
606.662	7.03
606.998	7.1
607.333	7.08
607.668	7.21
608.004	7.27
608.339	7.41
608.674	7.19
609.01	7.38
609.345	7.23
609.68	7.24
610.015	7.34
610.35	7.32
610.685	7.27
611.02	7.36
611.355	7.37
611.689	7.6
612.024	7.35
612.359	7.3
612.694	7.52
613.028	7.66
613.363	7.75
613.697	7.71
614.032	7.5
614.366	7.8
614.7	7.5
615.035	7.86
615.369	7.96
615.703	7.73
616.037	7.59
616.371	8.09
616.705	7.55
617.039	8.04
617.373	7.46
617.707	7.64
618.041	7.92
618.375	8
618.709	8.05
619.042	8.06
619.376	8.17
619.71	8.27
620.043	8.14
620.377	7.85
620.71	8.19
621.043	7.87
621.377	8.39
621.71	8
622.043	8.04
622.376	8.45
622.709	8.58
623.043	8.17
623.376	8.55
623.709	8.57
624.041	7.96
624.374	8.82
624.707	8.57
625.04	8.69
625.373	8.31
625.705	8.65
626.038	8.85
626.37	8.8
626.703	8.55
627.035	8.63
627.368	8.8
627.7	8.79
628.032	8.14
628.365	8.54
628.697	8.73
629.029	8.55
629.361	8.54
629.693	8.61
630.025	8.86
630.357	8.88
630.689	8.61
631.021	9.09
631.353	9
631.684	8.73
632.016	8.86
632.348	8.71
632.679	8.72
633.011	8.87
633.342	9.31
633.674	8.77
634.005	9.2
634.336	9.12
634.668	8.92
634.999	9.02
635.33	9.19
635.661	9.36
635.992	9.54
636.323	9.21
636.654	9.28
636.985	9.4
637.316	9.32
637.647	9.46
637.977	9.47
638.308	9.6
638.639	10.08
638.969	9.51
639.3	9.4
639.63	9.68
639.961	9.72
640.291	9.43
640.622	9.67
640.952	9.65
641.282	9.29
641.612	9.66
641.943	9.83
642.273	9.68
642.603	9.89
642.933	9.87
643.263	9.48
643.592	9.94
643.922	9.88
644.252	9.84
644.582	9.77
644.911	9.62
645.241	10.21
645.571	10.23
645.9	9.64
646.23	10.14
646.559	10.04
646.888	9.75
647.218	10.22
647.547	10.4
647.876	10.62
648.205	10.15
648.534	9.72
648.863	9.97
649.192	10.46
649.521	10.07
649.85	10.78
650.179	10.03
650.508	10.63
650.837	10.4
651.165	10.51
651.494	10.71
651.822	10.02
652.151	10.79
652.479	10.89
652.808	11.02
653.136	10.93
653.465	10.73
653.793	10.29
654.121	10.57
654.449	10.79
654.777	10.47
655.105	10.88
655.433	11.16
655.761	11.34
656.089	10.92
656.417	10.81
656.745	11.24
657.073	10.8
657.4	11.27
657.728	11.22
658.056	10.81
658.383	11.34
658.711	10.39
659.038	11.21
659.365	10.84
659.693	11.25
660.02	11.4
660.347	11.09
660.674	11.48
661.001	11.15
661.329	11.38
661.656	11.21
661.982	11.08
662.309	11.23
662.636	11.04
662.963	11.11
663.29	11.28
663.616	11.56
663.943	11.76
664.27	11.54
664.596	12.09
664.923	12.03
665.249	11.91
665.576	11.45
665.902	11.85
666.228	11.36
666.554	11.79
666.881	11.83
667.207	11.76
667.533	11.83
667.859	12.06
668.185	12.45
668.511	12.11
668.837	11.96
669.162	11.78
669.488	11.78
669.814	11.87
670.139	11.66
670.465	11.77
670.791	11.52
671.116	11.74
671.442	11.97
671.767	11.75
672.092	12.03
672.418	12.19
672.743	11.96
673.068	11.72
673.393	12.22
673.718	12.57
674.043	12.25
674.368	12.71
674.693	12.27
675.018	13.05
675.343	12.21
675.667	12.23
675.992	12.7
676.317	12.48
676.641	12.24
676.966	12.48
677.29	12.94
677.615	12.5
677.939	12.9
678.264	13.11
678.588	13.15
678.912	12.83
679.236	12.73
679.56	12.32
679.885	12.78
680.209	13.04
680.532	12.71
680.856	12.9
681.18	12.85
681.504	12.69
681.828	13.18
682.152	12.05
682.475	12.37
682.799	13.45
683.122	12.96
683.446	12.77
683.769	13.26
684.093	13.09
684.416	13.91
684.739	13.69
685.062	13.23
685.386	13.26
685.709	13.23
686.032	13.5
686.355	13.65
686.678	13.51
687.001	13.14
687.324	13.4
687.646	13.5
687.969	13.66
688.292	13.69
688.614	13.52
