Data from 001-17_crown_Reflection__0__156.txt Node

Date: Fri Sep 30 19:20:46 CDT 2022
User: ToomeyLab
Spectrometer: FLMS14357
Trigger mode: 0
Integration Time (sec): 1.000000E-2
Scans to average: 100
Electric dark correction enabled: true
Nonlinearity correction enabled: false
Boxcar width: 0
XAxis mode: Wavelengths
Number of Pixels in Spectrum: 2048
>>>>>Begin Spectral Data<<<<<
189.047	-25.07
189.435	-25.07
189.823	-25.07
190.211	40.79
190.599	196.96
190.987	28.56
191.375	10.67
191.763	30.45
192.151	68.02
192.538	-17.64
192.926	400.81
193.314	10063.64
193.702	-972.49
194.089	-202.47
194.477	186.84
194.864	143.62
195.252	92.86
195.639	37.42
196.027	-28.78
196.414	209.61
196.801	-48.15
197.189	203.72
197.576	-11.37
197.963	46.18
198.351	32.02
198.738	-16.72
199.125	31.6
199.512	1.35
199.899	-60.21
200.286	2.11
200.673	-86.79
201.06	-23.82
201.447	-11.6
201.833	22.4
202.22	-80.38
202.607	-1.22
202.994	-33.34
203.38	45.42
203.767	1.26
204.154	14
204.54	14.58
204.927	-60.29
205.313	19.6
205.699	28.74
206.086	33.44
206.472	41.91
206.858	35.97
207.245	-70.15
207.631	29.2
208.017	5.28
208.403	-1.84
208.789	15.31
209.175	11
209.561	-29.78
209.947	19.55
210.333	26.33
210.719	2.77
211.105	-17.13
211.491	18.14
211.876	28.95
212.262	30.74
212.648	2.05
213.034	17.86
213.419	-4.2
213.805	-19.35
214.19	-32.65
214.576	-29.18
214.961	4.2
215.346	16.43
215.732	-30.44
216.117	14.85
216.502	-2.39
216.888	-7.28
217.273	42.47
217.658	14.07
218.043	18.42
218.428	10.53
218.813	-19.9
219.198	5.69
219.583	4.25
219.968	-8.08
220.353	-12.12
220.738	14.12
221.122	-8.11
221.507	3.47
221.892	2.63
222.276	-15.48
222.661	-10.6
223.046	-15.46
223.43	16.07
223.815	7.57
224.199	3.42
224.583	9.37
224.968	5.06
225.352	3.2
225.736	13.11
226.121	0.21
226.505	6.78
226.889	3.34
227.273	10.61
227.657	2.9
228.041	4.95
228.425	5.96
228.809	3.76
229.193	3.91
229.577	5.44
229.961	5.31
230.344	5.24
230.728	4.75
231.112	6.06
231.495	5.37
231.879	5.21
232.263	6.25
232.646	6.18
233.03	5.11
233.413	3.33
233.797	3.61
234.18	2.32
234.563	2.67
234.946	4.54
235.33	4.74
235.713	4.08
236.096	4.75
236.479	3.74
236.862	5.65
237.245	5.18
237.628	5.02
238.011	4.2
238.394	4.27
238.777	3.98
239.16	4.75
239.543	7.03
239.925	3.02
240.308	4.05
240.691	4.17
241.073	3.89
241.456	4.6
241.838	4.91
242.221	4.82
242.603	5.12
242.986	5.03
243.368	4.82
243.75	4.77
244.133	4.43
244.515	4.57
244.897	4.66
245.279	4.12
245.661	5.09
246.043	4.52
246.425	4.86
246.807	4.1
247.189	5.42
247.571	5.08
247.953	4.42
248.335	4.7
248.717	4.67
249.098	4.62
249.48	4.94
249.862	4.38
250.243	4.46
250.625	4.43
251.006	5.12
251.388	4.44
251.769	4.49
252.151	4.41
252.532	4.09
252.913	2.93
253.295	4.54
253.676	4.47
254.057	4.36
254.438	4.64
254.819	4.97
255.2	4.63
255.581	4.6
255.962	4.29
256.343	3.41
256.724	4.34
257.105	3.58
257.486	4
257.867	4.39
258.247	4.27
258.628	3.61
259.009	4.05
259.389	4.45
259.77	3.22
260.15	3.96
260.531	4.47
260.911	3.83
261.292	4.26
261.672	4.16
262.052	4.26
262.432	4.8
262.813	4.5
263.193	4.69
263.573	4.9
263.953	4.11
264.333	4.34
264.713	4.28
265.093	4.47
265.473	4.78
265.853	4.86
266.233	4.28
266.612	4.2
266.992	3.96
267.372	4.4
267.752	2.82
268.131	4.12
268.511	3.97
268.89	4.01
269.27	4.54
269.649	4.51
270.029	4.12
270.408	4.61
270.787	4.6
271.167	4.34
271.546	3.99
271.925	4.31
272.304	4.25
272.683	4.16
273.062	3.98
273.441	3.75
273.82	4.06
274.199	4.21
274.578	3.85
274.957	4.15
275.336	4.21
275.715	3.86
276.093	4.09
276.472	4.2
276.851	4.45
277.229	4.61
277.608	3.74
277.986	3.31
278.365	4.19
278.743	4.13
279.122	2.87
279.5	4.12
279.878	3.96
280.257	4.37
280.635	3.95
281.013	4.29
281.391	3.87
281.769	3.71
282.147	3.94
282.525	4.65
282.903	3.88
283.281	4.23
283.659	4.14
284.037	3.98
284.415	3.92
284.792	3.96
285.17	3.75
285.548	3.79
285.925	3.65
286.303	3.58
286.68	3.84
287.058	3.62
287.435	3.72
287.813	3.71
288.19	3.82
288.567	3.8
288.945	3.3
289.322	3.84
289.699	3.68
290.076	3.99
290.453	4.05
290.83	3.69
291.207	3.92
291.584	3.63
291.961	3.65
292.338	3.52
292.715	4.1
293.092	3.48
293.469	3.64
293.845	3.81
294.222	3.97
294.599	3.86
294.975	3.5
295.352	4.02
295.728	3.71
296.105	3.96
296.481	4.19
296.858	3.3
297.234	3.12
297.61	3.85
297.986	4
298.363	3.51
298.739	3.65
299.115	3.76
299.491	3.52
299.867	3.83
300.243	3.85
300.619	3.78
300.995	3.74
301.371	4
301.746	4.08
302.122	3.75
302.498	3.4
302.874	3.47
303.249	3.48
303.625	3.67
304	3.89
304.376	3.87
304.751	3.92
305.127	3.71
305.502	3.35
305.878	3.82
306.253	3.79
306.628	3.21
307.003	3.69
307.378	3.33
307.754	3.69
308.129	3.61
308.504	3.49
308.879	4.14
309.254	3.42
309.629	3.46
310.003	3.38
310.378	4.06
310.753	3.06
311.128	3.35
311.502	3.42
311.877	3.7
312.252	3.81
312.626	3.52
313.001	3.37
313.375	3.48
313.75	3.91
314.124	3.4
314.498	3.55
314.873	3.53
315.247	3
315.621	3.66
315.995	3.18
316.369	3.76
316.743	3.45
317.117	3.52
317.491	3.2
317.865	3.98
318.239	3.53
318.613	3.4
318.987	3.55
319.361	3.21
319.734	3.72
320.108	3.28
320.482	3.44
320.855	3.46
321.229	3.55
321.602	3.56
321.976	3.9
322.349	3.33
322.723	2.82
323.096	3.23
323.469	3.49
323.843	3.27
324.216	3.56
324.589	3.52
324.962	3.51
325.335	3.55
325.708	3.01
326.081	3.98
326.454	3.5
326.827	3.71
327.2	3.81
327.573	3.65
327.945	3.55
328.318	3.63
328.691	3.46
329.063	3.59
329.436	2.99
329.809	3.51
330.181	3.14
330.553	3.64
330.926	3.88
331.298	3.68
331.671	3.73
332.043	3.05
332.415	3.55
332.787	3.46
333.159	3.43
333.532	4.3
333.904	3.52
334.276	3.49
334.648	3.21
335.02	3.73
335.391	3.45
335.763	3.89
336.135	3.35
336.507	4.01
336.879	3.78
337.25	3.69
337.622	3.67
337.993	3.46
338.365	3.77
338.736	3.25
339.108	3.83
339.479	3.83
339.851	3.39
340.222	3.86
340.593	3.84
340.964	3.72
341.336	3.4
341.707	3.7
342.078	3.58
342.449	3.38
342.82	3.48
343.191	3.45
343.562	3.57
343.933	3.65
344.303	3.96
344.674	3.64
345.045	3.59
345.416	3.39
345.786	3.71
346.157	2.85
346.527	3.53
346.898	3.97
347.268	3.54
347.639	3.35
348.009	3.33
348.38	3.32
348.75	3.72
349.12	3.83
349.49	3.39
349.861	3.45
350.231	4.04
350.601	3.63
350.971	3.45
351.341	3.53
351.711	3.56
352.081	3.68
352.45	3.53
352.82	3.68
353.19	3.76
353.56	3.41
353.929	3.75
354.299	3.98
354.669	3.81
355.038	3.9
355.408	4.06
355.777	3.62
356.147	3.43
356.516	3.94
356.885	3.49
357.254	3.57
357.624	3.81
357.993	3.73
358.362	3.37
358.731	3.15
359.1	3.47
359.469	3.82
359.838	3.64
360.207	3.78
360.576	3.87
360.945	3.77
361.314	3.54
361.682	3.52
362.051	4.19
362.42	3.38
362.788	3.69
363.157	3.58
363.525	3.63
363.894	3.79
364.262	3.67
364.631	3.93
364.999	3.9
365.367	3.77
365.735	3.45
366.104	3.58
366.472	3.79
366.84	3.82
367.208	3.93
367.576	3.75
367.944	3.62
368.312	3.63
368.68	3.82
369.048	3.69
369.416	3.71
369.783	3.93
370.151	3.74
370.519	3.64
370.886	3.8
371.254	3.76
371.621	4.15
371.989	3.66
372.356	3.68
372.724	3.92
373.091	3.87
373.458	3.54
373.826	3.91
374.193	4.23
374.56	3.98
374.927	3.94
375.294	3.65
375.661	3.7
376.028	4.18
376.395	3.86
376.762	3.94
377.129	3.69
377.496	3.98
377.863	3.81
378.229	3.77
378.596	3.9
378.963	3.61
379.329	3.78
379.696	3.81
380.062	3.95
380.429	3.93
380.795	3.76
381.161	4
381.528	3.96
381.894	4.07
382.26	3.89
382.626	4
382.993	4.03
383.359	3.85
383.725	4.03
384.091	3.71
384.457	4.14
384.823	4.04
385.188	4.32
385.554	3.91
385.92	4.17
386.286	4.07
386.651	4.17
387.017	4
387.383	4.14
387.748	4.1
388.114	3.85
388.479	4.29
388.845	3.84
389.21	4.05
389.575	4.1
389.94	3.81
390.306	4.11
390.671	3.88
391.036	3.84
391.401	3.93
391.766	3.72
392.131	3.91
392.496	3.89
392.861	4.34
393.226	3.81
393.591	3.9
393.956	4.21
394.32	4.07
394.685	4.11
395.05	3.82
395.414	4.02
395.779	3.91
396.143	3.98
396.508	3.95
396.872	3.96
397.236	4.01
397.601	4.41
397.965	4.32
398.329	3.85
398.694	3.96
399.058	4.32
399.422	4.27
399.786	4.1
400.15	4.09
400.514	4.36
400.878	3.98
401.242	4.03
401.605	4.23
401.969	3.94
402.333	3.99
402.697	4.27
403.06	4.2
403.424	4.2
403.787	4.2
404.151	3.89
404.514	4.21
404.878	3.97
405.241	4.48
405.604	4.07
405.968	4.1
406.331	4.1
406.694	4.04
407.057	4.06
407.42	4.06
407.783	4.17
408.146	4
408.509	4.17
408.872	3.91
409.235	4.19
409.598	4.06
409.961	4.25
410.323	4.22
410.686	4.16
411.049	3.9
411.411	4.03
411.774	4.06
412.136	4.24
412.499	4.15
412.861	4.22
413.223	4.28
413.586	4.19
413.948	4.23
414.31	4.43
414.672	4.35
415.035	4.06
415.397	3.77
415.759	4.22
416.121	3.98
416.483	4.19
416.845	4.14
417.206	4.2
417.568	4.38
417.93	3.96
418.292	4.17
418.653	4.1
419.015	3.99
419.377	3.99
419.738	3.98
420.1	4.03
420.461	4.05
420.822	4.06
421.184	3.99
421.545	4.08
421.906	4.07
422.267	4.04
422.629	3.94
422.99	4.02
423.351	4.2
423.712	4.17
424.073	4.18
424.434	4.16
424.795	4.15
425.155	4.07
425.516	4.03
425.877	4.03
426.238	4.11
426.598	4.1
426.959	4.22
427.32	4.25
427.68	4.35
428.041	4.22
428.401	4.35
428.761	4.1
429.122	4.38
429.482	4.35
429.842	4.38
430.202	4.34
430.563	4.04
430.923	4.33
431.283	4.15
431.643	4.43
432.003	4.24
432.363	4.16
432.722	4.1
433.082	4.26
433.442	4.2
433.802	4.09
434.161	4.26
434.521	3.99
434.881	4.11
435.24	4.04
435.6	4.17
435.959	4.27
436.319	4.13
436.678	4.31
437.037	4.36
437.396	4.19
437.756	4.25
438.115	4.32
438.474	4.25
438.833	4.21
439.192	4.17
439.551	4.27
439.91	4.13
440.269	4.21
440.628	4.1
440.987	4.12
441.345	4.13
441.704	4.1
442.063	4.2
442.421	4.14
442.78	4.11
443.138	4.27
443.497	4.36
443.855	4.43
444.214	4.48
444.572	4.29
444.93	4.17
445.288	4.43
445.647	4.26
446.005	4.3
446.363	4.25
446.721	4.27
447.079	4.13
447.437	4.01
447.795	4.14
448.153	4.22
448.51	4.09
448.868	4.24
449.226	4.23
449.584	4.29
449.941	4.27
450.299	4.45
450.656	4.18
451.014	4.27
451.371	4.38
451.729	4.4
452.086	4.56
452.443	4.52
452.801	4.32
453.158	4.33
453.515	4.25
453.872	4.31
454.229	4.22
454.586	4.15
454.943	4.23
455.3	4.38
455.657	4.38
456.014	4.43
456.371	4.34
456.727	4.25
457.084	4.44
457.441	4.29
457.797	4.22
458.154	4.53
458.51	4.41
458.867	4.41
459.223	4.23
459.58	4.23
459.936	4.41
460.292	4.39
460.648	4.18
461.005	4.05
461.361	4.01
461.717	4.08
462.073	4.21
462.429	4.39
462.785	4.49
463.141	4.41
463.496	4.56
463.852	4.43
464.208	4.37
464.564	4.47
464.919	4.26
465.275	4.34
465.631	4.4
465.986	4.29
466.342	4.45
466.697	4.2
467.052	4.26
467.408	4.22
467.763	4.34
468.118	4.41
468.473	4.3
468.829	4.28
469.184	4.49
469.539	4.49
469.894	4.43
470.249	4.44
470.603	4.44
470.958	4.44
471.313	4.31
471.668	4.4
472.023	4.28
472.377	4.39
472.732	4.32
473.086	4.23
473.441	4.19
473.795	4.57
474.15	4.42
474.504	4.43
474.859	4.24
475.213	4.53
475.567	4.32
475.921	4.42
476.275	4.39
476.63	4.26
476.984	4.31
477.338	4.41
477.692	4.42
478.045	4.39
478.399	4.29
478.753	4.46
479.107	4.43
479.461	4.31
479.814	4.35
480.168	4.39
480.521	4.36
480.875	4.33
481.228	4.37
481.582	4.44
481.935	4.28
482.289	4.16
482.642	4.46
482.995	4.22
483.348	4.26
483.701	4.33
484.055	4.21
484.408	4.08
484.761	3.99
485.114	3.78
485.466	3.73
485.819	3.84
486.172	4.1
486.525	4.35
486.878	4.45
487.23	4.53
487.583	4.45
487.936	4.22
488.288	4.15
488.641	3.97
488.993	3.97
489.345	3.97
489.698	4.1
490.05	4.18
490.402	4.26
490.754	4.41
491.107	4.46
491.459	4.38
491.811	4.36
492.163	4.34
492.515	4.07
492.866	3.96
493.218	3.88
493.57	3.99
493.922	4.15
494.274	4.39
494.625	4.59
494.977	4.48
495.328	4.46
495.68	4.41
496.031	4.42
496.383	4.38
496.734	4.37
497.086	4.32
497.437	4.23
497.788	4.11
498.139	4.39
498.49	4.2
498.842	4.21
499.193	4.22
499.544	4.35
499.894	4.47
500.245	4.47
500.596	4.29
500.947	4.51
501.298	4.45
501.648	4.43
501.999	4.36
502.35	4.34
502.7	4.51
503.051	4.43
503.401	4.55
503.752	4.33
504.102	4.39
504.452	4.3
504.803	4.39
505.153	4.38
505.503	4.32
505.853	4.4
506.203	4.37
506.553	4.43
506.903	4.39
507.253	4.45
507.603	4.43
507.953	4.29
508.303	4.44
508.652	4.33
509.002	4.39
509.352	4.44
509.701	4.2
510.051	4.3
510.4	4.28
510.75	4.33
511.099	4.28
511.449	4.24
511.798	4.33
512.147	4.27
512.496	4.48
512.846	4.4
513.195	4.3
513.544	4.31
513.893	4.29
514.242	4.35
514.591	4.31
514.939	4.31
515.288	4.46
515.637	4.32
515.986	4.34
516.334	4.38
516.683	4.25
517.032	4.45
517.38	4.35
517.729	4.4
518.077	4.47
518.426	4.38
518.774	4.31
519.122	4.27
519.47	4.28
519.819	4.22
520.167	4.02
520.515	4.16
520.863	4.22
521.211	4.36
521.559	4.32
521.907	4.47
522.255	4.53
522.602	4.44
522.95	4.31
523.298	4.42
523.645	4.43
523.993	4.34
524.341	4.36
524.688	4.36
525.036	4.14
525.383	4.3
525.73	4.32
526.078	4.33
526.425	4.24
526.772	4.13
527.119	4.09
527.466	4.01
527.814	4.16
528.161	4.35
528.508	4.4
528.854	4.35
529.201	4.17
529.548	4.04
529.895	3.84
530.242	3.76
530.588	3.85
530.935	4.08
531.282	4.25
531.628	4.36
531.975	4.47
532.321	4.49
532.667	4.35
533.014	4.42
533.36	4.42
533.706	4.3
534.052	4.2
534.399	4.08
534.745	3.96
535.091	4.01
535.437	4.12
535.783	4.26
536.129	4.44
536.474	4.42
536.82	4.5
537.166	4.37
537.512	4.24
537.857	4.15
538.203	4.12
538.549	4.16
538.894	4.37
539.239	4.35
539.585	4.42
539.93	4.52
540.276	4.62
540.621	4.42
540.966	4.44
541.311	4.24
541.656	4.18
542.001	4.1
542.346	4.03
542.691	3.92
543.036	3.88
543.381	4.01
543.726	4.18
544.071	4.22
544.415	4.47
544.76	4.36
545.105	4.34
545.449	4.43
545.794	4.33
546.138	4.36
546.483	4.35
546.827	4.29
547.171	4.27
547.516	4.34
547.86	4.23
548.204	4.06
548.548	4.14
548.892	4.26
549.236	4.3
549.58	4.34
549.924	4.4
550.268	4.5
550.612	4.53
550.956	4.62
551.3	4.38
551.643	4.36
551.987	4.34
552.33	4.45
552.674	4.51
553.017	4.3
553.361	4.52
553.704	4.38
554.048	4.29
554.391	4.38
554.734	4.37
555.077	4.24
555.42	4.44
555.764	4.43
556.107	4.44
556.45	4.46
556.793	4.52
557.135	4.35
557.478	4.29
557.821	4.2
558.164	4.53
558.507	4.62
558.849	4.38
559.192	4.45
559.534	4.23
559.877	4.54
560.219	4.49
560.562	4.28
560.904	4.41
561.246	4.48
561.589	4.39
561.931	4.21
562.273	4.17
562.615	4.21
562.957	4.22
563.299	4.32
563.641	4.53
563.983	4.5
564.325	4.31
564.667	4.45
565.008	4.48
565.35	4.36
565.692	4.23
566.033	4.36
566.375	4.42
566.716	4.34
567.058	4.34
567.399	4.19
567.741	4.2
568.082	4.19
568.423	4.19
568.764	4.28
569.105	4.37
569.447	4.38
569.788	4.42
570.129	4.44
570.47	4.19
570.811	4.2
571.151	4.29
571.492	4.4
571.833	4.26
572.174	4.33
572.514	4.37
572.855	4.38
573.195	4.27
573.536	4.19
573.876	4.14
574.217	4.3
574.557	4.23
574.898	4.21
575.238	4.15
575.578	4.24
575.918	4.35
576.258	4.23
576.598	4.13
576.938	4.23
577.278	4.22
577.618	4.31
577.958	4.48
578.298	4.39
578.638	4.41
578.977	4.43
579.317	4.37
579.657	4.26
579.996	4.52
580.336	4.24
580.675	4.27
581.014	4.4
581.354	4.21
581.693	4.36
582.032	4.38
582.372	4.21
582.711	4.2
583.05	4.54
583.389	4.15
583.728	4.26
584.067	4.57
584.406	4.19
584.745	4.38
585.083	4.36
585.422	4.44
585.761	4.42
586.1	4.36
586.438	4.19
586.777	4.19
587.115	4.29
587.454	4.18
587.792	4.48
588.13	4.55
588.469	4.33
588.807	4.28
589.145	4.38
589.483	4.31
589.821	4.7
590.159	4.3
590.497	4.53
590.835	4.31
591.173	4.3
591.511	4.14
591.849	4.2
592.187	4.46
592.524	4.13
592.862	4.15
593.2	4.25
593.537	4.34
593.875	4.33
594.212	4.3
594.55	4.16
594.887	4.27
595.224	4.34
595.561	4.49
595.899	4.3
596.236	4.31
596.573	4.27
596.91	4.29
597.247	4.16
597.584	4.36
597.921	4.34
598.258	4.28
598.594	4.13
598.931	4.33
599.268	4.17
599.604	4.24
599.941	4.33
600.277	4.35
600.614	4.45
600.95	4.2
601.287	4.25
601.623	4.07
601.959	4.28
602.296	4.39
602.632	4.2
602.968	4.16
603.304	4.36
603.64	4.33
603.976	4.26
604.312	4.02
604.648	4.46
604.984	4.04
605.319	4.12
605.655	3.98
605.991	4.09
606.326	4.19
606.662	4.21
606.998	4.25
607.333	4.3
607.668	4.33
608.004	4.35
608.339	4.4
608.674	4.3
609.01	4.43
609.345	4.13
609.68	4.12
610.015	4.08
610.35	3.97
610.685	3.98
611.02	4.17
611.355	4.1
611.689	4.25
612.024	4.13
612.359	4.22
612.694	4.27
613.028	4.37
613.363	4.2
613.697	4.43
614.032	4.23
614.366	4.25
614.7	4.29
615.035	4.26
615.369	4.51
615.703	4.09
616.037	4.15
616.371	4.35
616.705	4.17
617.039	4.24
617.373	3.96
617.707	3.97
618.041	3.99
618.375	4.76
618.709	4.62
619.042	4.33
619.376	4.21
619.71	4.23
620.043	4.48
620.377	4.21
620.71	4.18
621.043	4.15
621.377	4.57
621.71	4.16
622.043	4.31
622.376	4.24
622.709	4.56
623.043	3.97
623.376	4.21
623.709	4.39
624.041	4.1
624.374	4.37
624.707	4.31
625.04	4.42
625.373	4
625.705	3.99
626.038	4.45
626.37	4.14
626.703	4.38
627.035	4.44
627.368	4.23
627.7	4.3
628.032	3.97
628.365	4.06
628.697	4.17
629.029	3.97
629.361	3.97
629.693	4.12
630.025	4.33
630.357	4.58
630.689	4.08
631.021	4.39
631.353	4.3
631.684	4.09
632.016	3.82
632.348	3.88
632.679	4.13
633.011	4.27
633.342	4.13
633.674	4.3
634.005	4.19
634.336	4.33
634.668	3.96
634.999	4.39
635.33	4.22
635.661	4.09
635.992	4.46
636.323	4.32
636.654	3.89
636.985	4.11
637.316	3.95
637.647	4.11
637.977	4.19
638.308	3.92
638.639	4.57
638.969	4.16
639.3	3.88
639.63	3.89
639.961	4.58
640.291	4.38
640.622	4.52
640.952	4.42
641.282	4.17
641.612	4.47
641.943	4.28
642.273	3.81
642.603	4.48
642.933	3.93
643.263	3.96
643.592	4.32
643.922	4.48
644.252	4.22
644.582	4.16
644.911	4.06
645.241	4.21
645.571	4.52
645.9	4.46
646.23	4.76
646.559	3.98
646.888	4.44
647.218	4.49
647.547	4.55
647.876	4.42
648.205	4.19
648.534	3.86
648.863	3.84
649.192	4.33
649.521	4.11
649.85	4.55
650.179	3.71
650.508	4.6
650.837	4.06
651.165	4.01
651.494	4.28
651.822	4.6
652.151	4.19
652.479	4.3
652.808	4.41
653.136	4.47
653.465	4.1
653.793	3.92
654.121	4.2
654.449	4.43
654.777	4.17
655.105	4.39
655.433	4.49
655.761	4.67
656.089	4.28
656.417	4.27
656.745	4.47
657.073	3.7
657.4	4.64
657.728	4.34
658.056	4.13
658.383	4.91
658.711	3.95
659.038	4.41
659.365	4.29
659.693	4.56
660.02	4.82
660.347	4.28
660.674	4.38
661.001	4.24
661.329	4.31
661.656	4.23
661.982	3.88
662.309	4.58
662.636	4.24
662.963	4.46
663.29	4.53
663.616	4.06
663.943	4.24
664.27	4.16
664.596	4.31
664.923	4.03
665.249	4.48
665.576	4.11
665.902	4.4
666.228	4.1
666.554	4.57
666.881	4.53
667.207	4.19
667.533	4.01
667.859	4.17
668.185	4.71
668.511	4.48
668.837	4.81
669.162	4.24
669.488	4.43
669.814	4.39
670.139	4.11
670.465	3.74
670.791	3.69
671.116	4.09
671.442	4.52
671.767	3.92
672.092	4.15
672.418	4.31
672.743	4.24
673.068	4.59
673.393	3.92
673.718	4.32
674.043	4.18
674.368	4.23
674.693	4.41
675.018	4.18
675.343	4.39
675.667	4.25
675.992	4.19
676.317	4.24
676.641	4.58
676.966	4.34
677.29	4.73
677.615	3.91
677.939	4.16
678.264	4.63
678.588	4.25
678.912	3.86
679.236	3.54
679.56	3.91
679.885	4.35
680.209	5.08
680.532	4.55
680.856	4.52
681.18	4.14
681.504	3.92
681.828	4.71
682.152	4.45
682.475	4.13
682.799	4.2
683.122	3.89
683.446	3.89
683.769	4.57
684.093	4.68
684.416	4.08
684.739	4.74
685.062	4.24
685.386	3.99
685.709	4.62
686.032	4.81
686.355	4.23
686.678	4.12
687.001	4.13
687.324	4.49
687.646	4.07
687.969	4.08
688.292	3.96
688.614	4.63
688.937	4.68
689.26	3.7
689.582	3.2
689.904	4.52
690.227	4.01
690.549	4.61
690.871	3.85
691.194	4.47
691.516	3.8
691.838	4.37
692.16	4.55
692.482	3.96
