Data from 001-17_forehead_Reflection__2__163.txt Node

Date: Fri Sep 30 19:22:40 CDT 2022
User: ToomeyLab
Spectrometer: FLMS14357
Trigger mode: 0
Integration Time (sec): 1.000000E-2
Scans to average: 100
Electric dark correction enabled: true
Nonlinearity correction enabled: false
Boxcar width: 0
XAxis mode: Wavelengths
Number of Pixels in Spectrum: 2048
>>>>>Begin Spectral Data<<<<<
189.047	-103.87
189.435	-103.87
189.823	-103.87
190.211	577.01
190.599	96.29
190.987	-133.43
191.375	29.01
191.763	75.23
192.151	34.67
192.538	73.11
192.926	497.32
193.314	10909.09
193.702	768.56
194.089	14.22
194.477	0
194.864	85.99
195.252	49.42
195.639	59.01
196.027	167.37
196.414	108.57
196.801	-9185.19
197.189	204.85
197.576	-20.03
197.963	-28.32
198.351	0.28
198.738	21.52
199.125	0.77
199.512	8.64
199.899	-36.54
200.286	24.49
200.673	1.05
201.06	1.19
201.447	-23.44
201.833	34.25
202.22	-44.5
202.607	-9.96
202.994	8.06
203.38	7.85
203.767	18.18
204.154	1.43
204.54	28.18
204.927	37.74
205.313	31.53
205.699	23.62
206.086	42.4
206.472	27.21
206.858	32.34
207.245	-40.13
207.631	45.1
208.017	27.67
208.403	55.6
208.789	24.89
209.175	28.99
209.561	29.9
209.947	32.06
210.333	23.41
210.719	13.28
211.105	18.39
211.491	24.97
211.876	38.54
212.262	7.19
212.648	14.58
213.034	8.66
213.419	4.27
213.805	16.3
214.19	3.21
214.576	-22.79
214.961	30.58
215.346	2.41
215.732	-15.57
216.117	4.18
216.502	15.45
216.888	14.98
217.273	22.25
217.658	6.05
218.043	19.01
218.428	5.8
218.813	2.34
219.198	18.18
219.583	-3.2
219.968	9.94
220.353	7.8
220.738	16.38
221.122	-15.02
221.507	-2.32
221.892	-11.66
222.276	-7.23
222.661	8.33
223.046	-1.62
223.43	7.42
223.815	9.53
224.199	5.18
224.583	10.38
224.968	11.25
225.352	1.46
225.736	9.09
226.121	11.27
226.505	11.16
226.889	-0.36
227.273	-0.36
227.657	-2.33
228.041	-1.12
228.425	1.69
228.809	3.86
229.193	1.11
229.577	2.05
229.961	1.57
230.344	2.34
230.728	2.23
231.112	1.93
231.495	1.77
231.879	1.95
232.263	2.82
232.646	2.52
233.03	1.32
233.413	0.54
233.797	0.53
234.18	-0.11
234.563	3.98
234.946	2.64
235.33	2.16
235.713	-0.42
236.096	1.99
236.479	0.94
236.862	2.01
237.245	0.27
237.628	1.16
238.011	0.75
238.394	-0.63
238.777	1.08
239.16	0.46
239.543	3.46
239.925	0.26
240.308	1.31
240.691	0.88
241.073	0.99
241.456	2.31
241.838	1.09
242.221	1.55
242.603	1.9
242.986	2.11
243.368	1.6
243.75	1.49
244.133	1.14
244.515	0.99
244.897	1.44
245.279	1.31
245.661	2.91
246.043	1.82
246.425	1.73
246.807	2.03
247.189	1.35
247.571	1.94
247.953	1.44
248.335	2.05
248.717	1.31
249.098	1.55
249.48	1.28
249.862	1.15
250.243	1.6
250.625	1.74
251.006	2.29
251.388	1.42
251.769	1.24
252.151	1.48
252.532	0.91
252.913	1.26
253.295	1.86
253.676	1.53
254.057	1.71
254.438	1.33
254.819	0.87
255.2	1.5
255.581	1.67
255.962	2.56
256.343	0.95
256.724	3.19
257.105	2.2
257.486	2.17
257.867	1.96
258.247	1.51
258.628	1.13
259.009	1.63
259.389	2.15
259.77	1.11
260.15	1.71
260.531	1.51
260.911	1.54
261.292	1.72
261.672	1.37
262.052	1.8
262.432	1.89
262.813	2.38
263.193	1.98
263.573	1.68
263.953	1.81
264.333	1.4
264.713	1.72
265.093	2
265.473	2.08
265.853	1.39
266.233	1.28
266.612	1.15
266.992	1.82
267.372	1.87
267.752	1.8
268.131	2.14
268.511	1.73
268.89	1.67
269.27	2.16
269.649	1.99
270.029	1.46
270.408	1.72
270.787	2.22
271.167	0.94
271.546	1.44
271.925	2.11
272.304	1.69
272.683	1.63
273.062	1.59
273.441	1.53
273.82	1.47
274.199	1.81
274.578	1.98
274.957	1.35
275.336	1.34
275.715	1.46
276.093	1.32
276.472	1.52
276.851	2.1
277.229	2.26
277.608	1.6
277.986	1.93
278.365	1.4
278.743	1.89
279.122	1.02
279.5	2.08
279.878	1.34
280.257	1.41
280.635	1.51
281.013	2.11
281.391	1.93
281.769	1.42
282.147	1.23
282.525	1.39
282.903	1.57
283.281	1.72
283.659	1.74
284.037	1.59
284.415	0.51
284.792	1.51
285.17	1.72
285.548	1.48
285.925	1.37
286.303	1.49
286.68	1.41
287.058	1.44
287.435	1.62
287.813	1.44
288.19	1.3
288.567	1.53
288.945	1.2
289.322	1.97
289.699	1.65
290.076	1.49
290.453	1.62
290.83	1.22
291.207	1.82
291.584	1.4
291.961	1.85
292.338	1.38
292.715	1.9
293.092	1.76
293.469	1.6
293.845	2
294.222	1.87
294.599	1.74
294.975	2.39
295.352	1.88
295.728	1.95
296.105	1.96
296.481	2.36
296.858	1.68
297.234	1.74
297.61	1.73
297.986	1.85
298.363	1.57
298.739	2.14
299.115	2.01
299.491	1.98
299.867	1.98
300.243	2.02
300.619	1.99
300.995	2.14
301.371	2.04
301.746	2.42
302.122	2.11
302.498	1.77
302.874	1.82
303.249	1.92
303.625	1.92
304	2.24
304.376	2.47
304.751	2.47
305.127	2.33
305.502	1.83
305.878	2.39
306.253	2.89
306.628	2.35
307.003	2.52
307.378	2.58
307.754	2.28
308.129	2.75
308.504	2.69
308.879	2.9
309.254	2.1
309.629	2.39
310.003	2.67
310.378	2.91
310.753	2.45
311.128	2.35
311.502	2.97
311.877	2.74
312.252	2.71
312.626	2.74
313.001	2.69
313.375	2.6
313.75	3.12
314.124	2.73
314.498	2.58
314.873	2.65
315.247	2.51
315.621	3.1
315.995	2.8
316.369	3.03
316.743	3.12
317.117	2.69
317.491	2.8
317.865	3.23
318.239	3.2
318.613	2.98
318.987	3.54
319.361	3.46
319.734	3.03
320.108	3.24
320.482	3.36
320.855	3.12
321.229	3.49
321.602	3.58
321.976	3.91
322.349	3.3
322.723	3.72
323.096	3.2
323.469	3.61
323.843	3.57
324.216	3.47
324.589	3.56
324.962	4.01
325.335	3.66
325.708	3.95
326.081	4.42
326.454	4.02
326.827	3.59
327.2	3.71
327.573	4.12
327.945	3.84
328.318	3.99
328.691	4.09
329.063	3.66
329.436	4.2
329.809	4.09
330.181	3.47
330.553	3.81
330.926	4.41
331.298	3.67
331.671	4.14
332.043	3.81
332.415	4.35
332.787	4.38
333.159	4.24
333.532	4.05
333.904	3.64
334.276	4.56
334.648	4.24
335.02	4.35
335.391	4.07
335.763	4.33
336.135	4.37
336.507	4.48
336.879	4.55
337.25	4.61
337.622	4.61
337.993	4.34
338.365	4.88
338.736	4.68
339.108	4.88
339.479	4.79
339.851	4.79
340.222	4.48
340.593	4.41
340.964	4.57
341.336	4.65
341.707	4.32
342.078	4.61
342.449	4.61
342.82	4.46
343.191	4.7
343.562	4.8
343.933	4.71
344.303	4.87
344.674	5.02
345.045	5.05
345.416	5.34
345.786	5.33
346.157	4.29
346.527	4.92
346.898	5.08
347.268	5.34
347.639	4.72
348.009	5
348.38	4.35
348.75	4.89
349.12	4.86
349.49	4.86
349.861	5.13
350.231	5.44
350.601	5.25
350.971	4.95
351.341	5.33
351.711	5.28
352.081	5.05
352.45	4.79
352.82	5.25
353.19	5.11
353.56	5.13
353.929	5.16
354.299	5.66
354.669	5.52
355.038	5.43
355.408	4.95
355.777	5.18
356.147	5.32
356.516	5.41
356.885	5.75
357.254	5.48
357.624	5.35
357.993	5.36
358.362	5.52
358.731	5.26
359.1	5.58
359.469	5.64
359.838	5.57
360.207	5.5
360.576	5.67
360.945	5.58
361.314	5.39
361.682	5.55
362.051	5.49
362.42	5.16
362.788	5.63
363.157	5.5
363.525	5.64
363.894	5.7
364.262	5.69
364.631	5.9
364.999	5.78
365.367	5.84
365.735	6.07
366.104	5.44
366.472	6.02
366.84	5.65
367.208	5.88
367.576	6.14
367.944	5.82
368.312	5.87
368.68	5.81
369.048	6.12
369.416	6.11
369.783	6.56
370.151	6.26
370.519	5.92
370.886	6.27
371.254	6.19
371.621	6.77
371.989	6.24
372.356	5.98
372.724	6.25
373.091	6.14
373.458	6.09
373.826	6.1
374.193	6.48
374.56	6.56
374.927	6.5
375.294	6.27
375.661	6.54
376.028	6.89
376.395	6.41
376.762	6.36
377.129	6.42
377.496	6.13
377.863	6.58
378.229	6.59
378.596	6.45
378.963	6.25
379.329	6.43
379.696	6.73
380.062	6.68
380.429	6.41
380.795	6.42
381.161	6.62
381.528	6.59
381.894	6.7
382.26	7.01
382.626	6.6
382.993	6.72
383.359	6.89
383.725	6.92
384.091	7.02
384.457	7.15
384.823	7.17
385.188	6.94
385.554	7.1
385.92	7
386.286	7.11
386.651	7.15
387.017	7
387.383	7.35
387.748	7.41
388.114	7.17
388.479	7.06
388.845	6.94
389.21	6.85
389.575	6.88
389.94	7.08
390.306	7.3
390.671	7.17
391.036	7.04
391.401	7.39
391.766	7.34
392.131	7.29
392.496	7.12
392.861	7.4
393.226	6.88
393.591	6.98
393.956	7.54
394.32	7.32
394.685	7.4
395.05	7.29
395.414	7.19
395.779	7.4
396.143	7.26
396.508	7.07
396.872	7.32
397.236	7.39
397.601	7.52
397.965	7.36
398.329	7.36
398.694	7.47
399.058	7.98
399.422	7.75
399.786	7.8
400.15	7.53
400.514	7.58
400.878	7.58
401.242	7.73
401.605	7.84
401.969	7.59
402.333	7.93
402.697	7.81
403.06	7.75
403.424	7.83
403.787	7.65
404.151	7.72
404.514	7.92
404.878	7.72
405.241	8.04
405.604	8.04
405.968	7.95
406.331	7.86
406.694	7.73
407.057	7.92
407.42	7.98
407.783	7.95
408.146	8.03
408.509	8.12
408.872	7.94
409.235	8.1
409.598	7.98
409.961	8.24
410.323	7.88
410.686	8.09
411.049	7.71
411.411	7.98
411.774	7.85
412.136	8.36
412.499	7.97
412.861	8.38
413.223	8
413.586	8.38
413.948	8.25
414.31	8.3
414.672	8.4
415.035	8.28
415.397	8.27
415.759	8.46
416.121	8.29
416.483	8.17
416.845	8.32
417.206	8.52
417.568	8.42
417.93	8.16
418.292	8.46
418.653	8.25
419.015	8.61
419.377	8.2
419.738	8.36
420.1	8.2
420.461	8.24
420.822	8.22
421.184	8.17
421.545	8.23
421.906	8.2
422.267	8.26
422.629	8.23
422.99	8.2
423.351	8.34
423.712	8.39
424.073	8.34
424.434	8.33
424.795	8.34
425.155	8.32
425.516	8.25
425.877	8.33
426.238	8.39
426.598	8.44
426.959	8.63
427.32	8.62
427.68	8.49
428.041	8.56
428.401	8.78
428.761	8.77
429.122	8.71
429.482	8.82
429.842	8.78
430.202	8.8
430.563	8.74
430.923	8.91
431.283	8.84
431.643	9.08
432.003	9.05
432.363	8.89
432.722	8.85
433.082	9.1
433.442	8.81
433.802	8.87
434.161	8.92
434.521	8.86
434.881	8.77
435.24	8.68
435.6	8.88
435.959	9.14
436.319	9.04
436.678	9.14
437.037	9.16
437.396	9
437.756	9.19
438.115	9.1
438.474	9.27
438.833	9.14
439.192	9.2
439.551	9.16
439.91	9.03
440.269	9.12
440.628	9.07
440.987	9.16
441.345	9
441.704	9.14
442.063	9.21
442.421	9.17
442.78	9.08
443.138	9.09
443.497	9.24
443.855	9.47
444.214	9.42
444.572	9.37
444.93	9.44
445.288	9.56
445.647	9.38
446.005	9.39
446.363	9.42
446.721	9.28
447.079	9.25
447.437	9.26
447.795	9.25
448.153	9.26
448.51	9.2
448.868	9.44
449.226	9.39
449.584	9.5
449.941	9.56
450.299	9.54
450.656	9.56
451.014	9.54
451.371	9.74
451.729	9.84
452.086	9.88
452.443	9.96
452.801	9.8
453.158	9.76
453.515	9.58
453.872	9.76
454.229	9.68
454.586	9.56
454.943	9.81
455.3	9.93
455.657	9.98
456.014	9.94
456.371	9.98
456.727	9.72
457.084	10.02
457.441	10.06
457.797	9.82
458.154	10.09
458.51	10.03
458.867	10.01
459.223	10.14
459.58	10.09
459.936	10.02
460.292	10.01
460.648	9.82
461.005	9.63
461.361	9.69
461.717	9.72
462.073	9.87
462.429	10.07
462.785	10.27
463.141	10.3
463.496	10.19
463.852	10.36
464.208	10.36
464.564	10.37
464.919	10.19
465.275	10.38
465.631	10.38
465.986	10.48
466.342	10.29
466.697	10.3
467.052	10.4
467.408	10.33
467.763	10.44
468.118	10.4
468.473	10.39
468.829	10.33
469.184	10.39
469.539	10.5
469.894	10.66
470.249	10.62
470.603	10.79
470.958	10.63
471.313	10.51
471.668	10.73
472.023	10.57
472.377	10.45
472.732	10.61
473.086	10.56
473.441	10.58
473.795	10.88
474.15	10.78
474.504	10.63
474.859	10.71
475.213	10.86
475.567	10.76
475.921	10.9
476.275	10.73
476.63	10.86
476.984	10.63
477.338	10.88
477.692	10.86
478.045	10.73
478.399	10.71
478.753	10.87
479.107	10.9
479.461	10.77
479.814	10.89
480.168	10.91
480.521	10.93
480.875	10.92
481.228	10.97
481.582	11.08
481.935	10.83
482.289	10.83
482.642	10.92
482.995	10.77
483.348	10.73
483.701	10.75
484.055	10.84
484.408	10.49
484.761	10.38
485.114	10.03
485.466	10.02
485.819	10.12
486.172	10.47
486.525	10.76
486.878	10.94
487.23	11.04
487.583	10.98
487.936	10.93
488.288	10.67
488.641	10.59
488.993	10.43
489.345	10.54
489.698	10.57
490.05	10.69
490.402	10.85
490.754	11.07
491.107	11.18
491.459	11.1
491.811	11.2
492.163	11.11
492.515	10.9
492.866	10.82
493.218	10.56
493.57	10.67
493.922	10.92
494.274	11.23
494.625	11.47
494.977	11.51
495.328	11.56
495.68	11.57
496.031	11.52
496.383	11.59
496.734	11.51
497.086	11.63
497.437	11.38
497.788	11.5
498.139	11.53
498.49	11.3
498.842	11.55
499.193	11.51
499.544	11.55
499.894	11.66
500.245	11.69
500.596	11.68
500.947	11.87
501.298	11.92
501.648	11.81
501.999	11.75
502.35	11.86
502.7	11.92
503.051	11.96
503.401	12.12
503.752	11.85
504.102	11.78
504.452	11.87
504.803	11.8
505.153	11.79
505.503	11.77
505.853	11.85
506.203	11.97
506.553	12.05
506.903	11.96
507.253	12.09
507.603	12.2
507.953	11.98
508.303	12.11
508.652	12.01
509.002	12.11
509.352	12.11
509.701	12.02
510.051	12.06
510.4	12.22
510.75	12.03
511.099	12.05
511.449	11.96
511.798	12.16
512.147	12.06
512.496	12.24
512.846	12.25
513.195	12.28
513.544	12.21
513.893	12.3
514.242	12.16
514.591	12.39
514.939	12.37
515.288	12.36
515.637	12.36
515.986	12.5
516.334	12.44
516.683	12.51
517.032	12.6
517.38	12.5
517.729	12.44
518.077	12.64
518.426	12.46
518.774	12.33
519.122	12.27
519.47	12.28
519.819	12.2
520.167	12.12
520.515	12.07
520.863	12.29
521.211	12.45
521.559	12.46
521.907	12.5
522.255	12.58
522.602	12.81
522.95	12.72
523.298	12.69
523.645	12.79
523.993	12.64
524.341	12.69
524.688	12.85
525.036	12.72
525.383	12.83
525.73	12.69
526.078	12.83
526.425	12.63
526.772	12.46
527.119	12.4
527.466	12.33
527.814	12.49
528.161	12.62
528.508	12.72
528.854	12.73
529.201	12.5
529.548	12.23
529.895	11.98
530.242	11.84
530.588	11.99
530.935	12.24
531.282	12.54
531.628	12.74
531.975	12.84
532.321	12.92
532.667	12.99
533.014	12.98
533.36	12.94
533.706	12.84
534.052	12.77
534.399	12.63
534.745	12.4
535.091	12.31
535.437	12.59
535.783	12.86
536.129	13.03
536.474	13.22
536.82	13.23
537.166	13.25
537.512	13.1
537.857	13.04
538.203	12.81
538.549	12.86
538.894	13.07
539.239	13.23
539.585	13.29
539.93	13.43
540.276	13.52
540.621	13.46
540.966	13.4
541.311	13.29
541.656	13.26
542.001	13.05
542.346	12.86
542.691	12.73
543.036	12.56
543.381	12.68
543.726	12.93
544.071	13.18
544.415	13.42
544.76	13.32
545.105	13.26
545.449	13.38
545.794	13.42
546.138	13.66
546.483	13.64
546.827	13.61
547.171	13.54
547.516	13.64
547.86	13.65
548.204	13.5
548.548	13.43
548.892	13.54
549.236	13.66
549.58	13.86
549.924	13.88
550.268	13.99
550.612	14.15
550.956	14.01
551.3	14.05
551.643	14.06
551.987	13.96
552.33	14.15
552.674	14
553.017	13.9
553.361	14.14
553.704	14.07
554.048	13.96
554.391	13.97
554.734	13.92
555.077	14.02
555.42	14.17
555.764	14.14
556.107	14.36
556.45	14.43
556.793	14.44
557.135	14.32
557.478	14.35
557.821	14.31
558.164	14.42
558.507	14.51
558.849	14.46
559.192	14.63
559.534	14.27
559.877	14.74
560.219	14.64
560.562	14.67
560.904	14.7
561.246	14.57
561.589	14.64
561.931	14.47
562.273	14.39
562.615	14.28
562.957	14.43
563.299	14.69
563.641	14.61
563.983	14.78
564.325	14.68
564.667	14.7
565.008	14.91
565.35	14.59
565.692	14.74
566.033	14.75
566.375	14.7
566.716	14.69
567.058	14.5
567.399	14.44
567.741	14.41
568.082	14.6
568.423	14.59
568.764	14.71
569.105	14.8
569.447	14.78
569.788	14.68
570.129	14.94
570.47	14.69
570.811	14.79
571.151	14.86
571.492	14.83
571.833	14.93
572.174	14.73
572.514	14.81
572.855	14.9
573.195	14.73
573.536	14.82
573.876	14.7
574.217	14.82
574.557	15.05
574.898	14.98
575.238	14.84
575.578	15.05
575.918	15
576.258	14.99
576.598	14.89
576.938	14.79
577.278	14.97
577.618	15.09
577.958	15.24
578.298	15.27
578.638	15.4
578.977	15.16
579.317	15.22
579.657	15.36
579.996	15.25
580.336	15.09
580.675	15.21
581.014	15.28
581.354	15.13
581.693	15.47
582.032	15.18
582.372	15.24
582.711	15.39
583.05	15.57
583.389	15.39
583.728	15.48
584.067	15.65
584.406	15.55
584.745	15.67
585.083	15.5
585.422	15.51
585.761	15.51
586.1	15.68
586.438	15.48
586.777	15.57
587.115	15.63
587.454	15.8
587.792	15.78
588.13	15.7
588.469	15.9
588.807	15.8
589.145	16.06
589.483	15.61
589.821	15.56
590.159	15.45
590.497	15.75
590.835	15.93
591.173	15.73
591.511	15.65
591.849	15.58
592.187	15.74
592.524	15.92
592.862	15.8
593.2	15.85
593.537	15.94
593.875	15.88
594.212	15.83
594.55	15.98
594.887	15.85
595.224	15.99
595.561	15.91
595.899	15.9
596.236	15.77
596.573	15.85
596.91	15.72
597.247	16.11
597.584	15.98
597.921	15.8
598.258	15.95
598.594	15.52
598.931	15.73
599.268	15.77
599.604	15.97
599.941	16.11
600.277	16.22
600.614	16.22
600.95	16.19
601.287	16.14
601.623	16.14
601.959	16.25
602.296	16.52
602.632	16.3
602.968	16.09
603.304	16.48
603.64	16.24
603.976	16.12
604.312	16.14
604.648	16.04
604.984	15.96
605.319	16.1
605.655	15.94
605.991	16.11
606.326	16.01
606.662	15.75
606.998	15.95
607.333	16.21
607.668	16.38
608.004	16.36
608.339	16.43
608.674	16.41
609.01	16.22
609.345	16.4
609.68	16.4
610.015	16.41
610.35	16.67
610.685	16.3
611.02	16.4
611.355	16.16
611.689	16.47
612.024	16.32
612.359	16.23
612.694	16.77
613.028	16.88
613.363	16.69
613.697	16.77
614.032	16.75
614.366	16.79
614.7	16.63
615.035	16.83
615.369	17.05
615.703	16.64
616.037	16.39
616.371	16.76
616.705	16.56
617.039	17.14
617.373	16.59
617.707	16.83
618.041	16.63
618.375	16.92
618.709	17.2
619.042	17.19
619.376	16.96
619.71	17.09
620.043	17.08
620.377	16.95
620.71	17.03
621.043	16.73
621.377	17.04
621.71	16.57
622.043	16.87
622.376	17.11
622.709	17
623.043	16.66
623.376	17.07
623.709	17.15
624.041	17.01
624.374	17.6
624.707	16.97
625.04	17.01
625.373	17.06
625.705	17.24
626.038	17.22
626.37	17
626.703	16.95
627.035	17.31
627.368	17.17
627.7	17.29
628.032	16.82
628.365	17.07
628.697	17.23
629.029	16.87
629.361	17.07
629.693	17.15
630.025	17.14
630.357	17.5
630.689	17.11
631.021	17.48
631.353	17.43
631.684	17.03
632.016	17.28
632.348	17.29
632.679	17.34
633.011	17.49
633.342	17.19
633.674	17.39
634.005	17.24
634.336	17.71
634.668	17.35
634.999	17.24
635.33	17.41
635.661	17.27
635.992	17.38
636.323	17.34
636.654	17.62
636.985	17.55
637.316	17.62
637.647	17.44
637.977	17.59
638.308	17.44
638.639	17.62
638.969	17.41
639.3	17.54
639.63	17.68
639.961	17.83
640.291	17.55
640.622	17.68
640.952	17.91
641.282	17.41
641.612	17.63
641.943	17.8
642.273	17.68
642.603	17.99
642.933	18.11
643.263	17.69
643.592	17.67
643.922	17.6
644.252	17.43
644.582	18.05
644.911	17.86
645.241	18.28
645.571	18.06
645.9	18.08
646.23	18.37
646.559	17.38
646.888	17.66
647.218	18.41
647.547	18
647.876	18.05
648.205	17.84
648.534	17.56
648.863	17.55
649.192	18.18
649.521	17.71
649.85	18.75
650.179	18
650.508	18.09
650.837	17.58
651.165	18.42
651.494	18.32
651.822	17.73
652.151	18.38
652.479	18.28
652.808	18.41
653.136	18.17
653.465	17.96
653.793	17.66
654.121	18.54
654.449	18.35
654.777	17.86
655.105	18.49
655.433	18.64
655.761	18.28
656.089	18.37
656.417	18.46
656.745	18.14
657.073	18.22
657.4	18.61
657.728	18.4
658.056	18.81
658.383	18.54
658.711	18.23
659.038	18.05
659.365	18.33
659.693	18.6
660.02	18.85
660.347	18.18
660.674	18.2
661.001	18.43
661.329	18.23
661.656	18.31
661.982	18.38
662.309	18.3
662.636	18.34
662.963	18.57
663.29	18.73
663.616	18.01
663.943	18.65
664.27	18.37
664.596	18.95
664.923	18.32
665.249	19.11
665.576	18.28
665.902	19.13
666.228	18.67
666.554	18.18
666.881	18.81
667.207	18.7
667.533	18.7
667.859	18.32
668.185	18.94
668.511	19.08
668.837	19.04
669.162	18.6
669.488	18.34
669.814	18.74
670.139	18.61
670.465	18.55
670.791	18.7
671.116	18.94
671.442	18.52
671.767	18.36
672.092	18.48
672.418	18.72
672.743	18.35
673.068	18.72
673.393	18.5
673.718	18.46
674.043	18.84
674.368	19.23
674.693	18.27
675.018	19.15
675.343	18.51
675.667	19.03
675.992	19.13
676.317	18.33
676.641	19.13
676.966	19.09
677.29	19.41
677.615	19.06
677.939	18.74
