Data from 001-17_crown_Reflection__2__158.txt Node

Date: Fri Sep 30 19:21:13 CDT 2022
User: ToomeyLab
Spectrometer: FLMS14357
Trigger mode: 0
Integration Time (sec): 1.000000E-2
Scans to average: 100
Electric dark correction enabled: true
Nonlinearity correction enabled: false
Boxcar width: 0
XAxis mode: Wavelengths
Number of Pixels in Spectrum: 2048
>>>>>Begin Spectral Data<<<<<
189.047	-83.78
189.435	-83.78
189.823	-83.78
190.211	592.44
190.599	163.56
190.987	-83.69
191.375	-44.09
191.763	134.61
192.151	-22.34
192.538	81.14
192.926	-63.1
193.314	-1000
193.702	-2152.84
194.089	-33.37
194.477	188.76
194.864	157.47
195.252	68.87
195.639	38.51
196.027	-96.37
196.414	222.1
196.801	-1592.59
197.189	341.35
197.576	3.32
197.963	78.6
198.351	8.45
198.738	19.5
199.125	3.51
199.512	2.03
199.899	-22.23
200.286	14.61
200.673	39.78
201.06	-4.78
201.447	-23.45
201.833	38.63
202.22	-3.02
202.607	-7.13
202.994	-1.9
203.38	2.55
203.767	35.05
204.154	22.74
204.54	-28.1
204.927	-238.46
205.313	45.05
205.699	28.31
206.086	35.25
206.472	23.8
206.858	36.23
207.245	-49.69
207.631	1.55
208.017	9.29
208.403	4.18
208.789	28.53
209.175	2.42
209.561	8.31
209.947	33.69
210.333	37.53
210.719	33.79
211.105	-27.59
211.491	60.09
211.876	35.67
212.262	22.02
212.648	-1.43
213.034	34.73
213.419	-21.7
213.805	9.46
214.19	-35.53
214.576	-17.42
214.961	33.86
215.346	16.06
215.732	0.82
216.117	25.64
216.502	33.43
216.888	-7.05
217.273	43.34
217.658	8.36
218.043	36.77
218.428	6.38
218.813	-19.79
219.198	15.3
219.583	3.5
219.968	-11.81
220.353	-13.56
220.738	12.55
221.122	-14.53
221.507	9.54
221.892	3.98
222.276	-3.48
222.661	1.37
223.046	-9.61
223.43	12.42
223.815	6.91
224.199	15.27
224.583	15.96
224.968	-4.09
225.352	2.91
225.736	0.35
226.121	-1.85
226.505	3.17
226.889	0.42
227.273	3.75
227.657	-2.5
228.041	2.47
228.425	1.75
228.809	8.7
229.193	3.72
229.577	4.26
229.961	3.16
230.344	4.14
230.728	3.56
231.112	3.04
231.495	3.54
231.879	4.47
232.263	3.17
232.646	2.89
233.03	4.06
233.413	3.91
233.797	0.66
234.18	1.96
234.563	1.79
234.946	1.88
235.33	3.7
235.713	1.99
236.096	4.01
236.479	2.99
236.862	4.27
237.245	2.3
237.628	3.35
238.011	3.69
238.394	1.68
238.777	3.26
239.16	2.7
239.543	3.72
239.925	2.57
240.308	3.32
240.691	2.26
241.073	3.02
241.456	3.01
241.838	2.05
242.221	3.92
242.603	3.47
242.986	3.64
243.368	3.04
243.75	3.21
244.133	3.2
244.515	3.02
244.897	3.14
245.279	2.78
245.661	3.25
246.043	3.16
246.425	2.71
246.807	2.56
247.189	2.5
247.571	2.97
247.953	2.93
248.335	3.18
248.717	3.09
249.098	3.24
249.48	3.36
249.862	3.04
250.243	3.32
250.625	3.11
251.006	3.58
251.388	3.2
251.769	2.2
252.151	2.17
252.532	2.73
252.913	2.8
253.295	3.26
253.676	3.26
254.057	2.96
254.438	2.93
254.819	2.96
255.2	3.45
255.581	2.7
255.962	2.93
256.343	3.09
256.724	3.72
257.105	2.29
257.486	2.11
257.867	2.75
258.247	3.01
258.628	2.55
259.009	2.61
259.389	3.7
259.77	2.68
260.15	2.63
260.531	3.16
260.911	2.74
261.292	2.95
261.672	2.59
262.052	2.76
262.432	3.15
262.813	3.13
263.193	3.27
263.573	3.01
263.953	3.2
264.333	3.19
264.713	2.76
265.093	2.92
265.473	3.16
265.853	3.61
266.233	3.04
266.612	3.03
266.992	2.49
267.372	3.26
267.752	2.66
268.131	3
268.511	2.57
268.89	2.81
269.27	3.77
269.649	3.14
270.029	2.69
270.408	3.58
270.787	3.47
271.167	2.7
271.546	2.71
271.925	2.84
272.304	3.37
272.683	3.13
273.062	2.97
273.441	2.69
273.82	3.48
274.199	3.04
274.578	2.86
274.957	2.57
275.336	2.97
275.715	2.66
276.093	2.78
276.472	2.5
276.851	3.38
277.229	3.23
277.608	2.87
277.986	2.54
278.365	3.36
278.743	3.16
279.122	2.27
279.5	3.14
279.878	2.44
280.257	2.91
280.635	2.75
281.013	3.11
281.391	2.43
281.769	2.74
282.147	2.77
282.525	2.98
282.903	2.47
283.281	2.89
283.659	3.05
284.037	2.42
284.415	2.03
284.792	2.51
285.17	2.65
285.548	2.92
285.925	2.55
286.303	2.62
286.68	2.37
287.058	2.4
287.435	2.38
287.813	2.48
288.19	2.61
288.567	2.28
288.945	2.35
289.322	3.04
289.699	2.37
290.076	2.92
290.453	2.9
290.83	2.47
291.207	3.2
291.584	2.35
291.961	2.66
292.338	2.61
292.715	2.55
293.092	2.58
293.469	2.36
293.845	2.87
294.222	2.63
294.599	2.67
294.975	2.47
295.352	2.61
295.728	2.7
296.105	2.56
296.481	2.79
296.858	2.62
297.234	1.95
297.61	2.53
297.986	2.9
298.363	2.2
298.739	2.75
299.115	2.44
299.491	2.58
299.867	2.57
300.243	2.78
300.619	2.69
300.995	2.86
301.371	2.93
301.746	2.47
302.122	2.41
302.498	2.44
302.874	2.31
303.249	2.82
303.625	2.43
304	2.58
304.376	2.23
304.751	2.32
305.127	2.67
305.502	2.37
305.878	2.65
306.253	3.17
306.628	2.38
307.003	2.71
307.378	1.97
307.754	2.98
308.129	2.55
308.504	2.75
308.879	2.4
309.254	2.4
309.629	2.35
310.003	2.16
310.378	2.32
310.753	2.41
311.128	2.43
311.502	2.68
311.877	2.16
312.252	2.45
312.626	2.46
313.001	2.46
313.375	2.4
313.75	2.51
314.124	2.54
314.498	2.2
314.873	2.25
315.247	2.36
315.621	2.78
315.995	2.6
316.369	2.57
316.743	2.42
317.117	2.37
317.491	2.05
317.865	2.9
318.239	2.61
318.613	2.21
318.987	2.42
319.361	2.53
319.734	2.57
320.108	2.56
320.482	2.55
320.855	2.31
321.229	2.38
321.602	2.44
321.976	2.6
322.349	2.58
322.723	1.94
323.096	2.3
323.469	2.77
323.843	2.53
324.216	2.73
324.589	3.12
324.962	2.84
325.335	2.41
325.708	2.27
326.081	2.62
326.454	2.61
326.827	2.14
327.2	2.5
327.573	2.31
327.945	2.59
328.318	2.75
328.691	2.41
329.063	2.09
329.436	2.51
329.809	2.73
330.181	2.68
330.553	3.31
330.926	2.34
331.298	2.34
331.671	2.53
332.043	2.32
332.415	2.75
332.787	2.99
333.159	2.42
333.532	2.34
333.904	2.68
334.276	2.66
334.648	2.43
335.02	2.74
335.391	2.41
335.763	2.31
336.135	2.62
336.507	3.22
336.879	2.81
337.25	2.4
337.622	2.42
337.993	2.38
338.365	2.7
338.736	2.79
339.108	3.02
339.479	2.95
339.851	2.79
340.222	2.53
340.593	2.67
340.964	2.45
341.336	2.33
341.707	2.55
342.078	2.33
342.449	2.34
342.82	2.35
343.191	2.34
343.562	2.2
343.933	2.68
344.303	2.6
344.674	2.55
345.045	2.53
345.416	2.81
345.786	2.66
346.157	1.9
346.527	2.46
346.898	2.68
347.268	2.33
347.639	2.49
348.009	2.23
348.38	2.29
348.75	2.21
349.12	2.39
349.49	2.38
349.861	2.61
350.231	2.5
350.601	2.54
350.971	2.47
351.341	2.26
351.711	2.46
352.081	2.42
352.45	1.88
352.82	2.48
353.19	2.58
353.56	2.16
353.929	2.53
354.299	2.15
354.669	2.28
355.038	3.05
355.408	2.41
355.777	2.35
356.147	2.18
356.516	2.62
356.885	2.52
357.254	3.03
357.624	2.39
357.993	2.49
358.362	2.42
358.731	2.36
359.1	2.36
359.469	2.58
359.838	2.52
360.207	2.52
360.576	2.6
360.945	2.5
361.314	2.28
361.682	2.6
362.051	2.68
362.42	2.42
362.788	2.45
363.157	2.53
363.525	2.54
363.894	2.82
364.262	2.55
364.631	2.67
364.999	2.71
365.367	2.73
365.735	2.76
366.104	2.02
366.472	2.64
366.84	2.54
367.208	2.4
367.576	2.67
367.944	2.73
368.312	2.58
368.68	2.33
369.048	2.86
369.416	2.6
369.783	2.64
370.151	2.64
370.519	2.41
370.886	2.74
371.254	2.52
371.621	3.12
371.989	2.77
372.356	2.41
372.724	2.82
373.091	2.75
373.458	2.39
373.826	2.45
374.193	3.12
374.56	2.96
374.927	2.65
375.294	2.25
375.661	2.48
376.028	2.72
376.395	2.54
376.762	2.56
377.129	2.76
377.496	2.67
377.863	2.72
378.229	2.48
378.596	2.46
378.963	2.38
379.329	2.55
379.696	2.4
380.062	2.65
380.429	2.63
380.795	2.69
381.161	2.37
381.528	2.73
381.894	2.58
382.26	2.74
382.626	2.8
382.993	2.63
383.359	2.48
383.725	2.87
384.091	2.36
384.457	2.92
384.823	3.01
385.188	2.92
385.554	2.95
385.92	2.57
386.286	2.89
386.651	2.82
387.017	2.79
387.383	2.79
387.748	2.91
388.114	2.72
388.479	2.78
388.845	2.83
389.21	2.8
389.575	2.62
389.94	2.53
390.306	2.53
390.671	2.56
391.036	2.57
391.401	2.88
391.766	2.85
392.131	2.69
392.496	2.82
392.861	2.74
393.226	2.66
393.591	2.59
393.956	2.74
394.32	2.71
394.685	2.66
395.05	2.62
395.414	2.68
395.779	2.77
396.143	2.74
396.508	2.55
396.872	2.76
397.236	2.76
397.601	3.2
397.965	2.94
398.329	2.73
398.694	2.69
399.058	3.06
399.422	3.01
399.786	2.77
400.15	2.69
400.514	3.03
400.878	2.56
401.242	2.78
401.605	3.18
401.969	2.44
402.333	2.6
402.697	2.9
403.06	2.87
403.424	2.87
403.787	3.04
404.151	2.66
404.514	2.82
404.878	2.88
405.241	2.72
405.604	2.85
405.968	2.82
406.331	2.76
406.694	2.86
407.057	2.95
407.42	3
407.783	2.91
408.146	2.78
408.509	2.76
408.872	2.6
409.235	2.71
409.598	2.92
409.961	2.84
410.323	2.55
410.686	2.95
411.049	2.6
411.411	2.64
411.774	2.92
412.136	3
412.499	2.83
412.861	2.78
413.223	2.95
413.586	2.84
413.948	2.97
414.31	2.98
414.672	2.95
415.035	2.73
415.397	2.81
415.759	2.97
416.121	2.93
416.483	2.72
416.845	2.79
417.206	2.97
417.568	3.06
417.93	2.56
418.292	2.89
418.653	2.93
419.015	2.93
419.377	2.81
419.738	2.92
420.1	2.73
420.461	2.75
420.822	2.77
421.184	2.77
421.545	2.76
421.906	2.87
422.267	2.87
422.629	2.76
422.99	2.82
423.351	2.86
423.712	2.8
424.073	2.84
424.434	2.76
424.795	2.88
425.155	2.76
425.516	2.7
425.877	2.72
426.238	2.83
426.598	2.75
426.959	2.96
427.32	2.9
427.68	2.94
428.041	2.79
428.401	2.81
428.761	2.83
429.122	2.77
429.482	2.84
429.842	2.83
430.202	2.87
430.563	2.7
430.923	3
431.283	2.88
431.643	3.1
432.003	2.85
432.363	2.89
432.722	2.79
433.082	3.09
433.442	2.88
433.802	2.99
434.161	3.02
434.521	2.73
434.881	2.78
435.24	2.76
435.6	2.77
435.959	2.91
436.319	2.69
436.678	2.89
437.037	3.04
437.396	2.77
437.756	3.01
438.115	2.85
438.474	3.04
438.833	2.92
439.192	2.88
439.551	2.99
439.91	2.84
440.269	2.94
440.628	2.81
440.987	3
441.345	2.82
441.704	2.99
442.063	2.87
442.421	2.93
442.78	2.83
443.138	2.78
443.497	2.89
443.855	2.92
444.214	3.08
444.572	3.07
444.93	2.83
445.288	2.97
445.647	2.82
446.005	2.95
446.363	3.01
446.721	2.89
447.079	2.89
447.437	2.93
447.795	2.95
448.153	2.96
448.51	2.86
448.868	2.96
449.226	2.98
449.584	2.87
449.941	3.01
450.299	3.01
450.656	2.88
451.014	2.93
451.371	2.91
451.729	2.88
452.086	2.92
452.443	2.96
452.801	2.83
453.158	2.99
453.515	2.91
453.872	2.99
454.229	2.92
454.586	2.92
454.943	3.01
455.3	3.1
455.657	3.09
456.014	3.08
456.371	3.16
456.727	2.97
457.084	3.01
457.441	3
457.797	2.83
458.154	3
458.51	3.02
458.867	3
459.223	3.09
459.58	2.97
459.936	2.9
460.292	3.19
460.648	2.88
461.005	2.82
461.361	2.93
461.717	2.77
462.073	2.89
462.429	2.98
462.785	2.97
463.141	3.11
463.496	3.05
463.852	3.07
464.208	3.09
464.564	3.03
464.919	2.87
465.275	3.06
465.631	2.82
465.986	3.05
466.342	3.07
466.697	2.9
467.052	3.03
467.408	3.06
467.763	3.08
468.118	2.98
468.473	3.11
468.829	2.87
469.184	3
469.539	3.08
469.894	3
470.249	3.02
470.603	3.25
470.958	3.04
471.313	3.03
471.668	3.05
472.023	3.1
472.377	3.07
472.732	3.01
473.086	2.93
473.441	3.03
473.795	3.14
474.15	3.1
474.504	2.92
474.859	2.95
475.213	3.06
475.567	2.93
475.921	3
476.275	2.73
476.63	3.05
476.984	2.88
477.338	3.06
477.692	3.14
478.045	3.16
478.399	3.01
478.753	3.01
479.107	3.05
479.461	3.03
479.814	3.05
480.168	3.09
480.521	3.05
480.875	3.02
481.228	3.05
481.582	3.16
481.935	2.85
482.289	2.97
482.642	3.11
482.995	2.89
483.348	3.05
483.701	2.98
484.055	3.11
484.408	2.91
484.761	2.9
485.114	2.83
485.466	2.74
485.819	2.77
486.172	2.84
486.525	2.94
486.878	2.99
487.23	3
487.583	2.99
487.936	2.95
488.288	2.98
488.641	2.86
488.993	2.81
489.345	2.88
489.698	2.88
490.05	2.9
490.402	2.9
490.754	2.98
491.107	3.1
491.459	3
491.811	2.99
492.163	2.99
492.515	2.96
492.866	2.94
493.218	2.85
493.57	2.9
493.922	2.84
494.274	2.93
494.625	3.08
494.977	3.05
495.328	3.01
495.68	3.11
496.031	3.05
496.383	3
496.734	3.05
497.086	2.94
497.437	3
497.788	2.87
498.139	3.04
498.49	2.9
498.842	3.16
499.193	3.02
499.544	3.01
499.894	3
500.245	3.17
500.596	2.94
500.947	3.14
501.298	3.17
501.648	3.08
501.999	3
502.35	3.07
502.7	3.1
503.051	3.17
503.401	3.17
503.752	3.02
504.102	2.98
504.452	2.97
504.803	3.14
505.153	3.03
505.503	3
505.853	3.06
506.203	3.02
506.553	3.01
506.903	3.13
507.253	3.05
507.603	3.09
507.953	2.95
508.303	3.06
508.652	3
509.002	3.2
509.352	3.18
509.701	3.06
510.051	3.15
510.4	3.15
510.75	2.96
511.099	2.96
511.449	2.99
511.798	3.09
512.147	3.03
512.496	3.17
512.846	3.06
513.195	3.09
513.544	3
513.893	3.07
514.242	3.06
514.591	3.14
514.939	3.07
515.288	3.12
515.637	2.98
515.986	2.86
516.334	3.13
516.683	3.11
517.032	3.16
517.38	3.11
517.729	3.15
518.077	3.19
518.426	3.07
518.774	3.14
519.122	3.01
519.47	3.06
519.819	3.08
520.167	2.95
520.515	3.01
520.863	3.05
521.211	3.11
521.559	2.95
521.907	3.06
522.255	3.04
522.602	3.31
522.95	3.16
523.298	3.08
523.645	3.16
523.993	3.09
524.341	3.14
524.688	3.06
525.036	2.99
525.383	3.1
525.73	2.99
526.078	3.01
526.425	3.04
526.772	2.92
527.119	3
527.466	2.96
527.814	3
528.161	3.07
528.508	3.09
528.854	3.03
529.201	3.02
529.548	2.94
529.895	2.92
530.242	2.9
530.588	2.87
530.935	2.93
531.282	2.92
531.628	3.05
531.975	3.05
532.321	3.1
532.667	3.08
533.014	3.06
533.36	3.11
533.706	3
534.052	3.12
534.399	3.02
534.745	2.93
535.091	2.95
535.437	2.94
535.783	3.06
536.129	3.04
536.474	3.13
536.82	3.03
537.166	3.06
537.512	3.05
537.857	3.09
538.203	2.97
538.549	3
538.894	3.14
539.239	3.11
539.585	3.14
539.93	3.11
540.276	3.18
540.621	3.08
540.966	3.08
541.311	3.02
541.656	3.05
542.001	2.94
542.346	3.01
542.691	2.96
543.036	2.95
543.381	2.95
543.726	2.99
544.071	3.01
544.415	3.14
544.76	3.05
545.105	3.07
545.449	3.06
545.794	3.06
546.138	3.12
546.483	3.07
546.827	3.16
547.171	3.04
547.516	3.06
547.86	3.08
548.204	2.97
548.548	3.03
548.892	3.22
549.236	3.02
549.58	3.11
549.924	3.07
550.268	3.12
550.612	3.18
550.956	3.23
551.3	3.16
551.643	3.16
551.987	3.06
552.33	3.35
552.674	3.13
553.017	3.12
553.361	3.22
553.704	3.21
554.048	3.14
554.391	3.21
554.734	3.2
555.077	3.05
555.42	3.13
555.764	3.11
556.107	3.09
556.45	3.18
556.793	3.32
557.135	3.12
557.478	3.15
557.821	3.09
558.164	3.33
558.507	3.32
558.849	3.28
559.192	3.31
559.534	3.29
559.877	3.24
560.219	3.12
560.562	3.43
560.904	3.1
561.246	3.19
561.589	3.24
561.931	3.18
562.273	3.05
562.615	3.02
562.957	3.12
563.299	3.21
563.641	3.23
563.983	3.33
564.325	2.95
564.667	3.07
565.008	3.26
565.35	3.32
565.692	3.21
566.033	3.29
566.375	3.08
566.716	3.04
567.058	3.17
567.399	3.05
567.741	2.98
568.082	3.13
568.423	3.15
568.764	3.01
569.105	3.17
569.447	3.13
569.788	3.27
570.129	3.21
570.47	3.14
570.811	2.92
571.151	3.16
571.492	3.17
571.833	3.1
572.174	3.15
572.514	3.05
572.855	3.22
573.195	3.18
573.536	3.12
573.876	2.93
574.217	3.06
574.557	3.09
574.898	3.03
575.238	3.04
575.578	2.97
575.918	3.21
576.258	3.22
576.598	2.99
576.938	3.13
577.278	3.15
577.618	3.16
577.958	3.2
578.298	3.23
578.638	3.29
578.977	3.23
579.317	3.38
579.657	3.12
579.996	3.2
580.336	3.11
580.675	3.07
581.014	2.99
581.354	3.01
581.693	3.12
582.032	3.4
582.372	3.27
582.711	2.91
583.05	3.36
583.389	3.06
583.728	3.15
584.067	3.21
584.406	3.29
584.745	3.25
585.083	3.14
585.422	3.32
585.761	3.03
586.1	3.15
586.438	3.21
586.777	3.09
587.115	3.13
587.454	3.13
587.792	3.26
588.13	3.26
588.469	3.08
588.807	3.01
589.145	3.5
589.483	3.12
589.821	3.22
590.159	3.08
590.497	3.26
590.835	3.22
591.173	3.17
591.511	3.31
591.849	3.07
592.187	3.1
592.524	3.31
592.862	3.07
593.2	3.11
593.537	3.19
593.875	2.95
594.212	3.06
594.55	3.22
594.887	3.27
595.224	3.21
595.561	3.23
595.899	3.12
596.236	3.24
596.573	3.17
596.91	3.26
597.247	3.01
597.584	3.31
597.921	3.08
598.258	3.35
598.594	3.03
598.931	3.01
599.268	3.11
599.604	3.16
599.941	3.01
600.277	3.4
600.614	3.43
600.95	3.12
601.287	2.95
601.623	3.12
601.959	3.43
602.296	3.32
602.632	3.08
602.968	3.05
603.304	3.31
603.64	3.06
603.976	3.02
604.312	3.11
604.648	3.4
604.984	3.02
605.319	3.14
605.655	3.01
605.991	3.09
606.326	3.15
606.662	3.13
606.998	3.1
607.333	3.19
607.668	3.28
608.004	3.2
608.339	3.2
608.674	3.09
609.01	3.28
609.345	3.32
609.68	3
610.015	3.24
610.35	3.1
610.685	2.93
611.02	3.02
611.355	3.04
611.689	3.25
612.024	2.9
612.359	3.08
612.694	2.98
613.028	3.33
613.363	3.32
613.697	3.19
614.032	3.28
614.366	3.31
614.7	3.09
615.035	3.24
615.369	3.3
615.703	3.1
616.037	3.09
616.371	3.26
616.705	3.06
617.039	3.39
617.373	2.96
617.707	2.97
618.041	3.08
618.375	3.31
618.709	3.59
619.042	3.32
619.376	3.43
619.71	3.2
620.043	3.28
620.377	3.01
620.71	3.18
621.043	3.29
621.377	3.01
621.71	2.76
622.043	3.02
622.376	3.39
622.709	3.72
623.043	2.83
623.376	3.2
623.709	3.07
624.041	2.99
624.374	3.12
624.707	2.98
625.04	3.31
625.373	3.11
625.705	3.42
626.038	3.39
626.37	3.04
626.703	3.51
627.035	3.29
627.368	3.28
627.7	3.39
628.032	2.83
628.365	3.12
628.697	3.12
629.029	3.02
629.361	3.23
629.693	2.85
630.025	3.34
630.357	3.16
630.689	2.74
631.021	3.55
631.353	3.39
631.684	3.01
632.016	2.93
632.348	3.17
632.679	3.2
633.011	3.35
633.342	3.22
633.674	2.92
634.005	3.65
634.336	3.32
634.668	3.46
634.999	3.32
635.33	3.49
635.661	3.3
635.992	3.33
636.323	3.32
636.654	3.13
636.985	3.28
637.316	3.27
637.647	3.26
637.977	3.14
638.308	3.35
638.639	3.39
638.969	2.85
639.3	2.88
639.63	3.32
639.961	3.44
640.291	3.33
640.622	3.02
640.952	3.29
641.282	2.9
641.612	3.19
641.943	3.09
642.273	3.22
642.603	3.51
642.933	3.26
643.263	2.95
643.592	3.53
643.922	3.46
644.252	3.27
644.582	3.55
644.911	2.67
645.241	3.71
645.571	3.07
645.9	3.25
646.23	3.57
646.559	3.18
646.888	3.4
647.218	3.63
647.547	3.39
647.876	3.68
648.205	3.31
648.534	3.01
648.863	2.87
649.192	3.56
649.521	2.81
649.85	3.7
650.179	2.88
650.508	3.56
650.837	3.12
651.165	3.24
651.494	3.06
651.822	3.21
652.151	3.27
652.479	3.27
652.808	3.58
653.136	3.56
653.465	2.85
653.793	3.25
654.121	3.37
654.449	3.56
654.777	3.29
655.105	3.41
655.433	3.69
655.761	3.84
656.089	3.37
656.417	2.96
656.745	3.31
657.073	2.97
657.4	3.45
657.728	3.38
658.056	3.48
658.383	3.9
658.711	2.81
659.038	3.46
659.365	3.18
659.693	3.42
660.02	3.71
660.347	3.16
660.674	2.93
661.001	3.29
661.329	3.43
661.656	2.96
661.982	3.17
662.309	3.5
662.636	3.3
662.963	3.12
663.29	3.58
663.616	3.06
663.943	3.39
664.27	3.32
664.596	3.8
664.923	3.11
665.249	3.41
665.576	3.26
665.902	3.86
666.228	2.91
666.554	3.36
666.881	3.06
667.207	3.27
667.533	3.18
667.859	2.89
668.185	3.98
668.511	3.71
668.837	3.77
669.162	3.19
669.488	3.37
669.814	4.16
670.139	2.9
670.465	3.13
670.791	3.1
671.116	3.25
671.442	3.15
671.767	3.47
672.092	3.4
672.418	3.46
672.743	3.08
673.068	3.39
673.393	3.54
673.718	3.68
674.043	3.53
674.368	3.42
674.693	2.88
675.018	3.35
675.343	3.21
675.667	3.26
675.992	3.09
676.317	3.7
676.641	3.4
676.966	3.7
677.29	3.97
677.615	3.13
677.939	3.59
678.264	4.01
678.588	3.8
678.912	3.33
679.236	3.24
679.56	3.1
679.885	4.22
680.209	3.97
680.532	3.09
680.856	2.87
681.18	3.4
681.504	2.97
681.828	3.71
682.152	3.13
682.475	3.48
682.799	3.73
683.122	3.11
683.446	2.91
683.769	3.51
684.093	3.8
684.416	3.73
684.739	4.05
685.062	3.33
685.386	3.36
685.709	3.02
686.032	3.68
686.355	2.86
686.678	2.67
687.001	3.17
687.324	4.05
687.646	3.66
687.969	3.51
688.292	3.73
688.614	3.17
688.937	3.27
689.26	3.65
689.582	2.6
689.904	3.25
690.227	3.4
690.549	3.51
690.871	3
691.194	4.3
691.516	3.58
691.838	2.91
692.16	3.86
692.482	3.59
692.804	3.44
693.126	3.01
693.448	2.91
