Data from 001-17_crown_Reflection__1__157.txt Node

Date: Fri Sep 30 19:21:00 CDT 2022
User: ToomeyLab
Spectrometer: FLMS14357
Trigger mode: 0
Integration Time (sec): 1.000000E-2
Scans to average: 100
Electric dark correction enabled: true
Nonlinearity correction enabled: false
Boxcar width: 0
XAxis mode: Wavelengths
Number of Pixels in Spectrum: 2048
>>>>>Begin Spectral Data<<<<<
189.047	2.1
189.435	2.1
189.823	2.1
190.211	-636.22
190.599	137.53
190.987	-249.74
191.375	32.63
191.763	293.49
192.151	44.78
192.538	11.74
192.926	649.13
193.314	-8072.73
193.702	939.74
194.089	-108.19
194.477	86.36
194.864	36.72
195.252	34.98
195.639	-4.49
196.027	-94.09
196.414	338.58
196.801	7318.52
197.189	206.66
197.576	15.33
197.963	34.1
198.351	38.19
198.738	10.76
199.125	-5.45
199.512	11.4
199.899	-20.15
200.286	-61.4
200.673	20.7
201.06	9.34
201.447	-28.59
201.833	28.56
202.22	-50.77
202.607	-9.69
202.994	26.13
203.38	31.58
203.767	-26.27
204.154	24.13
204.54	-0.32
204.927	-16
205.313	12.14
205.699	0.38
206.086	33.41
206.472	0.95
206.858	-1.69
207.245	-34.52
207.631	-38.74
208.017	-11.83
208.403	-10.38
208.789	35.64
209.175	44.82
209.561	14.06
209.947	20.9
210.333	20.07
210.719	20.03
211.105	-7.51
211.491	3.9
211.876	8.69
212.262	9.22
212.648	25.07
213.034	19.58
213.419	-8.92
213.805	25.35
214.19	4.58
214.576	16.65
214.961	27.21
215.346	27.96
215.732	-35.66
216.117	-18.31
216.502	10.99
216.888	8.23
217.273	50.75
217.658	18.35
218.043	26.26
218.428	10.71
218.813	-2.09
219.198	13.59
219.583	0.53
219.968	-3.37
220.353	2.76
220.738	-0.99
221.122	-4.8
221.507	-15.07
221.892	13.63
222.276	-12.32
222.661	-8.8
223.046	-9.11
223.43	11.67
223.815	10.94
224.199	4.66
224.583	7.27
224.968	6.1
225.352	2.64
225.736	5.17
226.121	10.35
226.505	6.7
226.889	4.95
227.273	9.07
227.657	1.29
228.041	2.37
228.425	5.91
228.809	6.45
229.193	6.77
229.577	5.37
229.961	4.49
230.344	5.05
230.728	5.3
231.112	6.03
231.495	5.46
231.879	6.15
232.263	6.12
232.646	6.76
233.03	5.42
233.413	6.11
233.797	2.86
234.18	3.71
234.563	4.97
234.946	6.95
235.33	5.43
235.713	4.49
236.096	4.47
236.479	4.05
236.862	5.03
237.245	4
237.628	4.93
238.011	5.76
238.394	3.09
238.777	4.18
239.16	5.87
239.543	6.98
239.925	2.85
240.308	5.42
240.691	4.9
241.073	4.73
241.456	4.62
241.838	4.64
242.221	5.67
242.603	5.59
242.986	5.89
243.368	5.01
243.75	4.89
244.133	4.81
244.515	4.62
244.897	4.81
245.279	4.91
245.661	5.91
246.043	4.9
246.425	4.87
246.807	4.56
247.189	4.65
247.571	5.58
247.953	4.61
248.335	5.27
248.717	4.91
249.098	5.22
249.48	4.97
249.862	4.48
250.243	5.06
250.625	4.6
251.006	5.64
251.388	4.87
251.769	4.44
252.151	5.32
252.532	4.31
252.913	4.24
253.295	4.85
253.676	5.05
254.057	4.76
254.438	4.49
254.819	4.22
255.2	5.32
255.581	5.59
255.962	5.97
256.343	4.02
256.724	5.91
257.105	4.7
257.486	3.85
257.867	4.82
258.247	4.8
258.628	4.96
259.009	4.65
259.389	4
259.77	4.33
260.15	4.64
260.531	4.79
260.911	4.47
261.292	4.84
261.672	4.41
262.052	4.59
262.432	4.88
262.813	5.19
263.193	4.88
263.573	4.97
263.953	4.52
264.333	4.35
264.713	4.81
265.093	4.8
265.473	4.51
265.853	4.41
266.233	4.69
266.612	4.95
266.992	4.6
267.372	4.67
267.752	4.31
268.131	4.27
268.511	4.05
268.89	4.01
269.27	5.28
269.649	4.77
270.029	4.11
270.408	4.58
270.787	4.34
271.167	4.04
271.546	4.22
271.925	4.44
272.304	4.2
272.683	4.28
273.062	4.52
273.441	4.06
273.82	4.27
274.199	4.46
274.578	4.38
274.957	4.04
275.336	4.17
275.715	3.96
276.093	4.43
276.472	4.45
276.851	4.88
277.229	4.97
277.608	3.76
277.986	3.72
278.365	4.46
278.743	4.95
279.122	3.68
279.5	4.44
279.878	4.27
280.257	3.85
280.635	3.99
281.013	4.52
281.391	3.89
281.769	3.83
282.147	4.17
282.525	3.83
282.903	4.45
283.281	4.51
283.659	4.5
284.037	3.92
284.415	3.46
284.792	4.34
285.17	4.44
285.548	4.19
285.925	3.98
286.303	3.93
286.68	3.95
287.058	4.02
287.435	3.86
287.813	4
288.19	3.79
288.567	3.94
288.945	3.48
289.322	4.47
289.699	3.72
290.076	4.01
290.453	4.35
290.83	3.66
291.207	4.3
291.584	3.75
291.961	3.94
292.338	3.69
292.715	4.15
293.092	3.93
293.469	3.9
293.845	4.41
294.222	4.11
294.599	3.92
294.975	4.29
295.352	4.24
295.728	3.77
296.105	4.34
296.481	3.78
296.858	3.76
297.234	3.42
297.61	3.59
297.986	3.99
298.363	3.51
298.739	4.06
299.115	3.69
299.491	3.98
299.867	4.1
300.243	4.05
300.619	4.13
300.995	4.06
301.371	3.98
301.746	4.15
302.122	3.9
302.498	3.51
302.874	3.5
303.249	3.72
303.625	3.6
304	3.82
304.376	3.82
304.751	3.79
305.127	3.76
305.502	3.63
305.878	3.78
306.253	4.42
306.628	3.41
307.003	4.36
307.378	3.53
307.754	3.59
308.129	3.51
308.504	3.93
308.879	4.51
309.254	3.37
309.629	3.12
310.003	3.56
310.378	3.93
310.753	3.62
311.128	3.62
311.502	3.91
311.877	3.87
312.252	3.68
312.626	3.93
313.001	3.31
313.375	3.69
313.75	4.08
314.124	3.85
314.498	3.65
314.873	3.93
315.247	3.93
315.621	4.05
315.995	3.42
316.369	3.68
316.743	4.2
317.117	3.63
317.491	3.36
317.865	3.76
318.239	3.75
318.613	3.58
318.987	4.24
319.361	3.72
319.734	3.67
320.108	3.16
320.482	3.84
320.855	3.81
321.229	3.73
321.602	3.46
321.976	3.72
322.349	3.06
322.723	3.48
323.096	3.8
323.469	3.53
323.843	3.66
324.216	3.45
324.589	3.38
324.962	3.8
325.335	3.45
325.708	3.92
326.081	4.33
326.454	3.88
326.827	3.75
327.2	3.63
327.573	3.79
327.945	3.64
328.318	4.17
328.691	3.94
329.063	3.55
329.436	3.61
329.809	3.76
330.181	3.46
330.553	4.53
330.926	3.65
331.298	3.74
331.671	3.88
332.043	3.87
332.415	4.31
332.787	3.75
333.159	4.11
333.532	3.66
333.904	4.12
334.276	3.95
334.648	3.53
335.02	3.97
335.391	3.51
335.763	3.58
336.135	3.43
336.507	3.67
336.879	3.71
337.25	3.83
337.622	3.77
337.993	3.99
338.365	4.52
338.736	3.79
339.108	4.38
339.479	4.13
339.851	4.31
340.222	3.42
340.593	3.85
340.964	3.72
341.336	3.67
341.707	3.75
342.078	3.93
342.449	3.7
342.82	4.12
343.191	3.81
343.562	3.87
343.933	3.61
344.303	3.82
344.674	3.98
345.045	4.03
345.416	4.07
345.786	4.4
346.157	3.37
346.527	3.76
346.898	4.2
347.268	3.88
347.639	3.99
348.009	3.83
348.38	3.56
348.75	4.02
349.12	3.58
349.49	3.81
349.861	3.96
350.231	3.96
350.601	3.6
350.971	3.48
351.341	3.83
351.711	4.23
352.081	3.99
352.45	3.57
352.82	4.11
353.19	3.91
353.56	3.8
353.929	3.71
354.299	3.8
354.669	4.13
355.038	3.92
355.408	4.12
355.777	3.7
356.147	3.85
356.516	4.26
356.885	4.05
357.254	4.3
357.624	4
357.993	4.1
358.362	4.13
358.731	3.82
359.1	3.89
359.469	3.85
359.838	4.06
360.207	4.22
360.576	4.16
360.945	3.77
361.314	3.84
361.682	3.91
362.051	4.1
362.42	3.71
362.788	3.94
363.157	3.95
363.525	4.01
363.894	3.99
364.262	3.79
364.631	4.1
364.999	4.58
365.367	4.01
365.735	4.19
366.104	3.86
366.472	4.31
366.84	4.18
367.208	4.11
367.576	4.15
367.944	4.14
368.312	4.31
368.68	4.16
369.048	4.04
369.416	4.01
369.783	3.92
370.151	4.54
370.519	3.81
370.886	4.44
371.254	4.01
371.621	4.68
371.989	3.99
372.356	4.02
372.724	4.21
373.091	4.26
373.458	3.96
373.826	3.68
374.193	4.59
374.56	4.12
374.927	4.29
375.294	3.94
375.661	4.07
376.028	4.36
376.395	4.62
376.762	4.17
377.129	4.18
377.496	3.97
377.863	4.21
378.229	4.33
378.596	3.96
378.963	4.09
379.329	3.86
379.696	3.96
380.062	4.22
380.429	4.18
380.795	4.14
381.161	4.24
381.528	4.12
381.894	4.31
382.26	4.27
382.626	4.24
382.993	4.25
383.359	4.09
383.725	4.5
384.091	4.02
384.457	4.41
384.823	4.4
385.188	4.43
385.554	4.36
385.92	4.57
386.286	4.3
386.651	4.7
387.017	4.4
387.383	4.41
387.748	4.41
388.114	4.36
388.479	4.62
388.845	4.33
389.21	4.16
389.575	4.35
389.94	4.01
390.306	4.19
390.671	4.53
391.036	4.24
391.401	4.18
391.766	4.35
392.131	4.09
392.496	3.8
392.861	4.44
393.226	4.28
393.591	4.45
393.956	4.4
394.32	4.24
394.685	4.05
395.05	4.19
395.414	4.36
395.779	4.25
396.143	4.36
396.508	4.53
396.872	4.35
397.236	4.31
397.601	4.58
397.965	4.47
398.329	4.15
398.694	4.27
399.058	4.54
399.422	4.68
399.786	4.45
400.15	4.42
400.514	4.59
400.878	4.23
401.242	4.43
401.605	4.77
401.969	4.35
402.333	4.44
402.697	4.63
403.06	4.54
403.424	4.63
403.787	4.56
404.151	4.28
404.514	4.43
404.878	4.4
405.241	4.66
405.604	4.31
405.968	4.39
406.331	4.31
406.694	4.27
407.057	4.43
407.42	4.43
407.783	4.68
408.146	4.47
408.509	4.47
408.872	4.35
409.235	4.35
409.598	4.36
409.961	4.55
410.323	4.17
410.686	4.49
411.049	4.13
411.411	4.49
411.774	4.47
412.136	4.67
412.499	4.6
412.861	4.41
413.223	4.48
413.586	4.61
413.948	4.53
414.31	4.51
414.672	4.71
415.035	4.48
415.397	4.54
415.759	4.7
416.121	4.58
416.483	4.38
416.845	4.34
417.206	4.64
417.568	4.61
417.93	4.23
418.292	4.49
418.653	4.58
419.015	4.53
419.377	4.21
419.738	4.42
420.1	4.28
420.461	4.5
420.822	4.4
421.184	4.31
421.545	4.35
421.906	4.39
422.267	4.49
422.629	4.33
422.99	4.31
423.351	4.49
423.712	4.49
424.073	4.44
424.434	4.36
424.795	4.4
425.155	4.41
425.516	4.3
425.877	4.38
426.238	4.37
426.598	4.32
426.959	4.52
427.32	4.57
427.68	4.53
428.041	4.45
428.401	4.57
428.761	4.44
429.122	4.56
429.482	4.68
429.842	4.49
430.202	4.62
430.563	4.48
430.923	4.55
431.283	4.46
431.643	4.66
432.003	4.58
432.363	4.56
432.722	4.47
433.082	4.48
433.442	4.56
433.802	4.57
434.161	4.66
434.521	4.3
434.881	4.32
435.24	4.37
435.6	4.45
435.959	4.58
436.319	4.48
436.678	4.61
437.037	4.64
437.396	4.55
437.756	4.59
438.115	4.5
438.474	4.78
438.833	4.64
439.192	4.64
439.551	4.65
439.91	4.39
440.269	4.53
440.628	4.46
440.987	4.54
441.345	4.55
441.704	4.48
442.063	4.54
442.421	4.49
442.78	4.42
443.138	4.36
443.497	4.51
443.855	4.78
444.214	4.58
444.572	4.53
444.93	4.36
445.288	4.71
445.647	4.53
446.005	4.59
446.363	4.54
446.721	4.5
447.079	4.37
447.437	4.46
447.795	4.44
448.153	4.49
448.51	4.41
448.868	4.57
449.226	4.55
449.584	4.55
449.941	4.61
450.299	4.59
450.656	4.51
451.014	4.52
451.371	4.69
451.729	4.56
452.086	4.5
452.443	4.68
452.801	4.61
453.158	4.51
453.515	4.61
453.872	4.6
454.229	4.4
454.586	4.44
454.943	4.52
455.3	4.62
455.657	4.75
456.014	4.71
456.371	4.68
456.727	4.53
457.084	4.52
457.441	4.52
457.797	4.55
458.154	4.54
458.51	4.45
458.867	4.52
459.223	4.62
459.58	4.47
459.936	4.48
460.292	4.66
460.648	4.46
461.005	4.41
461.361	4.35
461.717	4.36
462.073	4.45
462.429	4.48
462.785	4.64
463.141	4.67
463.496	4.67
463.852	4.62
464.208	4.77
464.564	4.63
464.919	4.38
465.275	4.63
465.631	4.57
465.986	4.77
466.342	4.54
466.697	4.41
467.052	4.64
467.408	4.51
467.763	4.51
468.118	4.61
468.473	4.59
468.829	4.48
469.184	4.67
469.539	4.56
469.894	4.64
470.249	4.64
470.603	4.72
470.958	4.61
471.313	4.31
471.668	4.55
472.023	4.63
472.377	4.56
472.732	4.45
473.086	4.45
473.441	4.65
473.795	4.61
474.15	4.6
474.504	4.5
474.859	4.68
475.213	4.67
475.567	4.5
475.921	4.68
476.275	4.53
476.63	4.66
476.984	4.55
477.338	4.67
477.692	4.63
478.045	4.59
478.399	4.53
478.753	4.5
479.107	4.56
479.461	4.52
479.814	4.53
480.168	4.43
480.521	4.47
480.875	4.56
481.228	4.56
481.582	4.55
481.935	4.45
482.289	4.34
482.642	4.56
482.995	4.4
483.348	4.38
483.701	4.43
484.055	4.39
484.408	4.38
484.761	4.19
485.114	4.08
485.466	4.03
485.819	4.07
486.172	4.21
486.525	4.43
486.878	4.54
487.23	4.6
487.583	4.55
487.936	4.44
488.288	4.32
488.641	4.2
488.993	4.16
489.345	4.22
489.698	4.28
490.05	4.29
490.402	4.38
490.754	4.49
491.107	4.58
491.459	4.45
491.811	4.61
492.163	4.54
492.515	4.31
492.866	4.22
493.218	4.11
493.57	4.23
493.922	4.25
494.274	4.5
494.625	4.55
494.977	4.46
495.328	4.6
495.68	4.49
496.031	4.58
496.383	4.52
496.734	4.47
497.086	4.51
497.437	4.4
497.788	4.39
498.139	4.42
498.49	4.35
498.842	4.53
499.193	4.41
499.544	4.4
499.894	4.63
500.245	4.58
500.596	4.4
500.947	4.55
501.298	4.6
501.648	4.53
501.999	4.44
502.35	4.58
502.7	4.58
503.051	4.64
503.401	4.6
503.752	4.46
504.102	4.49
504.452	4.43
504.803	4.47
505.153	4.21
505.503	4.35
505.853	4.41
506.203	4.39
506.553	4.47
506.903	4.49
507.253	4.5
507.603	4.55
507.953	4.27
508.303	4.51
508.652	4.43
509.002	4.46
509.352	4.46
509.701	4.45
510.051	4.49
510.4	4.46
510.75	4.31
511.099	4.37
511.449	4.39
511.798	4.36
512.147	4.38
512.496	4.52
512.846	4.31
513.195	4.35
513.544	4.38
513.893	4.42
514.242	4.37
514.591	4.48
514.939	4.5
515.288	4.38
515.637	4.42
515.986	4.41
516.334	4.5
516.683	4.4
517.032	4.52
517.38	4.4
517.729	4.32
518.077	4.52
518.426	4.51
518.774	4.49
519.122	4.4
519.47	4.29
519.819	4.33
520.167	4.14
520.515	4.2
520.863	4.38
521.211	4.37
521.559	4.3
521.907	4.44
522.255	4.46
522.602	4.59
522.95	4.42
523.298	4.51
523.645	4.59
523.993	4.38
524.341	4.39
524.688	4.42
525.036	4.34
525.383	4.53
525.73	4.32
526.078	4.37
526.425	4.35
526.772	4.23
527.119	4.18
527.466	4.13
527.814	4.23
528.161	4.38
528.508	4.33
528.854	4.34
529.201	4.24
529.548	4.1
529.895	4.03
530.242	3.95
530.588	3.95
530.935	4.13
531.282	4.27
531.628	4.32
531.975	4.35
532.321	4.38
532.667	4.36
533.014	4.36
533.36	4.34
533.706	4.25
534.052	4.25
534.399	4.14
534.745	4.14
535.091	4.06
535.437	4.15
535.783	4.27
536.129	4.33
536.474	4.29
536.82	4.36
537.166	4.4
537.512	4.27
537.857	4.24
538.203	4.15
538.549	4.12
538.894	4.29
539.239	4.3
539.585	4.37
539.93	4.46
540.276	4.49
540.621	4.33
540.966	4.38
541.311	4.18
541.656	4.22
542.001	4.2
542.346	4.08
542.691	3.98
543.036	3.96
543.381	4.04
543.726	4.14
544.071	4.24
544.415	4.36
544.76	4.21
545.105	4.22
545.449	4.29
545.794	4.24
546.138	4.29
546.483	4.37
546.827	4.39
547.171	4.18
547.516	4.24
547.86	4.19
548.204	4.08
548.548	4.17
548.892	4.23
549.236	4.34
549.58	4.32
549.924	4.35
550.268	4.43
550.612	4.34
550.956	4.37
551.3	4.26
551.643	4.24
551.987	4.22
552.33	4.54
552.674	4.27
553.017	4.43
553.361	4.36
553.704	4.24
554.048	4.2
554.391	4.24
554.734	4.16
555.077	4.08
555.42	4.32
555.764	4.25
556.107	4.35
556.45	4.36
556.793	4.33
557.135	4.26
557.478	4.3
557.821	4.17
558.164	4.26
558.507	4.36
558.849	4.3
559.192	4.35
559.534	4.3
559.877	4.45
560.219	4.36
560.562	4.44
560.904	4.21
561.246	4.29
561.589	4.27
561.931	4.18
562.273	4.07
562.615	4.1
562.957	4.24
563.299	4.32
563.641	4.29
563.983	4.4
564.325	4.14
564.667	4.08
565.008	4.26
565.35	4.26
565.692	4.13
566.033	4.21
566.375	4.16
566.716	4.15
567.058	4.11
567.399	4.13
567.741	3.94
568.082	4.17
568.423	4.16
568.764	4.24
569.105	4.31
569.447	4.06
569.788	4.38
570.129	4.26
570.47	4.19
570.811	4.04
571.151	4.05
571.492	4.09
571.833	4.06
572.174	4
572.514	4.12
572.855	4.14
573.195	4.17
573.536	4.07
573.876	3.91
574.217	4.02
574.557	4.27
574.898	3.91
575.238	4.11
575.578	4.12
575.918	4.24
576.258	4.05
576.598	3.9
576.938	4.03
577.278	4.05
577.618	4.2
577.958	4.14
578.298	4.17
578.638	4.18
578.977	3.94
579.317	4.12
579.657	4.15
579.996	4.28
580.336	4.12
580.675	3.93
581.014	4.13
581.354	4.13
581.693	4.09
582.032	4.28
582.372	4.2
582.711	3.99
583.05	4.34
583.389	3.97
583.728	4.18
584.067	4.24
584.406	4.06
584.745	4.12
585.083	4.14
585.422	4.34
585.761	4.09
586.1	4.17
586.438	4.2
586.777	4.03
587.115	4
587.454	4.26
587.792	4.22
588.13	4.22
588.469	3.97
588.807	4.19
589.145	4.41
589.483	4.01
589.821	4.19
590.159	4.16
590.497	4.3
590.835	4.15
591.173	4.06
591.511	4.02
591.849	3.98
592.187	4.11
592.524	4.18
592.862	4.01
593.2	3.95
593.537	4.02
593.875	3.8
594.212	4.19
594.55	4.17
594.887	4.29
595.224	4.02
595.561	4.02
595.899	4.19
596.236	4.06
596.573	4.14
596.91	4.04
597.247	3.97
597.584	4.19
597.921	4.16
598.258	4.1
598.594	3.79
598.931	4.1
599.268	4.02
599.604	4.02
599.941	3.87
600.277	4.2
600.614	4.37
600.95	3.97
601.287	4.06
601.623	3.79
601.959	3.99
602.296	4.11
602.632	4.07
602.968	3.96
603.304	4.25
603.64	4.13
603.976	4
604.312	3.82
604.648	4.19
604.984	3.77
605.319	3.91
605.655	3.81
605.991	4.04
606.326	3.87
606.662	3.89
606.998	3.85
607.333	4.05
607.668	3.89
608.004	3.98
608.339	4.15
608.674	3.93
609.01	4.1
609.345	4.11
609.68	3.86
610.015	3.87
610.35	4.01
610.685	3.74
611.02	3.87
611.355	3.87
611.689	4.01
612.024	3.83
612.359	3.84
612.694	3.97
613.028	4.12
613.363	4.12
613.697	4.25
614.032	4.07
614.366	4.17
614.7	4.08
615.035	4.24
615.369	4.2
615.703	3.8
616.037	3.92
616.371	4.27
616.705	4.02
617.039	3.83
617.373	3.95
617.707	4
618.041	4.17
618.375	4.06
618.709	4
619.042	4.29
619.376	4.05
619.71	4.07
620.043	3.84
620.377	3.97
620.71	3.96
621.043	3.79
621.377	3.95
621.71	3.69
622.043	3.79
622.376	4.05
622.709	4.21
623.043	3.66
623.376	4.06
623.709	4.23
624.041	3.96
624.374	4.3
624.707	4.26
625.04	4.2
625.373	3.78
625.705	4.05
626.038	3.8
626.37	4.02
626.703	3.92
627.035	3.7
627.368	3.94
627.7	3.72
628.032	3.49
628.365	3.93
628.697	3.83
629.029	3.89
629.361	3.86
629.693	3.96
630.025	4.1
630.357	4.05
630.689	3.56
631.021	4.22
631.353	4.02
631.684	3.6
632.016	3.82
632.348	3.83
632.679	4.23
633.011	4.27
633.342	4.01
633.674	3.77
634.005	4.01
634.336	3.88
634.668	4.13
634.999	4.21
635.33	4.09
635.661	3.7
635.992	4.07
636.323	3.96
636.654	3.89
636.985	3.89
637.316	3.88
637.647	4.05
637.977	4.25
638.308	3.98
638.639	3.96
638.969	4.04
639.3	3.89
639.63	4.14
639.961	4.22
640.291	3.5
640.622	4.11
640.952	4.38
641.282	3.8
641.612	3.94
641.943	4.03
642.273	3.69
642.603	4.12
642.933	3.81
643.263	4.13
643.592	3.78
643.922	3.56
644.252	3.82
644.582	4.21
644.911	4.12
645.241	3.95
645.571	4.08
645.9	3.78
646.23	4.21
646.559	3.54
646.888	3.91
647.218	4.12
647.547	4.21
647.876	4.29
648.205	3.99
648.534	3.44
648.863	3.27
649.192	4.35
649.521	3.92
649.85	4.64
650.179	4.03
650.508	4.29
650.837	3.42
651.165	3.57
651.494	3.92
651.822	4.03
652.151	3.69
652.479	3.82
652.808	3.85
653.136	3.98
653.465	3.74
653.793	3.68
654.121	4.18
654.449	3.86
654.777	3.71
655.105	4.11
655.433	4.14
655.761	4.27
656.089	4.06
656.417	4.2
656.745	4.01
657.073	3.68
657.4	4.29
657.728	4
658.056	4.04
658.383	4.6
658.711	3.19
659.038	4.3
659.365	3.78
659.693	4.49
660.02	4.12
660.347	4.03
660.674	3.99
661.001	4.04
661.329	4.06
661.656	3.77
661.982	3.61
662.309	3.88
662.636	3.92
662.963	4
663.29	4.06
663.616	3.23
663.943	3.86
664.27	4.04
664.596	4.21
664.923	3.84
665.249	4.04
665.576	3.93
665.902	4.44
666.228	3.61
666.554	3.81
666.881	3.9
667.207	4.02
667.533	4.02
667.859	4.01
668.185	3.72
668.511	4
668.837	4.43
669.162	3.8
669.488	4.06
669.814	4.53
670.139	3.28
670.465	4.18
670.791	3.53
671.116	3.77
671.442	4.14
671.767	3.78
672.092	3.8
672.418	4.05
672.743	3.94
673.068	3.58
673.393	3.88
673.718	4.04
674.043	3.94
674.368	3.99
674.693	3.4
675.018	4.43
675.343	3.64
675.667	3.45
675.992	4.07
676.317	3.93
676.641	3.93
676.966	3.64
677.29	4.17
677.615	3.71
677.939	4.42
678.264	4.07
678.588	4.08
678.912	3.38
679.236	3.64
679.56	3.4
679.885	4.19
680.209	4.1
680.532	3.8
680.856	3.88
681.18	3.58
681.504	4.27
681.828	4.18
682.152	4.03
682.475	3.56
682.799	4.32
683.122	3.89
683.446	3.94
683.769	4.02
684.093	3.92
684.416	4.6
684.739	4.08
685.062	4.09
685.386	3.8
685.709	3.26
686.032	4.26
686.355	3.54
686.678	3.17
687.001	4.08
687.324	4.33
687.646	4.33
687.969	4.1
688.292	5.17
688.614	3.94
688.937	4.13
689.26	4.39
689.582	3.3
689.904	4.57
690.227	3.77
690.549	4.42
690.871	3.63
691.194	4.19
691.516	3.25
691.838	3.88
692.16	5.14
692.482	3.75
692.804	4.18
