Data from 001-17_crown_Reflection__4__160.txt Node

Date: Fri Sep 30 19:21:35 CDT 2022
User: ToomeyLab
Spectrometer: FLMS14357
Trigger mode: 0
Integration Time (sec): 1.000000E-2
Scans to average: 100
Electric dark correction enabled: true
Nonlinearity correction enabled: false
Boxcar width: 0
XAxis mode: Wavelengths
Number of Pixels in Spectrum: 2048
>>>>>Begin Spectral Data<<<<<
189.047	-11.47
189.435	-11.47
189.823	-11.47
190.211	305.83
190.599	38.17
190.987	-176.68
191.375	-116.44
191.763	182.5
192.151	-7.58
192.538	145.5
192.926	69.62
193.314	34090.91
193.702	381.66
194.089	-365.45
194.477	171.61
194.864	213.18
195.252	39.2
195.639	21.14
196.027	-57.56
196.414	58.03
196.801	17148.15
197.189	170
197.576	-0.26
197.963	15.78
198.351	22.54
198.738	-13.91
199.125	-50.11
199.512	4.26
199.899	16.59
200.286	51.89
200.673	-2.47
201.06	4.48
201.447	-15.16
201.833	0.06
202.22	-69.29
202.607	17.37
202.994	-17.78
203.38	7.52
203.767	2.4
204.154	-9.52
204.54	6.16
204.927	-41.74
205.313	27.29
205.699	3.46
206.086	12.32
206.472	-6.48
206.858	47.83
207.245	-57.11
207.631	0.73
208.017	5.12
208.403	18
208.789	22.59
209.175	24.66
209.561	35.05
209.947	46.16
210.333	26.08
210.719	15.47
211.105	-4.81
211.491	-3.98
211.876	30.78
212.262	2.95
212.648	-13.31
213.034	40.88
213.419	-15.66
213.805	-6.01
214.19	-0.38
214.576	-0.3
214.961	34.15
215.346	16.19
215.732	-13.85
216.117	-17.52
216.502	3.11
216.888	-6.51
217.273	28.51
217.658	-17.76
218.043	44.72
218.428	12.23
218.813	-44.18
219.198	5.5
219.583	-0.78
219.968	-1.76
220.353	-2.83
220.738	-3
221.122	-8.29
221.507	7.15
221.892	-6.18
222.276	-3.67
222.661	4.37
223.046	-11.98
223.43	9.6
223.815	-1.2
224.199	3.95
224.583	6.84
224.968	6.17
225.352	2.94
225.736	4.64
226.121	1.7
226.505	5.63
226.889	1.7
227.273	2.35
227.657	2.77
228.041	3.81
228.425	1.91
228.809	3.66
229.193	1.73
229.577	3.53
229.961	2.44
230.344	2.7
230.728	2.62
231.112	2.96
231.495	3.05
231.879	2.24
232.263	3.36
232.646	2.68
233.03	1.76
233.413	1.9
233.797	-0.62
234.18	3.55
234.563	4.66
234.946	2.1
235.33	0.29
235.713	0.72
236.096	2.76
236.479	2.49
236.862	3.13
237.245	1.8
237.628	3.89
238.011	2.04
238.394	0.65
238.777	1.04
239.16	2.57
239.543	3.57
239.925	1.68
240.308	2.1
240.691	-0.27
241.073	2.11
241.456	2.07
241.838	2.91
242.221	2.19
242.603	2.57
242.986	2.69
243.368	2.74
243.75	1.61
244.133	2.47
244.515	2.17
244.897	2.36
245.279	2.26
245.661	2.73
246.043	1.9
246.425	3.2
246.807	2.68
247.189	1.97
247.571	2.66
247.953	1.81
248.335	2.39
248.717	2.26
249.098	2.41
249.48	2.44
249.862	1.91
250.243	1.82
250.625	2.17
251.006	3.13
251.388	1.91
251.769	2.02
252.151	2.38
252.532	3.11
252.913	1.27
253.295	1.87
253.676	2.7
254.057	2.1
254.438	2.61
254.819	2.04
255.2	2.23
255.581	2.41
255.962	4.06
256.343	0.67
256.724	3.12
257.105	1.67
257.486	2.5
257.867	2.5
258.247	1.77
258.628	1.07
259.009	2.8
259.389	2.68
259.77	1.34
260.15	2.14
260.531	2.19
260.911	1.96
261.292	2.56
261.672	2.22
262.052	2.36
262.432	2.53
262.813	3.07
263.193	2.65
263.573	1.79
263.953	2.52
264.333	1.61
264.713	2.15
265.093	2.64
265.473	3.51
265.853	1.94
266.233	2.18
266.612	2.72
266.992	2.33
267.372	2.37
267.752	1.12
268.131	2.41
268.511	2.29
268.89	1.37
269.27	2.97
269.649	2.7
270.029	1.7
270.408	2.2
270.787	2.2
271.167	2.31
271.546	2.02
271.925	2.61
272.304	2.54
272.683	2.04
273.062	2.42
273.441	1.9
273.82	1.75
274.199	2.32
274.578	1.89
274.957	2.06
275.336	2.13
275.715	2.02
276.093	2.34
276.472	1.6
276.851	2.63
277.229	2.9
277.608	2.52
277.986	1.9
278.365	2.39
278.743	2.41
279.122	1.86
279.5	2.94
279.878	2.26
280.257	2.02
280.635	1.72
281.013	2.32
281.391	1.86
281.769	2.13
282.147	1.83
282.525	2.42
282.903	1.93
283.281	2.08
283.659	2.09
284.037	2.01
284.415	1.57
284.792	2.24
285.17	2.57
285.548	1.8
285.925	1.91
286.303	1.91
286.68	1.81
287.058	1.9
287.435	2.2
287.813	2.08
288.19	1.99
288.567	1.9
288.945	1.41
289.322	2.37
289.699	1.86
290.076	2.27
290.453	2.38
290.83	1.95
291.207	2.47
291.584	1.83
291.961	2.1
292.338	2.09
292.715	2.34
293.092	2.52
293.469	2.18
293.845	2.37
294.222	2.11
294.599	2.17
294.975	2.4
295.352	2.2
295.728	1.93
296.105	2.6
296.481	2.14
296.858	1.96
297.234	1.47
297.61	2.07
297.986	2.26
298.363	2.07
298.739	2.23
299.115	1.91
299.491	2.09
299.867	2.18
300.243	2.41
300.619	1.93
300.995	2.02
301.371	2.63
301.746	2.92
302.122	2.15
302.498	1.73
302.874	1.85
303.249	2.35
303.625	1.89
304	1.9
304.376	2.09
304.751	1.81
305.127	1.85
305.502	1.77
305.878	2.37
306.253	2.49
306.628	1.92
307.003	1.98
307.378	2.24
307.754	2.17
308.129	2.22
308.504	2.27
308.879	2.15
309.254	1.91
309.629	1.72
310.003	2
310.378	2.5
310.753	1.76
311.128	1.99
311.502	2.02
311.877	1.83
312.252	1.79
312.626	2.18
313.001	1.84
313.375	1.63
313.75	2.3
314.124	1.87
314.498	2.12
314.873	1.91
315.247	2.11
315.621	2.02
315.995	2.19
316.369	2.06
316.743	2.01
317.117	2.22
317.491	1.13
317.865	2.13
318.239	1.89
318.613	1.9
318.987	2.07
319.361	2.27
319.734	2.31
320.108	2.32
320.482	2.35
320.855	2.1
321.229	2.16
321.602	2.19
321.976	2.44
322.349	1.99
322.723	2.36
323.096	2.11
323.469	2.11
323.843	1.9
324.216	1.85
324.589	2.25
324.962	1.69
325.335	2.1
325.708	2.22
326.081	2.29
326.454	2.65
326.827	2
327.2	2.24
327.573	2.61
327.945	1.91
328.318	2.21
328.691	2.04
329.063	2.29
329.436	1.96
329.809	1.93
330.181	1.68
330.553	2.33
330.926	2.08
331.298	2.13
331.671	2.15
332.043	1.71
332.415	2.65
332.787	2.11
333.159	1.83
333.532	2.14
333.904	2.33
334.276	2.16
334.648	1.67
335.02	1.96
335.391	2.11
335.763	2.5
336.135	2.27
336.507	2.39
336.879	2.02
337.25	1.98
337.622	2.14
337.993	1.85
338.365	2.43
338.736	2.41
339.108	2.55
339.479	2.04
339.851	2.25
340.222	1.96
340.593	2.26
340.964	2.43
341.336	2.07
341.707	2.07
342.078	1.92
342.449	1.95
342.82	2.03
343.191	2.12
343.562	2.28
343.933	2.05
344.303	1.94
344.674	2.56
345.045	2.31
345.416	1.65
345.786	2.32
346.157	1.46
346.527	1.75
346.898	2.03
347.268	1.99
347.639	1.76
348.009	1.95
348.38	2.25
348.75	2.1
349.12	1.95
349.49	1.98
349.861	2.37
350.231	2.34
350.601	2.2
350.971	1.87
351.341	2.08
351.711	2.26
352.081	1.89
352.45	1.67
352.82	2.16
353.19	1.99
353.56	2.03
353.929	1.93
354.299	1.84
354.669	2.26
355.038	2.39
355.408	2.36
355.777	1.85
356.147	1.9
356.516	2.26
356.885	1.76
357.254	2.46
357.624	2.47
357.993	2.01
358.362	2.31
358.731	1.69
359.1	1.89
359.469	2.27
359.838	2.05
360.207	2.15
360.576	2.36
360.945	2.02
361.314	1.94
361.682	2.28
362.051	2.09
362.42	1.8
362.788	2.17
363.157	2.09
363.525	1.96
363.894	1.99
364.262	1.71
364.631	2.16
364.999	2.42
365.367	2.16
365.735	2.26
366.104	1.77
366.472	2.21
366.84	2.22
367.208	2.03
367.576	2.33
367.944	1.92
368.312	2.14
368.68	2.26
369.048	2.42
369.416	1.94
369.783	2.22
370.151	2.19
370.519	1.83
370.886	2.41
371.254	2.22
371.621	2.82
371.989	1.9
372.356	1.93
372.724	2.21
373.091	2.2
373.458	1.88
373.826	1.89
374.193	2.48
374.56	2.12
374.927	2.37
375.294	2.15
375.661	2.17
376.028	2.31
376.395	2.31
376.762	1.94
377.129	2.11
377.496	2.08
377.863	2.06
378.229	2.34
378.596	2
378.963	1.9
379.329	1.94
379.696	2.03
380.062	2.15
380.429	1.94
380.795	2.06
381.161	2.13
381.528	2.26
381.894	2.19
382.26	2.39
382.626	2.07
382.993	2.03
383.359	1.89
383.725	2.31
384.091	2.02
384.457	2.45
384.823	2.49
385.188	2.39
385.554	2.36
385.92	2.33
386.286	2.33
386.651	2.4
387.017	2.13
387.383	2.19
387.748	2.31
388.114	2.26
388.479	2.52
388.845	2.05
389.21	2.11
389.575	2.14
389.94	2.02
390.306	2.45
390.671	1.97
391.036	2.14
391.401	2.02
391.766	2.34
392.131	2.23
392.496	2.03
392.861	2.2
393.226	1.91
393.591	2.12
393.956	2.13
394.32	2.18
394.685	2.07
395.05	2.13
395.414	2.16
395.779	1.99
396.143	2.2
396.508	2.18
396.872	2.08
397.236	2.32
397.601	2.25
397.965	2.12
398.329	1.95
398.694	2.11
399.058	2.53
399.422	2.45
399.786	2.29
400.15	2.33
400.514	2.44
400.878	2.08
401.242	2.02
401.605	2.48
401.969	2.32
402.333	2.1
402.697	2.4
403.06	2.19
403.424	2.03
403.787	2.15
404.151	2.09
404.514	2.16
404.878	1.92
405.241	2.49
405.604	2.32
405.968	1.99
406.331	2.18
406.694	2.12
407.057	2.27
407.42	2.2
407.783	2.1
408.146	2.13
408.509	2.21
408.872	2.12
409.235	2.16
409.598	2.22
409.961	2.32
410.323	2.17
410.686	2.11
411.049	1.96
411.411	2.21
411.774	2.23
412.136	2.36
412.499	2.36
412.861	2.13
413.223	2.27
413.586	2.3
413.948	2.26
414.31	2.3
414.672	2.38
415.035	2.14
415.397	2.17
415.759	2.5
416.121	2.4
416.483	2.26
416.845	2.17
417.206	2.59
417.568	2.39
417.93	2.08
418.292	2.29
418.653	2.28
419.015	2.29
419.377	2.06
419.738	2.2
420.1	2.01
420.461	2.05
420.822	2.16
421.184	1.98
421.545	2.25
421.906	2.15
422.267	2.22
422.629	2.05
422.99	2.19
423.351	2.19
423.712	2.21
424.073	2.19
424.434	2.17
424.795	2.13
425.155	2.16
425.516	2.16
425.877	2.1
426.238	2.15
426.598	2.08
426.959	2.32
427.32	2.2
427.68	2.23
428.041	2.21
428.401	2.27
428.761	2.19
429.122	2.31
429.482	2.15
429.842	2.24
430.202	2.37
430.563	2.23
430.923	2.39
431.283	2.3
431.643	2.39
432.003	2.47
432.363	2.41
432.722	2.13
433.082	2.25
433.442	2.3
433.802	2.27
434.161	2.38
434.521	2.25
434.881	2.21
435.24	2.08
435.6	2.22
435.959	2.31
436.319	2.19
436.678	2.35
437.037	2.22
437.396	2.37
437.756	2.5
438.115	2.08
438.474	2.31
438.833	2.31
439.192	2.12
439.551	2.34
439.91	2.14
440.269	2.26
440.628	2.16
440.987	2.27
441.345	2.2
441.704	2.3
442.063	2.17
442.421	2.35
442.78	2.28
443.138	2.19
443.497	2.34
443.855	2.38
444.214	2.36
444.572	2.34
444.93	2.28
445.288	2.37
445.647	2.27
446.005	2.38
446.363	2.27
446.721	2.31
447.079	2.13
447.437	2.17
447.795	2.24
448.153	2.35
448.51	2.2
448.868	2.25
449.226	2.37
449.584	2.32
449.941	2.38
450.299	2.3
450.656	2.38
451.014	2.26
451.371	2.37
451.729	2.3
452.086	2.33
452.443	2.44
452.801	2.22
453.158	2.28
453.515	2.13
453.872	2.35
454.229	2.28
454.586	2.18
454.943	2.33
455.3	2.24
455.657	2.45
456.014	2.48
456.371	2.48
456.727	2.36
457.084	2.43
457.441	2.42
457.797	2.24
458.154	2.33
458.51	2.38
458.867	2.33
459.223	2.44
459.58	2.21
459.936	2.32
460.292	2.39
460.648	2.32
461.005	2.25
461.361	2.2
461.717	2.23
462.073	2.23
462.429	2.36
462.785	2.38
463.141	2.39
463.496	2.4
463.852	2.42
464.208	2.4
464.564	2.54
464.919	2.23
465.275	2.44
465.631	2.25
465.986	2.36
466.342	2.4
466.697	2.21
467.052	2.37
467.408	2.19
467.763	2.44
468.118	2.2
468.473	2.6
468.829	2.23
469.184	2.34
469.539	2.38
469.894	2.45
470.249	2.33
470.603	2.46
470.958	2.56
471.313	2.23
471.668	2.47
472.023	2.33
472.377	2.42
472.732	2.45
473.086	2.23
473.441	2.4
473.795	2.36
474.15	2.44
474.504	2.25
474.859	2.34
475.213	2.47
475.567	2.41
475.921	2.49
476.275	2.37
476.63	2.57
476.984	2.29
477.338	2.28
477.692	2.39
478.045	2.48
478.399	2.46
478.753	2.36
479.107	2.42
479.461	2.3
479.814	2.39
480.168	2.35
480.521	2.31
480.875	2.38
481.228	2.49
481.582	2.47
481.935	2.24
482.289	2.24
482.642	2.36
482.995	2.35
483.348	2.29
483.701	2.25
484.055	2.35
484.408	2.24
484.761	2.16
485.114	2.12
485.466	2.09
485.819	2.13
486.172	2.24
486.525	2.34
486.878	2.42
487.23	2.45
487.583	2.43
487.936	2.4
488.288	2.33
488.641	2.2
488.993	2.2
489.345	2.22
489.698	2.28
490.05	2.26
490.402	2.32
490.754	2.32
491.107	2.47
491.459	2.36
491.811	2.34
492.163	2.47
492.515	2.25
492.866	2.26
493.218	2.18
493.57	2.26
493.922	2.31
494.274	2.35
494.625	2.53
494.977	2.47
495.328	2.37
495.68	2.53
496.031	2.4
496.383	2.49
496.734	2.49
497.086	2.48
497.437	2.36
497.788	2.3
498.139	2.34
498.49	2.25
498.842	2.47
499.193	2.39
499.544	2.37
499.894	2.4
500.245	2.39
500.596	2.35
500.947	2.5
501.298	2.51
501.648	2.46
501.999	2.42
502.35	2.4
502.7	2.42
503.051	2.57
503.401	2.45
503.752	2.53
504.102	2.35
504.452	2.45
504.803	2.43
505.153	2.4
505.503	2.36
505.853	2.34
506.203	2.44
506.553	2.58
506.903	2.52
507.253	2.48
507.603	2.52
507.953	2.3
508.303	2.53
508.652	2.42
509.002	2.53
509.352	2.5
509.701	2.44
510.051	2.44
510.4	2.42
510.75	2.36
511.099	2.39
511.449	2.39
511.798	2.4
512.147	2.47
512.496	2.48
512.846	2.41
513.195	2.5
513.544	2.42
513.893	2.41
514.242	2.3
514.591	2.46
514.939	2.38
515.288	2.46
515.637	2.43
515.986	2.45
516.334	2.49
516.683	2.49
517.032	2.6
517.38	2.46
517.729	2.36
518.077	2.52
518.426	2.47
518.774	2.48
519.122	2.38
519.47	2.45
519.819	2.44
520.167	2.33
520.515	2.46
520.863	2.38
521.211	2.47
521.559	2.45
521.907	2.46
522.255	2.5
522.602	2.58
522.95	2.5
523.298	2.43
523.645	2.45
523.993	2.43
524.341	2.45
524.688	2.52
525.036	2.38
525.383	2.41
525.73	2.41
526.078	2.46
526.425	2.3
526.772	2.36
527.119	2.26
527.466	2.32
527.814	2.34
528.161	2.42
528.508	2.5
528.854	2.51
529.201	2.4
529.548	2.35
529.895	2.25
530.242	2.18
530.588	2.24
530.935	2.36
531.282	2.41
531.628	2.42
531.975	2.45
532.321	2.52
532.667	2.51
533.014	2.53
533.36	2.43
533.706	2.41
534.052	2.4
534.399	2.34
534.745	2.32
535.091	2.29
535.437	2.32
535.783	2.44
536.129	2.51
536.474	2.52
536.82	2.52
537.166	2.43
537.512	2.44
537.857	2.4
538.203	2.36
538.549	2.42
538.894	2.48
539.239	2.46
539.585	2.57
539.93	2.66
540.276	2.67
540.621	2.51
540.966	2.57
541.311	2.36
541.656	2.41
542.001	2.44
542.346	2.34
542.691	2.29
543.036	2.29
543.381	2.29
543.726	2.38
544.071	2.43
544.415	2.58
544.76	2.47
545.105	2.49
545.449	2.52
545.794	2.46
546.138	2.51
546.483	2.46
546.827	2.54
547.171	2.41
547.516	2.43
547.86	2.42
548.204	2.43
548.548	2.47
548.892	2.61
549.236	2.48
549.58	2.57
549.924	2.54
550.268	2.47
550.612	2.61
550.956	2.62
551.3	2.65
551.643	2.54
551.987	2.55
552.33	2.71
552.674	2.54
553.017	2.5
553.361	2.57
553.704	2.52
554.048	2.41
554.391	2.63
554.734	2.5
555.077	2.49
555.42	2.53
555.764	2.62
556.107	2.57
556.45	2.59
556.793	2.71
557.135	2.42
557.478	2.58
557.821	2.66
558.164	2.72
558.507	2.75
558.849	2.63
559.192	2.73
559.534	2.57
559.877	2.71
560.219	2.65
560.562	2.76
560.904	2.83
561.246	2.44
561.589	2.58
561.931	2.44
562.273	2.33
562.615	2.59
562.957	2.51
563.299	2.63
563.641	2.72
563.983	2.79
564.325	2.57
564.667	2.59
565.008	2.67
565.35	2.48
565.692	2.54
566.033	2.58
566.375	2.49
566.716	2.58
567.058	2.53
567.399	2.39
567.741	2.54
568.082	2.56
568.423	2.53
568.764	2.58
569.105	2.51
569.447	2.66
569.788	2.67
570.129	2.68
570.47	2.7
570.811	2.49
571.151	2.47
571.492	2.58
571.833	2.51
572.174	2.59
572.514	2.6
572.855	2.6
573.195	2.55
573.536	2.61
573.876	2.42
574.217	2.61
574.557	2.57
574.898	2.43
575.238	2.44
575.578	2.53
575.918	2.61
576.258	2.48
576.598	2.45
576.938	2.36
577.278	2.41
577.618	2.54
577.958	2.47
578.298	2.67
578.638	2.77
578.977	2.52
579.317	2.65
579.657	2.53
579.996	2.62
580.336	2.53
580.675	2.47
581.014	2.68
581.354	2.44
581.693	2.93
582.032	2.68
582.372	2.45
582.711	2.51
583.05	2.85
583.389	2.45
583.728	2.48
584.067	2.83
584.406	2.67
584.745	2.78
585.083	2.72
585.422	2.7
585.761	2.54
586.1	2.75
586.438	2.5
586.777	2.42
587.115	2.6
587.454	2.71
587.792	2.69
588.13	2.79
588.469	2.68
588.807	2.64
589.145	2.95
589.483	2.51
589.821	2.61
590.159	2.55
590.497	2.75
590.835	2.69
591.173	2.72
591.511	2.59
591.849	2.36
592.187	2.59
592.524	2.61
592.862	2.59
593.2	2.66
593.537	2.68
593.875	2.43
594.212	2.66
594.55	2.54
594.887	2.6
595.224	2.69
595.561	2.72
595.899	2.51
596.236	2.58
596.573	2.93
596.91	2.66
597.247	2.47
597.584	2.83
597.921	2.63
598.258	2.68
598.594	2.34
598.931	2.49
599.268	2.5
599.604	2.51
599.941	2.52
600.277	2.67
600.614	2.83
600.95	2.61
601.287	2.64
601.623	2.6
601.959	2.61
602.296	2.87
602.632	2.54
602.968	2.34
603.304	2.71
603.64	2.67
603.976	2.46
604.312	2.38
604.648	2.72
604.984	2.48
605.319	2.55
605.655	2.65
605.991	2.77
606.326	2.63
606.662	2.51
606.998	2.67
607.333	2.76
607.668	2.71
608.004	2.56
608.339	2.69
608.674	2.84
609.01	2.55
609.345	2.62
609.68	2.36
610.015	2.56
610.35	2.89
610.685	2.51
611.02	2.55
611.355	2.57
611.689	2.71
612.024	2.49
612.359	2.46
612.694	2.85
613.028	2.92
613.363	2.74
613.697	2.99
614.032	2.66
614.366	2.8
614.7	2.51
615.035	2.95
615.369	2.84
615.703	2.53
616.037	2.49
616.371	2.99
616.705	2.17
617.039	2.47
617.373	2.25
617.707	2.45
618.041	2.77
618.375	2.82
618.709	3.07
619.042	2.98
619.376	2.89
619.71	2.74
620.043	2.71
620.377	2.62
620.71	2.7
621.043	2.5
621.377	2.94
621.71	2.51
622.043	2.46
622.376	2.89
622.709	2.7
623.043	2.5
623.376	2.9
623.709	2.83
624.041	2.69
624.374	2.71
624.707	2.72
625.04	2.95
625.373	2.67
625.705	2.7
626.038	2.67
626.37	2.71
626.703	2.81
627.035	2.68
627.368	2.49
627.7	2.63
628.032	2.5
628.365	2.47
628.697	2.6
629.029	2.61
629.361	2.44
629.693	2.73
630.025	3.05
630.357	2.62
630.689	2.53
631.021	2.86
631.353	2.8
631.684	2.64
632.016	2.56
632.348	2.3
632.679	2.9
633.011	2.95
633.342	2.66
633.674	2.18
634.005	2.73
634.336	2.79
634.668	2.74
634.999	3.03
635.33	2.95
635.661	2.94
635.992	2.93
636.323	2.71
636.654	2.75
636.985	2.75
637.316	2.56
637.647	2.74
637.977	2.69
638.308	2.75
638.639	2.9
638.969	2.78
639.3	2.4
639.63	2.72
639.961	2.92
640.291	2.45
640.622	2.75
640.952	3.05
641.282	2.55
641.612	2.61
641.943	2.69
642.273	2.57
642.603	2.99
642.933	2.5
643.263	2.59
643.592	2.99
643.922	2.88
644.252	3.05
644.582	2.99
644.911	2.32
645.241	2.88
645.571	3.06
645.9	2.77
646.23	3.03
646.559	2.45
646.888	2.91
647.218	3.23
647.547	2.7
647.876	3.1
648.205	2.7
648.534	2.59
648.863	2.07
649.192	2.93
649.521	2.62
649.85	3.27
650.179	2.61
650.508	2.75
650.837	2.14
651.165	2.89
651.494	2.5
651.822	2.9
652.151	2.81
652.479	2.87
652.808	2.92
653.136	2.95
653.465	2.64
653.793	2.74
654.121	2.46
654.449	2.77
654.777	2.31
655.105	2.99
655.433	3.13
655.761	3.05
656.089	3.17
656.417	3.08
656.745	2.67
657.073	2.17
657.4	3.22
657.728	2.82
658.056	2.53
658.383	3.14
658.711	2.25
659.038	3.22
659.365	2.46
659.693	3.14
660.02	3.12
660.347	2.57
660.674	3.04
661.001	2.89
661.329	2.89
661.656	2.51
661.982	2.58
662.309	2.98
662.636	3.03
662.963	2.71
663.29	2.69
663.616	2.62
663.943	2.85
664.27	2.79
664.596	2.39
664.923	2.94
665.249	3.04
665.576	2.67
665.902	3.14
666.228	2.79
666.554	3.15
666.881	3.7
667.207	3.2
667.533	2.61
667.859	2.24
668.185	3.34
668.511	2.81
668.837	3.47
669.162	2.77
669.488	2.79
669.814	3.4
670.139	2.25
670.465	2.36
670.791	2.44
671.116	2.94
671.442	3.05
671.767	2.9
672.092	3.16
672.418	2.92
672.743	2.85
673.068	2.8
673.393	2.77
673.718	3.16
674.043	2.69
674.368	3.09
674.693	2.52
675.018	3.14
675.343	2.83
675.667	3.2
675.992	2.85
676.317	2.45
676.641	2.41
676.966	2.5
677.29	3.18
677.615	2.48
677.939	2.86
678.264	3.38
678.588	2.52
678.912	2.7
679.236	2.65
679.56	1.85
679.885	2.59
680.209	3.37
680.532	2.76
680.856	2.11
681.18	2.69
681.504	2.74
681.828	2.88
682.152	2.8
682.475	2.98
682.799	3.17
683.122	2.85
683.446	2.44
683.769	2.52
684.093	3.32
684.416	2.93
684.739	2.91
685.062	2.9
685.386	3.16
685.709	2.92
686.032	3.02
686.355	2.91
686.678	2.94
687.001	2.82
687.324	2.73
687.646	2.98
687.969	3.12
688.292	3.64
688.614	3.21
688.937	2.87
689.26	2.99
689.582	2.65
689.904	3.98
690.227	2.97
690.549	3.5
690.871	1.92
691.194	3.04
691.516	2.95
691.838	3.38
692.16	2.82
692.482	3.38
692.804	2.87
