Data from 001-17_chest_Reflection__4__155.txt Node

Date: Fri Sep 30 19:19:20 CDT 2022
User: ToomeyLab
Spectrometer: FLMS14357
Trigger mode: 0
Integration Time (sec): 1.000000E-2
Scans to average: 100
Electric dark correction enabled: true
Nonlinearity correction enabled: false
Boxcar width: 0
XAxis mode: Wavelengths
Number of Pixels in Spectrum: 2048
>>>>>Begin Spectral Data<<<<<
189.047	7.66
189.435	7.66
189.823	7.66
190.211	683.94
190.599	177.68
190.987	-339.56
191.375	196.09
191.763	270.8
192.151	2.71
192.538	7.28
192.926	-390.34
193.314	9663.64
193.702	486.03
194.089	-201.28
194.477	111
194.864	0.35
195.252	-32.87
195.639	41.31
196.027	15.23
196.414	50.41
196.801	13951.85
197.189	176.69
197.576	-6.77
197.963	117.96
198.351	3.89
198.738	-40.29
199.125	-6.21
199.512	7.66
199.899	-10.83
200.286	15.22
200.673	-7.23
201.06	-0.65
201.447	-17.57
201.833	30.89
202.22	-41.4
202.607	-20.52
202.994	16.74
203.38	53.64
203.767	6.12
204.154	10.88
204.54	16.13
204.927	-124.43
205.313	1.93
205.699	13.3
206.086	47.48
206.472	25.6
206.858	6.2
207.245	-40.66
207.631	-6.51
208.017	34.73
208.403	4.6
208.789	26.48
209.175	13.17
209.561	16.74
209.947	35.38
210.333	42.24
210.719	-2.39
211.105	14.5
211.491	21.27
211.876	25.25
212.262	4.71
212.648	-24.96
213.034	6.96
213.419	-5.76
213.805	17.2
214.19	-24.66
214.576	0.23
214.961	36.5
215.346	15.81
215.732	4.83
216.117	-17.82
216.502	17.87
216.888	3.24
217.273	46.17
217.658	-9.89
218.043	47.4
218.428	9.59
218.813	-13.88
219.198	17.14
219.583	-0.28
219.968	3.17
220.353	-0.49
220.738	6.22
221.122	0.05
221.507	11.95
221.892	-14.03
222.276	-11.61
222.661	3.38
223.046	-9.94
223.43	3.68
223.815	4
224.199	7.05
224.583	12.17
224.968	0.09
225.352	-0.27
225.736	9.2
226.121	0.9
226.505	10.33
226.889	7.36
227.273	4.8
227.657	-3.06
228.041	3.55
228.425	4.61
228.809	5.97
229.193	4.49
229.577	4.35
229.961	5.19
230.344	5.08
230.728	5.24
231.112	5.23
231.495	4.16
231.879	5.85
232.263	5.81
232.646	5.09
233.03	5.36
233.413	3.96
233.797	2.37
234.18	5.46
234.563	4.48
234.946	5.15
235.33	5.24
235.713	2.42
236.096	5.5
236.479	4.42
236.862	3.97
237.245	3.8
237.628	4.73
238.011	4.12
238.394	2.51
238.777	2.32
239.16	5.68
239.543	6.02
239.925	3.15
240.308	5.38
240.691	3.79
241.073	3.54
241.456	5
241.838	3.59
242.221	5.51
242.603	4.96
242.986	4.83
243.368	4.36
243.75	4.02
244.133	4.07
244.515	4.19
244.897	4.21
245.279	4.1
245.661	3.96
246.043	4.82
246.425	4.44
246.807	3.94
247.189	4.46
247.571	4.59
247.953	4.08
248.335	4.3
248.717	4.13
249.098	4.28
249.48	4.38
249.862	3.85
250.243	4.39
250.625	4.29
251.006	5.01
251.388	3.81
251.769	4.15
252.151	3.63
252.532	3.89
252.913	3.57
253.295	4.18
253.676	4.11
254.057	4.06
254.438	3.8
254.819	4.34
255.2	3.97
255.581	3.7
255.962	4.46
256.343	3.73
256.724	3.25
257.105	3.42
257.486	4.76
257.867	3.7
258.247	3.33
258.628	4.13
259.009	4.86
259.389	4.5
259.77	3.22
260.15	4.34
260.531	4.32
260.911	3.81
261.292	4.17
261.672	3.8
262.052	3.89
262.432	3.97
262.813	4.38
263.193	3.69
263.573	4.12
263.953	4.19
264.333	4.22
264.713	3.35
265.093	4.05
265.473	4.28
265.853	2.74
266.233	3.58
266.612	4.17
266.992	3.8
267.372	4.15
267.752	3.29
268.131	4.16
268.511	3.84
268.89	3.36
269.27	4.58
269.649	4.14
270.029	3.39
270.408	4.27
270.787	4.37
271.167	3.51
271.546	3.5
271.925	3.63
272.304	4.04
272.683	3.83
273.062	3.83
273.441	3.34
273.82	3.58
274.199	3.99
274.578	3.81
274.957	3.71
275.336	3.79
275.715	3.25
276.093	3.51
276.472	4.14
276.851	3.79
277.229	4.69
277.608	4.21
277.986	3.33
278.365	4.04
278.743	3.87
279.122	2.99
279.5	4.18
279.878	3.45
280.257	3.73
280.635	3.47
281.013	3.88
281.391	4.17
281.769	3.64
282.147	3.49
282.525	3.84
282.903	3.38
283.281	3.74
283.659	4
284.037	3.89
284.415	3.46
284.792	3.78
285.17	4.27
285.548	3.79
285.925	3.52
286.303	3.59
286.68	3.55
287.058	3.84
287.435	3.41
287.813	3.55
288.19	3.42
288.567	3.39
288.945	3.17
289.322	3.74
289.699	3.62
290.076	3.56
290.453	3.85
290.83	3.49
291.207	3.91
291.584	3.67
291.961	3.73
292.338	3.61
292.715	3.79
293.092	3.74
293.469	3.61
293.845	4.03
294.222	3.58
294.599	3.84
294.975	3.58
295.352	3.88
295.728	4.04
296.105	4.12
296.481	3.51
296.858	3.71
297.234	3.56
297.61	3.6
297.986	3.8
298.363	3.47
298.739	3.87
299.115	3.68
299.491	3.53
299.867	3.63
300.243	4
300.619	3.41
300.995	3.99
301.371	4.2
301.746	4.2
302.122	3.7
302.498	3.2
302.874	3.49
303.249	3.77
303.625	3.51
304	3.79
304.376	3.55
304.751	3.34
305.127	4.15
305.502	3.44
305.878	3.83
306.253	4.13
306.628	3.93
307.003	3.72
307.378	3.66
307.754	3.72
308.129	3.74
308.504	3.17
308.879	3.85
309.254	3.54
309.629	3.63
310.003	3.53
310.378	3.94
310.753	3.6
311.128	3.6
311.502	3.9
311.877	3.63
312.252	3.66
312.626	3.77
313.001	3.6
313.375	3.69
313.75	3.68
314.124	3.62
314.498	3.76
314.873	3.85
315.247	3.31
315.621	4.1
315.995	3.58
316.369	3.35
316.743	3.81
317.117	4.02
317.491	3.27
317.865	3.83
318.239	3.64
318.613	3.63
318.987	4.28
319.361	3.39
319.734	3.73
320.108	3.77
320.482	4.08
320.855	4.13
321.229	4.26
321.602	4.32
321.976	4
322.349	3.57
322.723	2.96
323.096	3.5
323.469	3.81
323.843	3.81
324.216	3.2
324.589	4.09
324.962	3.67
325.335	3.56
325.708	3.5
326.081	4.28
326.454	4.18
326.827	3.71
327.2	3.87
327.573	3.81
327.945	3.77
328.318	4.17
328.691	3.63
329.063	3.88
329.436	3.4
329.809	4.01
330.181	3.97
330.553	4.35
330.926	4.1
331.298	3.99
331.671	4.26
332.043	3.99
332.415	4.25
332.787	3.83
333.159	3.3
333.532	4.23
333.904	3.82
334.276	4.09
334.648	3.69
335.02	3.95
335.391	3.97
335.763	3.78
336.135	3.66
336.507	3.71
336.879	3.87
337.25	3.69
337.622	3.61
337.993	3.57
338.365	3.81
338.736	3.51
339.108	4.05
339.479	4.1
339.851	4.14
340.222	3.86
340.593	3.98
340.964	3.83
341.336	3.71
341.707	3.95
342.078	4.29
342.449	3.85
342.82	3.73
343.191	3.79
343.562	4.06
343.933	4.48
344.303	3.61
344.674	4.33
345.045	3.75
345.416	4.27
345.786	4.54
346.157	3.32
346.527	3.84
346.898	3.88
347.268	4.03
347.639	3.83
348.009	3.74
348.38	3.71
348.75	3.86
349.12	3.89
349.49	3.57
349.861	4.32
350.231	3.76
350.601	3.87
350.971	3.09
351.341	3.69
351.711	3.53
352.081	3.6
352.45	3.87
352.82	3.59
353.19	3.89
353.56	3.92
353.929	3.55
354.299	3.78
354.669	3.97
355.038	4.18
355.408	4.08
355.777	3.79
356.147	3.83
356.516	3.74
356.885	3.83
357.254	3.97
357.624	4.03
357.993	3.99
358.362	3.78
358.731	3.47
359.1	3.23
359.469	4
359.838	3.76
360.207	3.96
360.576	3.89
360.945	3.92
361.314	3.93
361.682	4.01
362.051	4.02
362.42	3.58
362.788	3.95
363.157	3.85
363.525	4.18
363.894	3.87
364.262	3.78
364.631	3.78
364.999	4.13
365.367	3.99
365.735	4.11
366.104	3.59
366.472	4
366.84	4.09
367.208	4.02
367.576	3.89
367.944	4.03
368.312	3.83
368.68	3.84
369.048	3.98
369.416	3.89
369.783	4.16
370.151	4.24
370.519	4
370.886	4.14
371.254	3.9
371.621	4.51
371.989	3.92
372.356	3.9
372.724	4.08
373.091	4.07
373.458	3.82
373.826	4.11
374.193	4.06
374.56	4.28
374.927	3.91
375.294	3.72
375.661	3.63
376.028	4.38
376.395	3.93
376.762	4.33
377.129	4.25
377.496	3.85
377.863	3.84
378.229	4.07
378.596	3.77
378.963	3.97
379.329	3.78
379.696	3.75
380.062	3.97
380.429	3.88
380.795	3.89
381.161	4.26
381.528	3.8
381.894	4.46
382.26	4.13
382.626	4
382.993	3.81
383.359	3.97
383.725	4.05
384.091	3.75
384.457	4.5
384.823	4.18
385.188	4.11
385.554	4.13
385.92	3.83
386.286	4.18
386.651	4.14
387.017	4.12
387.383	4.25
387.748	4.29
388.114	4.08
388.479	4.26
388.845	3.89
389.21	4.01
389.575	4.06
389.94	3.8
390.306	4.14
390.671	3.94
391.036	3.95
391.401	4.16
391.766	4.06
392.131	3.93
392.496	4.04
392.861	4.18
393.226	4
393.591	3.97
393.956	4.21
394.32	4.2
394.685	4.07
395.05	3.78
395.414	4.17
395.779	3.97
396.143	4.06
396.508	4.08
396.872	4.11
397.236	4.05
397.601	4.33
397.965	4.32
398.329	3.93
398.694	3.82
399.058	4.46
399.422	4.21
399.786	4.24
400.15	4
400.514	4.32
400.878	4.17
401.242	4.16
401.605	4.27
401.969	4.05
402.333	4.12
402.697	4.12
403.06	3.94
403.424	4.24
403.787	4.1
404.151	3.98
404.514	4.15
404.878	4.13
405.241	4.27
405.604	4.14
405.968	4.26
406.331	4.16
406.694	4.08
407.057	4.16
407.42	4.02
407.783	4.31
408.146	4.16
408.509	4.08
408.872	4.19
409.235	4.34
409.598	4.06
409.961	4.18
410.323	3.99
410.686	4.08
411.049	4.03
411.411	3.99
411.774	4.04
412.136	4.37
412.499	4.4
412.861	4.16
413.223	4.27
413.586	4.33
413.948	4.11
414.31	4.23
414.672	4.33
415.035	4.12
415.397	4.17
415.759	4.1
416.121	4.23
416.483	4.03
416.845	4.18
417.206	4.22
417.568	4.41
417.93	3.93
418.292	4.32
418.653	4.22
419.015	4.3
419.377	4.03
419.738	4.14
420.1	4.18
420.461	4.24
420.822	4.11
421.184	4.03
421.545	4.13
421.906	4.11
422.267	4.09
422.629	4.05
422.99	4.05
423.351	4.07
423.712	4.09
424.073	4.1
424.434	3.96
424.795	4.18
425.155	4.21
425.516	4.07
425.877	4.09
426.238	4.12
426.598	4.01
426.959	4.06
427.32	4.14
427.68	4.17
428.041	4.22
428.401	4.29
428.761	4.13
429.122	4.17
429.482	4.23
429.842	4.2
430.202	4.39
430.563	4.16
430.923	4.38
431.283	4.33
431.643	4.36
432.003	4.16
432.363	4.24
432.722	4.07
433.082	4.18
433.442	4.4
433.802	4.14
434.161	4.18
434.521	4.1
434.881	4.15
435.24	4.13
435.6	4.11
435.959	4.4
436.319	4.1
436.678	4.38
437.037	4.37
437.396	4.18
437.756	4.22
438.115	4.25
438.474	4.36
438.833	4.16
439.192	4.24
439.551	4.3
439.91	4.23
440.269	4.16
440.628	4.24
440.987	4.22
441.345	4.34
441.704	4.26
442.063	4.22
442.421	4.21
442.78	4.21
443.138	4.12
443.497	4.22
443.855	4.36
444.214	4.28
444.572	4.35
444.93	4.23
445.288	4.32
445.647	4.18
446.005	4.35
446.363	4.25
446.721	4.29
447.079	4.22
447.437	4.27
447.795	4.26
448.153	4.29
448.51	4.17
448.868	4.25
449.226	4.17
449.584	4.33
449.941	4.25
450.299	4.28
450.656	4.17
451.014	4.23
451.371	4.35
451.729	4.3
452.086	4.39
452.443	4.46
452.801	4.18
453.158	4.2
453.515	4.22
453.872	4.37
454.229	4.34
454.586	4.13
454.943	4.26
455.3	4.41
455.657	4.46
456.014	4.4
456.371	4.48
456.727	4.29
457.084	4.27
457.441	4.31
457.797	4.19
458.154	4.27
458.51	4.53
458.867	4.44
459.223	4.28
459.58	4.39
459.936	4.43
460.292	4.55
460.648	4.29
461.005	4.25
461.361	4.21
461.717	4.23
462.073	4.19
462.429	4.39
462.785	4.36
463.141	4.29
463.496	4.27
463.852	4.43
464.208	4.34
464.564	4.39
464.919	4.22
465.275	4.39
465.631	4.34
465.986	4.57
466.342	4.47
466.697	4.23
467.052	4.33
467.408	4.39
467.763	4.51
468.118	4.52
468.473	4.5
468.829	4.24
469.184	4.52
469.539	4.45
469.894	4.38
470.249	4.49
470.603	4.72
470.958	4.39
471.313	4.33
471.668	4.34
472.023	4.32
472.377	4.47
472.732	4.41
473.086	4.24
473.441	4.24
473.795	4.57
474.15	4.5
474.504	4.27
474.859	4.54
475.213	4.55
475.567	4.23
475.921	4.49
476.275	4.39
476.63	4.6
476.984	4.35
477.338	4.58
477.692	4.47
478.045	4.52
478.399	4.52
478.753	4.41
479.107	4.54
479.461	4.46
479.814	4.53
480.168	4.29
480.521	4.36
480.875	4.47
481.228	4.46
481.582	4.53
481.935	4.35
482.289	4.34
482.642	4.54
482.995	4.39
483.348	4.45
483.701	4.4
484.055	4.5
484.408	4.44
484.761	4.33
485.114	4.25
485.466	4.2
485.819	4.24
486.172	4.21
486.525	4.26
486.878	4.29
487.23	4.41
487.583	4.39
487.936	4.39
488.288	4.38
488.641	4.35
488.993	4.33
489.345	4.31
489.698	4.31
490.05	4.32
490.402	4.37
490.754	4.4
491.107	4.42
491.459	4.36
491.811	4.48
492.163	4.43
492.515	4.38
492.866	4.43
493.218	4.38
493.57	4.38
493.922	4.28
494.274	4.4
494.625	4.45
494.977	4.45
495.328	4.48
495.68	4.6
496.031	4.53
496.383	4.56
496.734	4.6
497.086	4.53
497.437	4.49
497.788	4.43
498.139	4.64
498.49	4.54
498.842	4.66
499.193	4.49
499.544	4.39
499.894	4.58
500.245	4.69
500.596	4.38
500.947	4.68
501.298	4.7
501.648	4.57
501.999	4.59
502.35	4.62
502.7	4.77
503.051	4.77
503.401	4.71
503.752	4.66
504.102	4.63
504.452	4.51
504.803	4.54
505.153	4.66
505.503	4.65
505.853	4.63
506.203	4.67
506.553	4.71
506.903	4.85
507.253	4.8
507.603	4.78
507.953	4.65
508.303	4.81
508.652	4.58
509.002	4.61
509.352	4.74
509.701	4.78
510.051	4.71
510.4	4.72
510.75	4.68
511.099	4.69
511.449	4.65
511.798	4.66
512.147	4.79
512.496	4.81
512.846	4.63
513.195	4.84
513.544	4.77
513.893	4.74
514.242	4.78
514.591	4.8
514.939	4.74
515.288	4.79
515.637	4.79
515.986	4.66
516.334	4.78
516.683	4.86
517.032	4.89
517.38	4.88
517.729	4.91
518.077	4.86
518.426	4.9
518.774	4.81
519.122	4.8
519.47	4.78
519.819	4.91
520.167	4.74
520.515	4.77
520.863	4.76
521.211	4.78
521.559	4.79
521.907	4.73
522.255	4.91
522.602	4.98
522.95	4.91
523.298	4.78
523.645	5.01
523.993	4.9
524.341	4.96
524.688	5.01
525.036	4.79
525.383	5
525.73	4.97
526.078	4.93
526.425	5.04
526.772	4.88
527.119	4.95
527.466	4.92
527.814	4.91
528.161	4.96
528.508	4.96
528.854	5.01
529.201	4.95
529.548	4.91
529.895	4.86
530.242	4.78
530.588	4.8
530.935	4.84
531.282	4.84
531.628	4.86
531.975	4.83
532.321	4.92
532.667	4.98
533.014	5.01
533.36	5.08
533.706	5.06
534.052	5.01
534.399	4.98
534.745	4.99
535.091	5
535.437	5.07
535.783	5.08
536.129	5.14
536.474	5.05
536.82	5.2
537.166	5.13
537.512	5.11
537.857	5.16
538.203	5.14
538.549	5.14
538.894	5.22
539.239	5.19
539.585	5.27
539.93	5.28
540.276	5.39
540.621	5.36
540.966	5.25
541.311	5.14
541.656	5.31
542.001	5.26
542.346	5.29
542.691	5.2
543.036	5.25
543.381	5.22
543.726	5.21
544.071	5.21
544.415	5.35
544.76	5.33
545.105	5.34
545.449	5.43
545.794	5.32
546.138	5.41
546.483	5.4
546.827	5.42
547.171	5.49
547.516	5.56
547.86	5.5
548.204	5.44
548.548	5.49
548.892	5.51
549.236	5.55
549.58	5.41
549.924	5.53
550.268	5.64
550.612	5.64
550.956	5.74
551.3	5.69
551.643	5.63
551.987	5.62
552.33	6
552.674	5.7
553.017	5.68
553.361	5.76
553.704	5.75
554.048	5.69
554.391	5.85
554.734	5.73
555.077	5.73
555.42	5.78
555.764	5.82
556.107	5.93
556.45	5.96
556.793	5.95
557.135	5.79
557.478	5.89
557.821	5.83
558.164	6.07
558.507	6.21
558.849	5.92
559.192	6.04
559.534	6
559.877	6.21
560.219	6.1
560.562	6.2
560.904	6.16
561.246	6.13
561.589	5.9
561.931	6.2
562.273	6.01
562.615	6.04
562.957	6.08
563.299	6.3
563.641	6.18
563.983	6.31
564.325	6.18
564.667	6.33
565.008	6.34
565.35	6.24
565.692	6.04
566.033	6.48
566.375	6.17
566.716	6.25
567.058	6.45
567.399	6.17
567.741	6.42
568.082	6.41
568.423	6.4
568.764	6.34
569.105	6.49
569.447	6.33
569.788	6.54
570.129	6.61
570.47	6.55
570.811	6.4
571.151	6.48
571.492	6.65
571.833	6.56
572.174	6.51
572.514	6.56
572.855	6.66
573.195	6.61
573.536	6.51
573.876	6.6
574.217	6.63
574.557	6.78
574.898	6.65
575.238	6.56
575.578	6.64
575.918	6.78
576.258	6.68
576.598	6.67
576.938	6.9
577.278	6.87
577.618	6.91
577.958	6.77
578.298	6.82
578.638	7.13
578.977	7.1
579.317	6.94
579.657	6.92
579.996	6.85
580.336	6.94
580.675	6.97
581.014	7.03
581.354	6.95
581.693	7.25
582.032	7.25
582.372	7.1
582.711	7.16
583.05	7.51
583.389	7.17
583.728	7.05
584.067	7.32
584.406	7.12
584.745	7.5
585.083	7.34
585.422	7.41
585.761	7.41
586.1	7.49
586.438	7.3
586.777	7.3
587.115	7.38
587.454	7.44
587.792	7.75
588.13	7.55
588.469	7.54
588.807	7.6
589.145	7.76
589.483	7.49
589.821	7.7
590.159	7.99
590.497	7.85
590.835	7.92
591.173	7.74
591.511	7.75
591.849	7.62
592.187	7.77
592.524	7.67
592.862	7.73
593.2	7.66
593.537	7.91
593.875	7.95
594.212	8.03
594.55	7.86
594.887	7.86
595.224	7.86
595.561	8.14
595.899	8.02
596.236	8.13
596.573	8.1
596.91	7.98
597.247	8.23
597.584	8.31
597.921	8.23
598.258	8.47
598.594	7.97
598.931	8.25
599.268	8.28
599.604	8.3
599.941	8.25
600.277	8.33
600.614	8.47
600.95	8.58
601.287	8.35
601.623	8.28
601.959	8.58
602.296	8.74
602.632	8.38
602.968	8.42
603.304	8.52
603.64	8.53
603.976	8.58
604.312	8.6
604.648	8.75
604.984	8.6
605.319	8.64
605.655	8.56
605.991	8.78
606.326	8.78
606.662	8.88
606.998	8.86
607.333	8.91
607.668	8.82
608.004	8.73
608.339	8.96
608.674	8.99
609.01	8.9
609.345	9.02
609.68	8.99
610.015	8.87
610.35	9.03
610.685	9.04
611.02	9.06
611.355	8.93
611.689	9.12
612.024	9.05
612.359	9.09
612.694	9.07
613.028	9.28
613.363	9.22
613.697	9.47
614.032	9.45
614.366	9.58
614.7	9.47
615.035	9.61
615.369	9.68
615.703	9.59
616.037	9.44
616.371	9.62
616.705	9.51
617.039	9.78
617.373	9.29
617.707	9.64
618.041	9.62
618.375	9.79
618.709	9.92
619.042	9.77
619.376	9.88
619.71	10
620.043	9.89
620.377	9.97
620.71	10.04
621.043	9.87
621.377	10.24
621.71	9.7
622.043	10.04
622.376	9.86
622.709	10.41
623.043	10.04
623.376	10.38
623.709	10.52
624.041	9.99
624.374	10.37
624.707	10.38
625.04	10.35
625.373	10.31
625.705	10.33
626.038	10.72
626.37	10.3
626.703	10.4
627.035	10.58
627.368	10.46
627.7	10.56
628.032	10.29
628.365	10.57
628.697	10.77
629.029	10.58
629.361	10.49
629.693	10.47
630.025	10.86
630.357	10.83
630.689	10.73
631.021	11.21
631.353	10.98
631.684	10.58
632.016	10.62
632.348	10.84
632.679	11.02
633.011	11.14
633.342	11
633.674	11.04
634.005	11.22
634.336	10.88
634.668	11.07
634.999	11.2
635.33	11.68
635.661	11.27
635.992	11.14
636.323	11.33
636.654	11.35
636.985	11.32
637.316	11.25
637.647	11.44
637.977	11.58
638.308	11.32
638.639	11.84
638.969	11.58
639.3	11.29
639.63	11.87
639.961	11.95
640.291	11.9
640.622	11.76
640.952	11.73
641.282	11.47
641.612	11.85
641.943	11.91
642.273	11.95
642.603	12.16
642.933	12.19
643.263	11.78
643.592	12.18
643.922	11.74
644.252	11.93
644.582	11.92
644.911	11.84
645.241	11.92
645.571	12.34
645.9	12.42
646.23	12.5
646.559	12.19
646.888	11.61
647.218	12.9
647.547	12.58
647.876	12.9
648.205	12.05
648.534	12.13
648.863	12.06
649.192	12.99
649.521	12.36
649.85	12.45
650.179	12.6
650.508	12.64
650.837	12.72
651.165	12.42
651.494	12.74
651.822	13.12
652.151	12.73
652.479	13.23
652.808	13.16
653.136	13.09
653.465	12.46
653.793	12.76
654.121	13.06
654.449	13.42
654.777	13.07
655.105	12.83
655.433	13.43
655.761	13.05
656.089	13.23
656.417	13.31
656.745	13.09
657.073	12.98
657.4	14
657.728	13.45
658.056	13.49
658.383	13.67
658.711	13.07
659.038	13.5
659.365	13.32
659.693	13.9
660.02	13.98
660.347	13.57
660.674	13.83
661.001	13.31
661.329	13.85
661.656	14.02
661.982	13.49
662.309	13.88
662.636	13.54
662.963	14
663.29	13.83
663.616	13.66
663.943	14.08
664.27	13.97
664.596	14.13
664.923	14.14
665.249	14.63
665.576	13.71
665.902	15.07
666.228	13.95
666.554	14.41
666.881	14.46
667.207	14.34
667.533	13.87
667.859	13.91
668.185	14.42
668.511	14.79
668.837	14.77
669.162	14.89
669.488	14.57
669.814	14.73
670.139	14.3
670.465	14.66
670.791	14.69
671.116	14.79
671.442	14.68
671.767	14.48
672.092	14.97
672.418	14.62
672.743	14.72
673.068	15.03
673.393	14.79
673.718	14.66
674.043	15.11
674.368	15.32
674.693	14.54
675.018	15.04
675.343	15.09
675.667	14.45
675.992	15.25
676.317	14.6
676.641	15.43
676.966	15.56
677.29	15.8
677.615	15.51
677.939	15.52
678.264	16.01
678.588	15.59
678.912	15.19
679.236	15.35
679.56	15.38
679.885	15.77
680.209	16.22
680.532	16.06
680.856	15.73
681.18	15.83
681.504	15.58
681.828	15.76
682.152	16.01
682.475	16.07
682.799	16.29
683.122	15.89
683.446	16.02
683.769	15.91
684.093	16.2
684.416	16.3
684.739	16.89
685.062	17.12
685.386	16.29
685.709	16.01
686.032	16.15
686.355	15.87
686.678	15.87
687.001	16.52
687.324	16.81
687.646	17.1
687.969	17.01
688.292	16.67
688.614	16.2
