Data from 0278_crown_Reflection__0__189.txt Node

Date: Fri Oct 20 22:12:11 CDT 2023
User: ToomeyLab
Spectrometer: FLMS14357
Trigger mode: 0
Integration Time (sec): 1.000000E-2
Scans to average: 100
Electric dark correction enabled: true
Nonlinearity correction enabled: false
Boxcar width: 0
XAxis mode: Wavelengths
Number of Pixels in Spectrum: 2048
>>>>>Begin Spectral Data<<<<<
189.047	-73.59
189.435	-73.59
189.823	-73.59
190.211	343.26
190.599	-1591.3
190.987	170.42
191.375	-196.04
191.763	109.98
192.151	-51.7
192.538	-41.83
192.926	305.81
193.314	57.23
193.702	55.81
194.089	35.34
194.477	107.97
194.864	-519.51
195.252	92.14
195.639	-65.65
196.027	-8.63
196.414	160.78
196.801	1060.26
197.189	85.5
197.576	-0.92
197.963	-582.47
198.351	85.24
198.738	-8.47
199.125	33.33
199.512	28.72
199.899	-18.99
200.286	-13.93
200.673	41.91
201.06	19.72
201.447	27.96
201.833	48.44
202.22	31.08
202.607	59.53
202.994	69.23
203.38	28.23
203.767	29.53
204.154	8.02
204.54	44.69
204.927	-9.3
205.313	15.9
205.699	66.84
206.086	15.01
206.472	39.08
206.858	30.41
207.245	-18.69
207.631	16.97
208.017	2.46
208.403	23.76
208.789	24.58
209.175	-14.04
209.561	16.77
209.947	-26.06
210.333	5.13
210.719	29.29
211.105	23.69
211.491	52.28
211.876	-32.48
212.262	0.64
212.648	40.1
213.034	14.02
213.419	-9.64
213.805	5.75
214.19	11.47
214.576	-2.78
214.961	29.12
215.346	14.04
215.732	3.38
216.117	-15.01
216.502	7.67
216.888	13.96
217.273	-0.75
217.658	23.27
218.043	14.73
218.428	3.98
218.813	20.15
219.198	1.91
219.583	-42.21
219.968	-26.02
220.353	5.3
220.738	1.03
221.122	-9.97
221.507	10.53
221.892	7.75
222.276	11.67
222.661	9.4
223.046	5.26
223.43	6.84
223.815	10.15
224.199	16.87
224.583	4.14
224.968	4.43
225.352	12.79
225.736	2.12
226.121	8.62
226.505	-3.57
226.889	4.83
227.273	6.67
227.657	6.3
228.041	6.12
228.425	1.45
228.809	3.76
229.193	3
229.577	6.97
229.961	3.17
230.344	1.7
230.728	1.12
231.112	2.19
231.495	1.93
231.879	2.5
232.263	3.52
232.646	0.64
233.03	0.19
233.413	0.14
233.797	0.93
234.18	1.32
234.563	2.45
234.946	3.35
235.33	3.95
235.713	2.84
236.096	2.23
236.479	1.85
236.862	1.88
237.245	3.16
237.628	0.66
238.011	2.44
238.394	0.91
238.777	4.41
239.16	2.09
239.543	3.12
239.925	4.66
240.308	2.67
240.691	2.1
241.073	2.51
241.456	2.95
241.838	1.88
242.221	3.18
242.603	2.22
242.986	2.6
243.368	2.77
243.75	2.36
244.133	1.89
244.515	1.7
244.897	1.68
245.279	1.84
245.661	1.77
246.043	1.27
246.425	1.25
246.807	1.79
247.189	1.46
247.571	1.43
247.953	1.17
248.335	2.09
248.717	1.65
249.098	1.43
249.48	1.44
249.862	1.81
250.243	1.74
250.625	1.79
251.006	2.43
251.388	1.71
251.769	1.95
252.151	1.23
252.532	2.3
252.913	1.25
253.295	0.22
253.676	1.95
254.057	1.88
254.438	1.51
254.819	1.59
255.2	2.12
255.581	2.01
255.962	1.19
256.343	1.74
256.724	1.94
257.105	1.3
257.486	1.88
257.867	1.87
258.247	2.05
258.628	1.72
259.009	2.16
259.389	1.74
259.77	1.34
260.15	2.37
260.531	1.71
260.911	1.98
261.292	1.46
261.672	1.79
262.052	1.73
262.432	1.82
262.813	1.65
263.193	1.7
263.573	1.45
263.953	1.29
264.333	1.6
264.713	1.63
265.093	2.25
265.473	1.69
265.853	2
266.233	2.37
266.612	1.93
266.992	2.24
267.372	1.6
267.752	2.19
268.131	2.23
268.511	1.95
268.89	2.27
269.27	1.48
269.649	1.45
270.029	1.51
270.408	1.76
270.787	2.15
271.167	1.14
271.546	1.93
271.925	2.25
272.304	2.31
272.683	1.73
273.062	1.92
273.441	1.67
273.82	1.91
274.199	1.7
274.578	1.85
274.957	2.01
275.336	1.91
275.715	1.73
276.093	1.63
276.472	1.86
276.851	1.89
277.229	1.88
277.608	1.19
277.986	1.52
278.365	2.15
278.743	1.57
279.122	1.74
279.5	1.56
279.878	1.4
280.257	1.77
280.635	1.53
281.013	1.97
281.391	2.22
281.769	1.7
282.147	1.02
282.525	1.64
282.903	1.73
283.281	1.41
283.659	1.72
284.037	1.98
284.415	0.99
284.792	1.69
285.17	1.51
285.548	1.69
285.925	1.47
286.303	1.02
286.68	1.52
287.058	2.08
287.435	2.16
287.813	1.3
288.19	1.41
288.567	1.44
288.945	2.02
289.322	2.07
289.699	1.37
290.076	2.32
290.453	1.85
290.83	1.55
291.207	2.24
291.584	1.55
291.961	1.24
292.338	1.73
292.715	1.78
293.092	1.53
293.469	1.77
293.845	1.53
294.222	1.48
294.599	1.29
294.975	2.2
295.352	1.78
295.728	1.87
296.105	1.49
296.481	1.56
296.858	1.64
297.234	2.01
297.61	1.56
297.986	1.44
298.363	1.66
298.739	1.55
299.115	1.64
299.491	1.59
299.867	1.62
300.243	1.41
300.619	1.74
300.995	1.11
301.371	1.7
301.746	1.41
302.122	1.41
302.498	1.11
302.874	1.21
303.249	1.89
303.625	1.82
304	1.83
304.376	1.49
304.751	1.59
305.127	1.29
305.502	2.12
305.878	1.59
306.253	1.65
306.628	1.79
307.003	1.35
307.378	1.62
307.754	1.98
308.129	1.84
308.504	2.15
308.879	1.51
309.254	2.19
309.629	1.54
310.003	1.07
310.378	1.79
310.753	1.58
311.128	2.19
311.502	1.83
311.877	1.84
312.252	1.49
312.626	1.77
313.001	1.91
313.375	1.75
313.75	1.76
314.124	1.49
314.498	1.78
314.873	1.14
315.247	1.69
315.621	1.54
315.995	1.84
316.369	1
316.743	1.74
317.117	1.96
317.491	1.56
317.865	2.12
318.239	2.53
318.613	1.56
318.987	1.59
319.361	0.73
319.734	1.69
320.108	1.04
320.482	2.06
320.855	1.83
321.229	2.12
321.602	2.02
321.976	1.41
322.349	2.43
322.723	2.12
323.096	1.73
323.469	1.84
323.843	1.79
324.216	1.92
324.589	2.04
324.962	2.12
325.335	1.86
325.708	1.76
326.081	2.09
326.454	1.82
326.827	1.86
327.2	2.23
327.573	2.04
327.945	1.64
328.318	1.49
328.691	1.69
329.063	2.29
329.436	1.87
329.809	2.49
330.181	2.36
330.553	1.93
330.926	2.13
331.298	1.34
331.671	1.84
332.043	1.75
332.415	1.34
332.787	1.97
333.159	1.38
333.532	1.95
333.904	2.2
334.276	1.95
334.648	1.82
335.02	2.05
335.391	1.56
335.763	2.19
336.135	1.69
336.507	1.78
336.879	1.76
337.25	2.07
337.622	2.02
337.993	2.41
338.365	1.53
338.736	2.05
339.108	1.71
339.479	2.08
339.851	2.11
340.222	1.73
340.593	1.23
340.964	1.97
341.336	2.16
341.707	2.03
342.078	2.14
342.449	1.58
342.82	1.45
343.191	1.54
343.562	1.73
343.933	1.74
344.303	1.97
344.674	2.06
345.045	2.07
345.416	2.29
345.786	1.79
346.157	1.88
346.527	1.59
346.898	1.8
347.268	2.22
347.639	2.27
348.009	1.53
348.38	2.22
348.75	2.41
349.12	2.03
349.49	1.97
349.861	2.51
350.231	1.8
350.601	1.78
350.971	2.08
351.341	2.01
351.711	2.13
352.081	1.91
352.45	1.97
352.82	1.96
353.19	2.2
353.56	2.12
353.929	1.9
354.299	2.02
354.669	1.75
355.038	2.13
355.408	2.2
355.777	1.92
356.147	1.87
356.516	1.83
356.885	1.81
357.254	2.02
357.624	2.12
357.993	1.66
358.362	1.88
358.731	1.73
359.1	1.4
359.469	1.9
359.838	2.25
360.207	2.09
360.576	2.14
360.945	1.7
361.314	2.05
361.682	1.98
362.051	1.85
362.42	1.92
362.788	2.27
363.157	2.08
363.525	1.62
363.894	1.92
364.262	1.99
364.631	2.3
364.999	1.95
365.367	2.03
365.735	2.05
366.104	1.91
366.472	2.12
366.84	2.26
367.208	1.97
367.576	1.91
367.944	1.84
368.312	2.14
368.68	2.08
369.048	1.95
369.416	2.05
369.783	2.23
370.151	1.71
370.519	1.79
370.886	2.15
371.254	2.03
371.621	2.34
371.989	1.9
372.356	2.25
372.724	2.24
373.091	1.78
373.458	2.08
373.826	1.94
374.193	2.02
374.56	1.92
374.927	2.21
375.294	2.14
375.661	2.1
376.028	2.09
376.395	2.36
376.762	1.93
377.129	1.98
377.496	2.05
377.863	2.17
378.229	2.46
378.596	2.03
378.963	2.12
379.329	2.12
379.696	2.22
380.062	2.21
380.429	2.04
380.795	1.83
381.161	1.85
381.528	2.47
381.894	1.97
382.26	2.04
382.626	2.18
382.993	2.12
383.359	2.13
383.725	2.18
384.091	2.03
384.457	2.26
384.823	2.04
385.188	2.66
385.554	2.26
385.92	2.21
386.286	2.43
386.651	1.81
387.017	2.14
387.383	2.06
387.748	2.24
388.114	1.78
388.479	2.09
388.845	2.18
389.21	2.12
389.575	1.9
389.94	2.07
390.306	1.91
390.671	2.06
391.036	2.12
391.401	2.11
391.766	2.22
392.131	2.01
392.496	2.45
392.861	2.24
393.226	2.07
393.591	1.98
393.956	2.16
394.32	2.47
394.685	1.88
395.05	2.32
395.414	2.28
395.779	1.95
396.143	2.09
396.508	2.13
396.872	2.2
397.236	2.2
397.601	2.01
397.965	2.09
398.329	1.9
398.694	2.43
399.058	2.02
399.422	2.1
399.786	2.24
400.15	2.07
400.514	1.97
400.878	2.2
401.242	2.29
401.605	2
401.969	1.98
402.333	2.14
402.697	2.32
403.06	2.06
403.424	2.21
403.787	2.14
404.151	1.85
404.514	2.32
404.878	2.28
405.241	2.26
405.604	2.11
405.968	2.06
406.331	2.21
406.694	2.19
407.057	1.94
407.42	2.4
407.783	2.23
408.146	2
408.509	1.97
408.872	2.32
409.235	2.07
409.598	2.27
409.961	2.22
410.323	2.07
410.686	1.92
411.049	2.04
411.411	2.13
411.774	2.17
412.136	2.36
412.499	2.26
412.861	2.15
413.223	2.27
413.586	2.02
413.948	2.43
414.31	2.5
414.672	2.07
415.035	2.07
415.397	2.35
415.759	2.25
416.121	2.12
416.483	2.25
416.845	2.07
417.206	2.23
417.568	2.16
417.93	2.18
418.292	1.98
418.653	2.32
419.015	2.07
419.377	1.98
419.738	2.18
420.1	2.03
420.461	2.07
420.822	2.12
421.184	2.04
421.545	2.05
421.906	2.01
422.267	1.97
422.629	2.1
422.99	1.91
423.351	2.16
423.712	2.09
424.073	2.14
424.434	1.94
424.795	2.12
425.155	2.12
425.516	2.05
425.877	2.12
426.238	2.01
426.598	2.14
426.959	2.01
427.32	2.1
427.68	2.06
428.041	2.12
428.401	2.15
428.761	2.09
429.122	2.01
429.482	2.14
429.842	2.04
430.202	2.13
430.563	2.22
430.923	2.34
431.283	2.17
431.643	2.18
432.003	2.29
432.363	2.02
432.722	2.29
433.082	2.12
433.442	2.06
433.802	2.19
434.161	2.13
434.521	2.23
434.881	2.23
435.24	1.99
435.6	2.01
435.959	2.18
436.319	2.13
436.678	2.26
437.037	2.01
437.396	2.31
437.756	2.15
438.115	2.07
438.474	2.28
438.833	2.37
439.192	2.13
439.551	2.03
439.91	2.19
440.269	2.24
440.628	2.23
440.987	2.27
441.345	2.12
441.704	2.15
442.063	2.2
442.421	2.13
442.78	2.07
443.138	2.23
443.497	2.21
443.855	2.26
444.214	2.07
444.572	2.23
444.93	2.21
445.288	2.15
445.647	2.27
446.005	1.97
446.363	2.13
446.721	2.22
447.079	2.23
447.437	2.2
447.795	2.05
448.153	2.19
448.51	2.13
448.868	2.13
449.226	2.01
449.584	2.12
449.941	2.13
450.299	2.14
450.656	2.11
451.014	2.16
451.371	2.08
451.729	2.08
452.086	2.18
452.443	2.13
452.801	2.16
453.158	2.27
453.515	2.21
453.872	2.14
454.229	2.36
454.586	2.17
454.943	2.13
455.3	2.06
455.657	2.28
456.014	2.08
456.371	2.11
456.727	2.38
457.084	2.23
457.441	2.14
457.797	2.3
458.154	2.14
458.51	2.2
458.867	2.19
459.223	2.19
459.58	2.15
459.936	2.13
460.292	2.19
460.648	2.03
461.005	2
461.361	2.17
461.717	2
462.073	2.12
462.429	2.12
462.785	2.17
463.141	2.27
463.496	2.09
463.852	2.14
464.208	2.3
464.564	2.27
464.919	2
465.275	2.31
465.631	2.16
465.986	2.2
466.342	2.28
466.697	2.23
467.052	2.09
467.408	2.24
467.763	2.29
468.118	2.45
468.473	2.23
468.829	2.18
469.184	2.14
469.539	2.12
469.894	2.22
470.249	2.26
470.603	2.23
470.958	2.17
471.313	2.31
471.668	2.22
472.023	2.32
472.377	2.26
472.732	2.13
473.086	2.23
473.441	2.44
473.795	2.35
474.15	2.25
474.504	2.19
474.859	2.13
475.213	2.37
475.567	2.31
475.921	2.27
476.275	2.23
476.63	2.32
476.984	2.22
477.338	2.18
477.692	2.18
478.045	2.19
478.399	2.22
478.753	2.34
479.107	2.21
479.461	2.19
479.814	2.37
480.168	2.31
480.521	2.27
480.875	2.27
481.228	2.32
481.582	2.19
481.935	2.13
482.289	2.21
482.642	2.19
482.995	2.09
483.348	2.18
483.701	2.18
484.055	2.2
484.408	2.13
484.761	2.02
485.114	2.07
485.466	2.07
485.819	2.04
486.172	1.96
486.525	1.98
486.878	2.02
487.23	2.04
487.583	2.09
487.936	2.1
488.288	2.12
488.641	2.18
488.993	2.04
489.345	2.1
489.698	2.08
490.05	2.07
490.402	2.07
490.754	2.09
491.107	2.05
491.459	2.11
491.811	2.13
492.163	2.16
492.515	2.18
492.866	2.15
493.218	2.06
493.57	2.08
493.922	2.06
494.274	2.1
494.625	2.14
494.977	2.12
495.328	2.19
495.68	2.23
496.031	2.07
496.383	2.19
496.734	2.2
497.086	2.25
497.437	2.2
497.788	2.1
498.139	2.36
498.49	2.23
498.842	2.18
499.193	2.17
499.544	2.24
499.894	2.22
500.245	2.12
500.596	2.17
500.947	2.22
501.298	2.25
501.648	2.21
501.999	2.13
502.35	2.24
502.7	2.37
503.051	2.22
503.401	2.29
503.752	2.14
504.102	2.21
504.452	2.2
504.803	2.19
505.153	2.3
505.503	2.26
505.853	2.31
506.203	2.17
506.553	2.17
506.903	2.22
507.253	2.29
507.603	2.2
507.953	2.23
508.303	2.27
508.652	2.27
509.002	2.27
509.352	2.18
509.701	2.25
510.051	2.19
510.4	2.2
510.75	2.29
511.099	2.18
511.449	2.24
511.798	2.28
512.147	2.18
512.496	2.2
512.846	2.18
513.195	2.27
513.544	2.16
513.893	2.18
514.242	2.24
514.591	2.26
514.939	2.2
515.288	2.23
515.637	2.29
515.986	2.21
516.334	2.16
516.683	2.22
517.032	2.11
517.38	2.12
517.729	2.34
518.077	2.24
518.426	2.14
518.774	2.11
519.122	2.26
519.47	2.25
519.819	2.17
520.167	2.1
520.515	2.14
520.863	2.21
521.211	2.18
521.559	2.24
521.907	2.17
522.255	2.11
522.602	2.26
522.95	2.19
523.298	2.25
523.645	2.21
523.993	2.23
524.341	2.18
524.688	2.26
525.036	2.28
525.383	2.15
525.73	2.27
526.078	2.27
526.425	2.23
526.772	2.16
527.119	2.12
527.466	2.18
527.814	2.24
528.161	2.21
528.508	2.09
528.854	2.2
529.201	2.17
529.548	2.19
529.895	2.13
530.242	2.09
530.588	2.05
530.935	2.04
531.282	2.11
531.628	2.13
531.975	2.1
532.321	2.14
532.667	2.22
533.014	2.16
533.36	2.18
533.706	2.19
534.052	2.18
534.399	2.14
534.745	2.04
535.091	2.15
535.437	2.15
535.783	2.17
536.129	2.22
536.474	2.18
536.82	2.24
537.166	2.14
537.512	2.26
537.857	2.24
538.203	2.22
538.549	2.33
538.894	2.12
539.239	2.17
539.585	2.28
539.93	2.17
540.276	2.33
540.621	2.22
540.966	2.27
541.311	2.26
541.656	2.29
542.001	2.33
542.346	2.22
542.691	2.12
543.036	2.2
543.381	2.1
543.726	2.09
544.071	2.13
544.415	2.17
544.76	2.12
545.105	2.29
545.449	2.18
545.794	2.21
546.138	2.16
546.483	2.2
546.827	2.24
547.171	2.31
547.516	2.25
547.86	2.3
548.204	2.19
548.548	2.23
548.892	2.22
549.236	2.23
549.58	2.13
549.924	2.17
550.268	2.3
550.612	2.21
550.956	2.42
551.3	2.25
551.643	2.34
551.987	2.45
552.33	2.27
552.674	2.22
553.017	2.29
553.361	2.41
553.704	2.44
554.048	2.34
554.391	2.31
554.734	2.44
555.077	2.27
555.42	2.21
555.764	2.25
556.107	2.35
556.45	2.35
556.793	2.24
557.135	2.27
557.478	2.34
557.821	2.39
558.164	2.39
558.507	2.29
558.849	2.41
559.192	2.39
559.534	2.5
559.877	2.27
560.219	2.37
560.562	2.37
560.904	2.21
561.246	2.34
561.589	2.35
561.931	2.36
562.273	2.51
562.615	2.48
562.957	2.41
563.299	2.28
563.641	2.43
563.983	2.22
564.325	2.25
564.667	2.31
565.008	2.24
565.35	2.27
565.692	2.44
566.033	2.41
566.375	2.33
566.716	2.42
567.058	2.37
567.399	2.37
567.741	2.32
568.082	2.38
568.423	2.4
568.764	2.26
569.105	2.45
569.447	2.32
569.788	2.3
570.129	2.32
570.47	2.4
570.811	2.45
571.151	2.26
571.492	2.52
571.833	2.59
572.174	2.38
572.514	2.41
572.855	2.41
573.195	2.34
573.536	2.28
573.876	2.57
574.217	2.35
574.557	2.42
574.898	2.14
575.238	2.12
575.578	2.23
575.918	2.31
576.258	2.36
576.598	2.38
576.938	2.31
577.278	2.41
577.618	2.14
577.958	2.25
578.298	2.56
578.638	2.5
578.977	2.4
579.317	2.47
579.657	2.35
579.996	2.47
580.336	2.44
580.675	2.3
581.014	2.38
581.354	2.41
581.693	2.32
582.032	2.55
582.372	2.55
582.711	2.6
583.05	2.54
583.389	2.33
583.728	2.32
584.067	2.58
584.406	2.44
584.745	2.43
585.083	2.39
585.422	2.43
585.761	2.3
586.1	2.59
586.438	2.14
586.777	2.43
587.115	2.66
587.454	2.5
587.792	2.65
588.13	2.7
588.469	2.6
588.807	2.12
589.145	2.46
589.483	2.28
589.821	2.43
590.159	2.56
590.497	2.48
590.835	2.36
591.173	2.52
591.511	2.35
591.849	2.28
592.187	2.31
592.524	2.25
592.862	2.35
593.2	2.41
593.537	2.23
593.875	2.35
594.212	2.48
594.55	2.47
594.887	2.46
595.224	2.42
595.561	2.33
595.899	2.43
596.236	2.59
596.573	2.51
596.91	2.53
597.247	2.44
597.584	2.19
597.921	2.58
598.258	2.47
598.594	2.77
598.931	2.35
599.268	2.39
599.604	2.5
599.941	2.42
600.277	2.38
600.614	2.42
600.95	2.39
601.287	2.31
601.623	2.45
601.959	2.53
602.296	2.56
602.632	2.44
602.968	2.22
603.304	2.59
603.64	2.11
603.976	2.65
604.312	2.68
604.648	2.63
604.984	2.73
605.319	2.43
605.655	2.33
605.991	2.31
606.326	2.48
606.662	2.23
606.998	2.43
607.333	2.28
607.668	2.25
608.004	2.53
608.339	2.42
608.674	2.43
609.01	2.61
609.345	2.71
609.68	2.61
610.015	2.29
610.35	2.6
610.685	2.6
611.02	2.47
611.355	2.23
611.689	2.39
612.024	2.59
612.359	2.39
612.694	2.65
613.028	2.56
613.363	2.31
613.697	2.47
614.032	2.47
614.366	2.47
614.7	2.68
615.035	2.61
615.369	2.74
615.703	2.41
616.037	2.61
616.371	2.35
616.705	2.76
617.039	2.5
617.373	2.46
617.707	2.53
618.041	2.61
618.375	2.43
618.709	2.27
619.042	2.25
619.376	2.61
619.71	2.75
620.043	2.71
620.377	2.39
620.71	2.74
621.043	2.94
621.377	2.43
621.71	2.49
622.043	2.53
622.376	2.72
622.709	2.71
623.043	2.58
623.376	2.57
623.709	2.48
624.041	2.4
624.374	2.5
624.707	2.48
625.04	2.55
625.373	2.78
625.705	2.57
626.038	2.6
626.37	2.19
626.703	2.67
627.035	2.32
627.368	2.67
627.7	2.88
628.032	2.5
628.365	2.75
628.697	2.55
629.029	2.33
629.361	2.47
629.693	2.6
630.025	2.61
630.357	2.42
630.689	2.57
631.021	3.09
631.353	2.6
631.684	2.52
632.016	2.68
632.348	2.39
632.679	2.51
633.011	2.54
633.342	2.46
633.674	2.52
634.005	2.58
634.336	2.83
634.668	2.56
634.999	2.32
635.33	2.45
635.661	2.93
635.992	2.78
636.323	2.69
636.654	2.8
636.985	2.26
637.316	2.56
637.647	2.49
637.977	2.36
638.308	2.38
638.639	2.83
638.969	3.11
639.3	2.49
639.63	2.38
639.961	2.53
640.291	2.52
640.622	2.37
640.952	2.65
641.282	2.37
641.612	2.54
641.943	2.78
642.273	2.41
642.603	2.69
642.933	2.73
643.263	2.69
643.592	2.69
643.922	2.57
644.252	2.34
644.582	2.76
644.911	2.54
645.241	2.95
645.571	3.1
645.9	2.52
646.23	2.64
646.559	2.35
646.888	2.97
647.218	2.79
647.547	2.25
647.876	2.98
648.205	3.18
648.534	2.58
648.863	2.46
649.192	2.6
649.521	2.97
649.85	3.13
650.179	2.54
650.508	2.22
650.837	2.7
651.165	2.77
651.494	2.13
651.822	2.4
652.151	2.76
652.479	2.25
652.808	2.62
653.136	2.54
653.465	2.85
653.793	2.77
654.121	3.28
654.449	3.02
654.777	2.28
655.105	2.45
655.433	3.35
655.761	3.22
656.089	2.89
656.417	2.98
656.745	2.78
657.073	2.56
657.4	3.6
657.728	3.21
658.056	2.78
658.383	2.52
658.711	2.54
659.038	3.15
659.365	3.19
659.693	2.69
660.02	2.98
660.347	2.99
660.674	2.5
661.001	2.82
661.329	2.67
661.656	2.78
661.982	2.77
662.309	2.83
662.636	2.99
662.963	2.85
663.29	2.96
663.616	2.97
663.943	2.16
664.27	2.57
664.596	2.8
664.923	2.8
665.249	3.05
665.576	2.94
665.902	3.08
666.228	3.29
666.554	3.11
666.881	2.43
667.207	2.69
667.533	2.33
667.859	3.33
668.185	3.04
668.511	3.22
668.837	3.09
669.162	3.2
669.488	2.74
669.814	2.36
670.139	2.85
670.465	2.68
670.791	3.12
671.116	2.88
671.442	2.79
671.767	2.68
672.092	3.34
672.418	2.47
672.743	2.79
673.068	2.98
673.393	3.12
673.718	3.23
674.043	2.69
674.368	3.18
674.693	2.91
675.018	3.27
675.343	2.81
675.667	3.29
675.992	2.69
676.317	3.12
676.641	3.06
676.966	3.02
677.29	2.23
677.615	2.73
677.939	2.95
678.264	2.6
678.588	2.07
678.912	2.94
679.236	2.63
679.56	3.02
679.885	3.24
680.209	2.93
680.532	2.62
680.856	2.94
681.18	3.49
681.504	3.08
681.828	3.12
682.152	3.21
682.475	2.68
682.799	3.26
683.122	2.57
683.446	2.76
683.769	2.79
684.093	3.28
684.416	2.86
684.739	2.35
685.062	1.97
685.386	2.78
685.709	2.56
686.032	2.68
686.355	2.96
686.678	3.09
687.001	3.56
687.324	2.92
687.646	3.08
687.969	3.79
688.292	3.33
688.614	2.57
688.937	2.92
689.26	2.74
689.582	2.64
689.904	2.26
690.227	3.32
690.549	3.11
690.871	2.91
691.194	3.44
691.516	3.28
691.838	3.72
692.16	3.25
