Data from 0278_crown_Reflection__4__193.txt Node

Date: Fri Oct 20 22:12:47 CDT 2023
User: ToomeyLab
Spectrometer: FLMS14357
Trigger mode: 0
Integration Time (sec): 1.000000E-2
Scans to average: 100
Electric dark correction enabled: true
Nonlinearity correction enabled: false
Boxcar width: 0
XAxis mode: Wavelengths
Number of Pixels in Spectrum: 2048
>>>>>Begin Spectral Data<<<<<
189.047	-23.42
189.435	-23.42
189.823	-23.42
190.211	248.99
190.599	-1238.13
190.987	82.59
191.375	-436.5
191.763	135.57
192.151	-102.68
192.538	-31.94
192.926	-943.23
193.314	10.66
193.702	76.5
194.089	72.38
194.477	42.21
194.864	3.99
195.252	59.51
195.639	456.83
196.027	123.8
196.414	4.41
196.801	-4.51
197.189	225.21
197.576	59.21
197.963	1559.36
198.351	34.66
198.738	23.21
199.125	25.51
199.512	24.6
199.899	14.74
200.286	-44.86
200.673	-1.99
201.06	5.39
201.447	-1.24
201.833	33.92
202.22	7.26
202.607	27.87
202.994	55.22
203.38	27.23
203.767	8.47
204.154	31.84
204.54	57.51
204.927	15.41
205.313	0.18
205.699	51.99
206.086	31.3
206.472	34.98
206.858	40.35
207.245	0.63
207.631	28.86
208.017	8.41
208.403	21.66
208.789	43.23
209.175	22.89
209.561	23.34
209.947	22.16
210.333	21.83
210.719	54.43
211.105	9.34
211.491	32.59
211.876	31.7
212.262	25.99
212.648	42.93
213.034	26.73
213.419	15.43
213.805	23.86
214.19	5.94
214.576	22.58
214.961	19.91
215.346	23.05
215.732	11.37
216.117	-29.93
216.502	26.11
216.888	5.36
217.273	-13.55
217.658	25.09
218.043	12.32
218.428	1.96
218.813	16.13
219.198	8.56
219.583	-14.82
219.968	-11.34
220.353	18.32
220.738	16.17
221.122	1.75
221.507	3.55
221.892	11.76
222.276	18.53
222.661	7.87
223.046	18.55
223.43	11.82
223.815	7.35
224.199	15.04
224.583	1.24
224.968	-2.37
225.352	6.72
225.736	4.03
226.121	8.42
226.505	9.94
226.889	11.36
227.273	12.56
227.657	10.43
228.041	10.57
228.425	6.98
228.809	6.77
229.193	8.4
229.577	10.84
229.961	7.99
230.344	7.1
230.728	6.12
231.112	7.93
231.495	7.3
231.879	6.69
232.263	7.2
232.646	6.45
233.03	6.4
233.413	6.47
233.797	6.01
234.18	8.66
234.563	9.98
234.946	9.38
235.33	8.87
235.713	7.08
236.096	9.19
236.479	8.28
236.862	8.31
237.245	6.03
237.628	6.89
238.011	8.76
238.394	7.31
238.777	8.84
239.16	6.38
239.543	8.3
239.925	8.52
240.308	6.79
240.691	4.82
241.073	8.45
241.456	8.04
241.838	6.89
242.221	7.42
242.603	6.68
242.986	6.93
243.368	7.16
243.75	6.94
244.133	6.66
244.515	6.61
244.897	6.66
245.279	7.15
245.661	6.94
246.043	7.39
246.425	6.69
246.807	7.11
247.189	6.49
247.571	5.08
247.953	6.7
248.335	6.67
248.717	6.69
249.098	6.5
249.48	6.41
249.862	6.53
250.243	6.76
250.625	6.9
251.006	6.75
251.388	6.74
251.769	7.07
252.151	6.65
252.532	6.53
252.913	6.8
253.295	6.22
253.676	6.15
254.057	6.72
254.438	6.19
254.819	6.87
255.2	5.88
255.581	6.88
255.962	6.19
256.343	7.63
256.724	5.47
257.105	6.63
257.486	5.61
257.867	6.44
258.247	6.54
258.628	6.23
259.009	5.67
259.389	6.19
259.77	6.16
260.15	5.98
260.531	5.94
260.911	6.27
261.292	5.88
261.672	6.04
262.052	6.28
262.432	5.96
262.813	5.89
263.193	6.18
263.573	6.21
263.953	5.85
264.333	6.12
264.713	7.01
265.093	6.1
265.473	6.79
265.853	5.38
266.233	5.64
266.612	6.54
266.992	6.1
267.372	5.58
267.752	5.53
268.131	6.6
268.511	6.04
268.89	6.06
269.27	6.09
269.649	5.47
270.029	5.94
270.408	6.19
270.787	6.22
271.167	5.65
271.546	6.5
271.925	6.17
272.304	6.08
272.683	5.68
273.062	5.94
273.441	5.98
273.82	5.83
274.199	6.02
274.578	6.03
274.957	6.09
275.336	5.97
275.715	5.83
276.093	5.76
276.472	6.11
276.851	6.13
277.229	5.77
277.608	5.61
277.986	5.31
278.365	5.58
278.743	5.29
279.122	6.21
279.5	5.3
279.878	5.37
280.257	5.82
280.635	5.27
281.013	5.83
281.391	5.76
281.769	5.28
282.147	5.35
282.525	5.69
282.903	5.51
283.281	5.76
283.659	5.65
284.037	6.11
284.415	5.09
284.792	5.43
285.17	5.1
285.548	5.72
285.925	5.17
286.303	5.39
286.68	5.31
287.058	6.07
287.435	5.79
287.813	5.06
288.19	5.44
288.567	5.58
288.945	5.78
289.322	5.86
289.699	5.21
290.076	5.81
290.453	5.69
290.83	4.85
291.207	5.92
291.584	5.27
291.961	5.23
292.338	5.09
292.715	5.37
293.092	5.59
293.469	5.93
293.845	5.54
294.222	5.23
294.599	5.09
294.975	5.92
295.352	4.78
295.728	5.4
296.105	5.09
296.481	5.32
296.858	5.25
297.234	5.38
297.61	4.88
297.986	5.32
298.363	5.53
298.739	5.35
299.115	5.4
299.491	5.39
299.867	5.42
300.243	5.19
300.619	5.2
300.995	4.95
301.371	5.48
301.746	5.32
302.122	5.68
302.498	5.15
302.874	5.74
303.249	5.3
303.625	5.76
304	5.81
304.376	4.99
304.751	5.02
305.127	4.93
305.502	5.81
305.878	5.18
306.253	5.42
306.628	5.38
307.003	5.51
307.378	5.47
307.754	5.53
308.129	5.69
308.504	5.67
308.879	5.53
309.254	5.63
309.629	5.17
310.003	5.01
310.378	5.34
310.753	5.28
311.128	5.71
311.502	5.27
311.877	5.02
312.252	5.3
312.626	5.76
313.001	4.92
313.375	5.34
313.75	5.58
314.124	5.06
314.498	5.23
314.873	5.26
315.247	5.74
315.621	5.81
315.995	5.45
316.369	5.1
316.743	5.5
317.117	5.4
317.491	5.06
317.865	5.45
318.239	6.07
318.613	5.55
318.987	5.28
319.361	4.55
319.734	4.85
320.108	4.95
320.482	5.43
320.855	5.59
321.229	5.57
321.602	5.12
321.976	4.92
322.349	5.94
322.723	5.25
323.096	4.82
323.469	5.44
323.843	5.89
324.216	5.54
324.589	5.43
324.962	5
325.335	5.3
325.708	5.4
326.081	5.44
326.454	5.22
326.827	5.65
327.2	5.16
327.573	5.3
327.945	5.59
328.318	5.24
328.691	5.4
329.063	5.98
329.436	5.49
329.809	5.76
330.181	5.31
330.553	5.01
330.926	4.95
331.298	4.96
331.671	5
332.043	5.26
332.415	5.3
332.787	5.3
333.159	5.18
333.532	5.34
333.904	5.38
334.276	4.9
334.648	5.43
335.02	5.7
335.391	5.34
335.763	5.54
336.135	5.6
336.507	5.6
336.879	5.06
337.25	5.18
337.622	5.43
337.993	5.58
338.365	5.52
338.736	5.19
339.108	5.8
339.479	5.48
339.851	5.43
340.222	5.52
340.593	4.88
340.964	5.28
341.336	5.48
341.707	5.35
342.078	5.37
342.449	5.2
342.82	5.44
343.191	5.26
343.562	5.4
343.933	5.23
344.303	5.39
344.674	5.51
345.045	5.58
345.416	5.7
345.786	5.23
346.157	5.01
346.527	5.63
346.898	5.41
347.268	5.3
347.639	5.49
348.009	4.98
348.38	5.46
348.75	5.63
349.12	5.42
349.49	5.33
349.861	6.05
350.231	5.44
350.601	5.44
350.971	5.61
351.341	5.17
351.711	5.85
352.081	5.55
352.45	5.1
352.82	5.26
353.19	5.84
353.56	5.68
353.929	5.32
354.299	5.39
354.669	5.48
355.038	5.79
355.408	5.82
355.777	5.29
356.147	5.45
356.516	5.55
356.885	5.45
357.254	5.59
357.624	5.17
357.993	5.21
358.362	5.72
358.731	5.16
359.1	4.97
359.469	5.18
359.838	5.62
360.207	5.47
360.576	5.75
360.945	5.18
361.314	5.45
361.682	5.45
362.051	5.12
362.42	5.36
362.788	5.66
363.157	5.48
363.525	5.25
363.894	5.51
364.262	5.33
364.631	5.53
364.999	5.53
365.367	5.59
365.735	5.36
366.104	5.18
366.472	5.5
366.84	5.58
367.208	5.47
367.576	5.43
367.944	5.57
368.312	5.58
368.68	5.44
369.048	5.66
369.416	5.57
369.783	5.65
370.151	5.47
370.519	5.67
370.886	5.85
371.254	5.96
371.621	5.61
371.989	5.35
372.356	5.82
372.724	5.56
373.091	5.48
373.458	5.62
373.826	5.59
374.193	5.59
374.56	5.29
374.927	5.69
375.294	5.57
375.661	5.67
376.028	6.2
376.395	5.86
376.762	5.71
377.129	5.86
377.496	5.8
377.863	5.72
378.229	5.9
378.596	5.83
378.963	5.71
379.329	5.87
379.696	5.62
380.062	5.81
380.429	5.57
380.795	5.71
381.161	5.5
381.528	5.83
381.894	5.64
382.26	5.55
382.626	5.62
382.993	5.79
383.359	5.63
383.725	5.69
384.091	5.71
384.457	5.71
384.823	5.83
385.188	6.13
385.554	5.79
385.92	5.67
386.286	5.88
386.651	5.74
387.017	5.88
387.383	5.76
387.748	5.64
388.114	5.68
388.479	5.8
388.845	5.84
389.21	5.73
389.575	5.44
389.94	5.57
390.306	5.5
390.671	5.93
391.036	5.66
391.401	6
391.766	6.09
392.131	5.66
392.496	5.9
392.861	5.95
393.226	5.7
393.591	5.78
393.956	5.89
394.32	5.83
394.685	5.81
395.05	6.06
395.414	6
395.779	5.54
396.143	5.83
396.508	5.81
396.872	6.06
397.236	5.73
397.601	5.74
397.965	5.61
398.329	5.67
398.694	5.86
399.058	5.84
399.422	5.91
399.786	5.7
400.15	5.64
400.514	5.77
400.878	6.06
401.242	5.98
401.605	5.78
401.969	5.53
402.333	5.71
402.697	5.85
403.06	5.89
403.424	5.87
403.787	5.78
404.151	6.05
404.514	6.03
404.878	5.83
405.241	6.03
405.604	5.7
405.968	5.98
406.331	5.79
406.694	5.91
407.057	5.86
407.42	5.97
407.783	5.91
408.146	5.83
408.509	6.01
408.872	6.13
409.235	6.07
409.598	5.9
409.961	5.99
410.323	5.85
410.686	5.72
411.049	6
411.411	5.95
411.774	6.09
412.136	5.86
412.499	5.95
412.861	5.98
413.223	5.81
413.586	5.92
413.948	6.13
414.31	6.24
414.672	5.68
415.035	6.14
415.397	6.02
415.759	6.18
416.121	6.07
416.483	6.05
416.845	6.01
417.206	6.1
417.568	6.08
417.93	5.93
418.292	5.92
418.653	5.89
419.015	5.8
419.377	5.71
419.738	5.95
420.1	5.95
420.461	5.88
420.822	5.77
421.184	5.76
421.545	5.93
421.906	5.92
422.267	5.82
422.629	5.81
422.99	5.76
423.351	5.8
423.712	5.81
424.073	5.84
424.434	5.7
424.795	5.87
425.155	5.75
425.516	5.86
425.877	5.74
426.238	5.75
426.598	5.83
426.959	5.75
427.32	5.86
427.68	5.88
428.041	5.92
428.401	5.89
428.761	5.88
429.122	5.85
429.482	5.89
429.842	5.97
430.202	5.98
430.563	5.91
430.923	6.07
431.283	5.96
431.643	6.09
432.003	6.03
432.363	6.12
432.722	5.97
433.082	5.91
433.442	5.72
433.802	5.97
434.161	5.72
434.521	6.07
434.881	5.83
435.24	6.01
435.6	5.88
435.959	6.03
436.319	5.96
436.678	5.98
437.037	6.02
437.396	6.09
437.756	6.23
438.115	5.88
438.474	6.11
438.833	5.96
439.192	5.9
439.551	5.86
439.91	5.91
440.269	6.15
440.628	6.1
440.987	6.08
441.345	5.87
441.704	5.96
442.063	5.93
442.421	5.96
442.78	5.89
443.138	6.05
443.497	5.97
443.855	6.01
444.214	5.88
444.572	5.96
444.93	6.05
445.288	5.91
445.647	6.14
446.005	5.82
446.363	5.93
446.721	6.04
447.079	6.01
447.437	6.06
447.795	5.83
448.153	5.86
448.51	5.94
448.868	5.92
449.226	5.93
449.584	5.97
449.941	5.85
450.299	5.99
450.656	5.88
451.014	6.08
451.371	6.05
451.729	5.87
452.086	5.98
452.443	6.01
452.801	5.86
453.158	6.03
453.515	5.96
453.872	6.07
454.229	6.2
454.586	6.01
454.943	6.05
455.3	5.93
455.657	6.06
456.014	5.89
456.371	5.91
456.727	6.13
457.084	6.05
457.441	6.12
457.797	6.06
458.154	6.01
458.51	5.98
458.867	5.97
459.223	6.03
459.58	5.93
459.936	5.9
460.292	6.03
460.648	5.81
461.005	5.96
461.361	6.02
461.717	5.7
462.073	5.89
462.429	5.85
462.785	5.87
463.141	6.02
463.496	6.02
463.852	5.99
464.208	6.18
464.564	6.17
464.919	6.04
465.275	6.2
465.631	6.16
465.986	6.11
466.342	6.22
466.697	6.12
467.052	6.17
467.408	6.02
467.763	6.06
468.118	6.33
468.473	6.18
468.829	6.06
469.184	6.05
469.539	5.93
469.894	6.16
470.249	6.02
470.603	6.03
470.958	6.13
471.313	6.2
471.668	6.03
472.023	6.19
472.377	6.17
472.732	5.88
473.086	6.17
473.441	6.02
473.795	6.25
474.15	6.05
474.504	5.96
474.859	6.05
475.213	6.17
475.567	6.07
475.921	6.13
476.275	6.02
476.63	6.1
476.984	6.05
477.338	6.07
477.692	6.09
478.045	6.24
478.399	6.11
478.753	6.12
479.107	6.12
479.461	6.13
479.814	6.14
480.168	6.11
480.521	6.03
480.875	6.01
481.228	5.95
481.582	6.12
481.935	6.13
482.289	6.13
482.642	6.07
482.995	6.04
483.348	6.02
483.701	5.99
484.055	5.92
484.408	5.93
484.761	5.99
485.114	5.88
485.466	5.78
485.819	5.66
486.172	5.6
486.525	5.62
486.878	5.68
487.23	5.73
487.583	5.76
487.936	5.85
488.288	5.89
488.641	5.89
488.993	5.8
489.345	5.78
489.698	5.77
490.05	5.72
490.402	5.75
490.754	5.72
491.107	5.75
491.459	5.85
491.811	5.93
492.163	5.92
492.515	5.93
492.866	5.92
493.218	5.83
493.57	5.75
493.922	5.76
494.274	5.82
494.625	5.76
494.977	5.8
495.328	5.91
495.68	6.02
496.031	5.86
496.383	6.03
496.734	6.06
497.086	6.04
497.437	6.1
497.788	6.01
498.139	6.11
498.49	6
498.842	5.91
499.193	6.1
499.544	6.04
499.894	6.14
500.245	5.91
500.596	6.02
500.947	6.09
501.298	6.09
501.648	6.01
501.999	6.1
502.35	6.03
502.7	6.16
503.051	6.06
503.401	6.11
503.752	6.19
504.102	6.16
504.452	6.05
504.803	6.03
505.153	6.08
505.503	6.17
505.853	6.19
506.203	6.02
506.553	6.03
506.903	6.06
507.253	6.09
507.603	6.11
507.953	6.06
508.303	6
508.652	6.23
509.002	6.23
509.352	6.1
509.701	6.16
510.051	6.03
510.4	6.06
510.75	6.09
511.099	6.05
511.449	6.05
511.798	6.12
512.147	6.08
512.496	6.02
512.846	5.96
513.195	6.04
513.544	6.04
513.893	6.04
514.242	6.02
514.591	6.08
514.939	6.1
515.288	6.05
515.637	6.09
515.986	6.11
516.334	6.18
516.683	6.1
517.032	6.04
517.38	6.08
517.729	6.05
518.077	6.08
518.426	5.99
518.774	6.01
519.122	6.1
519.47	6.05
519.819	6.02
520.167	5.9
520.515	5.98
520.863	5.98
521.211	5.92
521.559	6.05
521.907	5.99
522.255	6
522.602	6.2
522.95	6.02
523.298	5.95
523.645	6.06
523.993	6.08
524.341	6.14
524.688	6.13
525.036	6.25
525.383	5.99
525.73	6.15
526.078	6.17
526.425	6.16
526.772	6.14
527.119	6.15
527.466	6
527.814	5.96
528.161	5.99
528.508	5.98
528.854	5.99
529.201	5.92
529.548	5.99
529.895	5.94
530.242	5.95
530.588	5.84
530.935	5.84
531.282	5.88
531.628	5.86
531.975	5.81
532.321	5.84
532.667	5.93
533.014	5.94
533.36	6.01
533.706	6.06
534.052	6
534.399	6.01
534.745	5.9
535.091	5.95
535.437	6.01
535.783	5.91
536.129	5.99
536.474	6.03
536.82	6
537.166	6.08
537.512	6.17
537.857	6.07
538.203	6.05
538.549	6.16
538.894	5.92
539.239	6.02
539.585	6.01
539.93	6.02
540.276	6.06
540.621	6.2
540.966	6.18
541.311	6.34
541.656	6.29
542.001	6.17
542.346	6.17
542.691	6.06
543.036	6.05
543.381	5.96
543.726	5.88
544.071	5.95
544.415	5.95
544.76	5.92
545.105	6.06
545.449	5.97
545.794	6.01
546.138	6
546.483	6.11
546.827	6.19
547.171	6.21
547.516	6.03
547.86	6.15
548.204	6.14
548.548	6.13
548.892	6.15
549.236	6.17
549.58	6.07
549.924	6.07
550.268	6.31
550.612	6.28
550.956	6.34
551.3	6.36
551.643	6.3
551.987	6.3
552.33	6.3
552.674	6.21
553.017	6.34
553.361	6.3
553.704	6.46
554.048	6.29
554.391	6.31
554.734	6.44
555.077	6.21
555.42	6.19
555.764	6.24
556.107	6.43
556.45	6.29
556.793	6.13
557.135	6.19
557.478	6.29
557.821	6.18
558.164	6.39
558.507	6.28
558.849	6.44
559.192	6.39
559.534	6.46
559.877	6.24
560.219	6.51
560.562	6.3
560.904	6.25
561.246	6.56
561.589	6.08
561.931	6.42
562.273	6.49
562.615	6.37
562.957	6.45
563.299	6.45
563.641	6.31
563.983	6.23
564.325	6.22
564.667	6.41
565.008	6.37
565.35	6.41
565.692	6.29
566.033	6.47
566.375	6.27
566.716	6.38
567.058	6.43
567.399	6.47
567.741	6.4
568.082	6.29
568.423	6.31
568.764	6.16
569.105	6.46
569.447	6.15
569.788	6.43
570.129	6.24
570.47	6.5
570.811	6.49
571.151	6.27
571.492	6.36
571.833	6.41
572.174	6.58
572.514	6.26
572.855	6.42
573.195	6.4
573.536	6.26
573.876	6.45
574.217	6.15
574.557	6.32
574.898	6.11
575.238	6.26
575.578	6.41
575.918	6.2
576.258	6.29
576.598	6.44
576.938	6.4
577.278	6.33
577.618	6.09
577.958	6.29
578.298	6.32
578.638	6.29
578.977	6.42
579.317	6.28
579.657	6.42
579.996	6.44
580.336	6.31
580.675	6.27
581.014	6.41
581.354	6.27
581.693	6.36
582.032	6.43
582.372	6.24
582.711	6.51
583.05	6.67
583.389	6.28
583.728	6.35
584.067	6.48
584.406	6.44
584.745	6.39
585.083	6.35
585.422	6.41
585.761	6.3
586.1	6.64
586.438	6.27
586.777	6.35
587.115	6.5
587.454	6.72
587.792	6.4
588.13	6.56
588.469	6.39
588.807	6.07
589.145	6.47
589.483	6.29
589.821	6.43
590.159	6.6
590.497	6.47
590.835	6.41
591.173	6.46
591.511	6.44
591.849	6.47
592.187	6.37
592.524	6.17
592.862	6.32
593.2	6.39
593.537	6.48
593.875	6.46
594.212	6.42
594.55	6.57
594.887	6.6
595.224	6.6
595.561	6.37
595.899	6.46
596.236	6.47
596.573	6.34
596.91	6.4
597.247	6.37
597.584	6.31
597.921	6.58
598.258	6.56
598.594	6.54
598.931	6.38
599.268	6.33
599.604	6.49
599.941	6.37
600.277	6.43
600.614	6.54
600.95	6.26
601.287	6.43
601.623	6.54
601.959	6.45
602.296	6.5
602.632	6.51
602.968	6.33
603.304	6.65
603.64	6.23
603.976	6.51
604.312	6.62
604.648	6.59
604.984	6.84
605.319	6.5
605.655	6.46
605.991	6.47
606.326	6.31
606.662	6.29
606.998	6.26
607.333	6.31
607.668	6.06
608.004	6.44
608.339	6.55
608.674	6.6
609.01	6.43
609.345	6.44
609.68	6.6
610.015	6.39
610.35	6.5
610.685	6.53
611.02	6.61
611.355	6.21
611.689	6.53
612.024	6.37
612.359	6.39
612.694	6.41
613.028	6.5
613.363	6.34
613.697	6.3
614.032	6.49
614.366	6.37
614.7	6.33
615.035	6.8
615.369	6.37
615.703	6.35
616.037	6.74
616.371	6.71
616.705	6.51
617.039	6.53
617.373	6.34
617.707	6.76
618.041	6.59
618.375	6.38
618.709	6.26
619.042	6.63
619.376	6.48
619.71	6.6
620.043	6.88
620.377	6.5
620.71	6.75
621.043	6.86
621.377	6.36
621.71	6.61
622.043	6.58
622.376	6.85
622.709	6.57
623.043	6.62
623.376	6.44
623.709	6.44
624.041	6.66
624.374	6.57
624.707	6.25
625.04	6.6
625.373	6.78
625.705	6.58
626.038	6.81
626.37	6.33
626.703	6.46
627.035	6.29
627.368	6.64
627.7	6.77
628.032	6.47
628.365	6.77
628.697	6.5
629.029	6.39
629.361	6.24
629.693	6.45
630.025	6.65
630.357	6.57
630.689	6.7
631.021	6.91
631.353	6.25
631.684	6.25
632.016	6.87
632.348	6.71
632.679	6.23
633.011	6.81
633.342	6.37
633.674	6.66
634.005	6.82
634.336	7.18
634.668	6.67
634.999	6.7
635.33	6.42
635.661	6.72
635.992	6.87
636.323	6.92
636.654	6.68
636.985	6.5
637.316	6.75
637.647	6.36
637.977	6.49
638.308	6.78
638.639	6.73
638.969	6.59
639.3	6.35
639.63	6.59
639.961	6.86
640.291	6.41
640.622	6.51
640.952	6.97
641.282	6.86
641.612	6.53
641.943	6.75
642.273	6.52
642.603	6.86
642.933	6.48
643.263	6.99
643.592	6.51
643.922	6.93
644.252	6.63
644.582	6.66
644.911	6.66
645.241	6.87
645.571	6.91
645.9	6.63
646.23	6.89
646.559	6.66
646.888	6.93
647.218	6.58
647.547	7
647.876	6.57
648.205	6.68
648.534	6.36
648.863	6.96
649.192	6.69
649.521	6.55
649.85	6.91
650.179	6.64
650.508	6.81
650.837	7.19
651.165	7.07
651.494	6.56
651.822	6.94
652.151	7
652.479	6.77
652.808	6.8
653.136	6.96
653.465	7.08
653.793	6.72
654.121	7.02
654.449	7.04
654.777	6.86
655.105	6.76
655.433	7.3
655.761	6.65
656.089	6.78
656.417	7.14
656.745	6.79
657.073	7.22
657.4	7.8
657.728	7.24
658.056	7.19
658.383	6.53
658.711	6.7
659.038	7.34
659.365	7.05
659.693	6.95
660.02	6.85
660.347	6.76
660.674	6.89
661.001	6.63
661.329	7.05
661.656	6.94
661.982	6.83
662.309	6.87
662.636	6.8
662.963	6.96
663.29	7.23
663.616	6.87
663.943	6.6
664.27	6.92
664.596	6.73
664.923	7.04
665.249	7.02
665.576	6.63
665.902	7.16
666.228	7.41
666.554	7.12
666.881	6.4
667.207	6.9
667.533	7.01
667.859	7.56
668.185	7.06
668.511	6.96
668.837	7.28
669.162	7.26
669.488	6.72
669.814	6.41
670.139	7
670.465	6.77
670.791	7.17
671.116	7.25
671.442	7.44
671.767	6.85
672.092	7.27
672.418	6.87
672.743	7.43
673.068	7.38
673.393	6.67
673.718	6.59
674.043	6.95
674.368	7.27
674.693	7.26
675.018	7.62
675.343	6.73
675.667	6.8
675.992	7.14
676.317	6.69
676.641	7.37
676.966	7.45
677.29	7.44
677.615	7.52
677.939	7.4
678.264	7.54
678.588	6.5
678.912	7.55
679.236	7.08
679.56	7.02
679.885	7.32
680.209	7.07
680.532	6.44
680.856	6.76
681.18	7.23
681.504	7.18
681.828	7.54
682.152	6.95
682.475	6.47
682.799	7.02
683.122	6.85
683.446	7.33
683.769	7.16
684.093	7.14
684.416	7.16
684.739	6.59
685.062	6.34
685.386	7.02
685.709	6.88
686.032	7.21
686.355	7.81
686.678	7.2
687.001	6.95
687.324	7.37
687.646	7.44
687.969	7.99
688.292	7.44
688.614	7.75
688.937	7.32
689.26	6.96
689.582	6.92
689.904	6.84
690.227	7.4
690.549	8.02
690.871	7.69
691.194	7.62
691.516	7.87
691.838	8.22
692.16	7.32
692.482	7.04
692.804	7.18
693.126	6.98
