Data from 0278_crown_Reflection__3__192.txt Node

Date: Fri Oct 20 22:12:38 CDT 2023
User: ToomeyLab
Spectrometer: FLMS14357
Trigger mode: 0
Integration Time (sec): 1.000000E-2
Scans to average: 100
Electric dark correction enabled: true
Nonlinearity correction enabled: false
Boxcar width: 0
XAxis mode: Wavelengths
Number of Pixels in Spectrum: 2048
>>>>>Begin Spectral Data<<<<<
189.047	58.87
189.435	58.87
189.823	58.87
190.211	66.2
190.599	33.78
190.987	110.85
191.375	-212.3
191.763	206.07
192.151	131.72
192.538	-12.02
192.926	-3124.52
193.314	19.14
193.702	-8.77
194.089	52.98
194.477	247.27
194.864	519.35
195.252	12.1
195.639	157.85
196.027	72.8
196.414	237.78
196.801	-122.78
197.189	31.21
197.576	135.16
197.963	817.93
198.351	50.35
198.738	43.62
199.125	43.41
199.512	41.84
199.899	9.17
200.286	3.67
200.673	6.5
201.06	25.74
201.447	11.28
201.833	30.01
202.22	31.72
202.607	55.85
202.994	40.08
203.38	24.3
203.767	8.39
204.154	21.5
204.54	46.58
204.927	25.22
205.313	10.18
205.699	42.01
206.086	32.36
206.472	40.53
206.858	44.58
207.245	11.95
207.631	27.44
208.017	22.68
208.403	18.15
208.789	29.39
209.175	6.57
209.561	3.66
209.947	-4.59
210.333	2.23
210.719	23.81
211.105	29.96
211.491	42.87
211.876	28.74
212.262	31.85
212.648	39
213.034	9.78
213.419	6.63
213.805	21.8
214.19	3.42
214.576	-15.89
214.961	29.36
215.346	30.27
215.732	37.51
216.117	-34.4
216.502	-4.81
216.888	-11.17
217.273	18.83
217.658	18.16
218.043	35.3
218.428	-4.43
218.813	14.69
219.198	12.85
219.583	-27.59
219.968	15.81
220.353	27.42
220.738	27.34
221.122	10.48
221.507	24.65
221.892	13.04
222.276	20.14
222.661	19.4
223.046	-0.99
223.43	4.62
223.815	16.84
224.199	13.53
224.583	5.93
224.968	-2.22
225.352	4.49
225.736	-1.65
226.121	13.99
226.505	6.28
226.889	17.87
227.273	7.71
227.657	15.76
228.041	15.06
228.425	7.66
228.809	10.58
229.193	9.32
229.577	11.54
229.961	9.1
230.344	8.53
230.728	8.7
231.112	10.14
231.495	9.04
231.879	9.55
232.263	9.07
232.646	8.43
233.03	8.63
233.413	8.95
233.797	9.2
234.18	9.77
234.563	8.68
234.946	10.8
235.33	8.73
235.713	9.78
236.096	9.3
236.479	8.45
236.862	10.38
237.245	8.66
237.628	8.78
238.011	9.65
238.394	8.23
238.777	9.84
239.16	8.75
239.543	10.73
239.925	9.09
240.308	8.09
240.691	8.98
241.073	8.77
241.456	9.45
241.838	9.35
242.221	8.3
242.603	8.68
242.986	8.77
243.368	8.87
243.75	7.54
244.133	7.55
244.515	7.98
244.897	8.25
245.279	8.16
245.661	7.86
246.043	7.85
246.425	8.15
246.807	8.59
247.189	8.28
247.571	7.77
247.953	7.74
248.335	8.1
248.717	7.42
249.098	7.37
249.48	7.63
249.862	7.81
250.243	8.13
250.625	7.46
251.006	7.99
251.388	8
251.769	7.46
252.151	6.82
252.532	7.4
252.913	6.75
253.295	7.04
253.676	8.17
254.057	7.48
254.438	7.49
254.819	7.65
255.2	7.05
255.581	6.92
255.962	7.57
256.343	7.32
256.724	7.04
257.105	7.7
257.486	7.94
257.867	8.32
258.247	7.96
258.628	7.51
259.009	6.61
259.389	7.51
259.77	6.69
260.15	7.2
260.531	7.12
260.911	7.48
261.292	6.94
261.672	6.94
262.052	7.06
262.432	7.01
262.813	6.94
263.193	7.05
263.573	6.74
263.953	6.92
264.333	7.57
264.713	7.09
265.093	7.43
265.473	7.37
265.853	6.54
266.233	7.07
266.612	6.88
266.992	6.63
267.372	6.87
267.752	6.88
268.131	7.21
268.511	6.78
268.89	6.69
269.27	6.74
269.649	6.09
270.029	6.25
270.408	6.9
270.787	7.38
271.167	6.45
271.546	6.63
271.925	6.7
272.304	7.13
272.683	6.7
273.062	6.88
273.441	6.9
273.82	6.77
274.199	6.89
274.578	6.18
274.957	6.85
275.336	6.8
275.715	6.72
276.093	6.45
276.472	6.89
276.851	7.24
277.229	6.81
277.608	5.99
277.986	6.33
278.365	6.56
278.743	6.39
279.122	6.54
279.5	6.47
279.878	6.34
280.257	6.34
280.635	6.62
281.013	6.78
281.391	6.73
281.769	6.36
282.147	6.26
282.525	6.48
282.903	6.02
283.281	6.22
283.659	6.64
284.037	6.18
284.415	6.07
284.792	6.26
285.17	6.49
285.548	6.39
285.925	6.09
286.303	6.12
286.68	6.66
287.058	6.59
287.435	6.17
287.813	5.69
288.19	6.41
288.567	6.3
288.945	6.41
289.322	6.69
289.699	5.63
290.076	6.48
290.453	6.11
290.83	5.86
291.207	6.77
291.584	6.3
291.961	6.01
292.338	6.13
292.715	6.19
293.092	6.26
293.469	6.33
293.845	5.91
294.222	6.13
294.599	6.42
294.975	6.67
295.352	5.99
295.728	6.03
296.105	6.08
296.481	6.29
296.858	6.3
297.234	6.23
297.61	5.43
297.986	5.8
298.363	6.08
298.739	5.97
299.115	5.86
299.491	6.05
299.867	6.08
300.243	6.2
300.619	6.03
300.995	6.03
301.371	6.4
301.746	6.17
302.122	6.46
302.498	5.7
302.874	6.38
303.249	6.41
303.625	6.55
304	6.42
304.376	5.79
304.751	5.68
305.127	5.92
305.502	6.65
305.878	6.59
306.253	6.17
306.628	5.99
307.003	6.15
307.378	5.94
307.754	6.4
308.129	6.76
308.504	6.18
308.879	6.3
309.254	6.65
309.629	5.83
310.003	5.76
310.378	6.75
310.753	6.45
311.128	5.81
311.502	6.34
311.877	6.43
312.252	6.18
312.626	6.49
313.001	6.2
313.375	6.24
313.75	6.23
314.124	5.87
314.498	6.24
314.873	5.98
315.247	6.52
315.621	6.51
315.995	6.55
316.369	6.01
316.743	6.42
317.117	6.11
317.491	5.6
317.865	6.3
318.239	6.61
318.613	6.54
318.987	6.23
319.361	5.95
319.734	5.88
320.108	5.85
320.482	6.54
320.855	5.95
321.229	6.56
321.602	5.91
321.976	6
322.349	6.18
322.723	6.04
323.096	5.85
323.469	5.98
323.843	6.34
324.216	5.8
324.589	5.97
324.962	6.71
325.335	6.78
325.708	6.4
326.081	6.38
326.454	6.77
326.827	5.89
327.2	6.39
327.573	6.46
327.945	6.64
328.318	6.07
328.691	6.08
329.063	6.39
329.436	6.25
329.809	6.38
330.181	6.39
330.553	6.09
330.926	6.53
331.298	6.01
331.671	6.09
332.043	6.01
332.415	6.11
332.787	6.38
333.159	6.07
333.532	6.59
333.904	6.34
334.276	6.25
334.648	6.36
335.02	6.41
335.391	6.18
335.763	6.74
336.135	6.13
336.507	6.31
336.879	6.54
337.25	6.36
337.622	6.17
337.993	6.33
338.365	6.62
338.736	6.59
339.108	6.5
339.479	6.29
339.851	6.53
340.222	6.54
340.593	6.08
340.964	6.41
341.336	6.57
341.707	6.37
342.078	6.45
342.449	6.49
342.82	6.36
343.191	6.17
343.562	6.38
343.933	6.41
344.303	6.57
344.674	6.79
345.045	6.72
345.416	6.69
345.786	6.47
346.157	6.26
346.527	6.58
346.898	6.48
347.268	6.57
347.639	6.73
348.009	6.56
348.38	6.49
348.75	6.5
349.12	6.49
349.49	6.39
349.861	6.88
350.231	6.64
350.601	6.63
350.971	6.58
351.341	6.48
351.711	7
352.081	6.68
352.45	6.36
352.82	6.52
353.19	6.45
353.56	6.6
353.929	6.85
354.299	6.41
354.669	6.4
355.038	6.66
355.408	7.08
355.777	6.69
356.147	6.39
356.516	6.57
356.885	6.64
357.254	6.81
357.624	6.5
357.993	6.65
358.362	6.76
358.731	6.3
359.1	6.05
359.469	6.49
359.838	6.66
360.207	6.77
360.576	6.63
360.945	6.28
361.314	6.98
361.682	6.75
362.051	6.38
362.42	6.43
362.788	6.8
363.157	6.68
363.525	6.48
363.894	6.42
364.262	6.59
364.631	6.91
364.999	6.72
365.367	6.78
365.735	6.31
366.104	6.81
366.472	6.73
366.84	6.6
367.208	6.74
367.576	6.54
367.944	6.93
368.312	6.82
368.68	7.11
369.048	7.09
369.416	6.67
369.783	6.62
370.151	7.04
370.519	6.52
370.886	6.71
371.254	6.82
371.621	6.7
371.989	6.72
372.356	7.18
372.724	6.7
373.091	6.71
373.458	6.62
373.826	6.69
374.193	6.59
374.56	6.72
374.927	6.6
375.294	6.87
375.661	7.04
376.028	7.15
376.395	6.98
376.762	6.76
377.129	6.82
377.496	6.81
377.863	7.07
378.229	7.27
378.596	7.1
378.963	6.77
379.329	7.03
379.696	7.01
380.062	6.84
380.429	6.72
380.795	6.81
381.161	6.75
381.528	7.28
381.894	7.05
382.26	6.98
382.626	7.12
382.993	6.77
383.359	7.13
383.725	6.78
384.091	7.19
384.457	6.99
384.823	7.22
385.188	7.07
385.554	6.71
385.92	6.76
386.286	7.26
386.651	6.74
387.017	6.85
387.383	6.78
387.748	6.57
388.114	6.77
388.479	7
388.845	7.12
389.21	7
389.575	6.81
389.94	6.93
390.306	6.77
390.671	6.87
391.036	7.24
391.401	6.94
391.766	7.32
392.131	7.16
392.496	7.08
392.861	7.06
393.226	7.17
393.591	7.13
393.956	7.14
394.32	7.13
394.685	6.93
395.05	7.25
395.414	7.18
395.779	6.69
396.143	6.96
396.508	6.93
396.872	6.94
397.236	7.12
397.601	6.93
397.965	6.97
398.329	6.88
398.694	7.28
399.058	6.89
399.422	7
399.786	7.25
400.15	7.13
400.514	7.17
400.878	7.24
401.242	7.19
401.605	7.21
401.969	6.83
402.333	7
402.697	7.3
403.06	6.98
403.424	7.07
403.787	7.07
404.151	7.28
404.514	7.15
404.878	7.16
405.241	7.16
405.604	6.95
405.968	7.42
406.331	7
406.694	6.99
407.057	7.06
407.42	7.36
407.783	7.05
408.146	7.06
408.509	7
408.872	7.32
409.235	7.13
409.598	7.19
409.961	7.04
410.323	7.27
410.686	6.83
411.049	7.16
411.411	7.16
411.774	6.97
412.136	7.24
412.499	7.05
412.861	7.24
413.223	7.25
413.586	7.06
413.948	7.25
414.31	7.43
414.672	7.05
415.035	7.14
415.397	7
415.759	7.1
416.121	7.42
416.483	7.32
416.845	7
417.206	7.18
417.568	7.46
417.93	7.36
418.292	7.1
418.653	7.3
419.015	7.03
419.377	6.97
419.738	7.08
420.1	6.99
420.461	7.01
420.822	7
421.184	6.92
421.545	7.03
421.906	6.97
422.267	6.96
422.629	7.04
422.99	6.91
423.351	6.92
423.712	6.92
424.073	6.94
424.434	6.99
424.795	6.95
425.155	6.91
425.516	6.9
425.877	6.99
426.238	6.84
426.598	7.04
426.959	6.92
427.32	7.03
427.68	7.09
428.041	7
428.401	7.08
428.761	7.13
429.122	6.98
429.482	7.06
429.842	7.2
430.202	6.98
430.563	6.92
430.923	7.15
431.283	7.11
431.643	7.21
432.003	7.16
432.363	6.99
432.722	7.17
433.082	7.09
433.442	7.11
433.802	7.23
434.161	7
434.521	7.2
434.881	7.17
435.24	7.21
435.6	7.04
435.959	7.02
436.319	6.97
436.678	7.08
437.037	7.09
437.396	7.07
437.756	7.19
438.115	6.91
438.474	7.18
438.833	7.19
439.192	6.86
439.551	7.15
439.91	7.09
440.269	7.21
440.628	7.08
440.987	7.1
441.345	7
441.704	7.01
442.063	7.02
442.421	6.99
442.78	6.9
443.138	7.06
443.497	7.11
443.855	7.04
444.214	7.01
444.572	6.86
444.93	7.08
445.288	6.91
445.647	7.18
446.005	7.07
446.363	6.99
446.721	7.01
447.079	7.08
447.437	7.07
447.795	6.82
448.153	6.84
448.51	6.94
448.868	6.86
449.226	6.94
449.584	6.83
449.941	6.83
450.299	7.06
450.656	6.89
451.014	7.03
451.371	6.92
451.729	7.06
452.086	6.94
452.443	7.18
452.801	7
453.158	7.17
453.515	6.95
453.872	6.95
454.229	7.21
454.586	7.17
454.943	7.09
455.3	7.03
455.657	7.03
456.014	7.01
456.371	7.14
456.727	7.3
457.084	7.06
457.441	7.06
457.797	7.04
458.154	7.08
458.51	6.97
458.867	7.1
459.223	7.16
459.58	7.08
459.936	7.19
460.292	7.05
460.648	6.86
461.005	6.89
461.361	6.92
461.717	6.86
462.073	7.01
462.429	6.92
462.785	6.97
463.141	7.14
463.496	6.9
463.852	6.98
464.208	7.17
464.564	7.1
464.919	6.96
465.275	7.09
465.631	7.08
465.986	7.22
466.342	7.21
466.697	7.12
467.052	6.89
467.408	6.98
467.763	7.14
468.118	7.18
468.473	7.13
468.829	6.96
469.184	7
469.539	7.07
469.894	7.05
470.249	7.01
470.603	6.99
470.958	7.12
471.313	7.15
471.668	7.01
472.023	7.3
472.377	7.06
472.732	6.95
473.086	7.07
473.441	7.22
473.795	7.14
474.15	7.05
474.504	6.98
474.859	7.12
475.213	7.15
475.567	7.04
475.921	7.13
476.275	6.99
476.63	7.15
476.984	7.09
477.338	6.95
477.692	7.02
478.045	6.97
478.399	7
478.753	7.05
479.107	7
479.461	6.97
479.814	7.15
480.168	7.14
480.521	7.14
480.875	6.93
481.228	6.96
481.582	7.14
481.935	7
482.289	6.96
482.642	7.02
482.995	6.93
483.348	6.89
483.701	6.99
484.055	6.92
484.408	6.8
484.761	6.92
485.114	6.76
485.466	6.71
485.819	6.64
486.172	6.58
486.525	6.55
486.878	6.56
487.23	6.56
487.583	6.64
487.936	6.69
488.288	6.76
488.641	6.78
488.993	6.76
489.345	6.76
489.698	6.71
490.05	6.71
490.402	6.67
490.754	6.61
491.107	6.74
491.459	6.75
491.811	6.86
492.163	6.78
492.515	6.85
492.866	6.8
493.218	6.79
493.57	6.73
493.922	6.72
494.274	6.72
494.625	6.7
494.977	6.68
495.328	6.81
495.68	6.92
496.031	6.74
496.383	7
496.734	7
497.086	6.89
497.437	7.02
497.788	6.89
498.139	7.04
498.49	6.96
498.842	7
499.193	6.97
499.544	6.94
499.894	6.92
500.245	6.84
500.596	7.08
500.947	6.9
501.298	6.97
501.648	6.99
501.999	6.96
502.35	6.98
502.7	7.15
503.051	6.98
503.401	6.99
503.752	7.06
504.102	6.99
504.452	6.86
504.803	6.92
505.153	6.99
505.503	6.89
505.853	7.03
506.203	6.76
506.553	6.85
506.903	6.94
507.253	6.96
507.603	6.97
507.953	6.96
508.303	6.95
508.652	6.96
509.002	6.98
509.352	7.13
509.701	6.89
510.051	6.84
510.4	6.93
510.75	6.86
511.099	6.91
511.449	6.9
511.798	6.98
512.147	6.95
512.496	6.89
512.846	6.8
513.195	6.83
513.544	6.92
513.893	6.77
514.242	6.84
514.591	6.87
514.939	6.79
515.288	6.93
515.637	6.91
515.986	6.99
516.334	6.84
516.683	6.9
517.032	6.87
517.38	6.78
517.729	7.01
518.077	6.95
518.426	6.92
518.774	6.84
519.122	7.05
519.47	6.9
519.819	6.85
520.167	6.82
520.515	6.85
520.863	6.89
521.211	6.87
521.559	6.89
521.907	6.8
522.255	6.73
522.602	6.89
522.95	6.87
523.298	6.92
523.645	6.93
523.993	6.96
524.341	6.89
524.688	6.86
525.036	7
525.383	6.89
525.73	6.93
526.078	6.99
526.425	7.03
526.772	6.83
527.119	6.91
527.466	6.8
527.814	6.84
528.161	6.76
528.508	6.8
528.854	6.73
529.201	6.71
529.548	6.8
529.895	6.76
530.242	6.7
530.588	6.62
530.935	6.58
531.282	6.62
531.628	6.66
531.975	6.49
532.321	6.61
532.667	6.68
533.014	6.79
533.36	6.76
533.706	6.83
534.052	6.82
534.399	6.73
534.745	6.68
535.091	6.75
535.437	6.71
535.783	6.71
536.129	6.78
536.474	6.78
536.82	6.74
537.166	6.74
537.512	6.84
537.857	6.93
538.203	6.87
538.549	6.89
538.894	6.75
539.239	6.76
539.585	6.78
539.93	6.82
540.276	6.94
540.621	6.94
540.966	6.94
541.311	6.93
541.656	7.04
542.001	6.99
542.346	7.01
542.691	6.76
543.036	6.76
543.381	6.69
543.726	6.65
544.071	6.64
544.415	6.65
544.76	6.69
545.105	6.75
545.449	6.79
545.794	6.79
546.138	6.72
546.483	6.79
546.827	6.87
547.171	6.84
547.516	6.84
547.86	7.02
548.204	6.76
548.548	6.78
548.892	6.8
549.236	6.86
549.58	6.64
549.924	6.71
550.268	6.9
550.612	6.88
550.956	6.93
551.3	6.88
551.643	6.97
551.987	6.97
552.33	6.86
552.674	6.82
553.017	6.79
553.361	7.23
553.704	7.01
554.048	7.02
554.391	6.87
554.734	7.05
555.077	6.86
555.42	6.81
555.764	6.9
556.107	7.05
556.45	6.86
556.793	6.76
557.135	6.86
557.478	6.86
557.821	7.06
558.164	7.08
558.507	7
558.849	6.92
559.192	7.06
559.534	7.16
559.877	6.89
560.219	7.06
560.562	7.08
560.904	6.86
561.246	7.02
561.589	6.92
561.931	6.99
562.273	6.95
562.615	7.1
562.957	7
563.299	7.1
563.641	7.02
563.983	6.95
564.325	6.89
564.667	6.94
565.008	6.99
565.35	7.01
565.692	6.9
566.033	7.03
566.375	7.01
566.716	6.99
567.058	6.96
567.399	6.96
567.741	6.87
568.082	7.02
568.423	6.94
568.764	6.86
569.105	7.02
569.447	6.93
569.788	6.99
570.129	7.09
570.47	7.05
570.811	7.11
571.151	6.83
571.492	6.94
571.833	7.09
572.174	7.2
572.514	6.93
572.855	6.95
573.195	6.91
573.536	6.81
573.876	7.05
574.217	6.89
574.557	6.92
574.898	6.75
575.238	6.87
575.578	6.92
575.918	6.8
576.258	7
576.598	6.99
576.938	7.07
577.278	7.01
577.618	6.93
577.958	7
578.298	6.96
578.638	6.98
578.977	6.92
579.317	6.98
579.657	6.91
579.996	7.06
580.336	7.01
580.675	7.12
581.014	7
581.354	7.02
581.693	7.06
582.032	7.04
582.372	6.91
582.711	7.18
583.05	7.18
583.389	6.83
583.728	7.18
584.067	7.08
584.406	6.98
584.745	7.02
585.083	6.62
585.422	7.19
585.761	6.77
586.1	7.11
586.438	6.67
586.777	7.02
587.115	7.11
587.454	7.18
587.792	7
588.13	7.15
588.469	6.81
588.807	6.8
589.145	7.04
589.483	6.81
589.821	7.14
590.159	7.12
590.497	7.07
590.835	6.99
591.173	7.09
591.511	7.1
591.849	6.99
592.187	7.03
592.524	6.98
592.862	6.83
593.2	7.24
593.537	6.94
593.875	6.98
594.212	7.19
594.55	7.14
594.887	7.28
595.224	6.9
595.561	6.92
595.899	6.87
596.236	6.77
596.573	6.92
596.91	7.05
597.247	7.08
597.584	6.69
597.921	7.13
598.258	7.12
598.594	7.04
598.931	6.92
599.268	6.89
599.604	7.04
599.941	6.97
600.277	6.77
600.614	6.96
600.95	6.98
601.287	6.89
601.623	6.94
601.959	7.18
602.296	7.16
602.632	7.09
602.968	6.87
603.304	7.24
603.64	6.84
603.976	6.76
604.312	7.21
604.648	7
604.984	7.2
605.319	7.15
605.655	7.01
605.991	6.92
606.326	6.93
606.662	6.8
606.998	6.81
607.333	6.85
607.668	6.97
608.004	6.95
608.339	6.74
608.674	7.12
609.01	6.96
609.345	7.2
609.68	7.1
610.015	7.02
610.35	7.21
610.685	7.04
611.02	6.93
611.355	6.72
611.689	7
612.024	7.01
612.359	6.98
612.694	7
613.028	7.21
613.363	6.99
613.697	7.13
614.032	7.35
614.366	6.88
614.7	7.19
615.035	7.29
615.369	6.94
615.703	6.92
616.037	6.92
616.371	7.22
616.705	6.86
617.039	6.9
617.373	7.12
617.707	7.21
618.041	6.78
618.375	6.94
618.709	6.94
619.042	7.02
619.376	7.03
619.71	7.13
620.043	7.37
620.377	7.01
620.71	7.16
621.043	7.07
621.377	6.98
621.71	6.96
622.043	6.89
622.376	7.6
622.709	7.07
623.043	7.19
623.376	6.84
623.709	6.85
624.041	7.17
624.374	7.34
624.707	7.21
625.04	6.95
625.373	7.34
625.705	6.69
626.038	6.87
626.37	6.79
626.703	7.09
627.035	6.99
627.368	7.22
627.7	7.18
628.032	6.91
628.365	7.16
628.697	7.02
629.029	6.97
629.361	7.06
629.693	6.94
630.025	7.1
630.357	7.03
630.689	7.08
631.021	7.52
631.353	7.06
631.684	6.97
632.016	7.36
632.348	6.91
632.679	6.7
633.011	7.25
633.342	6.94
633.674	7.06
634.005	7.22
634.336	7.62
634.668	6.84
634.999	6.96
635.33	6.86
635.661	7.52
635.992	7.42
636.323	7.69
636.654	7.14
636.985	7.31
637.316	7.23
637.647	6.88
637.977	6.82
638.308	7.14
638.639	6.99
638.969	7.25
639.3	6.64
639.63	7.31
639.961	7.26
640.291	7.28
640.622	6.72
640.952	7.36
641.282	7.18
641.612	7.53
641.943	7.39
642.273	7.19
642.603	7.16
642.933	7.29
643.263	7.75
643.592	7.35
643.922	7.35
644.252	7.13
644.582	7.06
644.911	7.28
645.241	7.23
645.571	7.51
645.9	6.91
646.23	7.15
646.559	6.81
646.888	7.21
647.218	7.45
647.547	7.19
647.876	7.22
648.205	7.36
648.534	7.45
648.863	7.05
649.192	7.13
649.521	7.03
649.85	7.18
650.179	6.8
650.508	7.45
650.837	7.26
651.165	7.32
651.494	6.82
651.822	7.55
652.151	7.49
652.479	7.28
652.808	7.53
653.136	7.12
653.465	7.55
653.793	7.25
654.121	7.39
654.449	7.56
654.777	7.33
655.105	7.31
655.433	7.65
655.761	7.58
656.089	7.3
656.417	7.9
656.745	7.73
657.073	7.23
657.4	8.65
657.728	7.6
658.056	7.19
658.383	7.59
658.711	7.17
659.038	7.71
659.365	7.19
659.693	7.37
660.02	7.75
660.347	7.46
660.674	7.49
661.001	7.29
661.329	7.43
661.656	7.21
661.982	7.52
662.309	7.66
662.636	7.5
662.963	7.6
663.29	7.5
663.616	7.7
663.943	6.89
664.27	7.66
664.596	7.8
664.923	7.52
665.249	7.52
665.576	7.81
665.902	7.47
666.228	7.49
666.554	7.74
666.881	7.36
667.207	7.29
667.533	7.8
667.859	7.52
668.185	7.64
668.511	7.74
668.837	7.72
669.162	7.71
669.488	7.39
669.814	7.45
670.139	7.76
670.465	7.47
670.791	7.67
671.116	7.31
671.442	7.69
671.767	7.62
672.092	7.79
672.418	7.41
672.743	7.45
673.068	8.2
673.393	7.34
673.718	7.57
674.043	7.74
674.368	7.58
674.693	7.62
675.018	8.49
675.343	7.69
675.667	8.17
675.992	7.97
676.317	7.34
676.641	7.79
676.966	7.38
677.29	7.55
677.615	7.74
677.939	7.1
678.264	7.86
678.588	7.01
678.912	8.04
679.236	7.8
679.56	7.68
679.885	7.91
680.209	7.83
680.532	7.42
680.856	7.63
681.18	7.92
681.504	7.88
681.828	7.81
682.152	7.89
682.475	7.41
682.799	7.88
683.122	7.6
683.446	7.93
683.769	7.76
684.093	7.86
684.416	6.97
684.739	7.35
685.062	7.31
685.386	7.91
685.709	8.09
686.032	7.76
686.355	8.46
686.678	7.41
687.001	7.89
687.324	7.69
687.646	7.98
687.969	7.93
688.292	8.25
688.614	7.74
688.937	8.13
689.26	7.94
689.582	7.79
689.904	7.23
690.227	8.18
690.549	8.35
690.871	7.85
691.194	8.4
691.516	7.62
691.838	8.16
692.16	7.85
692.482	7.5
692.804	8.43
693.126	7.6
693.448	8.43
693.769	8.18
694.091	8.38
