Data from 0278_chest_Reflection__3__187.txt Node

Date: Fri Oct 20 22:10:04 CDT 2023
User: ToomeyLab
Spectrometer: FLMS14357
Trigger mode: 0
Integration Time (sec): 1.000000E-2
Scans to average: 100
Electric dark correction enabled: true
Nonlinearity correction enabled: false
Boxcar width: 0
XAxis mode: Wavelengths
Number of Pixels in Spectrum: 2048
>>>>>Begin Spectral Data<<<<<
189.047	28.34
189.435	28.34
189.823	28.34
190.211	324.03
190.599	-2315.05
190.987	97.42
191.375	-88.03
191.763	85.18
192.151	165.24
192.538	40.84
192.926	705.81
193.314	6.13
193.702	33.53
194.089	41.73
194.477	-18.15
194.864	-321.04
195.252	61.17
195.639	266.5
196.027	66.36
196.414	117.73
196.801	95.61
197.189	304.48
197.576	65.72
197.963	486.85
198.351	58.63
198.738	34.16
199.125	27.97
199.512	38.44
199.899	22.12
200.286	-7.94
200.673	23.24
201.06	26.27
201.447	-11.37
201.833	56.74
202.22	26.66
202.607	51.7
202.994	78.91
203.38	47.08
203.767	28.4
204.154	31
204.54	59.59
204.927	22.14
205.313	28.25
205.699	41.44
206.086	0.71
206.472	49.08
206.858	49.07
207.245	21.02
207.631	32.99
208.017	14.69
208.403	20.53
208.789	70.14
209.175	46.96
209.561	43.07
209.947	-5.17
210.333	19.18
210.719	29.79
211.105	22.43
211.491	53.61
211.876	23.72
212.262	45.52
212.648	15.28
213.034	-1.58
213.419	26.49
213.805	9.41
214.19	18.07
214.576	16.55
214.961	2.58
215.346	18.3
215.732	24.02
216.117	-7.09
216.502	21.91
216.888	18.91
217.273	-7.73
217.658	10.23
218.043	22.4
218.428	11.58
218.813	30.71
219.198	22.53
219.583	-9.52
219.968	6.13
220.353	20.18
220.738	6.46
221.122	2.63
221.507	15.04
221.892	30.17
222.276	7.9
222.661	21.09
223.046	6.67
223.43	10.41
223.815	13.5
224.199	20.75
224.583	9.64
224.968	2.58
225.352	0.15
225.736	15.24
226.121	10.46
226.505	-1.56
226.889	3.75
227.273	8.13
227.657	11.51
228.041	9.78
228.425	4.3
228.809	4.97
229.193	2.74
229.577	3.69
229.961	3.53
230.344	3.71
230.728	2.31
231.112	3.36
231.495	3
231.879	3.48
232.263	4.17
232.646	2.2
233.03	2.45
233.413	3.81
233.797	3.15
234.18	4.38
234.563	3.89
234.946	4.32
235.33	3.8
235.713	4.97
236.096	4.66
236.479	3.72
236.862	4.11
237.245	2.16
237.628	3.11
238.011	5.22
238.394	2.72
238.777	6.17
239.16	4.11
239.543	5.35
239.925	6
240.308	2.65
240.691	4.57
241.073	2.99
241.456	5.84
241.838	3.3
242.221	4.11
242.603	3.17
242.986	3.89
243.368	3.65
243.75	3.58
244.133	2.99
244.515	3.29
244.897	3.16
245.279	3.46
245.661	2.72
246.043	3.1
246.425	3.8
246.807	3.81
247.189	3.74
247.571	3.03
247.953	3.77
248.335	3.59
248.717	3.05
249.098	3.09
249.48	2.92
249.862	3.5
250.243	3.51
250.625	3.35
251.006	3.37
251.388	3.29
251.769	3.58
252.151	3.29
252.532	2.72
252.913	4.03
253.295	2.63
253.676	3.45
254.057	2.87
254.438	3.38
254.819	3.58
255.2	3.56
255.581	3.09
255.962	3.84
256.343	3.99
256.724	2.75
257.105	3.77
257.486	4.66
257.867	4.3
258.247	3.45
258.628	2.74
259.009	3.43
259.389	3.16
259.77	3.09
260.15	3.45
260.531	3.51
260.911	3.42
261.292	3.02
261.672	3.18
262.052	3.34
262.432	3.07
262.813	2.9
263.193	3.19
263.573	2.9
263.953	2.99
264.333	2.97
264.713	3.68
265.093	3.9
265.473	3.43
265.853	3.01
266.233	3.62
266.612	2.8
266.992	3.58
267.372	3.28
267.752	3.37
268.131	3.13
268.511	3.79
268.89	3.41
269.27	2.81
269.649	2.36
270.029	3.02
270.408	3.84
270.787	2.85
271.167	2.95
271.546	3.8
271.925	3.96
272.304	3.27
272.683	3.34
273.062	3.55
273.441	3.89
273.82	3.5
274.199	3.33
274.578	3.05
274.957	3.27
275.336	3.28
275.715	3.1
276.093	3.2
276.472	3.59
276.851	3.47
277.229	3.16
277.608	2.74
277.986	2.75
278.365	3.64
278.743	3.24
279.122	3.32
279.5	2.99
279.878	2.69
280.257	3.19
280.635	3.27
281.013	3.42
281.391	3.23
281.769	2.86
282.147	2.81
282.525	3.39
282.903	3.24
283.281	3.08
283.659	2.63
284.037	3.31
284.415	2.71
284.792	2.94
285.17	2.95
285.548	3.26
285.925	2.96
286.303	2.7
286.68	2.91
287.058	3.58
287.435	3.1
287.813	2.67
288.19	2.85
288.567	3.32
288.945	3.11
289.322	3.73
289.699	2.6
290.076	3.59
290.453	3.02
290.83	2.94
291.207	3.32
291.584	2.91
291.961	3.23
292.338	3.11
292.715	3.38
293.092	2.85
293.469	3.54
293.845	3.21
294.222	3.13
294.599	3.32
294.975	4.75
295.352	3.56
295.728	3.55
296.105	3.31
296.481	3.42
296.858	3.3
297.234	3.83
297.61	3.4
297.986	3.34
298.363	3.55
298.739	3.42
299.115	3.17
299.491	3.52
299.867	3.22
300.243	3.2
300.619	3.41
300.995	3.59
301.371	3.84
301.746	3.43
302.122	3.75
302.498	3.81
302.874	3.98
303.249	3.92
303.625	3.7
304	4.41
304.376	3.66
304.751	3.14
305.127	3.53
305.502	4.17
305.878	3.79
306.253	4.06
306.628	3.75
307.003	3.48
307.378	3.81
307.754	3.55
308.129	3.8
308.504	3.93
308.879	3.89
309.254	4.27
309.629	3.49
310.003	3.6
310.378	4.22
310.753	4.09
311.128	4.25
311.502	4.23
311.877	4.14
312.252	3.88
312.626	4.26
313.001	3.69
313.375	3.88
313.75	3.75
314.124	3.69
314.498	4.09
314.873	3.85
315.247	4.1
315.621	3.81
315.995	4.64
316.369	3.81
316.743	4.04
317.117	4.34
317.491	3.57
317.865	4.29
318.239	4.59
318.613	4.01
318.987	4.47
319.361	3.88
319.734	4.16
320.108	3.73
320.482	4.56
320.855	4.32
321.229	4.68
321.602	4.03
321.976	4.18
322.349	5.2
322.723	4
323.096	4.75
323.469	4.63
323.843	4.47
324.216	4.33
324.589	4.53
324.962	4.67
325.335	4.48
325.708	4.15
326.081	4.49
326.454	4.62
326.827	4.86
327.2	4.62
327.573	4.56
327.945	4.31
328.318	3.85
328.691	4.19
329.063	4.98
329.436	4.35
329.809	4.72
330.181	4.69
330.553	4.86
330.926	4.28
331.298	4.39
331.671	4.2
332.043	4.03
332.415	4.54
332.787	5.11
333.159	3.97
333.532	4.69
333.904	4.71
334.276	4.05
334.648	4.62
335.02	4.74
335.391	4.59
335.763	5.07
336.135	4.37
336.507	5.03
336.879	4.19
337.25	5.06
337.622	4.72
337.993	4.95
338.365	4.18
338.736	4.49
339.108	4.72
339.479	4.62
339.851	4.94
340.222	4.92
340.593	4.06
340.964	4.57
341.336	5.13
341.707	4.55
342.078	4.68
342.449	4.43
342.82	4.42
343.191	4.54
343.562	4.38
343.933	4.82
344.303	4.74
344.674	4.56
345.045	4.69
345.416	4.63
345.786	4.52
346.157	4.66
346.527	4.51
346.898	4.55
347.268	4.76
347.639	5.02
348.009	4.33
348.38	4.74
348.75	4.53
349.12	4.89
349.49	4.97
349.861	5.01
350.231	4.72
350.601	4.71
350.971	4.88
351.341	4.63
351.711	5.39
352.081	5.03
352.45	4.37
352.82	4.84
353.19	4.99
353.56	4.89
353.929	4.7
354.299	4.61
354.669	4.75
355.038	4.6
355.408	5.05
355.777	4.85
356.147	4.56
356.516	4.55
356.885	4.82
357.254	4.69
357.624	4.83
357.993	4.4
358.362	4.95
358.731	4.55
359.1	4.34
359.469	4.64
359.838	4.76
360.207	4.83
360.576	4.73
360.945	4.59
361.314	4.97
361.682	4.8
362.051	4.77
362.42	4.94
362.788	4.74
363.157	4.74
363.525	4.57
363.894	4.62
364.262	4.69
364.631	4.73
364.999	4.64
365.367	4.94
365.735	4.79
366.104	4.67
366.472	4.52
366.84	4.91
367.208	4.95
367.576	4.9
367.944	4.54
368.312	4.77
368.68	4.99
369.048	4.73
369.416	4.96
369.783	4.97
370.151	5.04
370.519	4.86
370.886	4.88
371.254	4.88
371.621	4.94
371.989	5.04
372.356	4.93
372.724	5.05
373.091	4.8
373.458	4.78
373.826	4.94
374.193	4.81
374.56	4.78
374.927	4.97
375.294	5.1
375.661	4.77
376.028	4.7
376.395	4.97
376.762	4.92
377.129	5.08
377.496	5.2
377.863	5.31
378.229	5.28
378.596	5.14
378.963	5.01
379.329	4.88
379.696	4.75
380.062	5.16
380.429	5.02
380.795	4.86
381.161	4.84
381.528	5.35
381.894	4.89
382.26	5.03
382.626	5.19
382.993	4.81
383.359	4.85
383.725	5.17
384.091	5.06
384.457	5.2
384.823	4.87
385.188	5.37
385.554	5.04
385.92	5.08
386.286	5.24
386.651	5.03
387.017	5.48
387.383	4.88
387.748	4.76
388.114	4.74
388.479	5.28
388.845	5.14
389.21	4.82
389.575	5.04
389.94	5.09
390.306	5.24
390.671	4.87
391.036	5.1
391.401	5.27
391.766	5.16
392.131	5.19
392.496	5.13
392.861	4.84
393.226	5.18
393.591	5.13
393.956	5.1
394.32	5.24
394.685	4.92
395.05	5.06
395.414	5.5
395.779	5
396.143	5.1
396.508	5.05
396.872	5.22
397.236	4.97
397.601	5.21
397.965	5.1
398.329	4.97
398.694	5.26
399.058	5.04
399.422	5.22
399.786	5.06
400.15	5.09
400.514	5.22
400.878	5.38
401.242	5.17
401.605	5.44
401.969	5.09
402.333	5.2
402.697	5.39
403.06	5.36
403.424	5.24
403.787	5.19
404.151	5.36
404.514	5.17
404.878	5.27
405.241	5.25
405.604	5.14
405.968	5.32
406.331	5.12
406.694	5.15
407.057	5.2
407.42	5.36
407.783	5.44
408.146	5.24
408.509	5.15
408.872	5.4
409.235	5.28
409.598	5.34
409.961	5.46
410.323	5.38
410.686	5.23
411.049	5.22
411.411	5.31
411.774	5.17
412.136	5.49
412.499	5.31
412.861	5.47
413.223	5.47
413.586	5.32
413.948	5.48
414.31	5.39
414.672	5.44
415.035	5.22
415.397	5.45
415.759	5.35
416.121	5.48
416.483	5.39
416.845	5.4
417.206	5.33
417.568	5.65
417.93	5.5
418.292	5.1
418.653	5.36
419.015	5.27
419.377	5.18
419.738	5.32
420.1	5.26
420.461	5.25
420.822	5.27
421.184	5.25
421.545	5.3
421.906	5.27
422.267	5.28
422.629	5.29
422.99	5.14
423.351	5.23
423.712	5.14
424.073	5.28
424.434	5.28
424.795	5.24
425.155	5.28
425.516	5.34
425.877	5.34
426.238	5.18
426.598	5.26
426.959	5.27
427.32	5.33
427.68	5.38
428.041	5.31
428.401	5.42
428.761	5.38
429.122	5.4
429.482	5.46
429.842	5.53
430.202	5.43
430.563	5.47
430.923	5.66
431.283	5.64
431.643	5.72
432.003	5.81
432.363	5.59
432.722	5.74
433.082	5.48
433.442	5.48
433.802	5.69
434.161	5.51
434.521	5.62
434.881	5.55
435.24	5.6
435.6	5.41
435.959	5.49
436.319	5.59
436.678	5.57
437.037	5.62
437.396	5.64
437.756	5.6
438.115	5.54
438.474	5.77
438.833	5.65
439.192	5.57
439.551	5.65
439.91	5.73
440.269	5.63
440.628	5.68
440.987	5.71
441.345	5.56
441.704	5.6
442.063	5.54
442.421	5.56
442.78	5.56
443.138	5.61
443.497	5.59
443.855	5.59
444.214	5.7
444.572	5.6
444.93	5.68
445.288	5.83
445.647	5.92
446.005	5.58
446.363	5.65
446.721	5.77
447.079	5.76
447.437	5.75
447.795	5.57
448.153	5.66
448.51	5.69
448.868	5.57
449.226	5.6
449.584	5.66
449.941	5.6
450.299	5.72
450.656	5.7
451.014	5.74
451.371	5.82
451.729	5.86
452.086	5.91
452.443	5.91
452.801	5.78
453.158	6
453.515	5.83
453.872	5.95
454.229	6.14
454.586	5.86
454.943	5.77
455.3	5.78
455.657	5.96
456.014	5.92
456.371	5.8
456.727	6.04
457.084	5.98
457.441	5.93
457.797	6.09
458.154	5.79
458.51	5.94
458.867	6.01
459.223	6.02
459.58	5.85
459.936	5.95
460.292	5.86
460.648	5.7
461.005	5.86
461.361	5.96
461.717	5.74
462.073	5.85
462.429	5.91
462.785	5.94
463.141	5.93
463.496	5.91
463.852	5.94
464.208	6.08
464.564	6.09
464.919	5.89
465.275	6.28
465.631	6.29
465.986	6.24
466.342	6.31
466.697	5.97
467.052	6.06
467.408	6.1
467.763	6.25
468.118	6.36
468.473	6.1
468.829	6.11
469.184	6.09
469.539	6.17
469.894	6.18
470.249	6.19
470.603	6.13
470.958	6.27
471.313	6.36
471.668	6.15
472.023	6.33
472.377	6.2
472.732	6.13
473.086	6.32
473.441	6.4
473.795	6.38
474.15	6.2
474.504	6.18
474.859	6.21
475.213	6.29
475.567	6.44
475.921	6.39
476.275	6.39
476.63	6.55
476.984	6.41
477.338	6.25
477.692	6.32
478.045	6.28
478.399	6.43
478.753	6.47
479.107	6.34
479.461	6.22
479.814	6.42
480.168	6.3
480.521	6.34
480.875	6.49
481.228	6.48
481.582	6.38
481.935	6.36
482.289	6.39
482.642	6.47
482.995	6.35
483.348	6.39
483.701	6.5
484.055	6.31
484.408	6.24
484.761	6.31
485.114	6.22
485.466	6.11
485.819	6.06
486.172	5.99
486.525	6.04
486.878	6.09
487.23	6.1
487.583	6.17
487.936	6.3
488.288	6.23
488.641	6.33
488.993	6.22
489.345	6.27
489.698	6.21
490.05	6.16
490.402	6.13
490.754	6.23
491.107	6.24
491.459	6.34
491.811	6.44
492.163	6.47
492.515	6.51
492.866	6.57
493.218	6.42
493.57	6.34
493.922	6.32
494.274	6.36
494.625	6.35
494.977	6.4
495.328	6.53
495.68	6.62
496.031	6.5
496.383	6.7
496.734	6.77
497.086	6.81
497.437	6.78
497.788	6.63
498.139	6.93
498.49	6.79
498.842	6.64
499.193	6.8
499.544	6.82
499.894	6.74
500.245	6.75
500.596	6.73
500.947	6.81
501.298	6.81
501.648	6.88
501.999	6.87
502.35	6.9
502.7	6.94
503.051	6.98
503.401	6.99
503.752	6.92
504.102	7.06
504.452	6.89
504.803	6.98
505.153	6.91
505.503	6.99
505.853	7.12
506.203	7.01
506.553	7.05
506.903	7.09
507.253	7.18
507.603	7.1
507.953	7.18
508.303	7.01
508.652	7.12
509.002	7.05
509.352	7.11
509.701	7.06
510.051	7.09
510.4	7.01
510.75	7.04
511.099	7.08
511.449	7.15
511.798	7.26
512.147	7.18
512.496	7.21
512.846	7.1
513.195	7.11
513.544	7.21
513.893	7.11
514.242	7.19
514.591	7.25
514.939	7.23
515.288	7.2
515.637	7.2
515.986	7.34
516.334	7.47
516.683	7.24
517.032	7.21
517.38	7.32
517.729	7.42
518.077	7.42
518.426	7.31
518.774	7.4
519.122	7.5
519.47	7.35
519.819	7.29
520.167	7.34
520.515	7.35
520.863	7.45
521.211	7.38
521.559	7.49
521.907	7.42
522.255	7.42
522.602	7.57
522.95	7.54
523.298	7.59
523.645	7.66
523.993	7.65
524.341	7.62
524.688	7.58
525.036	7.72
525.383	7.65
525.73	7.95
526.078	7.62
526.425	7.74
526.772	7.75
527.119	7.77
527.466	7.63
527.814	7.65
528.161	7.72
528.508	7.62
528.854	7.73
529.201	7.73
529.548	7.7
529.895	7.71
530.242	7.57
530.588	7.55
530.935	7.54
531.282	7.59
531.628	7.61
531.975	7.57
532.321	7.64
532.667	7.78
533.014	7.84
533.36	7.91
533.706	7.98
534.052	7.9
534.399	7.86
534.745	7.91
535.091	7.92
535.437	7.94
535.783	7.91
536.129	8
536.474	7.99
536.82	8.11
537.166	8.06
537.512	8.17
537.857	8.26
538.203	8.14
538.549	8.25
538.894	8.3
539.239	8.18
539.585	8.33
539.93	8.3
540.276	8.41
540.621	8.38
540.966	8.41
541.311	8.58
541.656	8.53
542.001	8.58
542.346	8.51
542.691	8.37
543.036	8.35
543.381	8.24
543.726	8.31
544.071	8.29
544.415	8.35
544.76	8.39
545.105	8.54
545.449	8.51
545.794	8.65
546.138	8.6
546.483	8.64
546.827	8.74
547.171	8.76
547.516	8.83
547.86	8.93
548.204	8.76
548.548	8.85
548.892	8.68
549.236	8.87
549.58	8.83
549.924	8.98
550.268	8.95
550.612	9.06
550.956	9.41
551.3	9.19
551.643	9.05
551.987	9.35
552.33	9.19
552.674	9.38
553.017	9.26
553.361	9.45
553.704	9.41
554.048	9.4
554.391	9.47
554.734	9.44
555.077	9.37
555.42	9.34
555.764	9.57
556.107	9.54
556.45	9.53
556.793	9.47
557.135	9.64
557.478	9.6
557.821	9.82
558.164	9.7
558.507	9.84
558.849	9.75
559.192	9.89
559.534	9.8
559.877	9.73
560.219	10.08
560.562	9.95
560.904	9.83
561.246	10.06
561.589	9.93
561.931	10.03
562.273	10.14
562.615	10.17
562.957	10.24
563.299	10.46
563.641	10.21
563.983	10.28
564.325	10.26
564.667	10.26
565.008	10.28
565.35	10.41
565.692	10.44
566.033	10.42
566.375	10.38
566.716	10.48
567.058	10.34
567.399	10.44
567.741	10.43
568.082	10.45
568.423	10.55
568.764	10.46
569.105	10.65
569.447	10.41
569.788	10.6
570.129	10.65
570.47	10.69
570.811	10.96
571.151	10.65
571.492	10.87
571.833	11.09
572.174	10.99
572.514	10.91
572.855	10.78
573.195	10.92
573.536	10.81
573.876	11.18
574.217	10.98
574.557	10.9
574.898	10.87
575.238	11.03
575.578	11.27
575.918	11.12
576.258	11.07
576.598	11.34
576.938	11.25
577.278	11.37
577.618	11.02
577.958	11.32
578.298	11.4
578.638	11.38
578.977	11.5
579.317	11.65
579.657	11.7
579.996	11.74
580.336	11.77
580.675	11.67
581.014	11.77
581.354	11.7
581.693	11.86
582.032	11.92
582.372	11.99
582.711	11.98
583.05	12.02
583.389	11.93
583.728	12.12
584.067	12.3
584.406	12.1
584.745	12.2
585.083	12.41
585.422	12.07
585.761	12.06
586.1	12.35
586.438	12.04
586.777	12.48
587.115	12.59
587.454	12.42
587.792	12.38
588.13	12.66
588.469	12.62
588.807	12.33
589.145	12.49
589.483	12.41
589.821	12.74
590.159	12.77
590.497	12.91
590.835	12.69
591.173	12.8
591.511	12.95
591.849	12.7
592.187	12.95
592.524	12.8
592.862	13.15
593.2	13.03
593.537	12.95
593.875	12.94
594.212	13.11
594.55	13.11
594.887	13.25
595.224	12.98
595.561	13.15
595.899	13.36
596.236	13.19
596.573	13.46
596.91	13.3
597.247	13.38
597.584	13.22
597.921	13.26
598.258	13.66
598.594	13.6
598.931	13.53
599.268	13.38
599.604	13.59
599.941	13.59
600.277	13.61
600.614	13.78
600.95	13.71
601.287	13.76
601.623	14.13
601.959	13.97
602.296	13.91
602.632	14.05
602.968	13.85
603.304	14.29
603.64	14.03
603.976	14.25
604.312	14.37
604.648	14.28
604.984	14.25
605.319	14.18
605.655	14.02
605.991	14.24
606.326	14.28
606.662	14.18
606.998	14.15
607.333	14.34
607.668	14.15
608.004	14.34
608.339	14.36
608.674	14.64
609.01	14.46
609.345	14.82
609.68	14.89
610.015	14.63
610.35	14.86
610.685	14.87
611.02	14.85
611.355	14.65
611.689	14.87
612.024	14.87
612.359	14.82
612.694	15.12
613.028	14.99
613.363	14.97
613.697	15.01
614.032	15.28
614.366	15.1
614.7	15.26
615.035	15.11
615.369	15.37
615.703	15.36
616.037	15.77
616.371	15.54
616.705	15.66
617.039	15.59
617.373	15.45
617.707	15.83
618.041	15.84
618.375	15.4
618.709	15.96
619.042	15.76
619.376	15.87
619.71	16.09
620.043	16.13
620.377	15.8
620.71	16.01
621.043	16.39
621.377	16.17
621.71	16.19
622.043	16.28
622.376	16.56
622.709	16.5
623.043	16.28
623.376	16.24
623.709	16.16
624.041	16.33
624.374	16.78
624.707	16.36
625.04	16.68
625.373	16.89
625.705	16.45
626.038	16.6
626.37	16.68
626.703	16.91
627.035	16.57
627.368	16.7
627.7	17.02
628.032	16.96
628.365	16.76
628.697	17.06
629.029	16.91
629.361	16.91
629.693	16.64
630.025	17.15
630.357	16.68
630.689	16.75
631.021	17.22
631.353	17.1
631.684	17.21
632.016	17.46
632.348	17.2
632.679	17.21
633.011	17.59
633.342	17.15
633.674	17.67
634.005	17.37
634.336	18.07
634.668	17.47
634.999	17.59
635.33	17.72
635.661	18.22
635.992	17.87
636.323	17.87
636.654	17.91
636.985	17.94
637.316	17.96
637.647	17.82
637.977	17.96
638.308	18.23
638.639	18.3
638.969	18.39
639.3	17.95
639.63	18.4
639.961	18.04
640.291	18.23
640.622	18.26
640.952	18.77
641.282	18.43
641.612	18.53
641.943	18.69
642.273	18.42
642.603	18.96
642.933	18.77
643.263	19.02
643.592	18.61
643.922	19.17
644.252	19.04
644.582	18.84
644.911	19.1
645.241	19.54
645.571	19.56
645.9	19.02
646.23	19.06
646.559	19.52
646.888	19.43
647.218	19.05
647.547	18.99
647.876	19.43
648.205	19.43
648.534	19.19
648.863	19.2
649.192	19.32
649.521	19.38
649.85	19.48
650.179	19.06
650.508	19.41
650.837	19.39
651.165	19.63
651.494	19.42
651.822	19.81
652.151	19.6
652.479	20.3
652.808	19.8
653.136	19.8
653.465	20.09
653.793	19.61
654.121	20.21
654.449	20.05
654.777	20.31
655.105	20.1
655.433	20.73
655.761	20.52
656.089	20.44
656.417	20.69
656.745	20.18
657.073	20.5
657.4	20.97
657.728	20.45
658.056	20.63
658.383	20.42
658.711	20.42
659.038	20.6
659.365	20.69
659.693	20.68
660.02	20.94
660.347	20.82
660.674	20.61
661.001	20.64
661.329	20.73
661.656	20.95
661.982	20.88
662.309	20.9
662.636	20.72
662.963	21.15
663.29	21.01
663.616	21.31
663.943	21.04
664.27	21.12
664.596	20.82
664.923	21.3
665.249	21.05
665.576	21.24
665.902	21.2
666.228	21.62
666.554	21.6
666.881	21.17
667.207	21.6
667.533	21.16
667.859	21.75
668.185	21.89
668.511	21.63
668.837	21.65
669.162	21.78
669.488	21.48
669.814	21.81
670.139	21.7
670.465	21.59
670.791	22.39
671.116	21.9
671.442	22.26
671.767	22.3
672.092	21.79
672.418	21.71
672.743	22.52
673.068	21.93
673.393	22.42
673.718	22.29
674.043	22.03
674.368	22.19
674.693	22.51
675.018	22.31
675.343	22.8
675.667	22.75
675.992	22.67
676.317	23.08
676.641	23.05
676.966	23.01
677.29	23.08
677.615	22.17
677.939	22.41
678.264	22.83
678.588	22.27
678.912	22.78
679.236	22.55
679.56	22.92
679.885	22.72
680.209	23.18
680.532	22.36
680.856	22.83
681.18	23.11
681.504	22.79
681.828	23.22
682.152	22.87
682.475	22.89
682.799	23.15
683.122	23.54
683.446	23.43
683.769	23.69
684.093	23.8
684.416	23.73
