Data from 0278_chest_Reflection__1__185.txt Node

Date: Fri Oct 20 22:09:38 CDT 2023
User: ToomeyLab
Spectrometer: FLMS14357
Trigger mode: 0
Integration Time (sec): 1.000000E-2
Scans to average: 100
Electric dark correction enabled: true
Nonlinearity correction enabled: false
Boxcar width: 0
XAxis mode: Wavelengths
Number of Pixels in Spectrum: 2048
>>>>>Begin Spectral Data<<<<<
189.047	0.65
189.435	0.65
189.823	0.65
190.211	263.72
190.599	1116.72
190.987	156.32
191.375	-384.89
191.763	65.87
192.151	-45.98
192.538	-90.79
192.926	-818.71
193.314	67.24
193.702	32.99
194.089	116.1
194.477	179.4
194.864	-502.15
195.252	51.92
195.639	131.21
196.027	35.81
196.414	189.43
196.801	-197.98
197.189	342.98
197.576	102.67
197.963	2267.33
198.351	56.2
198.738	10.42
199.125	56.97
199.512	16.35
199.899	16.92
200.286	-42.64
200.673	23.39
201.06	-8.68
201.447	4.29
201.833	74.02
202.22	31.67
202.607	16.29
202.994	18.82
203.38	-15.05
203.767	4.46
204.154	8.8
204.54	68.57
204.927	19.87
205.313	-5.46
205.699	36.07
206.086	9.2
206.472	34.97
206.858	34.82
207.245	-28.47
207.631	20.35
208.017	3.78
208.403	11.61
208.789	30.29
209.175	-14.48
209.561	5.68
209.947	21.58
210.333	16.81
210.719	26.58
211.105	20.32
211.491	47.15
211.876	58.71
212.262	47.1
212.648	-5.41
213.034	-2.15
213.419	14.49
213.805	-25.53
214.19	-1.25
214.576	6.19
214.961	-5.06
215.346	16.76
215.732	8.87
216.117	-7.28
216.502	24.68
216.888	2.81
217.273	6.6
217.658	24.12
218.043	-7.11
218.428	-16.46
218.813	-10.66
219.198	-5.18
219.583	-33.36
219.968	-11.77
220.353	-9.38
220.738	2.35
221.122	-16.81
221.507	15.66
221.892	6.13
222.276	12.91
222.661	20.4
223.046	10.72
223.43	1.04
223.815	14.64
224.199	11.97
224.583	-8.76
224.968	3.02
225.352	1.22
225.736	-2.06
226.121	1.37
226.505	0.79
226.889	2.04
227.273	5.39
227.657	7.52
228.041	7.8
228.425	2.12
228.809	5.54
229.193	6.25
229.577	6.06
229.961	0.02
230.344	1.96
230.728	2.1
231.112	2.84
231.495	2.07
231.879	2.52
232.263	4.14
232.646	1.38
233.03	2.05
233.413	1.46
233.797	1.53
234.18	2.66
234.563	4.72
234.946	5.42
235.33	3.42
235.713	3.39
236.096	3.34
236.479	3.81
236.862	3.74
237.245	1.33
237.628	3.37
238.011	3.81
238.394	2.62
238.777	3.24
239.16	3.42
239.543	3.95
239.925	5.18
240.308	3.51
240.691	2.94
241.073	2.32
241.456	5.1
241.838	2.8
242.221	3.56
242.603	3.36
242.986	3.22
243.368	3.44
243.75	2.59
244.133	2.4
244.515	2.81
244.897	2.36
245.279	2.82
245.661	2.43
246.043	2.6
246.425	2.99
246.807	2.05
247.189	2.89
247.571	1.64
247.953	2.83
248.335	2.82
248.717	2.57
249.098	2.5
249.48	2.41
249.862	2.59
250.243	3.05
250.625	3.01
251.006	2.66
251.388	2.42
251.769	2.99
252.151	2.37
252.532	3.04
252.913	2.91
253.295	1.71
253.676	2.3
254.057	2.8
254.438	2.51
254.819	2.45
255.2	2.16
255.581	2.23
255.962	2.83
256.343	2.33
256.724	1.74
257.105	3.83
257.486	3.26
257.867	2.64
258.247	3.07
258.628	2.58
259.009	1.41
259.389	2.02
259.77	1.88
260.15	2.57
260.531	2.24
260.911	2.54
261.292	2.24
261.672	2.65
262.052	2.63
262.432	2.52
262.813	2.4
263.193	2.67
263.573	2.3
263.953	2.74
264.333	2.9
264.713	3.25
265.093	3.44
265.473	3.18
265.853	2.25
266.233	3.19
266.612	2.46
266.992	2.11
267.372	2.73
267.752	3.36
268.131	3.02
268.511	2.3
268.89	2.75
269.27	2.59
269.649	1.94
270.029	2.58
270.408	2.69
270.787	3.02
271.167	3.33
271.546	2.84
271.925	3.28
272.304	3.02
272.683	2.63
273.062	2.59
273.441	2.54
273.82	2.32
274.199	2.43
274.578	2.45
274.957	3.06
275.336	2.71
275.715	3.02
276.093	2.54
276.472	2.54
276.851	2.58
277.229	2.71
277.608	2.35
277.986	2.04
278.365	3.15
278.743	2.41
279.122	2.5
279.5	2.39
279.878	1.98
280.257	2.27
280.635	2.73
281.013	3.15
281.391	2.71
281.769	2.17
282.147	1.76
282.525	2.39
282.903	2.16
283.281	2.67
283.659	2.18
284.037	1.95
284.415	2.14
284.792	2.14
285.17	2.61
285.548	2.61
285.925	2.03
286.303	2.3
286.68	2.25
287.058	3.12
287.435	2.61
287.813	2.19
288.19	2.52
288.567	2.27
288.945	2.78
289.322	2.95
289.699	1.82
290.076	2.67
290.453	2.38
290.83	2.05
291.207	2.83
291.584	2.19
291.961	2.65
292.338	2.08
292.715	2.32
293.092	2.07
293.469	2.69
293.845	2.49
294.222	2.31
294.599	2.27
294.975	2.89
295.352	2.68
295.728	2.64
296.105	2.26
296.481	2.3
296.858	2.86
297.234	2.76
297.61	2.14
297.986	2.19
298.363	2.59
298.739	2.46
299.115	2.29
299.491	2.53
299.867	2.4
300.243	2.43
300.619	2.18
300.995	2.61
301.371	2.98
301.746	2.42
302.122	2.83
302.498	1.98
302.874	2.3
303.249	2.52
303.625	2.96
304	2.85
304.376	2.1
304.751	2.26
305.127	2.67
305.502	2.96
305.878	2.77
306.253	2.81
306.628	2.57
307.003	2.76
307.378	2.36
307.754	2.68
308.129	2.73
308.504	2.88
308.879	2.33
309.254	3.35
309.629	2.31
310.003	2.02
310.378	3.22
310.753	2.61
311.128	2.7
311.502	2.67
311.877	2.88
312.252	2.57
312.626	2.9
313.001	2.84
313.375	2.24
313.75	2.87
314.124	2.47
314.498	2.91
314.873	2.69
315.247	2.6
315.621	2.71
315.995	2.52
316.369	2.37
316.743	3.06
317.117	2.77
317.491	2.52
317.865	2.86
318.239	3.25
318.613	3.08
318.987	3.1
319.361	2.56
319.734	2.45
320.108	2.48
320.482	3.59
320.855	2.98
321.229	3.15
321.602	3.1
321.976	2.52
322.349	3.36
322.723	2.8
323.096	2.69
323.469	2.63
323.843	2.93
324.216	2.8
324.589	2.55
324.962	3.29
325.335	2.95
325.708	3.02
326.081	3.09
326.454	2.79
326.827	3.57
327.2	3.19
327.573	3.36
327.945	2.08
328.318	2.29
328.691	2.92
329.063	3.28
329.436	2.35
329.809	3.42
330.181	3.26
330.553	3.36
330.926	2.77
331.298	2.56
331.671	2.7
332.043	2.59
332.415	2.95
332.787	3.47
333.159	2.7
333.532	3.2
333.904	2.97
334.276	2.23
334.648	3
335.02	3.31
335.391	2.87
335.763	3.09
336.135	3.3
336.507	3.48
336.879	2.91
337.25	3.04
337.622	3.14
337.993	3.36
338.365	2.39
338.736	2.93
339.108	3.28
339.479	2.47
339.851	3.35
340.222	3.01
340.593	2.73
340.964	2.59
341.336	3.19
341.707	3.15
342.078	2.88
342.449	2.7
342.82	2.91
343.191	2.89
343.562	2.75
343.933	2.88
344.303	3.18
344.674	3.05
345.045	3.23
345.416	3.37
345.786	2.8
346.157	3.05
346.527	2.5
346.898	3
347.268	3.16
347.639	3.08
348.009	2.72
348.38	3.06
348.75	3.18
349.12	2.94
349.49	2.92
349.861	3
350.231	2.98
350.601	3.15
350.971	3.62
351.341	3.11
351.711	3.29
352.081	3.48
352.45	3.04
352.82	3.34
353.19	2.94
353.56	3.27
353.929	3
354.299	2.87
354.669	3.16
355.038	3.32
355.408	3.28
355.777	2.79
356.147	2.77
356.516	3.27
356.885	3.17
357.254	2.94
357.624	2.85
357.993	3.03
358.362	3.01
358.731	2.67
359.1	2.7
359.469	3.09
359.838	3.11
360.207	3.11
360.576	3.18
360.945	3.04
361.314	2.76
361.682	3.36
362.051	3.01
362.42	3.1
362.788	3.39
363.157	3.05
363.525	2.87
363.894	3.02
364.262	3.03
364.631	3.02
364.999	2.92
365.367	3.13
365.735	3.04
366.104	2.92
366.472	3.07
366.84	3.45
367.208	3.09
367.576	3.04
367.944	2.94
368.312	2.88
368.68	3.02
369.048	3.05
369.416	3.42
369.783	3.01
370.151	3.12
370.519	2.86
370.886	3.32
371.254	3.25
371.621	3.52
371.989	2.95
372.356	3.14
372.724	3.59
373.091	3.09
373.458	3.28
373.826	3.17
374.193	3.17
374.56	3.17
374.927	2.92
375.294	3.17
375.661	3.13
376.028	3.57
376.395	3.29
376.762	3.07
377.129	3.12
377.496	3.08
377.863	3.46
378.229	3.32
378.596	3.04
378.963	3.3
379.329	3.36
379.696	3.16
380.062	3.12
380.429	2.96
380.795	3.05
381.161	2.96
381.528	3.33
381.894	3.02
382.26	3.15
382.626	3.32
382.993	3.36
383.359	3.17
383.725	3.06
384.091	3.19
384.457	3.21
384.823	3.42
385.188	3.45
385.554	3.09
385.92	3.33
386.286	3.41
386.651	3
387.017	3.09
387.383	3.21
387.748	2.8
388.114	3.24
388.479	3.21
388.845	3.41
389.21	3.26
389.575	2.99
389.94	3.32
390.306	3.19
390.671	3.39
391.036	3.19
391.401	3.36
391.766	3.41
392.131	3.36
392.496	3.47
392.861	3.39
393.226	3.28
393.591	3.15
393.956	3.29
394.32	3.28
394.685	3.18
395.05	3.46
395.414	3.37
395.779	3.06
396.143	3.15
396.508	3.31
396.872	3.19
397.236	3.19
397.601	3.23
397.965	3.09
398.329	3.41
398.694	3.33
399.058	3.11
399.422	3.29
399.786	3.29
400.15	3.14
400.514	3.42
400.878	3.53
401.242	3.2
401.605	3.43
401.969	3.19
402.333	3.04
402.697	3.15
403.06	3.19
403.424	3.37
403.787	3.44
404.151	3.15
404.514	3.22
404.878	3.45
405.241	3.14
405.604	3.19
405.968	3.28
406.331	3.26
406.694	3.21
407.057	3
407.42	3.34
407.783	3.33
408.146	3.38
408.509	3.22
408.872	3.32
409.235	3.43
409.598	3.41
409.961	3.52
410.323	3.38
410.686	3.21
411.049	3.32
411.411	3.44
411.774	3.27
412.136	3.17
412.499	3.3
412.861	3.37
413.223	3.42
413.586	3.27
413.948	3.39
414.31	3.62
414.672	3.27
415.035	3.52
415.397	3.46
415.759	3.4
416.121	3.31
416.483	3.59
416.845	3.32
417.206	3.28
417.568	3.36
417.93	3.53
418.292	3.08
418.653	3.41
419.015	3.17
419.377	3.25
419.738	3.23
420.1	3.16
420.461	3.27
420.822	3.31
421.184	3.26
421.545	3.27
421.906	3.2
422.267	3.23
422.629	3.33
422.99	3.14
423.351	3.32
423.712	3.25
424.073	3.28
424.434	3.25
424.795	3.26
425.155	3.32
425.516	3.3
425.877	3.35
426.238	3.11
426.598	3.19
426.959	3.2
427.32	3.29
427.68	3.35
428.041	3.26
428.401	3.29
428.761	3.25
429.122	3.37
429.482	3.33
429.842	3.36
430.202	3.43
430.563	3.38
430.923	3.52
431.283	3.48
431.643	3.71
432.003	3.54
432.363	3.29
432.722	3.41
433.082	3.53
433.442	3.26
433.802	3.56
434.161	3.32
434.521	3.43
434.881	3.4
435.24	3.46
435.6	3.31
435.959	3.38
436.319	3.33
436.678	3.53
437.037	3.43
437.396	3.49
437.756	3.5
438.115	3.27
438.474	3.48
438.833	3.44
439.192	3.36
439.551	3.36
439.91	3.51
440.269	3.57
440.628	3.53
440.987	3.36
441.345	3.31
441.704	3.38
442.063	3.34
442.421	3.29
442.78	3.36
443.138	3.47
443.497	3.56
443.855	3.39
444.214	3.4
444.572	3.46
444.93	3.53
445.288	3.52
445.647	3.65
446.005	3.3
446.363	3.46
446.721	3.52
447.079	3.6
447.437	3.53
447.795	3.32
448.153	3.42
448.51	3.42
448.868	3.34
449.226	3.43
449.584	3.4
449.941	3.33
450.299	3.63
450.656	3.37
451.014	3.43
451.371	3.56
451.729	3.48
452.086	3.42
452.443	3.59
452.801	3.4
453.158	3.64
453.515	3.44
453.872	3.45
454.229	3.58
454.586	3.55
454.943	3.43
455.3	3.51
455.657	3.56
456.014	3.46
456.371	3.6
456.727	3.55
457.084	3.63
457.441	3.53
457.797	3.75
458.154	3.47
458.51	3.49
458.867	3.56
459.223	3.5
459.58	3.61
459.936	3.53
460.292	3.54
460.648	3.4
461.005	3.43
461.361	3.51
461.717	3.4
462.073	3.56
462.429	3.46
462.785	3.5
463.141	3.68
463.496	3.46
463.852	3.6
464.208	3.52
464.564	3.7
464.919	3.53
465.275	3.71
465.631	3.73
465.986	3.74
466.342	3.69
466.697	3.65
467.052	3.58
467.408	3.66
467.763	3.64
468.118	3.76
468.473	3.67
468.829	3.58
469.184	3.56
469.539	3.52
469.894	3.6
470.249	3.68
470.603	3.64
470.958	3.81
471.313	3.68
471.668	3.75
472.023	3.74
472.377	3.74
472.732	3.54
473.086	3.83
473.441	3.77
473.795	3.77
474.15	3.76
474.504	3.63
474.859	3.73
475.213	3.82
475.567	3.77
475.921	3.8
476.275	3.6
476.63	3.87
476.984	3.79
477.338	3.6
477.692	3.73
478.045	3.8
478.399	3.78
478.753	3.75
479.107	3.77
479.461	3.54
479.814	3.81
480.168	3.76
480.521	3.84
480.875	3.75
481.228	3.81
481.582	3.9
481.935	3.76
482.289	3.73
482.642	3.76
482.995	3.79
483.348	3.65
483.701	3.76
484.055	3.63
484.408	3.72
484.761	3.58
485.114	3.59
485.466	3.59
485.819	3.49
486.172	3.44
486.525	3.49
486.878	3.51
487.23	3.58
487.583	3.6
487.936	3.61
488.288	3.69
488.641	3.68
488.993	3.6
489.345	3.62
489.698	3.57
490.05	3.57
490.402	3.58
490.754	3.62
491.107	3.62
491.459	3.66
491.811	3.75
492.163	3.74
492.515	3.82
492.866	3.81
493.218	3.68
493.57	3.62
493.922	3.66
494.274	3.68
494.625	3.67
494.977	3.67
495.328	3.82
495.68	3.78
496.031	3.72
496.383	3.95
496.734	3.85
497.086	3.91
497.437	3.87
497.788	3.81
498.139	3.85
498.49	3.91
498.842	3.76
499.193	3.88
499.544	3.96
499.894	3.87
500.245	3.89
500.596	3.86
500.947	3.87
501.298	3.89
501.648	3.92
501.999	3.91
502.35	3.89
502.7	3.98
503.051	3.91
503.401	4.04
503.752	4.04
504.102	4.07
504.452	3.86
504.803	3.88
505.153	4.04
505.503	4.07
505.853	4.06
506.203	4.02
506.553	3.99
506.903	3.96
507.253	4.05
507.603	4.01
507.953	4.07
508.303	4.04
508.652	4.06
509.002	4.11
509.352	4.06
509.701	4.08
510.051	3.91
510.4	4
510.75	4
511.099	4.03
511.449	4.04
511.798	4.12
512.147	4.04
512.496	4.11
512.846	3.99
513.195	4.09
513.544	4.15
513.893	3.95
514.242	3.99
514.591	4.06
514.939	4.03
515.288	4.06
515.637	4.13
515.986	4.18
516.334	4.18
516.683	3.99
517.032	3.94
517.38	4.05
517.729	4.18
518.077	4.18
518.426	4.11
518.774	4.17
519.122	4.09
519.47	4.1
519.819	4.13
520.167	4.07
520.515	4.18
520.863	4.12
521.211	4.1
521.559	4.14
521.907	4.12
522.255	4.18
522.602	4.21
522.95	4.17
523.298	4.16
523.645	4.27
523.993	4.25
524.341	4.24
524.688	4.26
525.036	4.33
525.383	4.23
525.73	4.39
526.078	4.3
526.425	4.28
526.772	4.4
527.119	4.25
527.466	4.15
527.814	4.26
528.161	4.27
528.508	4.23
528.854	4.28
529.201	4.25
529.548	4.28
529.895	4.31
530.242	4.23
530.588	4.14
530.935	4.13
531.282	4.21
531.628	4.22
531.975	4.17
532.321	4.3
532.667	4.22
533.014	4.3
533.36	4.4
533.706	4.47
534.052	4.41
534.399	4.35
534.745	4.27
535.091	4.39
535.437	4.39
535.783	4.31
536.129	4.37
536.474	4.44
536.82	4.49
537.166	4.49
537.512	4.55
537.857	4.56
538.203	4.58
538.549	4.58
538.894	4.55
539.239	4.48
539.585	4.59
539.93	4.55
540.276	4.64
540.621	4.54
540.966	4.75
541.311	4.79
541.656	4.63
542.001	4.69
542.346	4.79
542.691	4.59
543.036	4.58
543.381	4.57
543.726	4.51
544.071	4.56
544.415	4.58
544.76	4.63
545.105	4.67
545.449	4.69
545.794	4.66
546.138	4.71
546.483	4.71
546.827	4.84
547.171	4.79
547.516	4.77
547.86	4.93
548.204	4.73
548.548	4.82
548.892	4.82
549.236	4.8
549.58	4.91
549.924	4.85
550.268	4.96
550.612	4.88
550.956	5.05
551.3	5.01
551.643	5.01
551.987	5.23
552.33	5.14
552.674	5.06
553.017	5.06
553.361	5.19
553.704	5.24
554.048	5.21
554.391	5.19
554.734	5.25
555.077	5.17
555.42	5.05
555.764	5.02
556.107	5.41
556.45	5.19
556.793	5.24
557.135	5.12
557.478	5.24
557.821	5.27
558.164	5.28
558.507	5.3
558.849	5.42
559.192	5.27
559.534	5.48
559.877	5.17
560.219	5.5
560.562	5.45
560.904	5.25
561.246	5.47
561.589	5.37
561.931	5.54
562.273	5.67
562.615	5.59
562.957	5.47
563.299	5.58
563.641	5.6
563.983	5.55
564.325	5.5
564.667	5.74
565.008	5.56
565.35	5.63
565.692	5.69
566.033	5.71
566.375	5.72
566.716	5.69
567.058	5.65
567.399	5.79
567.741	5.68
568.082	5.88
568.423	5.78
568.764	5.78
569.105	5.9
569.447	5.87
569.788	5.79
570.129	5.85
570.47	5.88
570.811	5.93
571.151	5.97
571.492	5.96
571.833	6.12
572.174	6.07
572.514	5.96
572.855	5.89
573.195	6.23
573.536	5.97
573.876	6.1
574.217	6.01
574.557	5.99
574.898	6.03
575.238	6.01
575.578	6.18
575.918	6.02
576.258	6.11
576.598	6.2
576.938	6.24
577.278	6.45
577.618	6.09
577.958	6.25
578.298	6.24
578.638	6.58
578.977	6.36
579.317	6.28
579.657	6.42
579.996	6.37
580.336	6.55
580.675	6.58
581.014	6.63
581.354	6.39
581.693	6.61
582.032	6.83
582.372	6.56
582.711	6.72
583.05	6.95
583.389	6.67
583.728	6.55
584.067	6.76
584.406	6.72
584.745	6.73
585.083	6.48
585.422	6.77
585.761	6.78
586.1	7
586.438	6.6
586.777	6.62
587.115	7.07
587.454	6.97
587.792	6.91
588.13	7.13
588.469	7.07
588.807	6.69
589.145	7.37
589.483	6.93
589.821	6.97
590.159	7.23
590.497	7.18
590.835	7.32
591.173	7.21
591.511	7.32
591.849	7.22
592.187	7.2
592.524	7.13
592.862	7.34
593.2	7.46
593.537	7.12
593.875	7.18
594.212	7.62
594.55	7.46
594.887	7.38
595.224	7.37
595.561	7.53
595.899	7.37
596.236	7.53
596.573	7.75
596.91	7.7
597.247	7.58
597.584	7.46
597.921	7.64
598.258	7.73
598.594	7.75
598.931	7.61
599.268	7.51
599.604	7.67
599.941	7.67
600.277	7.56
600.614	7.81
600.95	7.56
601.287	7.71
601.623	7.9
601.959	7.95
602.296	7.84
602.632	7.92
602.968	7.7
603.304	8.05
603.64	7.99
603.976	8.06
604.312	8.26
604.648	8.01
604.984	8.41
605.319	8.12
605.655	8.04
605.991	8.14
606.326	8.15
606.662	8.07
606.998	8.09
607.333	8.21
607.668	8.05
608.004	8.22
608.339	8.17
608.674	8.33
609.01	8.37
609.345	8.56
609.68	8.71
610.015	8.53
610.35	8.57
610.685	8.72
611.02	8.48
611.355	8.57
611.689	8.54
612.024	8.87
612.359	8.52
612.694	8.59
613.028	8.64
613.363	8.94
613.697	8.73
614.032	9.09
614.366	9.05
614.7	9.05
615.035	9
615.369	8.71
615.703	8.78
616.037	9.16
616.371	9.01
616.705	9.02
617.039	8.74
617.373	9.26
617.707	9.34
618.041	9.17
618.375	9.1
618.709	9.13
619.042	9.26
619.376	9.45
619.71	9.4
620.043	9.43
620.377	9.21
620.71	9.5
621.043	9.24
621.377	9.39
621.71	9.43
622.043	9.47
622.376	9.6
622.709	9.88
623.043	9.45
623.376	9.41
623.709	9.69
624.041	9.46
624.374	9.44
624.707	9.34
625.04	10.07
625.373	9.78
625.705	9.64
626.038	10.07
626.37	9.37
626.703	9.86
627.035	9.73
627.368	10.09
627.7	10.25
628.032	10.2
628.365	10.11
628.697	10.05
629.029	10.06
629.361	10.04
629.693	9.79
630.025	10.02
630.357	10.04
630.689	10.48
631.021	10.59
631.353	10.23
631.684	9.9
632.016	10.28
632.348	10.57
632.679	9.95
633.011	10.38
633.342	10.31
633.674	10.44
634.005	10.43
634.336	10.77
634.668	10.41
634.999	10.6
635.33	10.09
635.661	10.95
635.992	10.82
636.323	11.12
636.654	10.58
636.985	10.36
637.316	10.54
637.647	10.87
637.977	10.4
638.308	10.83
638.639	10.75
638.969	10.64
639.3	10.73
639.63	10.83
639.961	10.62
640.291	10.75
640.622	10.89
640.952	11.21
641.282	10.92
641.612	11.18
641.943	11.45
642.273	11.02
642.603	11.67
642.933	11.08
643.263	11.59
643.592	11.35
643.922	11.89
644.252	11.26
644.582	11.9
644.911	11.35
645.241	11.41
645.571	11.98
645.9	11.81
646.23	11.35
646.559	11.66
646.888	12.03
647.218	11.45
647.547	11.34
647.876	11.73
648.205	11.83
648.534	11.73
648.863	11.84
649.192	11.63
649.521	11.89
649.85	12.11
650.179	11.75
650.508	11.82
650.837	12.12
651.165	12.22
651.494	11.6
651.822	12.16
652.151	12.24
652.479	11.59
652.808	11.83
653.136	12.1
653.465	11.73
653.793	12.09
654.121	12.82
654.449	12.65
654.777	12.53
655.105	12.17
655.433	12.49
655.761	12.42
656.089	12.59
656.417	12.4
656.745	12.63
657.073	12.84
657.4	13
657.728	12.88
658.056	12.51
658.383	12.5
658.711	12.57
659.038	12.58
659.365	13.11
659.693	12.71
660.02	12.69
660.347	13.13
660.674	12.94
661.001	12.47
661.329	12.8
661.656	12.95
661.982	13.01
662.309	13.19
662.636	12.79
662.963	13.17
663.29	13.29
663.616	13.65
663.943	12.73
664.27	13.01
664.596	13.15
664.923	12.74
665.249	13.31
665.576	13.46
665.902	13.12
666.228	13.68
666.554	13.19
666.881	12.82
667.207	13.96
667.533	13.34
667.859	13.59
668.185	13.72
668.511	13.83
668.837	13.87
669.162	13.68
669.488	14.11
669.814	13.55
670.139	14.14
670.465	13.31
670.791	14.18
671.116	13.77
671.442	13.8
671.767	14.06
672.092	14.24
672.418	13.89
672.743	14.16
673.068	14.25
673.393	14.42
673.718	14.55
674.043	14.39
674.368	13.99
674.693	14.02
675.018	14.76
675.343	14.27
675.667	14.42
675.992	14.38
676.317	14.35
676.641	14.26
676.966	14.67
677.29	14.28
677.615	14.66
677.939	14.31
678.264	14.84
678.588	14.08
678.912	15.36
679.236	14.94
679.56	14.66
679.885	14.61
680.209	15.01
680.532	14.61
680.856	14.68
681.18	14.83
681.504	14.77
681.828	14.84
682.152	14.99
682.475	15.01
682.799	14.68
683.122	14.71
683.446	15.1
683.769	15.38
684.093	15.14
684.416	15.25
684.739	14.73
685.062	15.11
685.386	14.58
685.709	15.76
686.032	15.13
686.355	15.74
686.678	15.58
687.001	15.36
687.324	15.12
687.646	15.88
687.969	15.79
