Data from 0278_forehead_Reflection__0__195.txt Node

Date: Fri Oct 20 22:13:35 CDT 2023
User: ToomeyLab
Spectrometer: FLMS14357
Trigger mode: 0
Integration Time (sec): 1.000000E-2
Scans to average: 100
Electric dark correction enabled: true
Nonlinearity correction enabled: false
Boxcar width: 0
XAxis mode: Wavelengths
Number of Pixels in Spectrum: 2048
>>>>>Begin Spectral Data<<<<<
189.047	-55.92
189.435	-55.92
189.823	-55.92
190.211	489.46
190.599	-665.22
190.987	175.42
191.375	98.68
191.763	104.62
192.151	131.28
192.538	-68.55
192.926	740
193.314	80.5
193.702	21
194.089	10.51
194.477	220.3
194.864	38.56
195.252	33.53
195.639	219.42
196.027	127.86
196.414	77
196.801	-131.55
197.189	149.81
197.576	208.89
197.963	813.94
198.351	57
198.738	14.42
199.125	37.58
199.512	34.78
199.899	33
200.286	10.31
200.673	35.03
201.06	6.83
201.447	39.79
201.833	61.8
202.22	32.4
202.607	41.36
202.994	70.82
203.38	27.78
203.767	43.85
204.154	43.64
204.54	70.92
204.927	51.84
205.313	59.26
205.699	48.95
206.086	32.88
206.472	49.13
206.858	55.6
207.245	-15.56
207.631	54.73
208.017	22.1
208.403	36.38
208.789	67.3
209.175	-13.61
209.561	12.25
209.947	25.23
210.333	18.82
210.719	26
211.105	10.62
211.491	33.49
211.876	26.06
212.262	48.71
212.648	21.59
213.034	9.38
213.419	32.7
213.805	22.46
214.19	30.08
214.576	31.86
214.961	41.45
215.346	38.88
215.732	2.45
216.117	-20.23
216.502	13.46
216.888	29.87
217.273	20.61
217.658	56.44
218.043	8.62
218.428	21.85
218.813	14.22
219.198	12.38
219.583	-16.35
219.968	45.87
220.353	21.74
220.738	10.96
221.122	7.79
221.507	30.4
221.892	10.5
222.276	15.27
222.661	36.03
223.046	8.14
223.43	4.86
223.815	15.9
224.199	20.65
224.583	11.41
224.968	10.72
225.352	10.74
225.736	12.73
226.121	13.56
226.505	5.54
226.889	4.34
227.273	8.06
227.657	9.24
228.041	13.45
228.425	12.4
228.809	9.04
229.193	7.04
229.577	7.39
229.961	4.42
230.344	5.66
230.728	4.11
231.112	5.12
231.495	5.15
231.879	5.32
232.263	6.62
232.646	4.14
233.03	4.62
233.413	4.62
233.797	4.73
234.18	6.55
234.563	7.63
234.946	6.95
235.33	5.63
235.713	4.08
236.096	6.61
236.479	6.03
236.862	5.46
237.245	5.53
237.628	4.57
238.011	6.98
238.394	4.22
238.777	8.36
239.16	6.91
239.543	8.03
239.925	7.05
240.308	5.47
240.691	5.99
241.073	6.49
241.456	5.33
241.838	5.73
242.221	6.13
242.603	5.77
242.986	5.93
243.368	5.73
243.75	5.33
244.133	5.03
244.515	4.86
244.897	5.09
245.279	4.97
245.661	5.01
246.043	5.13
246.425	6.27
246.807	5.7
247.189	5.72
247.571	4.83
247.953	5.66
248.335	5.58
248.717	4.99
249.098	4.83
249.48	5.14
249.862	5.06
250.243	5.32
250.625	5.24
251.006	5.37
251.388	5.35
251.769	5.81
252.151	4.77
252.532	6
252.913	5.55
253.295	5.33
253.676	5.4
254.057	5.19
254.438	5.25
254.819	5.65
255.2	5.28
255.581	4.66
255.962	5.88
256.343	5.74
256.724	5.44
257.105	7.08
257.486	6.68
257.867	6.14
258.247	5.67
258.628	5.98
259.009	5
259.389	4.81
259.77	4.16
260.15	5.09
260.531	6.11
260.911	5.63
261.292	4.77
261.672	5.1
262.052	5.08
262.432	5.19
262.813	5.21
263.193	5.39
263.573	5.24
263.953	5.51
264.333	5.62
264.713	5.37
265.093	5.89
265.473	5.62
265.853	5.52
266.233	5.77
266.612	5.43
266.992	5.95
267.372	5.33
267.752	4.91
268.131	5.29
268.511	5.41
268.89	5.48
269.27	4.79
269.649	4.88
270.029	4.85
270.408	5.29
270.787	5.21
271.167	6.25
271.546	5.64
271.925	5.67
272.304	5.22
272.683	5.31
273.062	5.32
273.441	5.14
273.82	5.14
274.199	5.53
274.578	5.04
274.957	5.54
275.336	5.36
275.715	5.39
276.093	4.91
276.472	5.08
276.851	6.1
277.229	5.33
277.608	4.65
277.986	5.43
278.365	5.9
278.743	4.92
279.122	5.38
279.5	5.3
279.878	4.78
280.257	5.33
280.635	5.29
281.013	5.31
281.391	5.77
281.769	5.16
282.147	5.04
282.525	5.27
282.903	5.54
283.281	4.9
283.659	5.06
284.037	5.43
284.415	4.69
284.792	4.75
285.17	4.99
285.548	5.24
285.925	5.19
286.303	4.81
286.68	5.3
287.058	5.35
287.435	5.35
287.813	4.9
288.19	5.44
288.567	5.29
288.945	5.36
289.322	5.84
289.699	5.18
290.076	5.83
290.453	5.38
290.83	5.05
291.207	5.69
291.584	5.26
291.961	5.51
292.338	5.38
292.715	5.32
293.092	5.53
293.469	5.76
293.845	5.6
294.222	5.65
294.599	5.91
294.975	6.27
295.352	6.05
295.728	6.21
296.105	5.55
296.481	6.07
296.858	5.94
297.234	6.46
297.61	5.73
297.986	6.11
298.363	6.34
298.739	6.42
299.115	6.18
299.491	6.27
299.867	6.55
300.243	6.16
300.619	6.3
300.995	6.23
301.371	6.54
301.746	6.54
302.122	6.86
302.498	6.56
302.874	6.61
303.249	6.57
303.625	6.88
304	7.52
304.376	6.82
304.751	6.73
305.127	7.05
305.502	7.66
305.878	7.16
306.253	7.42
306.628	7.19
307.003	7.72
307.378	7.41
307.754	7.48
308.129	7.71
308.504	7.92
308.879	7.75
309.254	8.25
309.629	7.94
310.003	7.79
310.378	8.19
310.753	8.08
311.128	8.36
311.502	8.44
311.877	8.46
312.252	8.26
312.626	8.34
313.001	8.29
313.375	8.84
313.75	8.63
314.124	8.04
314.498	8.73
314.873	8.3
315.247	8.78
315.621	8.59
315.995	9.22
316.369	9.01
316.743	8.85
317.117	8.96
317.491	8.55
317.865	9.96
318.239	9.42
318.613	9.42
318.987	9.59
319.361	9.27
319.734	9.08
320.108	9.03
320.482	9.65
320.855	9.93
321.229	10.03
321.602	10.04
321.976	9.98
322.349	10.54
322.723	9.63
323.096	10.18
323.469	10.21
323.843	10.43
324.216	10.49
324.589	10.54
324.962	10.85
325.335	10.98
325.708	10.36
326.081	10.69
326.454	10.61
326.827	10.91
327.2	10.67
327.573	10.89
327.945	10.48
328.318	10.51
328.691	11.08
329.063	11.22
329.436	10.88
329.809	10.8
330.181	11.32
330.553	11.37
330.926	11.23
331.298	10.66
331.671	10.85
332.043	11.44
332.415	11.43
332.787	11.49
333.159	11.5
333.532	11.92
333.904	11.6
334.276	11.21
334.648	11.86
335.02	11.74
335.391	11.11
335.763	12.27
336.135	12.57
336.507	12.2
336.879	11.93
337.25	12.08
337.622	11.87
337.993	12.61
338.365	12.17
338.736	12.31
339.108	12.5
339.479	11.85
339.851	12.38
340.222	12.29
340.593	12.13
340.964	12.4
341.336	12.82
341.707	12.75
342.078	12.65
342.449	12.47
342.82	12.48
343.191	12.76
343.562	12.54
343.933	12.65
344.303	12.93
344.674	12.98
345.045	12.59
345.416	13.07
345.786	12.68
346.157	12.75
346.527	12.84
346.898	12.97
347.268	13.22
347.639	13.43
348.009	13.16
348.38	13.64
348.75	13.26
349.12	12.92
349.49	13.09
349.861	13.5
350.231	13.03
350.601	13.41
350.971	13.77
351.341	13.92
351.711	13.87
352.081	14.07
352.45	13.68
352.82	14.05
353.19	14.33
353.56	14.03
353.929	13.63
354.299	13.78
354.669	13.71
355.038	14.09
355.408	14.93
355.777	14.51
356.147	14.42
356.516	14.07
356.885	14.4
357.254	14.02
357.624	14.32
357.993	14.01
358.362	14.27
358.731	13.97
359.1	14.1
359.469	13.94
359.838	14.78
360.207	14.61
360.576	14.63
360.945	14.47
361.314	14.85
361.682	15.04
362.051	14.62
362.42	14.47
362.788	15.09
363.157	14.71
363.525	14.7
363.894	14.68
364.262	14.79
364.631	15.05
364.999	14.92
365.367	14.84
365.735	14.87
366.104	15.14
366.472	15.16
366.84	15.28
367.208	15.3
367.576	15.23
367.944	15.17
368.312	15.49
368.68	15.45
369.048	15.73
369.416	15.81
369.783	15.73
370.151	15.48
370.519	15.5
370.886	15.6
371.254	15.92
371.621	15.87
371.989	15.48
372.356	16.13
372.724	15.84
373.091	16.08
373.458	15.77
373.826	15.79
374.193	15.95
374.56	16.14
374.927	15.99
375.294	16.32
375.661	16.27
376.028	16.68
376.395	16.71
376.762	16.22
377.129	16.43
377.496	16.84
377.863	16.84
378.229	16.76
378.596	16.71
378.963	16.58
379.329	16.56
379.696	16.37
380.062	16.57
380.429	16.77
380.795	16.75
381.161	16.95
381.528	17.24
381.894	16.92
382.26	16.96
382.626	16.87
382.993	16.99
383.359	17.02
383.725	17.32
384.091	17.43
384.457	17.07
384.823	17.36
385.188	17.8
385.554	17.29
385.92	17.31
386.286	17.55
386.651	17.35
387.017	17.48
387.383	17.63
387.748	17.26
388.114	17.29
388.479	17.71
388.845	17.77
389.21	17.79
389.575	17.64
389.94	17.74
390.306	17.66
390.671	17.96
391.036	17.81
391.401	18.17
391.766	18.19
392.131	18.28
392.496	18
392.861	18.27
393.226	18.48
393.591	18.2
393.956	18.36
394.32	18.49
394.685	18.28
395.05	18.33
395.414	18.53
395.779	18.5
396.143	18.46
396.508	18.57
396.872	18.87
397.236	18.69
397.601	18.67
397.965	18.53
398.329	18.57
398.694	19
399.058	18.5
399.422	18.8
399.786	19.15
400.15	18.93
400.514	18.81
400.878	19.06
401.242	19.19
401.605	18.83
401.969	18.82
402.333	19.28
402.697	19.58
403.06	19.29
403.424	19.26
403.787	19.19
404.151	19.49
404.514	19.73
404.878	19.44
405.241	19.68
405.604	19.32
405.968	19.57
406.331	19.42
406.694	19.44
407.057	19.72
407.42	19.95
407.783	19.94
408.146	19.69
408.509	19.78
408.872	19.97
409.235	19.78
409.598	20.01
409.961	19.78
410.323	19.92
410.686	19.9
411.049	20.03
411.411	20.25
411.774	20.05
412.136	20.29
412.499	20.46
412.861	20.34
413.223	20.35
413.586	20.22
413.948	20.37
414.31	20.83
414.672	20.52
415.035	20.6
415.397	20.59
415.759	20.65
416.121	20.93
416.483	20.82
416.845	20.74
417.206	20.58
417.568	20.91
417.93	20.79
418.292	20.55
418.653	20.88
419.015	20.87
419.377	20.84
419.738	20.77
420.1	20.77
420.461	20.89
420.822	20.91
421.184	20.87
421.545	20.94
421.906	20.97
422.267	20.85
422.629	21.01
422.99	20.99
423.351	20.89
423.712	20.86
424.073	21.07
424.434	21.08
424.795	21.14
425.155	21.2
425.516	21.23
425.877	21.35
426.238	21.26
426.598	21.26
426.959	21.31
427.32	21.32
427.68	21.6
428.041	21.55
428.401	21.62
428.761	21.85
429.122	21.85
429.482	21.91
429.842	22.09
430.202	22.12
430.563	22.19
430.923	22.29
431.283	22.23
431.643	22.29
432.003	22.34
432.363	22.15
432.722	22.43
433.082	22.49
433.442	22.48
433.802	22.74
434.161	22.48
434.521	22.5
434.881	22.57
435.24	22.58
435.6	22.55
435.959	22.66
436.319	22.67
436.678	22.84
437.037	22.79
437.396	22.92
437.756	22.95
438.115	23.09
438.474	23.04
438.833	22.97
439.192	22.96
439.551	23.04
439.91	23.29
440.269	23.18
440.628	23.33
440.987	23.26
441.345	23.03
441.704	23.16
442.063	23.17
442.421	23.11
442.78	23.09
443.138	23.26
443.497	23.35
443.855	23.3
444.214	23.37
444.572	23.51
444.93	23.63
445.288	23.58
445.647	23.81
446.005	23.54
446.363	23.83
446.721	23.75
447.079	23.74
447.437	23.75
447.795	23.55
448.153	23.69
448.51	23.7
448.868	23.64
449.226	23.66
449.584	23.81
449.941	23.85
450.299	24.13
450.656	24
451.014	24.16
451.371	24.28
451.729	24.37
452.086	24.45
452.443	24.31
452.801	24.51
453.158	24.64
453.515	24.62
453.872	24.69
454.229	24.77
454.586	24.69
454.943	24.65
455.3	24.74
455.657	24.68
456.014	24.81
456.371	25.14
456.727	24.97
457.084	25
457.441	25.06
457.797	25.12
458.154	25.14
458.51	25.29
458.867	25.11
459.223	25.44
459.58	25.34
459.936	25.19
460.292	25.31
460.648	25.2
461.005	25.4
461.361	25.33
461.717	25.06
462.073	25.17
462.429	25.22
462.785	25.36
463.141	25.52
463.496	25.49
463.852	25.72
464.208	25.88
464.564	25.96
464.919	25.86
465.275	26.02
465.631	26.04
465.986	26.31
466.342	26.16
466.697	26.17
467.052	26.34
467.408	26.09
467.763	26.38
468.118	26.34
468.473	26.3
468.829	26.41
469.184	26.48
469.539	26.28
469.894	26.44
470.249	26.38
470.603	26.38
470.958	26.46
471.313	26.71
471.668	26.5
472.023	26.67
472.377	26.9
472.732	26.58
473.086	26.81
473.441	27.11
473.795	27.21
474.15	26.96
474.504	27.02
474.859	27.1
475.213	27.2
475.567	27.2
475.921	27.28
476.275	26.98
476.63	27.43
476.984	27.25
477.338	27.33
477.692	27.41
478.045	27.47
478.399	27.37
478.753	27.5
479.107	27.52
479.461	27.55
479.814	27.79
480.168	27.75
480.521	27.65
480.875	27.63
481.228	27.8
481.582	27.67
481.935	27.67
482.289	27.74
482.642	27.86
482.995	27.75
483.348	27.84
483.701	27.88
484.055	27.75
484.408	27.67
484.761	27.54
485.114	27.5
485.466	27.21
485.819	27.19
486.172	27.15
486.525	27.19
486.878	27.06
487.23	27.25
487.583	27.4
487.936	27.51
488.288	27.77
488.641	27.75
488.993	27.67
489.345	27.77
489.698	27.54
490.05	27.63
490.402	27.61
490.754	27.66
491.107	27.9
491.459	27.94
491.811	28.28
492.163	28.29
492.515	28.44
492.866	28.41
493.218	28.41
493.57	28.3
493.922	28.15
494.274	28.13
494.625	28.3
494.977	28.47
495.328	28.7
495.68	28.86
496.031	29.03
496.383	29.2
496.734	29.37
497.086	29.41
497.437	29.51
497.788	29.48
498.139	29.63
498.49	29.4
498.842	29.34
499.193	29.48
499.544	29.35
499.894	29.52
500.245	29.68
500.596	29.73
500.947	29.78
501.298	29.62
501.648	29.65
501.999	29.94
502.35	30.07
502.7	30.21
503.051	30.17
503.401	30.26
503.752	30.07
504.102	30.26
504.452	30.31
504.803	30.31
505.153	30.36
505.503	30.46
505.853	30.34
506.203	30.44
506.553	30.56
506.903	30.49
507.253	30.72
507.603	30.57
507.953	30.64
508.303	30.59
508.652	30.73
509.002	30.8
509.352	30.9
509.701	30.76
510.051	30.91
510.4	30.8
510.75	30.93
511.099	30.89
511.449	30.87
511.798	31.12
512.147	31.11
512.496	30.99
512.846	31.05
513.195	31.14
513.544	31.06
513.893	31.35
514.242	31.22
514.591	31.3
514.939	31.35
515.288	31.37
515.637	31.39
515.986	31.74
516.334	31.64
516.683	31.62
517.032	31.68
517.38	31.61
517.729	32
518.077	31.75
518.426	31.91
518.774	31.84
519.122	31.89
519.47	31.99
519.819	31.95
520.167	31.78
520.515	31.71
520.863	31.79
521.211	31.67
521.559	31.82
521.907	31.85
522.255	31.99
522.602	32.06
522.95	32.24
523.298	32.35
523.645	32.39
523.993	32.42
524.341	32.58
524.688	32.77
525.036	32.71
525.383	32.7
525.73	32.81
526.078	32.75
526.425	32.84
526.772	32.79
527.119	32.66
527.466	32.57
527.814	32.61
528.161	32.7
528.508	32.45
528.854	32.61
529.201	32.56
529.548	32.58
529.895	32.45
530.242	32.52
530.588	32.33
530.935	32.55
531.282	32.55
531.628	32.38
531.975	32.38
532.321	32.67
532.667	32.8
533.014	32.99
533.36	33.08
533.706	33.23
534.052	33.29
534.399	33.26
534.745	33.21
535.091	33.11
535.437	33.01
535.783	33.09
536.129	33.26
536.474	33.23
536.82	33.33
537.166	33.4
537.512	33.77
537.857	33.84
538.203	33.88
538.549	33.77
538.894	33.74
539.239	33.77
539.585	34
539.93	33.95
540.276	34.03
540.621	34.23
540.966	34.22
541.311	34.57
541.656	34.56
542.001	34.64
542.346	34.74
542.691	34.14
543.036	34.16
543.381	34.08
543.726	33.94
544.071	33.98
544.415	34.09
544.76	34.05
545.105	34.24
545.449	34.45
545.794	34.61
546.138	34.54
546.483	34.67
546.827	34.88
547.171	34.88
547.516	35.1
547.86	35.08
548.204	35.07
548.548	35.32
548.892	35.09
549.236	35.17
549.58	35.06
549.924	35.4
550.268	35.52
550.612	35.59
550.956	35.77
551.3	35.82
551.643	35.68
551.987	36.07
552.33	35.98
552.674	35.85
553.017	35.79
553.361	36.34
553.704	36.24
554.048	36.14
554.391	36.52
554.734	36.06
555.077	36.08
555.42	36.26
555.764	36.16
556.107	36.4
556.45	36.32
556.793	36.36
557.135	36.34
557.478	36.63
557.821	36.76
558.164	36.62
558.507	36.84
558.849	36.9
559.192	36.72
559.534	36.79
559.877	36.93
560.219	37.39
560.562	36.84
560.904	36.93
561.246	37.09
561.589	37.21
561.931	37.16
562.273	37.2
562.615	37.32
562.957	37.35
563.299	37.52
563.641	37.29
563.983	37.33
564.325	37.64
564.667	37.72
565.008	37.6
565.35	37.91
565.692	37.45
566.033	37.63
566.375	37.76
566.716	37.81
567.058	37.87
567.399	37.86
567.741	37.85
568.082	37.91
568.423	37.76
568.764	37.62
569.105	37.96
569.447	38
569.788	37.97
570.129	37.85
570.47	38.18
570.811	38.01
571.151	38.1
571.492	38.24
571.833	38.48
572.174	38.52
572.514	38.4
572.855	38.4
573.195	38.36
573.536	38.47
573.876	38.57
574.217	38.23
574.557	38.36
574.898	38.4
575.238	38.45
575.578	38.63
575.918	38.6
576.258	38.9
576.598	38.62
576.938	39.01
577.278	39.1
577.618	38.74
577.958	38.75
578.298	38.85
578.638	38.92
578.977	38.89
579.317	39.03
579.657	39.06
579.996	39.57
580.336	39.29
580.675	39.22
581.014	39.61
581.354	39.17
581.693	39.54
582.032	39.63
582.372	39.81
582.711	39.62
583.05	39.82
583.389	39.64
583.728	39.89
584.067	40.04
584.406	39.88
584.745	40.03
585.083	39.9
585.422	39.85
585.761	40.05
586.1	40.29
586.438	40.11
586.777	40.12
587.115	40.4
587.454	40.27
587.792	40.18
588.13	40.6
588.469	40.25
588.807	40.14
589.145	40.73
589.483	40.42
589.821	40.28
590.159	40.81
590.497	40.71
590.835	40.82
591.173	40.69
591.511	40.62
591.849	40.62
592.187	40.66
592.524	40.81
592.862	40.34
593.2	40.67
593.537	40.89
593.875	40.86
594.212	40.83
594.55	41.18
594.887	40.87
595.224	41.1
595.561	41.4
595.899	41.27
596.236	41.17
596.573	41.56
596.91	41.26
597.247	41.29
597.584	40.98
597.921	41.42
598.258	41.56
598.594	41.71
598.931	41.48
599.268	41.35
599.604	41.31
599.941	41.4
600.277	41.34
600.614	41.47
600.95	41.64
601.287	41.71
601.623	41.99
601.959	41.77
602.296	41.34
602.632	42.12
602.968	41.97
603.304	41.82
603.64	41.93
603.976	42.31
604.312	42.44
604.648	42.04
604.984	42.52
605.319	42.41
605.655	42.07
605.991	42.12
606.326	41.77
606.662	42.04
606.998	41.94
607.333	42.24
607.668	41.98
608.004	42.31
608.339	42.41
608.674	42.54
609.01	42.47
609.345	42.7
609.68	42.42
610.015	42.61
610.35	42.8
610.685	43.02
611.02	43.01
611.355	42.54
611.689	42.52
612.024	42.71
612.359	42.87
612.694	42.73
613.028	42.68
613.363	42.86
613.697	42.87
614.032	43.08
614.366	42.66
614.7	42.86
615.035	43.44
615.369	43.45
615.703	43.22
616.037	43.42
616.371	43.44
616.705	43.48
617.039	43.16
617.373	43.16
617.707	43.7
618.041	43.82
618.375	43.12
618.709	43.54
619.042	43.53
619.376	43.71
619.71	43.43
620.043	44.21
620.377	43.61
620.71	43.98
621.043	44.01
621.377	44
621.71	43.98
622.043	43.95
622.376	44.15
622.709	43.91
623.043	44.35
623.376	44.39
623.709	44.04
624.041	44.25
624.374	44.25
624.707	44.06
625.04	44.1
625.373	44.51
625.705	43.99
626.038	44.8
626.37	44.23
626.703	44.22
627.035	44.14
627.368	44.28
627.7	45.16
628.032	44.41
628.365	44.75
628.697	44.71
629.029	44.65
629.361	44.98
629.693	44.71
630.025	44.65
630.357	44.99
630.689	44.82
631.021	44.85
631.353	45.07
631.684	44.55
632.016	44.96
632.348	44.74
632.679	44.99
633.011	44.89
633.342	45.17
633.674	45.2
634.005	45.38
634.336	45.87
634.668	45.2
634.999	45.34
635.33	45.05
635.661	46.01
635.992	45.58
636.323	45.26
636.654	45.48
636.985	45.52
637.316	45.49
637.647	45.6
637.977	45.61
638.308	45.41
638.639	45.9
638.969	45.33
639.3	45.31
639.63	45.95
639.961	45.29
640.291	45.19
640.622	45.74
640.952	45.91
641.282	45.97
641.612	45.94
641.943	45.86
642.273	45.87
642.603	46.33
642.933	46.06
643.263	46.43
643.592	46.16
643.922	46.26
644.252	46.13
644.582	46.2
644.911	45.91
645.241	46.35
645.571	46.85
645.9	46.22
646.23	46.05
646.559	46.6
646.888	46.36
647.218	46.65
647.547	45.79
647.876	46.36
648.205	46.64
648.534	46.01
648.863	46.36
649.192	46.63
649.521	46.47
649.85	46.9
650.179	47.34
650.508	46.5
650.837	46.54
651.165	47.07
651.494	46.42
651.822	47.47
652.151	47.29
652.479	47.02
652.808	47.19
653.136	46.37
653.465	46.71
653.793	47.07
654.121	47.17
654.449	46.99
654.777	46.91
655.105	47.46
655.433	47.43
655.761	47.93
656.089	46.83
656.417	46.92
656.745	47.06
657.073	47.26
657.4	47.06
657.728	47.22
658.056	47.2
658.383	47.32
658.711	47.95
659.038	47.61
659.365	48.15
659.693	47.3
660.02	47.23
660.347	47.63
660.674	47.89
661.001	47.6
661.329	47.75
661.656	47.96
661.982	47.64
662.309	48.03
662.636	48.12
662.963	47.38
663.29	47.31
663.616	48.12
663.943	47.96
664.27	48.02
664.596	48.4
664.923	48.01
665.249	47.79
665.576	47.7
665.902	47.62
666.228	48.28
666.554	48.75
666.881	48.41
667.207	48.72
667.533	48.21
667.859	48.52
668.185	48.52
668.511	48.08
668.837	47.9
669.162	48.04
669.488	48.15
