Data from 0278_forehead_Reflection__2__197.txt Node

Date: Fri Oct 20 22:13:58 CDT 2023
User: ToomeyLab
Spectrometer: FLMS14357
Trigger mode: 0
Integration Time (sec): 1.000000E-2
Scans to average: 100
Electric dark correction enabled: true
Nonlinearity correction enabled: false
Boxcar width: 0
XAxis mode: Wavelengths
Number of Pixels in Spectrum: 2048
>>>>>Begin Spectral Data<<<<<
189.047	31.91
189.435	31.91
189.823	31.91
190.211	-134.26
190.599	225.42
190.987	73.71
191.375	-295.79
191.763	3.15
192.151	-131.06
192.538	-83.6
192.926	-2104.52
193.314	113.69
193.702	23.48
194.089	37.99
194.477	85.91
194.864	-402.76
195.252	49.58
195.639	19.17
196.027	-14.48
196.414	170.74
196.801	514.59
197.189	280.49
197.576	211.86
197.963	338.65
198.351	63.04
198.738	31.93
199.125	24.85
199.512	32.64
199.899	50.74
200.286	28.84
200.673	-4.42
201.06	17.59
201.447	-19.57
201.833	51.94
202.22	21.64
202.607	35.47
202.994	47.74
203.38	43.69
203.767	8.62
204.154	32.38
204.54	52.96
204.927	33.07
205.313	-3.16
205.699	39.98
206.086	21.52
206.472	30.58
206.858	46.39
207.245	1.85
207.631	43.89
208.017	19.01
208.403	6.11
208.789	48.9
209.175	5.73
209.561	-20.75
209.947	-29.54
210.333	24.46
210.719	16.31
211.105	31.96
211.491	52.33
211.876	31.26
212.262	57.21
212.648	34.14
213.034	-10.27
213.419	33.69
213.805	11.86
214.19	13.6
214.576	25.66
214.961	4.78
215.346	34.15
215.732	26.04
216.117	-14.52
216.502	0.85
216.888	8.35
217.273	6.73
217.658	14.65
218.043	5.4
218.428	-1.56
218.813	19.68
219.198	19.65
219.583	-23.01
219.968	-9.48
220.353	24.13
220.738	19.28
221.122	20.49
221.507	9.35
221.892	-8.51
222.276	9.28
222.661	23.19
223.046	8.08
223.43	9.18
223.815	18.19
224.199	20.07
224.583	-2.03
224.968	-2.63
225.352	12.48
225.736	0.43
226.121	5.49
226.505	7.02
226.889	8.49
227.273	1.8
227.657	9.69
228.041	12.38
228.425	8.87
228.809	4.25
229.193	8.31
229.577	4.32
229.961	2.72
230.344	4.51
230.728	2.93
231.112	4.5
231.495	3.69
231.879	4.85
232.263	5.14
232.646	3.98
233.03	3.43
233.413	2.44
233.797	4.58
234.18	4.25
234.563	6.11
234.946	6.36
235.33	4.35
235.713	4.42
236.096	6.09
236.479	4.33
236.862	3.44
237.245	3.35
237.628	4.59
238.011	4.5
238.394	3.9
238.777	5.45
239.16	4.91
239.543	5.68
239.925	5.73
240.308	4.06
240.691	5.35
241.073	4.93
241.456	5.9
241.838	4.33
242.221	4.54
242.603	3.58
242.986	3.85
243.368	4
243.75	3.66
244.133	3.5
244.515	3.51
244.897	3.83
245.279	3.94
245.661	3.98
246.043	2.82
246.425	4.01
246.807	3.28
247.189	4.84
247.571	3.49
247.953	4.29
248.335	4
248.717	3.64
249.098	3.38
249.48	3.27
249.862	3.72
250.243	3.88
250.625	3.65
251.006	3.85
251.388	4.04
251.769	4.07
252.151	3.11
252.532	3.93
252.913	4.05
253.295	2.25
253.676	3.19
254.057	3.49
254.438	3.6
254.819	3.69
255.2	3.89
255.581	3.07
255.962	3.46
256.343	4.47
256.724	3.18
257.105	3.78
257.486	4.86
257.867	4.54
258.247	3.46
258.628	3.34
259.009	3.61
259.389	4.13
259.77	3.36
260.15	4.13
260.531	3.5
260.911	3.67
261.292	3.54
261.672	3.79
262.052	3.91
262.432	3.68
262.813	3.49
263.193	3.67
263.573	3.92
263.953	3.99
264.333	4.59
264.713	3.88
265.093	4.17
265.473	4.17
265.853	3.86
266.233	4.1
266.612	3.71
266.992	3.22
267.372	3.7
267.752	3.87
268.131	4.43
268.511	3.9
268.89	3.73
269.27	3.6
269.649	3.32
270.029	3.58
270.408	3.84
270.787	3.75
271.167	3.93
271.546	3.43
271.925	3.98
272.304	4.07
272.683	4.25
273.062	3.7
273.441	3.74
273.82	3.51
274.199	3.85
274.578	3.53
274.957	3.71
275.336	3.9
275.715	3.84
276.093	3.45
276.472	3.75
276.851	3.41
277.229	3.49
277.608	3.8
277.986	3.62
278.365	4.11
278.743	3.49
279.122	3.41
279.5	3.81
279.878	3.17
280.257	3.49
280.635	3.91
281.013	3.77
281.391	3.86
281.769	3.38
282.147	3.5
282.525	3.8
282.903	3.2
283.281	3.84
283.659	3.48
284.037	3.85
284.415	3.21
284.792	3.31
285.17	3.92
285.548	3.79
285.925	3.23
286.303	3.35
286.68	3.55
287.058	4.05
287.435	3.69
287.813	3.21
288.19	3.52
288.567	4.03
288.945	3.71
289.322	4.13
289.699	3.1
290.076	4.11
290.453	3.97
290.83	4.02
291.207	4.05
291.584	3.99
291.961	3.82
292.338	3.52
292.715	3.65
293.092	3.74
293.469	3.73
293.845	3.9
294.222	4.06
294.599	3.78
294.975	4.65
295.352	3.92
295.728	4.29
296.105	3.83
296.481	4.4
296.858	3.97
297.234	4.17
297.61	4.06
297.986	4.21
298.363	4.37
298.739	4.36
299.115	4.05
299.491	4.36
299.867	4.28
300.243	4.51
300.619	4.51
300.995	4.54
301.371	4.54
301.746	4.49
302.122	4.55
302.498	4.45
302.874	4.66
303.249	4.59
303.625	4.97
304	5.04
304.376	4.52
304.751	4.43
305.127	4.63
305.502	5.27
305.878	5.51
306.253	5.19
306.628	4.93
307.003	5.17
307.378	4.79
307.754	5.49
308.129	5.01
308.504	5.61
308.879	5.75
309.254	5.98
309.629	5.45
310.003	5.4
310.378	5.87
310.753	5.63
311.128	5.87
311.502	5.98
311.877	5.64
312.252	5.81
312.626	6.02
313.001	6.11
313.375	5.77
313.75	6.08
314.124	5.62
314.498	5.94
314.873	6.15
315.247	6.42
315.621	6.29
315.995	6.78
316.369	6.19
316.743	6.64
317.117	6.66
317.491	6.14
317.865	6.96
318.239	7.25
318.613	6.67
318.987	6.21
319.361	6.01
319.734	6.96
320.108	6.33
320.482	7.25
320.855	6.76
321.229	7.73
321.602	7.42
321.976	7.06
322.349	7.7
322.723	7.28
323.096	7.7
323.469	7.43
323.843	7.79
324.216	7.34
324.589	7.29
324.962	7.81
325.335	7.32
325.708	7.09
326.081	7.67
326.454	7.9
326.827	7.92
327.2	8.02
327.573	8.32
327.945	7.6
328.318	7.48
328.691	7.78
329.063	8.46
329.436	8.01
329.809	8.43
330.181	8.42
330.553	8.4
330.926	8.3
331.298	8.26
331.671	8.22
332.043	8.33
332.415	7.98
332.787	8.47
333.159	8.35
333.532	8.81
333.904	8.9
334.276	8.39
334.648	8.51
335.02	8.91
335.391	8.02
335.763	8.74
336.135	8.98
336.507	9.28
336.879	9.17
337.25	8.88
337.622	9.09
337.993	9.63
338.365	9.03
338.736	9.09
339.108	9.33
339.479	9.02
339.851	9.31
340.222	9.25
340.593	8.77
340.964	9.37
341.336	9.74
341.707	9.55
342.078	9.05
342.449	9.55
342.82	8.92
343.191	9.5
343.562	9.56
343.933	9.57
344.303	9.09
344.674	9.66
345.045	9.88
345.416	9.91
345.786	9.61
346.157	9.67
346.527	9.68
346.898	10.2
347.268	9.54
347.639	9.94
348.009	9.85
348.38	10.09
348.75	9.68
349.12	10.12
349.49	9.92
349.861	10.46
350.231	10.15
350.601	10.13
350.971	10.47
351.341	10.25
351.711	10.35
352.081	10.4
352.45	10.25
352.82	10.29
353.19	10.95
353.56	10.29
353.929	10.34
354.299	10.32
354.669	10.46
355.038	10.6
355.408	11
355.777	10.68
356.147	10.76
356.516	10.68
356.885	10.77
357.254	10.87
357.624	10.79
357.993	10.4
358.362	10.71
358.731	10.85
359.1	10.77
359.469	10.97
359.838	11.4
360.207	11.06
360.576	11.27
360.945	10.79
361.314	11.02
361.682	10.97
362.051	11.04
362.42	11.02
362.788	11.29
363.157	11.17
363.525	10.85
363.894	11.06
364.262	11.34
364.631	11.3
364.999	11.38
365.367	11.22
365.735	11.15
366.104	11.65
366.472	11.7
366.84	11.69
367.208	11.64
367.576	11.89
367.944	11.75
368.312	11.53
368.68	11.72
369.048	11.91
369.416	11.94
369.783	12.37
370.151	12.2
370.519	11.81
370.886	12.07
371.254	11.99
371.621	12.28
371.989	12.04
372.356	12.46
372.724	12.17
373.091	12.33
373.458	11.88
373.826	12.14
374.193	11.93
374.56	12.16
374.927	12.05
375.294	12.52
375.661	12.64
376.028	12.91
376.395	12.84
376.762	12.82
377.129	12.43
377.496	12.76
377.863	12.95
378.229	12.76
378.596	12.6
378.963	12.8
379.329	12.91
379.696	12.74
380.062	12.86
380.429	12.76
380.795	12.91
381.161	12.97
381.528	13.21
381.894	13.02
382.26	13.2
382.626	13.08
382.993	13.03
383.359	13.04
383.725	13.17
384.091	13.49
384.457	13.37
384.823	13.37
385.188	13.69
385.554	13.71
385.92	13.71
386.286	13.6
386.651	13.51
387.017	13.57
387.383	13.52
387.748	13.37
388.114	13.4
388.479	14.07
388.845	13.61
389.21	13.74
389.575	13.63
389.94	13.83
390.306	13.63
390.671	13.72
391.036	13.48
391.401	14
391.766	13.95
392.131	14.1
392.496	14.02
392.861	14.43
393.226	14.07
393.591	13.96
393.956	14.15
394.32	14.29
394.685	14.26
395.05	14.33
395.414	14.29
395.779	14.21
396.143	14.55
396.508	14.34
396.872	14.24
397.236	14.63
397.601	14.55
397.965	14.2
398.329	14.36
398.694	14.59
399.058	14.33
399.422	14.53
399.786	14.93
400.15	14.84
400.514	14.69
400.878	15.07
401.242	15.08
401.605	14.98
401.969	14.73
402.333	14.78
402.697	14.99
403.06	14.94
403.424	14.9
403.787	15.07
404.151	15.16
404.514	15.39
404.878	15.17
405.241	15.22
405.604	15.12
405.968	15.36
406.331	15.22
406.694	15.21
407.057	15.27
407.42	15.39
407.783	15.5
408.146	15.22
408.509	15.45
408.872	15.66
409.235	15.53
409.598	15.58
409.961	15.57
410.323	15.72
410.686	15.54
411.049	15.74
411.411	15.65
411.774	15.8
412.136	15.81
412.499	15.67
412.861	16.07
413.223	15.71
413.586	15.86
413.948	16.09
414.31	16.34
414.672	16.2
415.035	16.04
415.397	16.2
415.759	16.42
416.121	16.21
416.483	16.41
416.845	16.2
417.206	16.38
417.568	16.56
417.93	16.44
418.292	16.16
418.653	16.54
419.015	16.39
419.377	16.26
419.738	16.38
420.1	16.48
420.461	16.33
420.822	16.35
421.184	16.41
421.545	16.44
421.906	16.44
422.267	16.4
422.629	16.53
422.99	16.42
423.351	16.47
423.712	16.41
424.073	16.54
424.434	16.63
424.795	16.6
425.155	16.81
425.516	16.76
425.877	16.7
426.238	16.68
426.598	16.73
426.959	16.77
427.32	16.84
427.68	16.89
428.041	17.18
428.401	17.03
428.761	17.29
429.122	17.36
429.482	17.29
429.842	17.36
430.202	17.43
430.563	17.42
430.923	17.8
431.283	17.64
431.643	17.51
432.003	17.72
432.363	17.64
432.722	17.72
433.082	17.67
433.442	17.68
433.802	17.84
434.161	17.79
434.521	17.92
434.881	17.89
435.24	17.76
435.6	17.83
435.959	17.78
436.319	17.92
436.678	18.26
437.037	17.91
437.396	18.18
437.756	18.27
438.115	18.24
438.474	18.34
438.833	18.17
439.192	18.2
439.551	18.29
439.91	18.33
440.269	18.36
440.628	18.47
440.987	18.3
441.345	18.43
441.704	18.35
442.063	18.26
442.421	18.43
442.78	18.27
443.138	18.45
443.497	18.56
443.855	18.49
444.214	18.67
444.572	18.63
444.93	18.95
445.288	18.72
445.647	18.95
446.005	18.81
446.363	18.88
446.721	18.95
447.079	19.04
447.437	18.98
447.795	18.83
448.153	18.83
448.51	18.84
448.868	18.94
449.226	18.87
449.584	18.94
449.941	18.89
450.299	19.21
450.656	19.2
451.014	19.17
451.371	19.44
451.729	19.44
452.086	19.3
452.443	19.49
452.801	19.5
453.158	19.74
453.515	19.63
453.872	19.62
454.229	19.77
454.586	19.79
454.943	19.74
455.3	19.71
455.657	19.78
456.014	19.76
456.371	20.1
456.727	20.06
457.084	19.84
457.441	20.1
457.797	20.13
458.154	20.18
458.51	20.22
458.867	20.39
459.223	20.27
459.58	20.16
459.936	20.33
460.292	20.17
460.648	20.13
461.005	20.23
461.361	20.12
461.717	20.05
462.073	20.11
462.429	20.14
462.785	20.13
463.141	20.42
463.496	20.52
463.852	20.54
464.208	20.57
464.564	20.87
464.919	20.72
465.275	20.98
465.631	21.04
465.986	21.07
466.342	21.09
466.697	20.96
467.052	21
467.408	20.98
467.763	21.24
468.118	21.37
468.473	21.12
468.829	21.21
469.184	21.15
469.539	21.11
469.894	21.21
470.249	21.28
470.603	21.19
470.958	21.46
471.313	21.35
471.668	21.51
472.023	21.3
472.377	21.65
472.732	21.49
473.086	21.68
473.441	21.62
473.795	21.76
474.15	21.5
474.504	21.66
474.859	21.81
475.213	21.89
475.567	21.85
475.921	21.79
476.275	21.9
476.63	22.06
476.984	22.12
477.338	22.1
477.692	21.81
478.045	22.16
478.399	21.81
478.753	22.28
479.107	22.03
479.461	22.16
479.814	22.27
480.168	22.26
480.521	22.19
480.875	22.15
481.228	22.3
481.582	22.25
481.935	22.38
482.289	22.28
482.642	22.42
482.995	22.44
483.348	22.34
483.701	22.45
484.055	22.47
484.408	22.23
484.761	22.21
485.114	22.12
485.466	21.82
485.819	21.73
486.172	21.66
486.525	21.76
486.878	21.69
487.23	21.9
487.583	21.96
487.936	22.2
488.288	22.31
488.641	22.3
488.993	22.18
489.345	22.16
489.698	22.13
490.05	22.16
490.402	22.19
490.754	22.28
491.107	22.37
491.459	22.42
491.811	22.72
492.163	22.85
492.515	22.86
492.866	23.01
493.218	22.88
493.57	22.73
493.922	22.66
494.274	22.66
494.625	22.79
494.977	22.92
495.328	23.2
495.68	23.36
496.031	23.31
496.383	23.76
496.734	23.73
497.086	23.61
497.437	23.89
497.788	23.81
498.139	23.92
498.49	23.91
498.842	23.8
499.193	23.9
499.544	23.76
499.894	23.8
500.245	23.91
500.596	24.12
500.947	24.07
501.298	24.18
501.648	24.05
501.999	24.25
502.35	24.39
502.7	24.34
503.051	24.43
503.401	24.38
503.752	24.29
504.102	24.55
504.452	24.55
504.803	24.55
505.153	24.6
505.503	24.53
505.853	24.91
506.203	24.71
506.553	24.77
506.903	24.8
507.253	24.83
507.603	24.73
507.953	25.1
508.303	25
508.652	25.03
509.002	24.98
509.352	24.89
509.701	24.94
510.051	25.07
510.4	25.12
510.75	25.03
511.099	25.18
511.449	24.97
511.798	25.22
512.147	25
512.496	25.13
512.846	25.23
513.195	25.26
513.544	25.31
513.893	25.27
514.242	25.47
514.591	25.35
514.939	25.3
515.288	25.46
515.637	25.53
515.986	25.64
516.334	25.56
516.683	25.54
517.032	25.6
517.38	25.71
517.729	25.9
518.077	25.75
518.426	25.86
518.774	25.86
519.122	25.81
519.47	25.94
519.819	25.84
520.167	25.89
520.515	25.78
520.863	25.75
521.211	25.71
521.559	25.85
521.907	25.77
522.255	26.01
522.602	26.11
522.95	26
523.298	26.27
523.645	26.34
523.993	26.49
524.341	26.48
524.688	26.53
525.036	26.62
525.383	26.69
525.73	26.67
526.078	26.66
526.425	26.71
526.772	26.64
527.119	26.68
527.466	26.31
527.814	26.45
528.161	26.53
528.508	26.39
528.854	26.48
529.201	26.45
529.548	26.65
529.895	26.41
530.242	26.36
530.588	26.13
530.935	26.21
531.282	26.31
531.628	26.29
531.975	26.2
532.321	26.53
532.667	26.54
533.014	26.83
533.36	26.85
533.706	27.07
534.052	27.14
534.399	27.02
534.745	27.06
535.091	26.85
535.437	26.87
535.783	26.86
536.129	26.98
536.474	27.12
536.82	27.19
537.166	27.37
537.512	27.52
537.857	27.5
538.203	27.42
538.549	27.49
538.894	27.44
539.239	27.5
539.585	27.73
539.93	27.71
540.276	27.75
540.621	27.8
540.966	27.94
541.311	28.17
541.656	28.27
542.001	28.17
542.346	28.22
542.691	28.03
543.036	27.91
543.381	27.59
543.726	27.58
544.071	27.71
544.415	27.56
544.76	27.59
545.105	27.91
545.449	27.94
545.794	28.07
546.138	28.25
546.483	28.32
546.827	28.44
547.171	28.68
547.516	28.58
547.86	28.66
548.204	28.69
548.548	28.76
548.892	28.58
549.236	28.77
549.58	28.75
549.924	28.8
550.268	29
550.612	29.11
550.956	29.4
551.3	29.17
551.643	29.12
551.987	29.65
552.33	29.59
552.674	29.54
553.017	29.63
553.361	29.7
553.704	29.92
554.048	29.89
554.391	29.83
554.734	29.82
555.077	29.69
555.42	29.63
555.764	29.67
556.107	29.81
556.45	29.76
556.793	29.75
557.135	29.79
557.478	29.92
557.821	30.12
558.164	30.07
558.507	30.33
558.849	30.28
559.192	30.18
559.534	30.13
559.877	30.4
560.219	30.53
560.562	30.62
560.904	30.51
561.246	30.56
561.589	30.56
561.931	30.75
562.273	30.71
562.615	30.57
562.957	30.8
563.299	30.83
563.641	30.58
563.983	30.59
564.325	30.78
564.667	30.79
565.008	30.91
565.35	31.03
565.692	30.88
566.033	30.99
566.375	30.95
566.716	31.06
567.058	31.04
567.399	31.03
567.741	31.21
568.082	31.17
568.423	30.99
568.764	30.98
569.105	31.33
569.447	31.14
569.788	31.15
570.129	31.12
570.47	31.3
570.811	31.39
571.151	31.39
571.492	31.32
571.833	31.79
572.174	31.62
572.514	31.44
572.855	31.44
573.195	31.33
573.536	31.53
573.876	31.69
574.217	31.36
574.557	31.46
574.898	31.59
575.238	31.76
575.578	31.7
575.918	31.68
576.258	31.96
576.598	31.93
576.938	31.99
577.278	32.04
577.618	31.99
577.958	31.89
578.298	31.91
578.638	32.24
578.977	32.09
579.317	32.25
579.657	32.36
579.996	32.36
580.336	32.23
580.675	32.62
581.014	32.3
581.354	32.36
581.693	32.73
582.032	32.78
582.372	32.67
582.711	32.88
583.05	33.05
583.389	32.59
583.728	32.84
584.067	32.81
584.406	32.9
584.745	33.18
585.083	33.13
585.422	33.06
585.761	33.2
586.1	33.18
586.438	33.18
586.777	33.21
587.115	33.59
587.454	33.4
587.792	33.27
588.13	33.63
588.469	33.14
588.807	33.02
589.145	33.66
589.483	33.63
589.821	32.99
590.159	33.77
590.497	33.81
590.835	33.74
591.173	33.5
591.511	33.68
591.849	33.98
592.187	33.61
592.524	33.38
592.862	33.57
593.2	33.93
593.537	33.71
593.875	33.61
594.212	34.17
594.55	34.01
594.887	33.99
595.224	33.89
595.561	33.99
595.899	34.05
596.236	34.01
596.573	34.28
596.91	34.29
597.247	34.13
597.584	33.95
597.921	34.37
598.258	34.2
598.594	34.28
598.931	34.36
599.268	34.07
599.604	34.23
599.941	34.33
600.277	34.24
600.614	34.27
600.95	34.59
601.287	34.55
601.623	34.6
601.959	34.62
602.296	34.51
602.632	34.87
602.968	34.62
603.304	35.04
603.64	34.64
603.976	34.96
604.312	35.25
604.648	34.93
604.984	34.98
605.319	35.03
605.655	34.75
605.991	34.83
606.326	34.65
606.662	34.77
606.998	34.94
607.333	34.84
607.668	34.66
608.004	35.18
608.339	34.71
608.674	35.05
609.01	35
609.345	35.43
609.68	35.28
610.015	35.45
610.35	35.82
610.685	35.73
611.02	35.57
611.355	35.26
611.689	35.44
612.024	35.6
612.359	35.5
612.694	35.57
613.028	35.38
613.363	35.58
613.697	35.87
614.032	35.89
614.366	35.62
614.7	35.69
615.035	36.21
615.369	36.02
615.703	35.67
616.037	36.23
616.371	36.24
616.705	36.33
617.039	35.98
617.373	36.02
617.707	36.25
618.041	36.3
618.375	35.95
618.709	35.89
619.042	36.28
619.376	36.3
619.71	36.51
620.043	36.55
620.377	36.35
620.71	36.44
621.043	36.48
621.377	36.47
621.71	36.2
622.043	36.58
622.376	36.73
622.709	36.99
623.043	36.89
623.376	36.84
623.709	36.55
624.041	37
624.374	36.27
624.707	36.6
625.04	36.99
625.373	37.06
625.705	36.54
626.038	37.03
626.37	36.72
626.703	36.88
627.035	36.66
627.368	36.66
627.7	37.31
628.032	37.21
628.365	37.35
628.697	37.18
629.029	37.35
629.361	37.42
629.693	37.64
630.025	37.42
630.357	37.61
630.689	37.48
631.021	37.69
631.353	37.63
631.684	37.08
632.016	37.64
632.348	37.42
632.679	37.25
633.011	37.54
633.342	37.63
633.674	37.56
634.005	37.46
634.336	37.9
634.668	37.98
634.999	37.94
635.33	38.01
635.661	38.19
635.992	37.67
636.323	38.14
636.654	37.98
636.985	37.53
637.316	38.02
637.647	38.07
637.977	37.88
638.308	38.11
638.639	38.13
638.969	38.13
639.3	37.72
639.63	38.52
639.961	38.24
640.291	37.8
640.622	37.97
640.952	38.67
641.282	38.3
641.612	38.47
641.943	38.38
642.273	38.17
642.603	38.54
642.933	38.26
643.263	38.83
643.592	38.79
643.922	38.92
644.252	38.28
644.582	38.33
644.911	38.45
645.241	38.77
645.571	39.05
645.9	38.59
646.23	38.98
646.559	39.06
646.888	38.81
647.218	39.1
647.547	39.08
647.876	38.64
648.205	39.36
648.534	38.65
648.863	39.08
649.192	39.06
649.521	39.21
649.85	39.16
650.179	39.01
650.508	39.11
650.837	39.33
651.165	39.12
651.494	38.56
651.822	38.83
652.151	39.45
652.479	39.22
652.808	39.48
653.136	39.02
653.465	39.37
653.793	39.72
654.121	40.11
654.449	39.38
654.777	39.35
655.105	39.19
655.433	39.55
655.761	39.84
656.089	39.68
656.417	39.6
656.745	39.76
657.073	40.18
657.4	39.94
657.728	39.66
658.056	39.77
658.383	39.9
658.711	39.42
659.038	39.94
659.365	39.56
659.693	40.23
660.02	39.96
660.347	39.75
660.674	40.3
661.001	39.75
661.329	40.33
661.656	40.19
661.982	40.11
662.309	40.48
662.636	40.61
662.963	39.8
663.29	39.9
663.616	40.36
663.943	40.06
664.27	40.32
664.596	40.52
664.923	40.2
665.249	40.08
665.576	40.84
665.902	40.85
666.228	40.23
666.554	40.56
666.881	40.04
667.207	40.71
667.533	40.53
667.859	40.77
668.185	40.67
668.511	40.95
668.837	40.93
669.162	40.72
669.488	40.78
669.814	40.22
670.139	40.66
670.465	40.32
670.791	41.37
671.116	40.35
