Data from 0278_chest_Reflection__4__188.txt Node

Date: Fri Oct 20 22:10:41 CDT 2023
User: ToomeyLab
Spectrometer: FLMS14357
Trigger mode: 0
Integration Time (sec): 1.000000E-2
Scans to average: 100
Electric dark correction enabled: true
Nonlinearity correction enabled: false
Boxcar width: 0
XAxis mode: Wavelengths
Number of Pixels in Spectrum: 2048
>>>>>Begin Spectral Data<<<<<
189.047	30.71
189.435	30.71
189.823	30.71
190.211	554.26
190.599	-687.29
190.987	49.09
191.375	-41.54
191.763	69.12
192.151	-371.4
192.538	33.83
192.926	201.94
193.314	105.18
193.702	31.61
194.089	67.07
194.477	-34.84
194.864	-1067.74
195.252	-12.13
195.639	116.12
196.027	22.03
196.414	215.94
196.801	562.87
197.189	354.06
197.576	9.06
197.963	456.18
198.351	51.92
198.738	16.7
199.125	38.51
199.512	12.4
199.899	35.68
200.286	-35.04
200.673	55.67
201.06	19.54
201.447	12.92
201.833	36.6
202.22	0.53
202.607	69.74
202.994	38.36
203.38	5.77
203.767	26.7
204.154	16.08
204.54	57.91
204.927	41.66
205.313	-6.1
205.699	31.29
206.086	9.31
206.472	41.35
206.858	51.06
207.245	-38.7
207.631	23.03
208.017	25.95
208.403	0.14
208.789	31.24
209.175	17.16
209.561	15.75
209.947	20.34
210.333	24.26
210.719	6.28
211.105	7.57
211.491	39.03
211.876	24.83
212.262	50.83
212.648	10.94
213.034	-6.04
213.419	2.85
213.805	36.6
214.19	0.86
214.576	-11.54
214.961	-0.11
215.346	39.19
215.732	8.02
216.117	-6.98
216.502	33.19
216.888	17.86
217.273	7.99
217.658	-9.05
218.043	-1.34
218.428	11.1
218.813	8.23
219.198	9.14
219.583	-27.35
219.968	-40.15
220.353	17.62
220.738	14.85
221.122	-8.02
221.507	25.47
221.892	18.12
222.276	8.66
222.661	23.55
223.046	6.7
223.43	6.97
223.815	15.22
224.199	18.33
224.583	-2.71
224.968	-2.09
225.352	0.21
225.736	1
226.121	7.26
226.505	-1.24
226.889	8.64
227.273	1.94
227.657	3.25
228.041	4.72
228.425	1.1
228.809	1.9
229.193	3.78
229.577	6.83
229.961	2.55
230.344	2.38
230.728	1.05
231.112	2.45
231.495	1.41
231.879	2.38
232.263	3.75
232.646	2.28
233.03	2.1
233.413	1.04
233.797	1.5
234.18	0.91
234.563	3.09
234.946	2.27
235.33	0.96
235.713	1.54
236.096	3.42
236.479	2.27
236.862	1
237.245	1.15
237.628	1.38
238.011	2.2
238.394	2.19
238.777	4.61
239.16	0.3
239.543	4.45
239.925	3.08
240.308	1.54
240.691	2.82
241.073	3.4
241.456	1.38
241.838	1.95
242.221	2.32
242.603	2.29
242.986	2.67
243.368	2.25
243.75	1.75
244.133	1.47
244.515	1.46
244.897	1.71
245.279	2.13
245.661	1.51
246.043	1.42
246.425	1.69
246.807	2.04
247.189	2.02
247.571	1.31
247.953	1.83
248.335	2.07
248.717	1.54
249.098	1.61
249.48	1.47
249.862	1.69
250.243	1.73
250.625	1.75
251.006	1.95
251.388	1.97
251.769	2.26
252.151	1.2
252.532	2.8
252.913	1.32
253.295	1.14
253.676	1.85
254.057	1.57
254.438	1.51
254.819	1.48
255.2	1.17
255.581	1.02
255.962	1.31
256.343	1.45
256.724	1.21
257.105	2.24
257.486	3
257.867	1.71
258.247	1.57
258.628	1.7
259.009	1.36
259.389	1.51
259.77	1.56
260.15	1.61
260.531	1.68
260.911	1.7
261.292	1.58
261.672	1.61
262.052	1.65
262.432	1.51
262.813	1.63
263.193	1.91
263.573	1.5
263.953	2.05
264.333	1.66
264.713	2.45
265.093	1.94
265.473	1.66
265.853	1.57
266.233	1.48
266.612	1.74
266.992	1.83
267.372	1.43
267.752	1.61
268.131	1.84
268.511	2.09
268.89	1.5
269.27	1.72
269.649	1.4
270.029	1.79
270.408	1.38
270.787	2.28
271.167	1.42
271.546	1.41
271.925	2.28
272.304	2.6
272.683	1.52
273.062	1.87
273.441	1.79
273.82	1.71
274.199	1.63
274.578	1.52
274.957	1.69
275.336	1.77
275.715	1.54
276.093	1.68
276.472	1.85
276.851	1.91
277.229	2.47
277.608	1.28
277.986	1.37
278.365	1.96
278.743	1.83
279.122	1.78
279.5	1.53
279.878	0.74
280.257	1.56
280.635	2.23
281.013	1.94
281.391	1.39
281.769	1.2
282.147	1.51
282.525	1.84
282.903	2.05
283.281	2
283.659	1.76
284.037	1.39
284.415	1.38
284.792	1.36
285.17	1.73
285.548	1.71
285.925	1.41
286.303	1.48
286.68	1.59
287.058	2.08
287.435	1.78
287.813	1.25
288.19	1.29
288.567	1.45
288.945	2.05
289.322	2.06
289.699	1.02
290.076	2.15
290.453	1.45
290.83	1.39
291.207	2.07
291.584	1.28
291.961	1.58
292.338	1.5
292.715	1.77
293.092	1.58
293.469	1.95
293.845	1.69
294.222	1.53
294.599	1.44
294.975	2.52
295.352	1.6
295.728	1.58
296.105	1.49
296.481	1.83
296.858	1.63
297.234	1.96
297.61	1.53
297.986	1.27
298.363	1.91
298.739	1.59
299.115	1.69
299.491	1.6
299.867	1.77
300.243	1.67
300.619	1.59
300.995	1.49
301.371	1.46
301.746	1.99
302.122	2.21
302.498	1.76
302.874	1.93
303.249	2.36
303.625	1.76
304	1.98
304.376	1.22
304.751	1.5
305.127	1.5
305.502	2.15
305.878	1.94
306.253	2.01
306.628	1.65
307.003	1.83
307.378	1.91
307.754	2.4
308.129	2.44
308.504	1.91
308.879	2.14
309.254	2.08
309.629	1.45
310.003	1.13
310.378	1.68
310.753	1.32
311.128	1.97
311.502	1.87
311.877	1.79
312.252	1.8
312.626	2.28
313.001	1.79
313.375	1.65
313.75	1.85
314.124	1.33
314.498	1.87
314.873	1.47
315.247	1.82
315.621	2.1
315.995	1.98
316.369	1.54
316.743	2.14
317.117	2.14
317.491	1.38
317.865	2.61
318.239	2.27
318.613	2.29
318.987	1.67
319.361	1.11
319.734	1.72
320.108	1.39
320.482	1.71
320.855	1.73
321.229	2.35
321.602	1.93
321.976	2.45
322.349	2.1
322.723	1.84
323.096	2.1
323.469	1.91
323.843	2.07
324.216	1.93
324.589	1.91
324.962	2.1
325.335	2.25
325.708	2.03
326.081	2.33
326.454	2.33
326.827	1.97
327.2	2.34
327.573	2.52
327.945	1.82
328.318	1.99
328.691	1.84
329.063	2.69
329.436	1.78
329.809	2.08
330.181	2.03
330.553	1.93
330.926	2.13
331.298	1.87
331.671	1.88
332.043	1.66
332.415	1.66
332.787	2.25
333.159	1.52
333.532	1.78
333.904	1.4
334.276	1.88
334.648	2.44
335.02	2.09
335.391	2.25
335.763	2.2
336.135	2.44
336.507	2.38
336.879	2.04
337.25	2.11
337.622	2.12
337.993	2.71
338.365	1.82
338.736	2.24
339.108	2.55
339.479	2.05
339.851	2.16
340.222	1.77
340.593	1.32
340.964	1.92
341.336	2.37
341.707	1.63
342.078	2.11
342.449	2.1
342.82	1.81
343.191	2.17
343.562	2.4
343.933	2.04
344.303	2.04
344.674	2.37
345.045	1.99
345.416	2.37
345.786	1.88
346.157	2.05
346.527	1.95
346.898	2.02
347.268	1.99
347.639	2.45
348.009	2.01
348.38	2.25
348.75	2.09
349.12	1.8
349.49	1.74
349.861	2.41
350.231	2.02
350.601	1.86
350.971	2.35
351.341	2.38
351.711	2.61
352.081	2.2
352.45	1.75
352.82	2.23
353.19	2.38
353.56	2.38
353.929	2.27
354.299	2.01
354.669	1.81
355.038	2.28
355.408	2.38
355.777	2.05
356.147	2.09
356.516	1.86
356.885	2.3
357.254	2.42
357.624	2.15
357.993	2.05
358.362	2.34
358.731	1.37
359.1	1.84
359.469	2.23
359.838	2.04
360.207	1.99
360.576	2.29
360.945	2
361.314	2.29
361.682	2.19
362.051	1.81
362.42	1.66
362.788	2.08
363.157	2.21
363.525	2.08
363.894	2.05
364.262	1.99
364.631	1.95
364.999	2.09
365.367	2.34
365.735	1.94
366.104	2.08
366.472	2.26
366.84	2.36
367.208	2.39
367.576	2.13
367.944	2.36
368.312	1.77
368.68	2.62
369.048	2.32
369.416	2.53
369.783	2.24
370.151	2.12
370.519	2.11
370.886	2.11
371.254	2.44
371.621	2.48
371.989	2.05
372.356	2
372.724	2.24
373.091	1.81
373.458	1.89
373.826	2.23
374.193	2.12
374.56	1.92
374.927	2.31
375.294	2.21
375.661	2.24
376.028	2.23
376.395	2.36
376.762	2.04
377.129	2.26
377.496	2.23
377.863	2.43
378.229	2.76
378.596	2.34
378.963	2.39
379.329	2.49
379.696	2.11
380.062	2.18
380.429	2.06
380.795	2.03
381.161	2.26
381.528	2.46
381.894	2.13
382.26	2.38
382.626	2.63
382.993	2.21
383.359	2.15
383.725	2.44
384.091	2.27
384.457	2.02
384.823	2.24
385.188	2.34
385.554	2.26
385.92	2.53
386.286	2.28
386.651	2.18
387.017	2.39
387.383	2.43
387.748	1.96
388.114	1.82
388.479	2.4
388.845	2.45
389.21	1.99
389.575	2
389.94	2.25
390.306	2.16
390.671	2.19
391.036	2.27
391.401	2.48
391.766	2.79
392.131	2.26
392.496	2.24
392.861	2.34
393.226	2.17
393.591	2.1
393.956	2.27
394.32	2.63
394.685	2.23
395.05	2.4
395.414	2.59
395.779	2.26
396.143	2.32
396.508	2.07
396.872	2.26
397.236	2.28
397.601	2.24
397.965	2.17
398.329	2.13
398.694	2.43
399.058	2.02
399.422	2.44
399.786	2.39
400.15	2.3
400.514	2.26
400.878	2.7
401.242	2.54
401.605	2.14
401.969	2.06
402.333	2.31
402.697	2.22
403.06	2.08
403.424	2.39
403.787	2.37
404.151	2.31
404.514	2.29
404.878	2.29
405.241	2.28
405.604	2.25
405.968	2.45
406.331	2.18
406.694	2.32
407.057	2.22
407.42	2.48
407.783	2.22
408.146	2.37
408.509	2.28
408.872	2.51
409.235	2.06
409.598	2.55
409.961	2.42
410.323	2.35
410.686	2.21
411.049	2.48
411.411	2.16
411.774	2.48
412.136	2.33
412.499	2.35
412.861	2.45
413.223	2.49
413.586	2.35
413.948	2.53
414.31	2.61
414.672	2.08
415.035	2.3
415.397	2.5
415.759	2.5
416.121	2.28
416.483	2.57
416.845	2.19
417.206	2.47
417.568	2.46
417.93	2.42
418.292	2.3
418.653	2.42
419.015	2.28
419.377	2.12
419.738	2.29
420.1	2.2
420.461	2.28
420.822	2.27
421.184	2.32
421.545	2.44
421.906	2.28
422.267	2.26
422.629	2.23
422.99	2.31
423.351	2.26
423.712	2.23
424.073	2.35
424.434	2.26
424.795	2.24
425.155	2.32
425.516	2.26
425.877	2.4
426.238	2.2
426.598	2.42
426.959	2.25
427.32	2.36
427.68	2.33
428.041	2.32
428.401	2.39
428.761	2.37
429.122	2.35
429.482	2.45
429.842	2.35
430.202	2.4
430.563	2.33
430.923	2.56
431.283	2.41
431.643	2.39
432.003	2.62
432.363	2.39
432.722	2.59
433.082	2.58
433.442	2.34
433.802	2.63
434.161	2.28
434.521	2.44
434.881	2.38
435.24	2.37
435.6	2.34
435.959	2.34
436.319	2.43
436.678	2.42
437.037	2.41
437.396	2.6
437.756	2.36
438.115	2.37
438.474	2.52
438.833	2.6
439.192	2.43
439.551	2.39
439.91	2.54
440.269	2.49
440.628	2.47
440.987	2.47
441.345	2.36
441.704	2.5
442.063	2.41
442.421	2.42
442.78	2.36
443.138	2.48
443.497	2.51
443.855	2.54
444.214	2.39
444.572	2.47
444.93	2.61
445.288	2.53
445.647	2.54
446.005	2.27
446.363	2.45
446.721	2.39
447.079	2.58
447.437	2.49
447.795	2.36
448.153	2.46
448.51	2.37
448.868	2.42
449.226	2.46
449.584	2.39
449.941	2.39
450.299	2.48
450.656	2.45
451.014	2.45
451.371	2.57
451.729	2.39
452.086	2.52
452.443	2.57
452.801	2.41
453.158	2.57
453.515	2.41
453.872	2.52
454.229	2.65
454.586	2.55
454.943	2.44
455.3	2.44
455.657	2.53
456.014	2.46
456.371	2.55
456.727	2.66
457.084	2.52
457.441	2.57
457.797	2.56
458.154	2.44
458.51	2.39
458.867	2.64
459.223	2.65
459.58	2.51
459.936	2.59
460.292	2.45
460.648	2.45
461.005	2.38
461.361	2.52
461.717	2.38
462.073	2.52
462.429	2.57
462.785	2.49
463.141	2.59
463.496	2.48
463.852	2.62
464.208	2.75
464.564	2.7
464.919	2.47
465.275	2.78
465.631	2.66
465.986	2.67
466.342	2.73
466.697	2.57
467.052	2.66
467.408	2.6
467.763	2.7
468.118	2.65
468.473	2.62
468.829	2.62
469.184	2.6
469.539	2.6
469.894	2.68
470.249	2.65
470.603	2.55
470.958	2.57
471.313	2.79
471.668	2.7
472.023	2.78
472.377	2.72
472.732	2.6
473.086	2.68
473.441	2.77
473.795	2.88
474.15	2.6
474.504	2.6
474.859	2.82
475.213	2.74
475.567	2.77
475.921	2.76
476.275	2.62
476.63	2.88
476.984	2.87
477.338	2.56
477.692	2.58
478.045	2.66
478.399	2.71
478.753	2.8
479.107	2.69
479.461	2.74
479.814	2.86
480.168	2.85
480.521	2.83
480.875	2.7
481.228	2.7
481.582	2.69
481.935	2.77
482.289	2.71
482.642	2.66
482.995	2.64
483.348	2.65
483.701	2.65
484.055	2.67
484.408	2.58
484.761	2.64
485.114	2.59
485.466	2.52
485.819	2.47
486.172	2.4
486.525	2.45
486.878	2.51
487.23	2.54
487.583	2.54
487.936	2.64
488.288	2.65
488.641	2.65
488.993	2.59
489.345	2.56
489.698	2.56
490.05	2.57
490.402	2.54
490.754	2.58
491.107	2.6
491.459	2.65
491.811	2.65
492.163	2.7
492.515	2.64
492.866	2.63
493.218	2.58
493.57	2.61
493.922	2.55
494.274	2.6
494.625	2.65
494.977	2.64
495.328	2.73
495.68	2.75
496.031	2.72
496.383	2.8
496.734	2.74
497.086	2.78
497.437	2.85
497.788	2.74
498.139	2.9
498.49	2.79
498.842	2.64
499.193	2.8
499.544	2.79
499.894	2.79
500.245	2.82
500.596	2.83
500.947	2.86
501.298	2.85
501.648	2.83
501.999	2.88
502.35	2.81
502.7	3.03
503.051	2.94
503.401	2.89
503.752	2.89
504.102	2.9
504.452	2.82
504.803	2.92
505.153	2.84
505.503	2.89
505.853	3
506.203	2.85
506.553	2.85
506.903	2.9
507.253	2.93
507.603	2.85
507.953	3.07
508.303	2.84
508.652	3.13
509.002	2.91
509.352	2.83
509.701	2.95
510.051	2.92
510.4	2.92
510.75	2.92
511.099	2.81
511.449	2.98
511.798	2.92
512.147	2.91
512.496	2.97
512.846	2.95
513.195	2.92
513.544	2.91
513.893	2.86
514.242	3
514.591	2.92
514.939	2.91
515.288	2.86
515.637	2.96
515.986	3.07
516.334	2.96
516.683	2.95
517.032	2.94
517.38	2.9
517.729	3.16
518.077	3.07
518.426	2.98
518.774	2.88
519.122	2.88
519.47	3.03
519.819	2.93
520.167	2.94
520.515	2.99
520.863	3.05
521.211	2.98
521.559	3.05
521.907	2.96
522.255	2.97
522.602	3.13
522.95	2.92
523.298	3.01
523.645	3.1
523.993	3.04
524.341	3.12
524.688	3.19
525.036	3.21
525.383	3
525.73	3.18
526.078	3.1
526.425	3.19
526.772	3.03
527.119	3.03
527.466	3.08
527.814	3.14
528.161	3.12
528.508	2.99
528.854	3.05
529.201	3.01
529.548	3.07
529.895	3.1
530.242	3.07
530.588	2.96
530.935	2.9
531.282	2.97
531.628	3.06
531.975	3.03
532.321	3.1
532.667	3.1
533.014	3.2
533.36	3.26
533.706	3.25
534.052	3.2
534.399	3.11
534.745	3.06
535.091	3.16
535.437	3.13
535.783	3.17
536.129	3.14
536.474	3.2
536.82	3.3
537.166	3.19
537.512	3.34
537.857	3.36
538.203	3.27
538.549	3.31
538.894	3.3
539.239	3.19
539.585	3.28
539.93	3.27
540.276	3.4
540.621	3.44
540.966	3.5
541.311	3.5
541.656	3.34
542.001	3.54
542.346	3.4
542.691	3.32
543.036	3.32
543.381	3.24
543.726	3.28
544.071	3.35
544.415	3.35
544.76	3.3
545.105	3.44
545.449	3.44
545.794	3.51
546.138	3.42
546.483	3.48
546.827	3.5
547.171	3.53
547.516	3.5
547.86	3.6
548.204	3.35
548.548	3.49
548.892	3.46
549.236	3.56
549.58	3.53
549.924	3.5
550.268	3.6
550.612	3.7
550.956	3.69
551.3	3.68
551.643	3.73
551.987	3.79
552.33	3.78
552.674	3.7
553.017	3.6
553.361	3.73
553.704	3.91
554.048	3.83
554.391	3.84
554.734	3.7
555.077	3.68
555.42	3.71
555.764	3.76
556.107	3.96
556.45	3.79
556.793	3.66
557.135	3.82
557.478	3.77
557.821	3.92
558.164	3.98
558.507	3.92
558.849	4.09
559.192	3.99
559.534	4.05
559.877	3.84
560.219	4.01
560.562	4.05
560.904	3.9
561.246	4.05
561.589	4.03
561.931	4.05
562.273	4.03
562.615	4.27
562.957	4.19
563.299	4.13
563.641	4.2
563.983	3.85
564.325	3.99
564.667	4.09
565.008	4.09
565.35	4.14
565.692	4.21
566.033	4.25
566.375	4.26
566.716	4.21
567.058	4.14
567.399	4.2
567.741	4.17
568.082	4.27
568.423	4.25
568.764	4.18
569.105	4.37
569.447	4.35
569.788	4.37
570.129	4.31
570.47	4.32
570.811	4.49
571.151	4.46
571.492	4.39
571.833	4.76
572.174	4.47
572.514	4.55
572.855	4.43
573.195	4.58
573.536	4.4
573.876	4.45
574.217	4.46
574.557	4.47
574.898	4.36
575.238	4.51
575.578	4.66
575.918	4.56
576.258	4.5
576.598	4.67
576.938	4.62
577.278	4.69
577.618	4.46
577.958	4.51
578.298	4.61
578.638	4.75
578.977	4.68
579.317	4.75
579.657	4.63
579.996	4.88
580.336	4.87
580.675	4.81
581.014	4.79
581.354	4.74
581.693	4.96
582.032	4.98
582.372	4.9
582.711	5
583.05	5.13
583.389	5.06
583.728	4.98
584.067	5.04
584.406	5.01
584.745	5.01
585.083	5.26
585.422	4.95
585.761	5.1
586.1	5.12
586.438	4.69
586.777	5.13
587.115	5.3
587.454	5.32
587.792	5.23
588.13	5.02
588.469	5.28
588.807	4.88
589.145	5.1
589.483	5.02
589.821	5.19
590.159	5.39
590.497	5.23
590.835	5.28
591.173	5.24
591.511	5.2
591.849	5.39
592.187	5.52
592.524	5.29
592.862	5.23
593.2	5.36
593.537	5.24
593.875	5.53
594.212	5.54
594.55	5.41
594.887	5.6
595.224	5.41
595.561	5.4
595.899	5.4
596.236	5.61
596.573	5.66
596.91	5.45
597.247	5.57
597.584	5.49
597.921	5.79
598.258	5.87
598.594	5.59
598.931	5.58
599.268	5.46
599.604	5.72
599.941	5.73
600.277	5.66
600.614	5.8
600.95	5.93
601.287	5.69
601.623	5.98
601.959	5.93
602.296	5.73
602.632	5.99
602.968	5.75
603.304	6.14
603.64	5.85
603.976	6.09
604.312	6.11
604.648	5.91
604.984	5.96
605.319	6.15
605.655	6.02
605.991	6.2
606.326	5.99
606.662	5.95
606.998	6.1
607.333	6.05
607.668	6.09
608.004	6.28
608.339	6.17
608.674	6.29
609.01	6.18
609.345	6.4
609.68	6.38
610.015	6.41
610.35	6.56
610.685	6.38
611.02	6.36
611.355	6.06
611.689	6.13
612.024	6.55
612.359	6.63
612.694	6.51
613.028	6.32
613.363	6.43
613.697	6.49
614.032	6.52
614.366	6.71
614.7	6.7
615.035	6.99
615.369	6.68
615.703	6.57
616.037	6.64
616.371	6.74
616.705	6.69
617.039	6.71
617.373	6.91
617.707	7.04
618.041	6.81
618.375	6.57
618.709	6.85
619.042	7.17
619.376	6.88
619.71	7.07
620.043	7.29
620.377	6.86
620.71	6.98
621.043	7.2
621.377	7.16
621.71	7.25
622.043	7.06
622.376	7.33
622.709	7.5
623.043	7.4
623.376	7.09
623.709	7.03
624.041	7.43
624.374	7.22
624.707	7.4
625.04	7.31
625.373	7.8
625.705	7.39
626.038	7.39
626.37	7.21
626.703	7.31
627.035	7.36
627.368	7.66
627.7	7.43
628.032	7.3
628.365	7.47
628.697	7.46
629.029	7.48
629.361	7.39
629.693	7.51
630.025	7.49
630.357	7.63
630.689	7.56
631.021	7.97
631.353	7.88
631.684	7.61
632.016	7.85
632.348	7.8
632.679	7.59
633.011	7.84
633.342	7.55
633.674	7.87
634.005	8.04
634.336	8.17
634.668	7.85
634.999	7.75
635.33	7.48
635.661	8.42
635.992	8.1
636.323	8.28
636.654	8.24
636.985	8.03
637.316	8.05
637.647	7.84
637.977	7.93
638.308	8.15
638.639	8.14
638.969	8.06
639.3	7.92
639.63	8.26
639.961	8.36
640.291	8.26
640.622	8.29
640.952	8.4
641.282	8.23
641.612	8.47
641.943	8.62
642.273	8.57
642.603	9.07
642.933	9.02
643.263	8.98
643.592	8.63
643.922	8.87
644.252	8.05
644.582	8.5
644.911	8.62
645.241	9.02
645.571	9.15
645.9	8.53
646.23	8.93
646.559	8.64
646.888	9.05
647.218	9.01
647.547	8.82
647.876	9
648.205	8.87
648.534	8.83
648.863	8.78
649.192	8.65
649.521	9.19
649.85	9
650.179	9.05
650.508	8.94
650.837	9.18
651.165	9.27
651.494	8.83
651.822	9.44
652.151	9.52
652.479	8.63
652.808	9.17
653.136	9.19
653.465	9.44
653.793	9.88
654.121	9.31
654.449	9.3
654.777	9.18
655.105	9.63
655.433	9.62
655.761	9.98
656.089	9.38
656.417	9.86
656.745	9.62
657.073	9.73
657.4	10.1
657.728	9.53
658.056	9.36
658.383	9.4
658.711	9.74
659.038	9.79
659.365	9.91
659.693	9.88
660.02	9.67
660.347	9.56
660.674	9.53
661.001	9.7
661.329	9.84
661.656	9.68
661.982	9.67
662.309	10.23
662.636	10.01
662.963	9.96
663.29	9.96
663.616	10.59
663.943	9.68
664.27	10.14
664.596	10.5
664.923	10.52
665.249	10.36
665.576	9.93
665.902	10.03
666.228	10.36
666.554	10.6
666.881	9.98
667.207	10.62
667.533	10.14
667.859	10.85
668.185	10.24
668.511	10.72
668.837	10.86
669.162	10.42
669.488	10.6
669.814	9.92
670.139	10.14
670.465	10.5
670.791	11.18
671.116	10.54
671.442	10.72
671.767	10.66
672.092	10.96
672.418	11.06
672.743	10.9
673.068	10.91
673.393	10.54
673.718	10.88
674.043	11.03
674.368	11.07
674.693	11.26
675.018	11.38
675.343	10.95
675.667	10.98
675.992	11.05
676.317	11.19
676.641	10.94
676.966	11.11
677.29	11.52
677.615	11.05
677.939	10.67
678.264	11.71
678.588	11.31
678.912	11.69
679.236	11.63
679.56	11.78
679.885	11.6
680.209	11.17
680.532	11.38
680.856	10.76
681.18	11.49
681.504	11.58
681.828	11.41
682.152	11.64
682.475	11.42
682.799	11.25
683.122	11.44
683.446	11.73
683.769	11.63
684.093	12.1
684.416	11.7
684.739	11.24
685.062	11.24
685.386	11.48
685.709	11.62
686.032	12.41
686.355	11.82
686.678	11.64
687.001	12.21
687.324	11.61
687.646	12.96
687.969	12.76
688.292	12.28
688.614	12.02
688.937	12.43
689.26	12.3
689.582	11.76
689.904	11.36
690.227	12.75
690.549	11.84
690.871	12.3
691.194	12.79
691.516	12.44
