Data from 0278_chest_Reflection__0__184.txt Node

Date: Fri Oct 20 22:09:24 CDT 2023
User: ToomeyLab
Spectrometer: FLMS14357
Trigger mode: 0
Integration Time (sec): 1.000000E-2
Scans to average: 100
Electric dark correction enabled: true
Nonlinearity correction enabled: false
Boxcar width: 0
XAxis mode: Wavelengths
Number of Pixels in Spectrum: 2048
>>>>>Begin Spectral Data<<<<<
189.047	69.17
189.435	69.17
189.823	69.17
190.211	289.3
190.599	387.29
190.987	58.87
191.375	-119.74
191.763	-0.49
192.151	82.98
192.538	132.28
192.926	3358.71
193.314	131.77
193.702	17.08
194.089	73.7
194.477	29.97
194.864	-121.97
195.252	71.72
195.639	-70.06
196.027	-17.21
196.414	106.99
196.801	232.27
197.189	244.95
197.576	188.64
197.963	289.24
198.351	56.33
198.738	28.97
199.125	44.92
199.512	28.82
199.899	24.3
200.286	-10.02
200.673	44.4
201.06	19.29
201.447	23.88
201.833	12.05
202.22	21.01
202.607	73.79
202.994	46.44
203.38	19.89
203.767	20.82
204.154	24.23
204.54	47.84
204.927	24.66
205.313	46.33
205.699	27.36
206.086	6.42
206.472	54.35
206.858	25.59
207.245	16.25
207.631	18.71
208.017	26.28
208.403	13.74
208.789	41.56
209.175	24.54
209.561	32.7
209.947	-24.78
210.333	18.26
210.719	25.09
211.105	11.15
211.491	59.54
211.876	-22.57
212.262	26.82
212.648	46.37
213.034	7.05
213.419	32.52
213.805	13.57
214.19	9.99
214.576	28.34
214.961	36.03
215.346	24.51
215.732	22.74
216.117	-20.18
216.502	37.49
216.888	-17.06
217.273	1.35
217.658	4.13
218.043	25.5
218.428	-1.03
218.813	14.02
219.198	13.92
219.583	0.5
219.968	-21.52
220.353	16.49
220.738	19.21
221.122	2.56
221.507	-1.69
221.892	-1.46
222.276	10.03
222.661	15.7
223.046	9.67
223.43	4.79
223.815	10.12
224.199	19.35
224.583	-3.86
224.968	10.45
225.352	1.62
225.736	5.96
226.121	4.32
226.505	3
226.889	8.06
227.273	4.89
227.657	11.1
228.041	12.3
228.425	6.93
228.809	4.64
229.193	6.55
229.577	6.95
229.961	3.72
230.344	2.95
230.728	3.43
231.112	3.87
231.495	3.36
231.879	3.95
232.263	3.93
232.646	3.19
233.03	2.66
233.413	3.41
233.797	4.14
234.18	4.72
234.563	6.15
234.946	7.21
235.33	3.69
235.713	4.21
236.096	4.75
236.479	4.16
236.862	4.54
237.245	4.28
237.628	3.98
238.011	4.38
238.394	4.11
238.777	5.18
239.16	3.83
239.543	5.13
239.925	4.47
240.308	2.93
240.691	4.07
241.073	5.9
241.456	5.59
241.838	4.62
242.221	4.7
242.603	4.58
242.986	3.77
243.368	4.72
243.75	3.46
244.133	3.35
244.515	3.53
244.897	3.57
245.279	4.06
245.661	3.4
246.043	3.02
246.425	3.43
246.807	3.63
247.189	3.45
247.571	2.86
247.953	4.34
248.335	3.68
248.717	3.61
249.098	3.29
249.48	3.44
249.862	3.58
250.243	3.58
250.625	3.27
251.006	3.75
251.388	3.53
251.769	3.92
252.151	3.47
252.532	4.23
252.913	3.25
253.295	2.62
253.676	3.49
254.057	3.78
254.438	3.43
254.819	3.55
255.2	3.69
255.581	3.55
255.962	3.89
256.343	2.74
256.724	2.43
257.105	3.32
257.486	4.35
257.867	3.44
258.247	4.16
258.628	3.93
259.009	3.21
259.389	3.07
259.77	3.51
260.15	4
260.531	4.19
260.911	3.98
261.292	2.97
261.672	3.44
262.052	3.63
262.432	3.37
262.813	3.46
263.193	3.77
263.573	3.14
263.953	4.17
264.333	3.97
264.713	4.23
265.093	4.04
265.473	3.33
265.853	3.89
266.233	4.76
266.612	3.53
266.992	4.58
267.372	3.4
267.752	3.31
268.131	3.38
268.511	3.75
268.89	4.12
269.27	3.93
269.649	2.75
270.029	3.59
270.408	3.57
270.787	3.3
271.167	3.36
271.546	3.95
271.925	4.24
272.304	3.21
272.683	3.71
273.062	3.12
273.441	3.63
273.82	3.44
274.199	3.68
274.578	3.66
274.957	3.67
275.336	3.92
275.715	3.62
276.093	3.43
276.472	3.52
276.851	3.4
277.229	3.32
277.608	3.15
277.986	3.26
278.365	3.75
278.743	3.58
279.122	3.01
279.5	3.3
279.878	3.16
280.257	3.7
280.635	3
281.013	3.69
281.391	3.67
281.769	2.94
282.147	3.2
282.525	3.32
282.903	3.06
283.281	3.82
283.659	3.53
284.037	3.81
284.415	3.19
284.792	3.05
285.17	3.7
285.548	3.57
285.925	3
286.303	2.95
286.68	3.29
287.058	3.88
287.435	3.54
287.813	3.19
288.19	3.4
288.567	3.2
288.945	3.29
289.322	3.98
289.699	2.67
290.076	4.25
290.453	3.45
290.83	3.58
291.207	3.74
291.584	3.26
291.961	3.08
292.338	3.24
292.715	3.37
293.092	3.49
293.469	3.65
293.845	3.08
294.222	3.15
294.599	3.44
294.975	4.37
295.352	3.52
295.728	3.64
296.105	3.77
296.481	3.29
296.858	3.92
297.234	3.41
297.61	3.2
297.986	3.59
298.363	3.89
298.739	3.46
299.115	3.28
299.491	3.47
299.867	3.61
300.243	3.49
300.619	3.39
300.995	3.58
301.371	3.73
301.746	3.82
302.122	3.72
302.498	3.43
302.874	3.82
303.249	3.77
303.625	3.63
304	3.77
304.376	3.61
304.751	3.38
305.127	3.38
305.502	3.63
305.878	3.4
306.253	4.16
306.628	3.39
307.003	3.56
307.378	3.47
307.754	3.72
308.129	3.96
308.504	3.8
308.879	3.84
309.254	4.08
309.629	3.1
310.003	3.21
310.378	4.18
310.753	4.22
311.128	4.21
311.502	3.82
311.877	3.35
312.252	3.85
312.626	3.98
313.001	3.48
313.375	3.83
313.75	3.58
314.124	3.5
314.498	3.71
314.873	3.37
315.247	3.97
315.621	3.92
315.995	4.16
316.369	4.27
316.743	3.43
317.117	3.99
317.491	3.4
317.865	3.92
318.239	4.17
318.613	4.17
318.987	3.79
319.361	3.49
319.734	4.1
320.108	3.55
320.482	4.44
320.855	4.09
321.229	4.65
321.602	4.21
321.976	3.88
322.349	4.66
322.723	4.26
323.096	3.99
323.469	4.49
323.843	4.16
324.216	4.67
324.589	4.17
324.962	5.02
325.335	4.36
325.708	3.8
326.081	4.51
326.454	4.57
326.827	4.29
327.2	4.27
327.573	4.5
327.945	4.07
328.318	4
328.691	4.23
329.063	4.84
329.436	4.09
329.809	4.62
330.181	4.82
330.553	4.75
330.926	4.18
331.298	4.17
331.671	3.83
332.043	4.19
332.415	4.86
332.787	4.66
333.159	4.11
333.532	4.33
333.904	4.73
334.276	4.29
334.648	4.26
335.02	4.92
335.391	3.92
335.763	4.38
336.135	4.62
336.507	4.41
336.879	4.18
337.25	5.12
337.622	4.91
337.993	5.15
338.365	4.23
338.736	4.43
339.108	4.65
339.479	4.07
339.851	4.78
340.222	4.18
340.593	3.93
340.964	4.33
341.336	4.5
341.707	3.97
342.078	4.5
342.449	4.09
342.82	4
343.191	4.64
343.562	5.11
343.933	4.66
344.303	4.38
344.674	4.4
345.045	4.77
345.416	4.96
345.786	4.2
346.157	5.19
346.527	4.73
346.898	4.39
347.268	4.63
347.639	4.75
348.009	4.69
348.38	5.05
348.75	4.72
349.12	4.43
349.49	4.74
349.861	4.71
350.231	4.08
350.601	4.64
350.971	4.74
351.341	4.71
351.711	5.03
352.081	4.83
352.45	4.67
352.82	4.53
353.19	4.57
353.56	4.98
353.929	4.36
354.299	4.55
354.669	4.56
355.038	4.56
355.408	5.53
355.777	4.78
356.147	4.96
356.516	4.76
356.885	4.87
357.254	5.11
357.624	4.83
357.993	4.65
358.362	4.77
358.731	4.49
359.1	4.22
359.469	4.68
359.838	4.44
360.207	4.76
360.576	5.39
360.945	4.81
361.314	4.65
361.682	4.83
362.051	4.8
362.42	4.75
362.788	4.75
363.157	4.95
363.525	4.71
363.894	4.64
364.262	4.81
364.631	4.84
364.999	4.93
365.367	4.96
365.735	4.96
366.104	4.59
366.472	5.3
366.84	4.73
367.208	5.06
367.576	4.81
367.944	5.06
368.312	4.98
368.68	4.99
369.048	5.17
369.416	5.17
369.783	5.42
370.151	5.11
370.519	5.23
370.886	5.43
371.254	5.27
371.621	5.24
371.989	5.14
372.356	5.21
372.724	5.24
373.091	5.04
373.458	4.9
373.826	4.87
374.193	4.95
374.56	5.21
374.927	5.22
375.294	5.13
375.661	5.11
376.028	5.43
376.395	5.4
376.762	5.29
377.129	5.12
377.496	5.31
377.863	5.49
378.229	5.7
378.596	5.26
378.963	5.14
379.329	5.36
379.696	5.08
380.062	5.17
380.429	5.11
380.795	5.15
381.161	5.13
381.528	5.49
381.894	5.26
382.26	5.32
382.626	5.44
382.993	5.58
383.359	5.45
383.725	5.46
384.091	5.48
384.457	5.5
384.823	5.43
385.188	5.56
385.554	5.2
385.92	5.58
386.286	5.52
386.651	5.33
387.017	5.35
387.383	5.37
387.748	5.07
388.114	5.15
388.479	5.23
388.845	5.51
389.21	5.33
389.575	4.92
389.94	5.24
390.306	5.38
390.671	5.34
391.036	5.46
391.401	5.51
391.766	5.31
392.131	5.43
392.496	5.49
392.861	5.21
393.226	5.24
393.591	5.46
393.956	5.42
394.32	5.53
394.685	5.33
395.05	5.63
395.414	5.51
395.779	5.24
396.143	5.33
396.508	5.23
396.872	5.44
397.236	5.36
397.601	5.28
397.965	5.01
398.329	5.48
398.694	5.64
399.058	5.09
399.422	5.46
399.786	5.41
400.15	5.21
400.514	5.18
400.878	5.49
401.242	5.66
401.605	5.35
401.969	5.57
402.333	5.32
402.697	5.53
403.06	5.33
403.424	5.34
403.787	5.48
404.151	5.59
404.514	5.55
404.878	5.35
405.241	5.65
405.604	5.53
405.968	5.37
406.331	5.42
406.694	5.31
407.057	5.3
407.42	5.61
407.783	5.49
408.146	5.34
408.509	5.46
408.872	5.65
409.235	5.44
409.598	5.45
409.961	5.53
410.323	5.6
410.686	5.22
411.049	5.25
411.411	5.56
411.774	5.5
412.136	5.58
412.499	5.6
412.861	5.47
413.223	5.52
413.586	5.56
413.948	5.62
414.31	5.71
414.672	5.52
415.035	5.53
415.397	5.65
415.759	5.59
416.121	5.33
416.483	5.65
416.845	5.51
417.206	5.5
417.568	5.61
417.93	5.59
418.292	5.19
418.653	5.55
419.015	5.42
419.377	5.49
419.738	5.49
420.1	5.39
420.461	5.34
420.822	5.35
421.184	5.42
421.545	5.4
421.906	5.42
422.267	5.3
422.629	5.41
422.99	5.24
423.351	5.38
423.712	5.31
424.073	5.38
424.434	5.31
424.795	5.38
425.155	5.45
425.516	5.39
425.877	5.42
426.238	5.24
426.598	5.38
426.959	5.36
427.32	5.37
427.68	5.36
428.041	5.37
428.401	5.41
428.761	5.46
429.122	5.5
429.482	5.61
429.842	5.69
430.202	5.4
430.563	5.53
430.923	5.65
431.283	5.59
431.643	5.65
432.003	5.72
432.363	5.56
432.722	5.6
433.082	5.49
433.442	5.5
433.802	5.67
434.161	5.52
434.521	5.69
434.881	5.64
435.24	5.59
435.6	5.52
435.959	5.55
436.319	5.5
436.678	5.67
437.037	5.57
437.396	5.57
437.756	5.53
438.115	5.45
438.474	5.59
438.833	5.81
439.192	5.54
439.551	5.59
439.91	5.63
440.269	5.7
440.628	5.72
440.987	5.61
441.345	5.44
441.704	5.63
442.063	5.63
442.421	5.5
442.78	5.39
443.138	5.64
443.497	5.68
443.855	5.67
444.214	5.61
444.572	5.6
444.93	5.66
445.288	5.75
445.647	5.8
446.005	5.43
446.363	5.65
446.721	5.67
447.079	5.75
447.437	5.65
447.795	5.48
448.153	5.65
448.51	5.59
448.868	5.56
449.226	5.53
449.584	5.64
449.941	5.46
450.299	5.64
450.656	5.58
451.014	5.68
451.371	5.76
451.729	5.59
452.086	5.71
452.443	5.69
452.801	5.73
453.158	5.88
453.515	5.76
453.872	5.73
454.229	5.89
454.586	5.73
454.943	5.73
455.3	5.56
455.657	5.84
456.014	5.67
456.371	5.75
456.727	5.78
457.084	5.64
457.441	5.85
457.797	5.83
458.154	5.64
458.51	5.75
458.867	5.85
459.223	5.89
459.58	5.75
459.936	5.99
460.292	5.66
460.648	5.61
461.005	5.71
461.361	5.71
461.717	5.59
462.073	5.72
462.429	5.7
462.785	5.72
463.141	5.87
463.496	5.87
463.852	5.95
464.208	6.02
464.564	6
464.919	5.83
465.275	6.09
465.631	6.15
465.986	6.06
466.342	5.96
466.697	6.06
467.052	5.81
467.408	5.9
467.763	5.98
468.118	5.97
468.473	6.08
468.829	5.8
469.184	5.99
469.539	5.86
469.894	6
470.249	6
470.603	5.92
470.958	6.06
471.313	5.96
471.668	5.89
472.023	6.05
472.377	6.11
472.732	5.88
473.086	6.16
473.441	6.09
473.795	6.13
474.15	6.02
474.504	5.93
474.859	6.11
475.213	6.22
475.567	5.99
475.921	6.04
476.275	5.96
476.63	6.24
476.984	6.12
477.338	6.08
477.692	6.03
478.045	6.05
478.399	6.14
478.753	6.12
479.107	6.16
479.461	6.09
479.814	6.29
480.168	6.09
480.521	6.19
480.875	6.02
481.228	6.14
481.582	6.14
481.935	6.02
482.289	6.02
482.642	6.02
482.995	6.01
483.348	6.13
483.701	6.01
484.055	5.96
484.408	5.9
484.761	5.96
485.114	5.86
485.466	5.78
485.819	5.7
486.172	5.67
486.525	5.7
486.878	5.72
487.23	5.83
487.583	5.86
487.936	5.9
488.288	5.94
488.641	5.97
488.993	5.89
489.345	5.89
489.698	5.84
490.05	5.88
490.402	5.91
490.754	5.94
491.107	5.91
491.459	6.03
491.811	6.07
492.163	6.06
492.515	6.1
492.866	6.13
493.218	5.97
493.57	5.97
493.922	5.95
494.274	5.97
494.625	6.02
494.977	6.07
495.328	6.15
495.68	6.23
496.031	6.2
496.383	6.29
496.734	6.3
497.086	6.28
497.437	6.38
497.788	6.15
498.139	6.4
498.49	6.3
498.842	6.21
499.193	6.35
499.544	6.32
499.894	6.36
500.245	6.25
500.596	6.33
500.947	6.35
501.298	6.42
501.648	6.47
501.999	6.41
502.35	6.39
502.7	6.52
503.051	6.56
503.401	6.45
503.752	6.43
504.102	6.63
504.452	6.5
504.803	6.45
505.153	6.67
505.503	6.53
505.853	6.55
506.203	6.48
506.553	6.41
506.903	6.55
507.253	6.5
507.603	6.57
507.953	6.71
508.303	6.51
508.652	6.63
509.002	6.57
509.352	6.65
509.701	6.63
510.051	6.56
510.4	6.48
510.75	6.54
511.099	6.67
511.449	6.62
511.798	6.64
512.147	6.55
512.496	6.64
512.846	6.56
513.195	6.58
513.544	6.64
513.893	6.52
514.242	6.62
514.591	6.62
514.939	6.54
515.288	6.63
515.637	6.85
515.986	6.75
516.334	6.75
516.683	6.73
517.032	6.66
517.38	6.63
517.729	6.79
518.077	6.77
518.426	6.72
518.774	6.69
519.122	6.78
519.47	6.85
519.819	6.78
520.167	6.75
520.515	6.71
520.863	6.8
521.211	6.72
521.559	6.79
521.907	6.74
522.255	6.75
522.602	6.96
522.95	6.84
523.298	7.01
523.645	7.01
523.993	6.97
524.341	7.07
524.688	6.98
525.036	7
525.383	6.98
525.73	7.2
526.078	7.03
526.425	7.08
526.772	6.96
527.119	6.98
527.466	6.93
527.814	7.04
528.161	7.02
528.508	6.92
528.854	6.96
529.201	6.99
529.548	7.03
529.895	6.87
530.242	6.84
530.588	6.81
530.935	6.84
531.282	6.85
531.628	6.91
531.975	6.92
532.321	6.97
532.667	7
533.014	7.11
533.36	7.16
533.706	7.29
534.052	7.25
534.399	7.11
534.745	7.1
535.091	7.05
535.437	7.11
535.783	7.09
536.129	7.16
536.474	7.21
536.82	7.26
537.166	7.26
537.512	7.46
537.857	7.43
538.203	7.36
538.549	7.43
538.894	7.38
539.239	7.42
539.585	7.4
539.93	7.48
540.276	7.55
540.621	7.61
540.966	7.59
541.311	7.75
541.656	7.7
542.001	7.73
542.346	7.61
542.691	7.53
543.036	7.43
543.381	7.46
543.726	7.39
544.071	7.43
544.415	7.53
544.76	7.52
545.105	7.69
545.449	7.7
545.794	7.79
546.138	7.65
546.483	7.75
546.827	7.82
547.171	7.95
547.516	7.87
547.86	8.05
548.204	7.86
548.548	7.88
548.892	7.81
549.236	7.95
549.58	7.96
549.924	8.02
550.268	8.04
550.612	8.11
550.956	8.24
551.3	8.07
551.643	8.18
551.987	8.35
552.33	8.3
552.674	8.31
553.017	8.3
553.361	8.33
553.704	8.35
554.048	8.43
554.391	8.56
554.734	8.55
555.077	8.54
555.42	8.37
555.764	8.37
556.107	8.6
556.45	8.51
556.793	8.47
557.135	8.35
557.478	8.51
557.821	8.52
558.164	8.8
558.507	8.8
558.849	8.72
559.192	8.78
559.534	8.93
559.877	8.58
560.219	8.76
560.562	8.79
560.904	8.56
561.246	8.86
561.589	8.81
561.931	8.88
562.273	9.19
562.615	8.87
562.957	9.04
563.299	8.98
563.641	9.16
563.983	8.95
564.325	8.89
564.667	9.1
565.008	9.02
565.35	9.2
565.692	9.1
566.033	9.27
566.375	9.48
566.716	9.45
567.058	9.35
567.399	9.35
567.741	9.24
568.082	9.31
568.423	9.37
568.764	9.35
569.105	9.41
569.447	9.33
569.788	9.45
570.129	9.5
570.47	9.47
570.811	9.63
571.151	9.47
571.492	9.75
571.833	9.76
572.174	9.73
572.514	9.6
572.855	9.94
573.195	9.74
573.536	9.52
573.876	9.9
574.217	9.6
574.557	9.66
574.898	9.72
575.238	9.81
575.578	9.89
575.918	9.81
576.258	9.78
576.598	10.03
576.938	10.04
577.278	10.05
577.618	9.98
577.958	9.97
578.298	10.17
578.638	9.99
578.977	10.08
579.317	10.09
579.657	10.22
579.996	10.42
580.336	10.33
580.675	10.22
581.014	10.5
581.354	10.32
581.693	10.76
582.032	10.58
582.372	10.68
582.711	10.65
583.05	10.82
583.389	10.66
583.728	10.71
584.067	10.78
584.406	10.81
584.745	10.87
585.083	10.94
585.422	10.82
585.761	11.13
586.1	11.04
586.438	10.9
586.777	10.96
587.115	11.29
587.454	11.25
587.792	11.07
588.13	11.27
588.469	11.33
588.807	10.97
589.145	11.16
589.483	11.16
589.821	11.11
590.159	11.61
590.497	11.28
590.835	11.41
591.173	11.47
591.511	11.49
591.849	11.35
592.187	11.41
592.524	11.35
592.862	11.38
593.2	11.81
593.537	11.59
593.875	11.53
594.212	11.88
594.55	11.8
594.887	11.84
595.224	11.96
595.561	11.69
595.899	11.8
596.236	12.05
596.573	11.85
596.91	12.2
597.247	11.84
597.584	11.83
597.921	12.17
598.258	12.02
598.594	12.19
598.931	11.87
599.268	11.82
599.604	12.06
599.941	12.22
600.277	12.24
600.614	12.25
600.95	12.23
601.287	12.26
601.623	12.57
601.959	12.45
602.296	12.39
602.632	12.64
602.968	12.43
603.304	12.78
603.64	12.33
603.976	12.67
604.312	12.94
604.648	12.6
604.984	12.97
605.319	12.61
605.655	12.61
605.991	12.88
606.326	12.75
606.662	12.68
606.998	12.66
607.333	12.84
607.668	12.83
608.004	13.06
608.339	12.9
608.674	13.2
609.01	13.35
609.345	13.27
609.68	13.42
610.015	13.16
610.35	13.4
610.685	13.31
611.02	13.36
611.355	13.53
611.689	13.37
612.024	13.48
612.359	13.47
612.694	13.45
613.028	13.82
613.363	13.62
613.697	13.81
614.032	13.94
614.366	13.69
614.7	14.02
615.035	13.85
615.369	14.2
615.703	13.98
616.037	14.05
616.371	14.02
616.705	14.45
617.039	14.32
617.373	13.9
617.707	14.54
618.041	14.32
618.375	14.14
618.709	14.06
619.042	14.32
619.376	14.7
619.71	14.73
620.043	14.82
620.377	14.62
620.71	14.62
621.043	14.78
621.377	14.56
621.71	14.88
622.043	14.7
622.376	15.03
622.709	15.14
623.043	14.96
623.376	14.66
623.709	14.69
624.041	15.07
624.374	14.95
624.707	14.98
625.04	15.15
625.373	15.45
625.705	15
626.038	15.36
626.37	14.77
626.703	15.4
627.035	15.28
627.368	15.4
627.7	15.47
628.032	15.43
628.365	15.52
628.697	15.58
629.029	15.33
629.361	15.72
629.693	15.47
630.025	15.8
630.357	15.55
630.689	15.61
631.021	15.71
631.353	16.27
631.684	15.74
632.016	16.11
632.348	15.78
632.679	15.95
633.011	16.03
633.342	15.96
633.674	16.02
634.005	16.17
634.336	16.44
634.668	16.03
634.999	16.07
635.33	16.03
635.661	16.55
635.992	16.38
636.323	16.62
636.654	16.73
636.985	16.46
637.316	16.55
637.647	16.62
637.977	16.41
638.308	16.8
638.639	16.78
638.969	16.86
639.3	16.57
639.63	16.78
639.961	16.76
640.291	16.84
640.622	16.8
640.952	17.25
641.282	17.09
641.612	17.18
641.943	17.51
642.273	17.02
642.603	17.46
642.933	17.44
643.263	17.13
643.592	17.14
643.922	17.82
644.252	17.36
644.582	17.73
644.911	17.23
645.241	18.07
645.571	18.36
645.9	17.45
646.23	18.04
646.559	17.8
646.888	18.17
647.218	17.81
647.547	17.69
647.876	18.08
648.205	18.2
648.534	17.7
648.863	18.21
649.192	17.97
649.521	18.45
649.85	18.44
650.179	17.9
650.508	18.25
650.837	18.18
651.165	18.45
651.494	17.97
651.822	18.61
652.151	18.37
652.479	18.59
652.808	18.27
653.136	17.95
653.465	18.59
653.793	18.8
654.121	18.95
654.449	19.07
654.777	19.05
655.105	19
655.433	19.14
655.761	19.14
656.089	19
656.417	18.76
656.745	18.66
657.073	19.25
657.4	19.58
657.728	19.13
658.056	19.32
658.383	19.51
658.711	19.22
659.038	19.51
659.365	19.61
659.693	19.3
660.02	19.46
660.347	19.27
660.674	19.51
661.001	19.46
661.329	19.52
661.656	19.64
661.982	19.45
662.309	19.39
662.636	19.69
662.963	19.76
663.29	19.82
663.616	19.77
663.943	19.63
664.27	20.2
664.596	20.03
664.923	19.7
665.249	20
665.576	20.19
665.902	20.06
666.228	20.63
666.554	20.46
666.881	20.15
667.207	20.5
667.533	20.63
667.859	20.31
668.185	20.68
668.511	20.9
668.837	20.64
669.162	20.85
669.488	20.39
669.814	20.46
670.139	20.2
670.465	20.49
670.791	20.87
671.116	20.66
671.442	21.25
671.767	20.62
672.092	21.24
672.418	21.12
672.743	21.31
673.068	21.27
673.393	21.87
673.718	21.09
674.043	20.93
674.368	21.27
674.693	21.38
675.018	21.34
675.343	21.71
675.667	21.48
675.992	22.2
676.317	21.71
676.641	21.62
676.966	21.63
677.29	21.6
677.615	21.53
677.939	22.13
678.264	21.85
678.588	20.99
678.912	22.12
679.236	22.09
679.56	22.04
679.885	22.34
680.209	22.56
680.532	22.07
680.856	21.55
681.18	22.4
681.504	22.3
681.828	22.62
682.152	22.22
682.475	22.37
682.799	22.5
683.122	22.59
683.446	22.62
683.769	22.54
684.093	22.32
684.416	23.02
684.739	22.82
685.062	22.63
685.386	22.12
