Data from 0278_chest_Reflection__2__186.txt Node

Date: Fri Oct 20 22:09:54 CDT 2023
User: ToomeyLab
Spectrometer: FLMS14357
Trigger mode: 0
Integration Time (sec): 1.000000E-2
Scans to average: 100
Electric dark correction enabled: true
Nonlinearity correction enabled: false
Boxcar width: 0
XAxis mode: Wavelengths
Number of Pixels in Spectrum: 2048
>>>>>Begin Spectral Data<<<<<
189.047	11.53
189.435	11.53
189.823	11.53
190.211	884.19
190.599	-1591.64
190.987	93.34
191.375	-124.77
191.763	141.28
192.151	133.74
192.538	34.82
192.926	1110.32
193.314	178.83
193.702	33.96
194.089	61.78
194.477	304.41
194.864	23.5
195.252	21.23
195.639	221.97
196.027	159.3
196.414	120.38
196.801	219.34
197.189	175.47
197.576	177.41
197.963	-1271.31
198.351	55.12
198.738	35.6
199.125	46.83
199.512	36.24
199.899	79.09
200.286	-5.88
200.673	21.81
201.06	4.76
201.447	-5.73
201.833	52.9
202.22	37.34
202.607	92.36
202.994	36.76
203.38	14.14
203.767	57.35
204.154	38.32
204.54	66.53
204.927	16.67
205.313	5.56
205.699	40.23
206.086	27.75
206.472	43.53
206.858	56.37
207.245	29.73
207.631	30.59
208.017	27.59
208.403	14.68
208.789	59.91
209.175	13.8
209.561	5.59
209.947	43.02
210.333	33.95
210.719	17.44
211.105	13.5
211.491	61.63
211.876	-1.7
212.262	39.17
212.648	12.76
213.034	-9.68
213.419	-4.01
213.805	13.03
214.19	26.65
214.576	15.18
214.961	13.16
215.346	23.13
215.732	12.52
216.117	-1.21
216.502	11.18
216.888	21.21
217.273	-9.39
217.658	1.44
218.043	13.71
218.428	19.53
218.813	18.26
219.198	7.12
219.583	11.23
219.968	18.66
220.353	24.8
220.738	18.14
221.122	14.34
221.507	3.04
221.892	-3.81
222.276	10.31
222.661	20.36
223.046	18.55
223.43	16.03
223.815	23.39
224.199	23.87
224.583	-3.27
224.968	5.16
225.352	7.01
225.736	-0.98
226.121	11.42
226.505	7.25
226.889	7.65
227.273	-0.33
227.657	9.72
228.041	11.7
228.425	5.04
228.809	7.41
229.193	6.01
229.577	7.18
229.961	3.47
230.344	3.65
230.728	2.8
231.112	4.8
231.495	4.14
231.879	4.14
232.263	4.76
232.646	4.15
233.03	3.24
233.413	2.97
233.797	3.54
234.18	4.27
234.563	6.55
234.946	6.54
235.33	5.97
235.713	4.03
236.096	4.76
236.479	5.05
236.862	4.76
237.245	3.7
237.628	2.9
238.011	3.57
238.394	3.34
238.777	5.63
239.16	4.23
239.543	4.91
239.925	6.7
240.308	4.03
240.691	5.1
241.073	6.01
241.456	5.19
241.838	5.01
242.221	5.82
242.603	5.24
242.986	3.86
243.368	4.29
243.75	4.07
244.133	3.34
244.515	3.68
244.897	4.11
245.279	4.18
245.661	3.78
246.043	4.11
246.425	4.31
246.807	2.89
247.189	4.54
247.571	3.5
247.953	3.84
248.335	4.29
248.717	3.83
249.098	3.36
249.48	3.89
249.862	3.73
250.243	4.23
250.625	4.14
251.006	4.38
251.388	3.66
251.769	4.73
252.151	3.93
252.532	4.35
252.913	4.67
253.295	2.92
253.676	4.28
254.057	3.81
254.438	4.05
254.819	4.15
255.2	3.97
255.581	3.23
255.962	3.78
256.343	3.84
256.724	3.45
257.105	3.94
257.486	5.01
257.867	3.97
258.247	4.64
258.628	4.09
259.009	3.61
259.389	3.42
259.77	3.32
260.15	3.73
260.531	4.05
260.911	3.85
261.292	3.6
261.672	3.96
262.052	3.93
262.432	3.55
262.813	3.83
263.193	3.92
263.573	3.96
263.953	3.58
264.333	4.48
264.713	3.93
265.093	4.26
265.473	4.35
265.853	2.91
266.233	3.67
266.612	4.43
266.992	3.67
267.372	3.57
267.752	3.54
268.131	4.45
268.511	4.28
268.89	4.15
269.27	3.91
269.649	3.39
270.029	3.98
270.408	4.24
270.787	3.98
271.167	3.62
271.546	3.96
271.925	4.52
272.304	3.83
272.683	4.15
273.062	3.86
273.441	3.79
273.82	3.87
274.199	4.05
274.578	3.68
274.957	4.21
275.336	3.46
275.715	3.87
276.093	3.75
276.472	3.95
276.851	3.77
277.229	3.58
277.608	2.96
277.986	3.55
278.365	4.19
278.743	3.49
279.122	3.74
279.5	4.03
279.878	3.69
280.257	3.97
280.635	3.51
281.013	4.13
281.391	4.01
281.769	3.57
282.147	3.65
282.525	3.79
282.903	3.55
283.281	3.75
283.659	3.66
284.037	3.85
284.415	3.26
284.792	3.4
285.17	3.55
285.548	3.87
285.925	3.51
286.303	3.65
286.68	3.59
287.058	4.24
287.435	4.02
287.813	3.33
288.19	3.64
288.567	3.52
288.945	3.92
289.322	4.24
289.699	3.34
290.076	4.02
290.453	3.87
290.83	3.71
291.207	4.02
291.584	3.43
291.961	3.86
292.338	3.68
292.715	3.4
293.092	3.76
293.469	3.91
293.845	3.61
294.222	3.63
294.599	4.03
294.975	4.27
295.352	4.16
295.728	4.28
296.105	3.64
296.481	4.12
296.858	3.95
297.234	4.44
297.61	3.8
297.986	3.83
298.363	4.06
298.739	4.06
299.115	3.47
299.491	3.89
299.867	3.9
300.243	4.14
300.619	4.3
300.995	3.91
301.371	4.12
301.746	4
302.122	4.32
302.498	3.96
302.874	3.82
303.249	4.05
303.625	4.51
304	4.64
304.376	4.35
304.751	3.36
305.127	4.31
305.502	4.65
305.878	4.37
306.253	4.54
306.628	4.39
307.003	4.42
307.378	4.27
307.754	4.6
308.129	4.4
308.504	4.5
308.879	4.23
309.254	4.59
309.629	4.38
310.003	4.12
310.378	4.67
310.753	4.6
311.128	4.83
311.502	4.61
311.877	4.38
312.252	4.14
312.626	4.79
313.001	4.96
313.375	4.33
313.75	4.8
314.124	4.16
314.498	4.91
314.873	4.47
315.247	4.56
315.621	4.62
315.995	4.81
316.369	4.12
316.743	4.55
317.117	4.81
317.491	4.04
317.865	4.62
318.239	4.85
318.613	4.7
318.987	4.37
319.361	4.26
319.734	4.64
320.108	4.7
320.482	4.67
320.855	4.94
321.229	5.65
321.602	5.26
321.976	4.82
322.349	5.21
322.723	4.45
323.096	4.68
323.469	5.22
323.843	5.52
324.216	5.02
324.589	4.96
324.962	5.61
325.335	5.43
325.708	4.75
326.081	5.12
326.454	5.16
326.827	5.35
327.2	5.03
327.573	4.92
327.945	4.99
328.318	4.64
328.691	4.91
329.063	5.12
329.436	4.94
329.809	5.17
330.181	5.26
330.553	5.05
330.926	4.9
331.298	4.64
331.671	4.73
332.043	4.37
332.415	4.9
332.787	5.23
333.159	4.6
333.532	5.15
333.904	5.4
334.276	4.35
334.648	5.24
335.02	5.54
335.391	5.14
335.763	5.45
336.135	5.05
336.507	5.27
336.879	4.78
337.25	5.14
337.622	5.52
337.993	5.53
338.365	5.31
338.736	5.21
339.108	5.6
339.479	5.08
339.851	5.1
340.222	4.93
340.593	4.93
340.964	5.03
341.336	5.53
341.707	5.33
342.078	5.22
342.449	5
342.82	5.06
343.191	4.99
343.562	4.96
343.933	5.16
344.303	5.12
344.674	5.51
345.045	5.54
345.416	5.25
345.786	5.26
346.157	5.19
346.527	5.43
346.898	5.04
347.268	5.49
347.639	5.56
348.009	5.06
348.38	5.43
348.75	5.24
349.12	5.38
349.49	5.09
349.861	5.58
350.231	4.96
350.601	5.25
350.971	5.45
351.341	5.37
351.711	5.83
352.081	5.62
352.45	5.01
352.82	5
353.19	5.64
353.56	5.45
353.929	5.22
354.299	5.26
354.669	4.91
355.038	5.63
355.408	5.67
355.777	5.38
356.147	5.43
356.516	5.43
356.885	5.24
357.254	5.12
357.624	5.39
357.993	5.2
358.362	5.48
358.731	4.97
359.1	4.89
359.469	5.16
359.838	5.44
360.207	5.31
360.576	5.42
360.945	5.06
361.314	5.59
361.682	5.14
362.051	4.85
362.42	5.15
362.788	5.37
363.157	5.12
363.525	5.18
363.894	5.14
364.262	5.35
364.631	5.34
364.999	5.34
365.367	5.4
365.735	5.2
366.104	5.14
366.472	5.35
366.84	5.52
367.208	5.22
367.576	5.3
367.944	5.42
368.312	5.39
368.68	5.3
369.048	5.33
369.416	5.54
369.783	5.3
370.151	5.51
370.519	5.35
370.886	5.62
371.254	5.67
371.621	5.54
371.989	5.31
372.356	5.55
372.724	5.72
373.091	5.45
373.458	5.15
373.826	5.47
374.193	5.29
374.56	5.38
374.927	5.54
375.294	5.82
375.661	5.77
376.028	5.58
376.395	5.8
376.762	5.47
377.129	5.59
377.496	5.45
377.863	5.84
378.229	5.99
378.596	5.84
378.963	5.42
379.329	5.64
379.696	5.54
380.062	5.58
380.429	5.51
380.795	5.28
381.161	5.46
381.528	5.8
381.894	5.48
382.26	5.69
382.626	5.72
382.993	5.39
383.359	5.82
383.725	5.64
384.091	5.3
384.457	5.86
384.823	5.79
385.188	6.03
385.554	5.62
385.92	5.51
386.286	5.82
386.651	5.41
387.017	5.67
387.383	5.79
387.748	5.59
388.114	5.49
388.479	5.49
388.845	6.04
389.21	5.38
389.575	5.46
389.94	5.66
390.306	5.31
390.671	5.57
391.036	5.74
391.401	5.81
391.766	5.67
392.131	5.98
392.496	5.84
392.861	5.65
393.226	5.67
393.591	5.73
393.956	5.78
394.32	5.87
394.685	5.7
395.05	5.83
395.414	5.77
395.779	5.56
396.143	5.59
396.508	5.77
396.872	5.79
397.236	5.85
397.601	5.69
397.965	5.68
398.329	5.6
398.694	5.81
399.058	5.78
399.422	5.8
399.786	5.71
400.15	5.69
400.514	5.78
400.878	5.88
401.242	6.03
401.605	5.89
401.969	5.56
402.333	5.82
402.697	5.84
403.06	5.68
403.424	5.91
403.787	5.65
404.151	5.85
404.514	5.88
404.878	6.07
405.241	6.08
405.604	5.8
405.968	6.06
406.331	5.81
406.694	5.85
407.057	5.82
407.42	6.1
407.783	5.87
408.146	5.79
408.509	5.94
408.872	6.15
409.235	5.87
409.598	5.92
409.961	5.83
410.323	5.9
410.686	5.61
411.049	6.04
411.411	5.89
411.774	6.08
412.136	5.92
412.499	5.81
412.861	5.9
413.223	6.01
413.586	5.97
413.948	5.91
414.31	6.23
414.672	5.88
415.035	5.96
415.397	5.96
415.759	6.29
416.121	6
416.483	6.13
416.845	5.81
417.206	5.91
417.568	6.18
417.93	6.2
418.292	5.81
418.653	6.06
419.015	5.85
419.377	5.91
419.738	5.94
420.1	5.86
420.461	5.99
420.822	5.95
421.184	5.97
421.545	5.95
421.906	5.83
422.267	5.89
422.629	6.02
422.99	5.8
423.351	5.9
423.712	5.91
424.073	6
424.434	5.86
424.795	5.93
425.155	6.04
425.516	6.02
425.877	5.92
426.238	5.85
426.598	5.92
426.959	5.93
427.32	5.94
427.68	5.95
428.041	6.01
428.401	6.08
428.761	6.06
429.122	6.04
429.482	6.05
429.842	6.03
430.202	6.16
430.563	6.17
430.923	6.28
431.283	6.17
431.643	6.08
432.003	6.27
432.363	6.13
432.722	6.18
433.082	6.26
433.442	6.31
433.802	6.35
434.161	6.07
434.521	6.43
434.881	6.21
435.24	6.27
435.6	6.15
435.959	6.16
436.319	6.26
436.678	6.3
437.037	6.11
437.396	6.36
437.756	6.28
438.115	6.17
438.474	6.28
438.833	6.32
439.192	6.2
439.551	6.13
439.91	6.39
440.269	6.36
440.628	6.38
440.987	6.41
441.345	6.27
441.704	6.26
442.063	6.26
442.421	6.16
442.78	6.2
443.138	6.4
443.497	6.29
443.855	6.39
444.214	6.36
444.572	6.34
444.93	6.47
445.288	6.41
445.647	6.6
446.005	6.42
446.363	6.33
446.721	6.38
447.079	6.51
447.437	6.34
447.795	6.26
448.153	6.26
448.51	6.4
448.868	6.38
449.226	6.3
449.584	6.36
449.941	6.34
450.299	6.35
450.656	6.28
451.014	6.43
451.371	6.56
451.729	6.54
452.086	6.43
452.443	6.55
452.801	6.41
453.158	6.7
453.515	6.58
453.872	6.57
454.229	6.63
454.586	6.56
454.943	6.4
455.3	6.46
455.657	6.54
456.014	6.6
456.371	6.66
456.727	6.72
457.084	6.68
457.441	6.72
457.797	6.6
458.154	6.45
458.51	6.65
458.867	6.7
459.223	6.54
459.58	6.59
459.936	6.67
460.292	6.64
460.648	6.45
461.005	6.64
461.361	6.58
461.717	6.46
462.073	6.62
462.429	6.61
462.785	6.6
463.141	6.78
463.496	6.61
463.852	6.78
464.208	6.71
464.564	6.85
464.919	6.77
465.275	7.01
465.631	6.93
465.986	6.87
466.342	7.08
466.697	6.84
467.052	6.88
467.408	6.79
467.763	6.86
468.118	7
468.473	6.81
468.829	6.83
469.184	6.87
469.539	6.81
469.894	6.9
470.249	6.79
470.603	6.99
470.958	6.78
471.313	7.02
471.668	6.78
472.023	7.02
472.377	7.04
472.732	6.75
473.086	6.93
473.441	7.12
473.795	7.12
474.15	7
474.504	7.03
474.859	7.01
475.213	6.87
475.567	7.09
475.921	7.03
476.275	6.97
476.63	7.09
476.984	7.08
477.338	7.1
477.692	7.03
478.045	7.02
478.399	6.94
478.753	6.98
479.107	7.14
479.461	7.03
479.814	7.22
480.168	7.15
480.521	7.11
480.875	7.03
481.228	7.15
481.582	7.23
481.935	7.08
482.289	7.08
482.642	7.08
482.995	7.15
483.348	7.21
483.701	7.17
484.055	7.14
484.408	7.02
484.761	7.02
485.114	6.94
485.466	6.87
485.819	6.81
486.172	6.69
486.525	6.78
486.878	6.81
487.23	6.86
487.583	6.86
487.936	7.01
488.288	7.03
488.641	7.16
488.993	6.96
489.345	7.01
489.698	6.95
490.05	6.92
490.402	6.98
490.754	7.02
491.107	7
491.459	7.04
491.811	7.1
492.163	7.13
492.515	7.2
492.866	7.19
493.218	7.18
493.57	7.1
493.922	7.12
494.274	7.15
494.625	7.12
494.977	7.1
495.328	7.38
495.68	7.41
496.031	7.27
496.383	7.49
496.734	7.52
497.086	7.41
497.437	7.47
497.788	7.39
498.139	7.58
498.49	7.5
498.842	7.5
499.193	7.51
499.544	7.51
499.894	7.5
500.245	7.65
500.596	7.62
500.947	7.64
501.298	7.59
501.648	7.65
501.999	7.59
502.35	7.68
502.7	7.73
503.051	7.68
503.401	7.71
503.752	7.71
504.102	7.66
504.452	7.56
504.803	7.76
505.153	7.78
505.503	7.84
505.853	7.95
506.203	7.81
506.553	7.8
506.903	7.91
507.253	7.74
507.603	7.72
507.953	7.87
508.303	7.8
508.652	7.96
509.002	7.96
509.352	7.96
509.701	7.97
510.051	7.95
510.4	7.84
510.75	7.95
511.099	7.89
511.449	7.83
511.798	8.1
512.147	7.97
512.496	7.98
512.846	7.97
513.195	8.02
513.544	7.98
513.893	7.97
514.242	7.99
514.591	8.06
514.939	8.13
515.288	8.1
515.637	7.99
515.986	8.17
516.334	8.18
516.683	8.15
517.032	8.11
517.38	8.09
517.729	8.23
518.077	8.25
518.426	8.23
518.774	8.26
519.122	8.17
519.47	8.37
519.819	8.2
520.167	8.11
520.515	8.22
520.863	8.27
521.211	8.2
521.559	8.18
521.907	8.23
522.255	8.26
522.602	8.41
522.95	8.34
523.298	8.39
523.645	8.42
523.993	8.41
524.341	8.35
524.688	8.32
525.036	8.65
525.383	8.44
525.73	8.58
526.078	8.64
526.425	8.58
526.772	8.5
527.119	8.52
527.466	8.58
527.814	8.45
528.161	8.51
528.508	8.5
528.854	8.46
529.201	8.48
529.548	8.53
529.895	8.47
530.242	8.44
530.588	8.39
530.935	8.4
531.282	8.38
531.628	8.37
531.975	8.41
532.321	8.56
532.667	8.58
533.014	8.72
533.36	8.71
533.706	8.87
534.052	8.78
534.399	8.67
534.745	8.78
535.091	8.71
535.437	8.79
535.783	8.72
536.129	8.8
536.474	8.86
536.82	8.87
537.166	8.88
537.512	8.96
537.857	9.07
538.203	9.02
538.549	9.08
538.894	8.97
539.239	9.03
539.585	9.15
539.93	9.18
540.276	9.23
540.621	9.24
540.966	9.32
541.311	9.56
541.656	9.44
542.001	9.51
542.346	9.47
542.691	9.27
543.036	9.3
543.381	9.21
543.726	9.1
544.071	9.19
544.415	9.22
544.76	9.26
545.105	9.43
545.449	9.42
545.794	9.43
546.138	9.5
546.483	9.48
546.827	9.61
547.171	9.65
547.516	9.68
547.86	9.73
548.204	9.64
548.548	9.76
548.892	9.71
549.236	9.7
549.58	9.76
549.924	9.8
550.268	10.01
550.612	10
550.956	10.22
551.3	10
551.643	10.15
551.987	10.31
552.33	10.2
552.674	10.18
553.017	10.26
553.361	10.27
553.704	10.41
554.048	10.32
554.391	10.38
554.734	10.54
555.077	10.4
555.42	10.22
555.764	10.38
556.107	10.42
556.45	10.6
556.793	10.46
557.135	10.45
557.478	10.5
557.821	10.67
558.164	10.82
558.507	10.73
558.849	10.75
559.192	10.72
559.534	10.83
559.877	10.71
560.219	10.86
560.562	10.93
560.904	10.71
561.246	10.86
561.589	10.79
561.931	10.9
562.273	11.08
562.615	11.01
562.957	10.99
563.299	11.08
563.641	11
563.983	11.05
564.325	11.12
564.667	11.15
565.008	11.08
565.35	11.38
565.692	11.35
566.033	11.3
566.375	11.41
566.716	11.32
567.058	11.36
567.399	11.28
567.741	11.29
568.082	11.5
568.423	11.48
568.764	11.47
569.105	11.62
569.447	11.55
569.788	11.6
570.129	11.7
570.47	11.66
570.811	11.72
571.151	11.76
571.492	11.77
571.833	11.89
572.174	11.89
572.514	11.62
572.855	11.79
573.195	11.87
573.536	11.82
573.876	12.05
574.217	11.83
574.557	11.82
574.898	11.92
575.238	12.07
575.578	12.1
575.918	11.94
576.258	12.17
576.598	12.26
576.938	12.29
577.278	12.31
577.618	12.23
577.958	12.32
578.298	12.41
578.638	12.4
578.977	12.4
579.317	12.55
579.657	12.62
579.996	12.62
580.336	12.83
580.675	12.5
581.014	12.71
581.354	12.6
581.693	12.64
582.032	12.93
582.372	12.76
582.711	13.02
583.05	13.05
583.389	13.18
583.728	12.95
584.067	13.17
584.406	13.17
584.745	13.04
585.083	13.23
585.422	13.14
585.761	13.14
586.1	13.36
586.438	12.86
586.777	13.54
587.115	13.58
587.454	13.33
587.792	13.57
588.13	13.61
588.469	13.48
588.807	13.08
589.145	13.64
589.483	13.63
589.821	13.67
590.159	14.12
590.497	13.67
590.835	13.86
591.173	13.83
591.511	14.11
591.849	13.8
592.187	13.99
592.524	13.98
592.862	14.01
593.2	14.12
593.537	13.95
593.875	14.01
594.212	14.15
594.55	14.14
594.887	14.33
595.224	14.14
595.561	14.22
595.899	14.26
596.236	14.41
596.573	14.51
596.91	14.44
597.247	14.39
597.584	14.37
597.921	14.74
598.258	14.73
598.594	14.82
598.931	14.45
599.268	14.44
599.604	14.71
599.941	14.54
600.277	14.5
600.614	14.66
600.95	14.87
601.287	14.96
601.623	15.04
601.959	14.84
602.296	14.91
602.632	15.07
602.968	14.96
603.304	15.41
603.64	14.83
603.976	15.22
604.312	15.57
604.648	15.4
604.984	15.5
605.319	15.28
605.655	15.12
605.991	15.49
606.326	15.22
606.662	15.45
606.998	15.31
607.333	15.38
607.668	15.43
608.004	15.61
608.339	15.38
608.674	15.64
609.01	15.78
609.345	15.87
609.68	16.03
610.015	15.72
610.35	16.17
610.685	16.11
611.02	15.78
611.355	15.84
611.689	16
612.024	16.06
612.359	15.99
612.694	16.06
613.028	15.88
613.363	16.34
613.697	16.29
614.032	16.26
614.366	16.43
614.7	16.29
615.035	16.73
615.369	16.55
615.703	16.37
616.037	16.65
616.371	16.66
616.705	16.67
617.039	16.75
617.373	16.77
617.707	17.09
618.041	16.89
618.375	16.95
618.709	16.63
619.042	17.15
619.376	16.97
619.71	17.39
620.043	17.21
620.377	16.84
620.71	17.22
621.043	17.5
621.377	17.06
621.71	17.2
622.043	17.21
622.376	17.23
622.709	17.78
623.043	17.35
623.376	17.75
623.709	17.41
624.041	17.61
624.374	17.54
624.707	17.41
625.04	17.46
625.373	18.03
625.705	17.87
626.038	18.01
626.37	17.75
626.703	17.47
627.035	17.74
627.368	17.93
627.7	18.08
628.032	17.98
628.365	17.92
628.697	18.18
629.029	18.01
629.361	18.2
629.693	18.31
630.025	18.06
630.357	18.19
630.689	18.17
631.021	18.08
631.353	18.37
631.684	18.19
632.016	18.54
632.348	18.51
632.679	18.29
633.011	18.48
633.342	18.37
633.674	18.54
634.005	19
634.336	19.03
634.668	18.69
634.999	18.97
635.33	18.4
635.661	19.05
635.992	19.23
636.323	19.18
636.654	18.87
636.985	19.17
637.316	19
637.647	19.35
637.977	18.9
638.308	19.23
638.639	19.59
638.969	19.42
639.3	19.12
639.63	19.63
639.961	19.28
640.291	19.36
640.622	19.71
640.952	19.59
641.282	19.48
641.612	19.51
641.943	19.91
642.273	19.26
642.603	20.24
642.933	19.73
643.263	20.29
643.592	19.65
643.922	20.24
644.252	20.1
644.582	19.83
644.911	20.03
645.241	20.48
645.571	20.54
645.9	20.17
646.23	19.96
646.559	20.61
646.888	20.13
647.218	20.52
647.547	20.02
647.876	20.82
648.205	20.68
648.534	20.34
648.863	20.73
649.192	20.49
649.521	20.48
649.85	20.62
650.179	20.36
650.508	20.61
650.837	20.89
651.165	21.08
651.494	20.27
651.822	20.95
652.151	21.01
652.479	20.74
652.808	20.82
653.136	20.39
653.465	20.99
653.793	21.2
654.121	21.18
654.449	21
654.777	21.26
655.105	20.9
655.433	21.44
655.761	21.59
656.089	21.63
656.417	21.41
656.745	21.68
657.073	21.59
657.4	22.16
657.728	22.14
658.056	22.1
658.383	21.24
658.711	21.79
659.038	22.35
659.365	21.87
659.693	21.83
660.02	22.23
660.347	22.16
660.674	21.75
661.001	21.67
661.329	22.25
661.656	21.72
661.982	21.97
662.309	22.34
662.636	21.95
662.963	21.73
663.29	21.99
663.616	22.26
663.943	22.09
664.27	22.46
664.596	22.08
664.923	22.38
665.249	22.31
665.576	22.49
665.902	22.5
666.228	22.83
666.554	23.1
666.881	21.9
667.207	23.07
667.533	23.06
667.859	22.87
668.185	22.8
668.511	23.04
668.837	22.89
669.162	23.07
669.488	23.15
669.814	23.14
670.139	22.66
670.465	22.99
670.791	23.46
671.116	23.04
671.442	23.32
671.767	23.25
672.092	22.95
672.418	23.69
672.743	23.42
673.068	23.94
673.393	23.63
673.718	23.21
674.043	23.65
674.368	23.33
674.693	23.17
675.018	23.73
675.343	23.69
675.667	23.5
675.992	24.24
676.317	23.96
676.641	24.13
676.966	23.8
677.29	24.47
677.615	24.26
677.939	23.23
678.264	24.01
678.588	24.06
678.912	24.04
679.236	23.86
679.56	23.91
679.885	24.7
680.209	24
680.532	23.89
680.856	23.8
681.18	24.19
681.504	24.79
681.828	24.15
682.152	25.1
682.475	23.99
682.799	24.39
683.122	24.45
683.446	24.72
683.769	24.46
