Data from 0278_forehead_Reflection__3__198.txt Node

Date: Fri Oct 20 22:14:08 CDT 2023
User: ToomeyLab
Spectrometer: FLMS14357
Trigger mode: 0
Integration Time (sec): 1.000000E-2
Scans to average: 100
Electric dark correction enabled: true
Nonlinearity correction enabled: false
Boxcar width: 0
XAxis mode: Wavelengths
Number of Pixels in Spectrum: 2048
>>>>>Begin Spectral Data<<<<<
189.047	-49.77
189.435	-49.77
189.823	-49.77
190.211	-67.44
190.599	-956.86
190.987	111.9
191.375	-53.92
191.763	-28.5
192.151	-309.56
192.538	24.13
192.926	2830.32
193.314	41.11
193.702	60.62
194.089	-10.54
194.477	79.55
194.864	-70.81
195.252	95.46
195.639	-123.24
196.027	6.13
196.414	-32.61
196.801	-119.22
197.189	89.67
197.576	151.11
197.963	1480.08
198.351	55.25
198.738	26.6
199.125	38.34
199.512	37.81
199.899	47.45
200.286	-34.68
200.673	35.51
201.06	32.1
201.447	7.18
201.833	27.61
202.22	52.3
202.607	47.57
202.994	50.81
203.38	32.68
203.767	26
204.154	8.62
204.54	83.01
204.927	29.43
205.313	-4.74
205.699	54.55
206.086	50.34
206.472	44.15
206.858	54.67
207.245	25.35
207.631	50.44
208.017	16.11
208.403	-12.45
208.789	64.72
209.175	21.53
209.561	42.06
209.947	22.66
210.333	20.36
210.719	35.1
211.105	35.81
211.491	42.18
211.876	3.73
212.262	66.26
212.648	63.63
213.034	-17
213.419	19.12
213.805	2.41
214.19	6.19
214.576	4.26
214.961	25.16
215.346	26.42
215.732	30.53
216.117	1.8
216.502	8.71
216.888	19.88
217.273	12.35
217.658	9.29
218.043	12.88
218.428	24.75
218.813	4.16
219.198	7.58
219.583	-26.42
219.968	6.79
220.353	-0.58
220.738	20.97
221.122	9.55
221.507	12.36
221.892	15.38
222.276	25.47
222.661	14.18
223.046	10.95
223.43	21.06
223.815	22.18
224.199	26.49
224.583	-2.24
224.968	13.71
225.352	-2.18
225.736	9.52
226.121	10.13
226.505	-2.61
226.889	-1.59
227.273	10.51
227.657	6.96
228.041	7.57
228.425	5.66
228.809	0.29
229.193	6.46
229.577	6.02
229.961	3.33
230.344	3.1
230.728	2.79
231.112	3.3
231.495	2.68
231.879	2.88
232.263	3.81
232.646	1.98
233.03	2.29
233.413	2.37
233.797	2.68
234.18	4.35
234.563	4.43
234.946	4.79
235.33	4.83
235.713	3.83
236.096	2.99
236.479	2.68
236.862	4.34
237.245	2.76
237.628	1.85
238.011	3.56
238.394	3.32
238.777	4.82
239.16	4.51
239.543	5.67
239.925	6.65
240.308	4.53
240.691	2.48
241.073	5.56
241.456	4.61
241.838	3.3
242.221	3.99
242.603	2.68
242.986	3.06
243.368	3.32
243.75	2.76
244.133	2.77
244.515	2.61
244.897	2.73
245.279	3.19
245.661	2.98
246.043	2.71
246.425	2.75
246.807	2.84
247.189	2.19
247.571	2.9
247.953	3.05
248.335	3.29
248.717	2.33
249.098	2.58
249.48	2.77
249.862	3.05
250.243	2.72
250.625	2.92
251.006	3.04
251.388	3.23
251.769	3.45
252.151	2.3
252.532	3.5
252.913	2.73
253.295	2.95
253.676	3.44
254.057	2.42
254.438	3.07
254.819	3.31
255.2	3.33
255.581	3.23
255.962	4.61
256.343	3.63
256.724	2.44
257.105	3.35
257.486	3.52
257.867	3.44
258.247	3.54
258.628	4.05
259.009	3.31
259.389	3.27
259.77	3.12
260.15	2.92
260.531	2.93
260.911	3.37
261.292	2.83
261.672	2.81
262.052	3.12
262.432	2.9
262.813	2.79
263.193	3.1
263.573	2.97
263.953	3.15
264.333	3.33
264.713	3.44
265.093	3.42
265.473	3.85
265.853	3.33
266.233	3.4
266.612	3.11
266.992	3.24
267.372	3.15
267.752	3.48
268.131	3
268.511	3.43
268.89	3.51
269.27	2.93
269.649	2.69
270.029	3.2
270.408	2.99
270.787	2.85
271.167	3.04
271.546	3.27
271.925	3.07
272.304	3.39
272.683	3.01
273.062	3.18
273.441	2.93
273.82	3.17
274.199	2.83
274.578	3.12
274.957	3.06
275.336	3.45
275.715	3.21
276.093	2.6
276.472	3.23
276.851	3.6
277.229	3.09
277.608	2.82
277.986	2.54
278.365	3.71
278.743	2.83
279.122	3.17
279.5	3.25
279.878	2.63
280.257	3.12
280.635	3.61
281.013	3.48
281.391	3.27
281.769	2.91
282.147	3.11
282.525	3.15
282.903	2.86
283.281	3.06
283.659	3.32
284.037	2.92
284.415	2.89
284.792	3.12
285.17	3.14
285.548	3.31
285.925	3.03
286.303	2.53
286.68	3.05
287.058	3.72
287.435	3.16
287.813	2.75
288.19	3.22
288.567	2.95
288.945	3.24
289.322	3.56
289.699	2.51
290.076	3.8
290.453	3.31
290.83	2.99
291.207	3.65
291.584	2.84
291.961	3.3
292.338	3.08
292.715	3.19
293.092	3.16
293.469	3.79
293.845	3.37
294.222	3.37
294.599	3.4
294.975	4.39
295.352	3.45
295.728	3.53
296.105	3.17
296.481	3.62
296.858	3.64
297.234	3.85
297.61	3.2
297.986	3.3
298.363	3.6
298.739	3.93
299.115	3.47
299.491	3.8
299.867	3.91
300.243	3.72
300.619	3.91
300.995	3.81
301.371	3.89
301.746	3.99
302.122	4.46
302.498	3.83
302.874	4.25
303.249	3.62
303.625	4.53
304	4.45
304.376	4.07
304.751	4.01
305.127	3.96
305.502	4.57
305.878	4.74
306.253	4.28
306.628	4.57
307.003	4.62
307.378	4.49
307.754	4
308.129	5.13
308.504	5.01
308.879	4.6
309.254	5.21
309.629	4.43
310.003	4.27
310.378	5.19
310.753	4.98
311.128	5.35
311.502	4.77
311.877	5.27
312.252	4.81
312.626	5.15
313.001	5.32
313.375	5.15
313.75	5.06
314.124	4.86
314.498	5.19
314.873	4.94
315.247	5.76
315.621	5.81
315.995	5.56
316.369	5.43
316.743	6.14
317.117	5.56
317.491	5.03
317.865	5.99
318.239	6.57
318.613	5.91
318.987	5.92
319.361	5.22
319.734	6
320.108	5.85
320.482	6.47
320.855	5.97
321.229	6.69
321.602	6.34
321.976	6.41
322.349	6.69
322.723	6.29
323.096	6.94
323.469	7.16
323.843	7.17
324.216	6.74
324.589	6.83
324.962	7.05
325.335	6.16
325.708	6.4
326.081	6.92
326.454	6.94
326.827	7.36
327.2	7.18
327.573	6.97
327.945	7.02
328.318	6.64
328.691	7.13
329.063	7.36
329.436	7.01
329.809	7.59
330.181	7.71
330.553	7.68
330.926	7.05
331.298	7.49
331.671	7.74
332.043	7.19
332.415	7.27
332.787	7.65
333.159	7.68
333.532	7.67
333.904	7.51
334.276	6.85
334.648	7.68
335.02	8.23
335.391	7.8
335.763	8
336.135	8.03
336.507	8.24
336.879	7.87
337.25	7.77
337.622	8.08
337.993	8.61
338.365	8.14
338.736	8.17
339.108	8.16
339.479	7.9
339.851	8.56
340.222	8.1
340.593	7.98
340.964	8.35
341.336	8.63
341.707	8.28
342.078	8.33
342.449	8.38
342.82	8.54
343.191	8.36
343.562	8.55
343.933	8.39
344.303	8.53
344.674	8.74
345.045	9.04
345.416	9.04
345.786	8.54
346.157	8.92
346.527	8.82
346.898	8.74
347.268	8.87
347.639	9.15
348.009	8.84
348.38	9.05
348.75	9.04
349.12	8.83
349.49	9.04
349.861	9.24
350.231	8.86
350.601	8.25
350.971	9.46
351.341	9.2
351.711	9.52
352.081	9.15
352.45	9.21
352.82	9.21
353.19	9.58
353.56	9.7
353.929	9.51
354.299	9.06
354.669	9.68
355.038	9.87
355.408	9.89
355.777	9.84
356.147	9.38
356.516	9.27
356.885	9.83
357.254	9.62
357.624	9.56
357.993	9.24
358.362	9.67
358.731	9.37
359.1	9.19
359.469	9.64
359.838	9.97
360.207	9.75
360.576	10.07
360.945	9.63
361.314	9.8
361.682	9.73
362.051	9.91
362.42	9.89
362.788	9.95
363.157	9.87
363.525	9.79
363.894	10
364.262	10.03
364.631	10.26
364.999	10.35
365.367	10.4
365.735	9.97
366.104	9.88
366.472	10.3
366.84	10.34
367.208	10.54
367.576	10.41
367.944	10.42
368.312	10.44
368.68	10.62
369.048	10.68
369.416	10.71
369.783	10.85
370.151	10.82
370.519	10.74
370.886	10.77
371.254	10.87
371.621	10.74
371.989	10.86
372.356	11
372.724	11.01
373.091	10.96
373.458	10.55
373.826	10.92
374.193	10.73
374.56	10.95
374.927	10.93
375.294	11.14
375.661	11.06
376.028	10.77
376.395	11.3
376.762	10.94
377.129	11.23
377.496	11.13
377.863	11.75
378.229	11.27
378.596	11.62
378.963	11.26
379.329	11.31
379.696	11.33
380.062	11.39
380.429	11.41
380.795	11.46
381.161	11.72
381.528	11.77
381.894	11.56
382.26	11.45
382.626	12.01
382.993	11.43
383.359	11.98
383.725	11.85
384.091	11.69
384.457	11.7
384.823	11.71
385.188	12.36
385.554	11.89
385.92	11.71
386.286	12
386.651	12.12
387.017	12.09
387.383	12.13
387.748	11.81
388.114	11.92
388.479	12.31
388.845	12.29
389.21	12.27
389.575	12.03
389.94	12.19
390.306	12.34
390.671	12.38
391.036	12.13
391.401	12.3
391.766	12.45
392.131	12.49
392.496	12.61
392.861	12.48
393.226	12.76
393.591	12.24
393.956	12.71
394.32	12.82
394.685	12.61
395.05	12.76
395.414	12.8
395.779	12.57
396.143	12.64
396.508	12.8
396.872	12.72
397.236	13.01
397.601	13.05
397.965	12.9
398.329	13
398.694	13.09
399.058	13.04
399.422	12.96
399.786	13.11
400.15	12.96
400.514	12.93
400.878	13.33
401.242	13.41
401.605	13.22
401.969	13.14
402.333	13.22
402.697	13.59
403.06	13.53
403.424	13.47
403.787	13.59
404.151	13.56
404.514	13.48
404.878	13.7
405.241	13.63
405.604	13.53
405.968	13.68
406.331	13.31
406.694	13.56
407.057	13.58
407.42	13.88
407.783	13.75
408.146	13.64
408.509	13.68
408.872	13.73
409.235	13.65
409.598	13.87
409.961	13.82
410.323	14.04
410.686	13.92
411.049	13.97
411.411	14.08
411.774	13.74
412.136	13.93
412.499	13.96
412.861	14
413.223	14.26
413.586	14.05
413.948	14.13
414.31	14.51
414.672	14.49
415.035	14.42
415.397	14.33
415.759	14.45
416.121	14.45
416.483	14.95
416.845	14.39
417.206	14.3
417.568	14.65
417.93	14.58
418.292	14.25
418.653	14.59
419.015	14.24
419.377	14.24
419.738	14.38
420.1	14.25
420.461	14.35
420.822	14.4
421.184	14.44
421.545	14.43
421.906	14.49
422.267	14.47
422.629	14.56
422.99	14.44
423.351	14.53
423.712	14.42
424.073	14.58
424.434	14.56
424.795	14.7
425.155	14.77
425.516	14.68
425.877	14.82
426.238	14.69
426.598	14.8
426.959	14.72
427.32	14.84
427.68	14.95
428.041	15.09
428.401	15.06
428.761	15.26
429.122	15.09
429.482	15.39
429.842	15.16
430.202	15.38
430.563	15.46
430.923	15.57
431.283	15.54
431.643	15.43
432.003	15.57
432.363	15.56
432.722	15.62
433.082	15.59
433.442	15.68
433.802	15.92
434.161	15.7
434.521	15.8
434.881	15.66
435.24	15.67
435.6	15.66
435.959	15.8
436.319	15.74
436.678	16.01
437.037	15.8
437.396	16.03
437.756	16.18
438.115	15.89
438.474	16
438.833	16.01
439.192	16.09
439.551	16.01
439.91	16.27
440.269	16.36
440.628	16.43
440.987	16.26
441.345	16.07
441.704	16.21
442.063	16.11
442.421	16.11
442.78	16.09
443.138	16.28
443.497	16.28
443.855	16.27
444.214	16.35
444.572	16.46
444.93	16.57
445.288	16.46
445.647	16.87
446.005	16.58
446.363	16.66
446.721	16.62
447.079	16.77
447.437	16.57
447.795	16.5
448.153	16.52
448.51	16.58
448.868	16.65
449.226	16.6
449.584	16.62
449.941	16.73
450.299	16.79
450.656	16.72
451.014	17.05
451.371	17.18
451.729	17.03
452.086	17.05
452.443	17.33
452.801	17.07
453.158	17.42
453.515	17.36
453.872	17.23
454.229	17.41
454.586	17.44
454.943	17.37
455.3	17.32
455.657	17.43
456.014	17.54
456.371	17.6
456.727	17.76
457.084	17.54
457.441	17.89
457.797	17.64
458.154	17.41
458.51	17.71
458.867	17.66
459.223	17.77
459.58	17.93
459.936	18.06
460.292	17.82
460.648	17.77
461.005	17.75
461.361	17.73
461.717	17.63
462.073	17.56
462.429	17.66
462.785	17.69
463.141	17.95
463.496	18.07
463.852	18.13
464.208	18.15
464.564	18.33
464.919	18.15
465.275	18.3
465.631	18.44
465.986	18.47
466.342	18.45
466.697	18.59
467.052	18.43
467.408	18.4
467.763	18.55
468.118	18.78
468.473	18.7
468.829	18.58
469.184	18.66
469.539	18.63
469.894	18.74
470.249	18.66
470.603	18.69
470.958	18.98
471.313	18.93
471.668	18.83
472.023	18.85
472.377	19.04
472.732	19.02
473.086	19
473.441	19.27
473.795	19.16
474.15	18.96
474.504	19.16
474.859	19.17
475.213	19.17
475.567	19.18
475.921	19.33
476.275	19.34
476.63	19.51
476.984	19.57
477.338	19.66
477.692	19.43
478.045	19.44
478.399	19.39
478.753	19.44
479.107	19.57
479.461	19.59
479.814	19.64
480.168	19.54
480.521	19.52
480.875	19.54
481.228	19.57
481.582	19.62
481.935	19.58
482.289	19.63
482.642	19.68
482.995	19.84
483.348	19.65
483.701	19.68
484.055	19.69
484.408	19.52
484.761	19.41
485.114	19.26
485.466	19.09
485.819	18.89
486.172	18.8
486.525	18.94
486.878	19.12
487.23	19.22
487.583	19.37
487.936	19.54
488.288	19.54
488.641	19.72
488.993	19.45
489.345	19.33
489.698	19.35
490.05	19.43
490.402	19.48
490.754	19.46
491.107	19.61
491.459	19.91
491.811	20.07
492.163	20.19
492.515	20.14
492.866	20.19
493.218	19.93
493.57	19.79
493.922	19.77
494.274	19.82
494.625	19.98
494.977	20.18
495.328	20.38
495.68	20.62
496.031	20.58
496.383	20.81
496.734	21.01
497.086	20.92
497.437	21.09
497.788	20.79
498.139	21.1
498.49	20.96
498.842	20.87
499.193	21.02
499.544	20.95
499.894	20.89
500.245	21.04
500.596	21.14
500.947	21.19
501.298	21.16
501.648	21.16
501.999	21.31
502.35	21.3
502.7	21.71
503.051	21.52
503.401	21.6
503.752	21.57
504.102	21.61
504.452	21.7
504.803	21.88
505.153	21.81
505.503	21.71
505.853	21.72
506.203	21.67
506.553	21.79
506.903	21.75
507.253	21.95
507.603	21.77
507.953	21.9
508.303	21.94
508.652	21.97
509.002	22.04
509.352	22.09
509.701	22.07
510.051	22.1
510.4	21.92
510.75	22.02
511.099	21.94
511.449	21.95
511.798	22.17
512.147	22.08
512.496	22.12
512.846	22.16
513.195	22.24
513.544	22.27
513.893	22.19
514.242	22.34
514.591	22.29
514.939	22.5
515.288	22.41
515.637	22.48
515.986	22.52
516.334	22.73
516.683	22.63
517.032	22.56
517.38	22.73
517.729	22.83
518.077	22.79
518.426	22.79
518.774	22.89
519.122	22.82
519.47	22.81
519.819	22.64
520.167	22.7
520.515	22.53
520.863	22.66
521.211	22.51
521.559	22.66
521.907	22.8
522.255	22.74
522.602	22.97
522.95	22.96
523.298	23.12
523.645	23.27
523.993	23.25
524.341	23.19
524.688	23.37
525.036	23.36
525.383	23.37
525.73	23.52
526.078	23.5
526.425	23.51
526.772	23.43
527.119	23.42
527.466	23.23
527.814	23.08
528.161	23.2
528.508	23.06
528.854	23.25
529.201	23.22
529.548	23.31
529.895	23.13
530.242	22.9
530.588	22.74
530.935	22.76
531.282	22.89
531.628	23.07
531.975	23.1
532.321	23.22
532.667	23.4
533.014	23.44
533.36	23.67
533.706	23.79
534.052	23.82
534.399	23.68
534.745	23.66
535.091	23.46
535.437	23.43
535.783	23.38
536.129	23.64
536.474	23.76
536.82	23.9
537.166	23.99
537.512	24.17
537.857	24.27
538.203	24.31
538.549	24.1
538.894	23.92
539.239	24.11
539.585	24.18
539.93	24.36
540.276	24.58
540.621	24.58
540.966	24.78
541.311	25.01
541.656	24.83
542.001	24.8
542.346	24.69
542.691	24.49
543.036	24.35
543.381	24.15
543.726	23.94
544.071	24.15
544.415	24.29
544.76	24.39
545.105	24.62
545.449	24.55
545.794	24.75
546.138	24.7
546.483	24.84
546.827	25.03
547.171	25.22
547.516	25.07
547.86	25.19
548.204	25.22
548.548	25.31
548.892	25.14
549.236	25.18
549.58	25.31
549.924	25.34
550.268	25.52
550.612	25.74
550.956	25.94
551.3	25.55
551.643	25.61
551.987	25.9
552.33	26.09
552.674	25.85
553.017	26.15
553.361	26.13
553.704	26.35
554.048	26.31
554.391	26.15
554.734	25.93
555.077	25.97
555.42	25.92
555.764	26.06
556.107	26.13
556.45	26.14
556.793	26.09
557.135	26.35
557.478	26.57
557.821	26.39
558.164	26.57
558.507	26.44
558.849	26.8
559.192	26.62
559.534	26.6
559.877	26.47
560.219	26.98
560.562	26.84
560.904	26.7
561.246	26.85
561.589	26.76
561.931	26.95
562.273	27.2
562.615	27.17
562.957	27.13
563.299	26.99
563.641	26.97
563.983	26.99
564.325	27.08
564.667	27.25
565.008	27.04
565.35	27.23
565.692	27.06
566.033	27.35
566.375	27.39
566.716	27.28
567.058	27.21
567.399	27.36
567.741	27.3
568.082	27.43
568.423	27.21
568.764	27.26
569.105	27.44
569.447	27.38
569.788	27.44
570.129	27.6
570.47	27.29
570.811	27.57
571.151	27.7
571.492	27.56
571.833	27.78
572.174	28.05
572.514	27.54
572.855	27.82
573.195	27.68
573.536	27.7
573.876	27.87
574.217	27.54
574.557	27.61
574.898	27.64
575.238	27.77
575.578	28.01
575.918	28.11
576.258	27.98
576.598	28.2
576.938	28.01
577.278	28.04
577.618	27.92
577.958	28.11
578.298	28.27
578.638	28.18
578.977	28.26
579.317	28.42
579.657	28.56
579.996	28.58
580.336	28.66
580.675	28.6
581.014	28.59
581.354	28.74
581.693	28.85
582.032	28.81
582.372	29.01
582.711	28.92
583.05	29.1
583.389	28.77
583.728	29.04
584.067	28.88
584.406	29.05
584.745	29.21
585.083	29.13
585.422	29.12
585.761	29.19
586.1	29.16
586.438	29.17
586.777	29.22
587.115	29.59
587.454	29.25
587.792	29.38
588.13	29.48
588.469	29.56
588.807	29.2
589.145	29.29
589.483	29.46
589.821	29.31
590.159	29.74
590.497	29.54
590.835	29.5
591.173	29.52
591.511	29.53
591.849	29.72
592.187	29.81
592.524	29.42
592.862	29.65
593.2	29.86
593.537	29.88
593.875	29.46
594.212	29.99
594.55	29.69
594.887	29.94
595.224	30
595.561	29.96
595.899	29.94
596.236	29.92
596.573	30.15
596.91	29.89
597.247	29.94
597.584	29.83
597.921	29.96
598.258	30.16
598.594	29.92
598.931	29.75
599.268	29.85
599.604	30.13
599.941	30.04
600.277	30.18
600.614	30.25
600.95	30.35
601.287	30.13
601.623	30.58
601.959	30.36
602.296	30.35
602.632	30.73
602.968	30.35
603.304	30.72
603.64	30.39
603.976	30.65
604.312	31.21
604.648	30.39
604.984	30.61
605.319	30.35
605.655	30.62
605.991	30.47
606.326	30.57
606.662	30.46
606.998	30.23
607.333	30.47
607.668	30.48
608.004	30.93
608.339	30.71
608.674	31.24
609.01	31.14
609.345	30.95
609.68	31.35
610.015	31
610.35	31.28
610.685	30.98
611.02	31.07
611.355	30.93
611.689	30.93
612.024	31.12
612.359	30.87
612.694	31.27
613.028	31.27
613.363	31.18
613.697	31.18
614.032	31.37
614.366	31.19
614.7	31.46
615.035	31.6
615.369	31.41
615.703	31.55
616.037	31.85
616.371	31.66
616.705	31.83
617.039	31.56
617.373	31.68
617.707	31.8
618.041	31.99
618.375	31.75
618.709	31.7
619.042	31.85
619.376	31.9
619.71	32.34
620.043	32.28
620.377	31.82
620.71	31.97
621.043	32.08
621.377	32.01
621.71	32.24
622.043	31.89
622.376	32.26
622.709	32.32
623.043	32.15
623.376	32.06
623.709	31.67
624.041	32.49
624.374	32.5
624.707	32.14
625.04	32.33
625.373	32.85
625.705	32.51
626.038	32.3
626.37	31.91
626.703	32.35
627.035	31.73
627.368	32.17
627.7	33.03
628.032	32.49
628.365	32.57
628.697	32.63
629.029	32.58
629.361	32.36
629.693	32.73
630.025	32.57
630.357	33.08
630.689	32.8
631.021	32.92
631.353	32.59
631.684	32.99
632.016	32.96
632.348	32.86
632.679	32.68
633.011	32.89
633.342	32.79
633.674	32.9
634.005	33.3
634.336	33.52
634.668	33.14
634.999	33.05
635.33	33.23
635.661	33.47
635.992	33.14
636.323	33.41
636.654	33.51
636.985	33.42
637.316	33.25
637.647	33.14
637.977	33.08
638.308	33.21
638.639	33.43
638.969	33.15
639.3	33.19
639.63	33.97
639.961	33.36
640.291	33.7
640.622	33.46
640.952	33.77
641.282	33.45
641.612	33.81
641.943	33.84
642.273	33.46
642.603	33.89
642.933	34.14
643.263	33.72
643.592	34.3
643.922	34.34
644.252	33.32
644.582	34.22
644.911	33.88
645.241	34.1
645.571	34.56
645.9	34.16
646.23	33.8
646.559	34.1
646.888	33.96
647.218	34.32
647.547	33.77
647.876	34.28
648.205	34.35
648.534	34.1
648.863	33.8
649.192	34.01
649.521	34.3
649.85	34.98
650.179	34.18
650.508	34.46
650.837	34.23
651.165	35.03
651.494	33.94
651.822	34.5
652.151	34.57
652.479	34.25
652.808	34.39
653.136	33.56
653.465	34.14
653.793	35.01
654.121	34.79
654.449	34.83
654.777	34.51
655.105	34.76
655.433	35.39
655.761	35.21
656.089	34.65
656.417	34.87
656.745	35.04
657.073	34.96
657.4	35.29
657.728	34.98
658.056	34.91
658.383	35.11
658.711	35.23
659.038	34.65
659.365	34.97
659.693	34.47
660.02	35.23
660.347	35.31
660.674	35.55
661.001	34.78
661.329	35.1
661.656	35.08
661.982	34.92
662.309	35.05
662.636	35.35
662.963	35.09
663.29	35.14
663.616	35.23
663.943	35.59
664.27	35.14
664.596	35.08
664.923	35.23
665.249	35.59
665.576	35.09
665.902	35.36
666.228	35.65
666.554	35.56
666.881	35
667.207	35.89
667.533	35.28
667.859	35.53
668.185	35.4
668.511	35.8
668.837	35.77
669.162	35.83
669.488	35.75
669.814	35.6
670.139	35.42
670.465	35.62
670.791	36.03
671.116	35.67
671.442	35.64
671.767	35.65
672.092	35.89
