Data from 0278_forehead_Reflection__4__199.txt Node

Date: Fri Oct 20 22:14:21 CDT 2023
User: ToomeyLab
Spectrometer: FLMS14357
Trigger mode: 0
Integration Time (sec): 1.000000E-2
Scans to average: 100
Electric dark correction enabled: true
Nonlinearity correction enabled: false
Boxcar width: 0
XAxis mode: Wavelengths
Number of Pixels in Spectrum: 2048
>>>>>Begin Spectral Data<<<<<
189.047	-5.69
189.435	-5.69
189.823	-5.69
190.211	487.29
190.599	-649.83
190.987	68.53
191.375	-48.14
191.763	83.34
192.151	-175.6
192.538	45.69
192.926	-1480.65
193.314	82.43
193.702	80.75
194.089	102.04
194.477	184.91
194.864	-202.61
195.252	53.61
195.639	-153.94
196.027	46.66
196.414	113.73
196.801	327.52
197.189	131.74
197.576	64.51
197.963	551.79
198.351	68.98
198.738	38.92
199.125	68.14
199.512	35.6
199.899	64.72
200.286	-8.12
200.673	25.08
201.06	44.13
201.447	-11.65
201.833	82.83
202.22	27.12
202.607	68.99
202.994	75.29
203.38	12.05
203.767	39.13
204.154	38.18
204.54	72.5
204.927	12.63
205.313	-19.86
205.699	58.19
206.086	33.74
206.472	69.42
206.858	37.8
207.245	1.1
207.631	34.34
208.017	22.66
208.403	15.92
208.789	32.08
209.175	20.19
209.561	46.44
209.947	5.07
210.333	16.24
210.719	62.43
211.105	30.53
211.491	21.44
211.876	-0.2
212.262	20.56
212.648	51.22
213.034	11.93
213.419	27.2
213.805	14.07
214.19	9.75
214.576	32.39
214.961	24.55
215.346	39.49
215.732	44.77
216.117	-17.96
216.502	20.76
216.888	24.47
217.273	7.48
217.658	6.79
218.043	20.67
218.428	11.8
218.813	12.33
219.198	16.59
219.583	33.33
219.968	-14.74
220.353	28.93
220.738	17.02
221.122	25.21
221.507	26.88
221.892	18.66
222.276	18.65
222.661	21.81
223.046	15.29
223.43	14.35
223.815	16.41
224.199	20.87
224.583	6.24
224.968	14.62
225.352	6.46
225.736	7.5
226.121	21.59
226.505	6.06
226.889	10.46
227.273	14.53
227.657	8.56
228.041	13.3
228.425	11.1
228.809	10.21
229.193	3.96
229.577	9.67
229.961	5.13
230.344	5.55
230.728	4.47
231.112	5.82
231.495	5.23
231.879	5.87
232.263	6.32
232.646	5.49
233.03	5.63
233.413	5.7
233.797	4.53
234.18	6.61
234.563	6.06
234.946	7.09
235.33	5.84
235.713	5.72
236.096	6.79
236.479	6.38
236.862	5.71
237.245	5.97
237.628	5.84
238.011	7.28
238.394	5.76
238.777	6.35
239.16	6.19
239.543	8.99
239.925	7.87
240.308	7.27
240.691	5.58
241.073	8.1
241.456	4.95
241.838	5.48
242.221	5.82
242.603	5.76
242.986	5.91
243.368	5.94
243.75	5.6
244.133	5.22
244.515	5.2
244.897	4.96
245.279	6.02
245.661	4.92
246.043	5.54
246.425	5.12
246.807	5.13
247.189	5.39
247.571	5.02
247.953	6.01
248.335	5.89
248.717	5.33
249.098	5.12
249.48	5.27
249.862	5.43
250.243	5.84
250.625	5.98
251.006	5.51
251.388	6.29
251.769	5.48
252.151	6.51
252.532	6.87
252.913	6.06
253.295	5.05
253.676	5.47
254.057	5.67
254.438	5.43
254.819	5.6
255.2	5.11
255.581	5.9
255.962	5.33
256.343	5.9
256.724	4.83
257.105	5.19
257.486	6.36
257.867	5.52
258.247	7.14
258.628	5.65
259.009	5.4
259.389	4.92
259.77	5.5
260.15	6.52
260.531	5.84
260.911	5.81
261.292	5.25
261.672	5.73
262.052	5.49
262.432	5.4
262.813	5.48
263.193	5.47
263.573	5.37
263.953	6.25
264.333	6.31
264.713	6.07
265.093	6.11
265.473	5.89
265.853	5.99
266.233	5.96
266.612	5.97
266.992	5.24
267.372	5.76
267.752	5.51
268.131	5.66
268.511	5.2
268.89	5.62
269.27	5.08
269.649	4.99
270.029	5.43
270.408	5.39
270.787	6.16
271.167	5.58
271.546	5.76
271.925	6.49
272.304	5.59
272.683	5.51
273.062	5.84
273.441	5.68
273.82	5.25
274.199	5.8
274.578	5.5
274.957	5.74
275.336	6
275.715	5.81
276.093	5.12
276.472	5.51
276.851	5.46
277.229	5.16
277.608	5.09
277.986	4.98
278.365	5.87
278.743	4.94
279.122	5.3
279.5	4.93
279.878	4.31
280.257	6.23
280.635	5.7
281.013	5.84
281.391	5.6
281.769	5.34
282.147	5.6
282.525	5.19
282.903	5.07
283.281	5.4
283.659	5.41
284.037	5.3
284.415	5.15
284.792	5.23
285.17	5.32
285.548	5.57
285.925	5.27
286.303	5.42
286.68	5.48
287.058	5.62
287.435	5.55
287.813	5.01
288.19	5.3
288.567	5.2
288.945	5.7
289.322	6.08
289.699	5.44
290.076	6.13
290.453	5.47
290.83	5.53
291.207	6.16
291.584	5.31
291.961	5.59
292.338	5.43
292.715	5.59
293.092	5.65
293.469	6.01
293.845	6.15
294.222	6.26
294.599	5.72
294.975	6.44
295.352	5.85
295.728	5.71
296.105	6.21
296.481	6.14
296.858	6.33
297.234	6.48
297.61	6.37
297.986	6.16
298.363	6.49
298.739	6.6
299.115	6.32
299.491	6.41
299.867	6.69
300.243	6.81
300.619	6.95
300.995	6.72
301.371	6.66
301.746	6.83
302.122	6.91
302.498	6.63
302.874	7.08
303.249	6.94
303.625	7.2
304	7.57
304.376	6.72
304.751	7.07
305.127	7.29
305.502	7.65
305.878	7.38
306.253	7.75
306.628	7.89
307.003	8.06
307.378	7.78
307.754	7.81
308.129	7.94
308.504	8.54
308.879	8.09
309.254	8.35
309.629	7.43
310.003	7.48
310.378	8.31
310.753	8.16
311.128	8.54
311.502	8.64
311.877	8.64
312.252	8.23
312.626	8.58
313.001	8.51
313.375	8.27
313.75	8.54
314.124	8.45
314.498	8.92
314.873	8.35
315.247	8.93
315.621	8.58
315.995	8.98
316.369	8.98
316.743	8.98
317.117	9.58
317.491	8.45
317.865	9.25
318.239	9.66
318.613	9.79
318.987	9.66
319.361	8.8
319.734	9.1
320.108	9.35
320.482	9.97
320.855	10.28
321.229	10.18
321.602	9.54
321.976	9.63
322.349	10.23
322.723	9.82
323.096	10.19
323.469	10.37
323.843	10.39
324.216	9.99
324.589	10.58
324.962	10.42
325.335	10.03
325.708	10.29
326.081	10.74
326.454	10.89
326.827	10.81
327.2	10.83
327.573	10.64
327.945	10.78
328.318	10.59
328.691	10.53
329.063	11.12
329.436	10.69
329.809	11.35
330.181	10.96
330.553	11.27
330.926	10.82
331.298	10.83
331.671	10.71
332.043	10.94
332.415	11.03
332.787	11.75
333.159	11.04
333.532	11.68
333.904	11.74
334.276	11.05
334.648	11.32
335.02	11.87
335.391	11.19
335.763	12.05
336.135	11.72
336.507	11.99
336.879	11.56
337.25	11.29
337.622	11.62
337.993	12.04
338.365	11.31
338.736	11.71
339.108	12.07
339.479	12.02
339.851	11.5
340.222	11.82
340.593	12.07
340.964	12.09
341.336	12.67
341.707	12.05
342.078	11.96
342.449	12.02
342.82	12.28
343.191	12.04
343.562	12.08
343.933	12.43
344.303	12.35
344.674	12.2
345.045	12.97
345.416	12.69
345.786	12.35
346.157	13.37
346.527	12.67
346.898	12.47
347.268	12.8
347.639	12.78
348.009	12.61
348.38	12.84
348.75	12.77
349.12	13.07
349.49	12.42
349.861	13.02
350.231	12.94
350.601	13.33
350.971	12.96
351.341	13.21
351.711	13.24
352.081	13.33
352.45	12.87
352.82	13.47
353.19	13.78
353.56	13.49
353.929	13.42
354.299	13.24
354.669	12.99
355.038	13.22
355.408	13.76
355.777	13.62
356.147	13.53
356.516	13.37
356.885	13.74
357.254	13.41
357.624	13.67
357.993	13.3
358.362	13.71
358.731	13.3
359.1	13.43
359.469	13.46
359.838	13.83
360.207	13.58
360.576	14.25
360.945	13.58
361.314	14.01
361.682	14.12
362.051	14.07
362.42	13.94
362.788	14.01
363.157	14.09
363.525	13.92
363.894	13.94
364.262	13.86
364.631	14.27
364.999	14.28
365.367	14.32
365.735	14.31
366.104	14.12
366.472	14.43
366.84	14.58
367.208	14.28
367.576	14.5
367.944	14.76
368.312	14.52
368.68	14.83
369.048	14.77
369.416	14.55
369.783	14.75
370.151	14.39
370.519	14.94
370.886	14.72
371.254	14.93
371.621	15.28
371.989	14.79
372.356	15.32
372.724	15.55
373.091	14.86
373.458	14.66
373.826	15.22
374.193	15.23
374.56	15.39
374.927	15.17
375.294	15.16
375.661	15.4
376.028	15.41
376.395	15.42
376.762	15.19
377.129	15.5
377.496	15.37
377.863	15.84
378.229	15.44
378.596	15.59
378.963	15.49
379.329	15.44
379.696	15.62
380.062	15.49
380.429	15.63
380.795	15.45
381.161	15.94
381.528	15.92
381.894	15.82
382.26	16.06
382.626	16.28
382.993	16.22
383.359	15.89
383.725	16.14
384.091	16.19
384.457	16.16
384.823	16.13
385.188	16.43
385.554	16.05
385.92	16.28
386.286	16.5
386.651	16.34
387.017	16.43
387.383	16.51
387.748	16.33
388.114	15.83
388.479	16.53
388.845	16.66
389.21	16.48
389.575	16.41
389.94	16.64
390.306	16.33
390.671	16.47
391.036	16.45
391.401	16.78
391.766	16.98
392.131	17
392.496	17
392.861	16.97
393.226	16.85
393.591	16.79
393.956	16.85
394.32	17.12
394.685	16.96
395.05	17.19
395.414	17.32
395.779	17.07
396.143	17.12
396.508	16.96
396.872	17.01
397.236	17.21
397.601	17.22
397.965	17.29
398.329	16.98
398.694	17.51
399.058	17.4
399.422	17.23
399.786	17.22
400.15	17.35
400.514	17.54
400.878	17.49
401.242	17.96
401.605	17.9
401.969	17.3
402.333	17.71
402.697	17.87
403.06	17.92
403.424	17.67
403.787	17.76
404.151	17.96
404.514	17.8
404.878	18.08
405.241	17.92
405.604	18.13
405.968	18.08
406.331	18.14
406.694	17.96
407.057	17.81
407.42	18.3
407.783	18.12
408.146	17.99
408.509	18.24
408.872	18.18
409.235	18.18
409.598	18.33
409.961	18.8
410.323	18.36
410.686	18.06
411.049	18.52
411.411	18.42
411.774	18.49
412.136	18.72
412.499	18.46
412.861	18.63
413.223	18.84
413.586	18.55
413.948	18.82
414.31	18.89
414.672	18.62
415.035	18.87
415.397	19.02
415.759	18.82
416.121	18.99
416.483	19
416.845	18.98
417.206	19.1
417.568	19.09
417.93	19.08
418.292	18.84
418.653	19.09
419.015	18.93
419.377	18.9
419.738	18.93
420.1	18.9
420.461	18.97
420.822	19.02
421.184	19.08
421.545	19.19
421.906	19.2
422.267	19.2
422.629	19.14
422.99	19
423.351	18.92
423.712	19.13
424.073	19.22
424.434	19.19
424.795	19.2
425.155	19.42
425.516	19.38
425.877	19.36
426.238	19.34
426.598	19.3
426.959	19.32
427.32	19.39
427.68	19.56
428.041	19.77
428.401	19.76
428.761	19.92
429.122	19.85
429.482	19.71
429.842	20.04
430.202	19.98
430.563	20.06
430.923	20.18
431.283	20.19
431.643	20.5
432.003	20.26
432.363	20.27
432.722	20.25
433.082	20.38
433.442	20.3
433.802	20.62
434.161	20.41
434.521	20.5
434.881	20.53
435.24	20.5
435.6	20.41
435.959	20.46
436.319	20.44
436.678	20.62
437.037	20.66
437.396	20.8
437.756	20.79
438.115	20.78
438.474	20.86
438.833	21.14
439.192	20.78
439.551	20.78
439.91	21.08
440.269	21
440.628	21.04
440.987	20.94
441.345	21.08
441.704	21.01
442.063	21.01
442.421	20.99
442.78	20.99
443.138	21.18
443.497	21.22
443.855	21.13
444.214	21.23
444.572	21.28
444.93	21.49
445.288	21.52
445.647	21.63
446.005	21.43
446.363	21.63
446.721	21.57
447.079	21.76
447.437	21.57
447.795	21.5
448.153	21.43
448.51	21.32
448.868	21.48
449.226	21.49
449.584	21.58
449.941	21.67
450.299	21.72
450.656	21.78
451.014	21.77
451.371	21.94
451.729	22.09
452.086	22.21
452.443	22.3
452.801	22.27
453.158	22.43
453.515	22.28
453.872	22.38
454.229	22.46
454.586	22.42
454.943	22.29
455.3	22.33
455.657	22.47
456.014	22.49
456.371	22.67
456.727	22.77
457.084	22.59
457.441	22.67
457.797	22.92
458.154	22.56
458.51	22.9
458.867	22.99
459.223	23.02
459.58	22.7
459.936	23.14
460.292	22.88
460.648	22.85
461.005	22.93
461.361	22.89
461.717	22.7
462.073	22.79
462.429	22.75
462.785	22.93
463.141	23.09
463.496	22.91
463.852	23.18
464.208	23.33
464.564	23.43
464.919	23.23
465.275	23.61
465.631	23.52
465.986	23.65
466.342	23.74
466.697	23.59
467.052	23.43
467.408	23.92
467.763	23.83
468.118	24.01
468.473	23.8
468.829	23.91
469.184	23.89
469.539	23.76
469.894	23.84
470.249	23.84
470.603	23.83
470.958	24.1
471.313	24.11
471.668	24.1
472.023	24.17
472.377	24.18
472.732	24.27
473.086	24.48
473.441	24.42
473.795	24.56
474.15	24.44
474.504	24.5
474.859	24.43
475.213	24.61
475.567	24.37
475.921	24.72
476.275	24.57
476.63	24.66
476.984	24.66
477.338	24.67
477.692	24.8
478.045	24.9
478.399	24.74
478.753	24.9
479.107	24.84
479.461	24.88
479.814	25.08
480.168	24.88
480.521	24.76
480.875	24.99
481.228	25.04
481.582	25.08
481.935	25.05
482.289	25.03
482.642	25.03
482.995	25.11
483.348	24.97
483.701	25.01
484.055	24.88
484.408	24.86
484.761	24.94
485.114	24.77
485.466	24.48
485.819	24.48
486.172	24.38
486.525	24.46
486.878	24.48
487.23	24.63
487.583	24.74
487.936	24.94
488.288	25.14
488.641	25.07
488.993	25.07
489.345	25.12
489.698	24.98
490.05	24.98
490.402	25.03
490.754	25.07
491.107	25.16
491.459	25.38
491.811	25.54
492.163	25.56
492.515	25.71
492.866	25.7
493.218	25.61
493.57	25.47
493.922	25.46
494.274	25.52
494.625	25.6
494.977	25.7
495.328	25.95
495.68	26.24
496.031	26.38
496.383	26.5
496.734	26.56
497.086	26.67
497.437	26.66
497.788	26.56
498.139	26.75
498.49	26.64
498.842	26.56
499.193	26.72
499.544	26.65
499.894	26.57
500.245	26.78
500.596	26.85
500.947	26.89
501.298	26.95
501.648	27.01
501.999	26.97
502.35	27.03
502.7	27.31
503.051	27.19
503.401	27.18
503.752	27.31
504.102	27.28
504.452	27.26
504.803	27.65
505.153	27.58
505.503	27.5
505.853	27.77
506.203	27.39
506.553	27.55
506.903	27.54
507.253	27.57
507.603	27.77
507.953	27.92
508.303	27.74
508.652	28.06
509.002	27.9
509.352	27.99
509.701	27.96
510.051	28.19
510.4	27.93
510.75	28.03
511.099	27.99
511.449	28
511.798	28.11
512.147	28.1
512.496	28.11
512.846	28.18
513.195	28.3
513.544	28.19
513.893	28.25
514.242	28.41
514.591	28.44
514.939	28.42
515.288	28.55
515.637	28.5
515.986	28.65
516.334	28.67
516.683	28.7
517.032	28.58
517.38	28.65
517.729	28.69
518.077	28.9
518.426	28.9
518.774	28.76
519.122	28.85
519.47	29.01
519.819	28.98
520.167	28.8
520.515	28.74
520.863	28.94
521.211	28.84
521.559	28.96
521.907	28.87
522.255	29.01
522.602	29.15
522.95	29.19
523.298	29.35
523.645	29.49
523.993	29.63
524.341	29.47
524.688	29.59
525.036	29.65
525.383	29.55
525.73	29.93
526.078	29.81
526.425	29.91
526.772	29.71
527.119	29.63
527.466	29.61
527.814	29.65
528.161	29.51
528.508	29.41
528.854	29.41
529.201	29.61
529.548	29.63
529.895	29.5
530.242	29.36
530.588	29.33
530.935	29.33
531.282	29.41
531.628	29.52
531.975	29.33
532.321	29.55
532.667	29.74
533.014	29.94
533.36	30.02
533.706	30.2
534.052	30.16
534.399	30.29
534.745	30.25
535.091	30.2
535.437	30
535.783	30.13
536.129	30.22
536.474	30.28
536.82	30.44
537.166	30.54
537.512	30.74
537.857	30.78
538.203	30.81
538.549	30.75
538.894	30.79
539.239	30.79
539.585	30.78
539.93	30.86
540.276	31.03
540.621	31.17
540.966	31.46
541.311	31.45
541.656	31.55
542.001	31.52
542.346	31.43
542.691	31.18
543.036	31.19
543.381	30.97
543.726	30.83
544.071	31.07
544.415	31.09
544.76	31.04
545.105	31.33
545.449	31.29
545.794	31.38
546.138	31.51
546.483	31.52
546.827	31.9
547.171	31.97
547.516	31.94
547.86	32.08
548.204	32.1
548.548	32.15
548.892	31.88
549.236	32.2
549.58	32.1
549.924	32.17
550.268	32.42
550.612	32.61
550.956	32.73
551.3	32.73
551.643	32.77
551.987	32.88
552.33	32.89
552.674	32.96
553.017	33.05
553.361	33.05
553.704	32.94
554.048	33.02
554.391	33.1
554.734	33.41
555.077	33.21
555.42	33.08
555.764	33.1
556.107	33.3
556.45	33.22
556.793	33.12
557.135	33.51
557.478	33.63
557.821	33.43
558.164	33.77
558.507	33.47
558.849	33.77
559.192	34.03
559.534	33.91
559.877	33.71
560.219	33.98
560.562	33.91
560.904	33.81
561.246	34.12
561.589	34.03
561.931	34.16
562.273	34.02
562.615	34.39
562.957	34.37
563.299	34.39
563.641	34.3
563.983	34.27
564.325	34.45
564.667	34.61
565.008	34.67
565.35	34.57
565.692	34.45
566.033	34.53
566.375	34.61
566.716	34.94
567.058	34.62
567.399	34.58
567.741	34.71
568.082	34.91
568.423	34.71
568.764	34.78
569.105	34.74
569.447	34.96
569.788	35.09
570.129	34.92
570.47	34.8
570.811	34.91
571.151	35.2
571.492	35.22
571.833	35.08
572.174	35.18
572.514	35.34
572.855	35.14
573.195	35.27
573.536	35.12
573.876	35.2
574.217	35.35
574.557	35.37
574.898	35.39
575.238	35.33
575.578	35.35
575.918	35.56
576.258	35.63
576.598	35.8
576.938	35.66
577.278	35.95
577.618	35.66
577.958	35.7
578.298	35.78
578.638	35.8
578.977	36.06
579.317	36.1
579.657	36.34
579.996	36.15
580.336	36.28
580.675	36.03
581.014	36.62
581.354	36.46
581.693	36.37
582.032	36.65
582.372	36.8
582.711	36.6
583.05	36.63
583.389	36.62
583.728	36.91
584.067	36.88
584.406	36.51
584.745	37.05
585.083	36.95
585.422	36.96
585.761	36.94
586.1	37.37
586.438	37.09
586.777	37.24
587.115	37.49
587.454	37.23
587.792	37.3
588.13	37.27
588.469	37.46
588.807	37.3
589.145	37.44
589.483	37.46
589.821	37.26
590.159	37.78
590.497	37.82
590.835	37.76
591.173	37.54
591.511	37.78
591.849	37.73
592.187	37.39
592.524	37.83
592.862	37.55
593.2	37.89
593.537	37.9
593.875	37.84
594.212	38.24
594.55	37.93
594.887	38.13
595.224	38.08
595.561	37.93
595.899	38.14
596.236	38.22
596.573	38
596.91	38.26
597.247	38.29
597.584	38.13
597.921	38.2
598.258	38.41
598.594	38.68
598.931	38.23
599.268	38.19
599.604	38.5
599.941	38.29
600.277	38.25
600.614	38.39
600.95	38.53
601.287	38.66
601.623	38.54
601.959	38.93
602.296	38.55
602.632	38.95
602.968	38.77
603.304	39.04
603.64	38.74
603.976	38.95
604.312	39.07
604.648	38.93
604.984	38.99
605.319	39.02
605.655	39.16
605.991	39.01
606.326	38.94
606.662	38.84
606.998	39.04
607.333	39.09
607.668	39.05
608.004	39.15
608.339	39.25
608.674	39.28
609.01	39.76
609.345	39.8
609.68	39.45
610.015	39.53
610.35	39.89
610.685	39.89
611.02	39.68
611.355	39.72
611.689	39.72
612.024	39.53
612.359	39.89
612.694	39.83
613.028	39.66
613.363	40.02
613.697	39.75
614.032	39.74
614.366	40.12
614.7	40.2
615.035	40.21
615.369	40.12
615.703	39.83
616.037	40.25
616.371	40.3
616.705	40.41
617.039	40.32
617.373	40.38
617.707	40.68
618.041	40.44
618.375	40.35
618.709	40.62
619.042	40.5
619.376	40.7
619.71	40.77
620.043	41.15
620.377	41.01
620.71	41.03
621.043	41.05
621.377	40.58
621.71	40.7
622.043	40.76
622.376	41.43
622.709	41.33
623.043	41.16
623.376	41.2
623.709	40.4
624.041	41.18
624.374	40.98
624.707	40.93
625.04	41.07
625.373	41.55
625.705	41.38
626.038	41.55
626.37	41.21
626.703	41.49
627.035	41.11
627.368	41.48
627.7	42.11
628.032	41.49
628.365	41.76
628.697	41.68
629.029	41.6
629.361	41.65
629.693	41.65
630.025	41.58
630.357	41.59
630.689	41.91
631.021	41.89
631.353	42.06
631.684	41.76
632.016	42.2
632.348	41.91
632.679	41.82
633.011	41.61
633.342	41.89
633.674	42.03
634.005	42.02
634.336	42.69
634.668	42.03
634.999	42.36
635.33	42.22
635.661	42.69
635.992	41.91
636.323	42.7
636.654	42.27
636.985	42.3
637.316	42.32
637.647	42.45
637.977	42.49
638.308	42.09
638.639	42.76
638.969	42.61
639.3	42.36
639.63	43.16
639.961	42.73
640.291	42.9
640.622	42.53
640.952	42.74
641.282	43.22
641.612	42.8
641.943	42.8
642.273	42.75
642.603	42.97
642.933	43.53
643.263	43.43
643.592	43.14
643.922	43.18
644.252	42.89
644.582	43.67
644.911	43.11
645.241	43.32
645.571	43.59
645.9	43.22
646.23	42.85
646.559	43.29
646.888	43.53
647.218	43.57
647.547	43.54
647.876	43.68
648.205	43.63
648.534	43.22
648.863	43.69
649.192	43.73
649.521	43.45
649.85	44.26
650.179	43.81
650.508	44.32
650.837	43.82
651.165	43.88
651.494	43.67
651.822	44.31
652.151	43.57
652.479	44.04
652.808	44.2
653.136	43.45
653.465	44.01
653.793	44.57
654.121	44.37
654.449	43.97
654.777	44.06
655.105	43.83
655.433	44.16
655.761	44.57
656.089	44.33
656.417	44.76
656.745	43.91
657.073	44.75
657.4	44.71
657.728	44.01
658.056	44.23
658.383	44.45
658.711	44.41
659.038	44.78
659.365	44.47
659.693	44.81
660.02	44.98
660.347	44.71
660.674	44.93
661.001	44.38
661.329	44.9
661.656	44.99
661.982	44.43
662.309	45.03
662.636	44.94
662.963	44.89
663.29	44.77
663.616	45.25
663.943	44.76
664.27	45.14
664.596	44.69
664.923	45
665.249	45.1
665.576	45.11
665.902	44.88
666.228	45.39
666.554	45
666.881	45.73
667.207	45.56
667.533	45.24
667.859	45.62
668.185	45.16
668.511	45.23
668.837	45.18
669.162	45.27
669.488	45.4
