Data from 0278_crown_Reflection__2__191.txt Node

Date: Fri Oct 20 22:12:29 CDT 2023
User: ToomeyLab
Spectrometer: FLMS14357
Trigger mode: 0
Integration Time (sec): 1.000000E-2
Scans to average: 100
Electric dark correction enabled: true
Nonlinearity correction enabled: false
Boxcar width: 0
XAxis mode: Wavelengths
Number of Pixels in Spectrum: 2048
>>>>>Begin Spectral Data<<<<<
189.047	-22.32
189.435	-22.32
189.823	-22.32
190.211	-112.56
190.599	-249.5
190.987	38.09
191.375	-386.62
191.763	53.19
192.151	166.4
192.538	179.24
192.926	695.48
193.314	120.39
193.702	98.9
194.089	45.64
194.477	305.06
194.864	-254.69
195.252	72.21
195.639	470.06
196.027	71.21
196.414	142.77
196.801	547.33
197.189	101.59
197.576	185.3
197.963	1481.27
198.351	51.24
198.738	27.9
199.125	7.68
199.512	36.5
199.899	68.03
200.286	-9.72
200.673	39.64
201.06	1.6
201.447	15.52
201.833	77.5
202.22	32.91
202.607	18.13
202.994	17.47
203.38	12.18
203.767	27.14
204.154	43.88
204.54	64.19
204.927	44.2
205.313	21.96
205.699	28.7
206.086	24.86
206.472	46.06
206.858	39.61
207.245	-0.63
207.631	37.02
208.017	2.79
208.403	8
208.789	36.97
209.175	-4.37
209.561	48.82
209.947	31.42
210.333	17.59
210.719	24.62
211.105	9.86
211.491	34.73
211.876	7.83
212.262	28.02
212.648	25.94
213.034	-12.66
213.419	7.97
213.805	21.97
214.19	7.75
214.576	-18.72
214.961	-4.82
215.346	34.51
215.732	11.75
216.117	-58.34
216.502	7.69
216.888	-3.45
217.273	-21.91
217.658	7.24
218.043	-3.64
218.428	7.94
218.813	21.86
219.198	23.68
219.583	-10.06
219.968	-0.78
220.353	18.59
220.738	8.11
221.122	25.22
221.507	6.26
221.892	16.63
222.276	14.35
222.661	9.8
223.046	20.89
223.43	18.26
223.815	24.4
224.199	21.37
224.583	4.88
224.968	6.83
225.352	5.35
225.736	3.48
226.121	12.37
226.505	1.86
226.889	7.32
227.273	11.67
227.657	12.86
228.041	9.43
228.425	10.57
228.809	8.08
229.193	8.02
229.577	11.07
229.961	5.54
230.344	7.59
230.728	5.63
231.112	7.21
231.495	5.84
231.879	6.93
232.263	8.6
232.646	6.35
233.03	6.2
233.413	6.63
233.797	6.57
234.18	6.66
234.563	6.48
234.946	9.42
235.33	6.33
235.713	6.78
236.096	6.44
236.479	6.63
236.862	7.51
237.245	6.16
237.628	7.02
238.011	5.9
238.394	6.64
238.777	7.86
239.16	5.04
239.543	8.14
239.925	8.44
240.308	6.01
240.691	6.02
241.073	7.36
241.456	6.99
241.838	6.63
242.221	6.76
242.603	6.48
242.986	7.03
243.368	6.23
243.75	6.19
244.133	6.11
244.515	5.82
244.897	5.9
245.279	6.29
245.661	6
246.043	6.13
246.425	6.24
246.807	5.53
247.189	5.86
247.571	5.48
247.953	5.75
248.335	6.32
248.717	5.66
249.098	5.79
249.48	5.77
249.862	5.67
250.243	6.21
250.625	6.01
251.006	6.17
251.388	6.28
251.769	6.15
252.151	5.73
252.532	6.43
252.913	6.21
253.295	5.65
253.676	5.71
254.057	5.64
254.438	5.5
254.819	5.91
255.2	5.5
255.581	6.09
255.962	5.3
256.343	7.06
256.724	4.08
257.105	5.78
257.486	5.94
257.867	5.89
258.247	5.82
258.628	5.77
259.009	5.35
259.389	5.27
259.77	4.84
260.15	5.86
260.531	5.49
260.911	5.84
261.292	5.43
261.672	5.63
262.052	5.57
262.432	5.37
262.813	5.33
263.193	5.12
263.573	5.37
263.953	5.94
264.333	5.84
264.713	5.78
265.093	5.65
265.473	5.65
265.853	6.14
266.233	5.9
266.612	5.32
266.992	5.17
267.372	4.55
267.752	5.45
268.131	5.96
268.511	5.48
268.89	5.6
269.27	4.89
269.649	4.86
270.029	5.13
270.408	5.38
270.787	5.92
271.167	5.34
271.546	5.15
271.925	5.82
272.304	5.7
272.683	5.93
273.062	4.93
273.441	5.55
273.82	5.34
274.199	5.44
274.578	5.17
274.957	5.09
275.336	5.54
275.715	5.4
276.093	5.51
276.472	4.95
276.851	5.01
277.229	5.51
277.608	4.24
277.986	5.09
278.365	5.33
278.743	5.07
279.122	5.2
279.5	5.11
279.878	5.12
280.257	5.2
280.635	4.71
281.013	5.61
281.391	5.74
281.769	4.96
282.147	4.99
282.525	5.11
282.903	5.06
283.281	5.46
283.659	5.29
284.037	5.08
284.415	4.89
284.792	5
285.17	4.9
285.548	4.75
285.925	4.52
286.303	5.08
286.68	5.06
287.058	5.17
287.435	5.57
287.813	4.71
288.19	5.05
288.567	5.06
288.945	5.17
289.322	5.54
289.699	4.59
290.076	5.5
290.453	5.52
290.83	4.87
291.207	5.16
291.584	4.7
291.961	5.18
292.338	5.26
292.715	4.79
293.092	4.96
293.469	5.1
293.845	4.7
294.222	4.75
294.599	5.03
294.975	5.57
295.352	5.23
295.728	5.03
296.105	4.89
296.481	4.82
296.858	4.84
297.234	5.39
297.61	4.85
297.986	4.85
298.363	5.33
298.739	5.03
299.115	4.69
299.491	5.15
299.867	5.02
300.243	4.93
300.619	4.94
300.995	5.08
301.371	5.44
301.746	5.05
302.122	5.36
302.498	4.89
302.874	4.88
303.249	5.46
303.625	4.85
304	5.56
304.376	4.71
304.751	4.62
305.127	4.87
305.502	5.31
305.878	5.18
306.253	5.04
306.628	5.22
307.003	4.95
307.378	5.47
307.754	5.19
308.129	5.47
308.504	5.24
308.879	4.98
309.254	5.58
309.629	5.12
310.003	4.66
310.378	5.81
310.753	5.22
311.128	5.43
311.502	4.87
311.877	5.25
312.252	5.05
312.626	5.3
313.001	5.2
313.375	5.16
313.75	5.21
314.124	4.97
314.498	5.09
314.873	4.56
315.247	5.51
315.621	5.14
315.995	5.35
316.369	5.11
316.743	5.2
317.117	5.2
317.491	4.56
317.865	5.52
318.239	5.79
318.613	5.06
318.987	4.99
319.361	4.54
319.734	5.21
320.108	4.54
320.482	5.22
320.855	5.57
321.229	5.63
321.602	5.36
321.976	4.75
322.349	5.54
322.723	5.38
323.096	5.37
323.469	4.98
323.843	4.84
324.216	5.31
324.589	5.36
324.962	5.54
325.335	5.16
325.708	4.95
326.081	5.23
326.454	5.36
326.827	5.48
327.2	5.38
327.573	5.5
327.945	4.72
328.318	4.68
328.691	4.81
329.063	5.35
329.436	4.62
329.809	5.17
330.181	5.1
330.553	5.27
330.926	4.74
331.298	4.78
331.671	5.13
332.043	4.67
332.415	5.11
332.787	5.25
333.159	4.53
333.532	5.15
333.904	5.07
334.276	5.08
334.648	5.45
335.02	5.74
335.391	4.82
335.763	5.53
336.135	5.23
336.507	5.37
336.879	5.3
337.25	5.36
337.622	5.06
337.993	5.33
338.365	4.67
338.736	5.64
339.108	5.67
339.479	4.98
339.851	5.78
340.222	4.77
340.593	4.97
340.964	5.01
341.336	5.61
341.707	5.2
342.078	5.23
342.449	5.05
342.82	4.99
343.191	5.06
343.562	5.36
343.933	5.39
344.303	4.99
344.674	5.25
345.045	5.53
345.416	5.39
345.786	4.88
346.157	5.5
346.527	5.26
346.898	5.01
347.268	5
347.639	5.28
348.009	5.33
348.38	5.68
348.75	5.61
349.12	5.1
349.49	5.26
349.861	5.35
350.231	4.78
350.601	4.75
350.971	5.57
351.341	5.25
351.711	5.87
352.081	5.39
352.45	5.05
352.82	4.98
353.19	5.53
353.56	5.66
353.929	5.33
354.299	5.26
354.669	5.04
355.038	5.7
355.408	5.52
355.777	5.01
356.147	5.06
356.516	5.17
356.885	5.26
357.254	5.41
357.624	5.29
357.993	5.29
358.362	5.18
358.731	4.98
359.1	4.83
359.469	5.39
359.838	5.11
360.207	5.16
360.576	5.5
360.945	5.04
361.314	5.21
361.682	5.4
362.051	5.15
362.42	5.06
362.788	5.26
363.157	5.3
363.525	5.39
363.894	5.31
364.262	5.17
364.631	5.39
364.999	5.1
365.367	5.35
365.735	5.4
366.104	5.41
366.472	5.15
366.84	5.36
367.208	5.41
367.576	5.44
367.944	5.4
368.312	5.26
368.68	5.13
369.048	5.54
369.416	5.14
369.783	5.32
370.151	5.43
370.519	4.93
370.886	5.54
371.254	5.63
371.621	5.9
371.989	5.41
372.356	5.56
372.724	5.21
373.091	5.58
373.458	4.87
373.826	5.7
374.193	5.1
374.56	5.31
374.927	5.43
375.294	5.5
375.661	5.26
376.028	5.53
376.395	5.63
376.762	5.42
377.129	5.43
377.496	5.59
377.863	5.68
378.229	5.64
378.596	5.62
378.963	5.56
379.329	5.74
379.696	5.38
380.062	5.54
380.429	5.22
380.795	5.55
381.161	5.5
381.528	5.56
381.894	5.71
382.26	5.54
382.626	5.62
382.993	5.85
383.359	5.32
383.725	5.5
384.091	5.78
384.457	5.25
384.823	5.41
385.188	5.78
385.554	5.53
385.92	5.43
386.286	5.6
386.651	5.15
387.017	5.41
387.383	5.55
387.748	5.41
388.114	5.07
388.479	5.44
388.845	5.65
389.21	5.42
389.575	5.08
389.94	5.52
390.306	5.38
390.671	5.48
391.036	5.66
391.401	5.45
391.766	5.65
392.131	5.66
392.496	5.66
392.861	5.69
393.226	5.55
393.591	5.43
393.956	5.45
394.32	5.81
394.685	5.66
395.05	5.74
395.414	5.53
395.779	5.53
396.143	5.41
396.508	5.56
396.872	5.64
397.236	5.65
397.601	5.45
397.965	5.59
398.329	5.32
398.694	5.57
399.058	5.42
399.422	5.86
399.786	5.63
400.15	5.31
400.514	5.48
400.878	5.7
401.242	5.61
401.605	5.61
401.969	5.55
402.333	5.65
402.697	5.84
403.06	5.74
403.424	5.31
403.787	5.79
404.151	5.49
404.514	5.67
404.878	5.69
405.241	5.56
405.604	5.73
405.968	5.64
406.331	5.53
406.694	5.56
407.057	5.58
407.42	5.75
407.783	5.69
408.146	5.7
408.509	5.62
408.872	5.76
409.235	5.82
409.598	5.52
409.961	5.77
410.323	5.65
410.686	5.37
411.049	5.7
411.411	5.54
411.774	5.69
412.136	5.54
412.499	5.65
412.861	5.8
413.223	5.67
413.586	5.52
413.948	5.74
414.31	5.75
414.672	5.55
415.035	5.76
415.397	6.01
415.759	5.69
416.121	5.84
416.483	5.65
416.845	5.68
417.206	5.8
417.568	5.89
417.93	5.61
418.292	5.42
418.653	5.91
419.015	5.6
419.377	5.71
419.738	5.59
420.1	5.63
420.461	5.61
420.822	5.51
421.184	5.62
421.545	5.62
421.906	5.59
422.267	5.49
422.629	5.69
422.99	5.46
423.351	5.58
423.712	5.49
424.073	5.62
424.434	5.38
424.795	5.63
425.155	5.53
425.516	5.56
425.877	5.6
426.238	5.47
426.598	5.58
426.959	5.52
427.32	5.62
427.68	5.7
428.041	5.63
428.401	5.61
428.761	5.59
429.122	5.57
429.482	5.63
429.842	5.55
430.202	5.77
430.563	5.67
430.923	5.75
431.283	5.65
431.643	5.82
432.003	6.01
432.363	5.71
432.722	5.72
433.082	5.72
433.442	5.62
433.802	5.93
434.161	5.65
434.521	5.86
434.881	5.76
435.24	5.76
435.6	5.77
435.959	5.69
436.319	5.65
436.678	5.74
437.037	5.64
437.396	5.89
437.756	5.85
438.115	5.76
438.474	5.87
438.833	5.89
439.192	5.79
439.551	5.64
439.91	5.83
440.269	5.82
440.628	5.89
440.987	5.72
441.345	5.67
441.704	5.75
442.063	5.76
442.421	5.65
442.78	5.65
443.138	5.76
443.497	5.69
443.855	5.76
444.214	5.68
444.572	5.69
444.93	5.79
445.288	5.81
445.647	6
446.005	5.57
446.363	5.67
446.721	5.71
447.079	5.86
447.437	5.73
447.795	5.65
448.153	5.67
448.51	5.59
448.868	5.74
449.226	5.66
449.584	5.72
449.941	5.68
450.299	5.71
450.656	5.64
451.014	5.74
451.371	5.69
451.729	5.63
452.086	5.79
452.443	5.81
452.801	5.68
453.158	5.84
453.515	5.78
453.872	5.76
454.229	5.85
454.586	5.9
454.943	5.74
455.3	5.69
455.657	5.69
456.014	5.77
456.371	5.87
456.727	5.88
457.084	5.87
457.441	5.87
457.797	5.91
458.154	5.66
458.51	5.92
458.867	5.8
459.223	5.93
459.58	5.78
459.936	5.77
460.292	5.8
460.648	5.63
461.005	5.67
461.361	5.72
461.717	5.58
462.073	5.72
462.429	5.73
462.785	5.7
463.141	5.85
463.496	5.69
463.852	5.77
464.208	5.9
464.564	5.97
464.919	5.76
465.275	5.9
465.631	5.87
465.986	5.96
466.342	5.85
466.697	5.82
467.052	5.82
467.408	5.86
467.763	5.97
468.118	5.94
468.473	5.85
468.829	5.78
469.184	5.83
469.539	5.87
469.894	5.83
470.249	5.96
470.603	5.8
470.958	5.98
471.313	5.9
471.668	5.95
472.023	5.98
472.377	6.01
472.732	5.83
473.086	6.08
473.441	6.09
473.795	6.03
474.15	5.96
474.504	5.84
474.859	5.99
475.213	5.97
475.567	5.97
475.921	6
476.275	6.05
476.63	6.02
476.984	6.07
477.338	5.96
477.692	5.91
478.045	5.98
478.399	5.96
478.753	6.08
479.107	5.82
479.461	5.86
479.814	6
480.168	5.98
480.521	5.91
480.875	5.92
481.228	5.98
481.582	5.97
481.935	5.96
482.289	6.02
482.642	6.06
482.995	5.95
483.348	5.83
483.701	5.84
484.055	5.96
484.408	5.78
484.761	5.77
485.114	5.7
485.466	5.64
485.819	5.56
486.172	5.51
486.525	5.56
486.878	5.57
487.23	5.64
487.583	5.7
487.936	5.72
488.288	5.78
488.641	5.8
488.993	5.71
489.345	5.7
489.698	5.66
490.05	5.66
490.402	5.73
490.754	5.67
491.107	5.73
491.459	5.83
491.811	5.78
492.163	5.79
492.515	5.92
492.866	5.87
493.218	5.81
493.57	5.76
493.922	5.75
494.274	5.76
494.625	5.77
494.977	5.78
495.328	5.9
495.68	5.9
496.031	5.84
496.383	5.89
496.734	6.11
497.086	5.99
497.437	5.98
497.788	5.93
498.139	6.06
498.49	6.08
498.842	5.92
499.193	6
499.544	6.05
499.894	5.97
500.245	5.99
500.596	5.99
500.947	6
501.298	5.93
501.648	6
501.999	6.08
502.35	6.14
502.7	6.27
503.051	5.91
503.401	6.09
503.752	6.11
504.102	6.01
504.452	6.07
504.803	5.88
505.153	5.98
505.503	6.03
505.853	6.24
506.203	6.02
506.553	5.98
506.903	5.97
507.253	6.11
507.603	6.08
507.953	6.16
508.303	6.09
508.652	6.18
509.002	6.13
509.352	6.11
509.701	6.22
510.051	6.03
510.4	6.08
510.75	6.1
511.099	6.1
511.449	6.05
511.798	6.06
512.147	6.08
512.496	6.12
512.846	6
513.195	6.08
513.544	6.13
513.893	6.03
514.242	6.16
514.591	6.1
514.939	6.09
515.288	6.03
515.637	6.19
515.986	6.09
516.334	6.02
516.683	6.03
517.032	5.95
517.38	6.03
517.729	6.12
518.077	6.13
518.426	6.2
518.774	5.99
519.122	6.03
519.47	6.15
519.819	6.09
520.167	6.1
520.515	6
520.863	6.01
521.211	6.1
521.559	6.09
521.907	6
522.255	6.15
522.602	6.17
522.95	6.19
523.298	6.17
523.645	6.09
523.993	6.16
524.341	6.2
524.688	6.06
525.036	6.15
525.383	6.1
525.73	6.35
526.078	6.2
526.425	6.2
526.772	6.17
527.119	6.1
527.466	6.09
527.814	6.12
528.161	6.06
528.508	6.09
528.854	6.06
529.201	6.02
529.548	6.03
529.895	6.08
530.242	5.99
530.588	5.91
530.935	5.91
531.282	5.96
531.628	5.94
531.975	5.95
532.321	6.03
532.667	6.09
533.014	6.16
533.36	6.15
533.706	6.17
534.052	6.18
534.399	6.13
534.745	6.09
535.091	6.13
535.437	6.15
535.783	6.11
536.129	6.14
536.474	6.19
536.82	6.13
537.166	6.05
537.512	6.21
537.857	6.3
538.203	6.2
538.549	6.25
538.894	6.22
539.239	6.15
539.585	6.19
539.93	6.17
540.276	6.33
540.621	6.29
540.966	6.28
541.311	6.34
541.656	6.37
542.001	6.33
542.346	6.34
542.691	6.21
543.036	6.21
543.381	6.1
543.726	6.06
544.071	6.1
544.415	6.06
544.76	6.12
545.105	6.18
545.449	6.23
545.794	6.32
546.138	6.19
546.483	6.17
546.827	6.27
547.171	6.29
547.516	6.17
547.86	6.46
548.204	6.19
548.548	6.37
548.892	6.24
549.236	6.39
549.58	6.25
549.924	6.34
550.268	6.34
550.612	6.41
550.956	6.59
551.3	6.46
551.643	6.28
551.987	6.65
552.33	6.41
552.674	6.29
553.017	6.31
553.361	6.63
553.704	6.6
554.048	6.55
554.391	6.62
554.734	6.5
555.077	6.62
555.42	6.31
555.764	6.24
556.107	6.62
556.45	6.53
556.793	6.46
557.135	6.48
557.478	6.45
557.821	6.54
558.164	6.52
558.507	6.54
558.849	6.63
559.192	6.57
559.534	6.71
559.877	6.53
560.219	6.65
560.562	6.71
560.904	6.39
561.246	6.67
561.589	6.4
561.931	6.78
562.273	6.62
562.615	6.76
562.957	6.73
563.299	6.64
563.641	6.65
563.983	6.56
564.325	6.55
564.667	6.62
565.008	6.69
565.35	6.64
565.692	6.56
566.033	6.64
566.375	6.52
566.716	6.53
567.058	6.55
567.399	6.7
567.741	6.65
568.082	6.53
568.423	6.67
568.764	6.46
569.105	6.59
569.447	6.65
569.788	6.61
570.129	6.71
570.47	6.68
570.811	6.67
571.151	6.54
571.492	6.71
571.833	6.67
572.174	6.72
572.514	6.59
572.855	6.72
573.195	6.69
573.536	6.62
573.876	6.74
574.217	6.52
574.557	6.55
574.898	6.46
575.238	6.53
575.578	6.71
575.918	6.68
576.258	6.74
576.598	6.94
576.938	6.68
577.278	6.77
577.618	6.44
577.958	6.64
578.298	6.73
578.638	6.75
578.977	6.66
579.317	6.77
579.657	6.71
579.996	6.89
580.336	6.86
580.675	6.71
581.014	6.75
581.354	6.82
581.693	6.9
582.032	6.93
582.372	6.76
582.711	6.91
583.05	7.03
583.389	6.85
583.728	6.7
584.067	6.75
584.406	6.92
584.745	6.99
585.083	6.83
585.422	6.74
585.761	6.88
586.1	6.86
586.438	6.57
586.777	7.05
587.115	7.16
587.454	7.05
587.792	6.97
588.13	7.03
588.469	6.86
588.807	6.55
589.145	6.92
589.483	6.83
589.821	6.65
590.159	7.16
590.497	7.05
590.835	6.93
591.173	7.01
591.511	6.96
591.849	6.81
592.187	6.93
592.524	6.9
592.862	6.96
593.2	7.02
593.537	6.83
593.875	6.93
594.212	7.08
594.55	7.16
594.887	7
595.224	6.85
595.561	6.88
595.899	6.93
596.236	6.81
596.573	7.01
596.91	6.99
597.247	7.1
597.584	6.7
597.921	7
598.258	6.98
598.594	7.1
598.931	6.99
599.268	6.95
599.604	7.01
599.941	6.91
600.277	6.77
600.614	6.89
600.95	6.89
601.287	6.86
601.623	7.12
601.959	7.06
602.296	7.01
602.632	7.21
602.968	7.11
603.304	7.21
603.64	6.92
603.976	6.8
604.312	7.24
604.648	7.23
604.984	7.13
605.319	6.98
605.655	7.09
605.991	6.98
606.326	6.87
606.662	6.95
606.998	6.86
607.333	6.81
607.668	6.88
608.004	6.96
608.339	6.89
608.674	6.99
609.01	7.1
609.345	7.38
609.68	7.29
610.015	7.05
610.35	7.3
610.685	7.24
611.02	6.93
611.355	6.96
611.689	7.03
612.024	7.1
612.359	7.26
612.694	7.04
613.028	7.12
613.363	6.99
613.697	7.35
614.032	7.11
614.366	6.97
614.7	7.1
615.035	7.28
615.369	7.21
615.703	6.84
616.037	7.29
616.371	7.26
616.705	7.27
617.039	6.97
617.373	6.8
617.707	7.14
618.041	7.15
618.375	7.08
618.709	7.12
619.042	7.31
619.376	7.22
619.71	7.35
620.043	7.7
620.377	7.24
620.71	7.53
621.043	7.42
621.377	7.18
621.71	7.15
622.043	7.35
622.376	7.47
622.709	7.44
623.043	7.38
623.376	7.25
623.709	7.06
624.041	7.42
624.374	7.09
624.707	7.08
625.04	7.62
625.373	7.51
625.705	7.27
626.038	7.48
626.37	7.08
626.703	7.39
627.035	7.02
627.368	7.31
627.7	7.47
628.032	7.32
628.365	7.57
628.697	7.28
629.029	7.1
629.361	7.63
629.693	7.31
630.025	7.48
630.357	7.44
630.689	7.43
631.021	7.68
631.353	7.46
631.684	7.36
632.016	7.39
632.348	7.39
632.679	7.02
633.011	7.35
633.342	7.28
633.674	7.53
634.005	7.57
634.336	7.56
634.668	7.22
634.999	7.36
635.33	7.22
635.661	7.89
635.992	7.56
636.323	7.89
636.654	7.46
636.985	7.45
637.316	7.39
637.647	7.43
637.977	7.17
638.308	7.6
638.639	7.31
638.969	7.29
639.3	7.44
639.63	7.61
639.961	7.35
640.291	7.6
640.622	7.4
640.952	7.63
641.282	7.74
641.612	7.29
641.943	7.44
642.273	7.22
642.603	7.54
642.933	7.47
643.263	7.92
643.592	7.53
643.922	7.9
644.252	6.98
644.582	7.38
644.911	7.55
645.241	7.94
645.571	7.82
645.9	7.51
646.23	7.7
646.559	7.8
646.888	7.54
647.218	7.68
647.547	7.44
647.876	7.55
648.205	7.96
648.534	7.37
648.863	7.77
649.192	7.57
649.521	7.98
649.85	7.47
650.179	7.71
650.508	7.66
650.837	7.72
651.165	8.29
651.494	7.32
651.822	7.57
652.151	7.96
652.479	7.95
652.808	7.7
653.136	7.39
653.465	7.65
653.793	7.77
654.121	8.23
654.449	7.83
654.777	7.4
655.105	7.43
655.433	8.11
655.761	7.95
656.089	7.8
656.417	7.31
656.745	7.82
657.073	7.75
657.4	8.45
657.728	7.97
658.056	7.79
658.383	7.73
658.711	7.52
659.038	8.07
659.365	7.88
659.693	7.26
660.02	7.5
660.347	7.56
660.674	7.64
661.001	7.49
661.329	8.11
661.656	7.81
661.982	7.78
662.309	7.66
662.636	7.86
662.963	8.02
663.29	7.72
663.616	8.05
663.943	7.65
664.27	8.12
664.596	7.48
664.923	7.18
665.249	7.95
665.576	8.17
665.902	8.16
666.228	7.96
666.554	8.13
666.881	8.1
667.207	7.83
667.533	7.51
667.859	8.42
668.185	8.03
668.511	8.39
668.837	8.51
669.162	7.99
669.488	7.93
669.814	7.79
670.139	7.92
670.465	8.45
670.791	8.15
671.116	7.97
671.442	8.35
671.767	8.21
672.092	7.87
672.418	8.18
672.743	7.76
673.068	8.66
673.393	8.1
673.718	7.97
674.043	8.73
674.368	8.11
674.693	8.12
675.018	8.49
675.343	8.42
675.667	8.27
675.992	7.98
676.317	8.6
676.641	8.8
676.966	8.26
677.29	8.42
677.615	7.62
677.939	8.11
678.264	7.95
678.588	7.41
678.912	8.58
679.236	8.17
679.56	7.92
679.885	9.09
680.209	8.4
680.532	8.02
680.856	7.89
681.18	8.6
681.504	8.23
681.828	8.54
682.152	8.48
682.475	8.39
682.799	8.09
683.122	8.29
683.446	8.59
683.769	8.81
684.093	8.51
684.416	8.41
684.739	7.67
685.062	7.7
685.386	8.78
685.709	8.48
686.032	8.28
686.355	8.27
686.678	8.63
687.001	8.82
687.324	8.31
687.646	8.54
687.969	9.41
688.292	9.21
688.614	8.13
688.937	8
689.26	8.32
689.582	8.18
689.904	8.08
690.227	9.04
690.549	8.69
690.871	8.64
691.194	8.5
691.516	8.63
691.838	9.1
692.16	8.21
692.482	8.53
692.804	8.76
693.126	8.06
