Data from 0278_crown_Reflection__1__190.txt Node

Date: Fri Oct 20 22:12:20 CDT 2023
User: ToomeyLab
Spectrometer: FLMS14357
Trigger mode: 0
Integration Time (sec): 1.000000E-2
Scans to average: 100
Electric dark correction enabled: true
Nonlinearity correction enabled: false
Boxcar width: 0
XAxis mode: Wavelengths
Number of Pixels in Spectrum: 2048
>>>>>Begin Spectral Data<<<<<
189.047	10.21
189.435	10.21
189.823	10.21
190.211	912.25
190.599	-1743.14
190.987	34.44
191.375	-324.69
191.763	122.91
192.151	166.55
192.538	-9.51
192.926	-833.55
193.314	73.58
193.702	8.64
194.089	18.92
194.477	290.53
194.864	-333.64
195.252	79.53
195.639	102.12
196.027	118.8
196.414	121.24
196.801	-60.26
197.189	270.62
197.576	137.12
197.963	1576.1
198.351	63.13
198.738	-22.79
199.125	19.05
199.512	31.1
199.899	77.74
200.286	-13.42
200.673	24.05
201.06	15.67
201.447	5.24
201.833	39.19
202.22	29.8
202.607	19.63
202.994	29.69
203.38	19.68
203.767	26.52
204.154	29.85
204.54	56.18
204.927	3.46
205.313	37.3
205.699	32.02
206.086	38.17
206.472	42.47
206.858	39.75
207.245	7.42
207.631	16.06
208.017	29.42
208.403	3.9
208.789	29.4
209.175	36.8
209.561	14.24
209.947	8.75
210.333	-4.78
210.719	9.25
211.105	17.99
211.491	43.38
211.876	8.6
212.262	43.92
212.648	22.55
213.034	29.31
213.419	52.09
213.805	-4.7
214.19	6.64
214.576	7.59
214.961	-10.76
215.346	23.54
215.732	34.52
216.117	0.25
216.502	12.85
216.888	-1.85
217.273	-8.58
217.658	-16.72
218.043	-4.49
218.428	7.49
218.813	6.79
219.198	12.99
219.583	-11.57
219.968	20.92
220.353	13.07
220.738	17.78
221.122	-6.42
221.507	2.03
221.892	5.38
222.276	13.17
222.661	13.92
223.046	12.68
223.43	6.17
223.815	11.2
224.199	14.34
224.583	11.39
224.968	-1.98
225.352	10.75
225.736	6.52
226.121	15.38
226.505	2.52
226.889	8.37
227.273	7.39
227.657	7.29
228.041	11.67
228.425	5.56
228.809	6.09
229.193	5.27
229.577	9.71
229.961	7
230.344	6.77
230.728	7.23
231.112	8.26
231.495	6.95
231.879	7.29
232.263	7.67
232.646	6.91
233.03	6
233.413	8.15
233.797	6.17
234.18	8.05
234.563	8.25
234.946	7.9
235.33	6.78
235.713	5.66
236.096	7.83
236.479	7.84
236.862	7.71
237.245	6.23
237.628	6.95
238.011	5.62
238.394	7.28
238.777	7.34
239.16	8.09
239.543	8.61
239.925	9.25
240.308	7.65
240.691	6.24
241.073	7.58
241.456	7.18
241.838	7.16
242.221	7.55
242.603	7.48
242.986	7.36
243.368	7.46
243.75	6.73
244.133	6.13
244.515	6.56
244.897	6.57
245.279	6.82
245.661	6.65
246.043	5.96
246.425	6.32
246.807	6.2
247.189	6.86
247.571	6.41
247.953	6.27
248.335	6.47
248.717	6.32
249.098	6.31
249.48	6.33
249.862	6.38
250.243	6.38
250.625	6.49
251.006	6.74
251.388	6.37
251.769	6.26
252.151	5.7
252.532	6.61
252.913	5.73
253.295	5.42
253.676	6.64
254.057	6.17
254.438	6.36
254.819	6.24
255.2	5.93
255.581	6.31
255.962	5.32
256.343	6.49
256.724	5.29
257.105	6.15
257.486	6.74
257.867	6.09
258.247	6.4
258.628	5.53
259.009	5.78
259.389	5.41
259.77	6.07
260.15	6.54
260.531	6.28
260.911	6.04
261.292	5.66
261.672	5.83
262.052	5.91
262.432	5.81
262.813	5.64
263.193	5.53
263.573	5.23
263.953	5.92
264.333	6.32
264.713	6.32
265.093	6.75
265.473	6.2
265.853	5.4
266.233	5.24
266.612	5.94
266.992	6.01
267.372	5.5
267.752	5.43
268.131	5.85
268.511	5.81
268.89	5.57
269.27	5.64
269.649	5.32
270.029	6.01
270.408	5.66
270.787	6.05
271.167	5.59
271.546	5.98
271.925	5.82
272.304	5.79
272.683	5.98
273.062	5.59
273.441	5.78
273.82	5.58
274.199	5.46
274.578	5.51
274.957	5.5
275.336	5.74
275.715	5.61
276.093	5.13
276.472	5.43
276.851	5.47
277.229	5.37
277.608	5.31
277.986	4.84
278.365	5.71
278.743	5.26
279.122	5.92
279.5	4.95
279.878	4.48
280.257	5.08
280.635	5.54
281.013	5.51
281.391	5.5
281.769	5.17
282.147	5.65
282.525	5.17
282.903	5.32
283.281	5.04
283.659	5.5
284.037	5.68
284.415	4.74
284.792	5.04
285.17	5.29
285.548	4.98
285.925	4.71
286.303	4.59
286.68	5.06
287.058	5.63
287.435	5.29
287.813	4.81
288.19	4.89
288.567	5.05
288.945	5.27
289.322	4.97
289.699	4.79
290.076	5.84
290.453	5.4
290.83	5.18
291.207	5.23
291.584	4.57
291.961	4.91
292.338	4.7
292.715	5.15
293.092	4.79
293.469	5.19
293.845	5.17
294.222	5
294.599	5.07
294.975	5.55
295.352	5.03
295.728	4.95
296.105	4.97
296.481	4.95
296.858	5.42
297.234	5.04
297.61	4.69
297.986	5.04
298.363	5.27
298.739	5.12
299.115	4.88
299.491	4.98
299.867	5.02
300.243	5.24
300.619	4.88
300.995	4.96
301.371	5.34
301.746	4.65
302.122	5.33
302.498	5.12
302.874	5.23
303.249	4.98
303.625	4.92
304	5.2
304.376	4.75
304.751	4.69
305.127	4.77
305.502	5.2
305.878	5.16
306.253	4.83
306.628	5.08
307.003	5.11
307.378	4.88
307.754	5.11
308.129	4.87
308.504	5.34
308.879	5.3
309.254	4.87
309.629	4.13
310.003	4.65
310.378	5.24
310.753	5.06
311.128	5.03
311.502	5.02
311.877	5.19
312.252	4.61
312.626	5.06
313.001	4.96
313.375	4.96
313.75	4.99
314.124	4.44
314.498	5.13
314.873	4.61
315.247	5.4
315.621	5.24
315.995	5.11
316.369	4.45
316.743	4.95
317.117	5.21
317.491	4.24
317.865	5.57
318.239	5.22
318.613	5.21
318.987	4.93
319.361	4.24
319.734	5.07
320.108	4.84
320.482	5.12
320.855	5.25
321.229	5.55
321.602	4.86
321.976	4.84
322.349	5.45
322.723	4.85
323.096	5.29
323.469	4.41
323.843	4.96
324.216	5.48
324.589	5.29
324.962	5.71
325.335	4.92
325.708	5.32
326.081	5.4
326.454	4.96
326.827	5.48
327.2	5.3
327.573	5.48
327.945	4.93
328.318	4.54
328.691	5.25
329.063	5.48
329.436	4.71
329.809	5.12
330.181	4.99
330.553	5.27
330.926	4.82
331.298	4.73
331.671	4.24
332.043	4.73
332.415	5.21
332.787	5.17
333.159	4.75
333.532	4.95
333.904	5.02
334.276	4.37
334.648	4.93
335.02	5.78
335.391	5.23
335.763	5.45
336.135	5.2
336.507	5.1
336.879	4.84
337.25	5.39
337.622	5.3
337.993	5.3
338.365	4.87
338.736	5.04
339.108	5.29
339.479	4.76
339.851	4.84
340.222	5.2
340.593	4.99
340.964	4.93
341.336	5
341.707	5.12
342.078	5.28
342.449	5.15
342.82	4.73
343.191	5.15
343.562	5.3
343.933	5.26
344.303	5.07
344.674	5.45
345.045	5.39
345.416	5.26
345.786	4.82
346.157	5.24
346.527	5.26
346.898	5.14
347.268	5.18
347.639	5.47
348.009	5.13
348.38	5.29
348.75	5.32
349.12	5.18
349.49	5.12
349.861	5.19
350.231	4.6
350.601	4.79
350.971	5.23
351.341	5.16
351.711	5.64
352.081	5.13
352.45	4.93
352.82	5.46
353.19	5.37
353.56	5.46
353.929	5.07
354.299	5
354.669	4.63
355.038	5.21
355.408	5.34
355.777	5.22
356.147	4.84
356.516	4.67
356.885	5.33
357.254	5.32
357.624	5.17
357.993	4.92
358.362	5.15
358.731	4.86
359.1	4.71
359.469	4.96
359.838	5.34
360.207	5.37
360.576	5.63
360.945	4.92
361.314	4.89
361.682	5.13
362.051	5.13
362.42	5.28
362.788	5.37
363.157	5.38
363.525	4.98
363.894	5.12
364.262	5.15
364.631	5.2
364.999	5.27
365.367	5.52
365.735	5.11
366.104	5.19
366.472	5.3
366.84	5.43
367.208	5.41
367.576	5.02
367.944	5.31
368.312	4.95
368.68	5.45
369.048	5.19
369.416	5.28
369.783	5.61
370.151	5.39
370.519	5.17
370.886	5.62
371.254	5.39
371.621	5.55
371.989	5.23
372.356	5.27
372.724	5.37
373.091	5.25
373.458	5.37
373.826	5.48
374.193	5.25
374.56	5.12
374.927	5.49
375.294	5.3
375.661	5.69
376.028	5.67
376.395	5.46
376.762	5.33
377.129	5.48
377.496	5.55
377.863	5.56
378.229	5.54
378.596	5.49
378.963	5.49
379.329	5.34
379.696	5.53
380.062	5.65
380.429	5.2
380.795	5.46
381.161	5.34
381.528	5.65
381.894	5.46
382.26	5.39
382.626	5.81
382.993	5.61
383.359	5.64
383.725	5.48
384.091	5.57
384.457	5.24
384.823	5.27
385.188	5.47
385.554	5.41
385.92	5.48
386.286	5.7
386.651	5.47
387.017	5.68
387.383	5.65
387.748	5.33
388.114	5.29
388.479	5.49
388.845	5.62
389.21	5.43
389.575	5.32
389.94	5.68
390.306	5.34
390.671	5.17
391.036	5.33
391.401	5.85
391.766	5.38
392.131	5.38
392.496	5.68
392.861	5.77
393.226	5.47
393.591	5.48
393.956	5.63
394.32	5.81
394.685	5.31
395.05	5.7
395.414	5.68
395.779	5.34
396.143	5.41
396.508	5.54
396.872	5.52
397.236	5.42
397.601	5.51
397.965	5.39
398.329	5.39
398.694	5.81
399.058	5.37
399.422	5.48
399.786	5.4
400.15	5.6
400.514	5.32
400.878	5.69
401.242	5.73
401.605	5.57
401.969	5.35
402.333	5.61
402.697	5.62
403.06	5.45
403.424	5.72
403.787	5.58
404.151	5.5
404.514	5.71
404.878	5.81
405.241	5.56
405.604	5.6
405.968	5.58
406.331	5.54
406.694	5.6
407.057	5.54
407.42	5.75
407.783	5.62
408.146	5.62
408.509	5.6
408.872	5.82
409.235	5.46
409.598	5.72
409.961	5.52
410.323	5.55
410.686	5.51
411.049	5.64
411.411	5.62
411.774	5.73
412.136	5.81
412.499	5.66
412.861	5.72
413.223	5.72
413.586	5.54
413.948	5.75
414.31	5.69
414.672	5.7
415.035	5.39
415.397	5.72
415.759	5.56
416.121	5.69
416.483	5.82
416.845	5.55
417.206	5.7
417.568	5.72
417.93	5.62
418.292	5.31
418.653	5.52
419.015	5.56
419.377	5.52
419.738	5.59
420.1	5.54
420.461	5.51
420.822	5.53
421.184	5.46
421.545	5.5
421.906	5.41
422.267	5.41
422.629	5.51
422.99	5.44
423.351	5.52
423.712	5.48
424.073	5.46
424.434	5.37
424.795	5.52
425.155	5.55
425.516	5.54
425.877	5.55
426.238	5.44
426.598	5.39
426.959	5.44
427.32	5.5
427.68	5.57
428.041	5.59
428.401	5.56
428.761	5.52
429.122	5.65
429.482	5.48
429.842	5.78
430.202	5.56
430.563	5.63
430.923	5.62
431.283	5.68
431.643	5.69
432.003	5.68
432.363	5.54
432.722	5.62
433.082	5.62
433.442	5.64
433.802	5.84
434.161	5.64
434.521	5.63
434.881	5.64
435.24	5.64
435.6	5.56
435.959	5.51
436.319	5.6
436.678	5.65
437.037	5.6
437.396	5.72
437.756	5.74
438.115	5.43
438.474	5.71
438.833	5.66
439.192	5.47
439.551	5.54
439.91	5.74
440.269	5.75
440.628	5.69
440.987	5.45
441.345	5.47
441.704	5.56
442.063	5.6
442.421	5.54
442.78	5.48
443.138	5.66
443.497	5.66
443.855	5.54
444.214	5.54
444.572	5.6
444.93	5.86
445.288	5.67
445.647	5.75
446.005	5.47
446.363	5.59
446.721	5.56
447.079	5.83
447.437	5.73
447.795	5.45
448.153	5.58
448.51	5.58
448.868	5.56
449.226	5.64
449.584	5.56
449.941	5.48
450.299	5.58
450.656	5.39
451.014	5.63
451.371	5.71
451.729	5.57
452.086	5.52
452.443	5.69
452.801	5.34
453.158	5.68
453.515	5.6
453.872	5.75
454.229	5.78
454.586	5.76
454.943	5.63
455.3	5.55
455.657	5.7
456.014	5.6
456.371	5.64
456.727	5.84
457.084	5.65
457.441	5.75
457.797	5.66
458.154	5.63
458.51	5.57
458.867	5.53
459.223	5.53
459.58	5.59
459.936	5.63
460.292	5.54
460.648	5.53
461.005	5.43
461.361	5.53
461.717	5.45
462.073	5.6
462.429	5.58
462.785	5.54
463.141	5.58
463.496	5.59
463.852	5.75
464.208	5.75
464.564	5.77
464.919	5.62
465.275	5.76
465.631	5.58
465.986	5.68
466.342	5.86
466.697	5.6
467.052	5.56
467.408	5.7
467.763	5.8
468.118	5.83
468.473	5.67
468.829	5.7
469.184	5.7
469.539	5.54
469.894	5.59
470.249	5.66
470.603	5.5
470.958	5.74
471.313	5.71
471.668	5.66
472.023	5.71
472.377	5.63
472.732	5.57
473.086	5.71
473.441	5.73
473.795	5.7
474.15	5.56
474.504	5.51
474.859	5.64
475.213	5.69
475.567	5.82
475.921	5.73
476.275	5.73
476.63	5.71
476.984	5.7
477.338	5.57
477.692	5.63
478.045	5.58
478.399	5.67
478.753	5.57
479.107	5.6
479.461	5.59
479.814	5.75
480.168	5.68
480.521	5.69
480.875	5.68
481.228	5.76
481.582	5.74
481.935	5.71
482.289	5.64
482.642	5.59
482.995	5.68
483.348	5.5
483.701	5.63
484.055	5.63
484.408	5.45
484.761	5.48
485.114	5.4
485.466	5.34
485.819	5.3
486.172	5.22
486.525	5.25
486.878	5.28
487.23	5.32
487.583	5.35
487.936	5.39
488.288	5.43
488.641	5.48
488.993	5.43
489.345	5.36
489.698	5.38
490.05	5.34
490.402	5.36
490.754	5.32
491.107	5.36
491.459	5.43
491.811	5.48
492.163	5.43
492.515	5.49
492.866	5.52
493.218	5.44
493.57	5.39
493.922	5.35
494.274	5.44
494.625	5.42
494.977	5.39
495.328	5.54
495.68	5.6
496.031	5.49
496.383	5.65
496.734	5.55
497.086	5.56
497.437	5.64
497.788	5.48
498.139	5.61
498.49	5.57
498.842	5.57
499.193	5.64
499.544	5.62
499.894	5.59
500.245	5.59
500.596	5.65
500.947	5.68
501.298	5.62
501.648	5.52
501.999	5.62
502.35	5.5
502.7	5.68
503.051	5.59
503.401	5.68
503.752	5.71
504.102	5.66
504.452	5.61
504.803	5.53
505.153	5.69
505.503	5.54
505.853	5.81
506.203	5.53
506.553	5.56
506.903	5.7
507.253	5.67
507.603	5.57
507.953	5.72
508.303	5.63
508.652	5.75
509.002	5.64
509.352	5.62
509.701	5.75
510.051	5.48
510.4	5.62
510.75	5.63
511.099	5.63
511.449	5.69
511.798	5.67
512.147	5.63
512.496	5.67
512.846	5.54
513.195	5.68
513.544	5.61
513.893	5.51
514.242	5.63
514.591	5.6
514.939	5.59
515.288	5.62
515.637	5.7
515.986	5.73
516.334	5.59
516.683	5.68
517.032	5.52
517.38	5.52
517.729	5.66
518.077	5.64
518.426	5.7
518.774	5.49
519.122	5.62
519.47	5.56
519.819	5.66
520.167	5.49
520.515	5.53
520.863	5.61
521.211	5.57
521.559	5.64
521.907	5.54
522.255	5.6
522.602	5.68
522.95	5.64
523.298	5.68
523.645	5.63
523.993	5.52
524.341	5.47
524.688	5.61
525.036	5.76
525.383	5.51
525.73	5.71
526.078	5.6
526.425	5.82
526.772	5.57
527.119	5.61
527.466	5.54
527.814	5.62
528.161	5.56
528.508	5.58
528.854	5.56
529.201	5.5
529.548	5.57
529.895	5.55
530.242	5.45
530.588	5.4
530.935	5.41
531.282	5.45
531.628	5.45
531.975	5.4
532.321	5.48
532.667	5.5
533.014	5.56
533.36	5.64
533.706	5.61
534.052	5.59
534.399	5.53
534.745	5.5
535.091	5.51
535.437	5.57
535.783	5.51
536.129	5.57
536.474	5.58
536.82	5.54
537.166	5.55
537.512	5.68
537.857	5.63
538.203	5.59
538.549	5.63
538.894	5.56
539.239	5.64
539.585	5.64
539.93	5.61
540.276	5.72
540.621	5.64
540.966	5.61
541.311	5.82
541.656	5.73
542.001	5.7
542.346	5.67
542.691	5.6
543.036	5.63
543.381	5.48
543.726	5.49
544.071	5.52
544.415	5.49
544.76	5.53
545.105	5.55
545.449	5.56
545.794	5.64
546.138	5.56
546.483	5.59
546.827	5.69
547.171	5.69
547.516	5.65
547.86	5.62
548.204	5.59
548.548	5.69
548.892	5.64
549.236	5.64
549.58	5.53
549.924	5.58
550.268	5.6
550.612	5.65
550.956	5.93
551.3	5.68
551.643	5.78
551.987	5.87
552.33	5.72
552.674	5.74
553.017	5.7
553.361	5.66
553.704	5.99
554.048	5.84
554.391	5.87
554.734	5.84
555.077	5.77
555.42	5.58
555.764	5.67
556.107	5.8
556.45	5.78
556.793	5.56
557.135	5.6
557.478	5.64
557.821	5.69
558.164	5.88
558.507	5.94
558.849	5.8
559.192	5.88
559.534	5.93
559.877	5.51
560.219	5.78
560.562	5.85
560.904	5.73
561.246	5.88
561.589	5.71
561.931	5.9
562.273	5.85
562.615	5.98
562.957	5.79
563.299	5.97
563.641	5.86
563.983	5.76
564.325	5.74
564.667	5.97
565.008	5.8
565.35	5.74
565.692	5.67
566.033	5.76
566.375	5.87
566.716	5.87
567.058	5.69
567.399	5.8
567.741	5.71
568.082	5.7
568.423	5.81
568.764	5.69
569.105	5.74
569.447	5.86
569.788	5.84
570.129	5.83
570.47	5.94
570.811	5.88
571.151	5.77
571.492	5.82
571.833	6.04
572.174	6.01
572.514	5.8
572.855	5.78
573.195	5.89
573.536	5.82
573.876	5.94
574.217	5.72
574.557	5.78
574.898	5.64
575.238	5.69
575.578	5.74
575.918	5.76
576.258	5.88
576.598	5.84
576.938	5.75
577.278	5.9
577.618	5.67
577.958	5.8
578.298	5.88
578.638	5.83
578.977	5.8
579.317	5.81
579.657	5.9
579.996	5.88
580.336	5.8
580.675	5.89
581.014	5.82
581.354	5.84
581.693	6.04
582.032	5.89
582.372	6.02
582.711	5.92
583.05	6.25
583.389	5.86
583.728	5.86
584.067	5.91
584.406	5.82
584.745	5.86
585.083	5.97
585.422	5.9
585.761	5.76
586.1	5.95
586.438	5.79
586.777	5.82
587.115	6.08
587.454	5.7
587.792	5.86
588.13	5.74
588.469	6.18
588.807	5.68
589.145	6.08
589.483	5.68
589.821	5.66
590.159	5.91
590.497	6.15
590.835	5.84
591.173	5.76
591.511	5.93
591.849	5.47
592.187	5.75
592.524	5.85
592.862	5.7
593.2	5.82
593.537	5.68
593.875	5.82
594.212	5.91
594.55	5.94
594.887	5.98
595.224	5.95
595.561	5.91
595.899	6
596.236	6.12
596.573	5.88
596.91	6.01
597.247	5.95
597.584	5.81
597.921	5.81
598.258	6.02
598.594	6.01
598.931	5.71
599.268	5.83
599.604	5.9
599.941	6.04
600.277	5.75
600.614	5.89
600.95	5.93
601.287	5.88
601.623	5.88
601.959	5.98
602.296	5.97
602.632	5.87
602.968	5.84
603.304	5.95
603.64	5.59
603.976	5.89
604.312	5.94
604.648	5.87
604.984	6.19
605.319	5.98
605.655	5.86
605.991	5.89
606.326	5.85
606.662	5.93
606.998	5.78
607.333	5.91
607.668	5.76
608.004	5.65
608.339	5.63
608.674	6.06
609.01	5.85
609.345	6.13
609.68	6.06
610.015	5.89
610.35	6
610.685	6.04
611.02	5.78
611.355	5.87
611.689	5.8
612.024	5.96
612.359	5.61
612.694	5.8
613.028	5.81
613.363	5.84
613.697	5.84
614.032	6.06
614.366	5.84
614.7	6
615.035	6.08
615.369	6.09
615.703	5.78
616.037	6.16
616.371	5.94
616.705	5.76
617.039	5.86
617.373	5.85
617.707	6.27
618.041	6.05
618.375	5.74
618.709	5.9
619.042	5.95
619.376	5.85
619.71	6
620.043	6.27
620.377	5.56
620.71	6.03
621.043	6.26
621.377	5.72
621.71	5.58
622.043	5.85
622.376	6.26
622.709	5.94
623.043	5.93
623.376	6.04
623.709	5.76
624.041	5.73
624.374	6.03
624.707	6.04
625.04	6.37
625.373	6.07
625.705	5.73
626.038	6.27
626.37	5.57
626.703	6.02
627.035	5.72
627.368	5.89
627.7	5.94
628.032	5.99
628.365	6.11
628.697	6.19
629.029	5.9
629.361	6.19
629.693	5.83
630.025	5.94
630.357	5.88
630.689	5.73
631.021	6.24
631.353	6.02
631.684	5.93
632.016	6.21
632.348	6.04
632.679	5.66
633.011	6.23
633.342	6.01
633.674	5.91
634.005	5.95
634.336	6.38
634.668	5.88
634.999	6.11
635.33	5.72
635.661	6.63
635.992	6.15
636.323	6.26
636.654	6
636.985	6.14
637.316	6.08
637.647	5.92
637.977	5.77
638.308	6.04
638.639	5.88
638.969	6.22
639.3	6.02
639.63	6.31
639.961	5.78
640.291	6.01
640.622	5.97
640.952	6.38
641.282	5.76
641.612	6.2
641.943	6.46
642.273	5.9
642.603	6.33
642.933	6.18
643.263	6.19
643.592	6.05
643.922	6.16
644.252	5.96
644.582	5.96
644.911	6.05
645.241	5.98
645.571	6.46
645.9	6.2
646.23	5.99
646.559	6.2
646.888	6.3
647.218	5.92
647.547	5.87
647.876	6.22
648.205	6.31
648.534	6
648.863	5.99
649.192	5.89
649.521	5.93
649.85	5.88
650.179	6.02
650.508	6.02
650.837	6.27
651.165	6.31
651.494	5.62
651.822	5.73
652.151	6.58
652.479	6.03
652.808	6.08
653.136	5.64
653.465	6.14
653.793	5.95
654.121	6.43
654.449	5.85
654.777	5.5
655.105	5.86
655.433	6.37
655.761	6.48
656.089	6.54
656.417	6.19
656.745	6.03
657.073	6.39
657.4	6.69
657.728	6.52
658.056	6.27
658.383	6.28
658.711	5.89
659.038	6.18
659.365	5.98
659.693	5.89
660.02	6.24
660.347	6.2
660.674	5.93
661.001	5.87
661.329	6.29
661.656	6.12
661.982	6.1
662.309	6.46
662.636	6.33
662.963	6.16
663.29	6.05
663.616	6.48
663.943	5.74
664.27	6.52
664.596	6.19
664.923	5.93
665.249	6.04
665.576	5.78
665.902	5.94
666.228	6.08
666.554	6.56
666.881	5.82
667.207	6.22
667.533	6.05
667.859	6.42
668.185	6.3
668.511	6.75
668.837	6.49
669.162	6.58
669.488	6.27
669.814	6.08
670.139	5.9
670.465	6.18
670.791	6.82
671.116	5.83
671.442	6.31
671.767	6.28
672.092	6.33
672.418	6.23
672.743	6
673.068	6.7
673.393	6.35
673.718	6
674.043	6.1
674.368	6.37
674.693	6.49
675.018	6.52
675.343	6.39
675.667	6.01
675.992	6.36
676.317	7.18
676.641	6.4
676.966	6.57
677.29	6.43
677.615	6.12
677.939	6.14
678.264	6.61
678.588	5.87
678.912	6.72
679.236	6.54
679.56	5.71
679.885	6.36
680.209	6.66
680.532	6.22
680.856	6.07
681.18	6.48
681.504	6.49
681.828	6.21
682.152	6.02
682.475	6.25
682.799	6.45
683.122	6.55
683.446	6.63
683.769	5.95
684.093	6.52
684.416	6.33
684.739	6.01
685.062	5.91
685.386	6.21
685.709	5.9
686.032	6.48
686.355	6.54
686.678	6.38
687.001	6.67
687.324	6.13
687.646	6.83
687.969	7.07
688.292	6.42
688.614	6.42
688.937	6.07
689.26	6.01
689.582	6.06
689.904	6.36
690.227	6.75
690.549	6.39
690.871	6.31
691.194	6.67
691.516	6.57
691.838	7.01
692.16	7.02
692.482	6.01
692.804	6.51
