Data from 0074_forehead_Reflection__1__356.txt Node

Date: Fri Dec 16 16:53:02 CST 2022
User: ToomeyLab
Spectrometer: FLMS14357
Trigger mode: 0
Integration Time (sec): 1.000000E-2
Scans to average: 100
Electric dark correction enabled: true
Nonlinearity correction enabled: false
Boxcar width: 0
XAxis mode: Wavelengths
Number of Pixels in Spectrum: 2048
>>>>>Begin Spectral Data<<<<<
189.047	68.83
189.435	68.83
189.823	68.83
190.211	5.65
190.599	92.35
190.987	-6972.88
191.375	7.16
191.763	733.03
192.151	-168.31
192.538	481.52
192.926	-29.06
193.314	59.92
193.702	123.96
194.089	91.91
194.477	76.16
194.864	191.58
195.252	21.48
195.639	182.06
196.027	14
196.414	100.11
196.801	45.53
197.189	102.52
197.576	9320
197.963	-578.03
198.351	3.65
198.738	32.63
199.125	48.92
199.512	31.84
199.899	-5.73
200.286	31.32
200.673	38.88
201.06	26.24
201.447	61.24
201.833	6.97
202.22	0.19
202.607	-6.96
202.994	10.88
203.38	-36.27
203.767	18.52
204.154	-31.44
204.54	21.08
204.927	66.35
205.313	40.78
205.699	-7.66
206.086	11.37
206.472	24.7
206.858	33.1
207.245	11.51
207.631	14.2
208.017	5.51
208.403	35.48
208.789	1.69
209.175	46.15
209.561	18.22
209.947	4.72
210.333	-15.62
210.719	34.3
211.105	-65.73
211.491	-20.1
211.876	-6.68
212.262	-46.67
212.648	-33.2
213.034	-3.63
213.419	49.72
213.805	18.34
214.19	-8.74
214.576	-19.73
214.961	-3.24
215.346	-39.45
215.732	-40.09
216.117	20.65
216.502	-32.74
216.888	-77.04
217.273	1.94
217.658	13.25
218.043	29.74
218.428	15.24
218.813	-4.11
219.198	-38.63
219.583	18.9
219.968	-7.74
220.353	40.19
220.738	6.04
221.122	-24.14
221.507	-13.31
221.892	23.4
222.276	9.53
222.661	-7.64
223.046	5
223.43	5.8
223.815	14.42
224.199	10.91
224.583	0.36
224.968	10.31
225.352	3.49
225.736	-3.22
226.121	-2.77
226.505	13.55
226.889	6.76
227.273	-1.78
227.657	5.25
228.041	6.03
228.425	4.03
228.809	4.34
229.193	4.83
229.577	4.06
229.961	4.81
230.344	4.59
230.728	4.22
231.112	3.6
231.495	5.18
231.879	3.28
232.263	2.48
232.646	4.65
233.03	2.52
233.413	2.97
233.797	7.23
234.18	5.32
234.563	4.74
234.946	3.16
235.33	4.68
235.713	4.85
236.096	3.11
236.479	5.31
236.862	4.61
237.245	6.03
237.628	5.87
238.011	4.11
238.394	5.87
238.777	3.91
239.16	4.31
239.543	2.2
239.925	6.41
240.308	4.11
240.691	3.77
241.073	3.19
241.456	4.87
241.838	3.79
242.221	4.54
242.603	4.93
242.986	5.55
243.368	4.49
243.75	4.58
244.133	4.14
244.515	4.76
244.897	4.41
245.279	4.1
245.661	4.87
246.043	3.9
246.425	4.5
246.807	5.09
247.189	4.14
247.571	4.92
247.953	4.91
248.335	4.74
248.717	4.28
249.098	4.8
249.48	4.5
249.862	4.6
250.243	4.59
250.625	4.75
251.006	5.27
251.388	5.09
251.769	5.16
252.151	4.21
252.532	4.96
252.913	4.45
253.295	4.82
253.676	5.12
254.057	4.83
254.438	5.34
254.819	6.36
255.2	4.69
255.581	3.94
255.962	4.9
256.343	5.09
256.724	4.72
257.105	5.09
257.486	5.63
257.867	3.61
258.247	4.54
258.628	5.2
259.009	4.4
259.389	5.35
259.77	4.55
260.15	5.77
260.531	4.93
260.911	4.51
261.292	4.65
261.672	4.55
262.052	4.51
262.432	4.39
262.813	4.43
263.193	4.63
263.573	4.33
263.953	4.91
264.333	4.86
264.713	3.83
265.093	3.96
265.473	5.4
265.853	4.76
266.233	4.39
266.612	5.03
266.992	4.25
267.372	4.72
267.752	3.88
268.131	4.6
268.511	5.07
268.89	4.92
269.27	4.8
269.649	4.8
270.029	4.91
270.408	4.78
270.787	4.39
271.167	4.81
271.546	3.97
271.925	4.71
272.304	4.67
272.683	4.32
273.062	4.69
273.441	4.53
273.82	4.52
274.199	4.85
274.578	4.31
274.957	4.11
275.336	4.52
275.715	4.83
276.093	5.14
276.472	5.11
276.851	4.38
277.229	4.97
277.608	4.4
277.986	4.13
278.365	4.1
278.743	4.61
279.122	4.49
279.5	4.55
279.878	4.08
280.257	4.21
280.635	4.56
281.013	4.36
281.391	4.47
281.769	4.1
282.147	4.57
282.525	4.51
282.903	4.85
283.281	4.72
283.659	4.51
284.037	4.34
284.415	4.48
284.792	4.49
285.17	4.16
285.548	4.49
285.925	4.55
286.303	4.1
286.68	4.69
287.058	4.25
287.435	4.24
287.813	4.72
288.19	4.87
288.567	4.42
288.945	4.42
289.322	4.98
289.699	4.52
290.076	5.23
290.453	4.86
290.83	4.87
291.207	4.85
291.584	4.48
291.961	4.83
292.338	4.6
292.715	4.61
293.092	4.79
293.469	5.02
293.845	4.99
294.222	4.82
294.599	5.21
294.975	5.18
295.352	4.47
295.728	4.93
296.105	4.94
296.481	5.66
296.858	5.34
297.234	4.94
297.61	5.21
297.986	5.19
298.363	4.78
298.739	5.23
299.115	4.9
299.491	5.19
299.867	5.02
300.243	5.33
300.619	5.21
300.995	5.46
301.371	5.36
301.746	5.45
302.122	5.29
302.498	5.34
302.874	5.58
303.249	5.83
303.625	5.2
304	5.14
304.376	5.7
304.751	5.78
305.127	5.74
305.502	6.04
305.878	5.45
306.253	5.4
306.628	6.39
307.003	5.6
307.378	5.39
307.754	6.26
308.129	5.6
308.504	6.04
308.879	6
309.254	6.25
309.629	5.67
310.003	6.55
310.378	6.42
310.753	6.38
311.128	6.47
311.502	6.5
311.877	6.31
312.252	6.43
312.626	6.48
313.001	6.55
313.375	6.94
313.75	6.36
314.124	7.02
314.498	6.39
314.873	6.25
315.247	6.41
315.621	7.34
315.995	7.12
316.369	6.87
316.743	7.31
317.117	6.84
317.491	7.47
317.865	6.56
318.239	7.46
318.613	7.33
318.987	7.08
319.361	7.1
319.734	7.09
320.108	7.34
320.482	7.22
320.855	7.56
321.229	7.63
321.602	7.54
321.976	7.69
322.349	7.1
322.723	7.85
323.096	7.55
323.469	6.87
323.843	7.52
324.216	7.28
324.589	8.29
324.962	8.26
325.335	7.58
325.708	7.95
326.081	8.38
326.454	8.26
326.827	8.31
327.2	8.44
327.573	8.05
327.945	8.39
328.318	8.31
328.691	8.28
329.063	7.91
329.436	8.33
329.809	8.14
330.181	8.06
330.553	8.53
330.926	8.18
331.298	8.65
331.671	8.79
332.043	8.57
332.415	8.91
332.787	8.84
333.159	8.94
333.532	9.15
333.904	8.68
334.276	8.83
334.648	9.17
335.02	9
335.391	9.14
335.763	9.04
336.135	8.85
336.507	8.79
336.879	9.63
337.25	9.05
337.622	8.92
337.993	9.08
338.365	9.01
338.736	9.31
339.108	9.13
339.479	9.19
339.851	9.22
340.222	9.62
340.593	8.99
340.964	9.34
341.336	9.19
341.707	9.49
342.078	9.79
342.449	9.62
342.82	9.23
343.191	8.92
343.562	9.51
343.933	9.38
344.303	9.7
344.674	9.64
345.045	10.49
345.416	9.66
345.786	9.52
346.157	9.77
346.527	10.06
346.898	10.04
347.268	10.07
347.639	9.99
348.009	10.56
348.38	10.57
348.75	10.63
349.12	10.65
349.49	10.11
349.861	10.51
350.231	10.42
350.601	10.7
350.971	10.26
351.341	10.28
351.711	10.66
352.081	10.38
352.45	10.82
352.82	10.87
353.19	10.82
353.56	10.54
353.929	11.02
354.299	10.46
354.669	11.22
355.038	10.9
355.408	11.18
355.777	10.99
356.147	11.24
356.516	11.38
356.885	11.16
357.254	11.25
357.624	11.15
357.993	10.59
358.362	11.19
358.731	11.12
359.1	11.47
359.469	11.19
359.838	11.12
360.207	11.32
360.576	11.55
360.945	11.38
361.314	11.49
361.682	11.39
362.051	11.32
362.42	11.8
362.788	11.79
363.157	11.54
363.525	11.68
363.894	11.56
364.262	11.8
364.631	12.29
364.999	11.7
365.367	12.26
365.735	11.63
366.104	11.95
366.472	12.17
366.84	12.28
367.208	11.82
367.576	11.93
367.944	12.41
368.312	12.17
368.68	12.52
369.048	12.62
369.416	12.28
369.783	12.43
370.151	12.67
370.519	12.6
370.886	12.73
371.254	12.76
371.621	12.63
371.989	12.99
372.356	12.93
372.724	13
373.091	12.71
373.458	13.19
373.826	12.62
374.193	13.4
374.56	12.51
374.927	12.79
375.294	13.21
375.661	13.38
376.028	13.35
376.395	13.09
376.762	13.3
377.129	13.33
377.496	13.4
377.863	13.52
378.229	13.47
378.596	13.51
378.963	13.38
379.329	13.28
379.696	13.21
380.062	13.72
380.429	13.55
380.795	13.32
381.161	13.9
381.528	13.61
381.894	13.82
382.26	13.69
382.626	13.68
382.993	13.83
383.359	13.77
383.725	14.09
384.091	13.9
384.457	14.32
384.823	14.14
385.188	14.48
385.554	14.29
385.92	14.59
386.286	14.31
386.651	13.99
387.017	14.29
387.383	14.13
387.748	14.56
388.114	14.59
388.479	14.62
388.845	14.72
389.21	14.8
389.575	14.86
389.94	14.77
390.306	14.64
390.671	14.88
391.036	14.89
391.401	15.37
391.766	15.02
392.131	15.16
392.496	14.87
392.861	15.13
393.226	14.9
393.591	15.33
393.956	14.93
394.32	15.28
394.685	15.34
395.05	15.07
395.414	15.39
395.779	15.06
396.143	15.12
396.508	15.47
396.872	15.68
397.236	15.1
397.601	15.61
397.965	15.22
398.329	15.7
398.694	15.76
399.058	15.84
399.422	15.89
399.786	15.77
400.15	15.86
400.514	15.85
400.878	15.6
401.242	15.96
401.605	15.85
401.969	16.14
402.333	15.83
402.697	16.46
403.06	16.1
403.424	16
403.787	16.46
404.151	16.24
404.514	16.23
404.878	16.41
405.241	16.55
405.604	16.61
405.968	16.42
406.331	16.74
406.694	16.37
407.057	16.68
407.42	16.6
407.783	16.74
408.146	16.6
408.509	16.5
408.872	16.49
409.235	16.85
409.598	16.86
409.961	16.96
410.323	16.83
410.686	16.95
411.049	16.71
411.411	17.05
411.774	16.91
412.136	17.11
412.499	16.9
412.861	16.91
413.223	17.29
413.586	17.25
413.948	17.29
414.31	17.37
414.672	17.28
415.035	17.65
415.397	17.6
415.759	17.55
416.121	17.87
416.483	17.5
416.845	17.63
417.206	17.77
417.568	17.78
417.93	17.64
418.292	17.74
418.653	17.68
419.015	17.69
419.377	17.74
419.738	17.68
420.1	17.71
420.461	17.61
420.822	17.86
421.184	17.83
421.545	17.86
421.906	17.96
422.267	17.93
422.629	17.84
422.99	17.79
423.351	17.89
423.712	17.99
424.073	17.96
424.434	18.18
424.795	18.14
425.155	18.13
425.516	18.16
425.877	18.12
426.238	18.1
426.598	18.29
426.959	18.29
427.32	18.51
427.68	18.56
428.041	18.42
428.401	18.55
428.761	18.54
429.122	18.7
429.482	18.95
429.842	18.82
430.202	18.98
430.563	18.95
430.923	18.88
431.283	19.21
431.643	19.18
432.003	19.13
432.363	19.19
432.722	19.32
433.082	19.02
433.442	19.5
433.802	19.49
434.161	19.37
434.521	19.37
434.881	19.41
435.24	19.35
435.6	19.43
435.959	19.68
436.319	19.65
436.678	19.6
437.037	19.78
437.396	19.82
437.756	19.83
438.115	19.73
438.474	20.02
438.833	20.03
439.192	20.12
439.551	20
439.91	20.17
440.269	20.2
440.628	20.11
440.987	19.94
441.345	20.17
441.704	20.24
442.063	20.15
442.421	20.17
442.78	20.1
443.138	20.1
443.497	20.26
443.855	20.4
444.214	20.61
444.572	20.58
444.93	20.6
445.288	20.77
445.647	20.72
446.005	20.64
446.363	20.88
446.721	20.67
447.079	20.76
447.437	20.76
447.795	20.54
448.153	20.62
448.51	20.48
448.868	20.66
449.226	20.71
449.584	20.8
449.941	20.97
450.299	21.02
450.656	21.1
451.014	21.17
451.371	21.24
451.729	21.48
452.086	21.36
452.443	21.44
452.801	21.52
453.158	21.65
453.515	21.69
453.872	21.8
454.229	21.48
454.586	21.69
454.943	21.73
455.3	21.83
455.657	21.8
456.014	21.93
456.371	21.95
456.727	21.87
457.084	21.9
457.441	21.84
457.797	22.21
458.154	22.24
458.51	22.2
458.867	22.28
459.223	22.3
459.58	22.28
459.936	22.29
460.292	22.32
460.648	22.39
461.005	22.17
461.361	22.19
461.717	22.08
462.073	22.23
462.429	22.2
462.785	22.27
463.141	22.55
463.496	22.52
463.852	22.85
464.208	22.97
464.564	22.95
464.919	23.03
465.275	22.91
465.631	23.04
465.986	23.08
466.342	23.19
466.697	23.32
467.052	23.16
467.408	23.51
467.763	23.21
468.118	23.54
468.473	23.6
468.829	23.42
469.184	23.56
469.539	23.34
469.894	23.54
470.249	23.78
470.603	23.73
470.958	23.81
471.313	23.99
471.668	23.93
472.023	23.86
472.377	23.76
472.732	24.12
473.086	23.75
473.441	23.92
473.795	24.1
474.15	24.03
474.504	24.12
474.859	24.04
475.213	24.05
475.567	24.22
475.921	24.55
476.275	24.23
476.63	24.58
476.984	24.51
477.338	24.74
477.692	24.65
478.045	24.59
478.399	24.68
478.753	24.62
479.107	24.72
479.461	24.82
479.814	24.7
480.168	24.74
480.521	24.95
480.875	24.84
481.228	24.96
481.582	24.96
481.935	24.91
482.289	24.94
482.642	25.02
482.995	25.05
483.348	24.86
483.701	24.86
484.055	24.86
484.408	24.76
484.761	24.55
485.114	24.54
485.466	24.39
485.819	24.19
486.172	24.09
486.525	24.26
486.878	24.45
487.23	24.68
487.583	24.91
487.936	24.96
488.288	25.01
488.641	25.02
488.993	24.83
489.345	24.79
489.698	24.85
490.05	24.88
490.402	24.95
490.754	25.22
491.107	25.41
491.459	25.58
491.811	25.8
492.163	25.76
492.515	25.79
492.866	25.61
493.218	25.62
493.57	25.44
493.922	25.35
494.274	25.74
494.625	25.82
494.977	25.92
495.328	26.23
495.68	26.58
496.031	26.69
496.383	26.7
496.734	26.8
497.086	26.72
497.437	26.69
497.788	26.73
498.139	26.87
498.49	26.75
498.842	26.83
499.193	27.01
499.544	27.05
499.894	27.31
500.245	26.96
500.596	27.23
500.947	27.3
501.298	27.28
501.648	27.39
501.999	27.5
502.35	27.51
502.7	27.71
503.051	27.81
503.401	27.71
503.752	27.72
504.102	27.76
504.452	27.87
504.803	27.78
505.153	28.01
505.503	27.88
505.853	27.95
506.203	28.06
506.553	28.03
506.903	28.13
507.253	28.11
507.603	28.12
507.953	28.39
508.303	28.38
508.652	28.47
509.002	28.44
509.352	28.31
509.701	28.45
510.051	28.47
510.4	28.56
510.75	28.48
511.099	28.54
511.449	28.49
511.798	28.77
512.147	28.66
512.496	28.9
512.846	28.88
513.195	28.83
513.544	28.77
513.893	28.86
514.242	28.99
514.591	28.99
514.939	28.98
515.288	29.21
515.637	29.33
515.986	29.29
516.334	29.49
516.683	29.36
517.032	29.46
517.38	29.66
517.729	29.67
518.077	29.59
518.426	29.62
518.774	29.56
519.122	29.59
519.47	29.6
519.819	29.5
520.167	29.4
520.515	29.37
520.863	29.39
521.211	29.54
521.559	29.59
521.907	29.76
522.255	30.01
522.602	30.21
522.95	30.19
523.298	30.26
523.645	30.32
523.993	30.33
524.341	30.49
524.688	30.39
525.036	30.63
525.383	30.52
525.73	30.37
526.078	30.53
526.425	30.61
526.772	30.41
527.119	30.34
527.466	30.34
527.814	30.3
528.161	30.43
528.508	30.36
528.854	30.41
529.201	30.38
529.548	30.37
529.895	30.25
530.242	30.22
530.588	30.17
530.935	30.01
531.282	29.96
531.628	30.32
531.975	30.4
532.321	30.74
532.667	30.97
533.014	31.08
533.36	31.11
533.706	31.21
534.052	31.27
534.399	31.07
534.745	31.18
535.091	30.96
535.437	30.96
535.783	30.99
536.129	31.17
536.474	31.39
536.82	31.61
537.166	31.84
537.512	31.76
537.857	31.79
538.203	31.83
538.549	31.79
538.894	31.65
539.239	32.02
539.585	32.13
539.93	32.38
540.276	32.21
540.621	32.58
540.966	32.59
541.311	32.7
541.656	32.69
542.001	32.73
542.346	32.39
542.691	32.21
543.036	32.08
543.381	32.04
543.726	32.1
544.071	32.19
544.415	32.24
544.76	32.3
545.105	32.39
545.449	32.52
545.794	32.85
546.138	33
546.483	33.14
546.827	33.26
547.171	33.18
547.516	33.47
547.86	33.4
548.204	33.24
548.548	33.28
548.892	33.43
549.236	33.48
549.58	33.67
549.924	33.62
550.268	33.86
550.612	33.93
550.956	34.34
551.3	34.04
551.643	34.17
551.987	34.31
552.33	34.37
552.674	34.55
553.017	34.59
553.361	34.29
553.704	34.46
554.048	34.58
554.391	34.5
554.734	34.37
555.077	34.46
555.42	34.56
555.764	34.84
556.107	34.78
556.45	34.78
556.793	34.81
557.135	35.24
557.478	35.37
557.821	35.17
558.164	35.34
558.507	35.2
558.849	35.34
559.192	35.53
559.534	35.34
559.877	35.39
560.219	35.72
560.562	35.57
560.904	35.57
561.246	35.77
561.589	35.85
561.931	35.97
562.273	35.8
562.615	35.97
562.957	35.98
563.299	35.83
563.641	35.79
563.983	36.11
564.325	35.95
564.667	36.19
565.008	36.11
565.35	36.15
565.692	36.39
566.033	36.47
566.375	36.16
566.716	36.33
567.058	36.33
567.399	36.23
567.741	36.33
568.082	36.38
568.423	36.38
568.764	36.54
569.105	36.45
569.447	36.71
569.788	36.78
570.129	36.61
570.47	36.96
570.811	37.06
571.151	37.1
571.492	37.1
571.833	36.98
572.174	37.01
572.514	37.11
572.855	37.16
573.195	37.03
573.536	37
573.876	37.18
574.217	36.97
574.557	37.19
574.898	37.22
575.238	37.31
575.578	37.67
575.918	37.51
576.258	37.61
576.598	37.62
576.938	37.81
577.278	37.65
577.618	37.65
577.958	37.86
578.298	37.94
578.638	38.04
578.977	38.07
579.317	38.2
579.657	38.04
579.996	38.26
580.336	38.41
580.675	38.57
581.014	38.53
581.354	38.35
581.693	38.47
582.032	38.54
582.372	38.81
582.711	38.69
583.05	38.87
583.389	38.94
583.728	39.01
584.067	38.99
584.406	38.69
584.745	39.26
585.083	38.92
585.422	39.31
585.761	39.17
586.1	39.07
586.438	39.11
586.777	39.4
587.115	39.33
587.454	39.51
587.792	39.29
588.13	39.35
588.469	39.56
588.807	39.89
589.145	39.97
589.483	39.35
589.821	39.74
590.159	39.58
590.497	39.77
590.835	40.05
591.173	39.93
591.511	39.97
591.849	39.9
592.187	40.03
592.524	39.81
592.862	40.22
593.2	40.09
593.537	40.54
593.875	40.48
594.212	40.23
594.55	40.35
594.887	40.5
595.224	39.93
595.561	40.43
595.899	40.61
596.236	40.68
596.573	40.42
596.91	40.59
597.247	40.62
597.584	40.42
597.921	40.34
598.258	40.62
598.594	40.52
598.931	40.55
599.268	40.49
599.604	40.62
599.941	40.55
600.277	40.67
600.614	41.41
600.95	40.92
601.287	41.15
601.623	41.3
601.959	41.33
602.296	41.63
602.632	41.64
602.968	41.31
603.304	41.46
603.64	41.26
603.976	41.66
604.312	41.66
604.648	41.88
604.984	41.72
605.319	41.63
605.655	41.25
605.991	41.63
606.326	41.57
606.662	41.5
606.998	41.41
607.333	41.35
607.668	41.69
608.004	41.66
608.339	41.8
608.674	41.8
609.01	42.05
609.345	42.43
609.68	42.15
610.015	42.25
610.35	42.2
610.685	42.54
611.02	42.27
611.355	42.28
611.689	42.08
612.024	42.41
612.359	42.65
612.694	42.43
613.028	42.84
613.363	42.48
613.697	42.62
614.032	42.96
614.366	42.91
614.7	43.39
615.035	43.15
615.369	42.92
615.703	43.15
616.037	43.15
616.371	43.1
616.705	43.07
617.039	43.43
617.373	43.33
617.707	43.46
618.041	43.51
618.375	43.51
618.709	43.29
619.042	43.68
619.376	43.78
619.71	43.56
620.043	43.54
620.377	43.94
620.71	43.59
621.043	43.8
621.377	43.97
621.71	44.11
622.043	43.66
622.376	43.86
622.709	44.25
623.043	43.9
623.376	44.02
623.709	43.95
624.041	44.02
624.374	44.26
624.707	44.29
625.04	44.9
625.373	44.32
625.705	44.34
626.038	44.7
626.37	44.52
626.703	44.28
627.035	44.32
627.368	44.63
627.7	44.63
628.032	44.34
628.365	44.5
628.697	44.54
629.029	44.81
629.361	44.56
629.693	45.17
630.025	44.49
630.357	44.68
630.689	45.27
631.021	45.36
631.353	45.2
631.684	44.99
632.016	45.23
632.348	44.98
632.679	45.12
633.011	45.22
633.342	45.69
633.674	45.6
634.005	45.28
634.336	45.9
634.668	45.15
634.999	45.29
635.33	45.86
635.661	45.86
635.992	45.36
636.323	45.9
636.654	45.89
636.985	45.47
637.316	46.05
637.647	45.93
637.977	46.18
638.308	45.97
638.639	45.73
638.969	45.97
639.3	45.79
639.63	45.41
639.961	46.12
640.291	46.62
640.622	46.02
640.952	46.13
641.282	46.34
641.612	46.32
641.943	46.74
642.273	46.09
642.603	46.6
642.933	46.74
643.263	46.18
643.592	46.44
643.922	46.39
644.252	46.91
644.582	47.15
644.911	47.44
645.241	46.89
645.571	47.15
645.9	47.19
646.23	47.6
646.559	47.26
646.888	47.07
647.218	46.96
647.547	47.2
647.876	47.08
648.205	47.13
648.534	47.19
648.863	47.6
649.192	47.77
649.521	47.23
649.85	47.06
650.179	47.26
650.508	47.81
650.837	47.39
651.165	47.62
651.494	47.27
651.822	47.76
652.151	47.8
652.479	47.99
652.808	47.4
653.136	48.33
653.465	47.03
653.793	47.84
654.121	48.31
654.449	48.14
654.777	48.34
655.105	48.17
655.433	48.51
655.761	47.75
656.089	48.46
656.417	48.21
656.745	47.93
657.073	48.43
657.4	48.31
657.728	48.12
658.056	48.26
658.383	48.66
658.711	48.45
659.038	48.66
659.365	48.28
659.693	48.09
660.02	48.35
660.347	48.43
660.674	48.56
661.001	48.52
661.329	48.62
661.656	48.31
661.982	48.6
662.309	48.6
662.636	48.43
662.963	49.01
663.29	48.58
663.616	48.95
663.943	48.67
664.27	48.84
664.596	48.92
664.923	49.78
665.249	49.37
665.576	48.44
665.902	48.6
666.228	48.56
666.554	49.02
666.881	49.5
667.207	48.81
667.533	49.22
667.859	48.88
668.185	49.75
668.511	49.58
668.837	49.2
669.162	49.25
669.488	49.54
669.814	49.09
670.139	49.95
670.465	49.47
670.791	49.89
671.116	49.68
