Data from 0074_chest_Reflection__1__345.txt Node

Date: Fri Dec 16 16:49:49 CST 2022
User: ToomeyLab
Spectrometer: FLMS14357
Trigger mode: 0
Integration Time (sec): 1.000000E-2
Scans to average: 100
Electric dark correction enabled: true
Nonlinearity correction enabled: false
Boxcar width: 0
XAxis mode: Wavelengths
Number of Pixels in Spectrum: 2048
>>>>>Begin Spectral Data<<<<<
189.047	-89.76
189.435	-89.76
189.823	-89.76
190.211	43.27
190.599	-423.22
190.987	-359.32
191.375	115.11
191.763	685.39
192.151	149.02
192.538	882.03
192.926	298.45
193.314	139.38
193.702	-61.08
194.089	22.74
194.477	38.35
194.864	19.37
195.252	-31.15
195.639	168.35
196.027	47.58
196.414	46.18
196.801	53.55
197.189	145.91
197.576	3536
197.963	-592.22
198.351	5.71
198.738	-55.84
199.125	57.65
199.512	-35.12
199.899	-39.28
200.286	-34.18
200.673	47.67
201.06	25.75
201.447	30.59
201.833	5.75
202.22	23.86
202.607	-27.68
202.994	25.65
203.38	-246.28
203.767	-17.49
204.154	-45.83
204.54	32.97
204.927	30.01
205.313	29.24
205.699	6.37
206.086	19.18
206.472	-4.07
206.858	43.49
207.245	21.77
207.631	-9.7
208.017	31.12
208.403	5.94
208.789	-13.45
209.175	14.17
209.561	-10.53
209.947	-34.39
210.333	-0.12
210.719	-52.91
211.105	-28.74
211.491	-36.54
211.876	11.07
212.262	-57.87
212.648	-66.24
213.034	10.61
213.419	18.19
213.805	-16.12
214.19	-35.11
214.576	-29.99
214.961	-7.2
215.346	-54.1
215.732	-3.11
216.117	5.45
216.502	-10.57
216.888	-41.08
217.273	-1.47
217.658	-72.76
218.043	-7.84
218.428	-12.58
218.813	3.93
219.198	-35.7
219.583	-9.95
219.968	-5.49
220.353	-16.9
220.738	5.66
221.122	6
221.507	-4.36
221.892	3.67
222.276	1.23
222.661	-10.55
223.046	-4.68
223.43	-4.86
223.815	1.65
224.199	11.69
224.583	0.13
224.968	17.25
225.352	0.95
225.736	1.58
226.121	-11.73
226.505	-3.16
226.889	8.31
227.273	3.19
227.657	-0.21
228.041	10.17
228.425	6.16
228.809	6.05
229.193	3.86
229.577	5.63
229.961	5.17
230.344	5.81
230.728	5.93
231.112	6
231.495	6.03
231.879	5.6
232.263	2.9
232.646	2.96
233.03	2.81
233.413	5.91
233.797	7.35
234.18	0.73
234.563	4.12
234.946	6.11
235.33	5.25
235.713	4.3
236.096	4.13
236.479	4.9
236.862	5.8
237.245	6.01
237.628	4.34
238.011	5.31
238.394	6.17
238.777	5.86
239.16	2.64
239.543	2.98
239.925	4.75
240.308	5.21
240.691	3.99
241.073	4.8
241.456	4.42
241.838	5.57
242.221	6.25
242.603	5.78
242.986	6.09
243.368	5.54
243.75	4.94
244.133	5.57
244.515	5.54
244.897	4.98
245.279	4.89
245.661	4.96
246.043	4.34
246.425	5.07
246.807	4.28
247.189	5.18
247.571	5.84
247.953	5.57
248.335	5.6
248.717	5.41
249.098	5.51
249.48	5.51
249.862	5.28
250.243	4.83
250.625	4.97
251.006	5.17
251.388	5.44
251.769	4.61
252.151	5.3
252.532	4.39
252.913	5.29
253.295	5.22
253.676	5.71
254.057	4.97
254.438	4.65
254.819	4.75
255.2	4.96
255.581	4.12
255.962	3.86
256.343	5.03
256.724	4.82
257.105	6.75
257.486	5.04
257.867	2.75
258.247	5.06
258.628	5.52
259.009	5
259.389	5.19
259.77	4.7
260.15	5.87
260.531	5.22
260.911	5.2
261.292	4.99
261.672	5.09
262.052	4.95
262.432	5.12
262.813	4.98
263.193	4.67
263.573	4.7
263.953	5.06
264.333	4.66
264.713	4.85
265.093	4.66
265.473	6.02
265.853	4.53
266.233	4.95
266.612	4.17
266.992	5.15
267.372	4.94
267.752	4.63
268.131	4.7
268.511	5.26
268.89	5.49
269.27	5.3
269.649	5.51
270.029	4.94
270.408	4.93
270.787	4.31
271.167	4.51
271.546	4.65
271.925	4.27
272.304	4.72
272.683	4.79
273.062	4.92
273.441	5.13
273.82	4.89
274.199	5.36
274.578	4.73
274.957	5.03
275.336	4.46
275.715	4.97
276.093	4.8
276.472	4.92
276.851	4.81
277.229	5.24
277.608	4.5
277.986	4.59
278.365	4.66
278.743	4.73
279.122	4.25
279.5	4.29
279.878	4.25
280.257	5.05
280.635	4.18
281.013	4.86
281.391	4.49
281.769	4.93
282.147	4.99
282.525	4.68
282.903	4.74
283.281	4.57
283.659	4.29
284.037	4.09
284.415	4.77
284.792	4.93
285.17	4.74
285.548	4.71
285.925	4.75
286.303	4.22
286.68	4.79
287.058	4.85
287.435	4.53
287.813	4.98
288.19	5.02
288.567	4.68
288.945	4.68
289.322	4.54
289.699	5.08
290.076	4.83
290.453	4.53
290.83	5.13
291.207	4.53
291.584	4.37
291.961	4.9
292.338	4.81
292.715	5.11
293.092	4.73
293.469	4.92
293.845	5.11
294.222	4.41
294.599	5.61
294.975	4.68
295.352	5.07
295.728	4.81
296.105	4.89
296.481	5.18
296.858	5.36
297.234	4.99
297.61	5.05
297.986	5
298.363	4.59
298.739	5.14
299.115	4.62
299.491	4.8
299.867	5.15
300.243	4.9
300.619	4.93
300.995	4.53
301.371	4.94
301.746	4.67
302.122	4.9
302.498	5.21
302.874	4.83
303.249	5.38
303.625	5.04
304	4.28
304.376	4.9
304.751	4.15
305.127	4.98
305.502	5.03
305.878	4.86
306.253	5.03
306.628	5.42
307.003	5.17
307.378	4.46
307.754	5.12
308.129	5.22
308.504	4.53
308.879	4.92
309.254	4.98
309.629	4.75
310.003	5.16
310.378	4.92
310.753	4.78
311.128	5.15
311.502	4.95
311.877	5.18
312.252	4.91
312.626	4.6
313.001	5.04
313.375	5.34
313.75	4.81
314.124	5.48
314.498	5.12
314.873	4.96
315.247	4.66
315.621	5.27
315.995	5.21
316.369	5.26
316.743	5.33
317.117	5.2
317.491	5.16
317.865	4.79
318.239	4.96
318.613	4.93
318.987	4.66
319.361	5.04
319.734	4.96
320.108	5.34
320.482	4.9
320.855	4.81
321.229	5.62
321.602	5.01
321.976	5.14
322.349	4.94
322.723	4.39
323.096	4.76
323.469	4.43
323.843	4.83
324.216	4.21
324.589	5.69
324.962	4.97
325.335	4.9
325.708	5.04
326.081	5.4
326.454	5.45
326.827	5.02
327.2	5.81
327.573	5.09
327.945	5.12
328.318	4.95
328.691	4.6
329.063	4.99
329.436	5.15
329.809	4.55
330.181	5.43
330.553	5.37
330.926	5.12
331.298	4.75
331.671	5.65
332.043	4.88
332.415	5.12
332.787	5.16
333.159	4.97
333.532	5.33
333.904	4.85
334.276	5.22
334.648	4.8
335.02	4.86
335.391	5.5
335.763	5.31
336.135	4.97
336.507	4.95
336.879	4.79
337.25	5.17
337.622	5.35
337.993	5.04
338.365	5.01
338.736	5.45
339.108	5.14
339.479	4.78
339.851	5.46
340.222	5.16
340.593	4.83
340.964	5.35
341.336	4.96
341.707	4.98
342.078	4.49
342.449	5.57
342.82	5.1
343.191	4.96
343.562	5.08
343.933	5.24
344.303	5.12
344.674	5.05
345.045	5.77
345.416	5.22
345.786	4.64
346.157	5.03
346.527	4.75
346.898	5.11
347.268	4.82
347.639	5.33
348.009	5.43
348.38	5.09
348.75	5.35
349.12	4.85
349.49	4.92
349.861	5.3
350.231	5.12
350.601	4.95
350.971	5.12
351.341	5.21
351.711	4.98
352.081	5.37
352.45	4.95
352.82	5.26
353.19	5.02
353.56	5.2
353.929	4.94
354.299	4.76
354.669	5.22
355.038	5.21
355.408	5.49
355.777	5.16
356.147	5.36
356.516	5.51
356.885	5.01
357.254	5.43
357.624	5.19
357.993	5
358.362	5.3
358.731	5.13
359.1	5.52
359.469	5.46
359.838	5.3
360.207	5.18
360.576	5.37
360.945	4.97
361.314	5.17
361.682	5.17
362.051	5.14
362.42	5.48
362.788	5.33
363.157	5.34
363.525	5.25
363.894	5.07
364.262	5.34
364.631	5.95
364.999	5.31
365.367	5.61
365.735	4.93
366.104	5.23
366.472	5.54
366.84	5.17
367.208	4.83
367.576	5.29
367.944	5.56
368.312	5.26
368.68	5.31
369.048	5.24
369.416	5.21
369.783	5.26
370.151	5.25
370.519	5.07
370.886	5.07
371.254	5.36
371.621	5.33
371.989	5.39
372.356	5.13
372.724	5.26
373.091	5.35
373.458	5.29
373.826	5.18
374.193	5.88
374.56	5.27
374.927	5.21
375.294	5.68
375.661	5.47
376.028	5.46
376.395	5.42
376.762	5.66
377.129	5.68
377.496	5.32
377.863	5.38
378.229	5.42
378.596	5.38
378.963	5.04
379.329	5.14
379.696	5.34
380.062	5.41
380.429	5.48
380.795	5.43
381.161	5.48
381.528	5.07
381.894	5.4
382.26	5.51
382.626	5.35
382.993	5.15
383.359	5.3
383.725	5.49
384.091	5.47
384.457	5.79
384.823	5.54
385.188	5.8
385.554	5.82
385.92	5.88
386.286	5.66
386.651	5.58
387.017	5.59
387.383	5.66
387.748	5.58
388.114	5.63
388.479	5.59
388.845	5.45
389.21	5.73
389.575	5.65
389.94	5.16
390.306	5.37
390.671	5.42
391.036	5.57
391.401	5.92
391.766	5.61
392.131	5.56
392.496	5.68
392.861	5.42
393.226	5.62
393.591	5.62
393.956	5.67
394.32	5.65
394.685	5.77
395.05	5.56
395.414	5.55
395.779	5.49
396.143	5.67
396.508	5.56
396.872	5.67
397.236	5.34
397.601	5.43
397.965	5.26
398.329	5.79
398.694	5.26
399.058	5.64
399.422	5.68
399.786	5.64
400.15	5.71
400.514	5.83
400.878	5.31
401.242	5.85
401.605	5.38
401.969	5.51
402.333	5.49
402.697	5.89
403.06	5.96
403.424	5.6
403.787	6.01
404.151	5.54
404.514	5.47
404.878	5.55
405.241	5.48
405.604	5.65
405.968	5.52
406.331	5.92
406.694	5.44
407.057	6.06
407.42	5.64
407.783	5.53
408.146	5.72
408.509	5.48
408.872	5.53
409.235	5.55
409.598	6.02
409.961	5.67
410.323	5.8
410.686	5.47
411.049	5.49
411.411	5.84
411.774	5.61
412.136	5.72
412.499	5.65
412.861	5.7
413.223	5.8
413.586	5.47
413.948	5.79
414.31	5.77
414.672	5.47
415.035	5.77
415.397	5.77
415.759	5.72
416.121	6.11
416.483	5.96
416.845	5.83
417.206	5.64
417.568	5.87
417.93	5.56
418.292	5.86
418.653	5.85
419.015	5.83
419.377	5.87
419.738	5.79
420.1	5.65
420.461	5.65
420.822	5.74
421.184	5.77
421.545	5.62
421.906	5.7
422.267	5.57
422.629	5.64
422.99	5.66
423.351	5.58
423.712	5.76
424.073	5.85
424.434	5.64
424.795	5.66
425.155	5.73
425.516	5.68
425.877	5.71
426.238	5.66
426.598	5.61
426.959	5.71
427.32	5.84
427.68	5.73
428.041	5.84
428.401	5.78
428.761	5.78
429.122	5.7
429.482	5.69
429.842	5.79
430.202	5.74
430.563	5.89
430.923	5.68
431.283	6.01
431.643	5.81
432.003	5.84
432.363	6
432.722	5.99
433.082	5.78
433.442	5.94
433.802	5.85
434.161	5.89
434.521	5.92
434.881	6.02
435.24	5.86
435.6	5.87
435.959	5.93
436.319	5.88
436.678	5.98
437.037	5.89
437.396	5.96
437.756	5.84
438.115	6.14
438.474	6.01
438.833	6.09
439.192	6.17
439.551	5.88
439.91	6.07
440.269	6.08
440.628	6
440.987	5.96
441.345	6.05
441.704	5.94
442.063	5.82
442.421	5.99
442.78	5.75
443.138	5.99
443.497	5.86
443.855	6.04
444.214	5.92
444.572	5.97
444.93	6
445.288	6.06
445.647	6.12
446.005	5.95
446.363	6.06
446.721	5.93
447.079	5.95
447.437	5.81
447.795	5.94
448.153	5.89
448.51	5.84
448.868	5.92
449.226	6
449.584	5.99
449.941	5.97
450.299	5.94
450.656	6.07
451.014	6.03
451.371	6.04
451.729	6.23
452.086	5.94
452.443	5.91
452.801	6.05
453.158	6.06
453.515	6
453.872	6.18
454.229	6
454.586	6.07
454.943	6.07
455.3	6.28
455.657	6.16
456.014	6.1
456.371	6.27
456.727	6.02
457.084	6.06
457.441	6.09
457.797	6.18
458.154	6.15
458.51	6.06
458.867	6.03
459.223	6.11
459.58	6.29
459.936	6.15
460.292	6.09
460.648	5.97
461.005	6
461.361	6.08
461.717	6.02
462.073	6.04
462.429	6.16
462.785	6.07
463.141	6.24
463.496	6.17
463.852	6.41
464.208	6.12
464.564	6.12
464.919	6.18
465.275	6.15
465.631	6.26
465.986	6
466.342	6.29
466.697	6.19
467.052	6.35
467.408	6.21
467.763	5.96
468.118	6.28
468.473	6.3
468.829	6.19
469.184	6.22
469.539	6.04
469.894	6.22
470.249	6.35
470.603	6.33
470.958	6.35
471.313	6.12
471.668	6.3
472.023	6.45
472.377	6.28
472.732	6.18
473.086	6.21
473.441	6.29
473.795	6.49
474.15	6.33
474.504	6.28
474.859	6.23
475.213	6.26
475.567	6.32
475.921	6.27
476.275	6.28
476.63	6.31
476.984	6.33
477.338	6.63
477.692	6.46
478.045	6.24
478.399	6.32
478.753	6.15
479.107	6.28
479.461	6.44
479.814	6.36
480.168	6.32
480.521	6.31
480.875	6.41
481.228	6.4
481.582	6.28
481.935	6.34
482.289	6.25
482.642	6.43
482.995	6.35
483.348	6.3
483.701	6.29
484.055	6.27
484.408	6.22
484.761	6.1
485.114	6.06
485.466	6.05
485.819	6.01
486.172	6.05
486.525	6.07
486.878	6.11
487.23	6.28
487.583	6.32
487.936	6.29
488.288	6.23
488.641	6.23
488.993	6.12
489.345	6.2
489.698	6.23
490.05	6.16
490.402	6.27
490.754	6.34
491.107	6.42
491.459	6.4
491.811	6.4
492.163	6.49
492.515	6.31
492.866	6.26
493.218	6.29
493.57	6.24
493.922	6.25
494.274	6.37
494.625	6.46
494.977	6.37
495.328	6.43
495.68	6.73
496.031	6.64
496.383	6.53
496.734	6.6
497.086	6.52
497.437	6.7
497.788	6.54
498.139	6.55
498.49	6.53
498.842	6.55
499.193	6.55
499.544	6.78
499.894	6.67
500.245	6.67
500.596	6.65
500.947	6.67
501.298	6.62
501.648	6.7
501.999	6.81
502.35	6.85
502.7	6.64
503.051	6.66
503.401	6.75
503.752	6.76
504.102	6.81
504.452	6.66
504.803	6.61
505.153	6.73
505.503	6.72
505.853	6.76
506.203	6.67
506.553	6.75
506.903	6.7
507.253	6.79
507.603	6.81
507.953	6.96
508.303	6.89
508.652	6.84
509.002	6.67
509.352	6.92
509.701	6.92
510.051	6.96
510.4	6.89
510.75	6.82
511.099	6.83
511.449	6.79
511.798	6.99
512.147	6.82
512.496	6.82
512.846	6.86
513.195	7.05
513.544	6.85
513.893	6.85
514.242	6.97
514.591	6.95
514.939	6.83
515.288	7.08
515.637	6.89
515.986	6.88
516.334	7.08
516.683	6.91
517.032	6.96
517.38	7.06
517.729	7.02
518.077	7.14
518.426	6.95
518.774	7.03
519.122	6.94
519.47	6.93
519.819	6.9
520.167	6.92
520.515	6.93
520.863	6.99
521.211	6.98
521.559	7.05
521.907	7.21
522.255	7.16
522.602	7.12
522.95	7.14
523.298	7.06
523.645	7.15
523.993	7.27
524.341	7.27
524.688	7.2
525.036	7.39
525.383	7.3
525.73	7.27
526.078	7.33
526.425	7.28
526.772	7.07
527.119	7.14
527.466	7.15
527.814	7.11
528.161	7.16
528.508	7.2
528.854	7.07
529.201	7.19
529.548	7.14
529.895	7.06
530.242	7.05
530.588	7.03
530.935	7
531.282	7.06
531.628	7.15
531.975	7.19
532.321	7.28
532.667	7.3
533.014	7.34
533.36	7.39
533.706	7.4
534.052	7.25
534.399	7.23
534.745	7.25
535.091	7.29
535.437	7.36
535.783	7.34
536.129	7.38
536.474	7.48
536.82	7.4
537.166	7.51
537.512	7.52
537.857	7.54
538.203	7.53
538.549	7.56
538.894	7.41
539.239	7.6
539.585	7.72
539.93	7.65
540.276	7.69
540.621	7.61
540.966	7.75
541.311	7.82
541.656	7.71
542.001	7.88
542.346	7.63
542.691	7.57
543.036	7.56
543.381	7.56
543.726	7.53
544.071	7.68
544.415	7.67
544.76	7.57
545.105	7.8
545.449	7.8
545.794	7.83
546.138	7.86
546.483	7.95
546.827	7.87
547.171	7.94
547.516	8.07
547.86	8.02
548.204	7.97
548.548	8.12
548.892	7.99
549.236	8.13
549.58	8.11
549.924	8.03
550.268	8.15
550.612	8.26
550.956	8.16
551.3	8.22
551.643	8.18
551.987	8.21
552.33	8.11
552.674	8.38
553.017	8.34
553.361	8.34
553.704	8.34
554.048	8.39
554.391	8.39
554.734	8.5
555.077	8.41
555.42	8.54
555.764	8.42
556.107	8.56
556.45	8.34
556.793	8.69
557.135	8.66
557.478	8.84
557.821	8.54
558.164	8.74
558.507	8.58
558.849	8.51
559.192	8.9
559.534	8.53
559.877	8.83
560.219	8.81
560.562	8.89
560.904	8.87
561.246	8.83
561.589	8.87
561.931	8.96
562.273	8.8
562.615	8.98
562.957	9
563.299	9.09
563.641	8.9
563.983	9.02
564.325	8.89
564.667	9.02
565.008	8.92
565.35	9.19
565.692	9.16
566.033	9.14
566.375	9.22
566.716	9.07
567.058	9.28
567.399	9.14
567.741	9.45
568.082	9.16
568.423	9.18
568.764	9.24
569.105	9.39
569.447	9.27
569.788	9.26
570.129	9.37
570.47	9.43
570.811	9.59
571.151	9.25
571.492	9.41
571.833	9.39
572.174	9.44
572.514	9.58
572.855	9.61
573.195	9.51
573.536	9.52
573.876	9.54
574.217	9.74
574.557	9.63
574.898	9.76
575.238	9.61
575.578	9.79
575.918	9.67
576.258	9.8
576.598	9.93
576.938	9.97
577.278	9.83
577.618	9.85
577.958	9.91
578.298	10.26
578.638	10.11
578.977	10.31
579.317	10.27
579.657	10.18
579.996	10.15
580.336	10.05
580.675	10.07
581.014	10.26
581.354	10.37
581.693	10.31
582.032	10.12
582.372	10.39
582.711	10.49
583.05	10.46
583.389	10.56
583.728	10.5
584.067	10.53
584.406	10.57
584.745	10.56
585.083	10.85
585.422	10.61
585.761	10.71
586.1	10.89
586.438	10.93
586.777	10.65
587.115	10.84
587.454	10.7
587.792	10.87
588.13	11.12
588.469	10.88
588.807	11.19
589.145	11.01
589.483	10.99
589.821	11.11
590.159	11.06
590.497	10.96
590.835	11.16
591.173	11.15
591.511	11.02
591.849	11.25
592.187	11.18
592.524	11.25
592.862	11.35
593.2	11.25
593.537	11.24
593.875	11.19
594.212	11.33
594.55	11.4
594.887	11.64
595.224	11.26
595.561	11.36
595.899	11.42
596.236	11.57
596.573	11.56
596.91	11.71
597.247	11.58
597.584	11.89
597.921	11.67
598.258	11.86
598.594	11.55
598.931	11.66
599.268	11.61
599.604	11.69
599.941	11.76
600.277	11.89
600.614	11.97
600.95	11.83
601.287	11.95
601.623	12.16
601.959	12.06
602.296	12.21
602.632	12.49
602.968	12.15
603.304	12.08
603.64	12.34
603.976	12.39
604.312	12.52
604.648	12.59
604.984	12.31
605.319	12.4
605.655	12.41
605.991	12.57
606.326	12.35
606.662	12.53
606.998	12.42
607.333	12.37
607.668	12.71
608.004	12.51
608.339	12.6
608.674	13.18
609.01	12.97
609.345	13.11
609.68	12.83
610.015	13.1
610.35	12.75
610.685	13.08
611.02	13.04
611.355	13.02
611.689	12.83
612.024	13.17
612.359	13.29
612.694	13.12
613.028	13.48
613.363	12.88
613.697	12.87
614.032	13.63
614.366	13.28
614.7	13.96
615.035	13.17
615.369	13.3
615.703	14
616.037	13.57
616.371	13.56
616.705	13.61
617.039	13.94
617.373	13.17
617.707	13.73
618.041	14.1
618.375	13.51
618.709	13.58
619.042	14.09
619.376	13.91
619.71	13.71
620.043	13.96
620.377	13.84
620.71	14.11
621.043	13.68
621.377	13.59
621.71	14.14
622.043	14.26
622.376	13.86
622.709	14.16
623.043	14.1
623.376	14.39
623.709	14.42
624.041	14.32
624.374	14.11
624.707	14.48
625.04	14.55
625.373	14.51
625.705	14.39
626.038	14.46
626.37	14.76
626.703	14.43
627.035	14.55
627.368	14.54
627.7	14.46
628.032	14.87
628.365	14.47
628.697	14.81
629.029	14.95
629.361	14.79
629.693	14.89
630.025	14.71
630.357	14.78
630.689	15.38
631.021	15.01
631.353	15.15
631.684	15.39
632.016	15.1
632.348	15.1
632.679	15.05
633.011	15.21
633.342	15.22
633.674	15.32
634.005	15.42
634.336	15.44
634.668	15.21
634.999	15.67
635.33	15.42
635.661	15.58
635.992	15.31
636.323	15.54
636.654	15.86
636.985	15.37
637.316	15.77
637.647	16.28
637.977	15.82
638.308	15.86
638.639	15.77
638.969	15.98
639.3	16.17
639.63	15.83
639.961	15.82
640.291	16.21
640.622	16.17
640.952	16.08
641.282	16.08
641.612	16.3
641.943	16.59
642.273	16.33
642.603	16.38
642.933	16.53
643.263	16.38
643.592	16.6
643.922	16.68
644.252	16.64
644.582	16.59
644.911	17.1
645.241	16.55
645.571	16.94
645.9	16.66
646.23	16.86
646.559	17.06
646.888	16.25
647.218	16.94
647.547	17.4
647.876	17.41
648.205	17.1
648.534	17.25
648.863	17.35
649.192	16.98
649.521	16.58
649.85	17.51
650.179	16.85
650.508	17.76
650.837	17.25
651.165	17.56
651.494	16.97
651.822	17.6
652.151	17.79
652.479	17.85
652.808	17.29
653.136	17.42
653.465	17.73
653.793	18.09
654.121	17.87
654.449	17.48
654.777	17.7
655.105	18.07
655.433	17.94
655.761	17.41
656.089	18.14
656.417	17.86
656.745	18.16
657.073	18.1
657.4	18.2
657.728	17.69
658.056	17.86
658.383	18.57
658.711	18.46
659.038	18.88
659.365	17.96
659.693	18.37
660.02	17.91
660.347	18.49
660.674	18.27
661.001	18.5
661.329	18.73
661.656	18.4
661.982	18.8
662.309	18.67
662.636	18.32
662.963	18.62
663.29	18.54
663.616	18.8
663.943	19.17
664.27	18.29
664.596	18.65
664.923	19
665.249	19.17
665.576	18.86
665.902	18.79
666.228	18.94
666.554	18.79
666.881	19.34
667.207	19.11
667.533	19.6
667.859	18.8
668.185	19.32
668.511	19.36
668.837	18.77
669.162	18.86
669.488	19.56
669.814	20.26
670.139	20.06
670.465	19.66
670.791	19.9
671.116	19.66
671.442	20.23
671.767	19.48
672.092	19.66
672.418	20.02
672.743	19.92
673.068	19.99
673.393	20.23
673.718	19.49
674.043	19.34
674.368	20.27
674.693	19.99
675.018	20.1
675.343	20.21
675.667	19.97
675.992	19.6
676.317	20.07
676.641	20.13
676.966	20.69
677.29	20.38
677.615	20.64
677.939	19.9
678.264	21.17
678.588	20.35
678.912	20.79
679.236	21.02
679.56	20.24
679.885	20.59
680.209	20.41
680.532	20.21
680.856	20.93
681.18	20.87
681.504	20.59
681.828	20.34
682.152	20.37
682.475	20.77
682.799	21.15
683.122	21.22
683.446	21.1
683.769	21.09
684.093	21.61
684.416	21.05
684.739	20.84
