Data from 0074_crown_Reflection__4__353.txt Node

Date: Fri Dec 16 16:52:08 CST 2022
User: ToomeyLab
Spectrometer: FLMS14357
Trigger mode: 0
Integration Time (sec): 1.000000E-2
Scans to average: 100
Electric dark correction enabled: true
Nonlinearity correction enabled: false
Boxcar width: 0
XAxis mode: Wavelengths
Number of Pixels in Spectrum: 2048
>>>>>Begin Spectral Data<<<<<
189.047	-267.38
189.435	-267.38
189.823	-267.38
190.211	83.29
190.599	-399.47
190.987	-477.97
191.375	5.5
191.763	404.37
192.151	309.18
192.538	649.62
192.926	403.1
193.314	169.59
193.702	134.62
194.089	-17.49
194.477	168.29
194.864	681.68
195.252	-125.09
195.639	142.94
196.027	6.56
196.414	-99.38
196.801	179.27
197.189	155.03
197.576	-696
197.963	-294.28
198.351	-21.81
198.738	-31.41
199.125	32.22
199.512	-20.98
199.899	-10.24
200.286	-68.72
200.673	63.76
201.06	22.19
201.447	7.53
201.833	-9.48
202.22	-18.36
202.607	-11.3
202.994	-46.15
203.38	-206.01
203.767	-30.98
204.154	-49.4
204.54	-20.98
204.927	16.07
205.313	25.74
205.699	-23.57
206.086	-27.65
206.472	-8.29
206.858	-8.78
207.245	-25.43
207.631	-37.45
208.017	11.74
208.403	17.81
208.789	-7.14
209.175	27.35
209.561	-37.78
209.947	-74.07
210.333	-24.93
210.719	-0.7
211.105	-57.7
211.491	-24.85
211.876	-31.55
212.262	-65.74
212.648	-71.21
213.034	-33.37
213.419	32.81
213.805	3.7
214.19	-24.28
214.576	-46.53
214.961	-23.2
215.346	-27.88
215.732	-33.05
216.117	-32.42
216.502	-32.26
216.888	-25.1
217.273	-32.86
217.658	-38.56
218.043	-45.5
218.428	-36.35
218.813	-24.23
219.198	-67.83
219.583	-12.82
219.968	-38.25
220.353	26.18
220.738	-13.41
221.122	-6.42
221.507	1.09
221.892	-7.01
222.276	-7.89
222.661	-12.64
223.046	6.59
223.43	-9.87
223.815	6.35
224.199	-2.38
224.583	2.41
224.968	0.44
225.352	-9.95
225.736	-3.03
226.121	-9.87
226.505	-7.61
226.889	5.71
227.273	-0.96
227.657	-5.14
228.041	2.58
228.425	0.64
228.809	1.24
229.193	-2.95
229.577	1.55
229.961	1.49
230.344	2.13
230.728	1.93
231.112	1.29
231.495	1.27
231.879	0.69
232.263	0.01
232.646	0.91
233.03	0.32
233.413	-0.4
233.797	3.72
234.18	0.47
234.563	0.24
234.946	2.5
235.33	1.47
235.713	1.36
236.096	1.29
236.479	0.19
236.862	0.22
237.245	0.59
237.628	1.83
238.011	1.09
238.394	3.69
238.777	0.11
239.16	0.18
239.543	1.09
239.925	1.48
240.308	1.07
240.691	0.87
241.073	1.1
241.456	0.4
241.838	1.43
242.221	1.29
242.603	1.9
242.986	3.08
243.368	1.62
243.75	1.69
244.133	1.58
244.515	1.43
244.897	1.4
245.279	1.62
245.661	1.21
246.043	2.31
246.425	1.71
246.807	2.27
247.189	1.07
247.571	1.85
247.953	2
248.335	1.84
248.717	2.05
249.098	1.99
249.48	1.76
249.862	1.57
250.243	1.78
250.625	2.13
251.006	1.78
251.388	2.71
251.769	1.81
252.151	1.64
252.532	1.77
252.913	2.38
253.295	1.77
253.676	1.9
254.057	1.34
254.438	0.62
254.819	2.11
255.2	1.31
255.581	0.62
255.962	1.44
256.343	2.47
256.724	1.45
257.105	1.24
257.486	0.69
257.867	-0.69
258.247	1.17
258.628	2.14
259.009	1.44
259.389	2.04
259.77	1.56
260.15	2.25
260.531	1.81
260.911	1.91
261.292	1.78
261.672	1.73
262.052	1.76
262.432	2.05
262.813	2.11
263.193	1.16
263.573	1.32
263.953	1.4
264.333	1.92
264.713	1.28
265.093	0.79
265.473	2.08
265.853	0.85
266.233	0.74
266.612	1.52
266.992	1.01
267.372	1.6
267.752	1.05
268.131	1.64
268.511	1.74
268.89	2.19
269.27	1.91
269.649	1.55
270.029	1.67
270.408	1.55
270.787	1.39
271.167	1.96
271.546	0.79
271.925	2.02
272.304	1.9
272.683	1.72
273.062	1.81
273.441	1.56
273.82	1.95
274.199	1.8
274.578	1.5
274.957	1.76
275.336	1.16
275.715	1.62
276.093	1.91
276.472	2.04
276.851	2.11
277.229	1.93
277.608	1.44
277.986	1.32
278.365	0.69
278.743	1.86
279.122	1.71
279.5	1.58
279.878	1.03
280.257	2
280.635	1.15
281.013	2.03
281.391	1.44
281.769	1.17
282.147	1.9
282.525	1.53
282.903	1.77
283.281	1.63
283.659	1.65
284.037	1.89
284.415	1.91
284.792	1.57
285.17	1.35
285.548	1.28
285.925	1.52
286.303	1.66
286.68	1.75
287.058	1.49
287.435	1.63
287.813	1.4
288.19	2.15
288.567	1.29
288.945	2.01
289.322	1.46
289.699	1.62
290.076	1.9
290.453	1.49
290.83	1.67
291.207	1.89
291.584	1.46
291.961	1.76
292.338	1.57
292.715	2.09
293.092	1.84
293.469	1.96
293.845	1.73
294.222	1.46
294.599	1.94
294.975	1.48
295.352	1.48
295.728	1.57
296.105	1.26
296.481	1.97
296.858	1.61
297.234	1.56
297.61	1.55
297.986	1.64
298.363	1.16
298.739	1.97
299.115	1.19
299.491	1.9
299.867	1.67
300.243	1.55
300.619	1.4
300.995	2
301.371	1.82
301.746	1.61
302.122	1.67
302.498	1.76
302.874	1.71
303.249	1.94
303.625	1.94
304	1.2
304.376	1.35
304.751	1.64
305.127	1.87
305.502	1.81
305.878	1.77
306.253	1.31
306.628	1.71
307.003	1.29
307.378	1.45
307.754	2.01
308.129	1.15
308.504	1.47
308.879	1.65
309.254	2.06
309.629	1.57
310.003	2.2
310.378	1.69
310.753	1.48
311.128	1.47
311.502	1.54
311.877	1.61
312.252	1.65
312.626	1.54
313.001	1.63
313.375	1.68
313.75	2.01
314.124	2.41
314.498	1.23
314.873	1.52
315.247	1.85
315.621	1.31
315.995	1.85
316.369	1.54
316.743	1.78
317.117	1.33
317.491	1.11
317.865	0.93
318.239	1.94
318.613	1.73
318.987	1.74
319.361	1.64
319.734	1.44
320.108	1.48
320.482	1.7
320.855	1.72
321.229	2.46
321.602	1.87
321.976	1.68
322.349	0.9
322.723	1.17
323.096	1.36
323.469	0.7
323.843	1.77
324.216	1.05
324.589	1.76
324.962	1.73
325.335	2.03
325.708	1.85
326.081	1.93
326.454	1.83
326.827	2.33
327.2	2
327.573	2.06
327.945	1.18
328.318	1.55
328.691	1.92
329.063	1.58
329.436	1.52
329.809	1.18
330.181	1.66
330.553	1.95
330.926	1.54
331.298	1.39
331.671	1.61
332.043	1.4
332.415	2.16
332.787	1.86
333.159	1.59
333.532	1.85
333.904	1.84
334.276	1.98
334.648	1.93
335.02	1.68
335.391	1.71
335.763	0.96
336.135	1.41
336.507	2.07
336.879	1.7
337.25	1.57
337.622	2.3
337.993	1.82
338.365	2.23
338.736	2.02
339.108	1.48
339.479	1.15
339.851	1.78
340.222	2.02
340.593	1.57
340.964	1.28
341.336	1.28
341.707	1.63
342.078	1.64
342.449	2.06
342.82	1.58
343.191	1.64
343.562	1.93
343.933	1.81
344.303	1.95
344.674	2.09
345.045	1.84
345.416	1.82
345.786	1.39
346.157	1.88
346.527	1.97
346.898	1.78
347.268	1.47
347.639	1.56
348.009	1.83
348.38	1.57
348.75	1.71
349.12	2
349.49	1.59
349.861	1.99
350.231	1.74
350.601	2.11
350.971	1.92
351.341	1.84
351.711	1.96
352.081	1.82
352.45	1.97
352.82	1.85
353.19	1.82
353.56	1.87
353.929	1.69
354.299	1.72
354.669	1.93
355.038	1.81
355.408	2.33
355.777	1.84
356.147	2.2
356.516	2.12
356.885	1.77
357.254	2.01
357.624	1.8
357.993	1.71
358.362	1.95
358.731	1.94
359.1	2.29
359.469	2.02
359.838	1.8
360.207	1.78
360.576	1.95
360.945	1.91
361.314	2.04
361.682	1.68
362.051	1.67
362.42	1.95
362.788	2.24
363.157	1.63
363.525	1.87
363.894	1.71
364.262	1.63
364.631	2.49
364.999	1.71
365.367	1.82
365.735	1.51
366.104	1.67
366.472	2.18
366.84	1.89
367.208	1.65
367.576	1.55
367.944	2.24
368.312	1.48
368.68	1.78
369.048	1.69
369.416	1.74
369.783	1.81
370.151	1.75
370.519	1.55
370.886	1.88
371.254	1.88
371.621	1.96
371.989	1.99
372.356	2.26
372.724	2.06
373.091	1.99
373.458	2.14
373.826	1.65
374.193	2.61
374.56	1.92
374.927	1.96
375.294	2.3
375.661	1.63
376.028	2.16
376.395	1.72
376.762	1.96
377.129	2.46
377.496	2.03
377.863	1.84
378.229	1.92
378.596	1.96
378.963	1.88
379.329	1.92
379.696	2.12
380.062	2.16
380.429	2.01
380.795	1.74
381.161	1.76
381.528	1.51
381.894	2.06
382.26	1.69
382.626	1.87
382.993	1.89
383.359	1.95
383.725	2.37
384.091	2.32
384.457	2.25
384.823	1.84
385.188	2.2
385.554	1.99
385.92	1.93
386.286	2.02
386.651	1.79
387.017	2.27
387.383	1.63
387.748	1.9
388.114	2.14
388.479	1.98
388.845	1.89
389.21	2.11
389.575	1.95
389.94	1.93
390.306	1.94
390.671	1.98
391.036	2.26
391.401	2.32
391.766	2.12
392.131	2.05
392.496	1.98
392.861	2.01
393.226	2.06
393.591	2.08
393.956	2.07
394.32	1.91
394.685	1.98
395.05	1.86
395.414	2.06
395.779	1.93
396.143	2.18
396.508	2.13
396.872	2.21
397.236	1.63
397.601	2.1
397.965	1.8
398.329	2.02
398.694	1.99
399.058	2.16
399.422	2.13
399.786	1.96
400.15	1.95
400.514	2.25
400.878	2.24
401.242	2.28
401.605	2
401.969	2.1
402.333	1.88
402.697	2.33
403.06	2.16
403.424	1.97
403.787	2.3
404.151	1.83
404.514	2.06
404.878	1.91
405.241	2.07
405.604	2.24
405.968	1.98
406.331	2.03
406.694	1.9
407.057	2.4
407.42	2.13
407.783	1.93
408.146	1.99
408.509	1.9
408.872	1.78
409.235	2.1
409.598	2.21
409.961	2.18
410.323	2.14
410.686	1.84
411.049	2.09
411.411	2.16
411.774	2.03
412.136	2.15
412.499	1.95
412.861	1.88
413.223	2.21
413.586	1.9
413.948	2.18
414.31	2.16
414.672	1.92
415.035	2.11
415.397	2.05
415.759	1.86
416.121	2.26
416.483	2.34
416.845	2.16
417.206	2.24
417.568	2.28
417.93	2.05
418.292	2.26
418.653	2.18
419.015	2.15
419.377	2.29
419.738	2.01
420.1	2.14
420.461	2.05
420.822	2.11
421.184	2.11
421.545	2.04
421.906	2.09
422.267	2.04
422.629	2.16
422.99	2.14
423.351	2.15
423.712	2.17
424.073	2.25
424.434	2.18
424.795	2.11
425.155	2.19
425.516	2.06
425.877	2.16
426.238	2.11
426.598	2.16
426.959	2.05
427.32	2.18
427.68	2.16
428.041	2.23
428.401	2.15
428.761	2.08
429.122	1.97
429.482	2.15
429.842	2.13
430.202	1.99
430.563	2.11
430.923	2.06
431.283	2.11
431.643	2.18
432.003	2.13
432.363	2.28
432.722	2.06
433.082	2.11
433.442	2.14
433.802	2.03
434.161	2.07
434.521	2.18
434.881	2.27
435.24	2.16
435.6	2.14
435.959	2.13
436.319	2.13
436.678	2.3
437.037	2.28
437.396	2.35
437.756	2.15
438.115	2.23
438.474	2.17
438.833	2.21
439.192	2.36
439.551	2.25
439.91	2.24
440.269	2.28
440.628	2.2
440.987	2.13
441.345	2.12
441.704	2.15
442.063	2.16
442.421	2.21
442.78	2.21
443.138	2.12
443.497	2.08
443.855	2.15
444.214	2.39
444.572	2.14
444.93	2.24
445.288	2.16
445.647	2.24
446.005	2.01
446.363	2.12
446.721	1.96
447.079	2.23
447.437	2.23
447.795	2.12
448.153	2.14
448.51	2.22
448.868	2.3
449.226	2.19
449.584	2.16
449.941	2.23
450.299	2.22
450.656	2.29
451.014	2.26
451.371	2.22
451.729	2.2
452.086	2.02
452.443	2.19
452.801	2.26
453.158	2.13
453.515	2.07
453.872	2.28
454.229	2.11
454.586	2.19
454.943	2.17
455.3	2.26
455.657	2.12
456.014	2.31
456.371	2.24
456.727	2.15
457.084	2.19
457.441	2.1
457.797	2.27
458.154	2.28
458.51	2.16
458.867	2.14
459.223	2.24
459.58	2.15
459.936	2.11
460.292	2.21
460.648	2.19
461.005	2.13
461.361	2.17
461.717	2.21
462.073	2.22
462.429	2.2
462.785	2.23
463.141	2.31
463.496	2.21
463.852	2.25
464.208	2.19
464.564	2.32
464.919	2.18
465.275	2.19
465.631	2.21
465.986	2.17
466.342	2.23
466.697	2.14
467.052	2.39
467.408	2.3
467.763	2.05
468.118	2.36
468.473	2.46
468.829	2.21
469.184	2.27
469.539	2.18
469.894	2.31
470.249	2.29
470.603	2.17
470.958	2.25
471.313	2.28
471.668	2.36
472.023	2.4
472.377	2.15
472.732	2.14
473.086	2.28
473.441	2.2
473.795	2.52
474.15	2.15
474.504	2.27
474.859	2.19
475.213	2.13
475.567	2.15
475.921	2.39
476.275	2.27
476.63	2.21
476.984	2.19
477.338	2.48
477.692	2.31
478.045	2.19
478.399	2.32
478.753	2.24
479.107	2.27
479.461	2.39
479.814	2.34
480.168	2.29
480.521	2.16
480.875	2.47
481.228	2.22
481.582	2.2
481.935	2.24
482.289	2.2
482.642	2.29
482.995	2.22
483.348	2.17
483.701	2.19
484.055	2.19
484.408	2.28
484.761	2.11
485.114	2.06
485.466	2.11
485.819	2.15
486.172	2.21
486.525	2.25
486.878	2.24
487.23	2.21
487.583	2.17
487.936	2.2
488.288	2.19
488.641	2.17
488.993	2.06
489.345	2.15
489.698	2.21
490.05	2.22
490.402	2.3
490.754	2.27
491.107	2.29
491.459	2.33
491.811	2.31
492.163	2.29
492.515	2.27
492.866	2.07
493.218	2.12
493.57	2.23
493.922	2.19
494.274	2.31
494.625	2.26
494.977	2.26
495.328	2.41
495.68	2.46
496.031	2.3
496.383	2.25
496.734	2.35
497.086	2.28
497.437	2.3
497.788	2.29
498.139	2.37
498.49	2.3
498.842	2.25
499.193	2.21
499.544	2.43
499.894	2.35
500.245	2.23
500.596	2.3
500.947	2.24
501.298	2.24
501.648	2.36
501.999	2.36
502.35	2.44
502.7	2.44
503.051	2.37
503.401	2.32
503.752	2.34
504.102	2.29
504.452	2.29
504.803	2.21
505.153	2.33
505.503	2.26
505.853	2.26
506.203	2.28
506.553	2.37
506.903	2.3
507.253	2.33
507.603	2.32
507.953	2.37
508.303	2.26
508.652	2.28
509.002	2.34
509.352	2.31
509.701	2.27
510.051	2.44
510.4	2.38
510.75	2.26
511.099	2.25
511.449	2.37
511.798	2.42
512.147	2.33
512.496	2.47
512.846	2.34
513.195	2.32
513.544	2.22
513.893	2.12
514.242	2.48
514.591	2.32
514.939	2.29
515.288	2.29
515.637	2.36
515.986	2.28
516.334	2.31
516.683	2.23
517.032	2.25
517.38	2.29
517.729	2.3
518.077	2.37
518.426	2.25
518.774	2.34
519.122	2.32
519.47	2.18
519.819	2.3
520.167	2.34
520.515	2.29
520.863	2.3
521.211	2.34
521.559	2.32
521.907	2.29
522.255	2.41
522.602	2.35
522.95	2.3
523.298	2.28
523.645	2.29
523.993	2.31
524.341	2.34
524.688	2.36
525.036	2.39
525.383	2.34
525.73	2.42
526.078	2.36
526.425	2.36
526.772	2.16
527.119	2.24
527.466	2.26
527.814	2.19
528.161	2.28
528.508	2.22
528.854	2.16
529.201	2.2
529.548	2.17
529.895	2.12
530.242	2.19
530.588	2.24
530.935	2.28
531.282	2.28
531.628	2.28
531.975	2.27
532.321	2.3
532.667	2.26
533.014	2.24
533.36	2.18
533.706	2.34
534.052	2.23
534.399	2.22
534.745	2.16
535.091	2.22
535.437	2.3
535.783	2.35
536.129	2.3
536.474	2.46
536.82	2.28
537.166	2.28
537.512	2.32
537.857	2.33
538.203	2.23
538.549	2.3
538.894	2.31
539.239	2.52
539.585	2.42
539.93	2.32
540.276	2.3
540.621	2.34
540.966	2.3
541.311	2.32
541.656	2.23
542.001	2.24
542.346	2.24
542.691	2.2
543.036	2.2
543.381	2.27
543.726	2.27
544.071	2.38
544.415	2.28
544.76	2.21
545.105	2.3
545.449	2.22
545.794	2.34
546.138	2.49
546.483	2.21
546.827	2.31
547.171	2.29
547.516	2.39
547.86	2.22
548.204	2.36
548.548	2.39
548.892	2.29
549.236	2.38
549.58	2.31
549.924	2.45
550.268	2.36
550.612	2.37
550.956	2.37
551.3	2.37
551.643	2.33
551.987	2.41
552.33	2.34
552.674	2.43
553.017	2.34
553.361	2.25
553.704	2.13
554.048	2.26
554.391	2.43
554.734	2.28
555.077	2.38
555.42	2.44
555.764	2.35
556.107	2.23
556.45	2.15
556.793	2.59
557.135	2.56
557.478	2.44
557.821	2.26
558.164	2.39
558.507	2.35
558.849	2.38
559.192	2.44
559.534	2.14
559.877	2.41
560.219	2.41
560.562	2.33
560.904	2.28
561.246	2.42
561.589	2.46
561.931	2.54
562.273	2.21
562.615	2.49
562.957	2.32
563.299	2.48
563.641	2.52
563.983	2.33
564.325	2.12
564.667	2.38
565.008	2.28
565.35	2.47
565.692	2.47
566.033	2.48
566.375	2.16
566.716	2.39
567.058	2.34
567.399	2.48
567.741	2.43
568.082	2.36
568.423	2.39
568.764	2.37
569.105	2.5
569.447	2.34
569.788	2.36
570.129	2.27
570.47	2.52
570.811	2.47
571.151	2.44
571.492	2.42
571.833	2.56
572.174	2.37
572.514	2.38
572.855	2.32
573.195	2.35
573.536	2.26
573.876	2.38
574.217	2.62
574.557	2.51
574.898	2.41
575.238	2.33
575.578	2.5
575.918	2.37
576.258	2.37
576.598	2.38
576.938	2.57
577.278	2.48
577.618	2.25
577.958	2.33
578.298	2.6
578.638	2.42
578.977	2.47
579.317	2.71
579.657	2.47
579.996	2.41
580.336	2.24
580.675	2.43
581.014	2.49
581.354	2.36
581.693	2.35
582.032	2.54
582.372	2.46
582.711	2.28
583.05	2.58
583.389	2.58
583.728	2.23
584.067	2.43
584.406	2.5
584.745	2.35
585.083	2.73
585.422	2.43
585.761	2.67
586.1	2.41
586.438	2.46
586.777	2.54
587.115	2.47
587.454	2.46
587.792	2.24
588.13	2.73
588.469	2.75
588.807	2.63
589.145	2.61
589.483	2.27
589.821	2.56
590.159	2.42
590.497	2.22
590.835	2.36
591.173	2.5
591.511	2.57
591.849	2.63
592.187	2.36
592.524	2.41
592.862	2.57
593.2	2.45
593.537	2.33
593.875	2.38
594.212	2.6
594.55	2.42
594.887	2.61
595.224	2.29
595.561	2.51
595.899	2.35
596.236	2.55
596.573	2.29
596.91	2.5
597.247	2.33
597.584	2.45
597.921	2.36
598.258	2.43
598.594	2.35
598.931	2.51
599.268	2.47
599.604	2.48
599.941	2.43
600.277	2.64
600.614	2.38
600.95	2.48
601.287	2.45
601.623	2.74
601.959	2.26
602.296	2.51
602.632	2.76
602.968	2.41
603.304	2.29
603.64	2.4
603.976	2.29
604.312	2.66
604.648	2.51
604.984	2.69
605.319	2.48
605.655	2.46
605.991	2.54
606.326	2.44
606.662	2.34
606.998	2.41
607.333	2.43
607.668	2.52
608.004	2.24
608.339	2.43
608.674	2.5
609.01	2.49
609.345	2.6
609.68	2.26
610.015	2.39
610.35	2.55
610.685	2.52
611.02	2.64
611.355	2.57
611.689	2.33
612.024	2.6
612.359	2.57
612.694	2.74
613.028	2.84
613.363	2.34
613.697	2.63
614.032	2.53
614.366	2.24
614.7	2.5
615.035	2.37
615.369	2.42
615.703	2.92
616.037	2.32
616.371	2.15
616.705	2.58
617.039	2.92
617.373	2.52
617.707	2.4
618.041	2.67
618.375	2.3
618.709	2.39
619.042	2.48
619.376	2.14
619.71	2.45
620.043	2.28
620.377	2.33
620.71	2.33
621.043	2.27
621.377	2.23
621.71	2.75
622.043	2.64
622.376	2.25
622.709	2.34
623.043	2.27
623.376	2.61
623.709	2.8
624.041	2.5
624.374	2.09
624.707	2.47
625.04	2.59
625.373	2.41
625.705	2.76
626.038	2.51
626.37	2.45
626.703	2.57
627.035	2.55
627.368	2.57
627.7	2.55
628.032	2.55
628.365	2.23
628.697	2.56
629.029	2.89
629.361	2.52
629.693	2.58
630.025	2.51
630.357	2.17
630.689	2.64
631.021	2.69
631.353	2.46
631.684	2.66
632.016	2.34
632.348	2.38
632.679	2.36
633.011	2.58
633.342	2.7
633.674	2.27
634.005	2.6
634.336	2.52
634.668	2.29
634.999	2.73
635.33	2.56
635.661	2.43
635.992	2.43
636.323	2.5
636.654	2.7
636.985	2.21
637.316	2.41
637.647	2.57
637.977	2.15
638.308	2.62
638.639	2.24
638.969	2.43
639.3	2.41
639.63	2.24
639.961	2.21
640.291	2.85
640.622	2.3
640.952	2.71
641.282	1.98
641.612	2.19
641.943	2.58
642.273	2.33
642.603	2.72
642.933	2.6
643.263	2.88
643.592	2.44
643.922	3.09
644.252	2.24
644.582	2.37
644.911	2.13
645.241	2.33
645.571	2.5
645.9	2.84
646.23	2.32
646.559	2.51
646.888	2.43
647.218	2.45
647.547	2.42
647.876	2.49
648.205	2.53
648.534	2.43
648.863	3.04
649.192	2.37
649.521	2.5
649.85	2.91
650.179	2.36
650.508	2.47
650.837	2.45
651.165	2.52
651.494	2.61
651.822	2.74
652.151	3.07
652.479	2.88
652.808	2.18
653.136	2.62
653.465	2.56
653.793	2.8
654.121	2.67
654.449	2.29
654.777	2.59
655.105	2.69
655.433	2.55
655.761	2.2
656.089	2.36
656.417	2.37
656.745	2.86
657.073	2.71
657.4	2.72
657.728	2.12
658.056	2.38
658.383	2.7
658.711	2.16
659.038	2.79
659.365	2.55
659.693	2.73
660.02	2.29
660.347	2.27
660.674	2.32
661.001	2.13
661.329	2.41
661.656	2.36
661.982	2.64
662.309	2.63
662.636	2.27
662.963	2.58
663.29	2.43
663.616	2.64
663.943	2.93
664.27	2.7
664.596	2.16
664.923	2.84
665.249	2.57
665.576	2.32
665.902	2.63
666.228	2.23
666.554	1.93
666.881	2.72
667.207	1.83
667.533	2.74
667.859	1.87
668.185	2.72
668.511	2.2
668.837	1.85
669.162	2.31
669.488	2.86
669.814	3.3
670.139	3.3
670.465	3.12
670.791	2.46
671.116	2.2
671.442	2.4
671.767	2.21
672.092	2.61
672.418	2.73
672.743	2.71
673.068	2.21
673.393	2.6
673.718	2.55
674.043	2.56
674.368	2.67
674.693	2.63
675.018	2.23
675.343	3.15
675.667	2.54
675.992	2.03
676.317	2.36
676.641	2.93
676.966	2.77
677.29	2.61
677.615	2.5
677.939	2.79
678.264	2.6
678.588	2.49
678.912	2.56
679.236	2.8
679.56	2.18
679.885	2.81
680.209	2.42
680.532	2.14
680.856	2.96
681.18	2.26
681.504	1.97
681.828	1.92
682.152	2.39
682.475	2.42
682.799	2.99
683.122	2.27
683.446	2.44
683.769	2.88
684.093	2.66
684.416	2.06
684.739	2.97
685.062	3.24
685.386	2.19
685.709	2.49
686.032	2.44
686.355	2.26
686.678	2.54
687.001	1.72
687.324	2.28
687.646	2.07
687.969	2.18
688.292	3.34
688.614	3.18
688.937	2.51
689.26	2.2
689.582	2.48
689.904	2.87
690.227	3.3
690.549	3.01
690.871	2.08
691.194	3.22
