Data from 0074_forehead_Reflection__0__355.txt Node

Date: Fri Dec 16 16:52:45 CST 2022
User: ToomeyLab
Spectrometer: FLMS14357
Trigger mode: 0
Integration Time (sec): 1.000000E-2
Scans to average: 100
Electric dark correction enabled: true
Nonlinearity correction enabled: false
Boxcar width: 0
XAxis mode: Wavelengths
Number of Pixels in Spectrum: 2048
>>>>>Begin Spectral Data<<<<<
189.047	-310.97
189.435	-310.97
189.823	-310.97
190.211	-48.36
190.599	-457.26
190.987	-2530.51
191.375	-25.88
191.763	-91.48
192.151	126.35
192.538	752.15
192.926	-202.4
193.314	71.15
193.702	175.01
194.089	38.05
194.477	73.43
194.864	-678.11
195.252	26.27
195.639	91.12
196.027	4.45
196.414	21.25
196.801	139.48
197.189	124.33
197.576	612
197.963	-317.39
198.351	-16.35
198.738	-53.5
199.125	23.36
199.512	6
199.899	34.4
200.286	-18.91
200.673	30.44
201.06	25.92
201.447	52.18
201.833	-9.68
202.22	16.11
202.607	3.88
202.994	-12.06
203.38	-44.17
203.767	-21.92
204.154	-62.86
204.54	7.44
204.927	33.52
205.313	9.67
205.699	8.21
206.086	5.19
206.472	-20.15
206.858	-9.4
207.245	16.32
207.631	-11.36
208.017	5.13
208.403	15.59
208.789	2.97
209.175	25.94
209.561	-5.24
209.947	-25.89
210.333	-11.68
210.719	-0.59
211.105	-61.61
211.491	-3.5
211.876	3.26
212.262	-21.65
212.648	5.99
213.034	-10.3
213.419	-18.78
213.805	26.01
214.19	-16.84
214.576	-15.86
214.961	-29.5
215.346	-46.68
215.732	-9.15
216.117	-19.56
216.502	-42.56
216.888	-77.36
217.273	9.76
217.658	-43.92
218.043	-13.54
218.428	18.59
218.813	-24.38
219.198	-50.51
219.583	-17.02
219.968	4.33
220.353	-2.66
220.738	-1.37
221.122	-24.61
221.507	-8
221.892	6.11
222.276	0.35
222.661	-15.63
223.046	4.86
223.43	-1.43
223.815	11.93
224.199	4.59
224.583	5.58
224.968	3.53
225.352	0.77
225.736	-1.6
226.121	-7.07
226.505	7.19
226.889	8.26
227.273	0.49
227.657	1.28
228.041	3.47
228.425	3.02
228.809	1.03
229.193	1.8
229.577	0.77
229.961	2.6
230.344	2.57
230.728	2.97
231.112	2.35
231.495	1.8
231.879	1.92
232.263	1.16
232.646	2.14
233.03	0.14
233.413	-0.53
233.797	2.63
234.18	-0.74
234.563	1.72
234.946	2.12
235.33	3.49
235.713	2.89
236.096	1.99
236.479	4.32
236.862	2.56
237.245	3.88
237.628	3.64
238.011	1.23
238.394	3.73
238.777	1.93
239.16	0.05
239.543	1.77
239.925	1.82
240.308	3.35
240.691	1.87
241.073	3.13
241.456	2.52
241.838	1.92
242.221	3.55
242.603	2.65
242.986	4.32
243.368	3.09
243.75	2.3
244.133	2.51
244.515	3.07
244.897	3.01
245.279	2.54
245.661	2.58
246.043	2.69
246.425	3.35
246.807	2.98
247.189	2.57
247.571	3.14
247.953	2.95
248.335	3.12
248.717	2.9
249.098	3.33
249.48	2.58
249.862	3.09
250.243	2.87
250.625	2.71
251.006	2.75
251.388	3.31
251.769	2.63
252.151	3.7
252.532	2.78
252.913	2.59
253.295	3.23
253.676	3.23
254.057	2.34
254.438	2.89
254.819	2.89
255.2	3.07
255.581	2.26
255.962	3.18
256.343	3.11
256.724	3.26
257.105	2.64
257.486	2.87
257.867	0.73
258.247	2.7
258.628	3.81
259.009	2.7
259.389	3.17
259.77	2.93
260.15	3.7
260.531	2.75
260.911	2.9
261.292	2.9
261.672	2.93
262.052	2.79
262.432	2.7
262.813	2.98
263.193	2.42
263.573	2.75
263.953	2.95
264.333	3.2
264.713	2.58
265.093	2.3
265.473	3.76
265.853	3.04
266.233	2.15
266.612	2.73
266.992	2.55
267.372	3.1
267.752	2.23
268.131	2.6
268.511	2.73
268.89	2.92
269.27	3.12
269.649	3.12
270.029	2.99
270.408	2.76
270.787	2.43
271.167	3.15
271.546	1.91
271.925	2.57
272.304	2.97
272.683	2.59
273.062	3.18
273.441	3.05
273.82	3.16
274.199	2.85
274.578	2.29
274.957	2.61
275.336	2.87
275.715	2.75
276.093	2.38
276.472	3.06
276.851	3.43
277.229	2.91
277.608	2.74
277.986	2.52
278.365	2.49
278.743	2.53
279.122	2.66
279.5	2.56
279.878	2.41
280.257	2.72
280.635	2.8
281.013	3.38
281.391	2.87
281.769	2.47
282.147	2.76
282.525	2.56
282.903	2.88
283.281	2.49
283.659	2.91
284.037	2.75
284.415	2.95
284.792	3.01
285.17	2.39
285.548	2.85
285.925	2.63
286.303	2.72
286.68	2.98
287.058	2.94
287.435	2.8
287.813	3.01
288.19	3.16
288.567	2.57
288.945	2.92
289.322	2.39
289.699	2.47
290.076	2.89
290.453	2.45
290.83	2.82
291.207	2.98
291.584	2.99
291.961	3.19
292.338	3.4
292.715	3.44
293.092	2.94
293.469	3.36
293.845	3.55
294.222	3.11
294.599	3.09
294.975	3.28
295.352	3.15
295.728	3.39
296.105	3.08
296.481	3.85
296.858	3.47
297.234	3.37
297.61	3.56
297.986	3.35
298.363	2.86
298.739	3.42
299.115	2.76
299.491	3.23
299.867	3.5
300.243	2.99
300.619	3.09
300.995	3.45
301.371	3.2
301.746	3.39
302.122	3.31
302.498	3.61
302.874	3.59
303.249	3.43
303.625	3.58
304	3.47
304.376	3.55
304.751	3.28
305.127	3.32
305.502	3.78
305.878	3.65
306.253	3.47
306.628	3.94
307.003	3.93
307.378	3.49
307.754	3.91
308.129	3.69
308.504	3.81
308.879	3.88
309.254	4.38
309.629	4.25
310.003	4.27
310.378	4.14
310.753	4.13
311.128	3.93
311.502	3.65
311.877	3.88
312.252	4.03
312.626	4.07
313.001	3.86
313.375	4.1
313.75	4.37
314.124	4.42
314.498	4.25
314.873	4.53
315.247	4.26
315.621	4.89
315.995	4.56
316.369	4.35
316.743	4.71
317.117	4.81
317.491	4.22
317.865	3.89
318.239	4.62
318.613	4.58
318.987	4.92
319.361	4.6
319.734	3.98
320.108	4.72
320.482	4.45
320.855	5.21
321.229	4.88
321.602	4.93
321.976	5.39
322.349	4.48
322.723	4.58
323.096	4.86
323.469	5.28
323.843	4.64
324.216	4.41
324.589	5.04
324.962	4.95
325.335	5.41
325.708	4.57
326.081	5.66
326.454	4.99
326.827	5.2
327.2	5.22
327.573	5.35
327.945	5
328.318	4.94
328.691	5.12
329.063	4.51
329.436	4.55
329.809	5.05
330.181	4.87
330.553	5.25
330.926	5.53
331.298	4.96
331.671	4.87
332.043	4.78
332.415	5.76
332.787	5.6
333.159	5.31
333.532	5.89
333.904	5.45
334.276	5.71
334.648	5.43
335.02	5.52
335.391	5.37
335.763	5.23
336.135	5.74
336.507	5.23
336.879	5.48
337.25	5.89
337.622	5.71
337.993	5.69
338.365	5.74
338.736	5.65
339.108	5.48
339.479	5.68
339.851	5.76
340.222	5.79
340.593	6.09
340.964	5.57
341.336	5.36
341.707	5.47
342.078	5.72
342.449	5.99
342.82	5.92
343.191	5.91
343.562	5.91
343.933	5.96
344.303	5.89
344.674	6.25
345.045	6.3
345.416	5.95
345.786	5.68
346.157	5.99
346.527	5.67
346.898	5.97
347.268	6.08
347.639	6.2
348.009	6.14
348.38	6.04
348.75	6.29
349.12	6.55
349.49	6.06
349.861	6.64
350.231	6.52
350.601	6.3
350.971	6.16
351.341	6.74
351.711	6.49
352.081	6.91
352.45	6.75
352.82	6.63
353.19	6.59
353.56	6.53
353.929	6.36
354.299	6.78
354.669	6.63
355.038	6.65
355.408	7.03
355.777	6.76
356.147	6.76
356.516	6.66
356.885	6.55
357.254	6.91
357.624	6.79
357.993	6.55
358.362	6.94
358.731	6.58
359.1	7.05
359.469	6.91
359.838	6.77
360.207	7.17
360.576	7.01
360.945	7.19
361.314	7.41
361.682	7.11
362.051	6.89
362.42	7.23
362.788	7.33
363.157	6.95
363.525	6.83
363.894	6.96
364.262	7.02
364.631	7.92
364.999	6.97
365.367	7.5
365.735	7.2
366.104	7.27
366.472	7.61
366.84	7.59
367.208	7.19
367.576	7.37
367.944	7.75
368.312	7.25
368.68	7.5
369.048	7.26
369.416	7.53
369.783	7.83
370.151	7.46
370.519	7.29
370.886	7.65
371.254	7.53
371.621	7.6
371.989	7.92
372.356	7.65
372.724	7.58
373.091	7.34
373.458	7.46
373.826	7.96
374.193	8.11
374.56	7.52
374.927	7.48
375.294	8.1
375.661	7.93
376.028	8.06
376.395	7.56
376.762	7.87
377.129	8.22
377.496	7.97
377.863	8.29
378.229	7.83
378.596	8.03
378.963	8.19
379.329	7.97
379.696	8.47
380.062	8.41
380.429	8.2
380.795	8.01
381.161	8.4
381.528	7.84
381.894	8.45
382.26	8.14
382.626	7.86
382.993	7.99
383.359	8.24
383.725	8.54
384.091	8.07
384.457	8.76
384.823	8.5
385.188	8.85
385.554	8.57
385.92	8.87
386.286	8.75
386.651	8.72
387.017	8.86
387.383	8.7
387.748	8.59
388.114	8.46
388.479	8.89
388.845	8.73
389.21	8.85
389.575	9
389.94	8.8
390.306	8.75
390.671	9.07
391.036	8.94
391.401	9.11
391.766	9.17
392.131	8.96
392.496	8.98
392.861	9.05
393.226	9.01
393.591	9.21
393.956	9.3
394.32	9.27
394.685	9.5
395.05	9.23
395.414	9.27
395.779	9
396.143	9.52
396.508	9.58
396.872	9.48
397.236	9.27
397.601	9.49
397.965	9.22
398.329	9.47
398.694	9.39
399.058	9.71
399.422	9.64
399.786	9.37
400.15	9.63
400.514	9.53
400.878	9.28
401.242	9.58
401.605	9.57
401.969	9.77
402.333	9.66
402.697	9.82
403.06	9.95
403.424	9.74
403.787	9.94
404.151	9.69
404.514	9.86
404.878	9.92
405.241	9.8
405.604	10.02
405.968	9.98
406.331	10.09
406.694	9.93
407.057	10.07
407.42	10.11
407.783	10.02
408.146	9.97
408.509	10.04
408.872	9.79
409.235	10.13
409.598	10.27
409.961	9.97
410.323	10.27
410.686	9.97
411.049	10.14
411.411	10.2
411.774	10.16
412.136	10.44
412.499	10.08
412.861	10.13
413.223	10.38
413.586	10.33
413.948	10.47
414.31	10.39
414.672	10.38
415.035	10.7
415.397	10.68
415.759	10.38
416.121	10.6
416.483	10.6
416.845	10.62
417.206	10.73
417.568	10.58
417.93	10.64
418.292	10.57
418.653	10.72
419.015	10.61
419.377	10.73
419.738	10.48
420.1	10.64
420.461	10.56
420.822	10.82
421.184	10.67
421.545	10.7
421.906	10.66
422.267	10.6
422.629	10.66
422.99	10.68
423.351	10.79
423.712	10.9
424.073	10.93
424.434	10.83
424.795	10.89
425.155	10.83
425.516	10.88
425.877	10.88
426.238	10.77
426.598	10.96
426.959	10.95
427.32	11.15
427.68	11.12
428.041	11.26
428.401	11.33
428.761	11.18
429.122	11.15
429.482	11.27
429.842	11.5
430.202	11.46
430.563	11.35
430.923	11.42
431.283	11.8
431.643	11.7
432.003	11.53
432.363	11.78
432.722	11.53
433.082	11.59
433.442	11.69
433.802	11.76
434.161	11.61
434.521	11.66
434.881	11.65
435.24	11.61
435.6	11.56
435.959	11.82
436.319	11.67
436.678	11.94
437.037	11.78
437.396	12
437.756	11.88
438.115	11.97
438.474	12.12
438.833	12.19
439.192	12.23
439.551	12.07
439.91	12.2
440.269	12.18
440.628	12.09
440.987	12
441.345	12.05
441.704	12.16
442.063	12.18
442.421	12.13
442.78	12.15
443.138	12.11
443.497	12.13
443.855	12.21
444.214	12.3
444.572	12.43
444.93	12.52
445.288	12.59
445.647	12.58
446.005	12.32
446.363	12.39
446.721	12.39
447.079	12.41
447.437	12.4
447.795	12.4
448.153	12.33
448.51	12.33
448.868	12.42
449.226	12.45
449.584	12.64
449.941	12.74
450.299	12.72
450.656	12.74
451.014	12.77
451.371	12.93
451.729	12.98
452.086	12.89
452.443	12.79
452.801	12.93
453.158	13.06
453.515	13.02
453.872	13.06
454.229	12.98
454.586	13.01
454.943	13.1
455.3	13.45
455.657	13.13
456.014	13.36
456.371	13.34
456.727	13.28
457.084	13.24
457.441	13.29
457.797	13.4
458.154	13.49
458.51	13.47
458.867	13.32
459.223	13.47
459.58	13.52
459.936	13.42
460.292	13.46
460.648	13.44
461.005	13.35
461.361	13.35
461.717	13.46
462.073	13.56
462.429	13.68
462.785	13.73
463.141	13.81
463.496	13.77
463.852	13.87
464.208	13.91
464.564	14.02
464.919	14.02
465.275	14.04
465.631	14.13
465.986	13.97
466.342	14.27
466.697	14
467.052	14.12
467.408	14.12
467.763	14.43
468.118	14.31
468.473	14.34
468.829	14.21
469.184	14.39
469.539	14.14
469.894	14.39
470.249	14.65
470.603	14.57
470.958	14.53
471.313	14.45
471.668	14.58
472.023	14.66
472.377	14.47
472.732	14.47
473.086	14.47
473.441	14.68
473.795	14.74
474.15	14.6
474.504	14.78
474.859	14.78
475.213	14.77
475.567	14.73
475.921	14.96
476.275	15.06
476.63	14.77
476.984	14.87
477.338	15.24
477.692	14.98
478.045	14.84
478.399	15.06
478.753	15.06
479.107	15.11
479.461	15.21
479.814	15.01
480.168	15.02
480.521	15.21
480.875	15.32
481.228	15.32
481.582	15.08
481.935	15.28
482.289	15.22
482.642	15.23
482.995	15.4
483.348	15.28
483.701	15.24
484.055	15.14
484.408	15.02
484.761	14.79
485.114	14.75
485.466	14.7
485.819	14.7
486.172	14.87
486.525	14.97
486.878	15.12
487.23	15.3
487.583	15.26
487.936	15.3
488.288	15.17
488.641	15.18
488.993	15.09
489.345	15.15
489.698	15.29
490.05	15.39
490.402	15.53
490.754	15.58
491.107	15.76
491.459	15.8
491.811	15.88
492.163	15.85
492.515	15.82
492.866	15.55
493.218	15.56
493.57	15.67
493.922	15.78
494.274	15.96
494.625	16.02
494.977	16.24
495.328	16.4
495.68	16.74
496.031	16.65
496.383	16.57
496.734	16.88
497.086	16.55
497.437	16.76
497.788	16.56
498.139	16.64
498.49	16.58
498.842	16.5
499.193	16.64
499.544	16.99
499.894	16.85
500.245	16.9
500.596	16.91
500.947	16.83
501.298	16.93
501.648	17.03
501.999	17.3
502.35	17.26
502.7	17.29
503.051	17.33
503.401	17.44
503.752	17.11
504.102	17.36
504.452	17.28
504.803	17.11
505.153	17.36
505.503	17.33
505.853	17.31
506.203	17.5
506.553	17.55
506.903	17.64
507.253	17.49
507.603	17.48
507.953	17.87
508.303	17.71
508.652	17.8
509.002	17.9
509.352	17.89
509.701	17.76
510.051	17.94
510.4	17.88
510.75	17.99
511.099	17.83
511.449	17.99
511.798	18
512.147	17.92
512.496	18.08
512.846	18.08
513.195	18.14
513.544	18.14
513.893	18.11
514.242	18.19
514.591	18.17
514.939	18.33
515.288	18.44
515.637	18.53
515.986	18.38
516.334	18.69
516.683	18.51
517.032	18.59
517.38	18.7
517.729	18.72
518.077	18.76
518.426	18.8
518.774	18.69
519.122	18.54
519.47	18.46
519.819	18.49
520.167	18.39
520.515	18.53
520.863	18.6
521.211	18.73
521.559	18.86
521.907	18.7
522.255	18.92
522.602	19.08
522.95	19.14
523.298	19.17
523.645	19.18
523.993	19.38
524.341	19.19
524.688	19.31
525.036	19.5
525.383	19.39
525.73	19.55
526.078	19.34
526.425	19.29
526.772	19.2
527.119	19.09
527.466	19.17
527.814	19.21
528.161	19.3
528.508	19.27
528.854	19.28
529.201	19.25
529.548	19.12
529.895	18.95
530.242	19.06
530.588	19.03
530.935	19.1
531.282	19.2
531.628	19.28
531.975	19.47
532.321	19.67
532.667	19.72
533.014	19.87
533.36	19.93
533.706	19.83
534.052	19.89
534.399	19.74
534.745	19.65
535.091	19.72
535.437	19.81
535.783	20.04
536.129	20.15
536.474	20.19
536.82	20.29
537.166	20.39
537.512	20.4
537.857	20.27
538.203	20.34
538.549	20.36
538.894	20.42
539.239	20.74
539.585	20.82
539.93	20.86
540.276	20.82
540.621	21
540.966	21.08
541.311	21.03
541.656	20.96
542.001	20.87
542.346	20.71
542.691	20.47
543.036	20.5
543.381	20.58
543.726	20.67
544.071	20.85
544.415	20.79
544.76	21.07
545.105	21.2
545.449	21.24
545.794	21.37
546.138	21.47
546.483	21.54
546.827	21.55
547.171	21.63
547.516	21.65
547.86	21.69
548.204	21.57
548.548	21.76
548.892	21.86
549.236	21.85
549.58	22.12
549.924	22.19
550.268	22.16
550.612	22.24
550.956	22.3
551.3	22.3
551.643	22.34
551.987	22.55
552.33	22.45
552.674	22.72
553.017	22.78
553.361	22.63
553.704	22.39
554.048	22.78
554.391	22.64
554.734	22.61
555.077	22.74
555.42	22.59
555.764	22.87
556.107	22.9
556.45	23.01
556.793	23.19
557.135	23.08
557.478	23.3
557.821	23.23
558.164	23.33
558.507	23.33
558.849	23.46
559.192	23.64
559.534	23.4
559.877	23.46
560.219	23.55
560.562	23.41
560.904	23.44
561.246	23.68
561.589	23.48
561.931	23.63
562.273	23.76
562.615	23.67
562.957	23.82
563.299	23.71
563.641	23.93
563.983	23.79
564.325	23.8
564.667	23.94
565.008	23.94
565.35	24.02
565.692	24.16
566.033	24.15
566.375	24.2
566.716	24
567.058	24.31
567.399	24.2
567.741	24.44
568.082	24.41
568.423	24.39
568.764	24.41
569.105	24.58
569.447	24.52
569.788	24.52
570.129	24.74
570.47	24.82
570.811	24.56
571.151	24.83
571.492	24.81
571.833	24.88
572.174	24.86
572.514	24.96
572.855	25.01
573.195	24.86
573.536	24.85
573.876	24.85
574.217	25.12
574.557	25.11
574.898	25.05
575.238	24.95
575.578	25.32
575.918	25.08
576.258	25.4
576.598	25.19
576.938	25.74
577.278	25.26
577.618	25.3
577.958	25.68
578.298	25.83
578.638	25.64
578.977	25.99
579.317	25.95
579.657	25.9
579.996	25.86
580.336	25.73
580.675	26.06
581.014	26.1
581.354	26.14
581.693	26.2
582.032	26.01
582.372	26.53
582.711	26.24
583.05	26.63
583.389	26.6
583.728	26.53
584.067	26.4
584.406	26.51
584.745	26.51
585.083	26.97
585.422	26.76
585.761	26.85
586.1	26.89
586.438	26.72
586.777	26.97
587.115	26.73
587.454	27.12
587.792	26.76
588.13	27.28
588.469	27.2
588.807	27.18
589.145	27.17
589.483	26.99
589.821	27.28
590.159	27.1
590.497	27.01
590.835	27.44
591.173	27.37
591.511	27.54
591.849	27.59
592.187	27.45
592.524	27.4
592.862	27.62
593.2	27.83
593.537	27.71
593.875	27.57
594.212	27.63
594.55	27.83
594.887	27.92
595.224	27.79
595.561	28.06
595.899	27.87
596.236	28.27
596.573	27.9
596.91	28.32
597.247	28.25
597.584	28.21
597.921	28.1
598.258	28.11
598.594	27.92
598.931	28.31
599.268	28.01
599.604	28.26
599.941	28.27
600.277	28.59
600.614	28.44
600.95	28.33
601.287	28.64
601.623	28.93
601.959	28.58
602.296	28.62
602.632	28.66
602.968	28.81
603.304	28.58
603.64	29.05
603.976	28.76
604.312	28.83
604.648	29.2
604.984	29.1
605.319	29
605.655	28.86
605.991	28.99
606.326	28.97
606.662	28.81
606.998	29.12
607.333	29.15
607.668	29.23
608.004	29.11
608.339	29.39
608.674	29.36
609.01	29.59
609.345	29.75
609.68	29.41
610.015	30
610.35	29.76
610.685	29.6
611.02	29.68
611.355	29.86
611.689	29.62
612.024	29.96
612.359	30.08
612.694	30.16
613.028	29.92
613.363	30.31
613.697	30.38
614.032	30.36
614.366	29.81
614.7	30.57
615.035	30.2
615.369	30.47
615.703	30.71
616.037	30.29
616.371	30.63
616.705	31
617.039	30.7
617.373	30.95
617.707	30.64
618.041	30.98
618.375	30.48
618.709	30.93
619.042	30.95
619.376	30.73
619.71	30.82
620.043	30.55
620.377	31.33
620.71	31.1
621.043	31.08
621.377	31.26
621.71	30.99
622.043	31.38
622.376	31.17
622.709	31.48
623.043	31.51
623.376	31.59
623.709	31.44
624.041	31.64
624.374	31.66
624.707	31.16
625.04	31.55
625.373	31.5
625.705	31.71
626.038	31.94
626.37	31.98
626.703	31.69
627.035	31.63
627.368	32.21
627.7	31.93
628.032	31.99
628.365	32.01
628.697	32.08
629.029	32.14
629.361	31.89
629.693	32.27
630.025	32.17
630.357	31.78
630.689	32.44
631.021	32.29
631.353	32.42
631.684	32.41
632.016	32.44
632.348	32.55
632.679	32.49
633.011	32.72
633.342	32.49
633.674	32.85
634.005	32.79
634.336	32.5
634.668	32.6
634.999	32.9
635.33	33.18
635.661	33.34
635.992	33.3
636.323	33.46
636.654	33.14
636.985	32.93
637.316	33.24
637.647	33.46
637.977	33.38
638.308	33.26
638.639	33.47
638.969	33.57
639.3	33.51
639.63	33.72
639.961	33.35
640.291	34.01
640.622	33.65
640.952	33.59
641.282	33.62
641.612	33.53
641.943	33.8
642.273	33.65
642.603	34.11
642.933	34.08
643.263	33.98
643.592	34
643.922	33.87
644.252	34.28
644.582	34.52
644.911	34.57
645.241	34
645.571	34.42
645.9	34.95
646.23	34.74
646.559	34.37
646.888	34.58
647.218	34.61
647.547	34.59
647.876	34.67
648.205	34.99
648.534	34.16
648.863	34.74
649.192	34.69
649.521	34.34
649.85	34.77
650.179	34.73
650.508	34.79
650.837	34.81
651.165	35.09
651.494	34.97
651.822	35.56
652.151	35.09
652.479	35.22
652.808	34.53
653.136	34.74
653.465	35.37
653.793	35.38
654.121	35.95
654.449	35.21
654.777	35.31
655.105	36.09
655.433	35.85
655.761	35.7
656.089	36.07
656.417	35.59
656.745	35.88
657.073	36.38
657.4	35.32
657.728	35.34
658.056	35.37
658.383	36.34
658.711	35.63
659.038	36.13
659.365	36.03
659.693	35.74
660.02	35.95
660.347	36.06
660.674	35.87
661.001	35.67
661.329	36.19
661.656	35.87
661.982	36.25
662.309	36.24
662.636	36
662.963	36.21
663.29	36.59
663.616	36.68
663.943	36.34
664.27	36.23
664.596	36.92
664.923	36.35
665.249	36.68
665.576	36.73
665.902	36.14
666.228	36.84
666.554	36.6
666.881	37.15
667.207	36.73
667.533	36.92
667.859	37.01
668.185	37.18
668.511	36.84
668.837	36.49
669.162	36.61
669.488	37.88
669.814	36.85
670.139	37.22
670.465	38.06
670.791	37.74
671.116	38.05
671.442	37.69
671.767	37.46
672.092	37.38
672.418	37.65
672.743	37.54
673.068	37.28
673.393	37.29
673.718	37.63
674.043	37.32
674.368	38.56
674.693	38.27
