Data from 0074_crown_Reflection__2__351.txt Node

Date: Fri Dec 16 16:51:37 CST 2022
User: ToomeyLab
Spectrometer: FLMS14357
Trigger mode: 0
Integration Time (sec): 1.000000E-2
Scans to average: 100
Electric dark correction enabled: true
Nonlinearity correction enabled: false
Boxcar width: 0
XAxis mode: Wavelengths
Number of Pixels in Spectrum: 2048
>>>>>Begin Spectral Data<<<<<
189.047	-203.58
189.435	-203.58
189.823	-203.58
190.211	67.71
190.599	82.85
190.987	-10.17
191.375	91.51
191.763	-1.15
192.151	130.04
192.538	472.41
192.926	280.68
193.314	131.67
193.702	100.04
194.089	59.55
194.477	-204.28
194.864	844.21
195.252	-28.92
195.639	133.8
196.027	-78.61
196.414	39.16
196.801	-33.19
197.189	49.47
197.576	-2674.67
197.963	-701.6
198.351	22.76
198.738	-54.55
199.125	3.33
199.512	-65.03
199.899	-87.78
200.286	-68.57
200.673	-19.6
201.06	7.21
201.447	22.13
201.833	8.71
202.22	45.98
202.607	37.13
202.994	18.06
203.38	-217.87
203.767	-83.46
204.154	-64.94
204.54	11.15
204.927	-2.38
205.313	32.5
205.699	15.77
206.086	-22.79
206.472	-46.78
206.858	-9.39
207.245	-24.44
207.631	-34.84
208.017	24.96
208.403	22.66
208.789	-14.88
209.175	17.1
209.561	-9.93
209.947	-42.41
210.333	-39.98
210.719	-19.58
211.105	-67.71
211.491	-17.41
211.876	-2.68
212.262	-43.64
212.648	-20.06
213.034	15.25
213.419	2.11
213.805	-49.85
214.19	-23.03
214.576	-41.49
214.961	-21.9
215.346	-61.34
215.732	-16.23
216.117	-16.07
216.502	10.42
216.888	-50.17
217.273	4.42
217.658	-17.68
218.043	9.52
218.428	-14.69
218.813	-19.9
219.198	-35.43
219.583	-5.19
219.968	-19.96
220.353	-8.65
220.738	-18.84
221.122	-16.35
221.507	-7.19
221.892	-13.88
222.276	1.45
222.661	-17.74
223.046	-15.12
223.43	-1.82
223.815	3.96
224.199	-11.51
224.583	-3.44
224.968	0.12
225.352	-3.07
225.736	-3.84
226.121	-4.86
226.505	-5.04
226.889	3.47
227.273	1.55
227.657	0.91
228.041	6.8
228.425	3.2
228.809	1.46
229.193	3.28
229.577	2.54
229.961	4.63
230.344	3.67
230.728	3.57
231.112	3.21
231.495	2.51
231.879	4
232.263	2.6
232.646	3.31
233.03	0.98
233.413	0.87
233.797	3.31
234.18	-2.13
234.563	3.04
234.946	4.53
235.33	2.86
235.713	2.65
236.096	1.98
236.479	2.07
236.862	3.99
237.245	2.75
237.628	3.64
238.011	2.18
238.394	4.27
238.777	1.05
239.16	1.89
239.543	3.04
239.925	2.97
240.308	4.36
240.691	1.72
241.073	1.96
241.456	3.64
241.838	2.42
242.221	3.26
242.603	2.59
242.986	4.57
243.368	3.33
243.75	3.22
244.133	3.56
244.515	3.58
244.897	3.2
245.279	3.08
245.661	3.46
246.043	3.66
246.425	2.95
246.807	3.92
247.189	2.89
247.571	3.28
247.953	3.7
248.335	3.54
248.717	3.84
249.098	3.61
249.48	3.18
249.862	3.64
250.243	3.73
250.625	3.11
251.006	3.52
251.388	3.29
251.769	2.75
252.151	3.38
252.532	3.25
252.913	3.28
253.295	3.9
253.676	3.55
254.057	3.46
254.438	3.32
254.819	3.77
255.2	2.83
255.581	3.23
255.962	3.34
256.343	3.56
256.724	1.85
257.105	3.89
257.486	2.73
257.867	2
258.247	2.99
258.628	3.88
259.009	3.17
259.389	3.78
259.77	2.74
260.15	3.63
260.531	3.21
260.911	3.3
261.292	3.23
261.672	3.32
262.052	3.31
262.432	3.34
262.813	2.85
263.193	3.02
263.573	2.6
263.953	2.67
264.333	2.5
264.713	3.16
265.093	2.97
265.473	3.42
265.853	3
266.233	3.53
266.612	3.24
266.992	3.11
267.372	2.84
267.752	2.91
268.131	3.22
268.511	3.52
268.89	3.32
269.27	3.27
269.649	2.98
270.029	3.33
270.408	3.04
270.787	2.96
271.167	2.56
271.546	2.38
271.925	2.94
272.304	3.03
272.683	2.93
273.062	3.17
273.441	3.63
273.82	3.3
274.199	3.25
274.578	2.82
274.957	3.15
275.336	2.91
275.715	3.62
276.093	3.5
276.472	3.01
276.851	3.33
277.229	3.92
277.608	2.88
277.986	3.11
278.365	2.87
278.743	2.88
279.122	2.54
279.5	2.7
279.878	2.46
280.257	2.74
280.635	2.95
281.013	2.98
281.391	2.46
281.769	3
282.147	2.67
282.525	3.08
282.903	3.2
283.281	3.08
283.659	3.23
284.037	3
284.415	2.94
284.792	2.91
285.17	2.2
285.548	2.91
285.925	2.47
286.303	2.97
286.68	2.85
287.058	2.87
287.435	2.61
287.813	2.89
288.19	3.36
288.567	2.41
288.945	3.21
289.322	2.84
289.699	2.71
290.076	2.92
290.453	2.79
290.83	3.1
291.207	3.31
291.584	2.43
291.961	3.11
292.338	3.04
292.715	2.74
293.092	2.94
293.469	3.36
293.845	3.04
294.222	3.18
294.599	3.06
294.975	2.77
295.352	2.68
295.728	2.9
296.105	3.29
296.481	3.3
296.858	2.89
297.234	2.9
297.61	3.05
297.986	3.27
298.363	2.62
298.739	2.95
299.115	2.91
299.491	2.96
299.867	3.02
300.243	2.4
300.619	3.07
300.995	2.8
301.371	3.2
301.746	2.82
302.122	2.78
302.498	2.91
302.874	3.16
303.249	3.13
303.625	2.82
304	2.96
304.376	3.23
304.751	2.57
305.127	2.69
305.502	3.22
305.878	2.96
306.253	2.83
306.628	3.27
307.003	3.01
307.378	2.45
307.754	3.07
308.129	2.65
308.504	2.83
308.879	2.89
309.254	3.3
309.629	3.11
310.003	3.46
310.378	2.72
310.753	3.11
311.128	3
311.502	2.81
311.877	3.15
312.252	2.79
312.626	3.07
313.001	2.98
313.375	3.06
313.75	3.21
314.124	3.37
314.498	2.65
314.873	2.58
315.247	2.69
315.621	3.5
315.995	3.29
316.369	3.05
316.743	3.36
317.117	2.88
317.491	3.56
317.865	2.83
318.239	3.29
318.613	3.01
318.987	3.07
319.361	2.96
319.734	2.73
320.108	3.05
320.482	2.56
320.855	3.59
321.229	3.58
321.602	2.25
321.976	3.26
322.349	2.66
322.723	2.55
323.096	2.58
323.469	3.15
323.843	3.09
324.216	2.47
324.589	2.99
324.962	2.49
325.335	3.02
325.708	3.32
326.081	3.65
326.454	2.98
326.827	3.03
327.2	3.14
327.573	3.45
327.945	3.41
328.318	2.93
328.691	3.01
329.063	2.72
329.436	2.94
329.809	2.75
330.181	3.21
330.553	3.38
330.926	3.07
331.298	2.51
331.671	3.13
332.043	3.11
332.415	3.04
332.787	3.51
333.159	3.02
333.532	2.94
333.904	3.3
334.276	2.9
334.648	3.06
335.02	2.31
335.391	3.16
335.763	2.83
336.135	2.98
336.507	3.08
336.879	2.95
337.25	2.47
337.622	2.99
337.993	3.49
338.365	3.03
338.736	2.96
339.108	2.69
339.479	3.06
339.851	3.4
340.222	3.06
340.593	2.77
340.964	2.75
341.336	2.55
341.707	2.96
342.078	2.36
342.449	3.27
342.82	3.17
343.191	3.21
343.562	2.82
343.933	3.03
344.303	3.05
344.674	3.09
345.045	3.42
345.416	3.05
345.786	2.75
346.157	3.14
346.527	2.68
346.898	2.99
347.268	2.99
347.639	3.45
348.009	3.63
348.38	2.79
348.75	3.61
349.12	3.21
349.49	2.46
349.861	3.1
350.231	3.45
350.601	3.03
350.971	2.91
351.341	3.32
351.711	3.18
352.081	3.17
352.45	2.99
352.82	3.07
353.19	3.16
353.56	3
353.929	3.24
354.299	2.88
354.669	3.19
355.038	3.32
355.408	3.6
355.777	3.15
356.147	3.38
356.516	3.31
356.885	3.44
357.254	3.3
357.624	3
357.993	3.17
358.362	3.27
358.731	3.01
359.1	3.39
359.469	3.32
359.838	3.33
360.207	2.88
360.576	3.27
360.945	3.1
361.314	3.45
361.682	2.9
362.051	3.09
362.42	3.28
362.788	3.27
363.157	3.08
363.525	3.21
363.894	2.97
364.262	3.01
364.631	3.62
364.999	3.1
365.367	3.42
365.735	2.97
366.104	2.99
366.472	3.64
366.84	3.46
367.208	3.14
367.576	3.2
367.944	3.49
368.312	2.98
368.68	3.43
369.048	3.28
369.416	3.12
369.783	3.26
370.151	3.3
370.519	3.11
370.886	3.01
371.254	3.19
371.621	3.21
371.989	3.19
372.356	3.24
372.724	3.04
373.091	3.18
373.458	3.48
373.826	3.13
374.193	3.52
374.56	3.29
374.927	3.22
375.294	3.43
375.661	3.26
376.028	3.59
376.395	3.14
376.762	3.64
377.129	3.54
377.496	3.21
377.863	3.3
378.229	3.32
378.596	3.3
378.963	2.95
379.329	3.46
379.696	3.42
380.062	3.59
380.429	3.29
380.795	2.98
381.161	3.3
381.528	2.48
381.894	3.46
382.26	3.15
382.626	3.52
382.993	3.18
383.359	3.09
383.725	3.65
384.091	3.57
384.457	3.41
384.823	3.42
385.188	3.67
385.554	3.48
385.92	3.42
386.286	3.33
386.651	3.31
387.017	3.69
387.383	3.49
387.748	3.34
388.114	3.5
388.479	3.53
388.845	3.58
389.21	3.34
389.575	3.46
389.94	3.26
390.306	3.2
390.671	3.26
391.036	3.7
391.401	3.78
391.766	3.39
392.131	3.4
392.496	3.26
392.861	3.31
393.226	3.54
393.591	3.38
393.956	3.66
394.32	3.22
394.685	3.73
395.05	3.16
395.414	3.58
395.779	3.44
396.143	3.47
396.508	3.6
396.872	3.44
397.236	3.24
397.601	3.74
397.965	3.14
398.329	3.67
398.694	3.44
399.058	3.81
399.422	3.51
399.786	3.43
400.15	3.68
400.514	3.45
400.878	3.27
401.242	3.81
401.605	3.6
401.969	3.46
402.333	3.45
402.697	3.67
403.06	3.69
403.424	3.23
403.787	3.74
404.151	3.48
404.514	3.53
404.878	3.63
405.241	3.61
405.604	3.75
405.968	3.7
406.331	3.52
406.694	3.57
407.057	3.8
407.42	3.66
407.783	3.5
408.146	3.48
408.509	3.62
408.872	3.58
409.235	3.62
409.598	3.41
409.961	3.59
410.323	3.55
410.686	3.49
411.049	3.23
411.411	3.64
411.774	3.36
412.136	3.47
412.499	3.51
412.861	3.22
413.223	3.49
413.586	3.47
413.948	3.73
414.31	3.58
414.672	3.48
415.035	3.65
415.397	3.59
415.759	3.43
416.121	3.7
416.483	3.7
416.845	3.67
417.206	3.66
417.568	3.8
417.93	3.5
418.292	3.7
418.653	3.58
419.015	3.63
419.377	3.66
419.738	3.45
420.1	3.53
420.461	3.42
420.822	3.54
421.184	3.53
421.545	3.59
421.906	3.55
422.267	3.44
422.629	3.57
422.99	3.47
423.351	3.63
423.712	3.63
424.073	3.64
424.434	3.51
424.795	3.56
425.155	3.6
425.516	3.56
425.877	3.63
426.238	3.53
426.598	3.58
426.959	3.46
427.32	3.67
427.68	3.65
428.041	3.53
428.401	3.56
428.761	3.54
429.122	3.71
429.482	3.58
429.842	3.68
430.202	3.42
430.563	3.65
430.923	3.7
431.283	3.75
431.643	3.82
432.003	3.78
432.363	3.59
432.722	3.79
433.082	3.55
433.442	3.54
433.802	3.71
434.161	3.51
434.521	3.58
434.881	3.66
435.24	3.56
435.6	3.66
435.959	3.63
436.319	3.62
436.678	3.5
437.037	3.71
437.396	3.68
437.756	3.76
438.115	3.57
438.474	3.84
438.833	3.7
439.192	3.87
439.551	3.61
439.91	3.82
440.269	3.75
440.628	3.68
440.987	3.58
441.345	3.6
441.704	3.7
442.063	3.64
442.421	3.73
442.78	3.61
443.138	3.67
443.497	3.67
443.855	3.76
444.214	3.68
444.572	3.7
444.93	3.7
445.288	3.59
445.647	3.73
446.005	3.59
446.363	3.64
446.721	3.52
447.079	3.66
447.437	3.53
447.795	3.64
448.153	3.57
448.51	3.52
448.868	3.71
449.226	3.67
449.584	3.81
449.941	3.82
450.299	3.7
450.656	3.85
451.014	3.6
451.371	3.83
451.729	3.9
452.086	3.63
452.443	3.66
452.801	3.83
453.158	3.71
453.515	3.63
453.872	3.8
454.229	3.72
454.586	3.86
454.943	3.7
455.3	3.82
455.657	3.77
456.014	3.75
456.371	3.84
456.727	3.64
457.084	3.67
457.441	3.52
457.797	3.76
458.154	3.76
458.51	3.71
458.867	3.74
459.223	3.64
459.58	3.73
459.936	3.66
460.292	3.76
460.648	3.6
461.005	3.62
461.361	3.6
461.717	3.72
462.073	3.75
462.429	3.87
462.785	3.94
463.141	3.85
463.496	3.7
463.852	3.92
464.208	3.84
464.564	3.73
464.919	3.73
465.275	3.74
465.631	3.81
465.986	3.74
466.342	3.7
466.697	3.8
467.052	3.9
467.408	3.55
467.763	3.85
468.118	3.94
468.473	3.86
468.829	3.77
469.184	3.96
469.539	3.6
469.894	3.83
470.249	3.78
470.603	3.96
470.958	3.95
471.313	3.79
471.668	3.94
472.023	4
472.377	3.73
472.732	3.9
473.086	3.73
473.441	3.87
473.795	3.93
474.15	3.81
474.504	3.76
474.859	3.81
475.213	3.87
475.567	3.79
475.921	3.89
476.275	3.8
476.63	3.73
476.984	3.82
477.338	4.01
477.692	3.75
478.045	3.83
478.399	3.92
478.753	3.73
479.107	3.75
479.461	3.87
479.814	3.75
480.168	3.78
480.521	3.65
480.875	3.98
481.228	4.04
481.582	3.63
481.935	3.78
482.289	3.82
482.642	3.87
482.995	3.91
483.348	3.71
483.701	3.8
484.055	3.64
484.408	3.75
484.761	3.5
485.114	3.49
485.466	3.52
485.819	3.62
486.172	3.71
486.525	3.83
486.878	3.78
487.23	3.85
487.583	3.82
487.936	3.79
488.288	3.69
488.641	3.65
488.993	3.63
489.345	3.61
489.698	3.72
490.05	3.75
490.402	3.86
490.754	3.91
491.107	3.78
491.459	3.88
491.811	3.84
492.163	3.85
492.515	3.71
492.866	3.57
493.218	3.65
493.57	3.76
493.922	3.79
494.274	3.82
494.625	3.89
494.977	3.82
495.328	3.9
495.68	4.03
496.031	3.96
496.383	4.02
496.734	3.99
497.086	3.74
497.437	3.95
497.788	3.81
498.139	3.82
498.49	3.85
498.842	3.81
499.193	3.87
499.544	3.95
499.894	3.96
500.245	3.95
500.596	3.95
500.947	3.91
501.298	3.9
501.648	3.95
501.999	3.98
502.35	3.98
502.7	3.89
503.051	3.98
503.401	3.77
503.752	3.92
504.102	4.01
504.452	3.8
504.803	3.84
505.153	4.02
505.503	3.89
505.853	3.82
506.203	3.92
506.553	4.09
506.903	3.81
507.253	4.04
507.603	3.83
507.953	4.1
508.303	3.96
508.652	3.92
509.002	3.89
509.352	3.96
509.701	3.9
510.051	3.99
510.4	3.9
510.75	3.95
511.099	3.89
511.449	3.97
511.798	4.04
512.147	3.89
512.496	4.06
512.846	3.94
513.195	3.95
513.544	3.85
513.893	3.76
514.242	4.05
514.591	4
514.939	3.88
515.288	4.03
515.637	4.06
515.986	3.98
516.334	4.05
516.683	3.99
517.032	3.92
517.38	4.02
517.729	3.97
518.077	3.94
518.426	3.9
518.774	3.87
519.122	3.81
519.47	3.92
519.819	3.87
520.167	3.88
520.515	3.85
520.863	3.93
521.211	3.91
521.559	4.05
521.907	4.01
522.255	4.03
522.602	4.02
522.95	4.08
523.298	3.91
523.645	3.77
523.993	4.14
524.341	3.92
524.688	3.94
525.036	4.06
525.383	4.08
525.73	3.96
526.078	4.03
526.425	3.91
526.772	3.81
527.119	3.85
527.466	3.91
527.814	3.84
528.161	3.92
528.508	3.97
528.854	3.83
529.201	3.78
529.548	3.81
529.895	3.67
530.242	3.69
530.588	3.8
530.935	3.9
531.282	3.95
531.628	3.9
531.975	3.98
532.321	3.95
532.667	3.93
533.014	3.95
533.36	3.93
533.706	3.92
534.052	3.87
534.399	3.81
534.745	3.74
535.091	3.85
535.437	3.91
535.783	4.01
536.129	4.04
536.474	4.01
536.82	3.99
537.166	4.02
537.512	4.02
537.857	3.94
538.203	3.93
538.549	4.03
538.894	4
539.239	4.08
539.585	4.04
539.93	4.08
540.276	4.1
540.621	4.03
540.966	4.1
541.311	4.04
541.656	3.98
542.001	4.05
542.346	3.85
542.691	3.75
543.036	3.79
543.381	3.92
543.726	3.95
544.071	4.01
544.415	3.96
544.76	3.92
545.105	4.02
545.449	3.99
545.794	4.08
546.138	4.02
546.483	4.04
546.827	4.1
547.171	3.95
547.516	4.08
547.86	4.02
548.204	3.87
548.548	4.04
548.892	4.08
549.236	4.18
549.58	4.17
549.924	4.1
550.268	4.15
550.612	4.01
550.956	4.12
551.3	4.19
551.643	4.17
551.987	4.11
552.33	4.04
552.674	4.16
553.017	3.99
553.361	4.14
553.704	4.11
554.048	4.2
554.391	4.01
554.734	4.1
555.077	4.2
555.42	4.08
555.764	4.16
556.107	4.12
556.45	4.01
556.793	4.29
557.135	4.19
557.478	4.2
557.821	3.94
558.164	4.23
558.507	4.18
558.849	4.08
559.192	4.18
559.534	3.93
559.877	4.19
560.219	4.36
560.562	4.1
560.904	4.06
561.246	4.17
561.589	4.21
561.931	4.41
562.273	4.16
562.615	4.06
562.957	4.09
563.299	4.19
563.641	4.28
563.983	3.99
564.325	4.01
564.667	4.08
565.008	4.1
565.35	4.21
565.692	4.32
566.033	4.11
566.375	3.82
566.716	4.04
567.058	4.19
567.399	4.21
567.741	4.22
568.082	4.06
568.423	4.09
568.764	4.22
569.105	4.28
569.447	4.17
569.788	4.09
570.129	4.22
570.47	4.13
570.811	4.17
571.151	4.23
571.492	4.16
571.833	4.24
572.174	4.03
572.514	4.19
572.855	4.18
573.195	3.94
573.536	4.07
573.876	4.1
574.217	4.2
574.557	4.22
574.898	4.01
575.238	3.94
575.578	4.29
575.918	4.1
576.258	4.15
576.598	4.14
576.938	4.24
577.278	4.06
577.618	4.32
577.958	4.25
578.298	4.18
578.638	4.09
578.977	4.34
579.317	4.4
579.657	4.18
579.996	4.19
580.336	4.16
580.675	4.31
581.014	4.21
581.354	4.31
581.693	4.24
582.032	4.34
582.372	4.14
582.711	4.34
583.05	4.4
583.389	4.29
583.728	4.46
584.067	4.06
584.406	4.38
584.745	4.22
585.083	4.58
585.422	4.3
585.761	4.38
586.1	4.24
586.438	4.32
586.777	4.22
587.115	4.32
587.454	4.16
587.792	4.03
588.13	4.49
588.469	4.26
588.807	4.51
589.145	4.16
589.483	4.11
589.821	4.43
590.159	4.1
590.497	4.24
590.835	4.32
591.173	4.41
591.511	4.15
591.849	4.12
592.187	4.3
592.524	4.14
592.862	4.49
593.2	4.13
593.537	3.97
593.875	4.43
594.212	4.21
594.55	4.4
594.887	4.62
595.224	4.08
595.561	4.47
595.899	4.25
596.236	4.35
596.573	4.15
596.91	4.3
597.247	4.43
597.584	4.48
597.921	4.27
598.258	4.42
598.594	4.12
598.931	4.34
599.268	4.34
599.604	4.33
599.941	4.4
600.277	4.51
600.614	4.44
600.95	4.4
601.287	4.37
601.623	4.43
601.959	4.07
602.296	4.48
602.632	4.72
602.968	4.34
603.304	4.26
603.64	4.13
603.976	4.31
604.312	4.64
604.648	4.29
604.984	4.47
605.319	4.32
605.655	4.4
605.991	4.23
606.326	4.3
606.662	4.36
606.998	4.45
607.333	4.39
607.668	4.28
608.004	4.31
608.339	4.38
608.674	4.44
609.01	4.35
609.345	4.53
609.68	4.32
610.015	4.43
610.35	4.17
610.685	4.43
611.02	4.54
611.355	4.26
611.689	4.25
612.024	4.59
612.359	4.63
612.694	4.57
613.028	4.78
613.363	4.14
613.697	4.68
614.032	4.48
614.366	4.38
614.7	4.77
615.035	4.1
615.369	4.56
615.703	4.73
616.037	4.66
616.371	4.33
616.705	4.53
617.039	4.62
617.373	4.3
617.707	4.38
618.041	4.62
618.375	4.5
618.709	4.4
619.042	4.44
619.376	4.25
619.71	4.35
620.043	4.49
620.377	4.16
620.71	4.55
621.043	4.29
621.377	4.21
621.71	4.25
622.043	4.63
622.376	4.55
622.709	4.8
623.043	4.33
623.376	4.36
623.709	4.73
624.041	4.54
624.374	4.51
624.707	4.44
625.04	4.89
625.373	4.59
625.705	4.28
626.038	4.48
626.37	4.52
626.703	4.31
627.035	4.27
627.368	4.45
627.7	4.24
628.032	4.81
628.365	4.34
628.697	4.49
629.029	4.99
629.361	4.26
629.693	4.9
630.025	4.39
630.357	4.43
630.689	4.86
631.021	4.65
631.353	5.18
631.684	4.57
632.016	4.54
632.348	4.39
632.679	4.48
633.011	4.31
633.342	4.57
633.674	4.42
634.005	4.44
634.336	4.67
634.668	4.76
634.999	4.28
635.33	4.44
635.661	4.56
635.992	4.69
636.323	4.67
636.654	4.34
636.985	4.67
637.316	4.58
637.647	4.71
637.977	4.67
638.308	4.67
638.639	4.48
638.969	4.27
639.3	4.57
639.63	4.42
639.961	4.63
640.291	5.08
640.622	4.7
640.952	4.5
641.282	4.09
641.612	4.28
641.943	4.63
642.273	4.49
642.603	4.72
642.933	4.53
643.263	4.84
643.592	4.97
643.922	4.84
644.252	4.57
644.582	4.34
644.911	4.26
645.241	4.48
645.571	4.56
645.9	4.94
646.23	4.67
646.559	4.82
646.888	4.44
647.218	4.78
647.547	4.93
647.876	4.69
648.205	4.77
648.534	4.74
648.863	5.05
649.192	4.46
649.521	4.47
649.85	4.6
650.179	4.18
650.508	4.62
650.837	4.64
651.165	4.83
651.494	4.56
651.822	4.98
652.151	5.16
652.479	4.9
652.808	4.18
653.136	4.69
653.465	5.01
653.793	4.8
654.121	4.7
654.449	4.62
654.777	4.75
655.105	5.08
655.433	5.08
655.761	3.92
656.089	5.05
656.417	4.74
656.745	5.48
657.073	5.12
657.4	4.94
657.728	4.8
658.056	4.76
658.383	4.94
658.711	4.32
659.038	4.59
659.365	4.87
659.693	4.53
660.02	4.92
660.347	4.72
660.674	4.47
661.001	4.31
661.329	4.78
661.656	4.85
661.982	4.77
662.309	5.33
662.636	4.73
662.963	5.23
663.29	4.71
663.616	4.69
663.943	5.03
664.27	5.32
664.596	4.52
664.923	5.2
665.249	4.86
665.576	4.95
665.902	4.81
666.228	4.58
666.554	4.87
666.881	5.08
667.207	4.5
667.533	4.92
667.859	4.5
668.185	4.94
668.511	4.63
668.837	4.16
669.162	4.74
669.488	4.9
669.814	4.48
670.139	5.42
670.465	5.16
670.791	5.11
671.116	4.92
671.442	5.22
671.767	5.22
672.092	4.97
672.418	4.88
672.743	4.59
673.068	4.07
673.393	4.74
673.718	4.67
674.043	4.46
674.368	5.19
674.693	5.21
675.018	5.06
675.343	5.33
675.667	4.53
675.992	4.31
676.317	5.01
676.641	5.45
676.966	5.28
677.29	5.05
677.615	4.63
677.939	4.48
678.264	5.09
678.588	5.4
678.912	4.15
679.236	5.29
679.56	4.53
679.885	5.29
680.209	4.06
680.532	4.19
680.856	5.18
681.18	4.98
681.504	4.28
681.828	4.11
682.152	4.6
682.475	5.05
682.799	5.8
683.122	4.71
683.446	4.65
683.769	5.38
684.093	5.17
684.416	4.66
684.739	5.54
685.062	5.1
685.386	4.79
685.709	4.64
686.032	4.93
686.355	5.23
686.678	5.24
687.001	3.99
687.324	4.02
687.646	4.22
687.969	4.85
688.292	5.05
688.614	5.67
688.937	4.97
689.26	4.85
689.582	4.73
689.904	4.84
690.227	4.59
690.549	5.31
690.871	4.92
691.194	5.76
691.516	4.72
691.838	5.42
692.16	4.87
