Data from 0074_crown_Reflection__0__349.txt Node

Date: Fri Dec 16 16:51:16 CST 2022
User: ToomeyLab
Spectrometer: FLMS14357
Trigger mode: 0
Integration Time (sec): 1.000000E-2
Scans to average: 100
Electric dark correction enabled: true
Nonlinearity correction enabled: false
Boxcar width: 0
XAxis mode: Wavelengths
Number of Pixels in Spectrum: 2048
>>>>>Begin Spectral Data<<<<<
189.047	-163.46
189.435	-163.46
189.823	-163.46
190.211	28.54
190.599	613.98
190.987	689.83
191.375	9.73
191.763	290.1
192.151	129.8
192.538	-411.39
192.926	195.35
193.314	174.85
193.702	-107.66
194.089	104.16
194.477	35.51
194.864	-631.79
195.252	-40.48
195.639	74.63
196.027	8.17
196.414	-13.07
196.801	-151.45
197.189	127.95
197.576	1076
197.963	-759.5
198.351	-46.26
198.738	-51.97
199.125	31.88
199.512	-13.28
199.899	-60.12
200.286	-31.77
200.673	20.05
201.06	18.34
201.447	22.75
201.833	16.31
202.22	61.89
202.607	21.29
202.994	5.83
203.38	-41.55
203.767	20.26
204.154	-86.66
204.54	2.11
204.927	3.13
205.313	9.32
205.699	-13.71
206.086	-13.53
206.472	-69.99
206.858	-12.75
207.245	16.8
207.631	-7.01
208.017	22.62
208.403	-7.64
208.789	-100.03
209.175	18.65
209.561	11.38
209.947	-19.94
210.333	16.2
210.719	1.54
211.105	46.28
211.491	-11.32
211.876	-6.63
212.262	-48.99
212.648	-53.24
213.034	4.45
213.419	-21.04
213.805	-2.52
214.19	7
214.576	-19.53
214.961	-0.29
215.346	-20.03
215.732	-26.9
216.117	-25.85
216.502	-35.47
216.888	-25.11
217.273	14.71
217.658	-10.1
218.043	-34.73
218.428	-29.4
218.813	-17.93
219.198	-21.72
219.583	-30.46
219.968	-22.09
220.353	-1.6
220.738	-3.28
221.122	7.88
221.507	6.57
221.892	-14.19
222.276	5.32
222.661	-17.61
223.046	4.92
223.43	-18.75
223.815	-6.55
224.199	-0.09
224.583	2.73
224.968	6.39
225.352	-2.63
225.736	-0.75
226.121	-5.1
226.505	3.25
226.889	4.71
227.273	0.11
227.657	0.54
228.041	1.17
228.425	5.63
228.809	1.18
229.193	-2.85
229.577	3.41
229.961	3.52
230.344	4.39
230.728	3.29
231.112	3.08
231.495	1.94
231.879	2.62
232.263	0.17
232.646	2.58
233.03	-0.17
233.413	2.21
233.797	4.62
234.18	1.11
234.563	4.43
234.946	-0.47
235.33	2.72
235.713	3.12
236.096	2.09
236.479	3.94
236.862	4.94
237.245	3.29
237.628	2.52
238.011	1.73
238.394	4.28
238.777	2.13
239.16	-0.59
239.543	2.4
239.925	2.67
240.308	3.24
240.691	1.74
241.073	2.04
241.456	1.84
241.838	3.3
242.221	2.67
242.603	2.96
242.986	4.01
243.368	2.76
243.75	2.78
244.133	3.73
244.515	3.13
244.897	3.05
245.279	2.52
245.661	3.34
246.043	2.9
246.425	1.01
246.807	3.3
247.189	2.72
247.571	3.01
247.953	2.78
248.335	3.21
248.717	3.14
249.098	3.34
249.48	2.95
249.862	3.43
250.243	2.82
250.625	2.46
251.006	3.05
251.388	3.27
251.769	3.49
252.151	2.26
252.532	2.85
252.913	2.98
253.295	2.49
253.676	2.97
254.057	2.7
254.438	2.07
254.819	3.11
255.2	2.41
255.581	1.47
255.962	3.3
256.343	3.27
256.724	2.01
257.105	2.76
257.486	2.66
257.867	1.56
258.247	3.42
258.628	2.41
259.009	2.9
259.389	3.58
259.77	2.95
260.15	3.71
260.531	3.05
260.911	2.93
261.292	2.78
261.672	2.93
262.052	3.11
262.432	2.98
262.813	2.79
263.193	2.21
263.573	3.18
263.953	2.61
264.333	2.34
264.713	2.47
265.093	2.4
265.473	3.34
265.853	2
266.233	2.08
266.612	2.6
266.992	1.47
267.372	3.13
267.752	2.15
268.131	2.92
268.511	3.09
268.89	3.33
269.27	2.98
269.649	2.84
270.029	2.81
270.408	2.4
270.787	2.45
271.167	2.17
271.546	2.19
271.925	2.69
272.304	2.93
272.683	2.27
273.062	3.24
273.441	3.29
273.82	2.92
274.199	2.83
274.578	2.84
274.957	2.99
275.336	2.59
275.715	3.04
276.093	3.15
276.472	2.67
276.851	2.45
277.229	3.1
277.608	2.18
277.986	3.26
278.365	2.36
278.743	2.87
279.122	2.33
279.5	2.83
279.878	2.23
280.257	3.24
280.635	2.37
281.013	3.11
281.391	3.03
281.769	2.53
282.147	3.08
282.525	2.63
282.903	2.81
283.281	2.72
283.659	3
284.037	2.47
284.415	2.62
284.792	2.64
285.17	2.34
285.548	2.17
285.925	2.49
286.303	2.14
286.68	3.23
287.058	2.46
287.435	2.29
287.813	2.68
288.19	2.93
288.567	2.69
288.945	2.67
289.322	2.21
289.699	2.68
290.076	2.76
290.453	2.33
290.83	2.95
291.207	2.34
291.584	2.57
291.961	3.22
292.338	2.92
292.715	3.08
293.092	2.67
293.469	2.94
293.845	2.78
294.222	2.1
294.599	3.02
294.975	2.4
295.352	2.57
295.728	2.71
296.105	2.83
296.481	3.13
296.858	2.9
297.234	2.61
297.61	2.77
297.986	2.83
298.363	2.29
298.739	2.76
299.115	2.39
299.491	2.86
299.867	2.93
300.243	2.21
300.619	2.19
300.995	3.12
301.371	2.7
301.746	2.46
302.122	2.55
302.498	2.65
302.874	2.57
303.249	2.78
303.625	2.18
304	2.63
304.376	2.63
304.751	2.59
305.127	2.35
305.502	2.99
305.878	2.48
306.253	2.46
306.628	2.74
307.003	2.88
307.378	2.04
307.754	2.82
308.129	2.03
308.504	2.89
308.879	3.1
309.254	2.89
309.629	2.46
310.003	3.14
310.378	2.95
310.753	2.49
311.128	2.64
311.502	2.45
311.877	2.49
312.252	2.58
312.626	2.64
313.001	2.54
313.375	2.68
313.75	2.3
314.124	3.11
314.498	2.37
314.873	2.71
315.247	2.25
315.621	2.7
315.995	2.57
316.369	2.49
316.743	2.67
317.117	2.7
317.491	2.13
317.865	1.69
318.239	2.89
318.613	2.75
318.987	2.96
319.361	2.38
319.734	2.41
320.108	2.65
320.482	2.31
320.855	2.48
321.229	3.62
321.602	2.48
321.976	2.87
322.349	1.49
322.723	2.55
323.096	2.48
323.469	2.55
323.843	2.66
324.216	2.14
324.589	3
324.962	2.73
325.335	2.8
325.708	2.55
326.081	3.35
326.454	2.65
326.827	3.1
327.2	2.88
327.573	2.71
327.945	2.61
328.318	3.07
328.691	3.14
329.063	2.56
329.436	2.38
329.809	1.9
330.181	2.44
330.553	2.92
330.926	2.62
331.298	2.88
331.671	2.29
332.043	2.79
332.415	3.05
332.787	2.74
333.159	2.61
333.532	2.95
333.904	2.63
334.276	2.96
334.648	2.44
335.02	2.12
335.391	2.57
335.763	2.32
336.135	3.02
336.507	3.25
336.879	2.53
337.25	2.49
337.622	2.68
337.993	2.98
338.365	3.33
338.736	2.73
339.108	2.75
339.479	2.75
339.851	3.12
340.222	2.69
340.593	2.71
340.964	2.16
341.336	2.1
341.707	1.96
342.078	2.39
342.449	3.24
342.82	2.47
343.191	2.44
343.562	2.74
343.933	2.58
344.303	2.85
344.674	2.71
345.045	2.94
345.416	2.83
345.786	2.48
346.157	2.74
346.527	2.51
346.898	2.82
347.268	2.46
347.639	2.64
348.009	3.2
348.38	2.65
348.75	2.54
349.12	2.68
349.49	2.61
349.861	3.11
350.231	2.8
350.601	2.59
350.971	2.96
351.341	3.42
351.711	2.88
352.081	2.66
352.45	2.69
352.82	2.87
353.19	2.57
353.56	3
353.929	2.56
354.299	3.02
354.669	2.69
355.038	2.7
355.408	2.74
355.777	2.37
356.147	2.86
356.516	3.19
356.885	2.52
357.254	3.13
357.624	2.81
357.993	2.56
358.362	2.99
358.731	2.7
359.1	3.02
359.469	3.16
359.838	2.53
360.207	2.72
360.576	2.96
360.945	2.59
361.314	3.01
361.682	2.62
362.051	2.64
362.42	3.18
362.788	2.77
363.157	2.78
363.525	2.82
363.894	2.59
364.262	2.64
364.631	3.53
364.999	2.21
365.367	3.18
365.735	2.77
366.104	2.55
366.472	3.07
366.84	2.82
367.208	2.68
367.576	2.98
367.944	2.81
368.312	2.66
368.68	3.02
369.048	3.01
369.416	2.9
369.783	2.5
370.151	2.84
370.519	3.16
370.886	2.4
371.254	2.78
371.621	2.57
371.989	2.61
372.356	2.78
372.724	2.9
373.091	2.61
373.458	2.49
373.826	2.5
374.193	3.08
374.56	2.53
374.927	2.56
375.294	3.33
375.661	3.17
376.028	2.77
376.395	2.53
376.762	3.05
377.129	2.85
377.496	2.88
377.863	2.74
378.229	2.78
378.596	2.95
378.963	2.64
379.329	2.8
379.696	2.79
380.062	3.27
380.429	2.74
380.795	2.64
381.161	2.81
381.528	2.59
381.894	2.74
382.26	2.8
382.626	2.56
382.993	2.31
383.359	2.56
383.725	3.2
384.091	2.72
384.457	2.86
384.823	3.03
385.188	3.1
385.554	2.85
385.92	3.18
386.286	2.79
386.651	2.86
387.017	2.9
387.383	2.72
387.748	2.88
388.114	3.07
388.479	2.91
388.845	2.92
389.21	2.85
389.575	2.92
389.94	2.79
390.306	2.78
390.671	2.82
391.036	3.02
391.401	3.1
391.766	2.99
392.131	2.87
392.496	2.84
392.861	2.66
393.226	3
393.591	2.85
393.956	3.12
394.32	2.72
394.685	2.98
395.05	2.73
395.414	2.94
395.779	2.98
396.143	2.96
396.508	2.97
396.872	3.09
397.236	2.53
397.601	3
397.965	2.57
398.329	3.05
398.694	2.57
399.058	2.86
399.422	2.83
399.786	2.99
400.15	2.88
400.514	2.95
400.878	2.91
401.242	2.93
401.605	3
401.969	3.01
402.333	2.73
402.697	3.22
403.06	3.3
403.424	2.75
403.787	2.92
404.151	2.77
404.514	2.82
404.878	3.07
405.241	2.97
405.604	3.09
405.968	2.98
406.331	2.93
406.694	2.99
407.057	3.28
407.42	3.06
407.783	2.84
408.146	2.96
408.509	2.82
408.872	2.84
409.235	3.12
409.598	3.01
409.961	3.12
410.323	2.95
410.686	2.83
411.049	2.89
411.411	3
411.774	2.92
412.136	2.92
412.499	2.83
412.861	2.7
413.223	3.03
413.586	2.89
413.948	3.02
414.31	3.11
414.672	2.85
415.035	3.02
415.397	3.01
415.759	2.8
416.121	3.26
416.483	3.19
416.845	3.09
417.206	3.31
417.568	3.02
417.93	3.01
418.292	2.88
418.653	2.99
419.015	3.11
419.377	3.07
419.738	2.96
420.1	2.95
420.461	2.84
420.822	2.99
421.184	2.87
421.545	2.92
421.906	2.96
422.267	2.75
422.629	2.9
422.99	2.95
423.351	2.93
423.712	2.95
424.073	3.09
424.434	2.87
424.795	2.89
425.155	2.95
425.516	2.79
425.877	3.01
426.238	2.91
426.598	2.96
426.959	2.83
427.32	3.04
427.68	2.96
428.041	2.96
428.401	2.91
428.761	3.02
429.122	2.93
429.482	2.86
429.842	2.99
430.202	2.85
430.563	2.89
430.923	2.93
431.283	3.09
431.643	3.05
432.003	2.98
432.363	3.04
432.722	2.83
433.082	2.96
433.442	2.95
433.802	2.85
434.161	2.86
434.521	3.08
434.881	3.06
435.24	2.94
435.6	2.9
435.959	2.88
436.319	2.99
436.678	2.94
437.037	3.11
437.396	2.95
437.756	2.91
438.115	3.01
438.474	3.09
438.833	2.92
439.192	3.17
439.551	3.12
439.91	3.15
440.269	3.1
440.628	2.97
440.987	2.88
441.345	2.85
441.704	3.04
442.063	2.99
442.421	3.03
442.78	3
443.138	2.96
443.497	2.93
443.855	2.9
444.214	3.05
444.572	3.05
444.93	3
445.288	3
445.647	3.08
446.005	2.94
446.363	2.95
446.721	2.87
447.079	3.03
447.437	2.97
447.795	3.01
448.153	3.02
448.51	3.01
448.868	3.12
449.226	3.01
449.584	2.95
449.941	3.19
450.299	3.07
450.656	3.04
451.014	2.97
451.371	3.07
451.729	2.92
452.086	2.87
452.443	2.98
452.801	3.14
453.158	3.12
453.515	2.98
453.872	3.02
454.229	2.88
454.586	3
454.943	2.89
455.3	3.07
455.657	2.88
456.014	3.08
456.371	3.26
456.727	3.13
457.084	2.97
457.441	3.03
457.797	3.06
458.154	3.03
458.51	3.01
458.867	3
459.223	3.17
459.58	2.97
459.936	2.96
460.292	3.09
460.648	2.85
461.005	2.92
461.361	2.86
461.717	2.96
462.073	3.03
462.429	2.98
462.785	2.95
463.141	3.16
463.496	2.96
463.852	2.96
464.208	3.05
464.564	2.94
464.919	3.02
465.275	2.96
465.631	3.07
465.986	3.06
466.342	3.07
466.697	3.05
467.052	3.25
467.408	2.96
467.763	2.92
468.118	3.04
468.473	3.1
468.829	2.88
469.184	3.13
469.539	2.87
469.894	3.11
470.249	3.07
470.603	3.12
470.958	3.08
471.313	3.05
471.668	3.06
472.023	3.2
472.377	3.01
472.732	2.94
473.086	2.79
473.441	3.15
473.795	3.11
474.15	3.04
474.504	2.96
474.859	3.06
475.213	3.04
475.567	2.98
475.921	3.2
476.275	3.1
476.63	2.93
476.984	2.93
477.338	3.29
477.692	2.99
478.045	2.99
478.399	3.02
478.753	2.84
479.107	2.97
479.461	3.13
479.814	3.05
480.168	3.06
480.521	2.95
480.875	3.14
481.228	3.05
481.582	3.01
481.935	3.21
482.289	2.89
482.642	3.11
482.995	3
483.348	3
483.701	2.99
484.055	2.95
484.408	2.91
484.761	2.85
485.114	2.81
485.466	2.83
485.819	2.86
486.172	2.9
486.525	2.93
486.878	2.99
487.23	2.96
487.583	2.94
487.936	3
488.288	2.95
488.641	2.91
488.993	2.85
489.345	2.88
489.698	2.92
490.05	2.93
490.402	2.94
490.754	3.05
491.107	2.96
491.459	2.99
491.811	3.1
492.163	3.06
492.515	2.95
492.866	2.86
493.218	2.88
493.57	3
493.922	2.98
494.274	3.03
494.625	3
494.977	3.08
495.328	3.06
495.68	3.28
496.031	3.05
496.383	3
496.734	3.2
497.086	3
497.437	3.11
497.788	2.99
498.139	3.05
498.49	3.08
498.842	3.04
499.193	3.11
499.544	3.2
499.894	3.11
500.245	2.98
500.596	3.04
500.947	3.01
501.298	3.01
501.648	3.13
501.999	3.12
502.35	3.24
502.7	3.08
503.051	3.18
503.401	3.16
503.752	3.08
504.102	3.05
504.452	2.93
504.803	2.93
505.153	3.03
505.503	2.98
505.853	3.08
506.203	3.09
506.553	3.04
506.903	3
507.253	3.05
507.603	3.02
507.953	3.17
508.303	3.1
508.652	3.01
509.002	3.13
509.352	3.02
509.701	3.09
510.051	3.17
510.4	3.13
510.75	3.04
511.099	3.13
511.449	3.1
511.798	3.16
512.147	3.02
512.496	3.08
512.846	3.09
513.195	3.16
513.544	3.11
513.893	2.94
514.242	3.14
514.591	2.98
514.939	3.01
515.288	3.07
515.637	3.12
515.986	3.12
516.334	3.15
516.683	3.1
517.032	2.95
517.38	3.09
517.729	3.09
518.077	3.07
518.426	3.03
518.774	3.07
519.122	3.02
519.47	3
519.819	3.01
520.167	3.02
520.515	2.99
520.863	2.97
521.211	3.06
521.559	3.06
521.907	3.01
522.255	3.05
522.602	3.14
522.95	3.09
523.298	3.1
523.645	3.09
523.993	3.07
524.341	3.17
524.688	3.15
525.036	3.2
525.383	3.09
525.73	3.14
526.078	3.05
526.425	3.12
526.772	2.85
527.119	2.99
527.466	3.04
527.814	3.04
528.161	3.05
528.508	3
528.854	2.9
529.201	2.97
529.548	2.95
529.895	2.88
530.242	2.89
530.588	2.96
530.935	2.99
531.282	3.04
531.628	3.03
531.975	3.1
532.321	3.05
532.667	3.13
533.014	3.03
533.36	3.09
533.706	3.08
534.052	3.01
534.399	2.98
534.745	2.93
535.091	2.91
535.437	2.99
535.783	3.07
536.129	3.05
536.474	3.16
536.82	2.98
537.166	3.01
537.512	2.98
537.857	3.02
538.203	3
538.549	3.06
538.894	3.07
539.239	3.18
539.585	3.13
539.93	3.1
540.276	3.07
540.621	3.03
540.966	3.08
541.311	3.14
541.656	2.96
542.001	3.11
542.346	2.96
542.691	2.92
543.036	2.95
543.381	3.02
543.726	3.01
544.071	3.04
544.415	3.02
544.76	2.96
545.105	3.1
545.449	3.08
545.794	3.07
546.138	3.11
546.483	3.05
546.827	3.08
547.171	2.99
547.516	3.13
547.86	3.02
548.204	3.03
548.548	3.17
548.892	3.1
549.236	3.07
549.58	3.15
549.924	3.2
550.268	3.18
550.612	3.3
550.956	2.99
551.3	3.14
551.643	3.2
551.987	3.12
552.33	3.05
552.674	3.27
553.017	3.21
553.361	3.1
553.704	3.08
554.048	3.18
554.391	3.03
554.734	3.03
555.077	3.19
555.42	3.01
555.764	3.09
556.107	3.13
556.45	3.08
556.793	3.26
557.135	3.25
557.478	3.26
557.821	2.95
558.164	3.13
558.507	3.06
558.849	3.13
559.192	3.2
559.534	2.96
559.877	3.2
560.219	3.29
560.562	3.09
560.904	3.13
561.246	3.23
561.589	3.2
561.931	3.17
562.273	3.06
562.615	3.16
562.957	3.28
563.299	3.25
563.641	3.11
563.983	3.22
564.325	3.06
564.667	3.15
565.008	2.99
565.35	3.17
565.692	3.2
566.033	3.19
566.375	3.09
566.716	3.1
567.058	3.24
567.399	3.13
567.741	3.2
568.082	2.96
568.423	3.12
568.764	3.18
569.105	3.33
569.447	3.21
569.788	3.18
570.129	3.16
570.47	3.15
570.811	3.28
571.151	3.14
571.492	3.38
571.833	3.14
572.174	3.09
572.514	3.12
572.855	3.32
573.195	3.04
573.536	3.17
573.876	3.18
574.217	3.17
574.557	3.12
574.898	3.03
575.238	3.07
575.578	3.23
575.918	3.16
576.258	3.04
576.598	3.07
576.938	3.32
577.278	2.99
577.618	3.22
577.958	3.06
578.298	3.27
578.638	3.23
578.977	3.17
579.317	3.3
579.657	3.16
579.996	3.24
580.336	3.18
580.675	3.32
581.014	3.22
581.354	3.19
581.693	3.03
582.032	2.95
582.372	3.06
582.711	3.27
583.05	3.27
583.389	3.31
583.728	3.26
584.067	3.24
584.406	3.09
584.745	3.19
585.083	3.29
585.422	3.22
585.761	3.26
586.1	3.03
586.438	3.3
586.777	3.28
587.115	3.14
587.454	3.25
587.792	2.96
588.13	3.22
588.469	3.32
588.807	3.42
589.145	3.48
589.483	3.21
589.821	2.96
590.159	3.14
590.497	3.04
590.835	3.13
591.173	3.25
591.511	3.39
591.849	3.35
592.187	3.27
592.524	3.02
592.862	3.41
593.2	3.16
593.537	3.09
593.875	3.29
594.212	3.34
594.55	3.05
594.887	3.58
595.224	3.16
595.561	3.25
595.899	3.2
596.236	3.28
596.573	3.26
596.91	3.26
597.247	3.21
597.584	3.36
597.921	3.06
598.258	3.25
598.594	2.91
598.931	3.12
599.268	3.16
599.604	3.3
599.941	3.42
600.277	3.2
600.614	3.27
600.95	3.34
601.287	3.17
601.623	3.3
601.959	2.94
602.296	3.22
602.632	3.54
602.968	3.4
603.304	3.11
603.64	3.2
603.976	3.11
604.312	3.38
604.648	3.35
604.984	3.42
605.319	3.33
605.655	3.22
605.991	3.33
606.326	3.1
606.662	3.07
606.998	3.3
607.333	3.11
607.668	3.23
608.004	3.3
608.339	3.17
608.674	3.16
609.01	3.22
609.345	3.42
609.68	3.13
610.015	3.24
610.35	3.2
610.685	3.32
611.02	3.35
611.355	3.25
611.689	2.94
612.024	3.33
612.359	3.25
612.694	3.57
613.028	3.69
613.363	3.37
613.697	3.15
614.032	3.29
614.366	2.91
614.7	3.76
615.035	3.1
615.369	3.24
615.703	3.72
616.037	3.12
616.371	3.24
616.705	3.15
617.039	3.46
617.373	3.21
617.707	3
618.041	3.36
618.375	3.19
618.709	3.27
619.042	3.39
619.376	3.2
619.71	3.15
620.043	3.12
620.377	3.36
620.71	3.23
621.043	2.84
621.377	3.1
621.71	3.38
622.043	3.62
622.376	3.24
622.709	3.4
623.043	3.04
623.376	3.33
623.709	3.43
624.041	2.9
624.374	3.18
624.707	3.12
625.04	3.56
625.373	2.97
625.705	3.35
626.038	3.2
626.37	3.18
626.703	3.23
627.035	3.26
627.368	3.26
627.7	3.2
628.032	3.13
628.365	3.03
628.697	3.24
629.029	3.42
629.361	3.19
629.693	3.46
630.025	3.32
630.357	3.25
630.689	3.57
631.021	3.54
631.353	3.31
631.684	3.36
632.016	3.01
632.348	3.11
632.679	3.26
633.011	3.24
633.342	3.38
633.674	3.23
634.005	3.47
634.336	3.43
634.668	3.05
634.999	3.12
635.33	3.1
635.661	3.46
635.992	3.19
636.323	3.52
636.654	3.47
636.985	3.05
637.316	3.41
637.647	3.08
637.977	3.3
638.308	3.2
638.639	3.12
638.969	2.89
639.3	3.29
639.63	2.96
639.961	3.45
640.291	4.11
640.622	3.35
640.952	3.22
641.282	3
641.612	2.68
641.943	3.44
642.273	3.55
642.603	3.39
642.933	3.6
643.263	3.53
643.592	3.54
643.922	3.92
644.252	3.24
644.582	3
644.911	2.89
645.241	2.54
645.571	3.18
645.9	3.91
646.23	3.48
646.559	2.71
646.888	3.03
647.218	2.9
647.547	3.69
647.876	3.78
648.205	3.52
648.534	3.21
648.863	3.36
649.192	2.99
649.521	3.22
649.85	3.56
650.179	2.79
650.508	3.47
650.837	3.22
651.165	3.52
651.494	3.32
651.822	3.09
652.151	3.73
652.479	3.55
652.808	2.94
653.136	3.39
653.465	3.26
653.793	3.71
654.121	3.6
654.449	3.44
654.777	3.04
655.105	3.87
655.433	3.74
655.761	3.38
656.089	3.32
656.417	3.15
656.745	3.96
657.073	3.97
657.4	3.45
657.728	3.22
658.056	3.49
658.383	3.52
658.711	3.07
659.038	3.65
659.365	3.45
659.693	3.33
660.02	3.18
660.347	3.34
660.674	3.34
661.001	2.93
661.329	3.23
661.656	3.22
661.982	3.34
662.309	3.41
662.636	3.12
662.963	3.44
663.29	3.51
663.616	3.67
663.943	3.59
664.27	3.12
664.596	3.43
664.923	3.64
665.249	3.49
665.576	3.72
665.902	3.04
666.228	3.06
666.554	3.34
666.881	3.3
667.207	3.11
667.533	3.56
667.859	3.02
668.185	3.71
668.511	2.98
668.837	2.65
669.162	3.47
669.488	3.14
669.814	3.38
670.139	3.82
670.465	3.93
670.791	3.91
671.116	3.43
671.442	3.7
671.767	3.57
672.092	3.29
672.418	3.49
672.743	3.54
673.068	2.78
673.393	3.99
673.718	3.12
674.043	3.23
674.368	3.4
674.693	3.32
675.018	3.07
675.343	2.9
675.667	3.68
675.992	2.65
676.317	3.41
676.641	3.32
676.966	3.29
677.29	3.22
677.615	3.18
677.939	3.17
678.264	3.18
678.588	3.67
678.912	3.12
679.236	3.3
679.56	3.33
679.885	3.16
680.209	2.79
680.532	3.7
680.856	3.89
681.18	3.06
681.504	2.81
681.828	3.15
682.152	3.55
682.475	3.71
682.799	3.7
683.122	3.65
683.446	3.42
683.769	3.27
684.093	3.5
684.416	2.66
684.739	3.64
685.062	3.54
685.386	3.16
685.709	3.55
686.032	3.21
686.355	3.16
686.678	3.07
687.001	2.49
687.324	3.19
687.646	2.36
687.969	3.26
688.292	3.59
688.614	4.23
688.937	3.33
689.26	3.43
689.582	3.22
689.904	3.06
690.227	3.34
690.549	3.89
690.871	3.09
691.194	3.56
691.516	3.28
691.838	3.23
692.16	3.19
692.482	3.42
692.804	2.76
