Data from 0074_crown_Reflection__5__354.txt Node

Date: Fri Dec 16 16:52:18 CST 2022
User: ToomeyLab
Spectrometer: FLMS14357
Trigger mode: 0
Integration Time (sec): 1.000000E-2
Scans to average: 100
Electric dark correction enabled: true
Nonlinearity correction enabled: false
Boxcar width: 0
XAxis mode: Wavelengths
Number of Pixels in Spectrum: 2048
>>>>>Begin Spectral Data<<<<<
189.047	-296.08
189.435	-296.08
189.823	-296.08
190.211	49.68
190.599	-281.53
190.987	-1049.15
191.375	125.26
191.763	575.72
192.151	261.41
192.538	556.2
192.926	-68.41
193.314	109.73
193.702	319.1
194.089	120.75
194.477	-144.56
194.864	620.84
195.252	-57.14
195.639	84.16
196.027	109.89
196.414	162.9
196.801	151.7
197.189	73.71
197.576	5404
197.963	-839.59
198.351	-35.52
198.738	-51.3
199.125	36.87
199.512	9.83
199.899	-98.27
200.286	-53.65
200.673	23.09
201.06	31.54
201.447	30.74
201.833	1.5
202.22	27.74
202.607	-17.43
202.994	-18.83
203.38	-307.01
203.767	-27.45
204.154	-128.32
204.54	28.3
204.927	21.56
205.313	19.45
205.699	-24.78
206.086	22.41
206.472	-68.18
206.858	-11.92
207.245	7.14
207.631	-19.09
208.017	-6.21
208.403	-30.36
208.789	-3.39
209.175	32.51
209.561	-33.51
209.947	-38.72
210.333	-37.43
210.719	8.16
211.105	-107.9
211.491	-1.18
211.876	-4.88
212.262	-47.18
212.648	-55.51
213.034	-17.31
213.419	-12.11
213.805	-0.19
214.19	-8.47
214.576	-36.24
214.961	-11.73
215.346	-38
215.732	-9.45
216.117	12.6
216.502	-45.95
216.888	-73.18
217.273	4.99
217.658	-58.88
218.043	-4.34
218.428	-22.73
218.813	-24.11
219.198	-72.38
219.583	-8.36
219.968	-17.03
220.353	21.84
220.738	-13.63
221.122	-9.31
221.507	-7.73
221.892	10.49
222.276	1.36
222.661	-10.01
223.046	0.74
223.43	-17.4
223.815	0.73
224.199	0.1
224.583	-3.63
224.968	2.8
225.352	-4.8
225.736	-0.61
226.121	-9.08
226.505	0.8
226.889	8.98
227.273	0.68
227.657	-1.77
228.041	4.45
228.425	4.42
228.809	0.29
229.193	-0.88
229.577	2.85
229.961	1.93
230.344	3.29
230.728	1.97
231.112	2.47
231.495	1.87
231.879	3.98
232.263	2.34
232.646	1.38
233.03	-0.49
233.413	2.26
233.797	3.26
234.18	1
234.563	3.68
234.946	2.87
235.33	2.26
235.713	1.96
236.096	2.03
236.479	3.33
236.862	4.37
237.245	5.4
237.628	3.02
238.011	1.11
238.394	3.62
238.777	3.69
239.16	-0.87
239.543	0.48
239.925	2.81
240.308	2.66
240.691	1.1
241.073	2.38
241.456	1.54
241.838	3.84
242.221	2.71
242.603	2.73
242.986	4.04
243.368	3.01
243.75	2.16
244.133	2.9
244.515	3.08
244.897	2.89
245.279	1.85
245.661	2.08
246.043	2.98
246.425	3.27
246.807	2.74
247.189	3.36
247.571	2.87
247.953	2.58
248.335	3.14
248.717	2.7
249.098	3.14
249.48	2.75
249.862	3.36
250.243	2.53
250.625	2.35
251.006	3.05
251.388	2.84
251.769	3.13
252.151	3.17
252.532	2.22
252.913	2.58
253.295	2.59
253.676	2.92
254.057	3.16
254.438	2.69
254.819	2.94
255.2	3.01
255.581	1.39
255.962	2.65
256.343	3.33
256.724	1.85
257.105	2.64
257.486	2.19
257.867	0.72
258.247	2.38
258.628	3.11
259.009	2.7
259.389	2.98
259.77	2.54
260.15	3.47
260.531	2.95
260.911	2.76
261.292	2.71
261.672	2.63
262.052	2.5
262.432	2.3
262.813	2.51
263.193	1.92
263.573	1.83
263.953	2.48
264.333	2.37
264.713	1.6
265.093	2.05
265.473	3.74
265.853	2.67
266.233	2.27
266.612	2.8
266.992	1.86
267.372	2.1
267.752	2.49
268.131	2.46
268.511	2.7
268.89	2.48
269.27	2.56
269.649	2.94
270.029	2.57
270.408	2.61
270.787	1.98
271.167	2.65
271.546	2.14
271.925	2.16
272.304	2.71
272.683	2.17
273.062	2.78
273.441	2.79
273.82	2.72
274.199	2.71
274.578	2.55
274.957	2.43
275.336	2.1
275.715	2.28
276.093	3.01
276.472	2.75
276.851	2.33
277.229	2.92
277.608	2.42
277.986	2.37
278.365	1.77
278.743	2.48
279.122	2.16
279.5	1.77
279.878	1.7
280.257	2.99
280.635	2.34
281.013	3.04
281.391	2.58
281.769	2.18
282.147	2.67
282.525	2.14
282.903	2.46
283.281	2.32
283.659	2.82
284.037	2.36
284.415	2.74
284.792	2.32
285.17	2.21
285.548	2.14
285.925	2.33
286.303	2.12
286.68	2.58
287.058	2.46
287.435	2.36
287.813	2.5
288.19	2.97
288.567	2.19
288.945	2.19
289.322	1.97
289.699	2.2
290.076	2.49
290.453	2.41
290.83	2.91
291.207	2.56
291.584	1.8
291.961	2.52
292.338	2.25
292.715	3.06
293.092	2.28
293.469	2.37
293.845	2.77
294.222	2.32
294.599	2.77
294.975	2.5
295.352	2.32
295.728	2.52
296.105	2.46
296.481	2.6
296.858	2.65
297.234	2.33
297.61	2.5
297.986	2.36
298.363	2.14
298.739	2.69
299.115	2.01
299.491	2.17
299.867	2.26
300.243	2.14
300.619	2.03
300.995	1.93
301.371	2.28
301.746	2.18
302.122	2.48
302.498	2.45
302.874	2.62
303.249	2.66
303.625	2.25
304	1.9
304.376	1.9
304.751	2.38
305.127	1.97
305.502	2.66
305.878	1.97
306.253	1.74
306.628	2.67
307.003	2.57
307.378	1.94
307.754	2.76
308.129	1.89
308.504	2.22
308.879	2.23
309.254	2.54
309.629	2.67
310.003	2.58
310.378	2.46
310.753	2.39
311.128	2.46
311.502	2.51
311.877	2.35
312.252	2.4
312.626	2.27
313.001	2.41
313.375	2.42
313.75	2.38
314.124	2.87
314.498	2.06
314.873	1.91
315.247	2.05
315.621	2.76
315.995	2.33
316.369	2.4
316.743	2.38
317.117	2.55
317.491	2.14
317.865	1.55
318.239	2.58
318.613	2.19
318.987	2.55
319.361	2.53
319.734	2.87
320.108	2.38
320.482	2.1
320.855	2.09
321.229	3.02
321.602	2.36
321.976	2.34
322.349	1.42
322.723	1.93
323.096	1.77
323.469	1.4
323.843	1.93
324.216	1.97
324.589	2.61
324.962	2.42
325.335	2.37
325.708	2.76
326.081	3.3
326.454	1.95
326.827	2.73
327.2	2.63
327.573	2.43
327.945	2.14
328.318	2.84
328.691	2.68
329.063	1.59
329.436	2.17
329.809	2.02
330.181	2.3
330.553	2.76
330.926	2.6
331.298	2.35
331.671	2.43
332.043	2.64
332.415	2.31
332.787	2.86
333.159	2.61
333.532	2.41
333.904	2.7
334.276	2.5
334.648	2.42
335.02	2.12
335.391	2.4
335.763	2.48
336.135	2.38
336.507	2.88
336.879	2.63
337.25	2.53
337.622	2.21
337.993	2.71
338.365	2.48
338.736	2.15
339.108	2.18
339.479	2.15
339.851	2.35
340.222	2.16
340.593	2.05
340.964	2.72
341.336	1.77
341.707	2.44
342.078	2.08
342.449	2.78
342.82	2.42
343.191	1.92
343.562	2.55
343.933	2.86
344.303	2.85
344.674	2.42
345.045	2.69
345.416	2.44
345.786	2.04
346.157	2.54
346.527	2.4
346.898	2.44
347.268	2.35
347.639	2.66
348.009	2.17
348.38	2.7
348.75	2.44
349.12	2.79
349.49	2.76
349.861	2.76
350.231	2.83
350.601	2.33
350.971	2.48
351.341	2.85
351.711	2.39
352.081	2.75
352.45	2.72
352.82	2.47
353.19	2.32
353.56	2.71
353.929	2.46
354.299	2.44
354.669	2.62
355.038	2.39
355.408	3.1
355.777	2.36
356.147	2.78
356.516	2.79
356.885	2.34
357.254	2.66
357.624	2.72
357.993	2.36
358.362	2.71
358.731	2.56
359.1	2.58
359.469	2.59
359.838	2.33
360.207	2.19
360.576	2.79
360.945	2.48
361.314	2.65
361.682	2.39
362.051	2.41
362.42	2.99
362.788	2.53
363.157	2.36
363.525	2.43
363.894	2.18
364.262	2.54
364.631	3.22
364.999	2.3
365.367	2.92
365.735	2.32
366.104	2.43
366.472	2.59
366.84	2.91
367.208	2.47
367.576	2.37
367.944	2.84
368.312	2.08
368.68	2.77
369.048	2.63
369.416	2.45
369.783	2.74
370.151	2.73
370.519	2.23
370.886	2.57
371.254	2.69
371.621	2.66
371.989	2.52
372.356	2.6
372.724	2.56
373.091	2.64
373.458	2.68
373.826	2.33
374.193	2.98
374.56	2.28
374.927	2.45
375.294	2.77
375.661	2.71
376.028	2.69
376.395	2.47
376.762	2.69
377.129	2.47
377.496	2.44
377.863	2.42
378.229	2.56
378.596	2.43
378.963	2.34
379.329	2.47
379.696	2.77
380.062	2.78
380.429	2.73
380.795	2.69
381.161	2.64
381.528	2.02
381.894	2.54
382.26	2.5
382.626	2.7
382.993	2.16
383.359	2.63
383.725	2.8
384.091	2.86
384.457	3
384.823	2.71
385.188	2.66
385.554	2.56
385.92	2.92
386.286	2.73
386.651	2.67
387.017	2.76
387.383	2.5
387.748	2.61
388.114	2.68
388.479	2.85
388.845	2.98
389.21	2.73
389.575	2.65
389.94	2.44
390.306	2.62
390.671	2.65
391.036	2.78
391.401	2.99
391.766	2.76
392.131	2.46
392.496	2.59
392.861	2.42
393.226	2.66
393.591	2.75
393.956	2.8
394.32	2.5
394.685	2.79
395.05	2.55
395.414	2.7
395.779	2.6
396.143	2.66
396.508	2.96
396.872	2.75
397.236	2.38
397.601	3.01
397.965	2.37
398.329	2.87
398.694	2.4
399.058	2.61
399.422	2.72
399.786	2.73
400.15	2.77
400.514	2.72
400.878	2.62
401.242	2.86
401.605	2.68
401.969	2.8
402.333	2.73
402.697	2.78
403.06	2.61
403.424	2.52
403.787	2.79
404.151	2.46
404.514	2.76
404.878	2.66
405.241	2.82
405.604	2.69
405.968	2.88
406.331	2.71
406.694	2.77
407.057	2.87
407.42	2.69
407.783	2.87
408.146	2.66
408.509	2.6
408.872	2.48
409.235	2.78
409.598	3.01
409.961	2.89
410.323	2.83
410.686	2.58
411.049	2.54
411.411	2.63
411.774	2.6
412.136	2.88
412.499	2.67
412.861	2.78
413.223	2.79
413.586	2.57
413.948	2.86
414.31	2.72
414.672	2.7
415.035	3.03
415.397	2.61
415.759	2.65
416.121	2.9
416.483	3.01
416.845	2.6
417.206	2.86
417.568	2.78
417.93	2.5
418.292	2.67
418.653	2.81
419.015	2.84
419.377	2.77
419.738	2.68
420.1	2.7
420.461	2.72
420.822	2.75
421.184	2.68
421.545	2.76
421.906	2.76
422.267	2.63
422.629	2.68
422.99	2.7
423.351	2.81
423.712	2.7
424.073	2.79
424.434	2.65
424.795	2.73
425.155	2.7
425.516	2.74
425.877	2.79
426.238	2.75
426.598	2.75
426.959	2.73
427.32	2.87
427.68	3.02
428.041	2.81
428.401	2.69
428.761	2.71
429.122	2.75
429.482	2.7
429.842	2.7
430.202	2.66
430.563	2.67
430.923	2.77
431.283	2.88
431.643	2.83
432.003	2.61
432.363	2.93
432.722	2.83
433.082	2.71
433.442	2.83
433.802	2.79
434.161	2.75
434.521	2.76
434.881	2.87
435.24	2.74
435.6	2.87
435.959	2.75
436.319	2.64
436.678	2.88
437.037	2.79
437.396	2.84
437.756	2.93
438.115	2.86
438.474	2.72
438.833	3.07
439.192	2.87
439.551	2.77
439.91	2.99
440.269	2.96
440.628	2.73
440.987	2.69
441.345	2.81
441.704	2.82
442.063	2.74
442.421	2.92
442.78	2.77
443.138	2.83
443.497	2.82
443.855	2.81
444.214	2.82
444.572	2.79
444.93	2.91
445.288	2.9
445.647	2.85
446.005	2.56
446.363	2.78
446.721	2.76
447.079	2.78
447.437	2.83
447.795	2.81
448.153	2.75
448.51	2.76
448.868	2.85
449.226	2.83
449.584	2.72
449.941	2.84
450.299	2.83
450.656	2.94
451.014	2.74
451.371	2.87
451.729	2.84
452.086	2.88
452.443	2.77
452.801	2.92
453.158	2.93
453.515	2.69
453.872	2.91
454.229	2.75
454.586	2.81
454.943	2.83
455.3	3.01
455.657	2.69
456.014	2.95
456.371	2.98
456.727	2.87
457.084	2.81
457.441	2.79
457.797	2.94
458.154	2.81
458.51	2.88
458.867	2.7
459.223	2.89
459.58	2.7
459.936	2.77
460.292	2.88
460.648	2.75
461.005	2.79
461.361	2.74
461.717	2.8
462.073	2.87
462.429	2.83
462.785	2.8
463.141	2.99
463.496	2.94
463.852	3.01
464.208	2.83
464.564	2.76
464.919	2.74
465.275	2.86
465.631	2.96
465.986	2.86
466.342	2.89
466.697	2.79
467.052	2.93
467.408	2.57
467.763	2.78
468.118	2.85
468.473	2.99
468.829	2.82
469.184	3.04
469.539	2.69
469.894	2.95
470.249	2.89
470.603	2.81
470.958	2.97
471.313	2.77
471.668	2.88
472.023	3.13
472.377	2.72
472.732	2.68
473.086	2.74
473.441	2.87
473.795	2.97
474.15	2.73
474.504	2.81
474.859	2.92
475.213	3.03
475.567	2.82
475.921	3.11
476.275	2.9
476.63	2.86
476.984	2.94
477.338	3.04
477.692	2.91
478.045	2.92
478.399	2.89
478.753	2.68
479.107	2.74
479.461	2.79
479.814	2.76
480.168	2.99
480.521	2.8
480.875	2.91
481.228	2.87
481.582	2.9
481.935	2.87
482.289	2.75
482.642	2.94
482.995	2.77
483.348	2.79
483.701	2.84
484.055	2.69
484.408	2.81
484.761	2.66
485.114	2.61
485.466	2.66
485.819	2.71
486.172	2.77
486.525	2.85
486.878	2.81
487.23	2.88
487.583	2.83
487.936	2.84
488.288	2.76
488.641	2.76
488.993	2.63
489.345	2.71
489.698	2.76
490.05	2.8
490.402	2.89
490.754	2.91
491.107	2.84
491.459	2.89
491.811	2.9
492.163	2.92
492.515	2.8
492.866	2.65
493.218	2.66
493.57	2.78
493.922	2.82
494.274	2.85
494.625	2.89
494.977	2.9
495.328	2.99
495.68	3.05
496.031	2.93
496.383	2.84
496.734	3.02
497.086	2.76
497.437	2.95
497.788	2.9
498.139	2.88
498.49	2.92
498.842	2.86
499.193	2.93
499.544	2.95
499.894	2.9
500.245	2.89
500.596	2.89
500.947	2.81
501.298	2.82
501.648	2.85
501.999	3.06
502.35	3.01
502.7	2.92
503.051	3.01
503.401	2.99
503.752	2.82
504.102	2.87
504.452	2.78
504.803	2.76
505.153	2.88
505.503	2.9
505.853	2.77
506.203	2.97
506.553	3.01
506.903	2.81
507.253	2.84
507.603	2.92
507.953	3.07
508.303	2.96
508.652	2.83
509.002	2.9
509.352	2.83
509.701	2.79
510.051	2.95
510.4	2.86
510.75	2.82
511.099	2.89
511.449	2.81
511.798	3.09
512.147	2.94
512.496	2.95
512.846	2.81
513.195	2.94
513.544	2.9
513.893	2.75
514.242	2.94
514.591	2.99
514.939	2.92
515.288	2.87
515.637	2.93
515.986	2.89
516.334	3.01
516.683	2.89
517.032	2.86
517.38	2.91
517.729	2.87
518.077	2.88
518.426	2.88
518.774	2.86
519.122	2.94
519.47	2.86
519.819	2.87
520.167	2.89
520.515	2.83
520.863	2.86
521.211	2.92
521.559	2.89
521.907	2.84
522.255	2.92
522.602	2.96
522.95	3.06
523.298	2.86
523.645	2.93
523.993	2.97
524.341	2.9
524.688	2.85
525.036	2.95
525.383	2.95
525.73	2.84
526.078	2.99
526.425	2.91
526.772	2.76
527.119	2.78
527.466	2.8
527.814	2.81
528.161	2.92
528.508	2.86
528.854	2.74
529.201	2.78
529.548	2.77
529.895	2.69
530.242	2.72
530.588	2.79
530.935	2.84
531.282	2.86
531.628	2.88
531.975	2.9
532.321	2.91
532.667	2.86
533.014	2.89
533.36	2.89
533.706	2.8
534.052	2.78
534.399	2.78
534.745	2.72
535.091	2.82
535.437	2.84
535.783	3.01
536.129	2.85
536.474	2.85
536.82	2.85
537.166	2.88
537.512	2.83
537.857	2.82
538.203	2.73
538.549	2.96
538.894	2.86
539.239	2.97
539.585	2.9
539.93	2.9
540.276	2.86
540.621	2.9
540.966	2.83
541.311	2.95
541.656	2.84
542.001	2.78
542.346	2.79
542.691	2.74
543.036	2.76
543.381	2.84
543.726	2.93
544.071	2.89
544.415	2.89
544.76	2.82
545.105	2.81
545.449	2.79
545.794	2.89
546.138	2.98
546.483	2.8
546.827	2.92
547.171	2.91
547.516	2.98
547.86	2.86
548.204	2.82
548.548	2.94
548.892	2.92
549.236	3
549.58	2.88
549.924	2.88
550.268	2.99
550.612	3.05
550.956	2.84
551.3	2.83
551.643	2.94
551.987	2.92
552.33	2.88
552.674	3.08
553.017	2.73
553.361	2.99
553.704	2.85
554.048	3.04
554.391	2.95
554.734	2.95
555.077	2.83
555.42	2.97
555.764	3.03
556.107	2.94
556.45	2.92
556.793	3.16
557.135	3.13
557.478	2.88
557.821	2.81
558.164	2.92
558.507	2.83
558.849	2.92
559.192	2.95
559.534	2.64
559.877	3.11
560.219	3.11
560.562	2.87
560.904	2.86
561.246	2.96
561.589	3.01
561.931	3.16
562.273	2.84
562.615	2.94
562.957	3.07
563.299	2.94
563.641	2.97
563.983	2.9
564.325	2.81
564.667	2.76
565.008	2.83
565.35	3.02
565.692	3.1
566.033	2.93
566.375	2.73
566.716	3.01
567.058	2.95
567.399	2.96
567.741	2.95
568.082	2.9
568.423	3
568.764	2.95
569.105	2.94
569.447	2.94
569.788	3.04
570.129	2.98
570.47	3.07
570.811	3.1
571.151	2.88
571.492	3.17
571.833	2.95
572.174	2.95
572.514	2.96
572.855	3.03
573.195	2.92
573.536	2.87
573.876	2.9
574.217	3.1
574.557	2.98
574.898	2.91
575.238	2.79
575.578	3.12
575.918	2.93
576.258	3.02
576.598	2.96
576.938	3.19
577.278	2.96
577.618	2.9
577.958	3.07
578.298	3.03
578.638	2.91
578.977	3.07
579.317	3.14
579.657	3.01
579.996	2.9
580.336	2.74
580.675	2.98
581.014	3.01
581.354	3.09
581.693	2.84
582.032	2.68
582.372	3.03
582.711	3.06
583.05	3
583.389	3.21
583.728	3.01
584.067	3.03
584.406	3.08
584.745	2.69
585.083	3.39
585.422	2.95
585.761	3.04
586.1	3.19
586.438	3.2
586.777	2.99
587.115	3.01
587.454	2.97
587.792	2.79
588.13	3.2
588.469	2.98
588.807	2.97
589.145	3.12
589.483	3.03
589.821	2.97
590.159	2.96
590.497	2.81
590.835	3.08
591.173	3.02
591.511	2.99
591.849	2.98
592.187	2.92
592.524	2.84
592.862	3.15
593.2	2.87
593.537	3.03
593.875	2.87
594.212	2.96
594.55	2.95
594.887	3.19
595.224	2.77
595.561	2.98
595.899	2.9
596.236	2.91
596.573	2.92
596.91	3.04
597.247	2.79
597.584	3.13
597.921	2.82
598.258	2.93
598.594	2.8
598.931	3.03
599.268	3.03
599.604	3.1
599.941	3.04
600.277	3.02
600.614	3.02
600.95	2.96
601.287	2.87
601.623	3.06
601.959	2.71
602.296	3.02
602.632	3.1
602.968	2.96
603.304	2.82
603.64	2.83
603.976	3.03
604.312	3.32
604.648	3.11
604.984	2.82
605.319	3.01
605.655	2.89
605.991	2.94
606.326	2.91
606.662	2.96
606.998	2.98
607.333	3.09
607.668	3.07
608.004	2.93
608.339	2.94
608.674	2.96
609.01	3.09
609.345	3.23
609.68	2.61
610.015	2.98
610.35	3.07
610.685	3.03
611.02	2.94
611.355	3.17
611.689	2.79
612.024	3.18
612.359	3.14
612.694	3.05
613.028	3.41
613.363	2.77
613.697	2.78
614.032	2.93
614.366	2.89
614.7	3.32
615.035	3.04
615.369	3.16
615.703	3.28
616.037	3.1
616.371	2.98
616.705	2.96
617.039	3.16
617.373	3.08
617.707	2.95
618.041	2.96
618.375	2.92
618.709	3.25
619.042	3.22
619.376	2.9
619.71	3.02
620.043	2.88
620.377	2.9
620.71	3.04
621.043	2.95
621.377	2.75
621.71	3.12
622.043	3.2
622.376	2.81
622.709	3.5
623.043	2.9
623.376	3.13
623.709	3.37
624.041	3.18
624.374	2.98
624.707	2.72
625.04	3.18
625.373	3.01
625.705	3.21
626.038	3.16
626.37	3.19
626.703	3.02
627.035	3.22
627.368	3.28
627.7	3.21
628.032	3.12
628.365	2.79
628.697	2.89
629.029	3.17
629.361	2.97
629.693	3.04
630.025	3.16
630.357	2.99
630.689	3.41
631.021	3.19
631.353	3.3
631.684	2.98
632.016	3.11
632.348	3.3
632.679	2.87
633.011	3
633.342	3.2
633.674	2.96
634.005	3.05
634.336	3.28
634.668	2.95
634.999	2.92
635.33	2.75
635.661	3.05
635.992	2.64
636.323	3.34
636.654	2.87
636.985	2.99
637.316	2.98
637.647	3.43
637.977	2.74
638.308	2.95
638.639	3.01
638.969	3.03
639.3	3.15
639.63	3.01
639.961	3.06
640.291	3.35
640.622	3.14
640.952	3.05
641.282	3.01
641.612	2.8
641.943	3.16
642.273	2.92
642.603	3.22
642.933	3.21
643.263	3
643.592	3.6
643.922	3.54
644.252	3.35
644.582	2.85
644.911	2.82
645.241	3.38
645.571	2.65
645.9	3.46
646.23	3.15
646.559	3.23
646.888	2.58
647.218	3.3
647.547	3.18
647.876	3.4
648.205	2.79
648.534	2.74
648.863	3.45
649.192	3.04
649.521	2.58
649.85	3.29
650.179	3.02
650.508	2.9
650.837	2.99
651.165	3.24
651.494	3.16
651.822	3.34
652.151	3.79
652.479	3.52
652.808	2.81
653.136	2.8
653.465	3.38
653.793	3.48
654.121	3.38
654.449	3.05
654.777	3.38
655.105	3.17
655.433	3.68
655.761	3.01
656.089	3.38
656.417	2.69
656.745	3.27
657.073	3.43
657.4	2.88
657.728	2.92
658.056	3.38
658.383	3.35
658.711	2.74
659.038	3.3
659.365	3.22
659.693	3.07
660.02	2.71
660.347	3.18
660.674	3.27
661.001	2.84
661.329	3.08
661.656	2.9
661.982	3.25
662.309	3.2
662.636	2.79
662.963	3.55
663.29	2.97
663.616	3.09
663.943	3.19
664.27	3.26
664.596	2.73
664.923	3.22
665.249	3.03
665.576	3.09
665.902	3.14
666.228	3.16
666.554	3.23
666.881	3.4
667.207	2.89
667.533	3.89
667.859	2.76
668.185	2.85
668.511	2.74
668.837	2.32
669.162	3.31
669.488	3.03
669.814	3.62
670.139	3.48
670.465	3.19
670.791	3.18
671.116	2.97
671.442	2.8
671.767	2.85
672.092	3.37
672.418	3.09
672.743	2.53
673.068	3.29
673.393	2.95
673.718	3.03
674.043	3.27
674.368	3.14
674.693	3.41
675.018	2.75
675.343	3.12
675.667	3.25
675.992	3.07
676.317	2.98
676.641	3.18
676.966	2.86
677.29	3.42
677.615	3.5
677.939	3.1
678.264	3.08
678.588	2.85
678.912	3.24
679.236	3.07
679.56	2.84
679.885	3.02
680.209	1.94
680.532	3.06
680.856	3.5
681.18	2.64
681.504	2.8
681.828	2.69
682.152	3.08
682.475	3.09
682.799	3.23
683.122	3
683.446	3.07
683.769	3.7
684.093	3.1
684.416	2.46
684.739	3.61
685.062	3.41
685.386	3.46
685.709	2.89
686.032	2.95
686.355	2.88
686.678	3.08
687.001	2.31
687.324	2.27
687.646	2.25
687.969	2.85
688.292	3.06
688.614	3.04
688.937	2.82
689.26	2.3
689.582	3.15
689.904	2.9
690.227	2.84
690.549	3.4
690.871	2.6
691.194	3.15
691.516	2.72
691.838	3.46
