Data from 0074_chest_Reflection__4__348.txt Node

Date: Fri Dec 16 16:50:27 CST 2022
User: ToomeyLab
Spectrometer: FLMS14357
Trigger mode: 0
Integration Time (sec): 1.000000E-2
Scans to average: 100
Electric dark correction enabled: true
Nonlinearity correction enabled: false
Boxcar width: 0
XAxis mode: Wavelengths
Number of Pixels in Spectrum: 2048
>>>>>Begin Spectral Data<<<<<
189.047	-339.9
189.435	-339.9
189.823	-339.9
190.211	21.97
190.599	322.43
190.987	-5142.37
191.375	105.83
191.763	575.6
192.151	0.47
192.538	1241.01
192.926	238.36
193.314	189.76
193.702	144.95
194.089	16.43
194.477	112.59
194.864	-224.42
195.252	-75.32
195.639	142.26
196.027	116.2
196.414	118.35
196.801	-252.07
197.189	68.18
197.576	2184
197.963	-451.72
198.351	-0.69
198.738	-5.8
199.125	36.18
199.512	-24.03
199.899	-72.77
200.286	-44.08
200.673	15.06
201.06	36.55
201.447	39
201.833	-1.91
202.22	34.63
202.607	-18.71
202.994	0.1
203.38	-98.81
203.767	-55.08
204.154	-77.99
204.54	7.48
204.927	11.05
205.313	34.62
205.699	-6.02
206.086	-5.6
206.472	-10.08
206.858	-16.24
207.245	11.23
207.631	-19.38
208.017	1.04
208.403	18.71
208.789	21.32
209.175	27.12
209.561	47.35
209.947	-24.32
210.333	-58.87
210.719	-42.07
211.105	-23.8
211.491	-23.2
211.876	-14.31
212.262	-7.09
212.648	-15.29
213.034	11.02
213.419	-5.04
213.805	7.45
214.19	-12
214.576	-41.87
214.961	-19.94
215.346	-37.56
215.732	-16.67
216.117	-15.65
216.502	-14.17
216.888	-73.55
217.273	26.26
217.658	-34.78
218.043	-19.54
218.428	5.91
218.813	-16.21
219.198	-21.08
219.583	2.58
219.968	-6.67
220.353	5.7
220.738	-22.3
221.122	-4.91
221.507	-12.73
221.892	11.06
222.276	0.09
222.661	-9.9
223.046	4.67
223.43	-6.34
223.815	15.68
224.199	3.79
224.583	4.36
224.968	6.11
225.352	-9.01
225.736	2.4
226.121	-4.71
226.505	0.05
226.889	7.48
227.273	-2.14
227.657	9.42
228.041	0.34
228.425	1.72
228.809	2.08
229.193	-1.3
229.577	2.41
229.961	1.26
230.344	2.76
230.728	2.41
231.112	1.58
231.495	0.86
231.879	2.57
232.263	1.6
232.646	2.01
233.03	1.05
233.413	2.84
233.797	4.91
234.18	-1.51
234.563	2.22
234.946	2.32
235.33	2.97
235.713	2.69
236.096	2.83
236.479	4.06
236.862	3.61
237.245	2.75
237.628	2.43
238.011	2.48
238.394	3.41
238.777	2.03
239.16	0.79
239.543	2.33
239.925	2.77
240.308	3.04
240.691	1.27
241.073	1.3
241.456	1.36
241.838	2.33
242.221	2.52
242.603	1.69
242.986	3.94
243.368	2.3
243.75	2.66
244.133	2.44
244.515	2.39
244.897	1.77
245.279	2.26
245.661	1.93
246.043	2.41
246.425	2.51
246.807	2.59
247.189	1.74
247.571	2.38
247.953	2.23
248.335	2.57
248.717	2.47
249.098	2.71
249.48	2.03
249.862	2.95
250.243	2.1
250.625	2.45
251.006	2.27
251.388	3.04
251.769	1.23
252.151	1.18
252.532	2.12
252.913	2.71
253.295	2.12
253.676	2.21
254.057	1.98
254.438	1.52
254.819	2.8
255.2	1.72
255.581	2.12
255.962	2.99
256.343	3.31
256.724	1.73
257.105	2.03
257.486	2.06
257.867	0.89
258.247	1.86
258.628	2.66
259.009	1.83
259.389	2.49
259.77	2.03
260.15	2.99
260.531	2.56
260.911	2.37
261.292	2.42
261.672	2.29
262.052	2.03
262.432	2.06
262.813	2.13
263.193	1.54
263.573	2.45
263.953	1.46
264.333	2.16
264.713	1.82
265.093	1.81
265.473	2.89
265.853	2.34
266.233	2.57
266.612	1.83
266.992	1.73
267.372	2.54
267.752	1.62
268.131	1.91
268.511	2.7
268.89	2.39
269.27	2.54
269.649	2.36
270.029	2.21
270.408	2.17
270.787	1.73
271.167	1.98
271.546	1.23
271.925	2.09
272.304	2.35
272.683	2.09
273.062	2.13
273.441	2.2
273.82	2.22
274.199	2.54
274.578	1.78
274.957	2.09
275.336	2.4
275.715	2.09
276.093	2.17
276.472	1.96
276.851	2.1
277.229	2.55
277.608	1.71
277.986	2.01
278.365	2.05
278.743	2.22
279.122	1.14
279.5	2.33
279.878	1.13
280.257	2.54
280.635	1.8
281.013	2.2
281.391	1.91
281.769	1.89
282.147	2.21
282.525	1.81
282.903	2.37
283.281	1.95
283.659	2.44
284.037	2.1
284.415	2.12
284.792	2.2
285.17	1.57
285.548	1.85
285.925	2.18
286.303	2.23
286.68	2.39
287.058	2.25
287.435	1.91
287.813	2.11
288.19	2.69
288.567	2.09
288.945	1.95
289.322	1.97
289.699	1.44
290.076	2.4
290.453	1.75
290.83	2.14
291.207	1.74
291.584	2.01
291.961	2.1
292.338	2.27
292.715	2.11
293.092	1.8
293.469	2.33
293.845	2.57
294.222	2.46
294.599	2.47
294.975	1.74
295.352	1.61
295.728	2.18
296.105	2.02
296.481	2.27
296.858	2.45
297.234	2.03
297.61	1.92
297.986	2.01
298.363	1.89
298.739	2.36
299.115	1.94
299.491	1.94
299.867	2.04
300.243	1.78
300.619	2.07
300.995	1.84
301.371	2.01
301.746	1.79
302.122	2.09
302.498	1.92
302.874	1.8
303.249	2.34
303.625	2.36
304	1.48
304.376	2.1
304.751	2.02
305.127	2.25
305.502	2.37
305.878	2.06
306.253	2.11
306.628	2.28
307.003	1.88
307.378	1.47
307.754	2.61
308.129	1.47
308.504	1.79
308.879	1.99
309.254	2.51
309.629	2.02
310.003	2.84
310.378	2.2
310.753	2.46
311.128	2.2
311.502	1.87
311.877	1.94
312.252	1.99
312.626	2.07
313.001	1.77
313.375	2.12
313.75	1.6
314.124	2.72
314.498	1.96
314.873	2.13
315.247	1.45
315.621	2.59
315.995	2.18
316.369	2.6
316.743	2.47
317.117	1.94
317.491	2.27
317.865	1.65
318.239	2.28
318.613	1.21
318.987	1.89
319.361	1.61
319.734	1.62
320.108	2.42
320.482	2.08
320.855	2.08
321.229	2.49
321.602	2.07
321.976	1.65
322.349	1.43
322.723	1.18
323.096	1.27
323.469	1.85
323.843	2.09
324.216	1.63
324.589	2.58
324.962	2.18
325.335	2.11
325.708	2.18
326.081	2.83
326.454	2.1
326.827	2.23
327.2	2.64
327.573	2.35
327.945	2.61
328.318	2.24
328.691	2
329.063	1.79
329.436	2.3
329.809	1.64
330.181	2
330.553	1.9
330.926	1.93
331.298	1.7
331.671	1.81
332.043	1.88
332.415	1.75
332.787	2.34
333.159	1.84
333.532	1.86
333.904	1.42
334.276	1.93
334.648	2.21
335.02	1.94
335.391	2.25
335.763	1.99
336.135	2.2
336.507	2.3
336.879	2.2
337.25	2.18
337.622	2.1
337.993	2.52
338.365	2.11
338.736	2.32
339.108	1.42
339.479	2.12
339.851	2.48
340.222	2.41
340.593	1.44
340.964	2
341.336	1.91
341.707	2.08
342.078	1.86
342.449	2.32
342.82	2.04
343.191	1.76
343.562	1.7
343.933	2.29
344.303	2.34
344.674	2.21
345.045	3.05
345.416	2.26
345.786	1.84
346.157	2.03
346.527	1.68
346.898	2.12
347.268	1.94
347.639	1.72
348.009	2.47
348.38	2.17
348.75	2.08
349.12	2.43
349.49	2.07
349.861	2.48
350.231	2.3
350.601	2.22
350.971	1.94
351.341	2.46
351.711	2.08
352.081	2.24
352.45	2.1
352.82	2.44
353.19	1.87
353.56	2.3
353.929	1.89
354.299	1.91
354.669	2.61
355.038	2.39
355.408	2.4
355.777	1.85
356.147	2.38
356.516	2.4
356.885	1.94
357.254	2.32
357.624	2.43
357.993	2.17
358.362	2.17
358.731	2.28
359.1	2.5
359.469	2.68
359.838	2.17
360.207	2.28
360.576	2.56
360.945	2.02
361.314	2.27
361.682	1.9
362.051	2.18
362.42	2.72
362.788	2.17
363.157	2.17
363.525	2.16
363.894	1.86
364.262	2.1
364.631	2.67
364.999	2.07
365.367	2.49
365.735	2.1
366.104	2.04
366.472	2.3
366.84	2.21
367.208	2.2
367.576	2.38
367.944	2.46
368.312	1.89
368.68	2.39
369.048	2.42
369.416	2.18
369.783	2.1
370.151	2.34
370.519	2.04
370.886	2.25
371.254	2.48
371.621	2.31
371.989	2.16
372.356	2.16
372.724	2.22
373.091	2.05
373.458	2.15
373.826	2.13
374.193	2.86
374.56	2.1
374.927	2.07
375.294	2.5
375.661	2.47
376.028	2.24
376.395	2.4
376.762	2.52
377.129	2.52
377.496	2.02
377.863	2.46
378.229	2.17
378.596	2.08
378.963	2.1
379.329	2.01
379.696	2.4
380.062	2.32
380.429	2.29
380.795	2.19
381.161	2.41
381.528	1.92
381.894	2.28
382.26	2.21
382.626	2.04
382.993	2.08
383.359	2.02
383.725	2.72
384.091	2.19
384.457	2.27
384.823	2.34
385.188	2.68
385.554	2.42
385.92	2.58
386.286	2.65
386.651	2.32
387.017	2.53
387.383	2.64
387.748	2.26
388.114	2.55
388.479	2.25
388.845	2.31
389.21	2.19
389.575	2.45
389.94	2.56
390.306	2.23
390.671	2.3
391.036	2.63
391.401	2.89
391.766	2.29
392.131	2.22
392.496	2.24
392.861	2.07
393.226	2.41
393.591	2.63
393.956	2.43
394.32	2.26
394.685	2.36
395.05	2.3
395.414	2.58
395.779	2.6
396.143	2.38
396.508	2.68
396.872	2.24
397.236	2.11
397.601	2.54
397.965	2.2
398.329	2.71
398.694	2.31
399.058	2.48
399.422	2.49
399.786	2.39
400.15	2.41
400.514	2.45
400.878	2.39
401.242	2.26
401.605	2.43
401.969	2.52
402.333	2.67
402.697	2.67
403.06	2.69
403.424	2.3
403.787	2.54
404.151	2.39
404.514	2.37
404.878	2.4
405.241	2.54
405.604	2.44
405.968	2.54
406.331	2.56
406.694	2.41
407.057	2.83
407.42	2.32
407.783	2.3
408.146	2.62
408.509	2.29
408.872	2.12
409.235	2.53
409.598	2.52
409.961	2.45
410.323	2.55
410.686	2.53
411.049	2.3
411.411	2.29
411.774	2.38
412.136	2.46
412.499	2.59
412.861	2.21
413.223	2.38
413.586	2.16
413.948	2.48
414.31	2.83
414.672	2.55
415.035	2.4
415.397	2.47
415.759	2.35
416.121	2.53
416.483	2.56
416.845	2.58
417.206	2.42
417.568	2.48
417.93	2.45
418.292	2.57
418.653	2.64
419.015	2.52
419.377	2.51
419.738	2.4
420.1	2.41
420.461	2.34
420.822	2.46
421.184	2.47
421.545	2.43
421.906	2.49
422.267	2.46
422.629	2.51
422.99	2.44
423.351	2.55
423.712	2.66
424.073	2.59
424.434	2.4
424.795	2.42
425.155	2.44
425.516	2.43
425.877	2.55
426.238	2.43
426.598	2.56
426.959	2.42
427.32	2.67
427.68	2.55
428.041	2.47
428.401	2.47
428.761	2.4
429.122	2.47
429.482	2.47
429.842	2.54
430.202	2.42
430.563	2.45
430.923	2.5
431.283	2.59
431.643	2.41
432.003	2.55
432.363	2.76
432.722	2.51
433.082	2.67
433.442	2.47
433.802	2.61
434.161	2.62
434.521	2.62
434.881	2.66
435.24	2.54
435.6	2.61
435.959	2.62
436.319	2.63
436.678	2.66
437.037	2.57
437.396	2.64
437.756	2.61
438.115	2.62
438.474	2.65
438.833	2.71
439.192	2.64
439.551	2.56
439.91	2.7
440.269	2.69
440.628	2.62
440.987	2.54
441.345	2.52
441.704	2.66
442.063	2.7
442.421	2.64
442.78	2.54
443.138	2.6
443.497	2.56
443.855	2.47
444.214	2.72
444.572	2.64
444.93	2.79
445.288	2.72
445.647	2.72
446.005	2.54
446.363	2.62
446.721	2.55
447.079	2.65
447.437	2.55
447.795	2.58
448.153	2.62
448.51	2.63
448.868	2.76
449.226	2.73
449.584	2.67
449.941	2.7
450.299	2.73
450.656	2.64
451.014	2.6
451.371	2.59
451.729	2.65
452.086	2.61
452.443	2.65
452.801	2.85
453.158	2.68
453.515	2.6
453.872	2.71
454.229	2.56
454.586	2.61
454.943	2.61
455.3	2.85
455.657	2.76
456.014	2.81
456.371	2.63
456.727	2.5
457.084	2.57
457.441	2.75
457.797	2.72
458.154	2.64
458.51	2.72
458.867	2.69
459.223	2.72
459.58	2.68
459.936	2.62
460.292	2.83
460.648	2.56
461.005	2.54
461.361	2.63
461.717	2.65
462.073	2.73
462.429	2.71
462.785	2.7
463.141	2.86
463.496	2.65
463.852	2.76
464.208	2.76
464.564	2.63
464.919	2.51
465.275	2.78
465.631	2.56
465.986	2.67
466.342	2.79
466.697	2.72
467.052	2.79
467.408	2.81
467.763	2.67
468.118	2.65
468.473	2.99
468.829	2.72
469.184	2.88
469.539	2.6
469.894	2.81
470.249	2.87
470.603	2.85
470.958	2.96
471.313	2.67
471.668	2.91
472.023	2.89
472.377	2.66
472.732	2.8
473.086	2.76
473.441	2.95
473.795	2.91
474.15	2.71
474.504	2.73
474.859	2.84
475.213	2.73
475.567	2.71
475.921	2.76
476.275	2.9
476.63	2.77
476.984	2.77
477.338	3.04
477.692	2.93
478.045	2.73
478.399	2.83
478.753	2.68
479.107	2.84
479.461	2.9
479.814	2.79
480.168	2.9
480.521	2.68
480.875	2.92
481.228	2.89
481.582	2.81
481.935	2.77
482.289	2.85
482.642	2.93
482.995	2.77
483.348	2.74
483.701	2.84
484.055	2.65
484.408	2.76
484.761	2.6
485.114	2.6
485.466	2.6
485.819	2.63
486.172	2.69
486.525	2.71
486.878	2.75
487.23	2.81
487.583	2.78
487.936	2.81
488.288	2.72
488.641	2.7
488.993	2.67
489.345	2.68
489.698	2.74
490.05	2.75
490.402	2.83
490.754	2.9
491.107	2.8
491.459	2.85
491.811	2.87
492.163	2.92
492.515	2.81
492.866	2.68
493.218	2.69
493.57	2.77
493.922	2.8
494.274	2.8
494.625	2.81
494.977	2.83
495.328	2.91
495.68	2.97
496.031	2.93
496.383	2.77
496.734	3.07
497.086	2.88
497.437	2.94
497.788	2.84
498.139	2.97
498.49	3.02
498.842	2.86
499.193	2.97
499.544	3.04
499.894	2.96
500.245	2.93
500.596	2.89
500.947	2.87
501.298	2.95
501.648	2.99
501.999	2.99
502.35	2.92
502.7	3.06
503.051	3.22
503.401	2.93
503.752	2.94
504.102	2.99
504.452	2.89
504.803	2.89
505.153	3.03
505.503	3.01
505.853	2.92
506.203	2.99
506.553	3.11
506.903	2.88
507.253	3.03
507.603	2.98
507.953	3.15
508.303	3.05
508.652	2.99
509.002	3.01
509.352	2.96
509.701	3.03
510.051	3.03
510.4	3.04
510.75	3.06
511.099	3
511.449	3.08
511.798	3.26
512.147	3.09
512.496	3.1
512.846	3
513.195	3
513.544	3.06
513.893	3
514.242	3.07
514.591	3.09
514.939	3.03
515.288	3.2
515.637	3.25
515.986	3.15
516.334	3.26
516.683	3.2
517.032	3.09
517.38	3.12
517.729	3.1
518.077	3.18
518.426	3.05
518.774	3.12
519.122	3.14
519.47	3.09
519.819	3.03
520.167	3.05
520.515	3.07
520.863	3.12
521.211	3.1
521.559	3.14
521.907	3.11
522.255	3.22
522.602	3.11
522.95	3.2
523.298	3.15
523.645	3.1
523.993	3.24
524.341	3.24
524.688	3.24
525.036	3.39
525.383	3.31
525.73	3.27
526.078	3.26
526.425	3.16
526.772	3
527.119	3.17
527.466	3.1
527.814	3.08
528.161	3.22
528.508	3.24
528.854	3.2
529.201	3.14
529.548	3.08
529.895	3.03
530.242	3.03
530.588	3.1
530.935	3.1
531.282	3.2
531.628	3.23
531.975	3.3
532.321	3.22
532.667	3.22
533.014	3.29
533.36	3.28
533.706	3.2
534.052	3.21
534.399	3.22
534.745	3.21
535.091	3.22
535.437	3.33
535.783	3.33
536.129	3.3
536.474	3.33
536.82	3.28
537.166	3.39
537.512	3.37
537.857	3.3
538.203	3.27
538.549	3.36
538.894	3.28
539.239	3.53
539.585	3.51
539.93	3.4
540.276	3.43
540.621	3.42
540.966	3.45
541.311	3.5
541.656	3.37
542.001	3.51
542.346	3.45
542.691	3.29
543.036	3.29
543.381	3.39
543.726	3.49
544.071	3.47
544.415	3.44
544.76	3.39
545.105	3.46
545.449	3.5
545.794	3.44
546.138	3.63
546.483	3.46
546.827	3.61
547.171	3.67
547.516	3.71
547.86	3.54
548.204	3.47
548.548	3.67
548.892	3.61
549.236	3.8
549.58	3.73
549.924	3.7
550.268	3.68
550.612	3.72
550.956	3.77
551.3	3.71
551.643	3.87
551.987	3.81
552.33	3.61
552.674	3.86
553.017	3.9
553.361	3.8
553.704	3.7
554.048	3.76
554.391	3.84
554.734	3.87
555.077	3.91
555.42	3.79
555.764	3.88
556.107	3.98
556.45	3.83
556.793	4.1
557.135	3.99
557.478	4.05
557.821	3.83
558.164	3.99
558.507	3.78
558.849	3.91
559.192	4.13
559.534	3.75
559.877	4.08
560.219	4.37
560.562	4.21
560.904	3.9
561.246	4.16
561.589	4.07
561.931	4.42
562.273	4.08
562.615	4.15
562.957	4.2
563.299	4.14
563.641	4.25
563.983	4.14
564.325	3.9
564.667	4.05
565.008	4.15
565.35	4.26
565.692	4.28
566.033	4.25
566.375	4.06
566.716	4.36
567.058	4.22
567.399	4.24
567.741	4.37
568.082	4.33
568.423	4.25
568.764	4.37
569.105	4.4
569.447	4.42
569.788	4.5
570.129	4.29
570.47	4.42
570.811	4.44
571.151	4.45
571.492	4.63
571.833	4.4
572.174	4.41
572.514	4.35
572.855	4.52
573.195	4.46
573.536	4.5
573.876	4.41
574.217	4.71
574.557	4.63
574.898	4.48
575.238	4.6
575.578	4.72
575.918	4.58
576.258	4.65
576.598	4.64
576.938	4.69
577.278	4.61
577.618	4.74
577.958	4.59
578.298	4.77
578.638	4.75
578.977	4.95
579.317	4.93
579.657	4.75
579.996	4.74
580.336	4.81
580.675	5.1
581.014	4.97
581.354	5.02
581.693	4.81
582.032	4.88
582.372	5.21
582.711	4.93
583.05	5.12
583.389	5.15
583.728	5.17
584.067	5.22
584.406	5.05
584.745	4.97
585.083	5.4
585.422	5.18
585.761	5.29
586.1	5.25
586.438	5.18
586.777	4.96
587.115	5.33
587.454	5.3
587.792	5.13
588.13	5.57
588.469	5.42
588.807	5.63
589.145	5.44
589.483	5.25
589.821	5.22
590.159	5.43
590.497	5.15
590.835	5.48
591.173	5.56
591.511	5.42
591.849	5.46
592.187	5.61
592.524	5.53
592.862	5.77
593.2	5.59
593.537	5.51
593.875	5.8
594.212	5.55
594.55	5.85
594.887	5.67
595.224	5.61
595.561	5.66
595.899	5.67
596.236	5.71
596.573	5.61
596.91	5.64
597.247	5.58
597.584	5.85
597.921	5.91
598.258	5.79
598.594	5.65
598.931	5.81
599.268	5.9
599.604	6.06
599.941	6.12
600.277	6.1
600.614	6.08
600.95	6.06
601.287	6.03
601.623	6.14
601.959	6.11
602.296	6.01
602.632	6.35
602.968	6.27
603.304	5.78
603.64	6.14
603.976	6.19
604.312	6.2
604.648	6.4
604.984	6.35
605.319	6.32
605.655	6.23
605.991	6.3
606.326	6.19
606.662	6.24
606.998	6.33
607.333	6.35
607.668	6.49
608.004	6.34
608.339	6.32
608.674	6.27
609.01	6.79
609.345	6.63
609.68	6.22
610.015	6.72
610.35	6.62
610.685	6.54
611.02	6.83
611.355	6.63
611.689	6.37
612.024	6.87
612.359	6.77
612.694	6.83
613.028	6.74
613.363	6.71
613.697	6.86
614.032	7.06
614.366	6.76
614.7	7.33
615.035	6.53
615.369	7.06
615.703	7.3
616.037	7.02
616.371	7.16
616.705	6.92
617.039	7.08
617.373	7.04
617.707	6.97
618.041	7.36
618.375	6.92
618.709	7.09
619.042	7.02
619.376	7.07
619.71	7.1
620.043	7.36
620.377	7.13
620.71	6.94
621.043	7.3
621.377	7.38
621.71	7.58
622.043	7.63
622.376	6.97
622.709	7.54
623.043	7.52
623.376	7.64
623.709	7.91
624.041	7.33
624.374	7.51
624.707	7.5
625.04	7.93
625.373	7.66
625.705	8.06
626.038	7.48
626.37	7.66
626.703	7.56
627.035	7.86
627.368	8.05
627.7	7.85
628.032	7.83
628.365	7.6
628.697	8.04
629.029	8.04
629.361	7.71
629.693	7.82
630.025	8.13
630.357	7.98
630.689	8.2
631.021	8.02
631.353	8.18
631.684	8.43
632.016	8.25
632.348	7.97
632.679	8.03
633.011	7.92
633.342	8.35
633.674	8.26
634.005	8.3
634.336	8.57
634.668	8.31
634.999	8.5
635.33	8.45
635.661	8.39
635.992	8.19
636.323	8.7
636.654	8.26
636.985	8.37
637.316	8.45
637.647	8.67
637.977	8.77
638.308	8.79
638.639	8.3
638.969	8.81
639.3	8.68
639.63	8.62
639.961	8.42
640.291	9.27
640.622	8.9
640.952	8.76
641.282	8.5
641.612	8.9
641.943	9.13
642.273	9.24
642.603	9.07
642.933	9.33
643.263	9.22
643.592	8.77
643.922	9.78
644.252	9.44
644.582	9.08
644.911	9.07
645.241	8.95
645.571	9.17
645.9	9.73
646.23	8.81
646.559	9.43
646.888	9
647.218	9.92
647.547	9.51
647.876	9.62
648.205	9.35
648.534	9.57
648.863	9.36
649.192	9.58
649.521	8.95
649.85	9.44
650.179	9.06
650.508	9.95
650.837	9.67
651.165	9.47
651.494	9.71
651.822	9.81
652.151	10.25
652.479	10.19
652.808	9.67
653.136	9.55
653.465	9.81
653.793	10.05
654.121	10.27
654.449	9.9
654.777	9.91
655.105	10.35
655.433	10.06
655.761	10.12
656.089	10.09
656.417	10.41
656.745	10.85
657.073	10.6
657.4	10.3
657.728	10.11
658.056	10.24
658.383	10.31
658.711	10.09
659.038	10.93
659.365	10.26
659.693	10.44
660.02	10.5
660.347	10.53
660.674	10.38
661.001	10.07
661.329	10.56
661.656	10.48
661.982	10.81
662.309	10.49
662.636	10.32
662.963	10.86
663.29	10.51
663.616	11.38
663.943	10.72
664.27	11.03
664.596	10.31
664.923	11.03
665.249	10.93
665.576	10.74
665.902	11.12
666.228	10.9
666.554	10.85
666.881	11.25
667.207	10.56
667.533	11.23
667.859	10.88
668.185	11.08
668.511	10.98
668.837	10.54
669.162	11.23
669.488	11.39
669.814	11.86
670.139	11.7
670.465	11.09
670.791	11.75
671.116	11.1
671.442	11.21
671.767	11.68
672.092	11.72
672.418	11.43
672.743	11.64
673.068	11.53
673.393	11.86
673.718	11.39
674.043	11.65
674.368	11.59
674.693	12.43
675.018	12.23
675.343	12.16
675.667	11.79
675.992	12.03
676.317	12.31
676.641	11.74
676.966	12.56
677.29	11.18
677.615	11.93
677.939	11.98
678.264	12.21
678.588	12.72
678.912	12.16
679.236	12.48
679.56	12.15
679.885	12.21
680.209	12.06
680.532	11.94
680.856	12.76
681.18	12.08
681.504	12
681.828	12.2
682.152	11.92
682.475	12.7
682.799	12.82
683.122	12.72
683.446	12.68
683.769	12.98
684.093	13.37
684.416	12.68
684.739	12.61
685.062	13.34
685.386	12.41
685.709	12.2
686.032	12.57
686.355	12.9
686.678	13.26
687.001	12.67
687.324	12.54
687.646	12.19
687.969	12.91
688.292	13.04
688.614	13.43
688.937	12.53
689.26	12.43
689.582	12.95
689.904	13.28
690.227	13.39
