Data from 0074_crown_Reflection__1__350.txt Node

Date: Fri Dec 16 16:51:25 CST 2022
User: ToomeyLab
Spectrometer: FLMS14357
Trigger mode: 0
Integration Time (sec): 1.000000E-2
Scans to average: 100
Electric dark correction enabled: true
Nonlinearity correction enabled: false
Boxcar width: 0
XAxis mode: Wavelengths
Number of Pixels in Spectrum: 2048
>>>>>Begin Spectral Data<<<<<
189.047	-357.02
189.435	-357.02
189.823	-357.02
190.211	18.05
190.599	-497.1
190.987	-725.42
191.375	112.04
191.763	297.81
192.151	286.43
192.538	726.08
192.926	613.26
193.314	72.83
193.702	15.66
194.089	52.58
194.477	67.06
194.864	711.58
195.252	77.28
195.639	125.82
196.027	-136.86
196.414	48.21
196.801	-31.83
197.189	94.01
197.576	-5925.33
197.963	-165.68
198.351	-9.34
198.738	-98.08
199.125	29.63
199.512	0.4
199.899	-37.45
200.286	-71.43
200.673	42.91
201.06	12.92
201.447	-0.53
201.833	7.38
202.22	-19.55
202.607	16.04
202.994	27.9
203.38	-228.73
203.767	-57.86
204.154	-63.79
204.54	31.5
204.927	31.15
205.313	24.52
205.699	-6.98
206.086	-3.2
206.472	-15.42
206.858	-1.31
207.245	32.31
207.631	-6.71
208.017	10.28
208.403	-1.96
208.789	23.63
209.175	22.9
209.561	27.12
209.947	-15.05
210.333	-29.29
210.719	7.2
211.105	-114.26
211.491	-11.04
211.876	-1.64
212.262	-2.13
212.648	-108.83
213.034	-14.99
213.419	5.09
213.805	7.32
214.19	-17.86
214.576	18.34
214.961	5.52
215.346	-27.71
215.732	-21.07
216.117	-28.28
216.502	-24.96
216.888	-49.75
217.273	13.98
217.658	-19.17
218.043	-6.38
218.428	1.79
218.813	-22.73
219.198	-37.91
219.583	5.4
219.968	5.12
220.353	17.25
220.738	-25.77
221.122	5.35
221.507	0.29
221.892	4.98
222.276	-3.87
222.661	2.21
223.046	-0.62
223.43	-14.21
223.815	6.85
224.199	2.78
224.583	3.01
224.968	9.81
225.352	10.22
225.736	16.07
226.121	4.47
226.505	12.61
226.889	18.12
227.273	18.66
227.657	13.74
228.041	7.41
228.425	13.45
228.809	12.62
229.193	11.39
229.577	9.9
229.961	12.01
230.344	12.16
230.728	11.57
231.112	11.82
231.495	9.98
231.879	11.89
232.263	9.88
232.646	10.4
233.03	8.27
233.413	10.46
233.797	12.52
234.18	6.86
234.563	9.98
234.946	11.5
235.33	11.22
235.713	11.49
236.096	10.76
236.479	11.72
236.862	11.99
237.245	10.13
237.628	12.01
238.011	9.67
238.394	10.77
238.777	9.22
239.16	8.47
239.543	11.62
239.925	9.78
240.308	12.05
240.691	11.09
241.073	10.62
241.456	10.11
241.838	10.8
242.221	10.75
242.603	11.03
242.986	11.1
243.368	10.84
243.75	10.38
244.133	10.43
244.515	10.7
244.897	10.12
245.279	10.21
245.661	10.67
246.043	11.02
246.425	10.32
246.807	10.58
247.189	10.02
247.571	10.99
247.953	10.47
248.335	10.56
248.717	10.28
249.098	10.36
249.48	9.93
249.862	10.39
250.243	9.94
250.625	10.11
251.006	9.99
251.388	10.89
251.769	9.24
252.151	10.04
252.532	10.13
252.913	10.42
253.295	10.15
253.676	10.64
254.057	9.48
254.438	8.61
254.819	9.93
255.2	9.87
255.581	8.39
255.962	9.07
256.343	9.88
256.724	9.06
257.105	10.14
257.486	10.36
257.867	7.54
258.247	9.22
258.628	9.84
259.009	9.45
259.389	10.11
259.77	10.41
260.15	10.26
260.531	9.69
260.911	9.47
261.292	9.67
261.672	9.42
262.052	8.91
262.432	9.12
262.813	9.83
263.193	8.79
263.573	9.31
263.953	9.1
264.333	9.59
264.713	8.87
265.093	8.87
265.473	10.66
265.853	9.02
266.233	9.45
266.612	9.88
266.992	9.09
267.372	8.97
267.752	8.64
268.131	9
268.511	9.44
268.89	9.37
269.27	9.12
269.649	8.81
270.029	8.96
270.408	9.07
270.787	8.73
271.167	8.94
271.546	8.17
271.925	9.12
272.304	9.07
272.683	8.89
273.062	8.95
273.441	9.58
273.82	8.91
274.199	9.24
274.578	8.59
274.957	8.38
275.336	8.23
275.715	8.96
276.093	9.45
276.472	8.65
276.851	9.1
277.229	8.82
277.608	8.19
277.986	8.49
278.365	8.44
278.743	8.29
279.122	8.45
279.5	8.02
279.878	8.56
280.257	8.33
280.635	8.28
281.013	8.83
281.391	8.6
281.769	8.71
282.147	8.77
282.525	8.4
282.903	8.97
283.281	8.59
283.659	8.64
284.037	8.6
284.415	8.33
284.792	8.43
285.17	7.89
285.548	9.01
285.925	8.58
286.303	8.41
286.68	8.64
287.058	8.22
287.435	8.41
287.813	8.23
288.19	8.47
288.567	8.34
288.945	8.66
289.322	8.45
289.699	8.27
290.076	7.95
290.453	8.25
290.83	8.17
291.207	8.18
291.584	8.19
291.961	8.33
292.338	8.5
292.715	7.89
293.092	8.03
293.469	8.59
293.845	8.42
294.222	7.75
294.599	8.23
294.975	8.32
295.352	8.31
295.728	8.04
296.105	8.32
296.481	8.34
296.858	8.27
297.234	8.12
297.61	8.12
297.986	8.13
298.363	7.7
298.739	8.45
299.115	7.78
299.491	7.94
299.867	7.98
300.243	7.56
300.619	7.55
300.995	8.3
301.371	8.36
301.746	7.92
302.122	7.89
302.498	7.81
302.874	7.46
303.249	8
303.625	7.88
304	7.24
304.376	7.42
304.751	7.93
305.127	7.77
305.502	7.42
305.878	7.75
306.253	7.39
306.628	7.84
307.003	8.08
307.378	7.7
307.754	8.16
308.129	7.5
308.504	7.68
308.879	8.08
309.254	7.86
309.629	7.52
310.003	7.69
310.378	7.77
310.753	7.92
311.128	7.3
311.502	7.64
311.877	7.9
312.252	7.68
312.626	7.38
313.001	7.69
313.375	7.32
313.75	7.51
314.124	7.98
314.498	7.58
314.873	7.9
315.247	7.45
315.621	7.79
315.995	7.57
316.369	7.38
316.743	7.66
317.117	7.31
317.491	7.77
317.865	6.78
318.239	7.85
318.613	7.64
318.987	7.68
319.361	7.38
319.734	7.69
320.108	7.48
320.482	7.39
320.855	7.63
321.229	7.91
321.602	7.14
321.976	7.59
322.349	6.83
322.723	6.93
323.096	7.2
323.469	7.39
323.843	7.61
324.216	7.28
324.589	7.75
324.962	7.91
325.335	7.9
325.708	7.84
326.081	7.79
326.454	7.57
326.827	6.85
327.2	7.87
327.573	7.89
327.945	7.55
328.318	7.06
328.691	7.18
329.063	7.41
329.436	6.97
329.809	7.1
330.181	7.02
330.553	7.53
330.926	7.71
331.298	6.88
331.671	6.99
332.043	7.58
332.415	7.73
332.787	8.01
333.159	7.58
333.532	7.13
333.904	7.61
334.276	7.65
334.648	7.51
335.02	7.05
335.391	7.84
335.763	7.45
336.135	7.53
336.507	7.36
336.879	7.31
337.25	7.52
337.622	7.48
337.993	7.6
338.365	7.47
338.736	7.89
339.108	7.03
339.479	7.13
339.851	8.1
340.222	7.36
340.593	7.81
340.964	7.34
341.336	7.04
341.707	7.25
342.078	6.94
342.449	8.14
342.82	7.21
343.191	7.53
343.562	7.63
343.933	7.45
344.303	7.66
344.674	8.02
345.045	8.08
345.416	7.4
345.786	7.13
346.157	7.47
346.527	7.34
346.898	7.28
347.268	7.35
347.639	7.82
348.009	7.94
348.38	7.37
348.75	7.36
349.12	7.5
349.49	7.21
349.861	7.93
350.231	8.2
350.601	7.58
350.971	7.41
351.341	7.68
351.711	7.57
352.081	7.46
352.45	7.81
352.82	7.8
353.19	7.44
353.56	7.73
353.929	7.97
354.299	7.3
354.669	7.53
355.038	7.77
355.408	8.37
355.777	7.39
356.147	8.07
356.516	7.94
356.885	7.68
357.254	8.07
357.624	7.76
357.993	7.62
358.362	7.75
358.731	7.59
359.1	7.97
359.469	7.87
359.838	7.46
360.207	7.6
360.576	8.03
360.945	7.68
361.314	7.8
361.682	7.84
362.051	7.56
362.42	8.04
362.788	8.18
363.157	7.81
363.525	7.71
363.894	7.44
364.262	7.8
364.631	8.38
364.999	7.37
365.367	7.73
365.735	7.5
366.104	7.45
366.472	7.97
366.84	7.71
367.208	7.63
367.576	8.06
367.944	8.04
368.312	7.35
368.68	7.66
369.048	8.27
369.416	7.62
369.783	8.21
370.151	7.98
370.519	7.62
370.886	7.91
371.254	7.93
371.621	8.03
371.989	8.33
372.356	7.85
372.724	8.13
373.091	8.1
373.458	7.91
373.826	7.8
374.193	8.39
374.56	7.74
374.927	7.75
375.294	7.94
375.661	8.27
376.028	8.11
376.395	7.84
376.762	8.12
377.129	8.36
377.496	8.06
377.863	8.02
378.229	7.95
378.596	8.17
378.963	7.96
379.329	7.81
379.696	7.93
380.062	7.91
380.429	8.13
380.795	7.91
381.161	8.44
381.528	7.68
381.894	8.21
382.26	8.32
382.626	7.72
382.993	7.98
383.359	7.99
383.725	8.08
384.091	8
384.457	8.26
384.823	8.32
385.188	8.18
385.554	8.08
385.92	8.46
386.286	8.31
386.651	8.2
387.017	8.3
387.383	8.22
387.748	8.39
388.114	8.33
388.479	8.44
388.845	8.18
389.21	8.34
389.575	8.25
389.94	8.12
390.306	8.35
390.671	8.29
391.036	7.94
391.401	8.81
391.766	8.31
392.131	8.34
392.496	8.36
392.861	8
393.226	8.32
393.591	8.26
393.956	8.43
394.32	8.1
394.685	8.47
395.05	8.34
395.414	8.24
395.779	8.23
396.143	8.28
396.508	8.28
396.872	8.47
397.236	7.79
397.601	8.46
397.965	8.22
398.329	8.46
398.694	8.19
399.058	8.51
399.422	8.46
399.786	8.39
400.15	8.33
400.514	8.42
400.878	8.37
401.242	8.59
401.605	8.26
401.969	8.57
402.333	8.59
402.697	8.39
403.06	8.19
403.424	8.51
403.787	8.46
404.151	8.22
404.514	8.31
404.878	8.49
405.241	8.66
405.604	8.45
405.968	8.51
406.331	8.4
406.694	8.54
407.057	8.52
407.42	8.43
407.783	8.22
408.146	8.52
408.509	8.14
408.872	8.27
409.235	8.56
409.598	8.61
409.961	8.57
410.323	8.28
410.686	8.23
411.049	8.23
411.411	8.56
411.774	8.34
412.136	8.18
412.499	8.13
412.861	8.26
413.223	8.71
413.586	8.42
413.948	8.51
414.31	8.68
414.672	8.5
415.035	8.63
415.397	8.58
415.759	8.65
416.121	8.73
416.483	8.74
416.845	8.53
417.206	8.81
417.568	8.56
417.93	8.47
418.292	8.49
418.653	8.68
419.015	8.56
419.377	8.64
419.738	8.49
420.1	8.47
420.461	8.47
420.822	8.46
421.184	8.52
421.545	8.5
421.906	8.51
422.267	8.5
422.629	8.48
422.99	8.44
423.351	8.57
423.712	8.47
424.073	8.55
424.434	8.5
424.795	8.52
425.155	8.68
425.516	8.54
425.877	8.51
426.238	8.48
426.598	8.57
426.959	8.41
427.32	8.48
427.68	8.5
428.041	8.45
428.401	8.55
428.761	8.6
429.122	8.45
429.482	8.63
429.842	8.61
430.202	8.57
430.563	8.58
430.923	8.53
431.283	8.69
431.643	8.69
432.003	8.65
432.363	8.83
432.722	8.61
433.082	8.67
433.442	8.61
433.802	8.68
434.161	8.73
434.521	8.56
434.881	8.72
435.24	8.53
435.6	8.6
435.959	8.62
436.319	8.63
436.678	8.64
437.037	8.64
437.396	8.64
437.756	8.59
438.115	8.61
438.474	8.54
438.833	8.79
439.192	8.72
439.551	8.43
439.91	8.85
440.269	8.9
440.628	8.57
440.987	8.57
441.345	8.65
441.704	8.57
442.063	8.64
442.421	8.75
442.78	8.62
443.138	8.6
443.497	8.54
443.855	8.52
444.214	8.7
444.572	8.64
444.93	8.87
445.288	8.69
445.647	8.76
446.005	8.76
446.363	8.74
446.721	8.53
447.079	8.68
447.437	8.65
447.795	8.69
448.153	8.68
448.51	8.55
448.868	8.61
449.226	8.56
449.584	8.65
449.941	8.76
450.299	8.75
450.656	8.69
451.014	8.7
451.371	8.83
451.729	8.81
452.086	8.79
452.443	8.65
452.801	8.88
453.158	8.8
453.515	8.72
453.872	9
454.229	8.69
454.586	8.74
454.943	8.52
455.3	8.94
455.657	8.82
456.014	8.96
456.371	8.93
456.727	8.6
457.084	8.79
457.441	8.82
457.797	8.89
458.154	8.83
458.51	8.83
458.867	8.81
459.223	8.79
459.58	8.75
459.936	8.76
460.292	8.92
460.648	8.75
461.005	8.64
461.361	8.76
461.717	8.62
462.073	8.65
462.429	8.75
462.785	8.71
463.141	8.92
463.496	8.73
463.852	8.95
464.208	8.94
464.564	8.7
464.919	8.79
465.275	8.8
465.631	9.09
465.986	8.88
466.342	8.99
466.697	8.67
467.052	8.79
467.408	8.7
467.763	8.96
468.118	8.84
468.473	8.99
468.829	8.9
469.184	8.81
469.539	8.89
469.894	8.89
470.249	8.92
470.603	8.97
470.958	8.88
471.313	8.9
471.668	8.84
472.023	8.85
472.377	8.82
472.732	8.84
473.086	8.8
473.441	8.96
473.795	9.03
474.15	8.84
474.504	8.91
474.859	8.83
475.213	8.7
475.567	8.68
475.921	8.98
476.275	8.97
476.63	8.95
476.984	8.96
477.338	8.99
477.692	8.98
478.045	9.02
478.399	8.91
478.753	8.76
479.107	8.91
479.461	9.04
479.814	8.77
480.168	8.78
480.521	8.84
480.875	8.94
481.228	8.94
481.582	8.68
481.935	8.9
482.289	8.81
482.642	8.93
482.995	8.78
483.348	8.81
483.701	8.75
484.055	8.84
484.408	8.86
484.761	8.66
485.114	8.63
485.466	8.57
485.819	8.41
486.172	8.35
486.525	8.41
486.878	8.48
487.23	8.63
487.583	8.61
487.936	8.71
488.288	8.71
488.641	8.7
488.993	8.53
489.345	8.49
489.698	8.61
490.05	8.5
490.402	8.59
490.754	8.62
491.107	8.64
491.459	8.7
491.811	8.8
492.163	8.85
492.515	8.76
492.866	8.7
493.218	8.61
493.57	8.61
493.922	8.53
494.274	8.55
494.625	8.61
494.977	8.78
495.328	8.81
495.68	8.94
496.031	8.86
496.383	8.79
496.734	9.02
497.086	8.78
497.437	8.96
497.788	8.91
498.139	8.92
498.49	8.77
498.842	8.75
499.193	8.84
499.544	8.9
499.894	8.85
500.245	8.89
500.596	8.76
500.947	8.83
501.298	8.86
501.648	8.92
501.999	9
502.35	8.95
502.7	9
503.051	9
503.401	8.97
503.752	8.88
504.102	9.12
504.452	8.79
504.803	8.69
505.153	9.09
505.503	8.96
505.853	8.97
506.203	8.97
506.553	9
506.903	8.88
507.253	8.9
507.603	8.86
507.953	9.07
508.303	8.93
508.652	8.97
509.002	8.97
509.352	8.9
509.701	8.94
510.051	9.01
510.4	8.98
510.75	8.89
511.099	8.88
511.449	8.94
511.798	8.96
512.147	8.89
512.496	8.85
512.846	8.9
513.195	8.91
513.544	8.85
513.893	8.82
514.242	8.96
514.591	8.92
514.939	8.84
515.288	8.97
515.637	8.91
515.986	8.78
516.334	9
516.683	8.85
517.032	8.86
517.38	8.94
517.729	8.88
518.077	8.93
518.426	8.87
518.774	8.92
519.122	8.84
519.47	8.86
519.819	8.89
520.167	8.82
520.515	8.78
520.863	8.8
521.211	8.79
521.559	8.82
521.907	8.87
522.255	8.82
522.602	8.93
522.95	8.88
523.298	8.76
523.645	8.91
523.993	9
524.341	8.85
524.688	8.92
525.036	8.99
525.383	8.99
525.73	8.91
526.078	8.85
526.425	8.9
526.772	8.78
527.119	8.83
527.466	8.79
527.814	8.75
528.161	8.75
528.508	8.73
528.854	8.76
529.201	8.75
529.548	8.76
529.895	8.67
530.242	8.63
530.588	8.6
530.935	8.47
531.282	8.51
531.628	8.5
531.975	8.63
532.321	8.64
532.667	8.78
533.014	8.73
533.36	8.74
533.706	8.77
534.052	8.74
534.399	8.75
534.745	8.62
535.091	8.68
535.437	8.66
535.783	8.59
536.129	8.65
536.474	8.69
536.82	8.68
537.166	8.78
537.512	8.74
537.857	8.79
538.203	8.73
538.549	8.85
538.894	8.6
539.239	8.83
539.585	8.79
539.93	8.92
540.276	8.76
540.621	8.85
540.966	8.82
541.311	8.95
541.656	8.78
542.001	8.92
542.346	8.83
542.691	8.67
543.036	8.64
543.381	8.62
543.726	8.53
544.071	8.64
544.415	8.56
544.76	8.66
545.105	8.75
545.449	8.65
545.794	8.72
546.138	8.76
546.483	8.81
546.827	8.68
547.171	8.77
547.516	8.9
547.86	8.77
548.204	8.78
548.548	8.83
548.892	8.77
549.236	8.78
549.58	8.96
549.924	8.66
550.268	8.8
550.612	8.66
550.956	8.8
551.3	8.86
551.643	8.85
551.987	8.8
552.33	8.78
552.674	8.86
553.017	8.87
553.361	8.58
553.704	8.84
554.048	8.88
554.391	8.81
554.734	8.73
555.077	8.78
555.42	8.51
555.764	8.8
556.107	8.64
556.45	8.53
556.793	8.97
557.135	8.97
557.478	8.85
557.821	8.82
558.164	8.76
558.507	8.8
558.849	8.73
559.192	8.87
559.534	8.62
559.877	8.85
560.219	8.88
560.562	8.89
560.904	8.76
561.246	8.88
561.589	8.97
561.931	8.9
562.273	8.64
562.615	8.83
562.957	8.86
563.299	8.82
563.641	8.84
563.983	8.61
564.325	8.66
564.667	8.63
565.008	8.55
565.35	8.8
565.692	8.93
566.033	8.87
566.375	8.79
566.716	8.86
567.058	8.83
567.399	8.84
567.741	8.97
568.082	8.79
568.423	8.69
568.764	8.67
569.105	9
569.447	8.78
569.788	8.76
570.129	8.69
570.47	8.92
570.811	8.84
571.151	8.83
571.492	8.87
571.833	8.98
572.174	8.81
572.514	8.65
572.855	8.7
573.195	8.64
573.536	8.69
573.876	8.8
574.217	8.7
574.557	8.88
574.898	8.62
575.238	8.57
575.578	8.77
575.918	8.8
576.258	8.92
576.598	8.9
576.938	8.95
577.278	8.6
577.618	8.53
577.958	8.75
578.298	8.87
578.638	8.7
578.977	8.8
579.317	8.81
579.657	8.53
579.996	8.65
580.336	8.57
580.675	8.78
581.014	8.81
581.354	8.89
581.693	8.74
582.032	8.77
582.372	8.88
582.711	8.6
583.05	9.11
583.389	8.95
583.728	8.82
584.067	8.78
584.406	8.91
584.745	8.59
585.083	9.04
585.422	8.65
585.761	8.7
586.1	8.82
586.438	8.88
586.777	8.57
587.115	8.88
587.454	8.84
587.792	8.58
588.13	8.96
588.469	8.93
588.807	8.96
589.145	8.91
589.483	8.54
589.821	8.79
590.159	8.74
590.497	8.57
590.835	8.66
591.173	8.69
591.511	8.76
591.849	8.86
592.187	8.67
592.524	8.55
592.862	8.68
593.2	8.71
593.537	8.5
593.875	8.7
594.212	8.45
594.55	8.69
594.887	8.84
595.224	8.49
595.561	8.78
595.899	8.58
596.236	8.7
596.573	8.61
596.91	8.59
597.247	8.76
597.584	8.96
597.921	8.82
598.258	8.71
598.594	8.32
598.931	8.69
599.268	8.57
599.604	8.61
599.941	8.53
600.277	8.74
600.614	8.47
600.95	8.91
601.287	8.68
601.623	8.7
601.959	8.54
602.296	8.69
602.632	8.77
602.968	8.66
603.304	8.44
603.64	8.55
603.976	8.42
604.312	8.76
604.648	8.97
604.984	8.82
605.319	8.68
605.655	8.68
605.991	8.77
606.326	8.52
606.662	8.56
606.998	8.54
607.333	8.59
607.668	8.67
608.004	8.45
608.339	8.49
608.674	8.54
609.01	8.44
609.345	8.66
609.68	8.42
610.015	8.9
610.35	8.79
610.685	8.69
611.02	8.58
611.355	8.82
611.689	8.41
612.024	8.63
612.359	8.89
612.694	8.84
613.028	8.89
613.363	8.29
613.697	8.76
614.032	8.59
614.366	8.71
614.7	8.82
615.035	8.27
615.369	8.6
615.703	8.82
616.037	8.41
616.371	8.55
616.705	8.53
617.039	8.74
617.373	8.63
617.707	8.41
618.041	8.8
618.375	8.55
618.709	8.48
619.042	8.75
619.376	8.73
619.71	8.69
620.043	8.28
620.377	8.65
620.71	8.47
621.043	8.29
621.377	8.65
621.71	8.65
622.043	8.74
622.376	8.65
622.709	8.89
623.043	8.89
623.376	8.74
623.709	8.88
624.041	8.41
624.374	8.42
624.707	8.73
625.04	8.85
625.373	8.48
625.705	8.59
626.038	8.53
626.37	8.55
626.703	8.82
627.035	8.73
627.368	8.7
627.7	8.69
628.032	8.66
628.365	8.44
628.697	8.74
629.029	8.81
629.361	8.56
629.693	8.58
630.025	8.66
630.357	8.67
630.689	9.13
631.021	8.57
631.353	9
631.684	8.73
632.016	8.45
632.348	8.44
632.679	8.52
633.011	8.42
633.342	8.71
633.674	8.66
634.005	8.81
634.336	8.84
634.668	8.67
634.999	8.54
635.33	8.82
635.661	8.7
635.992	8.7
636.323	8.6
636.654	8.86
636.985	8.5
637.316	8.71
637.647	8.41
637.977	8.85
638.308	8.63
638.639	8.44
638.969	8.7
639.3	8.8
639.63	8.33
639.961	8.08
640.291	9.08
640.622	8.63
640.952	8.26
641.282	8.3
641.612	8.36
641.943	8.57
642.273	8.36
642.603	8.6
642.933	8.3
643.263	8.49
643.592	8.62
643.922	9.4
644.252	8.57
644.582	8.45
644.911	8.46
645.241	8.44
645.571	8.44
645.9	8.72
646.23	8.8
646.559	8.74
646.888	8.23
647.218	8.5
647.547	8.83
647.876	8.71
648.205	8.35
648.534	8.73
648.863	8.95
649.192	8.65
649.521	8.56
649.85	9.17
650.179	8.64
650.508	8.48
650.837	8.64
651.165	8.99
651.494	8.85
651.822	8.63
652.151	8.94
652.479	9.03
652.808	8.56
653.136	8.92
653.465	8.69
653.793	9.06
654.121	9.11
654.449	8.68
654.777	8.57
655.105	8.71
655.433	9.07
655.761	8.2
656.089	8.77
656.417	8.34
656.745	8.91
657.073	9.03
657.4	8.97
657.728	8.22
658.056	8.73
658.383	8.59
658.711	8.72
659.038	8.97
659.365	9.08
659.693	8.34
660.02	8.56
660.347	8.82
660.674	8.36
661.001	8.42
661.329	8.66
661.656	8.67
661.982	9.18
662.309	9.12
662.636	8.57
662.963	8.86
663.29	8.44
663.616	8.67
663.943	8.83
664.27	8.57
664.596	8.82
664.923	8.74
665.249	8.3
665.576	8.37
665.902	8.6
666.228	8.7
666.554	8.1
666.881	9.02
667.207	8.03
667.533	9.09
667.859	8.49
668.185	9.09
668.511	8.91
668.837	8.51
669.162	8.35
669.488	8.74
669.814	8.92
670.139	9.52
670.465	8.89
670.791	9.16
671.116	8.66
671.442	8.7
671.767	8.69
672.092	8.91
672.418	8.94
672.743	8.92
673.068	8.73
673.393	9.14
673.718	8.31
674.043	8.6
674.368	9.46
674.693	8.62
675.018	8.56
675.343	9.41
675.667	9.23
675.992	8.09
676.317	8.61
676.641	9.03
676.966	8.65
677.29	8.7
677.615	8.93
677.939	8.62
678.264	8.9
678.588	9.29
678.912	9.22
679.236	9.07
679.56	8.94
679.885	8.67
680.209	8.64
680.532	8.8
680.856	9.5
681.18	8.81
681.504	8.38
681.828	8.6
682.152	8.67
682.475	8.77
682.799	8.74
683.122	8.56
683.446	8.7
683.769	9.28
684.093	8.86
684.416	8.64
684.739	8.7
685.062	8.84
685.386	9.61
685.709	9.16
686.032	8.87
686.355	9.11
686.678	8.9
687.001	8.57
687.324	8.22
687.646	8.95
687.969	8.46
688.292	9.31
688.614	9.45
688.937	8.53
689.26	8.44
689.582	8.76
689.904	8.83
690.227	9.14
690.549	9.42
690.871	8.91
691.194	9.14
