Data from 0074_chest_Reflection__2__346.txt Node

Date: Fri Dec 16 16:49:58 CST 2022
User: ToomeyLab
Spectrometer: FLMS14357
Trigger mode: 0
Integration Time (sec): 1.000000E-2
Scans to average: 100
Electric dark correction enabled: true
Nonlinearity correction enabled: false
Boxcar width: 0
XAxis mode: Wavelengths
Number of Pixels in Spectrum: 2048
>>>>>Begin Spectral Data<<<<<
189.047	239.56
189.435	239.56
189.823	239.56
190.211	19.93
190.599	319
190.987	-1964.41
191.375	81.6
191.763	72.61
192.151	111.14
192.538	1233.67
192.926	520.03
193.314	40.16
193.702	16.13
194.089	-39.92
194.477	170.17
194.864	426.32
195.252	-55.78
195.639	146.76
196.027	-135.83
196.414	-25.73
196.801	289.64
197.189	133.84
197.576	1953.33
197.963	-177.8
198.351	-43.44
198.738	-26.37
199.125	-0.63
199.512	-7.78
199.899	-33.87
200.286	-39.42
200.673	22.45
201.06	19.75
201.447	56.33
201.833	-22.02
202.22	25.11
202.607	1.15
202.994	-28.64
203.38	-163
203.767	-29.62
204.154	-7.75
204.54	10.14
204.927	35.51
205.313	-24.59
205.699	-7.38
206.086	5.74
206.472	-50.52
206.858	-24.42
207.245	-7.24
207.631	-22.18
208.017	-4.96
208.403	-26.54
208.789	-37.1
209.175	28.57
209.561	19.73
209.947	-4.64
210.333	-18.7
210.719	-79.44
211.105	-23.85
211.491	-28.67
211.876	-27.35
212.262	-23.13
212.648	-48.39
213.034	-22.2
213.419	17.78
213.805	-5.56
214.19	-40.86
214.576	-57.39
214.961	-8.87
215.346	-64.05
215.732	-22.27
216.117	-43.28
216.502	-27.14
216.888	-61.78
217.273	4.11
217.658	-28.42
218.043	8.66
218.428	9.63
218.813	-21.27
219.198	-60.12
219.583	-6.74
219.968	10.88
220.353	-1.18
220.738	-28.11
221.122	-25.43
221.507	-15.7
221.892	-9.65
222.276	-7.46
222.661	-4.03
223.046	-13.86
223.43	-12.63
223.815	-2.78
224.199	-7.51
224.583	-3.04
224.968	-8.04
225.352	-19.61
225.736	-3.94
226.121	-9.38
226.505	-4.56
226.889	4.48
227.273	-0.48
227.657	-2.68
228.041	-1.78
228.425	-1.74
228.809	1.33
229.193	2.33
229.577	3.13
229.961	4.56
230.344	3.25
230.728	2.93
231.112	1.73
231.495	1.8
231.879	2.26
232.263	1.53
232.646	1.36
233.03	0.39
233.413	-0.07
233.797	5.42
234.18	1.21
234.563	0.69
234.946	3.33
235.33	2.02
235.713	3.33
236.096	1.75
236.479	2.39
236.862	3.37
237.245	2.95
237.628	2.91
238.011	1.52
238.394	4.88
238.777	2.2
239.16	-0.29
239.543	0.84
239.925	5.03
240.308	3.35
240.691	2.14
241.073	3.38
241.456	2.46
241.838	2.9
242.221	3.1
242.603	2.28
242.986	3.81
243.368	2.83
243.75	3.1
244.133	3.1
244.515	3.17
244.897	3.21
245.279	3.36
245.661	2.61
246.043	3.74
246.425	3.22
246.807	2.23
247.189	3.26
247.571	2.91
247.953	2.95
248.335	3.56
248.717	3.18
249.098	3.4
249.48	2.95
249.862	3.3
250.243	3.03
250.625	2.94
251.006	2.98
251.388	2.96
251.769	1.98
252.151	2.76
252.532	2.74
252.913	3.56
253.295	2.91
253.676	3.66
254.057	2.82
254.438	2.49
254.819	2.64
255.2	2.67
255.581	3.28
255.962	2.78
256.343	3.06
256.724	2.91
257.105	1.9
257.486	2.83
257.867	1.71
258.247	2.53
258.628	3.38
259.009	2.09
259.389	3.97
259.77	1.93
260.15	3.47
260.531	3.26
260.911	3.27
261.292	2.91
261.672	2.87
262.052	2.94
262.432	2.98
262.813	3.08
263.193	2.4
263.573	3.26
263.953	2.55
264.333	2.63
264.713	2.83
265.093	2.51
265.473	2.52
265.853	2.45
266.233	1.96
266.612	2.97
266.992	2.45
267.372	3.39
267.752	3.04
268.131	2.93
268.511	3.17
268.89	3.71
269.27	3.06
269.649	3.27
270.029	3.01
270.408	2.53
270.787	3.02
271.167	2.4
271.546	1.99
271.925	2.54
272.304	3.22
272.683	2.54
273.062	2.97
273.441	3.13
273.82	3.11
274.199	3.06
274.578	2.76
274.957	2.95
275.336	2.72
275.715	3.07
276.093	3.23
276.472	3.05
276.851	2.79
277.229	2.74
277.608	2.2
277.986	2.99
278.365	2.61
278.743	3
279.122	2.16
279.5	2.4
279.878	1.77
280.257	3.11
280.635	2.06
281.013	3.29
281.391	2.22
281.769	2.56
282.147	2.48
282.525	2.36
282.903	3.17
283.281	2.54
283.659	2.83
284.037	2.7
284.415	2.98
284.792	3.01
285.17	2.18
285.548	2.47
285.925	2.45
286.303	2.5
286.68	2.86
287.058	2.73
287.435	2.48
287.813	2.88
288.19	2.94
288.567	2.56
288.945	2.79
289.322	2.75
289.699	2.64
290.076	3.46
290.453	2.62
290.83	3.21
291.207	2.24
291.584	2.56
291.961	2.8
292.338	2.7
292.715	2.85
293.092	2.81
293.469	2.92
293.845	3.03
294.222	2.71
294.599	3.44
294.975	3.07
295.352	2.51
295.728	2.56
296.105	2.69
296.481	3.09
296.858	2.39
297.234	2.64
297.61	3
297.986	2.83
298.363	2.53
298.739	2.87
299.115	2.8
299.491	2.74
299.867	2.68
300.243	2.67
300.619	2.27
300.995	2.58
301.371	2.91
301.746	2.66
302.122	2.93
302.498	2.73
302.874	2.88
303.249	3.1
303.625	2.71
304	2.55
304.376	2.4
304.751	2.41
305.127	1.97
305.502	2.97
305.878	2.25
306.253	2.4
306.628	3
307.003	2.92
307.378	2.28
307.754	2.8
308.129	1.93
308.504	2.39
308.879	2.73
309.254	2.93
309.629	2.56
310.003	2.5
310.378	3.08
310.753	2.85
311.128	3.01
311.502	2.26
311.877	2.76
312.252	2.56
312.626	2.51
313.001	2.7
313.375	2.81
313.75	2.66
314.124	3.47
314.498	2.54
314.873	2.83
315.247	2.49
315.621	3
315.995	2.99
316.369	3.12
316.743	2.95
317.117	2.69
317.491	2.19
317.865	1.97
318.239	3.17
318.613	2.98
318.987	3.42
319.361	2.97
319.734	2.9
320.108	2.3
320.482	2.39
320.855	2.99
321.229	3.03
321.602	3
321.976	3.16
322.349	2.32
322.723	2.1
323.096	2.2
323.469	2.18
323.843	2.61
324.216	2.24
324.589	2.48
324.962	2.73
325.335	3.18
325.708	2.46
326.081	3.35
326.454	2.65
326.827	2.59
327.2	3.67
327.573	2.97
327.945	2.84
328.318	3.01
328.691	2.62
329.063	3.02
329.436	2.53
329.809	2.37
330.181	2.74
330.553	2.87
330.926	2.94
331.298	2.7
331.671	2.59
332.043	2.7
332.415	3.08
332.787	3.13
333.159	3.41
333.532	2.77
333.904	2.44
334.276	2.84
334.648	2.85
335.02	2.63
335.391	2.75
335.763	2.94
336.135	2.62
336.507	3.16
336.879	2.81
337.25	2.7
337.622	3.05
337.993	3.03
338.365	2.87
338.736	3.07
339.108	2.47
339.479	2.77
339.851	3.19
340.222	2.68
340.593	3.04
340.964	2.43
341.336	2.24
341.707	3.14
342.078	2.69
342.449	3.11
342.82	2.87
343.191	2.41
343.562	2.57
343.933	3.29
344.303	3.18
344.674	3.22
345.045	2.98
345.416	2.52
345.786	2.18
346.157	3
346.527	2.74
346.898	2.69
347.268	2.77
347.639	2.63
348.009	3.14
348.38	2.94
348.75	2.46
349.12	2.95
349.49	2.95
349.861	3.03
350.231	3.08
350.601	2.67
350.971	2.57
351.341	2.8
351.711	2.89
352.081	3.12
352.45	3.32
352.82	2.53
353.19	2.86
353.56	2.96
353.929	3.06
354.299	2.44
354.669	2.98
355.038	2.76
355.408	3.03
355.777	2.95
356.147	2.86
356.516	3.04
356.885	3.02
357.254	3.12
357.624	3.24
357.993	2.84
358.362	2.83
358.731	3.05
359.1	3.23
359.469	3.29
359.838	2.74
360.207	2.9
360.576	3.11
360.945	2.91
361.314	3.18
361.682	3.02
362.051	2.92
362.42	3.21
362.788	2.97
363.157	2.83
363.525	3.04
363.894	2.98
364.262	3.06
364.631	3.3
364.999	2.81
365.367	3.19
365.735	2.79
366.104	2.97
366.472	3.18
366.84	2.79
367.208	2.69
367.576	3.34
367.944	3.27
368.312	2.32
368.68	3.18
369.048	3.29
369.416	2.91
369.783	3.25
370.151	2.98
370.519	3.14
370.886	2.86
371.254	3.18
371.621	2.89
371.989	3.24
372.356	3.1
372.724	2.99
373.091	3.25
373.458	2.89
373.826	2.75
374.193	3.48
374.56	2.89
374.927	2.89
375.294	3.35
375.661	2.83
376.028	3.02
376.395	3.06
376.762	2.96
377.129	3.4
377.496	3.22
377.863	3.25
378.229	3.16
378.596	2.89
378.963	2.92
379.329	2.99
379.696	3.01
380.062	3.19
380.429	2.87
380.795	3.17
381.161	3
381.528	2.74
381.894	3.04
382.26	2.95
382.626	2.89
382.993	3.01
383.359	2.74
383.725	3.31
384.091	2.98
384.457	3.23
384.823	3.33
385.188	3.13
385.554	3.24
385.92	3.16
386.286	3.48
386.651	2.76
387.017	3.25
387.383	2.91
387.748	3.12
388.114	3.33
388.479	3.3
388.845	2.94
389.21	3.08
389.575	3.02
389.94	3.13
390.306	3.19
390.671	3.12
391.036	3.28
391.401	3.5
391.766	3.11
392.131	3.42
392.496	3.16
392.861	3.13
393.226	3.26
393.591	3.3
393.956	3.54
394.32	3.17
394.685	3.41
395.05	2.92
395.414	3.32
395.779	3.23
396.143	3.36
396.508	3.36
396.872	3.24
397.236	3.02
397.601	3.4
397.965	3.04
398.329	3.29
398.694	2.88
399.058	3.12
399.422	3.04
399.786	3.14
400.15	3.24
400.514	3.2
400.878	3.39
401.242	3.44
401.605	3.47
401.969	3.14
402.333	3.11
402.697	3.46
403.06	3.44
403.424	3.16
403.787	3.58
404.151	3.02
404.514	3.36
404.878	3.36
405.241	3.34
405.604	3.29
405.968	3.21
406.331	3.46
406.694	3.3
407.057	3.65
407.42	3.35
407.783	3.13
408.146	3.32
408.509	3
408.872	3.07
409.235	3.39
409.598	3.59
409.961	3.47
410.323	3.3
410.686	3.2
411.049	3.09
411.411	3.42
411.774	3.23
412.136	3.32
412.499	3.12
412.861	3.16
413.223	3.54
413.586	3.2
413.948	3.47
414.31	3.42
414.672	3.24
415.035	3.43
415.397	3.32
415.759	3.25
416.121	3.67
416.483	3.27
416.845	3.4
417.206	3.43
417.568	3.34
417.93	3.27
418.292	3.48
418.653	3.31
419.015	3.51
419.377	3.43
419.738	3.35
420.1	3.32
420.461	3.27
420.822	3.38
421.184	3.36
421.545	3.32
421.906	3.32
422.267	3.18
422.629	3.35
422.99	3.36
423.351	3.46
423.712	3.21
424.073	3.33
424.434	3.35
424.795	3.37
425.155	3.33
425.516	3.25
425.877	3.36
426.238	3.2
426.598	3.4
426.959	3.25
427.32	3.44
427.68	3.43
428.041	3.43
428.401	3.32
428.761	3.25
429.122	3.37
429.482	3.31
429.842	3.53
430.202	3.34
430.563	3.38
430.923	3.4
431.283	3.41
431.643	3.39
432.003	3.58
432.363	3.46
432.722	3.33
433.082	3.4
433.442	3.37
433.802	3.37
434.161	3.42
434.521	3.42
434.881	3.53
435.24	3.21
435.6	3.47
435.959	3.43
436.319	3.48
436.678	3.4
437.037	3.6
437.396	3.56
437.756	3.5
438.115	3.56
438.474	3.49
438.833	3.41
439.192	3.74
439.551	3.58
439.91	3.68
440.269	3.71
440.628	3.5
440.987	3.36
441.345	3.49
441.704	3.5
442.063	3.48
442.421	3.6
442.78	3.38
443.138	3.44
443.497	3.39
443.855	3.41
444.214	3.53
444.572	3.39
444.93	3.57
445.288	3.44
445.647	3.53
446.005	3.34
446.363	3.43
446.721	3.45
447.079	3.51
447.437	3.41
447.795	3.4
448.153	3.47
448.51	3.5
448.868	3.53
449.226	3.45
449.584	3.54
449.941	3.59
450.299	3.54
450.656	3.6
451.014	3.42
451.371	3.58
451.729	3.64
452.086	3.53
452.443	3.48
452.801	3.67
453.158	3.41
453.515	3.49
453.872	3.56
454.229	3.41
454.586	3.54
454.943	3.52
455.3	3.72
455.657	3.45
456.014	3.65
456.371	3.53
456.727	3.47
457.084	3.34
457.441	3.53
457.797	3.69
458.154	3.71
458.51	3.51
458.867	3.47
459.223	3.7
459.58	3.5
459.936	3.48
460.292	3.54
460.648	3.46
461.005	3.46
461.361	3.55
461.717	3.59
462.073	3.61
462.429	3.58
462.785	3.67
463.141	3.77
463.496	3.57
463.852	3.82
464.208	3.71
464.564	3.53
464.919	3.68
465.275	3.56
465.631	3.75
465.986	3.6
466.342	3.69
466.697	3.75
467.052	3.69
467.408	3.62
467.763	3.68
468.118	3.55
468.473	3.76
468.829	3.62
469.184	3.77
469.539	3.63
469.894	3.74
470.249	3.86
470.603	3.74
470.958	3.8
471.313	3.63
471.668	3.78
472.023	3.85
472.377	3.67
472.732	3.72
473.086	3.62
473.441	3.62
473.795	3.78
474.15	3.45
474.504	3.75
474.859	3.77
475.213	3.57
475.567	3.57
475.921	3.69
476.275	3.85
476.63	3.64
476.984	3.69
477.338	4.05
477.692	3.76
478.045	3.77
478.399	3.75
478.753	3.71
479.107	3.65
479.461	3.7
479.814	3.61
480.168	3.84
480.521	3.72
480.875	3.96
481.228	3.89
481.582	3.68
481.935	3.72
482.289	3.63
482.642	3.76
482.995	3.64
483.348	3.67
483.701	3.68
484.055	3.69
484.408	3.58
484.761	3.43
485.114	3.38
485.466	3.44
485.819	3.56
486.172	3.61
486.525	3.66
486.878	3.67
487.23	3.68
487.583	3.68
487.936	3.69
488.288	3.61
488.641	3.54
488.993	3.49
489.345	3.59
489.698	3.69
490.05	3.66
490.402	3.72
490.754	3.82
491.107	3.74
491.459	3.79
491.811	3.79
492.163	3.78
492.515	3.67
492.866	3.55
493.218	3.63
493.57	3.73
493.922	3.72
494.274	3.85
494.625	3.8
494.977	3.89
495.328	3.9
495.68	4.02
496.031	3.92
496.383	3.73
496.734	3.98
497.086	3.79
497.437	3.9
497.788	3.76
498.139	3.83
498.49	3.85
498.842	3.89
499.193	3.88
499.544	4.01
499.894	3.88
500.245	3.9
500.596	3.93
500.947	3.97
501.298	3.93
501.648	3.82
501.999	4.09
502.35	4.08
502.7	4
503.051	3.99
503.401	4
503.752	3.97
504.102	3.92
504.452	3.93
504.803	3.85
505.153	4.03
505.503	4.02
505.853	3.85
506.203	3.94
506.553	3.93
506.903	3.99
507.253	4.1
507.603	3.91
507.953	4.1
508.303	3.94
508.652	3.99
509.002	4.07
509.352	3.96
509.701	4.02
510.051	4.1
510.4	4.12
510.75	4.01
511.099	3.99
511.449	3.86
511.798	4.18
512.147	4.06
512.496	4.08
512.846	4.01
513.195	4.13
513.544	3.98
513.893	3.95
514.242	4.19
514.591	4.14
514.939	4.07
515.288	4.22
515.637	4.16
515.986	3.98
516.334	4.15
516.683	4.16
517.032	4.1
517.38	4.13
517.729	4.05
518.077	4.14
518.426	3.99
518.774	4.1
519.122	4.07
519.47	4.04
519.819	3.98
520.167	4.11
520.515	4.09
520.863	4.14
521.211	4.12
521.559	4.18
521.907	4.18
522.255	4.24
522.602	4.39
522.95	4.16
523.298	4.31
523.645	4.19
523.993	4.38
524.341	4.2
524.688	4.22
525.036	4.34
525.383	4.41
525.73	4.22
526.078	4.31
526.425	4.16
526.772	4.07
527.119	4.13
527.466	4.17
527.814	4.26
528.161	4.24
528.508	4.23
528.854	4.2
529.201	4.14
529.548	4.12
529.895	4.02
530.242	4.02
530.588	4.15
530.935	4.17
531.282	4.27
531.628	4.31
531.975	4.36
532.321	4.32
532.667	4.36
533.014	4.27
533.36	4.39
533.706	4.35
534.052	4.25
534.399	4.2
534.745	4.22
535.091	4.28
535.437	4.38
535.783	4.49
536.129	4.53
536.474	4.48
536.82	4.44
537.166	4.51
537.512	4.48
537.857	4.42
538.203	4.41
538.549	4.48
538.894	4.49
539.239	4.63
539.585	4.61
539.93	4.58
540.276	4.53
540.621	4.65
540.966	4.58
541.311	4.55
541.656	4.51
542.001	4.53
542.346	4.41
542.691	4.37
543.036	4.46
543.381	4.55
543.726	4.55
544.071	4.71
544.415	4.6
544.76	4.6
545.105	4.74
545.449	4.66
545.794	4.69
546.138	4.87
546.483	4.83
546.827	4.84
547.171	4.77
547.516	4.77
547.86	4.71
548.204	4.72
548.548	4.84
548.892	4.94
549.236	5
549.58	4.92
549.924	4.8
550.268	5.03
550.612	5.09
550.956	5
551.3	5.08
551.643	5.03
551.987	4.98
552.33	4.98
552.674	5.18
553.017	5.26
553.361	5.07
553.704	4.86
554.048	5.15
554.391	4.99
554.734	5.07
555.077	5.26
555.42	4.96
555.764	5.19
556.107	5.09
556.45	5.19
556.793	5.21
557.135	5.37
557.478	5.3
557.821	5.14
558.164	5.44
558.507	5.16
558.849	5.12
559.192	5.43
559.534	5
559.877	5.41
560.219	5.41
560.562	5.51
560.904	5.48
561.246	5.46
561.589	5.5
561.931	5.7
562.273	5.26
562.615	5.53
562.957	5.59
563.299	5.6
563.641	5.58
563.983	5.64
564.325	5.51
564.667	5.61
565.008	5.42
565.35	5.68
565.692	5.7
566.033	5.66
566.375	5.37
566.716	5.54
567.058	5.74
567.399	5.71
567.741	5.76
568.082	5.53
568.423	5.82
568.764	5.83
569.105	5.98
569.447	5.79
569.788	5.77
570.129	5.82
570.47	5.97
570.811	5.88
571.151	6.01
571.492	6.05
571.833	5.92
572.174	5.85
572.514	5.88
572.855	6.09
573.195	5.83
573.536	6.04
573.876	5.96
574.217	6.07
574.557	6.2
574.898	5.91
575.238	6.09
575.578	6.27
575.918	6.11
576.258	6.17
576.598	6.27
576.938	6.11
577.278	6.23
577.618	6.14
577.958	6.34
578.298	6.49
578.638	6.29
578.977	6.33
579.317	6.43
579.657	6.51
579.996	6.46
580.336	6.33
580.675	6.57
581.014	6.57
581.354	6.59
581.693	6.47
582.032	6.58
582.372	6.77
582.711	6.58
583.05	6.82
583.389	6.79
583.728	6.96
584.067	6.78
584.406	6.86
584.745	6.64
585.083	6.91
585.422	6.72
585.761	6.96
586.1	6.97
586.438	6.89
586.777	7.02
587.115	6.9
587.454	6.93
587.792	7.01
588.13	7.21
588.469	7.21
588.807	7.27
589.145	7.17
589.483	6.88
589.821	7.19
590.159	6.93
590.497	6.91
590.835	7.27
591.173	7.31
591.511	7.22
591.849	7.1
592.187	7.24
592.524	7.11
592.862	7.52
593.2	7.32
593.537	7.27
593.875	7.35
594.212	7.28
594.55	7.37
594.887	7.61
595.224	7.31
595.561	7.64
595.899	7.4
596.236	7.56
596.573	7.26
596.91	7.74
597.247	7.57
597.584	7.82
597.921	7.71
598.258	7.55
598.594	7.47
598.931	7.64
599.268	7.64
599.604	8.02
599.941	7.8
600.277	7.96
600.614	7.84
600.95	7.96
601.287	8.09
601.623	8.08
601.959	7.74
602.296	8.09
602.632	8.21
602.968	8.1
603.304	7.9
603.64	7.96
603.976	8.17
604.312	8.46
604.648	8.36
604.984	8.16
605.319	8.2
605.655	8.14
605.991	8.35
606.326	8.27
606.662	8.23
606.998	8.45
607.333	8.44
607.668	8.45
608.004	8.54
608.339	8.52
608.674	8.72
609.01	8.62
609.345	8.73
609.68	8.25
610.015	8.84
610.35	8.55
610.685	8.75
611.02	8.73
611.355	8.68
611.689	8.54
612.024	8.91
612.359	9.13
612.694	8.94
613.028	9.47
613.363	8.91
613.697	8.91
614.032	9.16
614.366	8.81
614.7	9.54
615.035	8.99
615.369	9.32
615.703	9.54
616.037	9.14
616.371	8.95
616.705	9.19
617.039	9.75
617.373	9.32
617.707	9.35
618.041	9.67
618.375	9.45
618.709	9.38
619.042	9.56
619.376	9.19
619.71	9.44
620.043	9.41
620.377	9.7
620.71	9.71
621.043	9.48
621.377	9.59
621.71	10.14
622.043	9.92
622.376	9.55
622.709	9.96
623.043	9.92
623.376	9.83
623.709	9.96
624.041	9.55
624.374	9.99
624.707	9.72
625.04	10.16
625.373	9.51
625.705	9.98
626.038	10.35
626.37	10.01
626.703	10.26
627.035	10.4
627.368	10.23
627.7	10.34
628.032	10.35
628.365	9.98
628.697	10.13
629.029	10.42
629.361	10.28
629.693	10.73
630.025	10.62
630.357	10.19
630.689	10.56
631.021	10.78
631.353	10.79
631.684	10.77
632.016	10.5
632.348	10.57
632.679	10.85
633.011	11.01
633.342	10.54
633.674	10.97
634.005	10.92
634.336	11.04
634.668	10.79
634.999	11.06
635.33	10.88
635.661	11.26
635.992	11.03
636.323	11.23
636.654	11.19
636.985	11.13
637.316	11.34
637.647	11.24
637.977	11.29
638.308	11.19
638.639	11.16
638.969	11.15
639.3	11.34
639.63	10.85
639.961	11.44
640.291	11.7
640.622	11.53
640.952	11.66
641.282	11.23
641.612	11.39
641.943	11.76
642.273	11.86
642.603	11.87
642.933	12.04
643.263	12.12
643.592	12.12
643.922	12.18
644.252	12.22
644.582	11.98
644.911	11.91
645.241	11.39
645.571	12.39
645.9	12.56
646.23	11.75
646.559	12.13
646.888	11.6
647.218	12.63
647.547	12.37
647.876	12.49
648.205	12.44
648.534	11.88
648.863	12.68
649.192	12.38
649.521	12.61
649.85	12.89
650.179	12.39
650.508	12.36
650.837	13.03
651.165	12.63
651.494	12.68
651.822	13.1
652.151	13.05
652.479	12.7
652.808	12.58
653.136	12.77
653.465	12.94
653.793	13.25
654.121	13.23
654.449	13.07
654.777	12.88
655.105	13.06
655.433	13.24
655.761	13.38
656.089	13.37
656.417	12.84
656.745	13.63
657.073	13.48
657.4	13.2
657.728	13.75
658.056	13.44
658.383	13.81
658.711	13.22
659.038	13.72
659.365	13.75
659.693	13.66
660.02	13.31
660.347	13.28
660.674	13.12
661.001	13.27
661.329	13.33
661.656	13.59
661.982	13.79
662.309	13.79
662.636	13.7
662.963	13.78
663.29	14.1
663.616	13.91
663.943	14.54
664.27	13.93
664.596	14.34
664.923	14.66
665.249	13.9
665.576	13.49
665.902	13.73
666.228	13.91
666.554	14
666.881	14.71
667.207	15.23
667.533	14.45
667.859	13.87
668.185	14.51
668.511	14.61
668.837	13.65
669.162	14.8
669.488	15.2
669.814	14.91
670.139	15.02
670.465	15.15
670.791	14.68
671.116	15.15
671.442	14.81
671.767	14.89
672.092	15.01
672.418	15.43
672.743	14.87
673.068	15.22
673.393	15.03
673.718	14.99
674.043	15.39
674.368	15.64
674.693	15.41
675.018	15.01
675.343	15.11
675.667	15.17
675.992	15.4
676.317	14.73
676.641	15.62
676.966	16.08
677.29	15.5
677.615	16
677.939	15.74
678.264	15.92
678.588	16.16
678.912	15.83
679.236	15.76
679.56	15.68
679.885	15.61
680.209	15.31
680.532	15.3
680.856	16.49
681.18	15.87
681.504	15.66
681.828	15.73
682.152	16.15
682.475	15.39
682.799	16.51
683.122	16.14
683.446	16.1
683.769	16.36
684.093	16.72
684.416	15.87
684.739	17.11
685.062	15.99
685.386	16.56
685.709	16.57
686.032	16.82
686.355	16.22
686.678	16.47
687.001	15.09
687.324	15.88
