Data from 0074_chest_Reflection__3__347.txt Node

Date: Fri Dec 16 16:50:09 CST 2022
User: ToomeyLab
Spectrometer: FLMS14357
Trigger mode: 0
Integration Time (sec): 1.000000E-2
Scans to average: 100
Electric dark correction enabled: true
Nonlinearity correction enabled: false
Boxcar width: 0
XAxis mode: Wavelengths
Number of Pixels in Spectrum: 2048
>>>>>Begin Spectral Data<<<<<
189.047	-258.42
189.435	-258.42
189.823	-258.42
190.211	44.71
190.599	-129.29
190.987	-6010.17
191.375	-48.45
191.763	58.23
192.151	-166.43
192.538	1812.15
192.926	-210.72
193.314	102.58
193.702	121.55
194.089	64.36
194.477	5.46
194.864	543.58
195.252	49.63
195.639	112.53
196.027	-249.53
196.414	57.55
196.801	87.48
197.189	84.2
197.576	-1464
197.963	-433.41
198.351	-53.66
198.738	-41.37
199.125	47.05
199.512	-39.57
199.899	-64.91
200.286	-51.9
200.673	4.63
201.06	-0.28
201.447	37.99
201.833	-42.7
202.22	25.14
202.607	16.86
202.994	15.31
203.38	15.79
203.767	-23.96
204.154	-17.67
204.54	-0.56
204.927	-14.97
205.313	43.31
205.699	-27.11
206.086	-18.27
206.472	-38.15
206.858	11.49
207.245	-15.07
207.631	11.9
208.017	-6.51
208.403	20.12
208.789	-2.36
209.175	15.12
209.561	-32.49
209.947	-2.48
210.333	-22.43
210.719	-32.41
211.105	-105.88
211.491	32.98
211.876	10.62
212.262	-56.62
212.648	-0.06
213.034	-26.07
213.419	26.28
213.805	-9.14
214.19	-17.56
214.576	-34.06
214.961	-13.67
215.346	-25.61
215.732	-34.45
216.117	-8.69
216.502	-12.13
216.888	-12.76
217.273	26.15
217.658	-34.9
218.043	-29.99
218.428	-31.41
218.813	-41.77
219.198	-13.22
219.583	11.49
219.968	20.33
220.353	3.35
220.738	-31.96
221.122	-3.12
221.507	-15.94
221.892	-19.12
222.276	8.62
222.661	-11.67
223.046	-3.25
223.43	-7.45
223.815	1.34
224.199	-0.95
224.583	2.85
224.968	-1.84
225.352	-5.93
225.736	-1.41
226.121	-10.4
226.505	-5.06
226.889	2.4
227.273	2.45
227.657	-2.33
228.041	-1.98
228.425	-0.94
228.809	-0.39
229.193	-0.72
229.577	1.37
229.961	1.62
230.344	1.72
230.728	1.35
231.112	1.86
231.495	1.4
231.879	1.82
232.263	-0.11
232.646	1.7
233.03	-2.26
233.413	0.67
233.797	3.56
234.18	-1.31
234.563	1.89
234.946	4.11
235.33	1.57
235.713	1.61
236.096	1.55
236.479	1.25
236.862	2.1
237.245	1.88
237.628	1.67
238.011	0.32
238.394	3.11
238.777	0.3
239.16	-0.05
239.543	-1.05
239.925	0.24
240.308	2.97
240.691	0.93
241.073	3.09
241.456	0.8
241.838	1.74
242.221	1.26
242.603	1.2
242.986	2.31
243.368	1.76
243.75	1.63
244.133	1.71
244.515	1.85
244.897	1.29
245.279	1.27
245.661	1.87
246.043	2.48
246.425	1.34
246.807	1.34
247.189	1.88
247.571	2.18
247.953	1.84
248.335	2.03
248.717	2.04
249.098	1.97
249.48	1.77
249.862	1.86
250.243	1.56
250.625	1.44
251.006	0.81
251.388	1.51
251.769	1.59
252.151	2.2
252.532	2.03
252.913	0.87
253.295	1.59
253.676	1.91
254.057	1.67
254.438	1.75
254.819	0.86
255.2	0.27
255.581	1.39
255.962	1.09
256.343	1.13
256.724	0.95
257.105	1.41
257.486	0.56
257.867	-0.25
258.247	1.61
258.628	2.42
259.009	2.08
259.389	2.29
259.77	1.56
260.15	2.52
260.531	1.68
260.911	1.81
261.292	1.67
261.672	1.47
262.052	1.77
262.432	1.36
262.813	1.59
263.193	1.4
263.573	1.5
263.953	1.86
264.333	2.4
264.713	0.84
265.093	1.13
265.473	2.14
265.853	1.3
266.233	1.08
266.612	1.4
266.992	1.6
267.372	1.27
267.752	1.69
268.131	1.57
268.511	1.86
268.89	1.85
269.27	1.63
269.649	1.52
270.029	1.15
270.408	1.32
270.787	1.13
271.167	1.21
271.546	1.32
271.925	1.07
272.304	1.61
272.683	1.44
273.062	2.11
273.441	1.7
273.82	2.09
274.199	1.93
274.578	1.38
274.957	2.07
275.336	1.51
275.715	1.83
276.093	2.31
276.472	1.78
276.851	2.43
277.229	2.47
277.608	1.07
277.986	1.44
278.365	1.66
278.743	1.51
279.122	1.04
279.5	1.44
279.878	1.09
280.257	2.11
280.635	1.49
281.013	1.76
281.391	1.62
281.769	1.04
282.147	1.3
282.525	1.18
282.903	1.64
283.281	1.7
283.659	1.75
284.037	1.49
284.415	1.59
284.792	1.5
285.17	1.43
285.548	1.13
285.925	1.37
286.303	0.9
286.68	1.5
287.058	1.49
287.435	1.37
287.813	1.98
288.19	2.01
288.567	0.96
288.945	1.42
289.322	1.36
289.699	1.34
290.076	1.7
290.453	1.82
290.83	1.99
291.207	1.48
291.584	1.63
291.961	1.95
292.338	1.66
292.715	1.65
293.092	1.82
293.469	2.1
293.845	1.91
294.222	1.32
294.599	1.91
294.975	1.85
295.352	1.22
295.728	1.64
296.105	1.67
296.481	2.27
296.858	1.89
297.234	1.7
297.61	1.39
297.986	1.81
298.363	1.34
298.739	1.85
299.115	1.55
299.491	1.66
299.867	1.62
300.243	1.63
300.619	1.71
300.995	1.32
301.371	2.11
301.746	1.55
302.122	1.96
302.498	1.71
302.874	2.21
303.249	1.81
303.625	1.35
304	1.37
304.376	1.46
304.751	1.66
305.127	1.55
305.502	2.1
305.878	1.46
306.253	1.23
306.628	1.91
307.003	1.65
307.378	1.46
307.754	1.25
308.129	0.95
308.504	1.4
308.879	1.69
309.254	1.71
309.629	1.76
310.003	1.9
310.378	2.16
310.753	1.86
311.128	1.38
311.502	1.46
311.877	1.81
312.252	1.83
312.626	1.54
313.001	1.75
313.375	1.65
313.75	1.57
314.124	2.18
314.498	1.71
314.873	1.37
315.247	1.56
315.621	1.95
315.995	1.65
316.369	1.87
316.743	2.22
317.117	1.65
317.491	1.6
317.865	1.71
318.239	1.96
318.613	1.75
318.987	2.08
319.361	1.34
319.734	1.63
320.108	1.17
320.482	1.85
320.855	2.22
321.229	2.19
321.602	1.85
321.976	1.59
322.349	1.01
322.723	1.16
323.096	1.44
323.469	0.75
323.843	1.76
324.216	1.78
324.589	1.68
324.962	1.59
325.335	1.62
325.708	2.24
326.081	2.07
326.454	1.87
326.827	1.71
327.2	1.97
327.573	1.59
327.945	2.13
328.318	2.26
328.691	1.72
329.063	1.86
329.436	1.38
329.809	1.67
330.181	1.4
330.553	1.77
330.926	2.12
331.298	1.63
331.671	2.03
332.043	1.86
332.415	2.29
332.787	2.74
333.159	2.02
333.532	1.92
333.904	1.66
334.276	2
334.648	1.66
335.02	1.73
335.391	1.7
335.763	1.81
336.135	1.94
336.507	1.66
336.879	1.68
337.25	1.57
337.622	2.46
337.993	1.67
338.365	1.97
338.736	1.86
339.108	1.29
339.479	1.62
339.851	1.76
340.222	1.52
340.593	1.57
340.964	1.48
341.336	1.55
341.707	1.86
342.078	1.36
342.449	2.06
342.82	1.45
343.191	2.14
343.562	1.91
343.933	1.9
344.303	2.02
344.674	1.6
345.045	2.3
345.416	1.7
345.786	1.67
346.157	1.6
346.527	1.49
346.898	1.91
347.268	2.05
347.639	1.96
348.009	2.13
348.38	2.16
348.75	2.1
349.12	1.97
349.49	2.23
349.861	2.35
350.231	2.22
350.601	2.21
350.971	2.02
351.341	2.12
351.711	1.57
352.081	1.91
352.45	1.89
352.82	2.02
353.19	1.88
353.56	2.08
353.929	1.92
354.299	1.63
354.669	2.3
355.038	1.74
355.408	2
355.777	1.83
356.147	2.22
356.516	2.25
356.885	1.83
357.254	2.12
357.624	2.11
357.993	2.15
358.362	2.31
358.731	1.97
359.1	2.1
359.469	1.72
359.838	1.61
360.207	2.13
360.576	1.91
360.945	1.89
361.314	2.29
361.682	1.71
362.051	1.95
362.42	2.28
362.788	1.84
363.157	1.87
363.525	1.96
363.894	1.87
364.262	1.76
364.631	2.74
364.999	1.83
365.367	2.49
365.735	1.54
366.104	1.75
366.472	1.94
366.84	2
367.208	1.69
367.576	1.92
367.944	2.6
368.312	1.39
368.68	2.14
369.048	2.17
369.416	2
369.783	1.89
370.151	1.96
370.519	1.92
370.886	1.86
371.254	1.89
371.621	1.81
371.989	2.04
372.356	1.97
372.724	2.1
373.091	1.85
373.458	1.82
373.826	1.72
374.193	2.37
374.56	1.69
374.927	1.94
375.294	2.32
375.661	2.17
376.028	1.96
376.395	2.07
376.762	2.06
377.129	2.1
377.496	2.14
377.863	1.87
378.229	1.92
378.596	2.14
378.963	1.75
379.329	1.92
379.696	2.24
380.062	2.05
380.429	2.3
380.795	1.92
381.161	1.97
381.528	1.73
381.894	2.11
382.26	2.12
382.626	1.99
382.993	1.71
383.359	2.28
383.725	2.13
384.091	1.94
384.457	2.29
384.823	2.17
385.188	2.31
385.554	2.1
385.92	2.14
386.286	2.13
386.651	1.98
387.017	2.1
387.383	2.31
387.748	2.04
388.114	2.01
388.479	2.26
388.845	2.03
389.21	2.01
389.575	2.11
389.94	2.27
390.306	2
390.671	2.03
391.036	2.31
391.401	2.49
391.766	2.22
392.131	2.23
392.496	1.96
392.861	2.14
393.226	2.36
393.591	2.22
393.956	2.35
394.32	2.13
394.685	2.25
395.05	2.03
395.414	2.22
395.779	2.03
396.143	2.2
396.508	2.28
396.872	2.47
397.236	1.88
397.601	2.03
397.965	2.26
398.329	2.47
398.694	2.2
399.058	2.01
399.422	2.28
399.786	2.2
400.15	2.12
400.514	2.17
400.878	2
401.242	2.43
401.605	2.28
401.969	2.16
402.333	1.95
402.697	2.21
403.06	2.3
403.424	2.32
403.787	2.37
404.151	2.1
404.514	2.27
404.878	2.34
405.241	2.47
405.604	2.07
405.968	2.28
406.331	2.32
406.694	2.26
407.057	2.68
407.42	2.42
407.783	2.15
408.146	2.19
408.509	2.19
408.872	2.04
409.235	2.4
409.598	2.48
409.961	2.38
410.323	2.28
410.686	2.36
411.049	2.06
411.411	2.22
411.774	2.27
412.136	2.33
412.499	2.2
412.861	2.2
413.223	2.38
413.586	2.22
413.948	2.21
414.31	2.36
414.672	2.24
415.035	2.38
415.397	2.46
415.759	2.18
416.121	2.41
416.483	2.39
416.845	2.24
417.206	2.49
417.568	2.4
417.93	2.26
418.292	2.4
418.653	2.36
419.015	2.35
419.377	2.49
419.738	2.34
420.1	2.34
420.461	2.16
420.822	2.39
421.184	2.33
421.545	2.35
421.906	2.4
422.267	2.31
422.629	2.31
422.99	2.39
423.351	2.26
423.712	2.32
424.073	2.44
424.434	2.3
424.795	2.2
425.155	2.32
425.516	2.3
425.877	2.43
426.238	2.3
426.598	2.41
426.959	2.28
427.32	2.37
427.68	2.42
428.041	2.29
428.401	2.41
428.761	2.31
429.122	2.21
429.482	2.19
429.842	2.42
430.202	2.27
430.563	2.42
430.923	2.36
431.283	2.51
431.643	2.44
432.003	2.48
432.363	2.49
432.722	2.31
433.082	2.51
433.442	2.48
433.802	2.48
434.161	2.33
434.521	2.38
434.881	2.57
435.24	2.28
435.6	2.45
435.959	2.34
436.319	2.32
436.678	2.33
437.037	2.44
437.396	2.4
437.756	2.57
438.115	2.44
438.474	2.58
438.833	2.51
439.192	2.57
439.551	2.49
439.91	2.53
440.269	2.52
440.628	2.44
440.987	2.38
441.345	2.49
441.704	2.52
442.063	2.45
442.421	2.41
442.78	2.35
443.138	2.47
443.497	2.36
443.855	2.45
444.214	2.37
444.572	2.37
444.93	2.49
445.288	2.53
445.647	2.68
446.005	2.32
446.363	2.49
446.721	2.35
447.079	2.45
447.437	2.46
447.795	2.49
448.153	2.42
448.51	2.38
448.868	2.59
449.226	2.56
449.584	2.42
449.941	2.64
450.299	2.52
450.656	2.41
451.014	2.48
451.371	2.68
451.729	2.5
452.086	2.48
452.443	2.38
452.801	2.48
453.158	2.57
453.515	2.47
453.872	2.49
454.229	2.48
454.586	2.54
454.943	2.49
455.3	2.62
455.657	2.57
456.014	2.54
456.371	2.48
456.727	2.49
457.084	2.44
457.441	2.46
457.797	2.55
458.154	2.56
458.51	2.43
458.867	2.37
459.223	2.6
459.58	2.51
459.936	2.57
460.292	2.58
460.648	2.4
461.005	2.43
461.361	2.48
461.717	2.58
462.073	2.52
462.429	2.53
462.785	2.6
463.141	2.66
463.496	2.44
463.852	2.73
464.208	2.68
464.564	2.52
464.919	2.6
465.275	2.61
465.631	2.57
465.986	2.4
466.342	2.6
466.697	2.56
467.052	2.68
467.408	2.58
467.763	2.48
468.118	2.6
468.473	2.84
468.829	2.63
469.184	2.8
469.539	2.45
469.894	2.51
470.249	2.77
470.603	2.65
470.958	2.73
471.313	2.64
471.668	2.71
472.023	2.89
472.377	2.54
472.732	2.46
473.086	2.57
473.441	2.74
473.795	2.77
474.15	2.53
474.504	2.64
474.859	2.69
475.213	2.62
475.567	2.61
475.921	2.74
476.275	2.72
476.63	2.6
476.984	2.5
477.338	2.87
477.692	2.64
478.045	2.64
478.399	2.73
478.753	2.58
479.107	2.56
479.461	2.71
479.814	2.62
480.168	2.73
480.521	2.66
480.875	2.83
481.228	2.78
481.582	2.67
481.935	2.6
482.289	2.62
482.642	2.75
482.995	2.69
483.348	2.56
483.701	2.71
484.055	2.68
484.408	2.57
484.761	2.49
485.114	2.51
485.466	2.55
485.819	2.55
486.172	2.56
486.525	2.64
486.878	2.66
487.23	2.64
487.583	2.65
487.936	2.67
488.288	2.61
488.641	2.6
488.993	2.56
489.345	2.61
489.698	2.66
490.05	2.6
490.402	2.71
490.754	2.71
491.107	2.71
491.459	2.76
491.811	2.81
492.163	2.77
492.515	2.76
492.866	2.59
493.218	2.6
493.57	2.7
493.922	2.7
494.274	2.76
494.625	2.69
494.977	2.73
495.328	2.89
495.68	2.96
496.031	2.86
496.383	2.78
496.734	2.93
497.086	2.83
497.437	2.83
497.788	2.84
498.139	2.8
498.49	2.79
498.842	2.64
499.193	2.84
499.544	2.92
499.894	2.86
500.245	2.8
500.596	2.92
500.947	2.83
501.298	2.83
501.648	2.84
501.999	2.9
502.35	2.86
502.7	2.75
503.051	2.94
503.401	2.96
503.752	2.72
504.102	2.87
504.452	2.76
504.803	2.88
505.153	2.89
505.503	2.8
505.853	2.96
506.203	2.92
506.553	2.93
506.903	2.84
507.253	2.94
507.603	2.91
507.953	3.02
508.303	3.04
508.652	2.99
509.002	3
509.352	2.83
509.701	2.94
510.051	2.94
510.4	2.98
510.75	2.94
511.099	3.02
511.449	2.99
511.798	3.08
512.147	2.96
512.496	3.01
512.846	2.97
513.195	2.94
513.544	2.93
513.893	2.83
514.242	3.05
514.591	3.08
514.939	2.96
515.288	2.99
515.637	3.22
515.986	2.85
516.334	3.04
516.683	2.97
517.032	2.98
517.38	3.08
517.729	3.06
518.077	3.2
518.426	3.01
518.774	3.03
519.122	2.99
519.47	3.02
519.819	3.02
520.167	3
520.515	2.97
520.863	2.98
521.211	2.97
521.559	3.11
521.907	3.08
522.255	3.12
522.602	3.13
522.95	3.14
523.298	3.03
523.645	3.07
523.993	3.34
524.341	3.15
524.688	3.18
525.036	3.19
525.383	3.31
525.73	3.21
526.078	3.15
526.425	3.19
526.772	3.05
527.119	3.14
527.466	3.09
527.814	3.13
528.161	3.17
528.508	3.12
528.854	3.01
529.201	3.05
529.548	3.05
529.895	2.99
530.242	2.96
530.588	3.07
530.935	3.08
531.282	3.15
531.628	3.19
531.975	3.25
532.321	3.21
532.667	3.22
533.014	3.22
533.36	3.2
533.706	3.19
534.052	3.22
534.399	3.13
534.745	3.14
535.091	3.22
535.437	3.29
535.783	3.33
536.129	3.31
536.474	3.36
536.82	3.28
537.166	3.28
537.512	3.32
537.857	3.34
538.203	3.3
538.549	3.44
538.894	3.32
539.239	3.49
539.585	3.44
539.93	3.47
540.276	3.36
540.621	3.38
540.966	3.42
541.311	3.48
541.656	3.3
542.001	3.44
542.346	3.42
542.691	3.32
543.036	3.27
543.381	3.38
543.726	3.37
544.071	3.47
544.415	3.46
544.76	3.4
545.105	3.47
545.449	3.41
545.794	3.51
546.138	3.72
546.483	3.62
546.827	3.64
547.171	3.52
547.516	3.65
547.86	3.53
548.204	3.52
548.548	3.66
548.892	3.64
549.236	3.62
549.58	3.66
549.924	3.7
550.268	3.79
550.612	3.73
550.956	3.58
551.3	3.63
551.643	3.65
551.987	3.71
552.33	3.7
552.674	3.81
553.017	3.9
553.361	3.68
553.704	3.58
554.048	4.03
554.391	3.87
554.734	3.85
555.077	3.97
555.42	3.86
555.764	3.9
556.107	3.82
556.45	3.86
556.793	4.04
557.135	4.05
557.478	4.01
557.821	3.81
558.164	3.91
558.507	4.02
558.849	3.78
559.192	4.05
559.534	3.76
559.877	4.06
560.219	4.02
560.562	4.04
560.904	4.09
561.246	4.29
561.589	4.26
561.931	4.24
562.273	4.07
562.615	4.14
562.957	4.28
563.299	4.29
563.641	4.23
563.983	4.22
564.325	4
564.667	4.24
565.008	4.14
565.35	4.26
565.692	4.39
566.033	4.37
566.375	4.14
566.716	4.17
567.058	4.41
567.399	4.34
567.741	4.34
568.082	4.21
568.423	4.42
568.764	4.34
569.105	4.46
569.447	4.44
569.788	4.36
570.129	4.28
570.47	4.44
570.811	4.41
571.151	4.62
571.492	4.63
571.833	4.51
572.174	4.52
572.514	4.39
572.855	4.51
573.195	4.58
573.536	4.57
573.876	4.68
574.217	4.61
574.557	4.76
574.898	4.5
575.238	4.5
575.578	4.76
575.918	4.73
576.258	4.61
576.598	4.76
576.938	4.81
577.278	4.78
577.618	4.73
577.958	4.83
578.298	4.93
578.638	4.86
578.977	5.11
579.317	5.14
579.657	4.92
579.996	4.8
580.336	4.89
580.675	4.83
581.014	4.91
581.354	5.18
581.693	5.04
582.032	4.89
582.372	5.17
582.711	5.05
583.05	5.16
583.389	5.11
583.728	5.4
584.067	5.24
584.406	5.04
584.745	5.19
585.083	5.37
585.422	5.28
585.761	5.1
586.1	5.27
586.438	5.36
586.777	5.24
587.115	5.47
587.454	5.54
587.792	5.15
588.13	5.77
588.469	5.51
588.807	5.74
589.145	5.55
589.483	5.29
589.821	5.51
590.159	5.49
590.497	5.26
590.835	5.56
591.173	5.54
591.511	5.87
591.849	5.76
592.187	5.76
592.524	5.53
592.862	5.7
593.2	5.8
593.537	5.75
593.875	5.52
594.212	5.78
594.55	5.8
594.887	5.74
595.224	5.66
595.561	6.02
595.899	5.89
596.236	5.87
596.573	5.56
596.91	5.83
597.247	5.96
597.584	6.02
597.921	6.08
598.258	6.03
598.594	5.89
598.931	5.91
599.268	5.95
599.604	6.19
599.941	6.02
600.277	5.96
600.614	6.05
600.95	6.35
601.287	6.27
601.623	6.16
601.959	6.06
602.296	6.6
602.632	6.55
602.968	6.12
603.304	6.07
603.64	6.34
603.976	6.34
604.312	6.52
604.648	6.44
604.984	6.37
605.319	6.42
605.655	6.37
605.991	6.35
606.326	6.51
606.662	6.31
606.998	6.56
607.333	6.48
607.668	6.68
608.004	6.38
608.339	6.51
608.674	6.66
609.01	6.82
609.345	6.67
609.68	6.55
610.015	6.93
610.35	6.81
610.685	6.83
611.02	7.04
611.355	6.96
611.689	6.47
612.024	7.09
612.359	7.06
612.694	6.86
613.028	7.23
613.363	7.2
613.697	7
614.032	6.97
614.366	7.02
614.7	7.42
615.035	6.95
615.369	7.32
615.703	7.72
616.037	7.09
616.371	6.88
616.705	7.45
617.039	7.4
617.373	7.41
617.707	7.32
618.041	7.5
618.375	7.04
618.709	7.12
619.042	7.43
619.376	7.41
619.71	7.14
620.043	7.47
620.377	7.39
620.71	7.34
621.043	7.35
621.377	7.8
621.71	7.68
622.043	7.66
622.376	7.44
622.709	8.15
623.043	7.52
623.376	7.52
623.709	8.18
624.041	7.98
624.374	7.59
624.707	7.78
625.04	8.39
625.373	7.64
625.705	8.01
626.038	7.89
626.37	8.19
626.703	8.24
627.035	7.88
627.368	8.33
627.7	8.21
628.032	8.23
628.365	8.01
628.697	7.82
629.029	8.26
629.361	8.02
629.693	8.49
630.025	8.23
630.357	8.48
630.689	8.59
631.021	8.39
631.353	8.7
631.684	8.51
632.016	8.1
632.348	8.32
632.679	8.42
633.011	8.68
633.342	8.71
633.674	8.27
634.005	8.92
634.336	8.96
634.668	8.44
634.999	8.56
635.33	8.73
635.661	9.18
635.992	8.52
636.323	9.05
636.654	8.99
636.985	8.93
637.316	8.99
637.647	8.89
637.977	8.92
638.308	8.83
638.639	8.99
638.969	9.2
639.3	9.19
639.63	8.75
639.961	9.36
640.291	9.6
640.622	9.18
640.952	9.4
641.282	9.25
641.612	9.18
641.943	9.36
642.273	9.13
642.603	9.69
642.933	9.28
643.263	9.32
643.592	9.68
643.922	10.26
644.252	9.31
644.582	9.34
644.911	9.8
645.241	9.53
645.571	9.41
645.9	9.98
646.23	9.65
646.559	9.72
646.888	9.09
647.218	10.01
647.547	9.67
647.876	9.93
648.205	9.75
648.534	9.5
648.863	10.34
649.192	10.06
649.521	9.91
649.85	10.01
650.179	9.94
650.508	10.2
650.837	9.72
651.165	10.46
651.494	10.05
651.822	10.2
652.151	9.93
652.479	10.58
652.808	9.9
653.136	10
653.465	10.31
653.793	10.78
654.121	10.13
654.449	10.66
654.777	10.41
655.105	10.36
655.433	10.71
655.761	10.36
656.089	10.62
656.417	10.14
656.745	10.74
657.073	10.85
657.4	10.71
657.728	10.55
658.056	10.52
658.383	10.47
658.711	10.97
659.038	11.24
659.365	10.91
659.693	10.5
660.02	10.2
660.347	11.12
660.674	10.5
661.001	10.43
661.329	11.15
661.656	10.9
661.982	11.01
662.309	11.16
662.636	11.14
662.963	11.55
663.29	10.92
663.616	11.12
663.943	11.54
664.27	11.42
664.596	11.51
664.923	11.8
665.249	11.19
665.576	11.29
665.902	11.25
666.228	10.91
666.554	11.08
666.881	11.78
667.207	11.37
667.533	11.73
667.859	11.73
668.185	11.51
668.511	11.19
668.837	11.07
669.162	11.35
669.488	11.27
669.814	11.78
670.139	12.29
670.465	11.58
670.791	11.63
671.116	11.87
671.442	11.9
671.767	12.03
672.092	12.2
672.418	12.54
672.743	12.17
673.068	11.62
673.393	12.25
673.718	11.6
674.043	11.54
674.368	12.28
674.693	12.44
675.018	12.19
675.343	12.17
675.667	12.73
675.992	11.93
676.317	11.99
676.641	12.47
676.966	12.86
677.29	12.14
677.615	12.12
677.939	12.18
678.264	12.27
678.588	13.05
678.912	12.56
679.236	12.86
679.56	12.47
679.885	12.63
680.209	11.85
680.532	12.53
680.856	13.41
681.18	13.08
681.504	12.22
681.828	12.77
682.152	13.1
682.475	12.66
682.799	13.18
683.122	12.9
683.446	13.17
683.769	13.3
684.093	13.8
684.416	13.01
684.739	14
685.062	13.21
685.386	13.44
685.709	13.57
686.032	13.82
686.355	13.33
686.678	13.99
687.001	12.68
687.324	12.97
687.646	13.15
687.969	13.68
688.292	14.49
688.614	13.97
688.937	13.74
