Data from 20-50_forehead_Reflection__3__43.txt Node

Date: Thu Feb 29 22:11:30 CST 2024
User: ToomeyLab
Spectrometer: FLMS14357
Trigger mode: 0
Integration Time (sec): 1.000000E-2
Scans to average: 100
Electric dark correction enabled: true
Nonlinearity correction enabled: false
Boxcar width: 0
XAxis mode: Wavelengths
Number of Pixels in Spectrum: 2048
>>>>>Begin Spectral Data<<<<<
189.047	-63.83
189.435	-63.83
189.823	-63.83
190.211	-630.22
190.599	19.02
190.987	40.25
191.375	96.17
191.763	-244.27
192.151	155.69
192.538	-1091.22
192.926	499.71
193.314	-155.21
193.702	62.79
194.089	-42.79
194.477	205.35
194.864	243.7
195.252	101.86
195.639	5552.78
196.027	210.96
196.414	158.61
196.801	-24.68
197.189	16.96
197.576	52.85
197.963	-120.23
198.351	5.53
198.738	-7.06
199.125	22.19
199.512	35.7
199.899	15.19
200.286	-16.42
200.673	9.22
201.06	7.97
201.447	-52.78
201.833	63.39
202.22	12.83
202.607	-61.86
202.994	13.08
203.38	-48.67
203.767	48.38
204.154	52.48
204.54	51.65
204.927	20.27
205.313	45
205.699	-44.83
206.086	30.21
206.472	57.1
206.858	13.47
207.245	28.12
207.631	11.41
208.017	14.74
208.403	2.47
208.789	23.41
209.175	-75.29
209.561	13.83
209.947	5.85
210.333	95.94
210.719	53.28
211.105	-6.19
211.491	-35.62
211.876	17.91
212.262	31.85
212.648	23.69
213.034	38.46
213.419	30.73
213.805	29.91
214.19	29.7
214.576	-13.3
214.961	1.62
215.346	25.55
215.732	24.91
216.117	26.58
216.502	10.84
216.888	-28.01
217.273	11.15
217.658	28.42
218.043	17.01
218.428	26.72
218.813	6.24
219.198	10.77
219.583	-1.74
219.968	13.86
220.353	-7.7
220.738	14.97
221.122	10.4
221.507	20.25
221.892	12.35
222.276	26.16
222.661	29.1
223.046	-1.34
223.43	1.24
223.815	-0.85
224.199	5.52
224.583	11.51
224.968	1.94
225.352	11.69
225.736	10.05
226.121	6.9
226.505	13.37
226.889	11.79
227.273	6.1
227.657	-2.43
228.041	8.4
228.425	7.87
228.809	9.67
229.193	4.77
229.577	7.97
229.961	4.14
230.344	5.85
230.728	6.22
231.112	6.37
231.495	4.85
231.879	6.12
232.263	3.86
232.646	6.43
233.03	6.67
233.413	6.65
233.797	5.29
234.18	4.73
234.563	3.91
234.946	4.61
235.33	6.66
235.713	2.91
236.096	6.19
236.479	5.21
236.862	7.77
237.245	6.39
237.628	3.99
238.011	7.79
238.394	4.44
238.777	4.06
239.16	6.57
239.543	5.2
239.925	6.79
240.308	6.4
240.691	7.53
241.073	6.66
241.456	5.7
241.838	5.03
242.221	6.1
242.603	6.23
242.986	5.76
243.368	5.87
243.75	6.46
244.133	5.52
244.515	5.48
244.897	5.94
245.279	6.39
245.661	6.08
246.043	5.27
246.425	7.26
246.807	6.72
247.189	5.29
247.571	5.17
247.953	6.12
248.335	5.76
248.717	6.08
249.098	5.95
249.48	5.61
249.862	5.88
250.243	5.92
250.625	5.97
251.006	6.78
251.388	6.49
251.769	6.41
252.151	7.32
252.532	6.48
252.913	5.84
253.295	6.14
253.676	6.25
254.057	6.01
254.438	6.26
254.819	6.6
255.2	5.67
255.581	6.16
255.962	7.52
256.343	6.61
256.724	7.77
257.105	5.18
257.486	6.88
257.867	6.22
258.247	5.65
258.628	5.13
259.009	6.12
259.389	4.92
259.77	7.09
260.15	7.01
260.531	6.34
260.911	5.84
261.292	5.79
261.672	6.01
262.052	5.8
262.432	5.8
262.813	5.47
263.193	5.92
263.573	6.32
263.953	5.93
264.333	6.06
264.713	5.63
265.093	5.25
265.473	6.21
265.853	6.39
266.233	6.56
266.612	5.69
266.992	6.31
267.372	5.84
267.752	5.54
268.131	6.06
268.511	6.16
268.89	6.25
269.27	5.9
269.649	6.15
270.029	5.59
270.408	5.69
270.787	5.79
271.167	5.69
271.546	6.39
271.925	5.75
272.304	5.39
272.683	6.29
273.062	5.31
273.441	5.55
273.82	5.82
274.199	5.41
274.578	5.44
274.957	5.26
275.336	5.86
275.715	6.01
276.093	5.28
276.472	6.26
276.851	5.23
277.229	5.9
277.608	5.95
277.986	5.8
278.365	6.42
278.743	5.61
279.122	5.46
279.5	5.28
279.878	5.69
280.257	6.45
280.635	5.71
281.013	6.32
281.391	4.98
281.769	5.62
282.147	5.86
282.525	5.71
282.903	5.48
283.281	5.6
283.659	5.9
284.037	5.84
284.415	5.02
284.792	5.09
285.17	4.87
285.548	6.03
285.925	5.27
286.303	5.88
286.68	5.46
287.058	5.65
287.435	5.48
287.813	5.34
288.19	5.48
288.567	5.3
288.945	5.86
289.322	5.82
289.699	6.16
290.076	5.73
290.453	5.61
290.83	5.4
291.207	5.61
291.584	5.53
291.961	5.82
292.338	6.21
292.715	5.79
293.092	5.69
293.469	6.11
293.845	6.18
294.222	5.67
294.599	6.37
294.975	6.21
295.352	6.19
295.728	6.64
296.105	6.43
296.481	6.09
296.858	6.83
297.234	5.84
297.61	6.73
297.986	6.74
298.363	6.39
298.739	6.53
299.115	6.74
299.491	6.54
299.867	6.55
300.243	6.79
300.619	6.61
300.995	6.82
301.371	7.43
301.746	6.62
302.122	7.43
302.498	7.38
302.874	7.41
303.249	6.84
303.625	7.53
304	7.44
304.376	7.24
304.751	7.37
305.127	6.93
305.502	7.03
305.878	8.11
306.253	7.3
306.628	7.16
307.003	7.72
307.378	8.4
307.754	8.43
308.129	7.51
308.504	7.78
308.879	8.09
309.254	7.76
309.629	8
310.003	8.02
310.378	8.21
310.753	7.79
311.128	8.53
311.502	8.3
311.877	8.26
312.252	8.63
312.626	8.86
313.001	8.48
313.375	8.95
313.75	8.74
314.124	9.02
314.498	8.82
314.873	8.89
315.247	9.04
315.621	10.06
315.995	9.76
316.369	9.5
316.743	8.88
317.117	9.6
317.491	8.97
317.865	9.47
318.239	9.85
318.613	9.66
318.987	10.14
319.361	9.89
319.734	10.23
320.108	10.38
320.482	10.17
320.855	9.74
321.229	9.72
321.602	9.98
321.976	10.16
322.349	9.81
322.723	10.9
323.096	10.22
323.469	10.2
323.843	10.04
324.216	10.95
324.589	10.33
324.962	10.38
325.335	10.21
325.708	11.25
326.081	10.54
326.454	11.11
326.827	10.14
327.2	10.91
327.573	10.3
327.945	11.2
328.318	10.83
328.691	11.25
329.063	11.15
329.436	11.44
329.809	11.12
330.181	11.15
330.553	11.66
330.926	11.09
331.298	11.54
331.671	11.96
332.043	11.96
332.415	11.35
332.787	10.78
333.159	11.72
333.532	11.67
333.904	11.97
334.276	11.92
334.648	11.91
335.02	11.38
335.391	11.26
335.763	11.38
336.135	11.44
336.507	11.51
336.879	12.06
337.25	12.22
337.622	11.83
337.993	12.12
338.365	11.63
338.736	12.24
339.108	12.25
339.479	12.45
339.851	12.15
340.222	12.67
340.593	12.5
340.964	12.75
341.336	12
341.707	12.3
342.078	12.31
342.449	12.8
342.82	12.56
343.191	12.21
343.562	12.71
343.933	12.42
344.303	12.67
344.674	12.63
345.045	12.6
345.416	12.36
345.786	12.53
346.157	12.29
346.527	12.87
346.898	13.13
347.268	12.91
347.639	12.93
348.009	12.67
348.38	12.43
348.75	13.15
349.12	12.88
349.49	13.5
349.861	13.46
350.231	12.89
350.601	13.36
350.971	13.35
351.341	13.03
351.711	13.43
352.081	13.66
352.45	12.95
352.82	12.97
353.19	14.18
353.56	14.05
353.929	13.33
354.299	13.48
354.669	13.26
355.038	13.22
355.408	13.65
355.777	13.42
356.147	13.59
356.516	13.36
356.885	13.75
357.254	13.53
357.624	13.91
357.993	13.69
358.362	13.56
358.731	13.65
359.1	13.95
359.469	14
359.838	13.65
360.207	13.87
360.576	14.13
360.945	13.36
361.314	14.31
361.682	13.73
362.051	14.01
362.42	13.95
362.788	14.05
363.157	13.91
363.525	14.05
363.894	14.19
364.262	13.92
364.631	14.23
364.999	13.96
365.367	14.23
365.735	14.6
366.104	14.34
366.472	13.93
366.84	14.53
367.208	14.55
367.576	14.54
367.944	14.25
368.312	14.3
368.68	14.49
369.048	14.4
369.416	14.82
369.783	14.34
370.151	14.86
370.519	14.49
370.886	14.6
371.254	15.25
371.621	15.1
371.989	14.59
372.356	14.84
372.724	15.27
373.091	15.01
373.458	14.82
373.826	14.59
374.193	14.69
374.56	15.48
374.927	15.22
375.294	14.8
375.661	15.05
376.028	15
376.395	15.34
376.762	15.35
377.129	15.26
377.496	15.29
377.863	15.11
378.229	15.07
378.596	15.03
378.963	15.14
379.329	15.18
379.696	15.05
380.062	15.42
380.429	15.21
380.795	15.59
381.161	15.93
381.528	15.32
381.894	15.21
382.26	15.35
382.626	15.79
382.993	15.53
383.359	15.73
383.725	15.59
384.091	15.75
384.457	15.7
384.823	15.62
385.188	15.51
385.554	15.57
385.92	16.02
386.286	15.29
386.651	15.29
387.017	15.57
387.383	15.6
387.748	15.72
388.114	15.6
388.479	15.81
388.845	15.62
389.21	16
389.575	15.93
389.94	15.78
390.306	15.38
390.671	15.63
391.036	15.98
391.401	15.95
391.766	15.83
392.131	15.66
392.496	15.88
392.861	15.76
393.226	16.06
393.591	16.02
393.956	16.02
394.32	16.03
394.685	16.01
395.05	15.78
395.414	16.09
395.779	15.8
396.143	16.09
396.508	15.98
396.872	16.04
397.236	15.9
397.601	15.9
397.965	15.98
398.329	16.09
398.694	15.62
399.058	16.13
399.422	15.75
399.786	16.06
400.15	16.03
400.514	15.82
400.878	16.07
401.242	16.05
401.605	15.93
401.969	16.16
402.333	15.82
402.697	16.04
403.06	16
403.424	15.83
403.787	16.06
404.151	16.21
404.514	15.8
404.878	15.91
405.241	16.07
405.604	15.85
405.968	16.03
406.331	15.99
406.694	15.87
407.057	15.96
407.42	16.06
407.783	16.09
408.146	16.39
408.509	16.13
408.872	16.35
409.235	16.25
409.598	16.26
409.961	16.22
410.323	16.42
410.686	16.14
411.049	16.23
411.411	16.28
411.774	16.28
412.136	16.09
412.499	16.5
412.861	15.97
413.223	16
413.586	16.26
413.948	16.33
414.31	16.49
414.672	16.66
415.035	16.6
415.397	16.61
415.759	16.96
416.121	17.1
416.483	16.67
416.845	16.63
417.206	16.61
417.568	16.51
417.93	16.83
418.292	16.82
418.653	16.99
419.015	16.87
419.377	16.91
419.738	16.62
420.1	16.95
420.461	16.99
420.822	16.92
421.184	17.1
421.545	16.96
421.906	16.93
422.267	17.09
422.629	17.04
422.99	17.11
423.351	17.19
423.712	17.23
424.073	17.11
424.434	17.41
424.795	17.54
425.155	17.59
425.516	17.57
425.877	17.63
426.238	17.7
426.598	17.69
426.959	17.61
427.32	17.97
427.68	18.03
428.041	18.02
428.401	18.25
428.761	18.48
429.122	18.24
429.482	18.53
429.842	18.66
430.202	18.59
430.563	18.72
430.923	18.84
431.283	18.68
431.643	18.67
432.003	19.17
432.363	18.75
432.722	18.94
433.082	18.97
433.442	19.03
433.802	19.12
434.161	19.35
434.521	19.29
434.881	19.34
435.24	19.45
435.6	19.29
435.959	19.43
436.319	19.36
436.678	19.54
437.037	19.54
437.396	19.66
437.756	19.89
438.115	19.95
438.474	19.83
438.833	20.3
439.192	20.23
439.551	20.07
439.91	20.13
440.269	20.22
440.628	20.41
440.987	20.25
441.345	20.27
441.704	20.29
442.063	20.31
442.421	20.38
442.78	20.42
443.138	20.48
443.497	20.5
443.855	20.63
444.214	20.81
444.572	20.81
444.93	20.7
445.288	21
445.647	20.92
446.005	20.92
446.363	20.93
446.721	21.01
447.079	20.92
447.437	20.99
447.795	21.04
448.153	21.05
448.51	21.06
448.868	21.02
449.226	21.13
449.584	21.25
449.941	21.22
450.299	21.45
450.656	21.52
451.014	21.49
451.371	21.66
451.729	21.73
452.086	21.87
452.443	21.82
452.801	21.87
453.158	22.08
453.515	21.79
453.872	22.15
454.229	21.81
454.586	21.86
454.943	22.28
455.3	22.28
455.657	22.22
456.014	22.48
456.371	22.41
456.727	22.44
457.084	22.46
457.441	22.7
457.797	22.54
458.154	23.11
458.51	22.58
458.867	23.03
459.223	22.85
459.58	22.99
459.936	23.06
460.292	22.77
460.648	22.86
461.005	22.73
461.361	22.88
461.717	22.72
462.073	22.77
462.429	22.99
462.785	22.92
463.141	23.19
463.496	23.4
463.852	23.35
464.208	23.55
464.564	23.58
464.919	23.69
465.275	23.83
465.631	23.77
465.986	23.9
466.342	23.6
466.697	23.77
467.052	23.79
467.408	23.79
467.763	24.42
468.118	24
468.473	24.04
468.829	24.18
469.184	24.36
469.539	24.16
469.894	24.37
470.249	24.22
470.603	24.22
470.958	24.59
471.313	24.35
471.668	24.57
472.023	24.39
472.377	24.39
472.732	24.58
473.086	24.71
473.441	24.95
473.795	24.86
474.15	24.63
474.504	24.72
474.859	24.76
475.213	24.78
475.567	25.04
475.921	24.96
476.275	25.07
476.63	25.14
476.984	25.28
477.338	25.31
477.692	25.08
478.045	25.19
478.399	25.31
478.753	25.31
479.107	25.36
479.461	25.33
479.814	25.32
480.168	25.36
480.521	25.56
480.875	25.33
481.228	25.69
481.582	25.75
481.935	25.71
482.289	25.72
482.642	25.59
482.995	25.74
483.348	25.63
483.701	25.59
484.055	25.58
484.408	25.57
484.761	25.25
485.114	25.02
485.466	24.79
485.819	24.86
486.172	24.89
486.525	25.09
486.878	25.12
487.23	25.39
487.583	25.54
487.936	25.71
488.288	25.71
488.641	25.53
488.993	25.59
489.345	25.47
489.698	25.35
490.05	25.64
490.402	25.69
490.754	25.89
491.107	26
491.459	26.17
491.811	26.4
492.163	26.41
492.515	26.31
492.866	26.22
493.218	26.02
493.57	26.07
493.922	26.03
494.274	26.24
494.625	26.53
494.977	26.79
495.328	26.85
495.68	27.31
496.031	27.08
496.383	26.99
496.734	27.32
497.086	27.29
497.437	27.38
497.788	27.26
498.139	27.31
498.49	27.4
498.842	27.36
499.193	27.44
499.544	27.37
499.894	27.48
500.245	27.7
500.596	27.56
500.947	27.57
501.298	27.69
501.648	27.74
501.999	27.93
502.35	27.76
502.7	28.12
503.051	28.09
503.401	28.11
503.752	28.13
504.102	28.34
504.452	28.45
504.803	28.26
505.153	28.28
505.503	28.51
505.853	28.43
506.203	28.35
506.553	28.59
506.903	28.37
507.253	28.71
507.603	28.67
507.953	28.61
508.303	28.71
508.652	28.82
509.002	28.78
509.352	28.82
509.701	28.9
510.051	28.89
510.4	28.84
510.75	28.82
511.099	28.88
511.449	28.78
511.798	28.93
512.147	29.01
512.496	28.95
512.846	29.13
513.195	29.19
513.544	29.26
513.893	29.16
514.242	29.29
514.591	29.3
514.939	29.23
515.288	29.46
515.637	29.42
515.986	29.53
516.334	29.53
516.683	29.8
517.032	29.86
517.38	29.79
517.729	29.78
518.077	29.89
518.426	29.87
518.774	29.68
519.122	29.74
519.47	29.79
519.819	29.78
520.167	29.48
520.515	29.48
520.863	29.69
521.211	29.79
521.559	29.92
521.907	30
522.255	30.08
522.602	30.09
522.95	30.06
523.298	30.23
523.645	30.31
523.993	30.42
524.341	30.49
524.688	30.52
525.036	30.5
525.383	30.65
525.73	30.45
526.078	30.58
526.425	30.61
526.772	30.46
527.119	30.33
527.466	30.36
527.814	30.24
528.161	30.43
528.508	30.51
528.854	30.45
529.201	30.4
529.548	30.27
529.895	30.04
530.242	29.87
530.588	29.97
530.935	30.07
531.282	30.2
531.628	30.34
531.975	30.48
532.321	30.71
532.667	31
533.014	30.9
533.36	31.11
533.706	31.18
534.052	31.17
534.399	31.08
534.745	30.99
535.091	30.79
535.437	30.89
535.783	30.87
536.129	31.23
536.474	31.24
536.82	31.45
537.166	31.61
537.512	31.83
537.857	31.68
538.203	31.64
538.549	31.43
538.894	31.69
539.239	31.7
539.585	31.85
539.93	31.99
540.276	32.15
540.621	32.15
540.966	32.32
541.311	32.48
541.656	32.55
542.001	32.27
542.346	32.25
542.691	31.84
543.036	31.82
543.381	31.8
543.726	31.95
544.071	32.03
544.415	32.13
544.76	32.24
545.105	32.31
545.449	32.44
545.794	32.68
546.138	32.88
546.483	32.77
546.827	33.01
547.171	33.12
547.516	33.18
547.86	33.24
548.204	33.14
548.548	32.8
548.892	33.08
549.236	33.27
549.58	33.4
549.924	33.44
550.268	33.6
550.612	33.78
550.956	33.66
551.3	34.11
551.643	33.9
551.987	34.03
552.33	34.12
552.674	34.3
553.017	34.07
553.361	34.26
553.704	34.18
554.048	34.19
554.391	34.26
554.734	34.29
555.077	34.3
555.42	34.48
555.764	34.55
556.107	34.82
556.45	34.6
556.793	34.8
557.135	34.63
557.478	34.8
557.821	34.93
558.164	35.18
558.507	35.19
558.849	35.03
559.192	34.95
559.534	35.01
559.877	35.24
560.219	35.36
560.562	35.44
560.904	35.65
561.246	35.38
561.589	35.48
561.931	35.21
562.273	35.73
562.615	35.61
562.957	35.8
563.299	35.54
563.641	35.38
563.983	35.84
564.325	35.59
564.667	35.73
565.008	35.86
565.35	35.91
565.692	36.1
566.033	36.32
566.375	36.14
566.716	36.4
567.058	36.29
567.399	36.36
567.741	35.77
568.082	36.12
568.423	36.11
568.764	36.23
569.105	36.48
569.447	36.35
569.788	36.37
570.129	36.24
570.47	36.4
570.811	36.29
571.151	36.65
571.492	36.66
571.833	36.68
572.174	36.59
572.514	36.72
572.855	36.68
573.195	36.79
573.536	36.82
573.876	36.93
574.217	37.12
574.557	37.16
574.898	37.09
575.238	37.08
575.578	37.42
575.918	37.42
576.258	37.51
576.598	37.36
576.938	37.3
577.278	37.33
577.618	37.45
577.958	37.63
578.298	37.77
578.638	38.1
578.977	37.98
579.317	38.1
579.657	38.03
579.996	38.31
580.336	38.38
580.675	38.05
581.014	38.4
581.354	38.53
581.693	38.45
582.032	38.61
582.372	38.82
582.711	38.75
583.05	38.68
583.389	38.96
583.728	38.58
584.067	39.04
584.406	38.96
584.745	38.75
585.083	39.15
585.422	39.08
585.761	39.33
586.1	39.22
586.438	39.14
586.777	39.38
587.115	39.31
587.454	39.19
587.792	39.41
588.13	39.27
588.469	39.53
588.807	39.59
589.145	40.03
589.483	39.54
589.821	39.89
590.159	39.8
590.497	39.61
590.835	39.88
591.173	39.95
591.511	40.01
591.849	40.06
592.187	40.26
592.524	39.98
592.862	40.28
593.2	40.44
593.537	40.43
593.875	40.43
594.212	40.18
594.55	40.43
594.887	41.14
595.224	40.67
595.561	40.83
595.899	40.78
596.236	40.74
596.573	40.8
596.91	40.96
597.247	40.86
597.584	40.74
597.921	40.6
598.258	40.96
598.594	40.53
598.931	40.92
599.268	40.61
599.604	40.94
599.941	41.08
600.277	41.26
600.614	41.52
600.95	41.35
601.287	41.62
601.623	41.98
601.959	41.41
602.296	41.49
602.632	41.66
602.968	41.63
603.304	41.65
603.64	41.85
603.976	42.02
604.312	41.98
604.648	41.85
604.984	41.71
605.319	41.8
605.655	42.07
605.991	42.18
606.326	41.95
606.662	41.93
606.998	41.97
607.333	42.02
607.668	42.05
608.004	42.52
608.339	42.07
608.674	42.58
609.01	42.95
609.345	42.62
609.68	42.29
610.015	42.62
610.35	42.88
610.685	43.08
611.02	42.57
611.355	42.63
611.689	42.57
612.024	42.52
612.359	42.81
612.694	42.95
613.028	42.87
613.363	43.47
613.697	43.09
614.032	43.25
614.366	43.28
614.7	43.23
615.035	43.57
615.369	43.72
615.703	44.07
616.037	43.84
616.371	43.79
616.705	44.05
617.039	43.79
617.373	44.2
617.707	43.73
618.041	43.85
618.375	44.89
618.709	44.17
619.042	44.38
619.376	43.68
619.71	44.11
620.043	44.48
620.377	44.3
620.71	44.06
621.043	44.34
621.377	44.57
621.71	45.26
622.043	44.78
622.376	44.57
622.709	45.34
623.043	44.66
623.376	45.27
623.709	44.65
624.041	45.07
624.374	45
624.707	45.4
625.04	44.91
625.373	44.92
625.705	45.29
626.038	45.52
626.37	45.39
626.703	44.78
627.035	45.51
627.368	45.29
627.7	45.56
628.032	45.41
628.365	45.44
628.697	45.29
629.029	45.74
629.361	45.3
629.693	45.81
630.025	45.71
630.357	45.77
630.689	46.26
631.021	45.78
631.353	45.96
631.684	46.08
632.016	45.94
632.348	46.41
632.679	46.13
633.011	46.23
633.342	46
633.674	46.02
634.005	46.58
634.336	46.54
634.668	46.78
634.999	46.62
635.33	46.27
635.661	46.36
635.992	46.5
636.323	46.73
636.654	47.22
636.985	47
637.316	46.89
637.647	46.43
637.977	46.92
638.308	47.09
638.639	47.1
638.969	47.14
639.3	47.36
639.63	46.98
639.961	47.09
640.291	47.36
640.622	47.93
640.952	46.67
641.282	47.71
641.612	48.22
641.943	48.14
642.273	47.99
642.603	47.99
642.933	47.56
643.263	48.64
643.592	48.02
643.922	48.06
644.252	47.94
644.582	47.25
644.911	48.21
645.241	48.72
645.571	47.83
645.9	47.8
646.23	48.85
646.559	48.34
646.888	48.33
647.218	49.17
647.547	48.23
647.876	48.93
648.205	48.82
648.534	48.8
648.863	49
649.192	48.88
649.521	48.84
649.85	49.6
650.179	48.98
650.508	49.79
650.837	48.87
651.165	49.28
651.494	49.28
651.822	48.67
652.151	48.96
652.479	48.68
652.808	49.23
653.136	49.51
653.465	49.04
653.793	49.73
654.121	49.41
654.449	49.91
654.777	50.19
655.105	49.9
655.433	49.66
655.761	49.57
656.089	49.85
656.417	50.69
656.745	49.68
657.073	50.39
657.4	50.78
657.728	50.27
658.056	50.3
658.383	49.68
658.711	50.31
659.038	50.09
659.365	50.71
659.693	50.05
660.02	50.15
660.347	50.75
660.674	50.67
661.001	50.39
661.329	50.81
661.656	50.78
661.982	51.06
662.309	51.35
662.636	51.16
662.963	50.96
663.29	51.94
663.616	50.63
663.943	51.17
664.27	51.37
664.596	50.62
664.923	50.66
665.249	51.05
665.576	52.07
665.902	51.94
666.228	51.94
666.554	51.41
666.881	51.91
667.207	51.8
667.533	51.52
667.859	52.06
668.185	52.13
668.511	52.17
668.837	52.12
669.162	51.21
