Data from 20-50_crown_Reflection__1__36.txt Node

Date: Thu Feb 29 22:09:58 CST 2024
User: ToomeyLab
Spectrometer: FLMS14357
Trigger mode: 0
Integration Time (sec): 1.000000E-2
Scans to average: 100
Electric dark correction enabled: true
Nonlinearity correction enabled: false
Boxcar width: 0
XAxis mode: Wavelengths
Number of Pixels in Spectrum: 2048
>>>>>Begin Spectral Data<<<<<
189.047	24.58
189.435	24.58
189.823	24.58
190.211	142.35
190.599	58.08
190.987	-59.9
191.375	5.36
191.763	11.14
192.151	27.52
192.538	-857.77
192.926	-31.13
193.314	238.17
193.702	76.76
194.089	-9.87
194.477	-4.13
194.864	346.63
195.252	40.65
195.639	3015.28
196.027	60.16
196.414	74.85
196.801	-404.27
197.189	90.38
197.576	150.69
197.963	-167.38
198.351	-114.28
198.738	-12.56
199.125	2.89
199.512	-7.63
199.899	-26.84
200.286	-76.11
200.673	25.8
201.06	-40.88
201.447	-73.76
201.833	-26.51
202.22	-47.22
202.607	-102.67
202.994	-131.54
203.38	-58.42
203.767	-3.61
204.154	36.01
204.54	-0.47
204.927	34.5
205.313	49.51
205.699	-5.4
206.086	-21.76
206.472	35.38
206.858	-18.99
207.245	-10.46
207.631	5.49
208.017	27.72
208.403	-45.26
208.789	-13.89
209.175	-24.88
209.561	26.74
209.947	15.23
210.333	-22.67
210.719	1.03
211.105	-4.08
211.491	-33.92
211.876	-10.09
212.262	10.74
212.648	-38.15
213.034	4.23
213.419	15.15
213.805	4.68
214.19	23.63
214.576	-9.16
214.961	-8.51
215.346	-5.38
215.732	10.87
216.117	-74.14
216.502	11.92
216.888	-0.71
217.273	8.9
217.658	21.52
218.043	2.59
218.428	-5.03
218.813	19.88
219.198	21.61
219.583	-22.56
219.968	-1.36
220.353	-8.69
220.738	-3.95
221.122	-20.6
221.507	16.99
221.892	19.34
222.276	19.13
222.661	18.49
223.046	1.88
223.43	-12.22
223.815	-4.47
224.199	5.74
224.583	2.88
224.968	4.7
225.352	5.39
225.736	2.45
226.121	3.51
226.505	12.37
226.889	6.06
227.273	-1.36
227.657	-2.79
228.041	3.7
228.425	4.92
228.809	9.48
229.193	3.39
229.577	3.41
229.961	2.41
230.344	3.23
230.728	4.39
231.112	4.94
231.495	4.35
231.879	4.03
232.263	2.77
232.646	4.01
233.03	4
233.413	2.71
233.797	5.65
234.18	2.3
234.563	0.94
234.946	0.47
235.33	5.14
235.713	4.13
236.096	3.38
236.479	4.51
236.862	4.96
237.245	1.08
237.628	4.21
238.011	3.79
238.394	3
238.777	3.68
239.16	4.03
239.543	2.84
239.925	3
240.308	2.94
240.691	4.43
241.073	3.41
241.456	4.74
241.838	4.02
242.221	4.2
242.603	3.32
242.986	4.17
243.368	3.53
243.75	4.38
244.133	3.73
244.515	3.68
244.897	3.99
245.279	3.83
245.661	3.44
246.043	3.64
246.425	5.29
246.807	5.03
247.189	3.25
247.571	3.9
247.953	3.49
248.335	3.55
248.717	3.82
249.098	4.04
249.48	4.09
249.862	3.71
250.243	3.95
250.625	4.31
251.006	4.17
251.388	4.02
251.769	4.53
252.151	5.58
252.532	3.76
252.913	3.04
253.295	3.72
253.676	3.97
254.057	3.7
254.438	4.2
254.819	3.4
255.2	2.52
255.581	2.65
255.962	4.07
256.343	3.13
256.724	4.22
257.105	4.23
257.486	4.75
257.867	4.51
258.247	4.46
258.628	3.53
259.009	2.96
259.389	2.54
259.77	3.53
260.15	4.55
260.531	3.58
260.911	3.84
261.292	3.67
261.672	3.62
262.052	4.11
262.432	3.89
262.813	3.23
263.193	3.49
263.573	3.44
263.953	3.7
264.333	3.05
264.713	3.52
265.093	3.95
265.473	3.62
265.853	4.24
266.233	3.4
266.612	3.68
266.992	3.59
267.372	3.13
267.752	2.71
268.131	3.99
268.511	4.23
268.89	3.86
269.27	4.03
269.649	3.78
270.029	3.26
270.408	3.15
270.787	3.39
271.167	3.34
271.546	3.92
271.925	2.61
272.304	3.35
272.683	4.06
273.062	3.4
273.441	3.77
273.82	3.36
274.199	3.51
274.578	3.04
274.957	3.75
275.336	4.3
275.715	3.94
276.093	3.65
276.472	4.33
276.851	3.03
277.229	3.62
277.608	3.8
277.986	3.49
278.365	3.94
278.743	3.59
279.122	2.9
279.5	3.45
279.878	3.15
280.257	3.28
280.635	2.8
281.013	3.61
281.391	3.49
281.769	3.51
282.147	3.4
282.525	3.47
282.903	2.82
283.281	3.33
283.659	3.34
284.037	2.92
284.415	3.13
284.792	2.97
285.17	3.03
285.548	3.73
285.925	3.23
286.303	3.31
286.68	2.98
287.058	3.12
287.435	3.25
287.813	3.65
288.19	3.21
288.567	3.35
288.945	3.28
289.322	3.68
289.699	3.52
290.076	3.04
290.453	2.81
290.83	3.04
291.207	3.12
291.584	3.53
291.961	3.24
292.338	3.83
292.715	3.81
293.092	3.48
293.469	3.55
293.845	3.08
294.222	3.71
294.599	3.06
294.975	3.88
295.352	3.56
295.728	3.88
296.105	3.89
296.481	3.15
296.858	4.06
297.234	3.09
297.61	3.52
297.986	3.68
298.363	3.57
298.739	3.4
299.115	3.6
299.491	3.35
299.867	3.27
300.243	3.19
300.619	3.66
300.995	3.58
301.371	3.57
301.746	3.68
302.122	4.19
302.498	3.54
302.874	3.84
303.249	3.54
303.625	3.58
304	3.61
304.376	3.72
304.751	3.33
305.127	3.31
305.502	3.52
305.878	4.18
306.253	2.77
306.628	3.84
307.003	3.57
307.378	3.88
307.754	3.57
308.129	3.22
308.504	3.95
308.879	3.5
309.254	3.38
309.629	3.28
310.003	3.81
310.378	2.98
310.753	3.56
311.128	3.43
311.502	3.76
311.877	3.69
312.252	3.78
312.626	3.69
313.001	3.59
313.375	3.63
313.75	3.85
314.124	3.91
314.498	3.61
314.873	2.94
315.247	3.34
315.621	4.05
315.995	3.59
316.369	3.33
316.743	3.28
317.117	4.02
317.491	3.79
317.865	3.22
318.239	3.56
318.613	4.18
318.987	4.44
319.361	3.11
319.734	3.7
320.108	4.12
320.482	3.78
320.855	3.17
321.229	3.81
321.602	3.54
321.976	3.4
322.349	3.63
322.723	3.8
323.096	4.55
323.469	2.81
323.843	3.55
324.216	3.44
324.589	3.03
324.962	3.53
325.335	3.07
325.708	4.4
326.081	3.1
326.454	3.38
326.827	3.26
327.2	3.91
327.573	3.43
327.945	4.07
328.318	3.58
328.691	3.52
329.063	3.18
329.436	3.5
329.809	3.61
330.181	3.97
330.553	3.67
330.926	3.51
331.298	3.64
331.671	2.92
332.043	4
332.415	3.41
332.787	3.59
333.159	3.27
333.532	3.53
333.904	3.99
334.276	3.81
334.648	3.68
335.02	3.32
335.391	3.3
335.763	2.81
336.135	3.61
336.507	3.22
336.879	4.09
337.25	3.88
337.622	3.86
337.993	3.66
338.365	3.32
338.736	3.79
339.108	4
339.479	4.07
339.851	3.53
340.222	4.11
340.593	3.72
340.964	3.59
341.336	3.26
341.707	3.59
342.078	3.13
342.449	3.55
342.82	3.74
343.191	3.59
343.562	3.51
343.933	3.48
344.303	3.73
344.674	3.59
345.045	3.45
345.416	3.68
345.786	3.51
346.157	3.68
346.527	3.39
346.898	4.24
347.268	3.6
347.639	3.55
348.009	3.93
348.38	3.83
348.75	3.95
349.12	3.9
349.49	3.68
349.861	3.36
350.231	3.54
350.601	3.9
350.971	3.21
351.341	4.02
351.711	4.18
352.081	3.66
352.45	3.27
352.82	3.61
353.19	4.27
353.56	3.56
353.929	4.1
354.299	3.09
354.669	3.49
355.038	3.38
355.408	3.83
355.777	3.69
356.147	3.6
356.516	4
356.885	3.31
357.254	3.29
357.624	3.32
357.993	4.19
358.362	3.8
358.731	3.81
359.1	3.96
359.469	3.73
359.838	3.57
360.207	3.62
360.576	3.72
360.945	3.45
361.314	3.76
361.682	3.49
362.051	3.78
362.42	3.56
362.788	3.78
363.157	3.51
363.525	3.47
363.894	3.58
364.262	3.79
364.631	3.7
364.999	3.31
365.367	3.46
365.735	3.75
366.104	3.84
366.472	3.22
366.84	3.84
367.208	3.76
367.576	3.54
367.944	3.74
368.312	3.56
368.68	3.72
369.048	3.65
369.416	3.71
369.783	3.67
370.151	3.58
370.519	3.86
370.886	3.91
371.254	4
371.621	3.94
371.989	3.71
372.356	3.75
372.724	3.52
373.091	3.74
373.458	3.86
373.826	3.87
374.193	3.79
374.56	3.86
374.927	4.07
375.294	3.62
375.661	3.98
376.028	4.1
376.395	3.49
376.762	4.27
377.129	3.75
377.496	4.12
377.863	3.72
378.229	3.55
378.596	3.84
378.963	3.91
379.329	3.89
379.696	3.68
380.062	4.06
380.429	4.15
380.795	3.93
381.161	4.42
381.528	3.59
381.894	3.56
382.26	3.48
382.626	3.4
382.993	3.58
383.359	3.66
383.725	3.61
384.091	3.62
384.457	3.71
384.823	3.82
385.188	3.7
385.554	3.52
385.92	4.06
386.286	3.51
386.651	3.95
387.017	4
387.383	3.63
387.748	3.73
388.114	3.87
388.479	4.07
388.845	3.78
389.21	3.88
389.575	3.6
389.94	4.01
390.306	3.75
390.671	3.86
391.036	3.87
391.401	3.69
391.766	3.86
392.131	3.89
392.496	3.79
392.861	3.8
393.226	4.22
393.591	4.02
393.956	3.99
394.32	3.96
394.685	3.89
395.05	3.92
395.414	4.18
395.779	3.77
396.143	4.01
396.508	3.84
396.872	4.03
397.236	4.13
397.601	4.2
397.965	4.02
398.329	3.95
398.694	3.92
399.058	4.03
399.422	3.85
399.786	3.93
400.15	3.74
400.514	3.96
400.878	3.65
401.242	3.71
401.605	3.86
401.969	4.15
402.333	4.05
402.697	3.72
403.06	4.14
403.424	4.02
403.787	4.13
404.151	4.22
404.514	3.98
404.878	3.93
405.241	4.27
405.604	3.71
405.968	3.9
406.331	3.72
406.694	4.02
407.057	3.92
407.42	4.08
407.783	4.03
408.146	4.07
408.509	3.89
408.872	3.94
409.235	3.91
409.598	4.38
409.961	3.9
410.323	4.15
410.686	4
411.049	3.92
411.411	3.94
411.774	4.04
412.136	3.87
412.499	4.09
412.861	4.12
413.223	3.93
413.586	3.87
413.948	3.99
414.31	3.99
414.672	4.02
415.035	4.19
415.397	3.9
415.759	4.06
416.121	4.15
416.483	3.9
416.845	4.1
417.206	3.98
417.568	3.88
417.93	4.2
418.292	4.14
418.653	3.93
419.015	4.14
419.377	3.88
419.738	4.01
420.1	3.97
420.461	3.94
420.822	3.94
421.184	3.85
421.545	3.83
421.906	3.91
422.267	3.96
422.629	3.88
422.99	3.88
423.351	4.01
423.712	3.89
424.073	3.94
424.434	3.76
424.795	4.02
425.155	3.91
425.516	3.9
425.877	3.94
426.238	3.9
426.598	4.01
426.959	3.98
427.32	4.19
427.68	3.96
428.041	3.96
428.401	4.11
428.761	4.04
429.122	4.04
429.482	3.93
429.842	4.17
430.202	4.05
430.563	4.12
430.923	4.07
431.283	3.89
431.643	4.04
432.003	4.15
432.363	3.97
432.722	4.12
433.082	3.79
433.442	4.13
433.802	4.11
434.161	4.14
434.521	3.89
434.881	3.96
435.24	4.1
435.6	3.92
435.959	3.92
436.319	4.08
436.678	4
437.037	3.92
437.396	4.12
437.756	4.06
438.115	3.91
438.474	3.99
438.833	4.2
439.192	4.12
439.551	4.01
439.91	4.01
440.269	4.17
440.628	4.01
440.987	4.04
441.345	4.13
441.704	4.03
442.063	4.13
442.421	4.01
442.78	4.03
443.138	4.01
443.497	4.16
443.855	4.23
444.214	4.14
444.572	4.24
444.93	4.13
445.288	4.1
445.647	4.07
446.005	4.21
446.363	3.99
446.721	4.09
447.079	4.07
447.437	4.19
447.795	4.07
448.153	4.09
448.51	4.21
448.868	4.05
449.226	4.1
449.584	4.12
449.941	4.24
450.299	4.12
450.656	4
451.014	4.14
451.371	4.14
451.729	4.42
452.086	4.21
452.443	4.2
452.801	4.27
453.158	4.31
453.515	4.32
453.872	4.28
454.229	4.08
454.586	4.23
454.943	4.27
455.3	4.06
455.657	4.19
456.014	4.36
456.371	4.32
456.727	4.3
457.084	4.16
457.441	4.33
457.797	4.13
458.154	4.26
458.51	4.19
458.867	4.42
459.223	4.19
459.58	4.21
459.936	4.3
460.292	4.18
460.648	4.02
461.005	4.14
461.361	4.14
461.717	4.08
462.073	4.19
462.429	4.18
462.785	4.28
463.141	4.27
463.496	4.44
463.852	4.22
464.208	4.24
464.564	4.36
464.919	4.08
465.275	4.06
465.631	4.28
465.986	4.26
466.342	4.23
466.697	4.33
467.052	4.1
467.408	4.18
467.763	4.44
468.118	4.35
468.473	4.43
468.829	4.24
469.184	4.34
469.539	4.55
469.894	4.22
470.249	4.32
470.603	4.33
470.958	4.48
471.313	4.22
471.668	4.22
472.023	4.42
472.377	4.25
472.732	4.44
473.086	4.45
473.441	4.31
473.795	4.33
474.15	4.13
474.504	4.18
474.859	4.36
475.213	4.2
475.567	4.42
475.921	4.3
476.275	4.3
476.63	4.33
476.984	4.53
477.338	4.26
477.692	4.29
478.045	4.13
478.399	4.24
478.753	4.37
479.107	4.3
479.461	4.34
479.814	4.25
480.168	4.26
480.521	4.39
480.875	4.33
481.228	4.39
481.582	4.41
481.935	4.5
482.289	4.57
482.642	4.2
482.995	4.3
483.348	4.33
483.701	4.3
484.055	4.27
484.408	4.27
484.761	4.19
485.114	4.1
485.466	3.96
485.819	3.98
486.172	4.12
486.525	4.21
486.878	4.25
487.23	4.31
487.583	4.26
487.936	4.28
488.288	4.2
488.641	4.16
488.993	4.14
489.345	4.13
489.698	4.09
490.05	4.2
490.402	4.29
490.754	4.3
491.107	4.37
491.459	4.38
491.811	4.43
492.163	4.31
492.515	4.3
492.866	4.17
493.218	4.16
493.57	4.2
493.922	4.23
494.274	4.29
494.625	4.37
494.977	4.51
495.328	4.46
495.68	4.46
496.031	4.43
496.383	4.35
496.734	4.39
497.086	4.27
497.437	4.46
497.788	4.52
498.139	4.44
498.49	4.41
498.842	4.42
499.193	4.45
499.544	4.48
499.894	4.35
500.245	4.5
500.596	4.36
500.947	4.35
501.298	4.41
501.648	4.45
501.999	4.46
502.35	4.48
502.7	4.52
503.051	4.6
503.401	4.4
503.752	4.5
504.102	4.44
504.452	4.41
504.803	4.59
505.153	4.49
505.503	4.61
505.853	4.45
506.203	4.47
506.553	4.55
506.903	4.31
507.253	4.52
507.603	4.51
507.953	4.45
508.303	4.53
508.652	4.58
509.002	4.55
509.352	4.38
509.701	4.47
510.051	4.48
510.4	4.48
510.75	4.35
511.099	4.49
511.449	4.36
511.798	4.43
512.147	4.51
512.496	4.43
512.846	4.35
513.195	4.6
513.544	4.55
513.893	4.39
514.242	4.54
514.591	4.43
514.939	4.49
515.288	4.64
515.637	4.54
515.986	4.55
516.334	4.57
516.683	4.57
517.032	4.66
517.38	4.68
517.729	4.6
518.077	4.5
518.426	4.47
518.774	4.57
519.122	4.57
519.47	4.51
519.819	4.53
520.167	4.44
520.515	4.43
520.863	4.46
521.211	4.42
521.559	4.51
521.907	4.57
522.255	4.49
522.602	4.63
522.95	4.55
523.298	4.4
523.645	4.44
523.993	4.64
524.341	4.63
524.688	4.53
525.036	4.57
525.383	4.53
525.73	4.68
526.078	4.59
526.425	4.57
526.772	4.5
527.119	4.47
527.466	4.46
527.814	4.44
528.161	4.54
528.508	4.52
528.854	4.54
529.201	4.52
529.548	4.39
529.895	4.33
530.242	4.23
530.588	4.28
530.935	4.36
531.282	4.44
531.628	4.46
531.975	4.49
532.321	4.56
532.667	4.58
533.014	4.65
533.36	4.55
533.706	4.55
534.052	4.46
534.399	4.59
534.745	4.39
535.091	4.34
535.437	4.43
535.783	4.52
536.129	4.54
536.474	4.57
536.82	4.59
537.166	4.54
537.512	4.69
537.857	4.59
538.203	4.6
538.549	4.43
538.894	4.59
539.239	4.64
539.585	4.53
539.93	4.67
540.276	4.73
540.621	4.53
540.966	4.66
541.311	4.7
541.656	4.66
542.001	4.59
542.346	4.51
542.691	4.45
543.036	4.45
543.381	4.41
543.726	4.5
544.071	4.55
544.415	4.55
544.76	4.63
545.105	4.61
545.449	4.59
545.794	4.45
546.138	4.62
546.483	4.56
546.827	4.68
547.171	4.66
547.516	4.68
547.86	4.65
548.204	4.54
548.548	4.58
548.892	4.51
549.236	4.74
549.58	4.76
549.924	4.73
550.268	4.76
550.612	4.71
550.956	4.7
551.3	4.76
551.643	4.72
551.987	4.63
552.33	4.72
552.674	4.72
553.017	4.64
553.361	4.75
553.704	4.7
554.048	4.57
554.391	4.65
554.734	4.77
555.077	4.74
555.42	4.7
555.764	4.85
556.107	4.81
556.45	4.72
556.793	4.61
557.135	4.8
557.478	4.66
557.821	4.88
558.164	4.64
558.507	4.75
558.849	4.87
559.192	4.66
559.534	4.78
559.877	4.74
560.219	4.69
560.562	4.68
560.904	4.86
561.246	4.77
561.589	4.81
561.931	4.64
562.273	4.87
562.615	4.48
562.957	4.76
563.299	4.95
563.641	4.59
563.983	4.77
564.325	4.5
564.667	4.76
565.008	4.67
565.35	5.03
565.692	5.04
566.033	4.96
566.375	4.53
566.716	4.74
567.058	4.76
567.399	5.08
567.741	4.52
568.082	4.91
568.423	4.76
568.764	4.83
569.105	4.66
569.447	4.67
569.788	4.77
570.129	4.78
570.47	4.83
570.811	4.69
571.151	4.86
571.492	4.77
571.833	4.8
572.174	4.73
572.514	4.91
572.855	4.57
573.195	4.97
573.536	4.92
573.876	4.74
574.217	4.74
574.557	4.6
574.898	4.8
575.238	4.83
575.578	4.82
575.918	4.77
576.258	4.68
576.598	4.84
576.938	4.84
577.278	4.6
577.618	4.78
577.958	4.69
578.298	4.93
578.638	4.94
578.977	4.73
579.317	4.96
579.657	4.99
579.996	4.95
580.336	5.03
580.675	5.23
581.014	4.98
581.354	4.71
581.693	5.13
582.032	4.96
582.372	5.19
582.711	5.09
583.05	4.85
583.389	4.9
583.728	4.7
584.067	4.94
584.406	4.89
584.745	4.89
585.083	4.82
585.422	4.98
585.761	4.92
586.1	4.89
586.438	5.18
586.777	5.04
587.115	4.8
587.454	4.9
587.792	4.73
588.13	5.06
588.469	4.71
588.807	4.8
589.145	5.03
589.483	5.1
589.821	4.63
590.159	4.8
590.497	4.57
590.835	4.94
591.173	4.93
591.511	4.96
591.849	4.99
592.187	4.91
592.524	4.72
592.862	4.73
593.2	4.87
593.537	4.84
593.875	5.12
594.212	4.82
594.55	4.95
594.887	5.12
595.224	4.73
595.561	5.04
595.899	5.09
596.236	4.54
596.573	5.11
596.91	4.97
597.247	4.9
597.584	4.75
597.921	4.55
598.258	4.86
598.594	4.77
598.931	4.68
599.268	4.97
599.604	5.02
599.941	4.87
600.277	5.02
600.614	4.85
600.95	4.98
601.287	4.9
601.623	4.87
601.959	4.85
602.296	4.81
602.632	4.87
602.968	4.84
603.304	4.99
603.64	4.96
603.976	5.22
604.312	5.02
604.648	4.91
604.984	4.73
605.319	5.33
605.655	4.98
605.991	4.77
606.326	4.87
606.662	4.97
606.998	4.75
607.333	4.91
607.668	4.99
608.004	5.06
608.339	4.79
608.674	5.15
609.01	4.85
609.345	4.97
609.68	4.63
610.015	4.74
610.35	5
610.685	5.13
611.02	4.84
611.355	4.95
611.689	4.93
612.024	5
612.359	5.19
612.694	5.02
613.028	4.84
613.363	5.04
613.697	4.86
614.032	5.08
614.366	4.98
614.7	4.99
615.035	4.64
615.369	4.8
615.703	5.16
616.037	4.99
616.371	5.17
616.705	4.98
617.039	4.96
617.373	4.73
617.707	4.86
618.041	4.99
618.375	5.19
618.709	4.69
619.042	4.98
619.376	4.91
619.71	4.82
620.043	5.04
620.377	5.27
620.71	4.81
621.043	5.06
621.377	4.96
621.71	5.38
622.043	5.45
622.376	5
622.709	5.37
623.043	5.48
623.376	5.09
623.709	4.9
624.041	5.4
624.374	4.97
624.707	4.84
625.04	4.96
625.373	4.94
625.705	5.35
626.038	5.06
626.37	5.01
626.703	5.43
627.035	5.28
627.368	4.93
627.7	5.43
628.032	5.2
628.365	5.23
628.697	4.8
629.029	4.99
629.361	5.13
629.693	4.89
630.025	4.79
630.357	5.11
630.689	5.29
631.021	5.17
631.353	4.92
631.684	4.98
632.016	4.8
632.348	4.86
632.679	5.17
633.011	5.54
633.342	4.58
633.674	4.93
634.005	5.17
634.336	5.05
634.668	5.06
634.999	5.15
635.33	5.23
635.661	5.05
635.992	4.66
636.323	4.98
636.654	5.2
636.985	5.41
637.316	5.04
637.647	5.17
637.977	4.97
638.308	5.27
638.639	5.03
638.969	5.54
639.3	5.37
639.63	5.17
639.961	5.23
640.291	4.84
640.622	5.27
640.952	4.57
641.282	5.18
641.612	5.14
641.943	5.39
642.273	5.35
642.603	5.03
642.933	5.27
643.263	5.19
643.592	5.46
643.922	5.34
644.252	4.96
644.582	5.14
644.911	4.92
645.241	5.37
645.571	4.96
645.9	4.93
646.23	5.33
646.559	5.31
646.888	5.25
647.218	5.65
647.547	4.84
647.876	5.42
648.205	4.91
648.534	5.07
648.863	5.37
649.192	5.28
649.521	5.66
649.85	4.9
650.179	4.78
650.508	5.26
650.837	5.24
651.165	4.8
651.494	5.14
651.822	4.98
652.151	5.48
652.479	4.6
652.808	5.17
653.136	5.16
653.465	4.84
653.793	4.91
654.121	4.97
654.449	5.56
654.777	5.47
655.105	4.98
655.433	5.11
655.761	5.08
656.089	5.17
656.417	5.22
656.745	5.49
657.073	5.22
657.4	5.38
657.728	5.42
658.056	5.43
658.383	4.63
658.711	5.1
659.038	4.74
659.365	5.11
659.693	4.67
660.02	4.41
660.347	5.24
660.674	5.1
661.001	5.1
661.329	5.36
661.656	5.18
661.982	5.29
662.309	5.41
662.636	5.58
662.963	5.41
663.29	5.73
663.616	5.62
663.943	5.33
664.27	5.44
664.596	5.2
664.923	4.99
665.249	4.66
665.576	5.66
665.902	4.74
666.228	5.3
666.554	4.68
666.881	5.61
667.207	5.24
667.533	5.48
667.859	4.97
668.185	5.21
668.511	4.8
668.837	5.41
669.162	5.15
669.488	4.9
669.814	5.47
670.139	4.54
670.465	5.26
670.791	5.05
671.116	5.45
671.442	5.34
671.767	5.11
672.092	5.92
672.418	4.92
672.743	5.24
673.068	4.71
673.393	5.21
673.718	5.44
674.043	5.31
674.368	6.19
674.693	5.61
675.018	5.76
675.343	5.92
675.667	4.85
675.992	5.36
676.317	5.03
676.641	5.1
676.966	5.31
677.29	5.15
677.615	5.95
677.939	4.94
678.264	6.32
678.588	5.48
678.912	5.05
679.236	5.22
679.56	5.78
679.885	4.97
680.209	5.25
680.532	5.57
680.856	5.52
681.18	5.08
681.504	5.43
681.828	5.4
682.152	5.03
682.475	5.49
682.799	5.41
683.122	5.3
683.446	6.05
683.769	5.82
684.093	5.24
684.416	5.19
684.739	5.36
685.062	5.35
685.386	6.08
685.709	5.47
686.032	6.06
686.355	5.89
686.678	5.75
687.001	5.64
687.324	5.63
687.646	5.33
687.969	5.1
688.292	5.85
688.614	5.18
688.937	5.46
689.26	5.77
689.582	6.08
689.904	5.72
690.227	5.8
690.549	5.28
690.871	5.62
691.194	4.93
691.516	5.21
691.838	5.59
692.16	6.02
692.482	4.54
