Data from 20-50_forehead_Reflection__4__44.txt Node

Date: Thu Feb 29 22:11:40 CST 2024
User: ToomeyLab
Spectrometer: FLMS14357
Trigger mode: 0
Integration Time (sec): 1.000000E-2
Scans to average: 100
Electric dark correction enabled: true
Nonlinearity correction enabled: false
Boxcar width: 0
XAxis mode: Wavelengths
Number of Pixels in Spectrum: 2048
>>>>>Begin Spectral Data<<<<<
189.047	102.05
189.435	102.05
189.823	102.05
190.211	-284.89
190.599	65.39
190.987	19.59
191.375	-26.79
191.763	-97.14
192.151	-165.97
192.538	-176.01
192.926	71.72
193.314	-0.47
193.702	137.03
194.089	32.23
194.477	49.46
194.864	400.76
195.252	54.43
195.639	3701.39
196.027	196.22
196.414	23.34
196.801	61.37
197.189	85.38
197.576	61.52
197.963	-108.35
198.351	83.18
198.738	106.63
199.125	71.09
199.512	46.37
199.899	39.31
200.286	-11.36
200.673	28.39
201.06	-34.5
201.447	54.93
201.833	72.24
202.22	9.56
202.607	61.99
202.994	17.31
203.38	44.47
203.767	44.92
204.154	24.95
204.54	62.55
204.927	16.07
205.313	88.9
205.699	22.59
206.086	55.13
206.472	32.77
206.858	71.42
207.245	17.66
207.631	13.92
208.017	24
208.403	-27.92
208.789	48.05
209.175	39.74
209.561	50.49
209.947	17.9
210.333	48.82
210.719	17.1
211.105	27.95
211.491	-12.21
211.876	51.82
212.262	36.24
212.648	9.21
213.034	15.56
213.419	25.97
213.805	-6.95
214.19	40.18
214.576	1.31
214.961	29.95
215.346	31.89
215.732	10.07
216.117	-10
216.502	6.84
216.888	11.15
217.273	23.7
217.658	11.33
218.043	10.91
218.428	-10.64
218.813	8.91
219.198	27.03
219.583	-12.05
219.968	3.97
220.353	-2.64
220.738	30.79
221.122	-6.28
221.507	16.18
221.892	9.48
222.276	12.8
222.661	12.67
223.046	24.23
223.43	3.37
223.815	2.92
224.199	5.26
224.583	9.96
224.968	8.22
225.352	6.17
225.736	18.37
226.121	17.95
226.505	15.1
226.889	8.33
227.273	11.1
227.657	3.57
228.041	9.3
228.425	9.64
228.809	13.15
229.193	5.97
229.577	9.46
229.961	6.7
230.344	6.81
230.728	7.41
231.112	8.26
231.495	7.57
231.879	7.22
232.263	5.8
232.646	6.64
233.03	7.8
233.413	7.13
233.797	9.69
234.18	9.25
234.563	7.52
234.946	6.93
235.33	8.9
235.713	6.72
236.096	6.94
236.479	8.37
236.862	8.44
237.245	6.24
237.628	7.53
238.011	8.25
238.394	7.25
238.777	8.06
239.16	8.15
239.543	8.53
239.925	6.77
240.308	7.39
240.691	9.41
241.073	7.31
241.456	7.54
241.838	8.12
242.221	7.58
242.603	7.79
242.986	8.25
243.368	8.11
243.75	8.07
244.133	7.65
244.515	7.67
244.897	7.83
245.279	8.41
245.661	8.37
246.043	8.19
246.425	9.26
246.807	9.33
247.189	7.68
247.571	8.22
247.953	8.4
248.335	7.45
248.717	7.98
249.098	7.82
249.48	7.63
249.862	7.79
250.243	7.71
250.625	8.17
251.006	8.08
251.388	8.43
251.769	8.05
252.151	9.29
252.532	7.93
252.913	8.05
253.295	8.27
253.676	8
254.057	7.93
254.438	8.51
254.819	8.64
255.2	7.32
255.581	8.34
255.962	9.02
256.343	8.25
256.724	7.72
257.105	9.75
257.486	8.29
257.867	9.12
258.247	7.53
258.628	7.74
259.009	8.27
259.389	7.86
259.77	8.4
260.15	8.77
260.531	8.49
260.911	7.69
261.292	7.82
261.672	7.94
262.052	7.77
262.432	7.6
262.813	7.15
263.193	7.89
263.573	7.33
263.953	7.47
264.333	7.22
264.713	7.24
265.093	8.12
265.473	8.11
265.853	8.49
266.233	7.25
266.612	7.97
266.992	7.85
267.372	7.53
267.752	7.02
268.131	7.91
268.511	8.06
268.89	7.84
269.27	7.29
269.649	7.21
270.029	6.71
270.408	6.76
270.787	7.69
271.167	7.36
271.546	8.22
271.925	7.28
272.304	7.39
272.683	7.49
273.062	7.36
273.441	6.86
273.82	7.35
274.199	7.76
274.578	7.46
274.957	7.75
275.336	7.88
275.715	7.73
276.093	7.56
276.472	7.75
276.851	7.27
277.229	7.28
277.608	7.61
277.986	7.27
278.365	7.52
278.743	7.33
279.122	6.98
279.5	7.18
279.878	7.77
280.257	7.27
280.635	6.71
281.013	7.69
281.391	7.02
281.769	7.96
282.147	7.3
282.525	7.82
282.903	6.72
283.281	7.39
283.659	7.41
284.037	7.03
284.415	6.81
284.792	6.95
285.17	6.68
285.548	7.25
285.925	7.1
286.303	6.86
286.68	6.98
287.058	7.2
287.435	7.52
287.813	6.94
288.19	6.73
288.567	7.71
288.945	7.32
289.322	7.61
289.699	7.51
290.076	7.95
290.453	7.24
290.83	7.63
291.207	7.75
291.584	7.66
291.961	7.45
292.338	7.85
292.715	7.47
293.092	7.61
293.469	8.25
293.845	7.92
294.222	7.95
294.599	7.3
294.975	8
295.352	8.7
295.728	8.91
296.105	8.02
296.481	8.3
296.858	8.49
297.234	8.18
297.61	8.71
297.986	8.87
298.363	8.73
298.739	8.39
299.115	8.47
299.491	8.41
299.867	9.04
300.243	8.56
300.619	8.7
300.995	9
301.371	8.9
301.746	8.87
302.122	9.58
302.498	9.25
302.874	9.71
303.249	8.86
303.625	9.7
304	9.95
304.376	9.86
304.751	8.95
305.127	9.29
305.502	9.56
305.878	10.14
306.253	9.36
306.628	9.51
307.003	9.68
307.378	10.27
307.754	10.38
308.129	9.94
308.504	10.33
308.879	9.68
309.254	9.84
309.629	10.38
310.003	10.56
310.378	10.08
310.753	10.4
311.128	10.46
311.502	11.09
311.877	10.69
312.252	11.25
312.626	11.19
313.001	10.63
313.375	10.98
313.75	10.99
314.124	11.17
314.498	11.19
314.873	10.66
315.247	11.24
315.621	11.95
315.995	11.34
316.369	11.19
316.743	11.34
317.117	11.97
317.491	10.98
317.865	11.8
318.239	11.28
318.613	12.21
318.987	12.21
319.361	12.09
319.734	12.25
320.108	12.54
320.482	12.63
320.855	11.53
321.229	12.2
321.602	12.13
321.976	12.85
322.349	12.16
322.723	12.61
323.096	12.75
323.469	12.31
323.843	11.4
324.216	12.4
324.589	12.42
324.962	12.02
325.335	12.48
325.708	12.92
326.081	12.71
326.454	12.61
326.827	13.21
327.2	13.3
327.573	13.33
327.945	13.36
328.318	13.17
328.691	13.13
329.063	13.28
329.436	13.15
329.809	13.25
330.181	13.37
330.553	13.75
330.926	12.71
331.298	13.63
331.671	13.32
332.043	13.79
332.415	13.43
332.787	13.26
333.159	14.27
333.532	13.79
333.904	13.65
334.276	13.16
334.648	13.62
335.02	13.16
335.391	13.48
335.763	13.26
336.135	13.66
336.507	13.86
336.879	13.67
337.25	13.85
337.622	13.62
337.993	13.7
338.365	13.37
338.736	14.4
339.108	14.31
339.479	14.3
339.851	13.56
340.222	14.17
340.593	13.86
340.964	14.13
341.336	14.14
341.707	13.92
342.078	14.34
342.449	13.73
342.82	14.42
343.191	14.28
343.562	14.24
343.933	14.02
344.303	14.34
344.674	14.17
345.045	13.96
345.416	14.29
345.786	13.92
346.157	14.42
346.527	14.76
346.898	14.84
347.268	14.53
347.639	14.63
348.009	14.77
348.38	14.44
348.75	14.85
349.12	14.48
349.49	14.32
349.861	14.05
350.231	14.52
350.601	14.93
350.971	14.7
351.341	14.72
351.711	14.62
352.081	15.29
352.45	14.64
352.82	14.26
353.19	15.39
353.56	14.85
353.929	14.97
354.299	15.1
354.669	14.64
355.038	15.27
355.408	15.12
355.777	15.08
356.147	14.92
356.516	14.86
356.885	15.33
357.254	15.15
357.624	15.04
357.993	15.09
358.362	15.44
358.731	15.46
359.1	15.88
359.469	15.09
359.838	15.41
360.207	15.37
360.576	15.21
360.945	15.14
361.314	15.73
361.682	15.23
362.051	15.32
362.42	15.51
362.788	15.17
363.157	15.05
363.525	15.35
363.894	15.49
364.262	15.13
364.631	15.58
364.999	15.08
365.367	15.53
365.735	15.51
366.104	15.9
366.472	15.48
366.84	15.77
367.208	15.7
367.576	15.67
367.944	15.75
368.312	15.86
368.68	16
369.048	15.88
369.416	15.93
369.783	16.29
370.151	16.23
370.519	15.88
370.886	15.91
371.254	16.36
371.621	15.89
371.989	15.81
372.356	16.09
372.724	16.36
373.091	16.41
373.458	15.88
373.826	16.32
374.193	16.13
374.56	16.18
374.927	16.14
375.294	15.88
375.661	16.52
376.028	16.51
376.395	16.34
376.762	16.4
377.129	15.94
377.496	16.58
377.863	16.11
378.229	15.81
378.596	16.43
378.963	16.47
379.329	16.56
379.696	16.3
380.062	16.28
380.429	16.55
380.795	16.48
381.161	16.46
381.528	16.05
381.894	16.37
382.26	16.23
382.626	16.61
382.993	16.51
383.359	16.58
383.725	16.65
384.091	16.69
384.457	16.53
384.823	16.6
385.188	16.07
385.554	16.55
385.92	16.46
386.286	16.03
386.651	16.26
387.017	16.56
387.383	16.31
387.748	16.36
388.114	16.49
388.479	16.7
388.845	16.46
389.21	16.51
389.575	16.31
389.94	16.42
390.306	16.24
390.671	16.22
391.036	16.31
391.401	16.2
391.766	16.38
392.131	16.53
392.496	16.59
392.861	16.14
393.226	16.53
393.591	16.29
393.956	16.59
394.32	16.67
394.685	16.5
395.05	16.38
395.414	16.39
395.779	16.21
396.143	16.59
396.508	16.42
396.872	16.32
397.236	16.55
397.601	16.43
397.965	16.56
398.329	15.92
398.694	16.04
399.058	16.35
399.422	15.98
399.786	16.25
400.15	16.07
400.514	16.09
400.878	16.08
401.242	16.01
401.605	15.97
401.969	16.44
402.333	16.28
402.697	15.97
403.06	16.4
403.424	16.32
403.787	16.03
404.151	16.12
404.514	16.28
404.878	16
405.241	16.04
405.604	15.85
405.968	15.88
406.331	15.66
406.694	15.95
407.057	15.83
407.42	16.02
407.783	16.16
408.146	16.23
408.509	16.11
408.872	16.06
409.235	16.2
409.598	16.24
409.961	15.7
410.323	16.1
410.686	16.15
411.049	15.74
411.411	15.97
411.774	15.95
412.136	15.93
412.499	16.03
412.861	15.98
413.223	16.03
413.586	15.98
413.948	15.89
414.31	16.53
414.672	16.06
415.035	16.4
415.397	16.28
415.759	16.26
416.121	16.6
416.483	16.44
416.845	16.24
417.206	16.34
417.568	16.54
417.93	16.56
418.292	16.43
418.653	16.66
419.015	16.33
419.377	16.64
419.738	16.58
420.1	16.55
420.461	16.86
420.822	16.62
421.184	16.61
421.545	16.84
421.906	16.88
422.267	16.87
422.629	16.87
422.99	17.03
423.351	17.1
423.712	17.05
424.073	17.09
424.434	17.23
424.795	17.36
425.155	17.38
425.516	17.53
425.877	17.52
426.238	17.69
426.598	17.58
426.959	17.8
427.32	17.92
427.68	18.02
428.041	17.96
428.401	18.17
428.761	18.34
429.122	18.32
429.482	18.45
429.842	18.83
430.202	18.74
430.563	18.86
430.923	18.93
431.283	18.73
431.643	19.08
432.003	19.44
432.363	19.31
432.722	19.51
433.082	19.24
433.442	19.7
433.802	19.34
434.161	19.65
434.521	19.54
434.881	19.63
435.24	19.74
435.6	19.76
435.959	19.71
436.319	19.8
436.678	20.02
437.037	20.04
437.396	20.36
437.756	20.12
438.115	20.35
438.474	20.29
438.833	20.63
439.192	20.57
439.551	20.69
439.91	20.64
440.269	20.67
440.628	20.73
440.987	20.7
441.345	20.93
441.704	20.76
442.063	20.91
442.421	20.82
442.78	20.81
443.138	20.98
443.497	21.05
443.855	21.24
444.214	21.34
444.572	21.58
444.93	21.46
445.288	21.57
445.647	21.48
446.005	21.77
446.363	21.5
446.721	21.59
447.079	21.65
447.437	21.69
447.795	21.74
448.153	21.67
448.51	21.72
448.868	21.73
449.226	21.97
449.584	21.74
449.941	21.93
450.299	22
450.656	22.07
451.014	22.36
451.371	22.35
451.729	22.54
452.086	22.65
452.443	22.47
452.801	22.77
453.158	22.71
453.515	22.87
453.872	22.67
454.229	22.53
454.586	22.84
454.943	23.25
455.3	23.09
455.657	22.91
456.014	23.01
456.371	23.15
456.727	23.31
457.084	23.28
457.441	23.53
457.797	23.25
458.154	23.39
458.51	23.58
458.867	23.57
459.223	23.38
459.58	23.76
459.936	23.6
460.292	23.47
460.648	23.68
461.005	23.73
461.361	23.49
461.717	23.67
462.073	23.55
462.429	23.82
462.785	23.93
463.141	23.95
463.496	24.29
463.852	24.3
464.208	24.51
464.564	24.44
464.919	24.52
465.275	24.53
465.631	24.77
465.986	24.85
466.342	24.56
466.697	24.54
467.052	24.79
467.408	24.81
467.763	25.03
468.118	24.75
468.473	24.74
468.829	25.13
469.184	24.94
469.539	25.22
469.894	25.14
470.249	25.21
470.603	25
470.958	25.48
471.313	25.33
471.668	25.17
472.023	25.35
472.377	25.18
472.732	25.76
473.086	25.56
473.441	25.37
473.795	25.69
474.15	25.68
474.504	25.84
474.859	25.77
475.213	25.77
475.567	25.66
475.921	26.06
476.275	25.96
476.63	26.06
476.984	26.01
477.338	26.04
477.692	26.17
478.045	25.92
478.399	26.09
478.753	25.98
479.107	26.21
479.461	26.1
479.814	26.27
480.168	26.2
480.521	26.18
480.875	26.19
481.228	26.38
481.582	26.66
481.935	26.41
482.289	26.42
482.642	26.3
482.995	26.46
483.348	26.29
483.701	26.32
484.055	26.32
484.408	26.32
484.761	26.11
485.114	25.88
485.466	25.7
485.819	25.8
486.172	25.82
486.525	25.87
486.878	25.98
487.23	26.27
487.583	26.36
487.936	26.56
488.288	26.55
488.641	26.46
488.993	26.42
489.345	26.36
489.698	26.35
490.05	26.48
490.402	26.57
490.754	26.61
491.107	26.8
491.459	27.03
491.811	27.15
492.163	27.2
492.515	27.07
492.866	27.02
493.218	26.85
493.57	26.93
493.922	27.07
494.274	27
494.625	27.26
494.977	27.45
495.328	27.55
495.68	27.92
496.031	27.92
496.383	27.83
496.734	28
497.086	28.04
497.437	28.08
497.788	27.99
498.139	28.02
498.49	28.11
498.842	28.13
499.193	28
499.544	28.07
499.894	28.05
500.245	28.31
500.596	28.42
500.947	28.35
501.298	28.5
501.648	28.47
501.999	28.44
502.35	28.77
502.7	28.73
503.051	28.83
503.401	28.81
503.752	28.77
504.102	29
504.452	28.9
504.803	28.99
505.153	28.85
505.503	29.15
505.853	28.99
506.203	28.93
506.553	29.18
506.903	28.92
507.253	29.23
507.603	29.33
507.953	29.15
508.303	29.07
508.652	29.27
509.002	29.1
509.352	29.44
509.701	29.33
510.051	29.07
510.4	29.35
510.75	29.34
511.099	29.39
511.449	29.47
511.798	29.52
512.147	29.48
512.496	29.36
512.846	29.68
513.195	29.64
513.544	29.8
513.893	29.66
514.242	29.82
514.591	29.76
514.939	29.79
515.288	29.94
515.637	30.01
515.986	30.13
516.334	29.8
516.683	30.02
517.032	30.14
517.38	29.92
517.729	29.98
518.077	29.93
518.426	29.97
518.774	29.99
519.122	30.14
519.47	29.9
519.819	30.02
520.167	29.7
520.515	29.69
520.863	29.74
521.211	29.98
521.559	29.87
521.907	30.18
522.255	30.13
522.602	30.23
522.95	30.24
523.298	30.25
523.645	30.33
523.993	30.34
524.341	30.32
524.688	30.62
525.036	30.42
525.383	30.55
525.73	30.63
526.078	30.69
526.425	30.64
526.772	30.48
527.119	30.49
527.466	30.44
527.814	30.1
528.161	30.48
528.508	30.38
528.854	30.18
529.201	30.31
529.548	29.99
529.895	30.05
530.242	29.82
530.588	29.94
530.935	29.96
531.282	29.94
531.628	30.13
531.975	30.36
532.321	30.42
532.667	30.63
533.014	30.87
533.36	30.71
533.706	30.97
534.052	30.86
534.399	30.8
534.745	30.59
535.091	30.6
535.437	30.73
535.783	30.75
536.129	30.75
536.474	30.92
536.82	31.07
537.166	31.26
537.512	31.35
537.857	31.37
538.203	31.41
538.549	31.17
538.894	31.47
539.239	31.29
539.585	31.41
539.93	31.55
540.276	31.75
540.621	31.71
540.966	31.96
541.311	32.02
541.656	31.91
542.001	31.83
542.346	31.7
542.691	31.48
543.036	31.48
543.381	31.36
543.726	31.56
544.071	31.44
544.415	31.57
544.76	31.77
545.105	31.83
545.449	32.06
545.794	32.06
546.138	32.26
546.483	32.31
546.827	32.52
547.171	32.33
547.516	32.56
547.86	32.64
548.204	32.64
548.548	32.52
548.892	32.46
549.236	32.65
549.58	32.86
549.924	32.84
550.268	32.86
550.612	33.07
550.956	32.8
551.3	33.35
551.643	33.31
551.987	33.35
552.33	33.39
552.674	33.44
553.017	33.31
553.361	33.54
553.704	33.67
554.048	33.61
554.391	33.36
554.734	33.37
555.077	33.65
555.42	33.67
555.764	33.56
556.107	33.77
556.45	33.68
556.793	33.73
557.135	33.81
557.478	33.91
557.821	34.06
558.164	33.92
558.507	34.15
558.849	34.1
559.192	34.16
559.534	34.04
559.877	34.05
560.219	34.34
560.562	34.47
560.904	34.5
561.246	34.31
561.589	34.46
561.931	34.25
562.273	34.69
562.615	34.4
562.957	34.63
563.299	34.5
563.641	34.4
563.983	34.66
564.325	34.54
564.667	34.52
565.008	34.71
565.35	34.94
565.692	34.84
566.033	35.07
566.375	35.24
566.716	35.09
567.058	34.98
567.399	35.12
567.741	35.02
568.082	35.14
568.423	34.87
568.764	34.92
569.105	34.87
569.447	35.14
569.788	35.03
570.129	35.24
570.47	35.23
570.811	35.35
571.151	35.43
571.492	35.3
571.833	35.6
572.174	35.4
572.514	35.66
572.855	35.66
573.195	35.72
573.536	35.75
573.876	35.67
574.217	35.68
574.557	35.86
574.898	35.79
575.238	35.56
575.578	35.81
575.918	36.21
576.258	35.98
576.598	35.96
576.938	36.32
577.278	35.93
577.618	36.18
577.958	36.23
578.298	36.36
578.638	36.79
578.977	36.23
579.317	36.74
579.657	36.53
579.996	36.81
580.336	36.96
580.675	37.13
581.014	36.63
581.354	37.02
581.693	37.35
582.032	37.25
582.372	37.52
582.711	37.49
583.05	37.42
583.389	37.49
583.728	37.01
584.067	37.59
584.406	37.67
584.745	37.58
585.083	37.48
585.422	37.78
585.761	37.89
586.1	37.74
586.438	37.46
586.777	38.01
587.115	37.74
587.454	37.91
587.792	38.2
588.13	37.93
588.469	38.12
588.807	38.49
589.145	38.05
589.483	38.09
589.821	38.62
590.159	38.55
590.497	38.16
590.835	38.62
591.173	38.58
591.511	38.62
591.849	38.58
592.187	38.72
592.524	38.53
592.862	38.86
593.2	38.8
593.537	38.95
593.875	39.24
594.212	38.91
594.55	39.27
594.887	39.24
595.224	39.23
595.561	39.21
595.899	39.28
596.236	39.5
596.573	39.21
596.91	39.21
597.247	39.15
597.584	39.27
597.921	39.26
598.258	39.6
598.594	39.44
598.931	39.7
599.268	39.42
599.604	39.51
599.941	39.44
600.277	39.54
600.614	39.69
600.95	39.88
601.287	40.03
601.623	39.79
601.959	39.71
602.296	39.97
602.632	40.03
602.968	40.46
603.304	40.2
603.64	40.2
603.976	40.36
604.312	40.29
604.648	40.08
604.984	40.23
605.319	40.44
605.655	40.42
605.991	40.47
606.326	40.11
606.662	40.36
606.998	40.15
607.333	40.11
607.668	40.4
608.004	40.46
608.339	40.52
608.674	40.4
609.01	41.01
609.345	40.83
609.68	41.1
610.015	40.95
610.35	41.1
610.685	40.61
611.02	40.99
611.355	40.95
611.689	41.07
612.024	41.02
612.359	41.31
612.694	41.21
613.028	41.02
613.363	41.45
613.697	41.34
614.032	41.64
614.366	41.72
614.7	41.29
615.035	41.92
615.369	41.26
615.703	41.98
616.037	41.21
616.371	42.17
616.705	41.99
617.039	42.33
617.373	41.92
617.707	42.01
618.041	41.7
618.375	42.69
618.709	42.08
619.042	42.39
619.376	41.75
619.71	41.79
620.043	42.57
620.377	42.71
620.71	42.4
621.043	42.36
621.377	42.18
621.71	42.76
622.043	42.79
622.376	42.77
622.709	42.66
623.043	42.66
623.376	42.83
623.709	42.69
624.041	42.89
624.374	43.02
624.707	43.51
625.04	43.1
625.373	42.77
625.705	43.1
626.038	43
626.37	43.03
626.703	43.1
627.035	43.07
627.368	43.17
627.7	43.55
628.032	43.15
628.365	43.07
628.697	43
629.029	43.42
629.361	43.43
629.693	43.54
630.025	43.34
630.357	43.84
630.689	43.91
631.021	44.09
631.353	43.85
631.684	44.13
632.016	44.28
632.348	43.75
632.679	43.88
633.011	44.27
633.342	44.45
633.674	44.06
634.005	44.27
634.336	44.38
634.668	44.25
634.999	44.44
635.33	44.17
635.661	44.28
635.992	44.58
636.323	44.64
636.654	44.84
636.985	44.67
637.316	44.76
637.647	44.97
637.977	44.8
638.308	45.09
638.639	45.22
638.969	44.99
639.3	45.07
639.63	44.79
639.961	45.11
640.291	45.35
640.622	45.42
640.952	44.92
641.282	44.96
641.612	45.57
641.943	45.49
642.273	45.54
642.603	45.53
642.933	45.7
643.263	45.77
643.592	45.81
643.922	46.06
644.252	46.07
644.582	45.42
644.911	45.9
645.241	46.02
645.571	45.81
645.9	45.93
646.23	46.2
646.559	46.71
646.888	45.69
647.218	46.24
647.547	46.11
647.876	46.13
648.205	46.14
648.534	46.41
648.863	46.81
649.192	46.68
649.521	46.78
649.85	46.94
650.179	46.12
650.508	47.03
650.837	46.61
651.165	47.21
651.494	47.13
651.822	47.03
652.151	46.93
652.479	47.3
652.808	46.73
653.136	47.23
653.465	46.75
653.793	47.53
654.121	46.93
654.449	47.77
654.777	47.55
655.105	47.24
655.433	47.27
655.761	47.72
656.089	47.49
656.417	47.67
656.745	47.35
657.073	48.55
657.4	48.05
657.728	48.18
658.056	48.17
658.383	47.68
658.711	47.57
659.038	48.01
659.365	48.63
659.693	47.7
660.02	48.64
660.347	47.99
660.674	48.38
661.001	47.83
661.329	48.39
661.656	48.01
661.982	48.58
662.309	48.7
662.636	48.36
662.963	48.42
663.29	48.96
663.616	48.65
663.943	48.51
664.27	49.44
664.596	49.36
664.923	48.64
665.249	48.75
665.576	48.45
665.902	49.43
666.228	49.32
666.554	48.92
666.881	49.31
667.207	49.28
667.533	49.62
667.859	49.7
668.185	49.82
668.511	49.5
