Data from 20-50_chest_Reflection__0__30.txt Node

Date: Thu Feb 29 22:07:14 CST 2024
User: ToomeyLab
Spectrometer: FLMS14357
Trigger mode: 0
Integration Time (sec): 1.000000E-2
Scans to average: 100
Electric dark correction enabled: true
Nonlinearity correction enabled: false
Boxcar width: 0
XAxis mode: Wavelengths
Number of Pixels in Spectrum: 2048
>>>>>Begin Spectral Data<<<<<
189.047	93.67
189.435	93.67
189.823	93.67
190.211	13.99
190.599	-51.15
190.987	14.8
191.375	60.94
191.763	-129.95
192.151	191.21
192.538	-533.45
192.926	84.95
193.314	-46.32
193.702	166.45
194.089	51.2
194.477	33.22
194.864	497.93
195.252	-5.29
195.639	4148.61
196.027	140.16
196.414	105.21
196.801	111.85
197.189	62.4
197.576	8.67
197.963	-216.34
198.351	10.76
198.738	40.82
199.125	52.82
199.512	45.25
199.899	-38.41
200.286	-61.75
200.673	9.76
201.06	-8.49
201.447	-77.02
201.833	32.6
202.22	3.05
202.607	-54.17
202.994	-142.03
203.38	-33.11
203.767	22.63
204.154	7.23
204.54	24.07
204.927	12.13
205.313	34.31
205.699	-27.21
206.086	7.87
206.472	25.26
206.858	-7.22
207.245	13.1
207.631	48.58
208.017	4.25
208.403	-35.64
208.789	27.87
209.175	-49.49
209.561	8.22
209.947	3.81
210.333	-11.05
210.719	16.89
211.105	-16.39
211.491	-33.79
211.876	31.84
212.262	21
212.648	-8.89
213.034	-1.8
213.419	12.52
213.805	-14.6
214.19	-8.67
214.576	8.8
214.961	-15.66
215.346	13.85
215.732	-8.67
216.117	-63
216.502	-17.9
216.888	-33.07
217.273	18.04
217.658	2.35
218.043	0.02
218.428	-5.03
218.813	-5.74
219.198	-3.57
219.583	-6.73
219.968	10.81
220.353	-14.89
220.738	10.88
221.122	-18.75
221.507	0.32
221.892	3.99
222.276	18.21
222.661	-1.03
223.046	4.62
223.43	-11.83
223.815	-1.38
224.199	0.73
224.583	2.42
224.968	-2.39
225.352	1.52
225.736	-5.8
226.121	0.81
226.505	9.53
226.889	6.64
227.273	-3.08
227.657	-1.49
228.041	3.21
228.425	5.08
228.809	6.55
229.193	0.87
229.577	3.81
229.961	1.41
230.344	1.69
230.728	2.8
231.112	3.63
231.495	3.46
231.879	2.2
232.263	1.08
232.646	4.09
233.03	2.65
233.413	1.97
233.797	2.59
234.18	1.55
234.563	1.54
234.946	1.09
235.33	3.99
235.713	3.02
236.096	3.36
236.479	3.66
236.862	4.26
237.245	2.22
237.628	3.38
238.011	2.49
238.394	2.67
238.777	1.5
239.16	0.6
239.543	2.23
239.925	1.3
240.308	3.47
240.691	4.02
241.073	2.43
241.456	3.44
241.838	3.06
242.221	4.21
242.603	3.18
242.986	3.66
243.368	3.1
243.75	3.27
244.133	2.75
244.515	2.96
244.897	3.58
245.279	4.09
245.661	2.79
246.043	2.32
246.425	4.5
246.807	3.76
247.189	3.08
247.571	3.87
247.953	3.14
248.335	2.84
248.717	3.06
249.098	3.18
249.48	3.24
249.862	2.78
250.243	3.3
250.625	3.04
251.006	4.11
251.388	3.26
251.769	3.71
252.151	3.35
252.532	3.25
252.913	2.17
253.295	3.06
253.676	3.37
254.057	3.39
254.438	3.52
254.819	3.71
255.2	1.81
255.581	2.48
255.962	2.24
256.343	4.59
256.724	2.53
257.105	3.07
257.486	2.52
257.867	4.02
258.247	2.53
258.628	2.16
259.009	2.95
259.389	2.49
259.77	3.34
260.15	4.54
260.531	3.29
260.911	2.73
261.292	2.7
261.672	3.27
262.052	3.07
262.432	2.95
262.813	3.07
263.193	2.62
263.573	2.95
263.953	3.48
264.333	2.58
264.713	3.41
265.093	3
265.473	3.27
265.853	3.88
266.233	2.57
266.612	2.82
266.992	2.99
267.372	2.24
267.752	3.01
268.131	3.11
268.511	2.76
268.89	2.99
269.27	3.35
269.649	3.03
270.029	2.81
270.408	2.25
270.787	2.32
271.167	3.38
271.546	3.27
271.925	2.51
272.304	2.81
272.683	3.07
273.062	2.61
273.441	2.85
273.82	2.6
274.199	3.31
274.578	2.51
274.957	3.05
275.336	3.3
275.715	3.26
276.093	2.5
276.472	3.49
276.851	3.1
277.229	2.51
277.608	2.99
277.986	2.49
278.365	2.64
278.743	2.48
279.122	1.85
279.5	2.92
279.878	3.07
280.257	3.36
280.635	2.87
281.013	3.2
281.391	2.96
281.769	2.67
282.147	2.99
282.525	2.78
282.903	3.26
283.281	2.68
283.659	2.5
284.037	2.67
284.415	2.29
284.792	2.46
285.17	1.67
285.548	2.92
285.925	2.98
286.303	2.52
286.68	2.42
287.058	2.77
287.435	2.58
287.813	2.65
288.19	2.68
288.567	2.65
288.945	2.69
289.322	3.02
289.699	3.02
290.076	2.9
290.453	2.44
290.83	2.08
291.207	2.88
291.584	2.64
291.961	2.64
292.338	3.42
292.715	3.23
293.092	2.75
293.469	2.7
293.845	3.1
294.222	2.48
294.599	2.85
294.975	2.75
295.352	3.15
295.728	3.28
296.105	3.17
296.481	2.65
296.858	3.46
297.234	2.54
297.61	2.67
297.986	3.23
298.363	3.11
298.739	3.12
299.115	3.44
299.491	2.98
299.867	3.25
300.243	2.69
300.619	2.74
300.995	3.19
301.371	3.01
301.746	2.75
302.122	3.57
302.498	3.02
302.874	3.07
303.249	2.82
303.625	3.39
304	3.06
304.376	3.17
304.751	2.78
305.127	2.27
305.502	2.76
305.878	3.48
306.253	2.61
306.628	2.85
307.003	2.96
307.378	3.09
307.754	3.36
308.129	2.56
308.504	3.28
308.879	2.75
309.254	2.93
309.629	2.99
310.003	3.04
310.378	2.96
310.753	2.73
311.128	2.88
311.502	3.09
311.877	2.46
312.252	3.18
312.626	3.05
313.001	2.87
313.375	3.29
313.75	3.21
314.124	3.66
314.498	3.39
314.873	2.7
315.247	2.71
315.621	3.27
315.995	3.62
316.369	3.61
316.743	2.88
317.117	3.62
317.491	3.12
317.865	3.12
318.239	3.15
318.613	3.46
318.987	4.25
319.361	2.86
319.734	3.41
320.108	3.49
320.482	3.1
320.855	3.07
321.229	3.55
321.602	3.18
321.976	2.82
322.349	2.98
322.723	3.49
323.096	3.27
323.469	3.1
323.843	3.26
324.216	3.1
324.589	2.95
324.962	2.57
325.335	3.04
325.708	3.63
326.081	3.13
326.454	2.84
326.827	2.65
327.2	3.39
327.573	2.76
327.945	3.49
328.318	2.97
328.691	3.55
329.063	3.36
329.436	3.59
329.809	3.78
330.181	3.32
330.553	2.61
330.926	3.17
331.298	2.72
331.671	2.88
332.043	3.92
332.415	3.44
332.787	2.65
333.159	3.55
333.532	2.87
333.904	3.45
334.276	3.36
334.648	3.14
335.02	3.16
335.391	2.77
335.763	2.92
336.135	2.37
336.507	3.61
336.879	2.97
337.25	3.83
337.622	3.45
337.993	3.77
338.365	2.82
338.736	3.22
339.108	3.22
339.479	3.59
339.851	2.86
340.222	3.6
340.593	3.44
340.964	3.02
341.336	2.61
341.707	3.11
342.078	2.81
342.449	3.72
342.82	3.68
343.191	3.24
343.562	3.29
343.933	3.7
344.303	3.48
344.674	3.35
345.045	3.22
345.416	3.23
345.786	3.3
346.157	3.76
346.527	3.22
346.898	3.74
347.268	3.4
347.639	3.3
348.009	3.35
348.38	3.5
348.75	3.7
349.12	3.38
349.49	3.6
349.861	3.3
350.231	3.23
350.601	3.69
350.971	3.26
351.341	3.67
351.711	3.54
352.081	3.66
352.45	3.06
352.82	2.95
353.19	3.85
353.56	2.95
353.929	3.57
354.299	3.27
354.669	3.25
355.038	3.44
355.408	4.01
355.777	3.48
356.147	3.13
356.516	3.41
356.885	3.14
357.254	3.31
357.624	3.38
357.993	3.49
358.362	3.32
358.731	3.3
359.1	3.57
359.469	3.54
359.838	3.24
360.207	3.08
360.576	3.71
360.945	3.17
361.314	3.35
361.682	3.42
362.051	3.41
362.42	3.69
362.788	3.5
363.157	3.2
363.525	3.33
363.894	3.53
364.262	3.37
364.631	3.29
364.999	3.08
365.367	3
365.735	3.29
366.104	3.44
366.472	2.92
366.84	3.88
367.208	3.39
367.576	3.44
367.944	3.52
368.312	3.61
368.68	3.64
369.048	3.22
369.416	3.75
369.783	3.38
370.151	3.74
370.519	3.36
370.886	3.6
371.254	4.02
371.621	3.37
371.989	3.17
372.356	3.18
372.724	3.79
373.091	3.3
373.458	3.5
373.826	3.65
374.193	3.15
374.56	3.55
374.927	3.68
375.294	3.03
375.661	3.51
376.028	3.58
376.395	3.56
376.762	3.59
377.129	3.52
377.496	4.12
377.863	3.36
378.229	3.33
378.596	3.14
378.963	3.48
379.329	3.58
379.696	3.45
380.062	3.64
380.429	3.5
380.795	3.52
381.161	3.52
381.528	3.47
381.894	3.07
382.26	3.26
382.626	3.45
382.993	3.42
383.359	3.48
383.725	3.19
384.091	3.41
384.457	3.61
384.823	3.52
385.188	3.45
385.554	3.25
385.92	3.63
386.286	3.26
386.651	3.16
387.017	3.31
387.383	3.43
387.748	3.77
388.114	3.51
388.479	3.71
388.845	3.57
389.21	3.72
389.575	3.47
389.94	3.6
390.306	3.36
390.671	3.42
391.036	3.7
391.401	3.48
391.766	3.41
392.131	3.45
392.496	3.3
392.861	3.51
393.226	3.75
393.591	3.76
393.956	3.59
394.32	3.56
394.685	3.76
395.05	3.5
395.414	3.66
395.779	3.46
396.143	3.63
396.508	3.65
396.872	3.7
397.236	3.56
397.601	3.53
397.965	3.75
398.329	3.48
398.694	3.24
399.058	3.35
399.422	3.49
399.786	3.63
400.15	3.16
400.514	3.72
400.878	3.67
401.242	3.34
401.605	3.51
401.969	3.8
402.333	3.44
402.697	3.32
403.06	3.68
403.424	3.54
403.787	3.46
404.151	3.68
404.514	3.49
404.878	3.67
405.241	3.79
405.604	3.35
405.968	3.56
406.331	3.33
406.694	3.58
407.057	3.36
407.42	3.59
407.783	3.43
408.146	3.44
408.509	3.55
408.872	3.53
409.235	3.72
409.598	3.58
409.961	3.73
410.323	3.62
410.686	3.66
411.049	3.35
411.411	3.52
411.774	3.44
412.136	3.46
412.499	3.57
412.861	3.64
413.223	3.39
413.586	3.68
413.948	3.41
414.31	3.63
414.672	3.61
415.035	3.6
415.397	3.38
415.759	3.81
416.121	3.69
416.483	3.48
416.845	3.43
417.206	3.75
417.568	3.53
417.93	3.6
418.292	3.6
418.653	3.5
419.015	3.56
419.377	3.53
419.738	3.45
420.1	3.65
420.461	3.55
420.822	3.49
421.184	3.44
421.545	3.41
421.906	3.5
422.267	3.48
422.629	3.55
422.99	3.49
423.351	3.62
423.712	3.47
424.073	3.43
424.434	3.52
424.795	3.68
425.155	3.46
425.516	3.51
425.877	3.47
426.238	3.63
426.598	3.58
426.959	3.63
427.32	3.6
427.68	3.58
428.041	3.4
428.401	3.51
428.761	3.6
429.122	3.66
429.482	3.61
429.842	3.66
430.202	3.69
430.563	3.55
430.923	3.6
431.283	3.64
431.643	3.75
432.003	3.9
432.363	3.5
432.722	3.83
433.082	3.6
433.442	3.74
433.802	3.69
434.161	3.84
434.521	3.46
434.881	3.76
435.24	3.7
435.6	3.59
435.959	3.73
436.319	3.57
436.678	3.53
437.037	3.56
437.396	3.46
437.756	3.56
438.115	3.64
438.474	3.56
438.833	3.86
439.192	3.69
439.551	3.65
439.91	3.7
440.269	3.69
440.628	3.73
440.987	3.62
441.345	3.64
441.704	3.75
442.063	3.76
442.421	3.75
442.78	3.61
443.138	3.64
443.497	3.67
443.855	3.58
444.214	3.63
444.572	3.76
444.93	3.64
445.288	3.77
445.647	3.77
446.005	3.68
446.363	3.49
446.721	3.63
447.079	3.68
447.437	3.68
447.795	3.79
448.153	3.68
448.51	3.7
448.868	3.62
449.226	3.72
449.584	3.68
449.941	3.68
450.299	3.81
450.656	3.62
451.014	3.65
451.371	3.6
451.729	3.93
452.086	3.82
452.443	3.84
452.801	3.81
453.158	4
453.515	3.81
453.872	3.72
454.229	3.75
454.586	3.69
454.943	3.84
455.3	3.85
455.657	3.88
456.014	3.87
456.371	3.83
456.727	3.83
457.084	3.85
457.441	3.9
457.797	3.56
458.154	4.01
458.51	3.79
458.867	3.93
459.223	3.75
459.58	3.91
459.936	3.79
460.292	3.61
460.648	3.75
461.005	3.86
461.361	3.69
461.717	3.82
462.073	3.77
462.429	3.84
462.785	3.81
463.141	3.86
463.496	3.86
463.852	3.98
464.208	3.83
464.564	4.1
464.919	3.85
465.275	3.98
465.631	3.99
465.986	3.95
466.342	3.78
466.697	3.6
467.052	3.79
467.408	3.97
467.763	3.85
468.118	3.77
468.473	3.95
468.829	3.82
469.184	3.84
469.539	4.13
469.894	3.83
470.249	3.78
470.603	3.75
470.958	4.03
471.313	3.67
471.668	3.94
472.023	3.86
472.377	3.8
472.732	4.02
473.086	3.96
473.441	3.98
473.795	3.95
474.15	3.66
474.504	3.9
474.859	3.94
475.213	3.96
475.567	4
475.921	3.96
476.275	3.95
476.63	4.07
476.984	3.9
477.338	3.84
477.692	3.87
478.045	3.76
478.399	3.78
478.753	3.97
479.107	3.93
479.461	3.89
479.814	4.01
480.168	3.97
480.521	3.9
480.875	3.98
481.228	3.93
481.582	3.97
481.935	4.02
482.289	3.9
482.642	3.86
482.995	3.91
483.348	3.79
483.701	3.9
484.055	3.81
484.408	3.98
484.761	3.88
485.114	3.74
485.466	3.63
485.819	3.66
486.172	3.74
486.525	3.75
486.878	3.81
487.23	3.82
487.583	3.82
487.936	3.9
488.288	3.84
488.641	3.82
488.993	3.78
489.345	3.75
489.698	3.76
490.05	3.72
490.402	3.88
490.754	3.88
491.107	3.98
491.459	3.83
491.811	3.93
492.163	3.84
492.515	3.91
492.866	3.86
493.218	3.75
493.57	3.79
493.922	3.87
494.274	3.88
494.625	3.94
494.977	3.98
495.328	3.97
495.68	4.02
496.031	3.94
496.383	3.88
496.734	3.95
497.086	4.01
497.437	4.15
497.788	3.91
498.139	4.01
498.49	4.03
498.842	3.96
499.193	4.07
499.544	3.99
499.894	4.01
500.245	4.06
500.596	3.99
500.947	3.96
501.298	4.18
501.648	4.04
501.999	4.04
502.35	4.14
502.7	4.24
503.051	4.23
503.401	3.97
503.752	4.13
504.102	4.11
504.452	4.12
504.803	4.14
505.153	4.02
505.503	4.1
505.853	4.19
506.203	4.07
506.553	4.08
506.903	4.03
507.253	4.2
507.603	4.15
507.953	4.31
508.303	4.24
508.652	4.07
509.002	4.12
509.352	4.09
509.701	4.19
510.051	4.23
510.4	4.15
510.75	4.09
511.099	4.08
511.449	3.99
511.798	4.21
512.147	4.24
512.496	4.14
512.846	3.97
513.195	3.97
513.544	4.29
513.893	4.13
514.242	4.19
514.591	4.07
514.939	4.13
515.288	4.18
515.637	4.22
515.986	4.23
516.334	4.1
516.683	4.39
517.032	4.32
517.38	4.23
517.729	4.24
518.077	4.32
518.426	4.17
518.774	4.24
519.122	4.29
519.47	4.26
519.819	4.18
520.167	4.11
520.515	4.16
520.863	4.15
521.211	4.19
521.559	4.35
521.907	4.24
522.255	4.12
522.602	4.22
522.95	4.21
523.298	4.21
523.645	4.3
523.993	4.3
524.341	4.11
524.688	4.28
525.036	4.42
525.383	4.39
525.73	4.52
526.078	4.37
526.425	4.32
526.772	4.24
527.119	4.33
527.466	4.28
527.814	4.24
528.161	4.35
528.508	4.27
528.854	4.27
529.201	4.26
529.548	4.12
529.895	4.16
530.242	4.12
530.588	4.08
530.935	4.16
531.282	4.18
531.628	4.2
531.975	4.24
532.321	4.34
532.667	4.38
533.014	4.47
533.36	4.33
533.706	4.41
534.052	4.42
534.399	4.35
534.745	4.31
535.091	4.24
535.437	4.34
535.783	4.31
536.129	4.45
536.474	4.4
536.82	4.38
537.166	4.49
537.512	4.57
537.857	4.51
538.203	4.5
538.549	4.44
538.894	4.53
539.239	4.51
539.585	4.46
539.93	4.53
540.276	4.55
540.621	4.42
540.966	4.64
541.311	4.52
541.656	4.59
542.001	4.54
542.346	4.61
542.691	4.44
543.036	4.49
543.381	4.41
543.726	4.44
544.071	4.48
544.415	4.5
544.76	4.52
545.105	4.48
545.449	4.59
545.794	4.6
546.138	4.75
546.483	4.53
546.827	4.67
547.171	4.68
547.516	4.74
547.86	4.74
548.204	4.63
548.548	4.67
548.892	4.65
549.236	4.78
549.58	4.75
549.924	4.89
550.268	4.85
550.612	4.85
550.956	4.81
551.3	4.82
551.643	4.87
551.987	4.73
552.33	4.95
552.674	5.03
553.017	4.77
553.361	4.81
553.704	4.92
554.048	4.84
554.391	4.91
554.734	4.93
555.077	4.88
555.42	4.96
555.764	4.91
556.107	5.13
556.45	4.85
556.793	4.92
557.135	4.99
557.478	4.98
557.821	5.13
558.164	4.99
558.507	5.2
558.849	5.06
559.192	5.01
559.534	5
559.877	5.1
560.219	5.22
560.562	5.05
560.904	5.16
561.246	5.04
561.589	5.07
561.931	4.98
562.273	5.18
562.615	5.12
562.957	5.18
563.299	5.4
563.641	5.1
563.983	5.46
564.325	5.13
564.667	5.23
565.008	5.22
565.35	5.2
565.692	5.21
566.033	5.22
566.375	5.26
566.716	5.28
567.058	5.39
567.399	5.56
567.741	5.36
568.082	5.33
568.423	5.22
568.764	5.39
569.105	5.22
569.447	5.52
569.788	5.44
570.129	5.57
570.47	5.61
570.811	5.37
571.151	5.69
571.492	5.43
571.833	5.58
572.174	5.52
572.514	5.4
572.855	5.58
573.195	5.78
573.536	5.59
573.876	5.68
574.217	5.62
574.557	5.62
574.898	5.68
575.238	5.61
575.578	5.61
575.918	5.65
576.258	5.63
576.598	5.58
576.938	5.69
577.278	5.66
577.618	5.54
577.958	5.87
578.298	5.78
578.638	5.78
578.977	5.68
579.317	5.92
579.657	5.74
579.996	5.86
580.336	6
580.675	5.94
581.014	5.93
581.354	5.51
581.693	6
582.032	6.15
582.372	5.85
582.711	5.99
583.05	6.02
583.389	6.16
583.728	5.79
584.067	5.63
584.406	6.21
584.745	5.96
585.083	5.99
585.422	6.36
585.761	6.33
586.1	6.18
586.438	6.17
586.777	6.28
587.115	6.05
587.454	6.13
587.792	6.24
588.13	6.07
588.469	6.17
588.807	6.06
589.145	6.37
589.483	6.46
589.821	6.06
590.159	6.4
590.497	6.32
590.835	6.22
591.173	6.59
591.511	6.37
591.849	6.45
592.187	6.23
592.524	6.26
592.862	6.44
593.2	6.52
593.537	6.55
593.875	6.52
594.212	6.34
594.55	6.65
594.887	6.81
595.224	6.75
595.561	6.77
595.899	6.88
596.236	6.58
596.573	6.67
596.91	6.74
597.247	6.94
597.584	6.77
597.921	6.66
598.258	6.71
598.594	6.78
598.931	6.83
599.268	6.65
599.604	6.83
599.941	6.79
600.277	7.3
600.614	6.83
600.95	7.02
601.287	7.25
601.623	7.1
601.959	7.11
602.296	6.95
602.632	6.75
602.968	7.02
603.304	6.97
603.64	6.82
603.976	6.92
604.312	7.3
604.648	7.08
604.984	7.06
605.319	7.13
605.655	7.09
605.991	7.11
606.326	7.18
606.662	7.26
606.998	7.23
607.333	7.1
607.668	7.39
608.004	7.39
608.339	7.15
608.674	7.42
609.01	7.36
609.345	7.53
609.68	7.07
610.015	7.55
610.35	7.66
610.685	7.76
611.02	7.47
611.355	7.3
611.689	7.59
612.024	7.36
612.359	7.46
612.694	7.79
613.028	7.39
613.363	7.59
613.697	7.66
614.032	7.81
614.366	7.63
614.7	7.54
615.035	7.68
615.369	7.22
615.703	7.68
616.037	7.79
616.371	8.19
616.705	7.95
617.039	7.71
617.373	7.86
617.707	7.88
618.041	7.75
618.375	8.22
618.709	8
619.042	7.75
619.376	7.85
619.71	8.04
620.043	8.07
620.377	7.96
620.71	7.95
621.043	8.05
621.377	8.4
621.71	8.2
622.043	7.96
622.376	8.43
622.709	8.45
623.043	8.49
623.376	8.52
623.709	8.18
624.041	8.06
624.374	8.19
624.707	8.25
625.04	8.5
625.373	8.44
625.705	8.19
626.038	8.52
626.37	8.3
626.703	8.62
627.035	8.65
627.368	8.41
627.7	8.68
628.032	8.55
628.365	8.99
628.697	8.51
629.029	8.47
629.361	8.68
629.693	8.24
630.025	8.5
630.357	8.96
630.689	8.81
631.021	8.95
631.353	8.73
631.684	8.1
632.016	8.91
632.348	8.7
632.679	8.89
633.011	9.05
633.342	8.42
633.674	8.47
634.005	9.08
634.336	8.93
634.668	9.14
634.999	8.92
635.33	8.77
635.661	9.1
635.992	8.88
636.323	9.19
636.654	9.55
636.985	9.15
637.316	9.23
637.647	9.4
637.977	9.47
638.308	9.35
638.639	9.18
638.969	9.27
639.3	9.43
639.63	9.39
639.961	9.55
640.291	9.22
640.622	9.57
640.952	8.87
641.282	9.3
641.612	9.32
641.943	9.9
642.273	9.19
642.603	9.53
642.933	9.29
643.263	9.82
643.592	9.77
643.922	10.07
644.252	9.35
644.582	9.39
644.911	9.56
645.241	9.43
645.571	9.84
645.9	9.78
646.23	9.76
646.559	9.73
646.888	9.87
647.218	10.2
647.547	9.99
647.876	10.08
648.205	9.81
648.534	10.01
648.863	10.61
649.192	10.31
649.521	10.19
649.85	10.42
650.179	9.64
650.508	10.65
650.837	10.05
651.165	9.97
651.494	10.44
651.822	9.91
652.151	10.36
652.479	9.95
652.808	9.82
653.136	10.31
653.465	9.92
653.793	10.39
654.121	10.55
654.449	10.63
654.777	10.72
655.105	10.16
655.433	10.18
655.761	10.96
656.089	10.09
656.417	10.11
656.745	10.55
657.073	10.92
657.4	10.99
657.728	10.88
658.056	10.89
658.383	10.19
658.711	10.6
659.038	10.06
659.365	10.72
659.693	10.45
660.02	10.59
660.347	11.39
660.674	10.7
661.001	10.45
661.329	10.88
661.656	10.51
661.982	11.05
662.309	11.22
662.636	11.1
662.963	10.99
663.29	11.26
663.616	11.5
663.943	10.91
664.27	10.69
664.596	11.61
664.923	11.42
665.249	10.8
665.576	10.83
665.902	10.89
666.228	11.57
666.554	10.53
666.881	11.31
667.207	11.07
667.533	11.22
667.859	11.18
668.185	11.38
668.511	10.86
668.837	11.85
669.162	11.31
669.488	11.16
669.814	11.28
670.139	10.94
670.465	11.09
670.791	11.02
671.116	11.45
671.442	11.29
671.767	11.46
672.092	11.67
672.418	11.79
672.743	11.23
673.068	11.91
673.393	11.98
673.718	11.67
674.043	12.4
674.368	13.07
674.693	11.92
675.018	12.44
675.343	11.91
675.667	12.01
675.992	12.57
676.317	11.79
676.641	11.57
676.966	12.74
677.29	12.24
677.615	12.32
677.939	11.76
678.264	12.99
678.588	12.25
678.912	11.79
679.236	11.74
679.56	12.7
679.885	12.12
680.209	12.14
680.532	12.89
680.856	12.52
681.18	12.05
681.504	12.4
681.828	12.31
682.152	11.94
682.475	12.61
682.799	12.06
683.122	12.44
683.446	13.08
683.769	12.93
684.093	13.07
684.416	12.98
684.739	12.74
685.062	12.73
685.386	12.79
685.709	12.77
686.032	12.91
686.355	13.05
686.678	13.34
687.001	12.61
687.324	12.19
687.646	13.29
687.969	12.48
688.292	13.18
688.614	11.85
688.937	13.17
689.26	13.25
689.582	13.76
