Data from 20-50_crown_Reflection__2__37.txt Node

Date: Thu Feb 29 22:10:10 CST 2024
User: ToomeyLab
Spectrometer: FLMS14357
Trigger mode: 0
Integration Time (sec): 1.000000E-2
Scans to average: 100
Electric dark correction enabled: true
Nonlinearity correction enabled: false
Boxcar width: 0
XAxis mode: Wavelengths
Number of Pixels in Spectrum: 2048
>>>>>Begin Spectral Data<<<<<
189.047	49.03
189.435	49.03
189.823	49.03
190.211	-526.49
190.599	15.96
190.987	-18.74
191.375	91.62
191.763	-116.09
192.151	49.92
192.538	12.84
192.926	216.76
193.314	135.43
193.702	71.32
194.089	-8.66
194.477	44.84
194.864	235.43
195.252	51.34
195.639	3058.33
196.027	-23.3
196.414	-2.23
196.801	84.68
197.189	111.8
197.576	66.69
197.963	-20.44
198.351	15.31
198.738	10.71
199.125	-20.65
199.512	13.61
199.899	-31.09
200.286	-62.57
200.673	-5.76
201.06	-8.33
201.447	21.12
201.833	7.92
202.22	-34.25
202.607	-74.94
202.994	-16.73
203.38	48.54
203.767	-11.69
204.154	23.73
204.54	9.25
204.927	4.96
205.313	23.22
205.699	-14.53
206.086	19.76
206.472	19.15
206.858	49.18
207.245	-46.14
207.631	-26.33
208.017	-1.83
208.403	-30.73
208.789	-3.49
209.175	-108.72
209.561	-19.53
209.947	19.87
210.333	21.56
210.719	16.1
211.105	-24.77
211.491	-44.37
211.876	-13.79
212.262	27.51
212.648	-65.27
213.034	0.47
213.419	21.17
213.805	9.92
214.19	6.02
214.576	-24.79
214.961	-0.92
215.346	7.12
215.732	0.7
216.117	-35.9
216.502	-13.54
216.888	-51.36
217.273	14.47
217.658	1.12
218.043	1.54
218.428	0.61
218.813	0.73
219.198	-1.93
219.583	-12.3
219.968	16.72
220.353	-10.69
220.738	-5.63
221.122	-8.97
221.507	7.62
221.892	-0.46
222.276	12.38
222.661	5.56
223.046	8.31
223.43	-7.42
223.815	-3.81
224.199	-6.84
224.583	-1.79
224.968	-2.02
225.352	4.71
225.736	-0.05
226.121	2.71
226.505	6.09
226.889	5.9
227.273	2.95
227.657	-4.25
228.041	3.07
228.425	7.68
228.809	8.01
229.193	4.41
229.577	3.99
229.961	3.45
230.344	3.78
230.728	5.41
231.112	6.34
231.495	5.87
231.879	4.92
232.263	3.68
232.646	5.27
233.03	6.3
233.413	4.02
233.797	4.78
234.18	4.3
234.563	2.1
234.946	5.56
235.33	4.32
235.713	3.94
236.096	3.74
236.479	6.28
236.862	5.34
237.245	4.28
237.628	5.49
238.011	5.93
238.394	4.16
238.777	3.05
239.16	5.3
239.543	4.08
239.925	4.52
240.308	3.86
240.691	5.36
241.073	4.97
241.456	5.1
241.838	5.19
242.221	5.27
242.603	4.72
242.986	5.78
243.368	4.9
243.75	5.52
244.133	5.04
244.515	5.05
244.897	5.79
245.279	4.98
245.661	5.05
246.043	5.14
246.425	6.98
246.807	5.48
247.189	4.98
247.571	4.75
247.953	5.24
248.335	4.94
248.717	5.24
249.098	5.48
249.48	5.16
249.862	5.18
250.243	4.79
250.625	4.67
251.006	6.23
251.388	5.27
251.769	5.05
252.151	6.93
252.532	4.35
252.913	5.49
253.295	5.24
253.676	4.92
254.057	5.17
254.438	5.58
254.819	5.88
255.2	4.23
255.581	4.91
255.962	4.59
256.343	4.74
256.724	4.65
257.105	4.31
257.486	4.4
257.867	5.71
258.247	5.55
258.628	4.43
259.009	4.07
259.389	3.75
259.77	4.95
260.15	5.77
260.531	5.06
260.911	4.73
261.292	4.96
261.672	4.98
262.052	4.88
262.432	4.88
262.813	4.55
263.193	3.97
263.573	5.71
263.953	4.35
264.333	4.21
264.713	4.91
265.093	5.01
265.473	4.93
265.853	5.14
266.233	5.33
266.612	4.31
266.992	4.61
267.372	3.67
267.752	4.2
268.131	5.36
268.511	4.74
268.89	4.88
269.27	4.9
269.649	4.86
270.029	4.78
270.408	4.42
270.787	4.19
271.167	4.8
271.546	4.55
271.925	4.6
272.304	4.84
272.683	4.95
273.062	4.44
273.441	4.89
273.82	4.85
274.199	4.86
274.578	4.74
274.957	4.91
275.336	5.45
275.715	5.12
276.093	4.46
276.472	5.15
276.851	4.66
277.229	4.62
277.608	4.71
277.986	4.13
278.365	5.14
278.743	3.97
279.122	4.38
279.5	4.18
279.878	3.67
280.257	4.91
280.635	4.3
281.013	4.14
281.391	4.49
281.769	4.89
282.147	4.53
282.525	4.27
282.903	4.11
283.281	4.45
283.659	4.87
284.037	4.96
284.415	4.06
284.792	4.06
285.17	3.84
285.548	4.52
285.925	4.51
286.303	3.84
286.68	3.86
287.058	4.5
287.435	4.3
287.813	4.26
288.19	4.28
288.567	4.27
288.945	4.81
289.322	4.52
289.699	4.62
290.076	3.8
290.453	3.95
290.83	4.37
291.207	3.98
291.584	4.1
291.961	4.18
292.338	4.45
292.715	4.18
293.092	4.41
293.469	4.58
293.845	4.18
294.222	4.62
294.599	3.99
294.975	4.36
295.352	4.92
295.728	4.5
296.105	4.67
296.481	3.91
296.858	4.63
297.234	3.95
297.61	4.54
297.986	4.72
298.363	4.19
298.739	4.52
299.115	4.52
299.491	4.14
299.867	4.62
300.243	4.16
300.619	4.45
300.995	4.7
301.371	4.36
301.746	4.18
302.122	4.99
302.498	4.76
302.874	4.5
303.249	4.34
303.625	4.35
304	4.62
304.376	4.32
304.751	4.23
305.127	4.32
305.502	4.01
305.878	4.77
306.253	3.9
306.628	3.92
307.003	4.61
307.378	4.66
307.754	4.82
308.129	3.94
308.504	4.58
308.879	4.17
309.254	3.98
309.629	4.58
310.003	4.61
310.378	4.15
310.753	4.33
311.128	4.3
311.502	4.58
311.877	4.23
312.252	4.75
312.626	4.49
313.001	4.5
313.375	4.65
313.75	4.86
314.124	4.99
314.498	4.62
314.873	4.11
315.247	4.03
315.621	4.31
315.995	4.44
316.369	4.86
316.743	3.73
317.117	4.44
317.491	4.41
317.865	4.38
318.239	4.97
318.613	4.99
318.987	5.15
319.361	3.57
319.734	4.69
320.108	5.2
320.482	4.53
320.855	4.77
321.229	5.01
321.602	4.39
321.976	4.42
322.349	4.13
322.723	4.97
323.096	4.08
323.469	4.36
323.843	4.01
324.216	4.57
324.589	4.13
324.962	4.03
325.335	4.62
325.708	5.1
326.081	3.89
326.454	4.57
326.827	4.68
327.2	4.52
327.573	4.09
327.945	4.68
328.318	4.21
328.691	4.47
329.063	4.19
329.436	4.52
329.809	4.44
330.181	4.71
330.553	4.41
330.926	4.22
331.298	4.55
331.671	3.66
332.043	4.86
332.415	4.72
332.787	3.67
333.159	4.54
333.532	4.58
333.904	5.09
334.276	4.65
334.648	4.14
335.02	4.36
335.391	3.96
335.763	4.16
336.135	3.54
336.507	3.96
336.879	4.91
337.25	5.23
337.622	4.48
337.993	4.74
338.365	4.32
338.736	4.64
339.108	4.94
339.479	4.93
339.851	4.56
340.222	5.21
340.593	4.38
340.964	4.35
341.336	4.59
341.707	3.97
342.078	4.23
342.449	4.57
342.82	4.48
343.191	3.98
343.562	4.76
343.933	4.31
344.303	4.7
344.674	4.61
345.045	4.77
345.416	4.41
345.786	4.38
346.157	4.41
346.527	4.48
346.898	4.71
347.268	4.62
347.639	4.56
348.009	4.37
348.38	4.64
348.75	4.48
349.12	5.29
349.49	4.69
349.861	4.37
350.231	4.64
350.601	5.14
350.971	4.5
351.341	4.56
351.711	5.11
352.081	5.06
352.45	4.33
352.82	4.02
353.19	4.45
353.56	4.61
353.929	4.75
354.299	4.54
354.669	4.52
355.038	4.46
355.408	4.93
355.777	4.65
356.147	4.69
356.516	4.41
356.885	4.66
357.254	4.73
357.624	4.72
357.993	4.6
358.362	4.28
358.731	4.57
359.1	4.82
359.469	4.55
359.838	4.39
360.207	4.82
360.576	4.68
360.945	4.21
361.314	4.61
361.682	4.45
362.051	4.6
362.42	4.76
362.788	4.86
363.157	4.58
363.525	4.5
363.894	4.98
364.262	4.6
364.631	4.89
364.999	4.23
365.367	4.79
365.735	4.57
366.104	4.85
366.472	4.55
366.84	5.19
367.208	4.77
367.576	4.67
367.944	4.62
368.312	4.96
368.68	4.74
369.048	4.6
369.416	4.84
369.783	4.7
370.151	5.05
370.519	4.87
370.886	4.78
371.254	5.11
371.621	5.03
371.989	4.67
372.356	4.5
372.724	4.97
373.091	4.81
373.458	4.79
373.826	4.84
374.193	4.89
374.56	4.95
374.927	5.26
375.294	4.79
375.661	5.15
376.028	4.91
376.395	4.83
376.762	5.32
377.129	4.72
377.496	4.89
377.863	4.99
378.229	4.49
378.596	4.74
378.963	4.84
379.329	4.87
379.696	4.81
380.062	4.71
380.429	5
380.795	4.99
381.161	5.13
381.528	4.73
381.894	4.67
382.26	4.74
382.626	4.74
382.993	4.74
383.359	4.94
383.725	4.74
384.091	5.12
384.457	4.59
384.823	4.96
385.188	4.95
385.554	4.88
385.92	4.93
386.286	4.63
386.651	4.95
387.017	4.89
387.383	4.79
387.748	5.03
388.114	4.74
388.479	5.01
388.845	4.7
389.21	4.97
389.575	4.85
389.94	5.13
390.306	4.96
390.671	4.79
391.036	4.97
391.401	4.86
391.766	4.72
392.131	4.68
392.496	5.05
392.861	4.99
393.226	5.32
393.591	5.11
393.956	5.03
394.32	4.9
394.685	4.92
395.05	5.2
395.414	4.95
395.779	4.86
396.143	5.15
396.508	4.9
396.872	5.21
397.236	5.14
397.601	5.37
397.965	5.15
398.329	4.67
398.694	4.85
399.058	5.35
399.422	4.91
399.786	4.9
400.15	4.82
400.514	4.98
400.878	4.84
401.242	5.04
401.605	5.03
401.969	5.18
402.333	5.03
402.697	4.84
403.06	5.11
403.424	5.19
403.787	4.99
404.151	5.25
404.514	5.12
404.878	5.01
405.241	5.15
405.604	4.97
405.968	5.08
406.331	4.83
406.694	5.05
407.057	4.95
407.42	5.19
407.783	5.06
408.146	5.16
408.509	5.15
408.872	5.31
409.235	5.14
409.598	5.15
409.961	5.18
410.323	5.45
410.686	4.96
411.049	4.93
411.411	4.86
411.774	5.23
412.136	5.04
412.499	5.13
412.861	4.9
413.223	5.06
413.586	5.16
413.948	5.09
414.31	5.23
414.672	4.97
415.035	5.31
415.397	5.04
415.759	5.42
416.121	5.22
416.483	5.07
416.845	5.18
417.206	5.09
417.568	5.11
417.93	5.06
418.292	5.13
418.653	5.11
419.015	5.09
419.377	5.1
419.738	4.99
420.1	5.22
420.461	5.23
420.822	5.11
421.184	5.13
421.545	5.09
421.906	5.02
422.267	5.09
422.629	5.05
422.99	5.08
423.351	5.24
423.712	5.18
424.073	4.99
424.434	5
424.795	5.17
425.155	5.01
425.516	5.09
425.877	5.15
426.238	5.2
426.598	5.19
426.959	5.22
427.32	5.24
427.68	5.07
428.041	5.13
428.401	5.13
428.761	5.36
429.122	5.17
429.482	5.13
429.842	5.25
430.202	5.14
430.563	5.26
430.923	5.33
431.283	5.3
431.643	5.27
432.003	5.52
432.363	5.07
432.722	5.21
433.082	5.19
433.442	5.2
433.802	5.3
434.161	5.35
434.521	5.2
434.881	5.2
435.24	5.39
435.6	5.18
435.959	5.29
436.319	5.36
436.678	5.12
437.037	5.3
437.396	5.41
437.756	5.26
438.115	5.27
438.474	5.22
438.833	5.39
439.192	5.35
439.551	5.21
439.91	5.34
440.269	5.23
440.628	5.45
440.987	5.18
441.345	5.33
441.704	5.28
442.063	5.26
442.421	5.24
442.78	5.27
443.138	5.26
443.497	5.3
443.855	5.39
444.214	5.35
444.572	5.51
444.93	5.26
445.288	5.3
445.647	5.32
446.005	5.45
446.363	5.16
446.721	5.35
447.079	5.14
447.437	5.22
447.795	5.41
448.153	5.35
448.51	5.43
448.868	5.31
449.226	5.34
449.584	5.23
449.941	5.35
450.299	5.31
450.656	5.3
451.014	5.39
451.371	5.42
451.729	5.48
452.086	5.33
452.443	5.28
452.801	5.39
453.158	5.4
453.515	5.42
453.872	5.54
454.229	5.26
454.586	5.34
454.943	5.56
455.3	5.53
455.657	5.38
456.014	5.5
456.371	5.31
456.727	5.53
457.084	5.57
457.441	5.71
457.797	5.37
458.154	5.46
458.51	5.61
458.867	5.53
459.223	5.39
459.58	5.41
459.936	5.41
460.292	5.3
460.648	5.34
461.005	5.38
461.361	5.38
461.717	5.29
462.073	5.38
462.429	5.53
462.785	5.5
463.141	5.59
463.496	5.55
463.852	5.46
464.208	5.51
464.564	5.74
464.919	5.6
465.275	5.29
465.631	5.69
465.986	5.59
466.342	5.35
466.697	5.41
467.052	5.31
467.408	5.54
467.763	5.58
468.118	5.52
468.473	5.54
468.829	5.54
469.184	5.39
469.539	5.76
469.894	5.58
470.249	5.63
470.603	5.51
470.958	5.63
471.313	5.38
471.668	5.54
472.023	5.39
472.377	5.46
472.732	5.59
473.086	5.54
473.441	5.67
473.795	5.56
474.15	5.56
474.504	5.56
474.859	5.45
475.213	5.57
475.567	5.75
475.921	5.67
476.275	5.52
476.63	5.66
476.984	5.77
477.338	5.48
477.692	5.47
478.045	5.63
478.399	5.53
478.753	5.64
479.107	5.57
479.461	5.65
479.814	5.75
480.168	5.49
480.521	5.52
480.875	5.61
481.228	5.68
481.582	5.75
481.935	5.73
482.289	5.58
482.642	5.62
482.995	5.59
483.348	5.54
483.701	5.6
484.055	5.56
484.408	5.54
484.761	5.49
485.114	5.33
485.466	5.22
485.819	5.31
486.172	5.36
486.525	5.42
486.878	5.49
487.23	5.49
487.583	5.55
487.936	5.52
488.288	5.52
488.641	5.39
488.993	5.42
489.345	5.41
489.698	5.38
490.05	5.39
490.402	5.58
490.754	5.55
491.107	5.53
491.459	5.59
491.811	5.67
492.163	5.57
492.515	5.52
492.866	5.53
493.218	5.43
493.57	5.47
493.922	5.54
494.274	5.55
494.625	5.67
494.977	5.74
495.328	5.69
495.68	5.71
496.031	5.67
496.383	5.66
496.734	5.74
497.086	5.62
497.437	5.89
497.788	5.71
498.139	5.59
498.49	5.75
498.842	5.77
499.193	5.81
499.544	5.68
499.894	5.72
500.245	5.74
500.596	5.6
500.947	5.59
501.298	5.74
501.648	5.78
501.999	5.82
502.35	5.7
502.7	5.88
503.051	5.89
503.401	5.73
503.752	5.74
504.102	5.82
504.452	5.87
504.803	5.75
505.153	5.68
505.503	5.89
505.853	5.97
506.203	5.83
506.553	5.88
506.903	5.73
507.253	5.89
507.603	5.87
507.953	5.86
508.303	5.79
508.652	5.83
509.002	5.98
509.352	5.81
509.701	5.85
510.051	5.78
510.4	5.9
510.75	5.8
511.099	5.68
511.449	5.82
511.798	5.72
512.147	5.74
512.496	5.82
512.846	5.68
513.195	5.74
513.544	5.85
513.893	5.78
514.242	5.71
514.591	5.74
514.939	5.84
515.288	6
515.637	5.83
515.986	5.92
516.334	5.84
516.683	5.9
517.032	5.89
517.38	5.97
517.729	5.96
518.077	5.92
518.426	5.9
518.774	5.79
519.122	5.85
519.47	5.78
519.819	5.8
520.167	5.71
520.515	5.67
520.863	5.73
521.211	5.79
521.559	5.93
521.907	5.92
522.255	5.77
522.602	5.69
522.95	5.76
523.298	5.74
523.645	5.81
523.993	5.91
524.341	5.8
524.688	6
525.036	5.93
525.383	5.88
525.73	6.08
526.078	6.08
526.425	5.88
526.772	5.71
527.119	5.71
527.466	5.85
527.814	5.82
528.161	5.87
528.508	5.76
528.854	5.84
529.201	5.8
529.548	5.63
529.895	5.63
530.242	5.54
530.588	5.52
530.935	5.59
531.282	5.67
531.628	5.7
531.975	5.77
532.321	5.74
532.667	5.85
533.014	5.96
533.36	5.9
533.706	5.87
534.052	5.81
534.399	5.81
534.745	5.66
535.091	5.59
535.437	5.7
535.783	5.79
536.129	5.8
536.474	5.91
536.82	5.89
537.166	5.92
537.512	5.98
537.857	5.96
538.203	5.92
538.549	5.78
538.894	5.82
539.239	5.94
539.585	5.96
539.93	5.93
540.276	5.99
540.621	5.96
540.966	5.94
541.311	6.01
541.656	6
542.001	5.79
542.346	5.91
542.691	5.71
543.036	5.75
543.381	5.68
543.726	5.74
544.071	5.82
544.415	5.82
544.76	5.87
545.105	5.8
545.449	5.83
545.794	5.89
546.138	5.97
546.483	5.85
546.827	5.99
547.171	5.93
547.516	5.98
547.86	5.88
548.204	5.88
548.548	5.85
548.892	5.95
549.236	6.02
549.58	6.04
549.924	5.87
550.268	5.92
550.612	5.99
550.956	5.95
551.3	6.09
551.643	6.06
551.987	6.11
552.33	5.94
552.674	6.03
553.017	5.97
553.361	5.82
553.704	6.07
554.048	5.84
554.391	5.97
554.734	5.95
555.077	6.01
555.42	6.11
555.764	5.95
556.107	6.26
556.45	6.05
556.793	6.19
557.135	6.11
557.478	6.06
557.821	6.09
558.164	6.07
558.507	6.31
558.849	6.27
559.192	5.97
559.534	5.93
559.877	6.12
560.219	6.07
560.562	5.99
560.904	6.1
561.246	5.92
561.589	6.29
561.931	5.96
562.273	6.21
562.615	6.21
562.957	5.95
563.299	6.17
563.641	5.94
563.983	6.12
564.325	6.02
564.667	6.06
565.008	6.17
565.35	6.35
565.692	6.08
566.033	6.25
566.375	5.91
566.716	6.21
567.058	6.09
567.399	6.22
567.741	5.92
568.082	6.34
568.423	6
568.764	6.15
569.105	6
569.447	6.23
569.788	6.08
570.129	6.09
570.47	6.19
570.811	5.89
571.151	6.29
571.492	6.19
571.833	6.32
572.174	6.08
572.514	6.03
572.855	6.16
573.195	6.25
573.536	6.15
573.876	6.2
574.217	5.94
574.557	6.08
574.898	6.27
575.238	5.93
575.578	6.2
575.918	6.23
576.258	5.96
576.598	6.16
576.938	6.12
577.278	6.08
577.618	6.09
577.958	6.04
578.298	6.02
578.638	6.04
578.977	6.18
579.317	6.15
579.657	6.04
579.996	6.33
580.336	6.44
580.675	6.27
581.014	6.2
581.354	5.95
581.693	6.29
582.032	6.21
582.372	6.17
582.711	6.37
583.05	6.3
583.389	6.42
583.728	5.79
584.067	6.09
584.406	6.16
584.745	6.35
585.083	5.94
585.422	6.37
585.761	6.21
586.1	6.09
586.438	6.27
586.777	6.08
587.115	6.01
587.454	5.97
587.792	6.34
588.13	6.19
588.469	6.13
588.807	6.14
589.145	6.16
589.483	6.18
589.821	5.88
590.159	6.14
590.497	6.03
590.835	6.23
591.173	6.11
591.511	6.16
591.849	6.36
592.187	6.19
592.524	6.1
592.862	6.01
593.2	6.25
593.537	6.03
593.875	6.22
594.212	6.29
594.55	6.41
594.887	6.56
595.224	6.23
595.561	6.24
595.899	6.52
596.236	6.09
596.573	6.22
596.91	6.19
597.247	6.23
597.584	6.3
597.921	6.1
598.258	6.02
598.594	6.02
598.931	6.26
599.268	6.02
599.604	6.38
599.941	5.96
600.277	6.45
600.614	6.46
600.95	6.38
601.287	6.19
601.623	6.27
601.959	6.13
602.296	6.05
602.632	6.1
602.968	6.2
603.304	6.15
603.64	6.17
603.976	6.22
604.312	6.26
604.648	5.9
604.984	6.05
605.319	6.26
605.655	6.27
605.991	6.01
606.326	6
606.662	6.09
606.998	6.1
607.333	6.16
607.668	6.22
608.004	6.34
608.339	6.21
608.674	5.98
609.01	6.15
609.345	6.23
609.68	5.93
610.015	6.29
610.35	6.19
610.685	6.36
611.02	6.41
611.355	6.16
611.689	6.16
612.024	6.04
612.359	6.42
612.694	6.38
613.028	5.9
613.363	6.4
613.697	6.42
614.032	6.25
614.366	6.14
614.7	5.99
615.035	5.97
615.369	5.81
615.703	6.1
616.037	6.48
616.371	6.28
616.705	6.02
617.039	6.54
617.373	6.18
617.707	6.08
618.041	6.01
618.375	6.65
618.709	6.22
619.042	5.99
619.376	5.96
619.71	6.15
620.043	5.87
620.377	6.35
620.71	6.34
621.043	6.56
621.377	6.15
621.71	6.25
622.043	6.46
622.376	6.36
622.709	6.73
623.043	6.54
623.376	6.59
623.709	6.41
624.041	6.09
624.374	6.27
624.707	6.6
625.04	6.67
625.373	6.23
625.705	6.4
626.038	6.28
626.37	6
626.703	6.5
627.035	6.76
627.368	6.32
627.7	6.76
628.032	6.21
628.365	6.36
628.697	6.09
629.029	6.32
629.361	6.15
629.693	6.37
630.025	6.24
630.357	6.28
630.689	6.08
631.021	6.58
631.353	6.16
631.684	6.03
632.016	6.02
632.348	6.51
632.679	6.22
633.011	6.64
633.342	6.36
633.674	6.38
634.005	6.52
634.336	6.32
634.668	6.53
634.999	6.45
635.33	6.51
635.661	6.41
635.992	6
636.323	6.61
636.654	6.43
636.985	6.34
637.316	6.18
637.647	6.42
637.977	5.99
638.308	6.68
638.639	6.88
638.969	6.39
639.3	6.53
639.63	6.28
639.961	7.06
640.291	5.95
640.622	6.54
640.952	5.91
641.282	6.45
641.612	6.15
641.943	6.52
642.273	6.58
642.603	6.21
642.933	6.04
643.263	6.77
643.592	6.59
643.922	6.47
644.252	6.01
644.582	6.51
644.911	6.24
645.241	5.82
645.571	6.75
645.9	6.14
646.23	6.41
646.559	6.45
646.888	6.36
647.218	6.34
647.547	6.54
647.876	5.98
648.205	6.09
648.534	6.52
648.863	6.92
649.192	6.46
649.521	6.59
649.85	6.58
650.179	6.03
650.508	6.76
650.837	6.24
651.165	6.41
651.494	6.93
651.822	6.21
652.151	6.04
652.479	6.35
652.808	6.18
653.136	6.5
653.465	6.14
653.793	6.02
654.121	6.33
654.449	6.72
654.777	6.98
655.105	6.22
655.433	5.91
655.761	6.77
656.089	5.95
656.417	5.99
656.745	6.6
657.073	6.23
657.4	6.4
657.728	6.7
658.056	6.83
658.383	5.86
658.711	6.63
659.038	6.66
659.365	6.36
659.693	6.5
660.02	6.37
660.347	6.41
660.674	6.65
661.001	6.05
661.329	6.52
661.656	6.32
661.982	6.63
662.309	6.76
662.636	6.6
662.963	6.44
663.29	6.66
663.616	6.8
663.943	6.36
664.27	6.6
664.596	6.7
664.923	6.96
665.249	5.88
665.576	6.53
665.902	6.06
666.228	7.01
666.554	6.47
666.881	7.34
667.207	6.91
667.533	6.58
667.859	6.97
668.185	6.55
668.511	5.97
668.837	6.81
669.162	5.71
669.488	6.09
669.814	6.86
670.139	6.32
670.465	6.94
670.791	6.7
671.116	6.59
671.442	6.68
671.767	6.54
672.092	7.09
672.418	6.33
672.743	6.49
673.068	6.81
673.393	6.81
673.718	6.76
674.043	6.64
674.368	7.19
674.693	6.84
675.018	6.3
675.343	7.52
675.667	6.52
675.992	7.09
676.317	5.84
676.641	6.14
676.966	6.89
677.29	6.2
677.615	6.35
677.939	6.06
678.264	7.59
678.588	6.77
678.912	5.9
679.236	6.38
679.56	7.08
679.885	6.82
680.209	6
680.532	7.48
680.856	6.27
681.18	6.47
681.504	6.56
681.828	7.01
682.152	6.41
682.475	6.98
682.799	6.24
683.122	6.95
683.446	6.64
683.769	7.47
684.093	6.72
684.416	6.63
684.739	6.86
685.062	6.79
685.386	6.79
685.709	6.86
686.032	6.77
686.355	7.34
686.678	7
687.001	6.55
687.324	6.99
687.646	6.36
687.969	7.04
688.292	6.66
688.614	7.16
688.937	6.9
689.26	6.81
689.582	6.25
689.904	7.3
690.227	7.03
690.549	5.87
690.871	6.76
691.194	6.36
691.516	7.37
691.838	6.37
692.16	6.64
