Data from 20-50_forehead_Reflection__2__42.txt Node

Date: Thu Feb 29 22:11:21 CST 2024
User: ToomeyLab
Spectrometer: FLMS14357
Trigger mode: 0
Integration Time (sec): 1.000000E-2
Scans to average: 100
Electric dark correction enabled: true
Nonlinearity correction enabled: false
Boxcar width: 0
XAxis mode: Wavelengths
Number of Pixels in Spectrum: 2048
>>>>>Begin Spectral Data<<<<<
189.047	21.85
189.435	21.85
189.823	21.85
190.211	-230.04
190.599	15.88
190.987	9.96
191.375	88.34
191.763	-42.14
192.151	135.93
192.538	-1707.77
192.926	99.66
193.314	-116.64
193.702	86.76
194.089	67.46
194.477	48.2
194.864	140.98
195.252	17.59
195.639	1354.17
196.027	61.22
196.414	199.07
196.801	104.44
197.189	76.06
197.576	-16.25
197.963	-244.76
198.351	2.93
198.738	18.62
199.125	-4.19
199.512	34.6
199.899	13.32
200.286	-2.07
200.673	19.46
201.06	9.12
201.447	27.55
201.833	38.7
202.22	22.62
202.607	10.77
202.994	-32.41
203.38	-0.53
203.767	7.79
204.154	46.05
204.54	10.74
204.927	-1.46
205.313	42.25
205.699	-10.54
206.086	-0.97
206.472	10.22
206.858	22.98
207.245	18.67
207.631	16.23
208.017	27.2
208.403	-11.36
208.789	11.71
209.175	-56.56
209.561	-0.53
209.947	13.14
210.333	21.79
210.719	35.42
211.105	-8.93
211.491	-1.41
211.876	5.25
212.262	39.12
212.648	3.93
213.034	44.06
213.419	17.38
213.805	-7.27
214.19	0.12
214.576	-8.76
214.961	26.38
215.346	12.61
215.732	2.68
216.117	-57.27
216.502	19.85
216.888	-39.97
217.273	11.14
217.658	18.22
218.043	41.41
218.428	-3.43
218.813	-11.21
219.198	15.49
219.583	-7.63
219.968	-5.61
220.353	-29.66
220.738	11.06
221.122	-1.61
221.507	21.72
221.892	15.59
222.276	13.99
222.661	0.81
223.046	6.38
223.43	-9.77
223.815	-4.79
224.199	1.24
224.583	1.38
224.968	1.84
225.352	3.73
225.736	6.93
226.121	3.96
226.505	8.21
226.889	3.89
227.273	1.35
227.657	-4.39
228.041	5.94
228.425	5.81
228.809	7.73
229.193	4.12
229.577	5.61
229.961	4.11
230.344	4.59
230.728	4.9
231.112	5.78
231.495	4.54
231.879	5.49
232.263	5.3
232.646	5.65
233.03	5.73
233.413	4.5
233.797	5.48
234.18	4.91
234.563	3.15
234.946	3.97
235.33	5.51
235.713	4.98
236.096	6.09
236.479	7.19
236.862	7.09
237.245	5.62
237.628	4.77
238.011	6.28
238.394	4.55
238.777	5.47
239.16	4.48
239.543	6.36
239.925	5.26
240.308	6.37
240.691	6.2
241.073	5.5
241.456	5.51
241.838	5.1
242.221	4.41
242.603	5.61
242.986	5.46
243.368	5.23
243.75	5.73
244.133	4.99
244.515	5.17
244.897	5.73
245.279	5.84
245.661	5.1
246.043	4.13
246.425	6.99
246.807	6.2
247.189	6.1
247.571	5.44
247.953	5.66
248.335	5.29
248.717	5.64
249.098	5.64
249.48	5.48
249.862	5.47
250.243	5.4
250.625	5.71
251.006	5.26
251.388	6.14
251.769	6.43
252.151	6.85
252.532	6.26
252.913	5.09
253.295	5.9
253.676	6.11
254.057	5.74
254.438	6.2
254.819	6.31
255.2	4.83
255.581	5.73
255.962	6.15
256.343	5.35
256.724	5.64
257.105	6.41
257.486	5.52
257.867	6.89
258.247	6.05
258.628	5.16
259.009	5.32
259.389	5.2
259.77	5.23
260.15	6.04
260.531	5.7
260.911	5.19
261.292	5.47
261.672	5.78
262.052	5.47
262.432	5.65
262.813	5.17
263.193	5.58
263.573	5.96
263.953	5.73
264.333	5.81
264.713	5.74
265.093	6.01
265.473	5.46
265.853	5.92
266.233	5.13
266.612	5.99
266.992	5.13
267.372	5.59
267.752	4.8
268.131	5.6
268.511	5.89
268.89	5.79
269.27	5.95
269.649	4.9
270.029	4.78
270.408	5.63
270.787	5.1
271.167	6.03
271.546	6.08
271.925	5.46
272.304	5.3
272.683	5.53
273.062	4.93
273.441	5.44
273.82	5.22
274.199	5.58
274.578	4.84
274.957	5.49
275.336	5.58
275.715	5.31
276.093	5.25
276.472	6.36
276.851	5.59
277.229	5.45
277.608	5.32
277.986	5.02
278.365	5.12
278.743	5.03
279.122	5.29
279.5	5.34
279.878	5.41
280.257	5.52
280.635	5.06
281.013	5.49
281.391	5.16
281.769	5.15
282.147	5.76
282.525	6.04
282.903	5.14
283.281	4.97
283.659	5.67
284.037	4.95
284.415	5.03
284.792	5.06
285.17	5.13
285.548	5.91
285.925	5.31
286.303	5.61
286.68	5.22
287.058	5.49
287.435	5.4
287.813	5.53
288.19	5.24
288.567	5.31
288.945	5.38
289.322	5.72
289.699	5.43
290.076	5.91
290.453	5.03
290.83	5.59
291.207	5.4
291.584	5.41
291.961	5.3
292.338	6.11
292.715	5.65
293.092	5.64
293.469	6.16
293.845	5.93
294.222	5.53
294.599	5.17
294.975	6.05
295.352	6.18
295.728	6.22
296.105	5.67
296.481	5.87
296.858	6.06
297.234	5.88
297.61	6.19
297.986	6.27
298.363	6.31
298.739	6.2
299.115	6.52
299.491	6.34
299.867	6.43
300.243	6.66
300.619	6.84
300.995	7.17
301.371	6.31
301.746	6.46
302.122	6.93
302.498	6.94
302.874	6.66
303.249	6.96
303.625	7.1
304	7.16
304.376	7.35
304.751	6.95
305.127	7.11
305.502	6.95
305.878	7.79
306.253	7.08
306.628	6.99
307.003	7.64
307.378	7.7
307.754	8.29
308.129	8.05
308.504	8.05
308.879	7.7
309.254	7.8
309.629	7.92
310.003	8.2
310.378	7.26
310.753	7.54
311.128	8.34
311.502	8.32
311.877	8.05
312.252	8.44
312.626	8.42
313.001	8.45
313.375	8.97
313.75	8.24
314.124	9
314.498	8.74
314.873	8.45
315.247	8.57
315.621	9.63
315.995	9.59
316.369	9.04
316.743	9.19
317.117	9.01
317.491	9.06
317.865	9.43
318.239	9.41
318.613	9.83
318.987	9.82
319.361	8.93
319.734	9.67
320.108	10.59
320.482	8.9
320.855	10.31
321.229	10.16
321.602	9.88
321.976	10.31
322.349	9.92
322.723	10.68
323.096	10.41
323.469	9.99
323.843	9.32
324.216	10.96
324.589	10.15
324.962	9.88
325.335	10.07
325.708	10.64
326.081	10.36
326.454	11.07
326.827	10.29
327.2	10.79
327.573	11.19
327.945	11.3
328.318	10.54
328.691	11.03
329.063	11.17
329.436	10.69
329.809	11.15
330.181	11.75
330.553	11.12
330.926	11.31
331.298	10.5
331.671	10.86
332.043	11.48
332.415	11.78
332.787	11.19
333.159	11.73
333.532	11.67
333.904	11.41
334.276	11.63
334.648	11.41
335.02	11.34
335.391	11.58
335.763	11.12
336.135	11.14
336.507	11.48
336.879	11.84
337.25	11.97
337.622	12.05
337.993	11.75
338.365	11.83
338.736	12.22
339.108	12.52
339.479	12.28
339.851	11.75
340.222	12.23
340.593	12.22
340.964	12.3
341.336	11.5
341.707	12.42
342.078	11.8
342.449	12.25
342.82	12.53
343.191	12.33
343.562	12.36
343.933	12.32
344.303	12.2
344.674	12.31
345.045	12.29
345.416	12.56
345.786	12.42
346.157	12.82
346.527	12.75
346.898	12.88
347.268	12.37
347.639	12.62
348.009	12.89
348.38	12.76
348.75	12.91
349.12	13.12
349.49	13.27
349.861	12.8
350.231	13.02
350.601	13.16
350.971	12.86
351.341	13.15
351.711	13.79
352.081	13.25
352.45	12.51
352.82	12.58
353.19	13.53
353.56	13.65
353.929	13.42
354.299	13.25
354.669	13.13
355.038	13.42
355.408	13.42
355.777	13.72
356.147	13.26
356.516	13.89
356.885	13.55
357.254	13.29
357.624	13.8
357.993	13.83
358.362	13.55
358.731	13.9
359.1	13.94
359.469	14.05
359.838	13.52
360.207	13.83
360.576	13.93
360.945	13.58
361.314	13.96
361.682	13.73
362.051	14.21
362.42	14.19
362.788	13.96
363.157	13.75
363.525	13.75
363.894	14.15
364.262	13.61
364.631	14.02
364.999	14.04
365.367	14.31
365.735	14.16
366.104	14.33
366.472	13.97
366.84	14.42
367.208	14.56
367.576	14.46
367.944	14.42
368.312	14.44
368.68	14.45
369.048	14.52
369.416	14.34
369.783	14.43
370.151	15.04
370.519	14.92
370.886	14.46
371.254	14.82
371.621	14.92
371.989	14.43
372.356	14.6
372.724	14.99
373.091	15.08
373.458	14.77
373.826	15.38
374.193	15.39
374.56	14.93
374.927	14.8
375.294	14.74
375.661	15.37
376.028	15.28
376.395	15.54
376.762	15.52
377.129	14.93
377.496	15.4
377.863	15.03
378.229	15.39
378.596	15.57
378.963	15.38
379.329	15.49
379.696	15.03
380.062	15.44
380.429	15.45
380.795	15.67
381.161	15.69
381.528	15.53
381.894	15.4
382.26	15.1
382.626	15.81
382.993	15.63
383.359	15.67
383.725	15.48
384.091	16
384.457	15.62
384.823	15.75
385.188	15.59
385.554	15.59
385.92	15.83
386.286	15.52
386.651	15.75
387.017	15.62
387.383	15.68
387.748	15.89
388.114	15.82
388.479	16.15
388.845	15.66
389.21	15.78
389.575	15.94
389.94	15.93
390.306	15.79
390.671	15.94
391.036	16.09
391.401	15.76
391.766	15.91
392.131	15.77
392.496	15.9
392.861	16.04
393.226	16.3
393.591	16.12
393.956	16.2
394.32	16.07
394.685	16.05
395.05	16.22
395.414	16.14
395.779	16.25
396.143	16.28
396.508	16.25
396.872	16.41
397.236	16.3
397.601	16.42
397.965	16.24
398.329	16.18
398.694	16.13
399.058	16.36
399.422	16.11
399.786	16.26
400.15	16
400.514	16.38
400.878	15.97
401.242	16.12
401.605	16.16
401.969	16.48
402.333	15.96
402.697	16.22
403.06	16.54
403.424	16.62
403.787	16.45
404.151	16.52
404.514	16.41
404.878	16.49
405.241	16.5
405.604	16.28
405.968	16.38
406.331	16.32
406.694	16.35
407.057	16.33
407.42	16.42
407.783	16.53
408.146	16.63
408.509	16.68
408.872	16.65
409.235	16.59
409.598	16.75
409.961	16.61
410.323	16.55
410.686	16.59
411.049	16.3
411.411	16.24
411.774	16.64
412.136	16.58
412.499	16.39
412.861	16.7
413.223	16.77
413.586	16.59
413.948	16.66
414.31	17.01
414.672	16.88
415.035	16.76
415.397	16.49
415.759	16.82
416.121	17.29
416.483	17.11
416.845	17.14
417.206	16.97
417.568	16.92
417.93	17.18
418.292	17.24
418.653	17.22
419.015	17.4
419.377	17.22
419.738	17.2
420.1	17.14
420.461	17.41
420.822	17.3
421.184	17.37
421.545	17.34
421.906	17.47
422.267	17.42
422.629	17.32
422.99	17.64
423.351	17.54
423.712	17.79
424.073	17.59
424.434	17.76
424.795	18.01
425.155	17.9
425.516	17.99
425.877	17.98
426.238	18.07
426.598	18.13
426.959	18.15
427.32	18.44
427.68	18.39
428.041	18.44
428.401	18.62
428.761	18.66
429.122	18.8
429.482	18.85
429.842	18.96
430.202	18.93
430.563	19.05
430.923	19.49
431.283	18.91
431.643	19.35
432.003	19.57
432.363	19.37
432.722	19.48
433.082	19.37
433.442	19.48
433.802	19.58
434.161	19.72
434.521	19.54
434.881	19.91
435.24	19.92
435.6	19.64
435.959	20.1
436.319	19.85
436.678	19.84
437.037	20.03
437.396	20.16
437.756	20.24
438.115	20.44
438.474	20.44
438.833	20.55
439.192	20.49
439.551	20.82
439.91	20.58
440.269	20.53
440.628	20.66
440.987	20.74
441.345	20.69
441.704	20.72
442.063	20.84
442.421	20.72
442.78	20.81
443.138	20.85
443.497	20.82
443.855	20.99
444.214	21.08
444.572	21.38
444.93	21.25
445.288	21.34
445.647	21.17
446.005	21.37
446.363	21.2
446.721	21.2
447.079	21.32
447.437	21.38
447.795	21.49
448.153	21.33
448.51	21.29
448.868	21.46
449.226	21.56
449.584	21.57
449.941	21.67
450.299	21.9
450.656	21.89
451.014	22.03
451.371	22.14
451.729	22.3
452.086	22.1
452.443	22.18
452.801	22.42
453.158	22.46
453.515	22.3
453.872	22.38
454.229	22.38
454.586	22.32
454.943	22.73
455.3	22.76
455.657	22.85
456.014	22.9
456.371	22.81
456.727	22.69
457.084	22.96
457.441	23.03
457.797	22.98
458.154	23.21
458.51	23.3
458.867	23.14
459.223	22.94
459.58	23.31
459.936	23.23
460.292	23.03
460.648	23.18
461.005	23.18
461.361	23.16
461.717	23.11
462.073	23.28
462.429	23.38
462.785	23.4
463.141	23.69
463.496	23.63
463.852	23.79
464.208	23.91
464.564	24.15
464.919	24.1
465.275	24.05
465.631	24.03
465.986	24.44
466.342	24.09
466.697	24.04
467.052	23.95
467.408	24.41
467.763	24.47
468.118	24.32
468.473	24.4
468.829	24.56
469.184	24.51
469.539	24.77
469.894	24.66
470.249	24.72
470.603	24.67
470.958	24.92
471.313	24.8
471.668	25.11
472.023	25.06
472.377	24.95
472.732	25.15
473.086	24.98
473.441	25.05
473.795	25.01
474.15	24.97
474.504	25.26
474.859	25.27
475.213	25.23
475.567	25.37
475.921	25.8
476.275	25.33
476.63	25.52
476.984	25.66
477.338	25.57
477.692	25.75
478.045	25.64
478.399	25.68
478.753	25.62
479.107	25.68
479.461	25.86
479.814	25.73
480.168	25.65
480.521	25.85
480.875	25.99
481.228	25.97
481.582	26.17
481.935	26.29
482.289	26.09
482.642	26.02
482.995	26.06
483.348	25.95
483.701	25.87
484.055	25.96
484.408	26.01
484.761	25.73
485.114	25.33
485.466	25.2
485.819	25.31
486.172	25.43
486.525	25.66
486.878	25.73
487.23	25.86
487.583	26.11
487.936	26.15
488.288	26.11
488.641	26.02
488.993	25.91
489.345	25.98
489.698	25.97
490.05	26.22
490.402	26.22
490.754	26.41
491.107	26.58
491.459	26.8
491.811	26.91
492.163	26.79
492.515	26.84
492.866	26.65
493.218	26.47
493.57	26.57
493.922	26.68
494.274	26.93
494.625	27.09
494.977	27.26
495.328	27.39
495.68	27.58
496.031	27.72
496.383	27.83
496.734	27.9
497.086	27.86
497.437	27.99
497.788	27.99
498.139	27.89
498.49	27.99
498.842	28
499.193	27.98
499.544	27.96
499.894	28.18
500.245	28.12
500.596	28.21
500.947	28.21
501.298	28.46
501.648	28.53
501.999	28.7
502.35	28.56
502.7	28.62
503.051	28.78
503.401	28.76
503.752	28.64
504.102	29.2
504.452	28.77
504.803	29.07
505.153	28.95
505.503	29.18
505.853	29.17
506.203	29.02
506.553	28.96
506.903	29.04
507.253	29.24
507.603	29.44
507.953	29.5
508.303	29.32
508.652	29.38
509.002	29.32
509.352	29.36
509.701	29.43
510.051	29.51
510.4	29.66
510.75	29.34
511.099	29.55
511.449	29.43
511.798	29.56
512.147	29.6
512.496	29.74
512.846	29.69
513.195	29.71
513.544	29.88
513.893	29.81
514.242	29.8
514.591	29.84
514.939	30.06
515.288	30.12
515.637	30.17
515.986	30.3
516.334	30.04
516.683	30.2
517.032	30.43
517.38	30.5
517.729	30.36
518.077	30.5
518.426	30.4
518.774	30.44
519.122	30.55
519.47	30.35
519.819	30.37
520.167	30.23
520.515	30.25
520.863	30.2
521.211	30.48
521.559	30.46
521.907	30.81
522.255	30.75
522.602	30.86
522.95	30.99
523.298	30.88
523.645	31.17
523.993	30.99
524.341	31.19
524.688	31.24
525.036	31.21
525.383	31.39
525.73	31.32
526.078	31.35
526.425	31.3
526.772	31.05
527.119	31.02
527.466	30.94
527.814	31.08
528.161	31.15
528.508	31.07
528.854	31.13
529.201	31.2
529.548	30.98
529.895	30.75
530.242	30.59
530.588	30.71
530.935	30.85
531.282	30.93
531.628	31.12
531.975	31.26
532.321	31.55
532.667	31.75
533.014	31.94
533.36	31.96
533.706	32.08
534.052	31.88
534.399	31.84
534.745	31.5
535.091	31.52
535.437	31.8
535.783	31.81
536.129	32.02
536.474	32.13
536.82	32.25
537.166	32.45
537.512	32.58
537.857	32.62
538.203	32.49
538.549	32.41
538.894	32.54
539.239	32.72
539.585	32.77
539.93	32.79
540.276	33.02
540.621	33.11
540.966	33.09
541.311	33.18
541.656	33.19
542.001	33.08
542.346	32.95
542.691	32.6
543.036	32.73
543.381	32.54
543.726	32.9
544.071	33.01
544.415	33.01
544.76	33.23
545.105	33.16
545.449	33.4
545.794	33.46
546.138	33.69
546.483	33.6
546.827	33.93
547.171	33.77
547.516	34.06
547.86	33.99
548.204	34.02
548.548	33.73
548.892	33.88
549.236	34.02
549.58	34.35
549.924	34.32
550.268	34.52
550.612	34.73
550.956	34.48
551.3	34.93
551.643	34.95
551.987	34.82
552.33	35.06
552.674	35.26
553.017	35.04
553.361	35.13
553.704	35.25
554.048	35.06
554.391	35.17
554.734	35.04
555.077	35.28
555.42	35.36
555.764	35.43
556.107	35.65
556.45	35.7
556.793	35.69
557.135	35.83
557.478	35.92
557.821	35.92
558.164	35.89
558.507	35.99
558.849	35.78
559.192	35.82
559.534	36.1
559.877	36.31
560.219	36.27
560.562	36.04
560.904	36.54
561.246	36.43
561.589	36.82
561.931	36.61
562.273	36.53
562.615	36.52
562.957	36.71
563.299	36.63
563.641	36.37
563.983	36.37
564.325	36.59
564.667	36.88
565.008	36.87
565.35	36.87
565.692	36.99
566.033	37.14
566.375	37.09
566.716	37.09
567.058	37.61
567.399	37.26
567.741	36.91
568.082	37.07
568.423	37.08
568.764	37.18
569.105	37.2
569.447	37.39
569.788	37.36
570.129	37.45
570.47	37.69
570.811	37.68
571.151	37.71
571.492	37.64
571.833	37.9
572.174	37.73
572.514	38
572.855	37.84
573.195	37.79
573.536	37.73
573.876	37.84
574.217	37.75
574.557	38.02
574.898	38.24
575.238	38.25
575.578	38.43
575.918	38.5
576.258	38.38
576.598	38.33
576.938	38.57
577.278	38.63
577.618	38.59
577.958	38.82
578.298	38.85
578.638	39.14
578.977	38.92
579.317	38.99
579.657	38.98
579.996	39.38
580.336	39.31
580.675	39.21
581.014	39.42
581.354	39.61
581.693	39.52
582.032	39.67
582.372	39.93
582.711	39.6
583.05	39.82
583.389	40.02
583.728	39.73
584.067	39.86
584.406	40.32
584.745	40.04
585.083	39.84
585.422	40.03
585.761	40.04
586.1	40.29
586.438	40.5
586.777	40.17
587.115	40.09
587.454	40.24
587.792	40.37
588.13	40.86
588.469	40.57
588.807	40.74
589.145	40.85
589.483	40.66
589.821	41
590.159	41.09
590.497	41.06
590.835	40.87
591.173	41.24
591.511	41.15
591.849	41.11
592.187	41.16
592.524	41.21
592.862	41.36
593.2	41.23
593.537	41.49
593.875	41.2
594.212	41.42
594.55	41.91
594.887	41.68
595.224	41.64
595.561	41.78
595.899	41.97
596.236	41.82
596.573	41.87
596.91	41.99
597.247	41.96
597.584	41.73
597.921	41.73
598.258	41.86
598.594	41.4
598.931	41.97
599.268	42.06
599.604	42.1
599.941	42.27
600.277	42.13
600.614	42.56
600.95	42.42
601.287	42.56
601.623	42.85
601.959	42.47
602.296	42.8
602.632	42.88
602.968	42.72
603.304	42.21
603.64	42.81
603.976	43.04
604.312	43.46
604.648	42.89
604.984	43.17
605.319	42.8
605.655	42.95
605.991	42.94
606.326	42.95
606.662	43.23
606.998	43.18
607.333	43.07
607.668	43.32
608.004	43.8
608.339	43.68
608.674	43.66
609.01	43.76
609.345	43.76
609.68	43.62
610.015	43.54
610.35	43.61
610.685	43.9
611.02	44.05
611.355	44.01
611.689	43.92
612.024	44.09
612.359	44.35
612.694	44.35
613.028	43.89
613.363	44.47
613.697	44.14
614.032	44.6
614.366	44.55
614.7	44.61
615.035	44.66
615.369	44.34
615.703	45.28
616.037	44.62
616.371	45.55
616.705	45.3
617.039	45.52
617.373	45.35
617.707	45.2
618.041	44.84
618.375	45.59
618.709	45.35
619.042	45.08
619.376	44.94
619.71	45.23
620.043	45.43
620.377	45.78
620.71	45.67
621.043	45.91
621.377	45.67
621.71	46.18
622.043	46.03
622.376	46.01
622.709	46.32
623.043	46.06
623.376	46.15
623.709	46.18
624.041	46.05
624.374	46.08
624.707	46.57
625.04	46.35
625.373	46.66
625.705	46.5
626.038	46.48
626.37	46.19
626.703	46.06
627.035	46.76
627.368	46.73
627.7	47.04
628.032	46.57
628.365	46.78
628.697	46.65
629.029	46.84
629.361	46.4
629.693	46.75
630.025	47.04
630.357	47.54
630.689	47.24
631.021	47.64
631.353	47.37
631.684	47.69
632.016	47.16
632.348	47.29
632.679	47.6
633.011	47.39
633.342	47.22
633.674	47.57
634.005	47.95
634.336	47.32
634.668	47.44
634.999	48.05
635.33	48.09
635.661	47.81
635.992	47.82
636.323	48.2
636.654	48.17
636.985	47.87
637.316	48.31
637.647	48.26
637.977	47.98
638.308	48.79
638.639	48.76
638.969	48.18
639.3	48.95
639.63	48.41
639.961	48.28
640.291	48.52
640.622	48.61
640.952	47.56
641.282	48.5
641.612	49.41
641.943	49.37
642.273	49.14
642.603	49.1
642.933	48.92
643.263	49.31
643.592	49.22
643.922	49.58
644.252	49.29
644.582	49.32
644.911	49.1
645.241	49.2
645.571	49.63
645.9	49.79
646.23	49.88
646.559	49.99
646.888	49.55
647.218	49.88
647.547	49.48
647.876	50.43
648.205	49.77
648.534	49.81
648.863	50.3
649.192	50.42
649.521	50.27
649.85	51.01
650.179	50
650.508	50.23
650.837	49.95
651.165	50.46
651.494	50.69
651.822	50.56
652.151	50.59
652.479	50.36
652.808	50.93
653.136	50.67
653.465	50.32
653.793	50.75
654.121	50.59
654.449	51.58
654.777	51.11
655.105	50.89
655.433	50.92
655.761	51.29
656.089	51.33
656.417	51.41
656.745	51.16
657.073	51.34
657.4	52.38
657.728	51.34
658.056	51.9
658.383	51.03
658.711	52.23
659.038	51.13
659.365	51.76
659.693	51.21
660.02	52.1
660.347	51.84
660.674	51.62
661.001	51.7
661.329	51.95
661.656	51.94
661.982	52.22
662.309	52.28
662.636	52.12
662.963	52.22
663.29	52.37
663.616	53.04
663.943	52.2
664.27	53.52
664.596	52.88
664.923	52.81
665.249	52.46
665.576	52.73
665.902	53.03
666.228	53.74
666.554	53.16
666.881	52.9
667.207	53.26
667.533	53.55
667.859	52.94
668.185	53.46
668.511	52.59
668.837	53
669.162	52.93
669.488	52.94
