Data from 20-50_crown_Reflection__0__35.txt Node

Date: Thu Feb 29 22:09:47 CST 2024
User: ToomeyLab
Spectrometer: FLMS14357
Trigger mode: 0
Integration Time (sec): 1.000000E-2
Scans to average: 100
Electric dark correction enabled: true
Nonlinearity correction enabled: false
Boxcar width: 0
XAxis mode: Wavelengths
Number of Pixels in Spectrum: 2048
>>>>>Begin Spectral Data<<<<<
189.047	37.86
189.435	37.86
189.823	37.86
190.211	-441.42
190.599	32.22
190.987	-44.98
191.375	153.18
191.763	-109.91
192.151	89.19
192.538	-1022.3
192.926	28.92
193.314	87.83
193.702	169.63
194.089	10.73
194.477	-36.48
194.864	-184.57
195.252	17.31
195.639	3047.22
196.027	160.96
196.414	65
196.801	-327.58
197.189	57.55
197.576	-160.99
197.963	-284.75
198.351	-73.71
198.738	-58.28
199.125	-12.38
199.512	2.36
199.899	8.9
200.286	-47.68
200.673	20.89
201.06	-48.61
201.447	-4.04
201.833	-6.55
202.22	-32.27
202.607	-94.65
202.994	-56.32
203.38	-25.88
203.767	4.41
204.154	-20.38
204.54	52.76
204.927	10.92
205.313	32.51
205.699	-55.78
206.086	14.52
206.472	16.14
206.858	-33.64
207.245	6.28
207.631	-7.32
208.017	-34.28
208.403	-67.56
208.789	20.26
209.175	-71.49
209.561	-1.76
209.947	-35.3
210.333	11.07
210.719	-10.19
211.105	-10.23
211.491	-37.46
211.876	10.2
212.262	20.73
212.648	-2.28
213.034	16.79
213.419	25.16
213.805	15.49
214.19	-14.59
214.576	10.45
214.961	27.54
215.346	-15.6
215.732	5.34
216.117	-48.04
216.502	32.56
216.888	-23.28
217.273	23.65
217.658	0.87
218.043	2.33
218.428	-8.02
218.813	3.1
219.198	10.63
219.583	-12.97
219.968	2.4
220.353	-24.22
220.738	-11.91
221.122	-22.86
221.507	3.72
221.892	2.58
222.276	9.32
222.661	5.59
223.046	-5.27
223.43	-18.89
223.815	-7.78
224.199	1.88
224.583	-3.9
224.968	-2.89
225.352	2.56
225.736	-1.82
226.121	-0.62
226.505	10.17
226.889	4.41
227.273	-1.78
227.657	-1.04
228.041	0.82
228.425	5.1
228.809	3.52
229.193	0.87
229.577	1.95
229.961	0.14
230.344	1.33
230.728	1.56
231.112	2.99
231.495	2.06
231.879	3.65
232.263	0.13
232.646	3.84
233.03	1.99
233.413	1.51
233.797	2.99
234.18	-1.08
234.563	-1.72
234.946	1.39
235.33	1.03
235.713	1
236.096	2.04
236.479	3.14
236.862	4.95
237.245	0.53
237.628	1.32
238.011	1.98
238.394	0.36
238.777	1.13
239.16	2.12
239.543	1.05
239.925	1.74
240.308	1.79
240.691	1.37
241.073	1.74
241.456	2.33
241.838	2
242.221	1.38
242.603	1.85
242.986	1.83
243.368	2.36
243.75	2.45
244.133	2.47
244.515	1.97
244.897	2.5
245.279	2.8
245.661	2.74
246.043	1.86
246.425	3.41
246.807	1.89
247.189	1.72
247.571	2.86
247.953	2.53
248.335	1.93
248.717	2.36
249.098	2.42
249.48	2.52
249.862	2.46
250.243	2.65
250.625	2.53
251.006	2.54
251.388	2.1
251.769	2.39
252.151	3.8
252.532	1.85
252.913	1.86
253.295	2.22
253.676	2.72
254.057	2.57
254.438	3
254.819	2.93
255.2	2.03
255.581	2.3
255.962	3.55
256.343	3.2
256.724	2.14
257.105	3.49
257.486	3.12
257.867	3.02
258.247	3.14
258.628	1.03
259.009	1.91
259.389	1.29
259.77	2.18
260.15	2.76
260.531	2.63
260.911	2.24
261.292	2.49
261.672	2.67
262.052	2.59
262.432	2.7
262.813	2.13
263.193	2.35
263.573	2.46
263.953	1.76
264.333	2
264.713	2.68
265.093	2.83
265.473	2.17
265.853	2.68
266.233	2.44
266.612	2.67
266.992	2.49
267.372	1.85
267.752	1.97
268.131	2.76
268.511	2.29
268.89	2.76
269.27	2.12
269.649	2.13
270.029	1.81
270.408	2.19
270.787	2.01
271.167	2.4
271.546	3.18
271.925	1.74
272.304	2.38
272.683	2.73
273.062	1.9
273.441	2.17
273.82	2.9
274.199	2.59
274.578	2.17
274.957	2.39
275.336	2.76
275.715	2.37
276.093	1.79
276.472	3.04
276.851	2.23
277.229	2.22
277.608	2.62
277.986	2.33
278.365	2.59
278.743	2.01
279.122	2.33
279.5	1.74
279.878	1.44
280.257	2.48
280.635	1.62
281.013	2.5
281.391	1.99
281.769	2.55
282.147	2.05
282.525	2.48
282.903	1.86
283.281	2.09
283.659	2.31
284.037	2.14
284.415	1.83
284.792	2.34
285.17	1.74
285.548	2.77
285.925	2.45
286.303	2.07
286.68	2.31
287.058	2.31
287.435	2.53
287.813	2.37
288.19	1.77
288.567	2.34
288.945	2.62
289.322	2.46
289.699	2.18
290.076	2.26
290.453	1.89
290.83	2.42
291.207	2.45
291.584	2.19
291.961	2.13
292.338	2.5
292.715	2.32
293.092	2.13
293.469	2.76
293.845	2.13
294.222	2.51
294.599	1.8
294.975	2.6
295.352	2.7
295.728	2.75
296.105	2.74
296.481	2.27
296.858	2.76
297.234	1.94
297.61	2.34
297.986	2.96
298.363	2.49
298.739	2.45
299.115	2.97
299.491	2.7
299.867	2.58
300.243	2.72
300.619	2.79
300.995	2.86
301.371	2.62
301.746	2.14
302.122	3.02
302.498	3.12
302.874	3.24
303.249	2.48
303.625	3.08
304	2.98
304.376	3.19
304.751	2.79
305.127	2.66
305.502	2.17
305.878	3.08
306.253	2.03
306.628	2.86
307.003	2.73
307.378	3.04
307.754	2.98
308.129	2.8
308.504	3.01
308.879	2.59
309.254	1.94
309.629	2.87
310.003	2.56
310.378	2.33
310.753	2.1
311.128	2.97
311.502	3.18
311.877	2.54
312.252	3.11
312.626	2.87
313.001	2.89
313.375	3.13
313.75	3.33
314.124	3.43
314.498	2.99
314.873	2.72
315.247	2.24
315.621	3.47
315.995	3.23
316.369	2.96
316.743	2.48
317.117	3.49
317.491	2.48
317.865	3.05
318.239	2.66
318.613	3.1
318.987	3.52
319.361	2.66
319.734	3.15
320.108	3.74
320.482	2.84
320.855	2.19
321.229	3.42
321.602	2.7
321.976	3.33
322.349	2.81
322.723	3.54
323.096	2.74
323.469	2.63
323.843	2.42
324.216	2.94
324.589	2.57
324.962	2.39
325.335	2.74
325.708	3.07
326.081	2.53
326.454	2.8
326.827	3
327.2	3.52
327.573	3.14
327.945	2.87
328.318	2.68
328.691	2.94
329.063	2.23
329.436	2.91
329.809	3.04
330.181	3.48
330.553	3.04
330.926	3.14
331.298	3.13
331.671	3.08
332.043	3.14
332.415	2.5
332.787	2.6
333.159	3.14
333.532	2.35
333.904	3.02
334.276	3.27
334.648	2.98
335.02	3.07
335.391	2.62
335.763	2.86
336.135	2.47
336.507	2.74
336.879	2.97
337.25	3.27
337.622	2.81
337.993	3.23
338.365	2.35
338.736	3.25
339.108	3.03
339.479	3.29
339.851	3.31
340.222	3.12
340.593	2.8
340.964	3.1
341.336	2.81
341.707	2.93
342.078	2.7
342.449	2.81
342.82	3.55
343.191	3.24
343.562	3.34
343.933	2.67
344.303	3.21
344.674	2.99
345.045	2.81
345.416	3.07
345.786	3.23
346.157	3.14
346.527	2.97
346.898	3.22
347.268	3.05
347.639	3.39
348.009	2.93
348.38	3.05
348.75	2.98
349.12	3.21
349.49	3.14
349.861	3.29
350.231	3.1
350.601	3.57
350.971	3.14
351.341	3.09
351.711	3.25
352.081	3.24
352.45	2.77
352.82	2.56
353.19	3.38
353.56	2.92
353.929	3.43
354.299	2.57
354.669	2.83
355.038	2.62
355.408	3.26
355.777	3.05
356.147	2.63
356.516	3.46
356.885	3.12
357.254	2.67
357.624	2.85
357.993	2.72
358.362	3.03
358.731	3.38
359.1	3.63
359.469	3.39
359.838	3.05
360.207	3.18
360.576	3.32
360.945	2.98
361.314	3.4
361.682	3.17
362.051	3.09
362.42	3.4
362.788	2.9
363.157	3.2
363.525	3.13
363.894	3.19
364.262	3.02
364.631	3.12
364.999	2.92
365.367	2.77
365.735	3.04
366.104	3.31
366.472	2.65
366.84	3.32
367.208	3.1
367.576	2.99
367.944	2.79
368.312	3.07
368.68	2.76
369.048	2.9
369.416	3.13
369.783	3.26
370.151	3.44
370.519	3.24
370.886	3.05
371.254	3.56
371.621	3.18
371.989	3.25
372.356	3.42
372.724	3.47
373.091	3.19
373.458	3.19
373.826	3.39
374.193	3.38
374.56	3.29
374.927	3.17
375.294	3.09
375.661	3.14
376.028	3.28
376.395	3.19
376.762	3.65
377.129	2.96
377.496	3.38
377.863	3.18
378.229	3.01
378.596	3.09
378.963	3.2
379.329	3.03
379.696	2.86
380.062	3.43
380.429	3.09
380.795	3.26
381.161	3.47
381.528	3.15
381.894	2.88
382.26	3.08
382.626	2.99
382.993	3.24
383.359	3.34
383.725	3.06
384.091	3.68
384.457	3.05
384.823	3.36
385.188	3.23
385.554	2.9
385.92	3.42
386.286	2.89
386.651	3.28
387.017	3.24
387.383	3.35
387.748	3.05
388.114	3.04
388.479	3.2
388.845	3.07
389.21	2.89
389.575	3.49
389.94	3.25
390.306	3.16
390.671	3.47
391.036	3.39
391.401	3.26
391.766	3.13
392.131	3.07
392.496	3.01
392.861	3.06
393.226	3.46
393.591	3.23
393.956	3.16
394.32	3.49
394.685	3.35
395.05	3.62
395.414	3.2
395.779	3.07
396.143	3.33
396.508	3.34
396.872	3.32
397.236	3.3
397.601	3.5
397.965	3.44
398.329	3
398.694	3
399.058	3.47
399.422	2.98
399.786	3.22
400.15	2.98
400.514	3.41
400.878	3.33
401.242	3.09
401.605	3.16
401.969	3.56
402.333	3.21
402.697	3.15
403.06	3.39
403.424	3.54
403.787	3.19
404.151	3.49
404.514	3.38
404.878	3.5
405.241	3.49
405.604	3.14
405.968	3.21
406.331	3.23
406.694	3.39
407.057	3.33
407.42	3.48
407.783	3.3
408.146	3.24
408.509	3.39
408.872	3.33
409.235	3.25
409.598	3.52
409.961	3.58
410.323	3.54
410.686	3.36
411.049	3.13
411.411	3.35
411.774	3.27
412.136	3.36
412.499	3.46
412.861	3.4
413.223	3.1
413.586	3.21
413.948	3.4
414.31	3.56
414.672	3.32
415.035	3.34
415.397	3.18
415.759	3.27
416.121	3.62
416.483	3.44
416.845	3.5
417.206	3.47
417.568	3.24
417.93	3.36
418.292	3.56
418.653	3.31
419.015	3.4
419.377	3.46
419.738	3.36
420.1	3.41
420.461	3.42
420.822	3.32
421.184	3.22
421.545	3.29
421.906	3.35
422.267	3.22
422.629	3.32
422.99	3.28
423.351	3.35
423.712	3.29
424.073	3.22
424.434	3.28
424.795	3.43
425.155	3.4
425.516	3.3
425.877	3.31
426.238	3.28
426.598	3.24
426.959	3.24
427.32	3.4
427.68	3.37
428.041	3.31
428.401	3.33
428.761	3.58
429.122	3.63
429.482	3.38
429.842	3.46
430.202	3.37
430.563	3.6
430.923	3.49
431.283	3.48
431.643	3.51
432.003	3.6
432.363	3.44
432.722	3.49
433.082	3.33
433.442	3.63
433.802	3.45
434.161	3.7
434.521	3.39
434.881	3.46
435.24	3.77
435.6	3.34
435.959	3.55
436.319	3.34
436.678	3.36
437.037	3.42
437.396	3.31
437.756	3.5
438.115	3.47
438.474	3.45
438.833	3.41
439.192	3.59
439.551	3.5
439.91	3.51
440.269	3.36
440.628	3.58
440.987	3.41
441.345	3.49
441.704	3.52
442.063	3.56
442.421	3.35
442.78	3.49
443.138	3.52
443.497	3.54
443.855	3.68
444.214	3.68
444.572	3.61
444.93	3.45
445.288	3.57
445.647	3.41
446.005	3.52
446.363	3.52
446.721	3.5
447.079	3.41
447.437	3.46
447.795	3.55
448.153	3.43
448.51	3.64
448.868	3.49
449.226	3.64
449.584	3.49
449.941	3.57
450.299	3.58
450.656	3.54
451.014	3.51
451.371	3.53
451.729	3.77
452.086	3.56
452.443	3.51
452.801	3.69
453.158	3.63
453.515	3.54
453.872	3.56
454.229	3.53
454.586	3.46
454.943	3.66
455.3	3.64
455.657	3.66
456.014	3.89
456.371	3.73
456.727	3.69
457.084	3.64
457.441	4.01
457.797	3.6
458.154	3.83
458.51	3.67
458.867	3.9
459.223	3.53
459.58	3.72
459.936	3.64
460.292	3.52
460.648	3.74
461.005	3.53
461.361	3.43
461.717	3.64
462.073	3.53
462.429	3.75
462.785	3.69
463.141	3.69
463.496	3.72
463.852	3.82
464.208	3.68
464.564	3.81
464.919	3.84
465.275	3.82
465.631	3.75
465.986	3.96
466.342	3.68
466.697	3.74
467.052	3.47
467.408	3.82
467.763	3.95
468.118	3.75
468.473	3.85
468.829	3.89
469.184	3.73
469.539	3.95
469.894	3.61
470.249	3.74
470.603	3.74
470.958	3.9
471.313	3.57
471.668	3.73
472.023	3.76
472.377	3.74
472.732	3.87
473.086	3.99
473.441	3.89
473.795	3.9
474.15	3.63
474.504	3.84
474.859	3.89
475.213	3.78
475.567	3.94
475.921	3.84
476.275	3.9
476.63	3.9
476.984	3.9
477.338	3.71
477.692	3.73
478.045	3.71
478.399	3.76
478.753	3.89
479.107	3.84
479.461	3.85
479.814	3.77
480.168	3.74
480.521	3.76
480.875	3.78
481.228	3.78
481.582	3.99
481.935	3.78
482.289	3.94
482.642	3.76
482.995	3.74
483.348	3.83
483.701	3.87
484.055	3.83
484.408	3.84
484.761	3.86
485.114	3.58
485.466	3.56
485.819	3.58
486.172	3.61
486.525	3.71
486.878	3.79
487.23	3.78
487.583	3.75
487.936	3.79
488.288	3.72
488.641	3.68
488.993	3.68
489.345	3.7
489.698	3.69
490.05	3.71
490.402	3.84
490.754	3.84
491.107	3.88
491.459	3.88
491.811	3.88
492.163	3.86
492.515	3.84
492.866	3.77
493.218	3.64
493.57	3.7
493.922	3.84
494.274	3.86
494.625	3.9
494.977	3.92
495.328	3.99
495.68	4.03
496.031	3.89
496.383	3.87
496.734	3.97
497.086	3.92
497.437	4.21
497.788	3.93
498.139	4.02
498.49	3.95
498.842	3.93
499.193	4.17
499.544	4.01
499.894	4.04
500.245	3.93
500.596	3.98
500.947	3.97
501.298	4.16
501.648	3.92
501.999	4.06
502.35	4.1
502.7	4.12
503.051	4.05
503.401	3.86
503.752	4.04
504.102	4.1
504.452	4.07
504.803	4.16
505.153	4.04
505.503	4.27
505.853	4.2
506.203	3.95
506.553	4.07
506.903	4
507.253	4.11
507.603	4.03
507.953	4.13
508.303	4.11
508.652	4.15
509.002	4.14
509.352	4.14
509.701	4.05
510.051	4.03
510.4	4.16
510.75	4.04
511.099	4.13
511.449	4.17
511.798	4.06
512.147	4.04
512.496	4.06
512.846	3.92
513.195	4.04
513.544	4.22
513.893	4.03
514.242	4.02
514.591	4.07
514.939	4.12
515.288	4.22
515.637	4.11
515.986	4.16
516.334	4.18
516.683	4.22
517.032	4.31
517.38	4.24
517.729	4.24
518.077	4.24
518.426	4.2
518.774	4.16
519.122	4.13
519.47	4.07
519.819	4.11
520.167	3.99
520.515	4.03
520.863	3.97
521.211	4.14
521.559	4.2
521.907	4.2
522.255	4.08
522.602	4.13
522.95	4.15
523.298	4.13
523.645	4.11
523.993	4.12
524.341	4.23
524.688	4.16
525.036	4.18
525.383	4.12
525.73	4.42
526.078	4.22
526.425	4.25
526.772	4.2
527.119	4.14
527.466	4.19
527.814	4.12
528.161	4.21
528.508	4.16
528.854	4.14
529.201	4.01
529.548	3.99
529.895	3.98
530.242	3.93
530.588	3.94
530.935	4
531.282	4.04
531.628	4.08
531.975	4.1
532.321	4.14
532.667	4.25
533.014	4.31
533.36	4.22
533.706	4.32
534.052	4.21
534.399	4.19
534.745	4.03
535.091	4.01
535.437	4.15
535.783	4.09
536.129	4.26
536.474	4.25
536.82	4.27
537.166	4.24
537.512	4.28
537.857	4.22
538.203	4.27
538.549	4.12
538.894	4.25
539.239	4.28
539.585	4.28
539.93	4.22
540.276	4.37
540.621	4.24
540.966	4.34
541.311	4.31
541.656	4.28
542.001	4.23
542.346	4.2
542.691	4.09
543.036	4.16
543.381	4.06
543.726	4.18
544.071	4.25
544.415	4.24
544.76	4.32
545.105	4.15
545.449	4.23
545.794	4.27
546.138	4.37
546.483	4.34
546.827	4.39
547.171	4.31
547.516	4.48
547.86	4.29
548.204	4.29
548.548	4.29
548.892	4.15
549.236	4.34
549.58	4.44
549.924	4.33
550.268	4.41
550.612	4.44
550.956	4.39
551.3	4.51
551.643	4.5
551.987	4.39
552.33	4.46
552.674	4.56
553.017	4.32
553.361	4.4
553.704	4.51
554.048	4.43
554.391	4.38
554.734	4.45
555.077	4.36
555.42	4.44
555.764	4.31
556.107	4.58
556.45	4.3
556.793	4.43
557.135	4.36
557.478	4.25
557.821	4.5
558.164	4.46
558.507	4.56
558.849	4.55
559.192	4.49
559.534	4.57
559.877	4.63
560.219	4.57
560.562	4.48
560.904	4.53
561.246	4.23
561.589	4.45
561.931	4.28
562.273	4.66
562.615	4.5
562.957	4.53
563.299	4.55
563.641	4.46
563.983	4.51
564.325	4.58
564.667	4.62
565.008	4.61
565.35	4.67
565.692	4.42
566.033	4.56
566.375	4.58
566.716	4.66
567.058	4.68
567.399	4.71
567.741	4.5
568.082	4.59
568.423	4.49
568.764	4.73
569.105	4.4
569.447	4.45
569.788	4.56
570.129	4.6
570.47	4.66
570.811	4.51
571.151	4.84
571.492	4.56
571.833	4.58
572.174	4.67
572.514	4.61
572.855	4.58
573.195	4.59
573.536	4.66
573.876	4.49
574.217	4.69
574.557	4.53
574.898	4.72
575.238	4.56
575.578	4.68
575.918	4.67
576.258	4.61
576.598	4.55
576.938	4.65
577.278	4.48
577.618	4.75
577.958	4.6
578.298	4.73
578.638	4.61
578.977	4.68
579.317	4.78
579.657	4.65
579.996	4.6
580.336	4.94
580.675	4.73
581.014	4.7
581.354	4.37
581.693	4.8
582.032	4.81
582.372	4.88
582.711	4.87
583.05	4.86
583.389	4.77
583.728	4.58
584.067	4.55
584.406	4.71
584.745	4.91
585.083	4.67
585.422	4.68
585.761	4.79
586.1	4.46
586.438	4.59
586.777	4.8
587.115	4.58
587.454	4.75
587.792	4.73
588.13	4.7
588.469	4.47
588.807	4.7
589.145	4.76
589.483	4.82
589.821	4.47
590.159	4.73
590.497	4.63
590.835	4.78
591.173	4.99
591.511	4.56
591.849	4.73
592.187	4.66
592.524	4.67
592.862	4.66
593.2	4.68
593.537	4.47
593.875	4.97
594.212	4.65
594.55	4.91
594.887	5.46
595.224	4.84
595.561	4.83
595.899	4.97
596.236	4.49
596.573	4.9
596.91	4.65
597.247	4.8
597.584	4.91
597.921	4.53
598.258	4.78
598.594	4.77
598.931	4.72
599.268	4.51
599.604	4.88
599.941	4.85
600.277	5.01
600.614	4.88
600.95	5.13
601.287	4.84
601.623	5.05
601.959	5.04
602.296	4.66
602.632	4.7
602.968	4.97
603.304	4.67
603.64	5
603.976	4.93
604.312	5.02
604.648	4.63
604.984	4.69
605.319	5.14
605.655	4.66
605.991	4.69
606.326	4.95
606.662	4.84
606.998	4.81
607.333	4.68
607.668	5.06
608.004	5.11
608.339	4.75
608.674	4.76
609.01	4.92
609.345	5
609.68	4.75
610.015	4.99
610.35	4.77
610.685	4.85
611.02	5.03
611.355	4.94
611.689	4.95
612.024	4.79
612.359	5.05
612.694	5.26
613.028	4.73
613.363	5.09
613.697	4.88
614.032	5.03
614.366	4.85
614.7	4.6
615.035	4.87
615.369	4.71
615.703	5
616.037	5.07
616.371	5.37
616.705	4.96
617.039	4.98
617.373	5.16
617.707	5.18
618.041	4.95
618.375	5.3
618.709	4.85
619.042	4.75
619.376	5.02
619.71	5.22
620.043	5.34
620.377	5.33
620.71	4.82
621.043	5.32
621.377	5.4
621.71	5.35
622.043	5
622.376	5.15
622.709	5.39
623.043	5.22
623.376	5.16
623.709	4.98
624.041	5.1
624.374	4.99
624.707	5.08
625.04	5.09
625.373	5
625.705	5.2
626.038	4.95
626.37	4.96
626.703	5.32
627.035	5.19
627.368	5.14
627.7	5.28
628.032	5.08
628.365	5.34
628.697	4.94
629.029	5.22
629.361	5.11
629.693	5.18
630.025	4.99
630.357	5.1
630.689	5.19
631.021	5.37
631.353	4.95
631.684	4.82
632.016	4.75
632.348	5.18
632.679	5.14
633.011	5.51
633.342	5.27
633.674	5.16
634.005	5.36
634.336	5.14
634.668	5.39
634.999	5.28
635.33	5.24
635.661	5.61
635.992	4.91
636.323	5.28
636.654	5.38
636.985	5.42
637.316	5.11
637.647	5.1
637.977	4.85
638.308	5.89
638.639	5.38
638.969	5.52
639.3	5.61
639.63	5.14
639.961	5.45
640.291	5.03
640.622	5.57
640.952	4.64
641.282	5.58
641.612	5.39
641.943	5.5
642.273	5.11
642.603	4.95
642.933	5.39
643.263	5.69
643.592	5.11
643.922	5.36
644.252	5.64
644.582	5.09
644.911	5.18
645.241	5.42
645.571	5.19
645.9	5.22
646.23	5.47
646.559	5.22
646.888	5.71
647.218	5.31
647.547	5.23
647.876	5.09
648.205	4.85
648.534	5.31
648.863	5.58
649.192	5.48
649.521	5.34
649.85	5.43
650.179	5.48
650.508	5.73
650.837	5.39
651.165	5.58
651.494	5.57
651.822	4.97
652.151	5.54
652.479	5.21
652.808	5.37
653.136	5.15
653.465	5.01
653.793	5.43
654.121	5.29
654.449	5.91
654.777	5.57
655.105	4.99
655.433	5.19
655.761	5.35
656.089	4.92
656.417	5.58
656.745	5.43
657.073	5.6
657.4	5.51
657.728	5.98
658.056	5.34
658.383	5.1
658.711	5.41
659.038	5.47
659.365	5.24
659.693	5.33
660.02	5.27
660.347	5.86
660.674	5.18
661.001	4.69
661.329	5.27
661.656	5.12
661.982	5.67
662.309	6.03
662.636	5.34
662.963	5.16
663.29	5.13
663.616	5.9
663.943	5.52
664.27	5.85
664.596	5.6
664.923	5.58
665.249	5.4
665.576	5.56
665.902	5.47
666.228	5.83
666.554	4.97
666.881	5.74
667.207	5.36
667.533	5.09
667.859	5.61
668.185	5.44
668.511	5.83
668.837	6
669.162	4.89
669.488	5.56
669.814	5.64
670.139	5.06
670.465	6
670.791	5.71
671.116	5.54
671.442	5.56
671.767	5.16
672.092	6.37
672.418	5.83
672.743	5.69
673.068	5.76
673.393	5.35
673.718	5.42
674.043	5.39
674.368	6.5
674.693	6.22
675.018	5.79
675.343	5.25
675.667	5.04
675.992	5.48
676.317	5.05
676.641	5.28
676.966	5.41
677.29	5.66
677.615	5.44
677.939	5.9
678.264	6.06
678.588	5.78
678.912	5.63
679.236	5.99
679.56	6.19
679.885	6.16
680.209	5.94
680.532	5.72
680.856	6.06
681.18	6.06
681.504	5.42
681.828	6.03
682.152	5.83
682.475	5.97
682.799	5.4
683.122	5.93
683.446	6.1
683.769	6.04
684.093	5.67
684.416	6.31
684.739	6.27
685.062	5.45
685.386	6.73
685.709	5.36
686.032	6.02
686.355	5.8
686.678	6
687.001	5.97
687.324	6.23
687.646	6.2
687.969	5.63
688.292	6.48
688.614	5.92
688.937	5.28
689.26	5.85
689.582	6
689.904	6.13
690.227	5.8
690.549	4.89
690.871	5.94
691.194	4.76
691.516	5.52
691.838	5.79
692.16	6.46
692.482	5.7
