Data from 20-50_crown_Reflection__3__38.txt Node

Date: Thu Feb 29 22:10:19 CST 2024
User: ToomeyLab
Spectrometer: FLMS14357
Trigger mode: 0
Integration Time (sec): 1.000000E-2
Scans to average: 100
Electric dark correction enabled: true
Nonlinearity correction enabled: false
Boxcar width: 0
XAxis mode: Wavelengths
Number of Pixels in Spectrum: 2048
>>>>>Begin Spectral Data<<<<<
189.047	54.58
189.435	54.58
189.823	54.58
190.211	483.4
190.599	66.86
190.987	-7.06
191.375	11.46
191.763	-84.32
192.151	230.32
192.538	611.15
192.926	196.91
193.314	20.25
193.702	130.55
194.089	7
194.477	128.36
194.864	231.41
195.252	61.81
195.639	-3001.39
196.027	170.16
196.414	18.34
196.801	-81.37
197.189	58.02
197.576	24.14
197.963	-254.72
198.351	-73
198.738	31.02
199.125	28.35
199.512	-54.52
199.899	-47.76
200.286	3.34
200.673	10.46
201.06	-50.61
201.447	-14.5
201.833	30.56
202.22	-16.12
202.607	-53.27
202.994	-159.28
203.38	-90.32
203.767	-34.01
204.154	10.3
204.54	18.41
204.927	21.89
205.313	19.57
205.699	-5.79
206.086	-6.98
206.472	4.28
206.858	-40.88
207.245	-9.79
207.631	50.41
208.017	1.87
208.403	-51.43
208.789	4.85
209.175	-25.76
209.561	23.35
209.947	-10.39
210.333	14.3
210.719	-0.89
211.105	-9.66
211.491	6.08
211.876	-3.16
212.262	18.91
212.648	-47.94
213.034	-9.15
213.419	21.05
213.805	-17.53
214.19	-2.39
214.576	18.07
214.961	8.02
215.346	32.4
215.732	0.52
216.117	-36.88
216.502	2.45
216.888	-36.69
217.273	16.71
217.658	21.57
218.043	18.52
218.428	-19.26
218.813	1.25
219.198	4.54
219.583	6.05
219.968	0.37
220.353	-32.42
220.738	-8.97
221.122	-3.92
221.507	5.97
221.892	4.94
222.276	8.46
222.661	-0.85
223.046	11.55
223.43	-9.46
223.815	-3.17
224.199	2.37
224.583	-0.53
224.968	-9.42
225.352	4.3
225.736	6.46
226.121	-0.91
226.505	14.15
226.889	1.06
227.273	-1.59
227.657	-2.4
228.041	2.83
228.425	4.27
228.809	11.11
229.193	1
229.577	4.77
229.961	1.99
230.344	3.08
230.728	3.86
231.112	5.23
231.495	3.09
231.879	3.9
232.263	2.48
232.646	3.01
233.03	5.11
233.413	3.35
233.797	1.66
234.18	2.13
234.563	1.23
234.946	3.6
235.33	2.24
235.713	2.04
236.096	3.91
236.479	4.87
236.862	5.35
237.245	4.14
237.628	3.75
238.011	4.68
238.394	3.37
238.777	3.64
239.16	5.74
239.543	2.53
239.925	2.16
240.308	4.87
240.691	4.4
241.073	4.76
241.456	5.1
241.838	4.3
242.221	4.03
242.603	4.95
242.986	3.4
243.368	4.09
243.75	4.17
244.133	4.18
244.515	3.92
244.897	4.91
245.279	4.64
245.661	3.54
246.043	3.66
246.425	5.62
246.807	4.54
247.189	3.83
247.571	3.89
247.953	4.19
248.335	4.1
248.717	4.39
249.098	4.51
249.48	4.4
249.862	4.1
250.243	4.58
250.625	4.74
251.006	4.49
251.388	3.96
251.769	3.17
252.151	4.81
252.532	3.97
252.913	3.68
253.295	3.4
253.676	4.16
254.057	3.81
254.438	4.36
254.819	4.4
255.2	2.96
255.581	4.16
255.962	3.46
256.343	4.53
256.724	3.83
257.105	3.83
257.486	4.26
257.867	4.46
258.247	4.51
258.628	4.04
259.009	3.42
259.389	3.16
259.77	5.05
260.15	4.05
260.531	4.57
260.911	3.68
261.292	4.05
261.672	4.08
262.052	4.38
262.432	4.28
262.813	3.88
263.193	4.31
263.573	3.47
263.953	3.4
264.333	3.54
264.713	3.5
265.093	3.99
265.473	4.33
265.853	4.91
266.233	3.86
266.612	4.39
266.992	4.04
267.372	3.77
267.752	3.92
268.131	3.95
268.511	4.4
268.89	3.87
269.27	3.88
269.649	3.45
270.029	3.45
270.408	3.59
270.787	3.4
271.167	3.62
271.546	3.95
271.925	3.85
272.304	4.09
272.683	3.96
273.062	3.89
273.441	3.96
273.82	3.9
274.199	3.89
274.578	3.76
274.957	3.98
275.336	4.09
275.715	4.23
276.093	3.76
276.472	5.08
276.851	3.57
277.229	4.11
277.608	4.07
277.986	3.44
278.365	4.19
278.743	3.77
279.122	3.87
279.5	3.55
279.878	3.5
280.257	4
280.635	3.61
281.013	4.34
281.391	3.42
281.769	4.08
282.147	3.71
282.525	3.83
282.903	3.47
283.281	3.54
283.659	4.1
284.037	3.66
284.415	3.25
284.792	3.52
285.17	3.63
285.548	4
285.925	3.59
286.303	3.9
286.68	3.34
287.058	3.49
287.435	3.87
287.813	3.59
288.19	3.65
288.567	3.9
288.945	3.79
289.322	4.13
289.699	3.59
290.076	3.97
290.453	3.45
290.83	3.72
291.207	3.45
291.584	3.8
291.961	3.88
292.338	4.01
292.715	3.66
293.092	3.84
293.469	4.26
293.845	4.27
294.222	3.87
294.599	3.65
294.975	3.99
295.352	3.74
295.728	3.93
296.105	3.94
296.481	3.85
296.858	4.11
297.234	3.41
297.61	3.67
297.986	3.6
298.363	3.9
298.739	3.88
299.115	4.16
299.491	3.92
299.867	3.76
300.243	3.65
300.619	4.02
300.995	4.22
301.371	4.01
301.746	3.82
302.122	3.81
302.498	3.7
302.874	4.18
303.249	3.47
303.625	4.04
304	4.66
304.376	4.27
304.751	3.56
305.127	3.77
305.502	3.73
305.878	4.4
306.253	3.52
306.628	3.6
307.003	3.6
307.378	4.28
307.754	4.56
308.129	4.18
308.504	4.07
308.879	3.84
309.254	3.42
309.629	3.8
310.003	3.69
310.378	3.87
310.753	3.44
311.128	3.64
311.502	3.95
311.877	3.76
312.252	4.03
312.626	4.17
313.001	4.1
313.375	4.2
313.75	4.15
314.124	3.78
314.498	4.12
314.873	3.99
315.247	3.77
315.621	4.1
315.995	4.57
316.369	4.11
316.743	3.81
317.117	4.42
317.491	3.45
317.865	4.3
318.239	3.47
318.613	4.38
318.987	4.29
319.361	3.45
319.734	4.27
320.108	4.39
320.482	4
320.855	3.65
321.229	4.35
321.602	4.22
321.976	3.85
322.349	3.96
322.723	4.44
323.096	4.07
323.469	3.52
323.843	3.39
324.216	3.68
324.589	3.59
324.962	3.55
325.335	3.96
325.708	4.38
326.081	3.55
326.454	3.79
326.827	3.71
327.2	4.1
327.573	4.2
327.945	4.28
328.318	3.38
328.691	4.33
329.063	3.66
329.436	4.08
329.809	3.96
330.181	4.33
330.553	4.5
330.926	3.71
331.298	3.88
331.671	3.19
332.043	4.01
332.415	3.92
332.787	3.64
333.159	3.96
333.532	3.65
333.904	3.61
334.276	4.38
334.648	3.79
335.02	3.72
335.391	3.74
335.763	3.71
336.135	3.39
336.507	3.33
336.879	4.11
337.25	4.02
337.622	4.03
337.993	3.64
338.365	3.9
338.736	4.15
339.108	4.34
339.479	3.97
339.851	4.38
340.222	4.41
340.593	3.4
340.964	4.03
341.336	3.85
341.707	3.71
342.078	3.55
342.449	3.86
342.82	3.61
343.191	4.09
343.562	4.33
343.933	4.2
344.303	3.99
344.674	3.76
345.045	4.1
345.416	3.33
345.786	3.92
346.157	3.89
346.527	4.08
346.898	4.29
347.268	3.94
347.639	4.22
348.009	4.27
348.38	4
348.75	4.26
349.12	4.12
349.49	3.93
349.861	3.67
350.231	3.95
350.601	4.04
350.971	3.75
351.341	4.17
351.711	4.34
352.081	3.91
352.45	3.87
352.82	3.9
353.19	4.14
353.56	4.58
353.929	3.85
354.299	3.68
354.669	3.88
355.038	3.72
355.408	4.41
355.777	4.03
356.147	4.05
356.516	4.15
356.885	3.97
357.254	3.92
357.624	4.32
357.993	3.79
358.362	4.03
358.731	4.25
359.1	4.64
359.469	4.2
359.838	4.2
360.207	4.07
360.576	4.1
360.945	3.94
361.314	3.86
361.682	3.68
362.051	3.77
362.42	4.25
362.788	4.07
363.157	3.71
363.525	3.9
363.894	3.91
364.262	3.99
364.631	3.85
364.999	3.81
365.367	3.86
365.735	3.92
366.104	4.04
366.472	3.96
366.84	4.02
367.208	3.98
367.576	3.77
367.944	3.97
368.312	4.06
368.68	3.87
369.048	3.97
369.416	4.03
369.783	4.26
370.151	4.41
370.519	4.03
370.886	4.31
371.254	3.86
371.621	4
371.989	3.79
372.356	3.92
372.724	4.12
373.091	4.3
373.458	3.94
373.826	4.42
374.193	4.02
374.56	4.25
374.927	4.13
375.294	3.87
375.661	4.09
376.028	4.31
376.395	4.06
376.762	4.31
377.129	3.74
377.496	4.23
377.863	3.92
378.229	3.78
378.596	3.94
378.963	3.88
379.329	4.11
379.696	3.55
380.062	4.19
380.429	3.89
380.795	4.16
381.161	4.02
381.528	3.96
381.894	3.96
382.26	3.89
382.626	4.38
382.993	4.06
383.359	3.97
383.725	3.95
384.091	4.14
384.457	3.9
384.823	4.31
385.188	4.08
385.554	3.75
385.92	4.05
386.286	3.47
386.651	3.98
387.017	4.17
387.383	4.07
387.748	4.11
388.114	4.21
388.479	4.48
388.845	4.05
389.21	3.9
389.575	4.05
389.94	4.03
390.306	3.93
390.671	3.81
391.036	4.1
391.401	3.86
391.766	4.01
392.131	3.87
392.496	3.92
392.861	4.17
393.226	4.29
393.591	4.13
393.956	4.08
394.32	4.23
394.685	4.31
395.05	4.45
395.414	4.23
395.779	4.17
396.143	4.3
396.508	4.09
396.872	4.37
397.236	4.22
397.601	4.21
397.965	4.32
398.329	3.93
398.694	3.97
399.058	4.22
399.422	4.05
399.786	4.12
400.15	3.98
400.514	4.07
400.878	4.04
401.242	3.9
401.605	4.3
401.969	4.5
402.333	4.21
402.697	4.11
403.06	4.32
403.424	4.24
403.787	4.11
404.151	4.38
404.514	4.24
404.878	4.15
405.241	4.39
405.604	4.05
405.968	4.18
406.331	3.85
406.694	4.34
407.057	4.18
407.42	4.2
407.783	4.2
408.146	4.41
408.509	4.2
408.872	4.36
409.235	4.29
409.598	4.3
409.961	3.89
410.323	4.52
410.686	4.4
411.049	4.19
411.411	4.21
411.774	4.21
412.136	4.26
412.499	4.18
412.861	4.28
413.223	4.13
413.586	4.16
413.948	4.16
414.31	4.23
414.672	4.22
415.035	4.26
415.397	4.03
415.759	4.2
416.121	4.52
416.483	4.09
416.845	4.34
417.206	4.08
417.568	4.39
417.93	4.21
418.292	4.41
418.653	4.14
419.015	4.26
419.377	4.21
419.738	4.11
420.1	4.18
420.461	4.23
420.822	4.25
421.184	4.19
421.545	4.11
421.906	4.15
422.267	4.01
422.629	4.11
422.99	4.19
423.351	4.26
423.712	4.34
424.073	4.07
424.434	3.99
424.795	4.18
425.155	4.17
425.516	4.23
425.877	4.16
426.238	4.23
426.598	4.28
426.959	4.3
427.32	4.32
427.68	4.32
428.041	4.22
428.401	4.21
428.761	4.36
429.122	4.26
429.482	4.42
429.842	4.54
430.202	4.28
430.563	4.15
430.923	4.26
431.283	4.3
431.643	4.42
432.003	4.51
432.363	4.13
432.722	4.46
433.082	4.29
433.442	4.34
433.802	4.35
434.161	4.51
434.521	4.2
434.881	4.24
435.24	4.44
435.6	4.21
435.959	4.5
436.319	4.22
436.678	4.18
437.037	4.22
437.396	4.27
437.756	4.25
438.115	4.26
438.474	4.23
438.833	4.49
439.192	4.25
439.551	4.45
439.91	4.36
440.269	4.33
440.628	4.32
440.987	4.2
441.345	4.36
441.704	4.24
442.063	4.41
442.421	4.28
442.78	4.31
443.138	4.37
443.497	4.23
443.855	4.41
444.214	4.51
444.572	4.46
444.93	4.34
445.288	4.37
445.647	4.23
446.005	4.52
446.363	4.2
446.721	4.37
447.079	4.24
447.437	4.31
447.795	4.33
448.153	4.27
448.51	4.28
448.868	4.38
449.226	4.29
449.584	4.28
449.941	4.33
450.299	4.4
450.656	4.34
451.014	4.46
451.371	4.35
451.729	4.59
452.086	4.34
452.443	4.52
452.801	4.38
453.158	4.61
453.515	4.41
453.872	4.53
454.229	4.4
454.586	4.36
454.943	4.37
455.3	4.41
455.657	4.29
456.014	4.6
456.371	4.72
456.727	4.46
457.084	4.28
457.441	4.75
457.797	4.2
458.154	4.7
458.51	4.51
458.867	4.64
459.223	4.46
459.58	4.55
459.936	4.6
460.292	4.27
460.648	4.32
461.005	4.31
461.361	4.38
461.717	4.34
462.073	4.35
462.429	4.55
462.785	4.42
463.141	4.4
463.496	4.67
463.852	4.69
464.208	4.5
464.564	4.81
464.919	4.51
465.275	4.53
465.631	4.54
465.986	4.57
466.342	4.21
466.697	4.45
467.052	4.54
467.408	4.52
467.763	4.64
468.118	4.49
468.473	4.75
468.829	4.44
469.184	4.54
469.539	4.67
469.894	4.49
470.249	4.51
470.603	4.53
470.958	4.76
471.313	4.56
471.668	4.59
472.023	4.5
472.377	4.59
472.732	4.66
473.086	4.66
473.441	4.55
473.795	4.63
474.15	4.36
474.504	4.59
474.859	4.61
475.213	4.66
475.567	4.6
475.921	4.65
476.275	4.49
476.63	4.55
476.984	4.8
477.338	4.54
477.692	4.55
478.045	4.59
478.399	4.44
478.753	4.66
479.107	4.47
479.461	4.55
479.814	4.51
480.168	4.42
480.521	4.47
480.875	4.59
481.228	4.42
481.582	4.66
481.935	4.62
482.289	4.63
482.642	4.59
482.995	4.47
483.348	4.63
483.701	4.48
484.055	4.44
484.408	4.54
484.761	4.51
485.114	4.27
485.466	4.16
485.819	4.24
486.172	4.38
486.525	4.51
486.878	4.54
487.23	4.57
487.583	4.53
487.936	4.58
488.288	4.42
488.641	4.41
488.993	4.4
489.345	4.36
489.698	4.4
490.05	4.39
490.402	4.6
490.754	4.61
491.107	4.56
491.459	4.64
491.811	4.66
492.163	4.6
492.515	4.6
492.866	4.41
493.218	4.36
493.57	4.37
493.922	4.57
494.274	4.6
494.625	4.62
494.977	4.68
495.328	4.69
495.68	4.85
496.031	4.67
496.383	4.66
496.734	4.71
497.086	4.66
497.437	4.79
497.788	4.7
498.139	4.75
498.49	4.72
498.842	4.73
499.193	4.71
499.544	4.76
499.894	4.68
500.245	4.73
500.596	4.61
500.947	4.64
501.298	4.69
501.648	4.74
501.999	4.84
502.35	4.81
502.7	4.9
503.051	4.81
503.401	4.75
503.752	4.79
504.102	4.85
504.452	4.76
504.803	4.81
505.153	4.77
505.503	4.84
505.853	4.81
506.203	4.79
506.553	4.76
506.903	4.74
507.253	4.98
507.603	4.84
507.953	4.88
508.303	4.79
508.652	4.86
509.002	4.75
509.352	4.78
509.701	4.77
510.051	4.89
510.4	4.81
510.75	4.77
511.099	4.83
511.449	4.8
511.798	4.85
512.147	4.83
512.496	4.76
512.846	4.71
513.195	4.82
513.544	4.79
513.893	4.77
514.242	4.82
514.591	4.75
514.939	4.82
515.288	4.82
515.637	4.83
515.986	4.86
516.334	4.84
516.683	4.95
517.032	4.93
517.38	4.89
517.729	4.77
518.077	4.9
518.426	4.81
518.774	4.91
519.122	4.9
519.47	4.77
519.819	4.85
520.167	4.69
520.515	4.75
520.863	4.81
521.211	4.82
521.559	4.96
521.907	4.91
522.255	4.82
522.602	4.77
522.95	4.83
523.298	4.78
523.645	4.82
523.993	4.94
524.341	4.81
524.688	4.92
525.036	4.88
525.383	4.92
525.73	5.01
526.078	4.89
526.425	5
526.772	4.86
527.119	4.82
527.466	4.8
527.814	4.79
528.161	4.82
528.508	4.81
528.854	4.83
529.201	4.8
529.548	4.72
529.895	4.53
530.242	4.5
530.588	4.54
530.935	4.62
531.282	4.76
531.628	4.81
531.975	4.77
532.321	4.83
532.667	4.86
533.014	4.94
533.36	4.82
533.706	4.92
534.052	4.78
534.399	4.89
534.745	4.76
535.091	4.59
535.437	4.77
535.783	4.78
536.129	4.94
536.474	4.88
536.82	4.83
537.166	4.92
537.512	4.91
537.857	4.96
538.203	4.88
538.549	4.71
538.894	4.97
539.239	4.92
539.585	4.94
539.93	4.91
540.276	5.01
540.621	4.79
540.966	4.93
541.311	4.84
541.656	4.93
542.001	4.78
542.346	4.79
542.691	4.7
543.036	4.72
543.381	4.72
543.726	4.83
544.071	4.85
544.415	4.89
544.76	4.91
545.105	4.89
545.449	4.91
545.794	4.93
546.138	5.02
546.483	4.98
546.827	5.09
547.171	4.89
547.516	4.96
547.86	4.89
548.204	4.86
548.548	4.82
548.892	4.92
549.236	4.95
549.58	5.02
549.924	5.01
550.268	4.97
550.612	5.02
550.956	4.85
551.3	5
551.643	4.93
551.987	4.95
552.33	5.04
552.674	5.12
553.017	4.96
553.361	4.94
553.704	4.97
554.048	5.01
554.391	5.1
554.734	4.98
555.077	5
555.42	5.05
555.764	5.01
556.107	5.38
556.45	5.12
556.793	5.07
557.135	5.07
557.478	4.92
557.821	5.36
558.164	4.98
558.507	5.03
558.849	5.26
559.192	4.92
559.534	5.05
559.877	5.04
560.219	5.13
560.562	5.03
560.904	5.16
561.246	4.93
561.589	5.11
561.931	5.09
562.273	5.22
562.615	5.07
562.957	5.14
563.299	5.07
563.641	5.15
563.983	5.18
564.325	4.92
564.667	5.07
565.008	5.19
565.35	5.11
565.692	5.06
566.033	5.26
566.375	5.04
566.716	5.22
567.058	5.02
567.399	5.13
567.741	4.97
568.082	5.27
568.423	5.15
568.764	5.24
569.105	5.06
569.447	5.32
569.788	5.1
570.129	5.04
570.47	5.18
570.811	5.16
571.151	5.13
571.492	5.16
571.833	5.26
572.174	5.05
572.514	5.1
572.855	5.12
573.195	5.2
573.536	4.99
573.876	5.02
574.217	5.19
574.557	5.16
574.898	5.34
575.238	5.08
575.578	5.38
575.918	5.19
576.258	5.14
576.598	5.11
576.938	5.16
577.278	5.08
577.618	5.1
577.958	5.08
578.298	5.19
578.638	5.17
578.977	5.23
579.317	5.45
579.657	5.12
579.996	5.38
580.336	5.35
580.675	5.53
581.014	5.3
581.354	5.01
581.693	5.21
582.032	5.35
582.372	5.31
582.711	5.48
583.05	5.25
583.389	5.57
583.728	5.02
584.067	5.09
584.406	5.36
584.745	5.37
585.083	5.18
585.422	5.32
585.761	5.28
586.1	5.26
586.438	5.29
586.777	5.46
587.115	5.37
587.454	4.97
587.792	5.16
588.13	5.4
588.469	4.95
588.807	5.25
589.145	5.21
589.483	5.03
589.821	5.03
590.159	5.48
590.497	5.23
590.835	5.32
591.173	5.31
591.511	5.15
591.849	5.12
592.187	4.92
592.524	5.33
592.862	5.18
593.2	5.16
593.537	5.24
593.875	5.34
594.212	5.08
594.55	5.31
594.887	5.48
595.224	5.59
595.561	5.47
595.899	5.36
596.236	5.07
596.573	5.34
596.91	5.34
597.247	5.55
597.584	5.28
597.921	5.22
598.258	5.25
598.594	5.13
598.931	5.2
599.268	5.29
599.604	5.39
599.941	5.22
600.277	5.33
600.614	5.44
600.95	5.52
601.287	5.67
601.623	5.37
601.959	5.3
602.296	5.23
602.632	5.17
602.968	5.33
603.304	5.08
603.64	5.28
603.976	5.43
604.312	5.48
604.648	5.21
604.984	5.43
605.319	5.42
605.655	5.15
605.991	5.29
606.326	5.12
606.662	5.45
606.998	5.28
607.333	5.35
607.668	5.44
608.004	5.62
608.339	5.33
608.674	5.18
609.01	5.45
609.345	5.52
609.68	5.27
610.015	5.4
610.35	5.2
610.685	5.54
611.02	5.36
611.355	5.47
611.689	5.34
612.024	5.22
612.359	5.31
612.694	5.39
613.028	5.33
613.363	5.58
613.697	5.61
614.032	5.5
614.366	5.27
614.7	4.96
615.035	5.06
615.369	5.32
615.703	5.19
616.037	5.72
616.371	5.42
616.705	5.69
617.039	5.38
617.373	5.11
617.707	5.31
618.041	5.08
618.375	5.47
618.709	5.2
619.042	5.42
619.376	4.99
619.71	5.04
620.043	5.31
620.377	5.98
620.71	5.56
621.043	5.5
621.377	5.43
621.71	5.62
622.043	5.35
622.376	5.17
622.709	5.69
623.043	5.69
623.376	5.51
623.709	5.28
624.041	5.73
624.374	5.23
624.707	5.14
625.04	5.61
625.373	5.48
625.705	5.37
626.038	5.39
626.37	5.19
626.703	5.68
627.035	5.55
627.368	5.55
627.7	5.55
628.032	5.13
628.365	5.55
628.697	5.33
629.029	5.58
629.361	5.38
629.693	5.28
630.025	5.24
630.357	5.63
630.689	5.48
631.021	5.69
631.353	5.2
631.684	5.27
632.016	5.4
632.348	5.62
632.679	5.68
633.011	5.89
633.342	4.95
633.674	5.4
634.005	5.7
634.336	5.31
634.668	5.32
634.999	5.56
635.33	5.77
635.661	5.21
635.992	4.88
636.323	5.64
636.654	5.66
636.985	5.51
637.316	5.35
637.647	5.64
637.977	5.5
638.308	5.78
638.639	5.69
638.969	5.72
639.3	5.72
639.63	5.72
639.961	6.18
640.291	5.19
640.622	5.66
640.952	4.67
641.282	5.41
641.612	5.54
641.943	5.49
642.273	5.51
642.603	5.57
642.933	5.29
643.263	6.06
643.592	5.48
643.922	5.66
644.252	5.26
644.582	5.65
644.911	5.63
645.241	5.69
645.571	5.59
645.9	5.19
646.23	6
646.559	5.79
646.888	5.68
647.218	5.51
647.547	5.31
647.876	5.58
648.205	5.54
648.534	5.28
648.863	5.97
649.192	5.69
649.521	5.51
649.85	5.75
650.179	5.67
650.508	5.98
650.837	5.86
651.165	5.53
651.494	6.12
651.822	5.39
652.151	5.42
652.479	5.31
652.808	5.61
653.136	5.28
653.465	5.24
653.793	5.62
654.121	5.87
654.449	5.9
654.777	5.65
655.105	5.65
655.433	5.38
655.761	5.61
656.089	5.24
656.417	5.01
656.745	5.5
657.073	5.39
657.4	5.73
657.728	5.94
658.056	5.72
658.383	5.34
658.711	5.62
659.038	5.7
659.365	5.52
659.693	5.55
660.02	5.64
660.347	5.75
660.674	5.71
661.001	4.93
661.329	5.28
661.656	5.63
661.982	5.61
662.309	5.92
662.636	5.67
662.963	5.77
663.29	5.85
663.616	6.42
663.943	5.71
664.27	6.29
664.596	6.11
664.923	5.71
665.249	5.03
665.576	5.94
665.902	5.74
666.228	5.79
666.554	5.85
666.881	6.11
667.207	5.57
667.533	5.78
667.859	5.81
668.185	5.05
668.511	5.79
668.837	5.89
669.162	5.28
669.488	5.75
669.814	5.64
670.139	5.54
670.465	5.62
670.791	5.13
671.116	5.9
671.442	5.24
671.767	5.65
672.092	5.93
672.418	5.87
672.743	6.12
673.068	6.02
673.393	5.73
673.718	6.16
674.043	5.73
674.368	6.24
674.693	5.55
675.018	5.52
675.343	6.44
675.667	5.52
675.992	6.1
676.317	5.66
676.641	4.91
676.966	6.01
677.29	5.72
677.615	6.33
677.939	5.77
678.264	5.91
678.588	5.54
678.912	5.46
679.236	6.07
679.56	6.09
679.885	6.13
680.209	6.41
680.532	6.14
680.856	6.18
681.18	5.34
681.504	5.68
681.828	5.9
682.152	5.11
682.475	6.26
682.799	5.51
683.122	6.15
683.446	6.3
683.769	6.19
684.093	6.01
684.416	5.89
684.739	5.9
685.062	5.9
685.386	6.48
685.709	5.6
686.032	6.39
686.355	5.94
686.678	5.8
687.001	5.54
687.324	6.28
687.646	6.39
687.969	5.83
688.292	6.05
688.614	5.2
688.937	5.6
689.26	6.19
689.582	5.84
689.904	6.48
690.227	6.77
690.549	5.06
690.871	6.46
691.194	5.68
691.516	6.79
691.838	5.69
692.16	6.63
692.482	5.68
692.804	5.58
