Data from 20-50_chest_Reflection__2__32.txt Node

Date: Thu Feb 29 22:07:37 CST 2024
User: ToomeyLab
Spectrometer: FLMS14357
Trigger mode: 0
Integration Time (sec): 1.000000E-2
Scans to average: 100
Electric dark correction enabled: true
Nonlinearity correction enabled: false
Boxcar width: 0
XAxis mode: Wavelengths
Number of Pixels in Spectrum: 2048
>>>>>Begin Spectral Data<<<<<
189.047	53.08
189.435	53.08
189.823	53.08
190.211	142.72
190.599	1.09
190.987	20.42
191.375	112.31
191.763	-41.32
192.151	110.11
192.538	-117.91
192.926	42.5
193.314	102.47
193.702	144.08
194.089	76.58
194.477	23.98
194.864	534.24
195.252	77.31
195.639	-493.06
196.027	237.29
196.414	23.7
196.801	-117.66
197.189	-73.77
197.576	-45.48
197.963	80.65
198.351	-5.43
198.738	11.12
199.125	-19.02
199.512	-25.4
199.899	-19.4
200.286	-78.84
200.673	30.85
201.06	-12.41
201.447	-76.3
201.833	70.07
202.22	-22.1
202.607	-75.7
202.994	-33.33
203.38	43.32
203.767	12.39
204.154	0.13
204.54	19.96
204.927	-8.62
205.313	22.33
205.699	-40.25
206.086	38.74
206.472	24.29
206.858	23.75
207.245	-1.38
207.631	-6.04
208.017	4.53
208.403	-42.31
208.789	-5.53
209.175	-32.27
209.561	6.46
209.947	16.85
210.333	25.01
210.719	8.4
211.105	-0.35
211.491	9.32
211.876	-2.42
212.262	20.83
212.648	18.34
213.034	-8.49
213.419	28.39
213.805	-27.05
214.19	-4.87
214.576	-8.43
214.961	29.81
215.346	-5.95
215.732	-12.7
216.117	12.23
216.502	10.31
216.888	-17.11
217.273	3.5
217.658	9.12
218.043	4.7
218.428	-0.08
218.813	20.72
219.198	12.22
219.583	-25.59
219.968	14.52
220.353	27.75
220.738	2.48
221.122	-19.38
221.507	7.04
221.892	8.2
222.276	25.83
222.661	5.22
223.046	6.81
223.43	-18.17
223.815	-6.53
224.199	7.17
224.583	13.39
224.968	3.58
225.352	9.78
225.736	4.38
226.121	6.69
226.505	16.55
226.889	10.06
227.273	-2.3
227.657	-3.89
228.041	7.12
228.425	4.66
228.809	8.65
229.193	2.21
229.577	4.64
229.961	2.53
230.344	3.87
230.728	3.99
231.112	4.68
231.495	4.7
231.879	5.37
232.263	3.3
232.646	4.68
233.03	4.57
233.413	3.33
233.797	2.78
234.18	2.63
234.563	3.91
234.946	3.66
235.33	3.15
235.713	3.77
236.096	5.08
236.479	4.74
236.862	6.52
237.245	4.71
237.628	5.12
238.011	5.41
238.394	2.47
238.777	3.02
239.16	4.92
239.543	1.71
239.925	3.55
240.308	4.16
240.691	5.78
241.073	4.9
241.456	4.69
241.838	5.37
242.221	4.59
242.603	5.31
242.986	5.63
243.368	5.08
243.75	4.62
244.133	4.13
244.515	4.68
244.897	4.99
245.279	4.63
245.661	4.26
246.043	4.09
246.425	6.42
246.807	5.23
247.189	4.99
247.571	5.12
247.953	4.97
248.335	4.54
248.717	4.81
249.098	5.04
249.48	4.6
249.862	4.94
250.243	4.99
250.625	4.83
251.006	5.51
251.388	5.15
251.769	5.44
252.151	6.29
252.532	4.55
252.913	4.14
253.295	5.52
253.676	4.96
254.057	4.83
254.438	5.59
254.819	5.35
255.2	4.11
255.581	5.25
255.962	5.59
256.343	5.13
256.724	4.61
257.105	5.08
257.486	5.18
257.867	5.58
258.247	5.16
258.628	4.58
259.009	3.84
259.389	4.1
259.77	4.93
260.15	5.38
260.531	5.33
260.911	4.94
261.292	4.66
261.672	4.83
262.052	4.76
262.432	4.73
262.813	3.99
263.193	4.79
263.573	4.88
263.953	4.33
264.333	4.86
264.713	5.24
265.093	4.59
265.473	4.18
265.853	4.67
266.233	4.44
266.612	5.06
266.992	5.33
267.372	4.17
267.752	4.54
268.131	4.78
268.511	5.05
268.89	4.72
269.27	4.51
269.649	4.22
270.029	4.45
270.408	4.09
270.787	3.94
271.167	4.11
271.546	5.36
271.925	4.06
272.304	4.61
272.683	4.59
273.062	4.28
273.441	4.22
273.82	4.23
274.199	4.63
274.578	4.61
274.957	4.12
275.336	5.03
275.715	4.79
276.093	4.07
276.472	5.49
276.851	4.26
277.229	4.27
277.608	4.35
277.986	4.46
278.365	4.19
278.743	3.95
279.122	4.04
279.5	4.48
279.878	4.21
280.257	5.05
280.635	4.24
281.013	4.4
281.391	3.86
281.769	5.06
282.147	4.32
282.525	4.95
282.903	3.79
283.281	4.22
283.659	4.75
284.037	4.72
284.415	4.1
284.792	4
285.17	3.87
285.548	4.46
285.925	4.42
286.303	4.1
286.68	4.2
287.058	4.81
287.435	4.03
287.813	4.26
288.19	4.32
288.567	4.62
288.945	4.67
289.322	4.32
289.699	4.66
290.076	4.47
290.453	4.67
290.83	4.41
291.207	4.41
291.584	4.73
291.961	4.58
292.338	4.68
292.715	4.8
293.092	4.44
293.469	4.91
293.845	4.55
294.222	4.58
294.599	4.75
294.975	4.9
295.352	5.18
295.728	5.23
296.105	5.37
296.481	4.86
296.858	5.34
297.234	5.06
297.61	5.59
297.986	5.62
298.363	5.37
298.739	5.3
299.115	5.25
299.491	5.41
299.867	5.14
300.243	5.19
300.619	5.04
300.995	5.61
301.371	5.58
301.746	5.09
302.122	5.46
302.498	5.49
302.874	6.23
303.249	5.38
303.625	5.38
304	5.86
304.376	5.72
304.751	5.34
305.127	5.6
305.502	5.24
305.878	6.13
306.253	5.25
306.628	5.85
307.003	5.16
307.378	6.13
307.754	6.08
308.129	6
308.504	5.81
308.879	5.79
309.254	5.59
309.629	5.31
310.003	6.09
310.378	5.86
310.753	5.49
311.128	6.2
311.502	6.05
311.877	5.48
312.252	5.64
312.626	5.76
313.001	5.89
313.375	5.63
313.75	5.48
314.124	5.81
314.498	6.05
314.873	5.77
315.247	5.03
315.621	6.56
315.995	6.14
316.369	5.6
316.743	5.86
317.117	5.98
317.491	5.5
317.865	5.62
318.239	5.45
318.613	6.05
318.987	6.53
319.361	5.63
319.734	6.35
320.108	5.91
320.482	6.29
320.855	6.24
321.229	6.34
321.602	6.49
321.976	5.79
322.349	5.8
322.723	6.37
323.096	6.19
323.469	5.71
323.843	5.46
324.216	5.74
324.589	5.93
324.962	5.74
325.335	5.89
325.708	6.3
326.081	5.52
326.454	5.91
326.827	5.85
327.2	5.97
327.573	6.18
327.945	6.44
328.318	5.5
328.691	5.88
329.063	6.16
329.436	5.77
329.809	6.19
330.181	6.4
330.553	5.85
330.926	6.21
331.298	5.62
331.671	6.04
332.043	6.32
332.415	5.98
332.787	5.86
333.159	6.05
333.532	6.12
333.904	5.99
334.276	6.23
334.648	6.38
335.02	5.81
335.391	5.72
335.763	5.88
336.135	5.25
336.507	5.43
336.879	6.18
337.25	5.87
337.622	5.98
337.993	5.93
338.365	5.8
338.736	6.11
339.108	6.42
339.479	6.48
339.851	5.82
340.222	6.34
340.593	5.69
340.964	5.88
341.336	5.81
341.707	5.65
342.078	5.67
342.449	6.44
342.82	6.1
343.191	5.67
343.562	6.13
343.933	5.97
344.303	6.14
344.674	6.06
345.045	6
345.416	5.89
345.786	6.11
346.157	6.22
346.527	5.97
346.898	6.52
347.268	6.25
347.639	6.21
348.009	6.35
348.38	6.56
348.75	6.36
349.12	6.04
349.49	6.27
349.861	6.18
350.231	6.09
350.601	6.38
350.971	6.08
351.341	6.39
351.711	6.36
352.081	6.2
352.45	5.99
352.82	5.74
353.19	6.65
353.56	6
353.929	6.15
354.299	6.13
354.669	6.35
355.038	6.27
355.408	6.58
355.777	6.13
356.147	6.12
356.516	6.21
356.885	5.87
357.254	6.4
357.624	6.52
357.993	6.2
358.362	6.32
358.731	5.94
359.1	6.69
359.469	6.39
359.838	6.16
360.207	5.94
360.576	6.11
360.945	6.15
361.314	6.66
361.682	5.85
362.051	6.36
362.42	6.29
362.788	6.36
363.157	6.04
363.525	6.37
363.894	6.44
364.262	6.31
364.631	6.27
364.999	5.55
365.367	6
365.735	6.12
366.104	6.28
366.472	5.54
366.84	6.11
367.208	6.55
367.576	6.37
367.944	6.39
368.312	6.49
368.68	6.14
369.048	6.27
369.416	6.26
369.783	6.67
370.151	6.62
370.519	6.27
370.886	6.21
371.254	6.27
371.621	6.16
371.989	6.05
372.356	6.09
372.724	6.36
373.091	6.3
373.458	6.27
373.826	6.55
374.193	6.34
374.56	6.49
374.927	6.57
375.294	6.21
375.661	6.58
376.028	6.55
376.395	6.69
376.762	6.7
377.129	6.28
377.496	6.74
377.863	6.09
378.229	6.26
378.596	6.04
378.963	6.24
379.329	6.57
379.696	6.11
380.062	6.45
380.429	6.4
380.795	6.78
381.161	6.7
381.528	6.18
381.894	6.48
382.26	6.08
382.626	6.52
382.993	6.4
383.359	6.2
383.725	6.2
384.091	6.18
384.457	6.47
384.823	6.29
385.188	6.23
385.554	6.18
385.92	6.81
386.286	6.04
386.651	6.37
387.017	6.4
387.383	6.53
387.748	6.41
388.114	6.28
388.479	6.42
388.845	6.12
389.21	6.46
389.575	6.31
389.94	6.17
390.306	6.04
390.671	6.35
391.036	6.43
391.401	6.12
391.766	6.47
392.131	6.21
392.496	6.4
392.861	6.25
393.226	6.73
393.591	6.4
393.956	6.38
394.32	6.49
394.685	6.4
395.05	6.51
395.414	6.52
395.779	6.37
396.143	6.48
396.508	6.75
396.872	6.5
397.236	6.32
397.601	6.37
397.965	6.62
398.329	6.21
398.694	6.3
399.058	6.7
399.422	6.2
399.786	6.47
400.15	6.46
400.514	6.33
400.878	6.14
401.242	6.33
401.605	6.46
401.969	6.8
402.333	6.42
402.697	6.38
403.06	6.7
403.424	6.47
403.787	6.33
404.151	6.5
404.514	6.4
404.878	6.38
405.241	6.6
405.604	6.21
405.968	6.3
406.331	6.14
406.694	6.5
407.057	6.23
407.42	6.36
407.783	6.41
408.146	6.69
408.509	6.38
408.872	6.34
409.235	6.53
409.598	6.56
409.961	6.08
410.323	6.45
410.686	6.46
411.049	6.07
411.411	6.32
411.774	6.41
412.136	6.5
412.499	6.56
412.861	6.22
413.223	6.28
413.586	6.24
413.948	6.49
414.31	6.48
414.672	6.31
415.035	6.26
415.397	6.42
415.759	6.87
416.121	6.76
416.483	6.56
416.845	6.31
417.206	6.28
417.568	6.53
417.93	6.39
418.292	6.72
418.653	6.51
419.015	6.53
419.377	6.63
419.738	6.47
420.1	6.49
420.461	6.46
420.822	6.28
421.184	6.43
421.545	6.43
421.906	6.51
422.267	6.56
422.629	6.47
422.99	6.45
423.351	6.58
423.712	6.41
424.073	6.36
424.434	6.38
424.795	6.54
425.155	6.59
425.516	6.55
425.877	6.42
426.238	6.52
426.598	6.46
426.959	6.65
427.32	6.62
427.68	6.55
428.041	6.41
428.401	6.6
428.761	6.75
429.122	6.69
429.482	6.8
429.842	6.67
430.202	6.56
430.563	6.76
430.923	6.8
431.283	6.76
431.643	6.86
432.003	7.1
432.363	6.77
432.722	6.84
433.082	6.71
433.442	6.68
433.802	6.91
434.161	7.06
434.521	6.71
434.881	6.84
435.24	6.79
435.6	6.68
435.959	6.82
436.319	6.7
436.678	6.74
437.037	6.68
437.396	6.76
437.756	6.59
438.115	6.77
438.474	6.91
438.833	6.96
439.192	6.81
439.551	6.76
439.91	6.91
440.269	6.9
440.628	6.79
440.987	6.81
441.345	6.97
441.704	6.89
442.063	6.82
442.421	6.86
442.78	6.76
443.138	6.83
443.497	6.84
443.855	6.87
444.214	7.02
444.572	6.91
444.93	6.8
445.288	6.83
445.647	7.05
446.005	7
446.363	6.83
446.721	6.87
447.079	6.81
447.437	6.86
447.795	6.91
448.153	6.88
448.51	6.95
448.868	6.68
449.226	6.87
449.584	6.94
449.941	6.82
450.299	6.97
450.656	6.77
451.014	6.96
451.371	6.91
451.729	7.07
452.086	7.1
452.443	6.96
452.801	7.03
453.158	7.18
453.515	7.11
453.872	7.09
454.229	6.95
454.586	6.93
454.943	7.1
455.3	7.07
455.657	6.97
456.014	7.24
456.371	7.06
456.727	7.14
457.084	7
457.441	7.18
457.797	6.98
458.154	7.22
458.51	7.16
458.867	7.41
459.223	6.93
459.58	7.07
459.936	7.27
460.292	6.97
460.648	7.13
461.005	7.21
461.361	7.07
461.717	7.1
462.073	7.08
462.429	7.08
462.785	7.02
463.141	7.27
463.496	7.3
463.852	7.25
464.208	7.07
464.564	7.26
464.919	7.18
465.275	7.1
465.631	7.32
465.986	7.39
466.342	7.06
466.697	7.24
467.052	7.24
467.408	7.3
467.763	7.18
468.118	7.29
468.473	7.48
468.829	7.32
469.184	7.31
469.539	7.41
469.894	7.22
470.249	7.09
470.603	7.28
470.958	7.47
471.313	7.23
471.668	7.37
472.023	7.2
472.377	7.1
472.732	7.45
473.086	7.49
473.441	7.37
473.795	7.46
474.15	7.21
474.504	7.41
474.859	7.13
475.213	7.24
475.567	7.35
475.921	7.63
476.275	7.23
476.63	7.34
476.984	7.54
477.338	7.3
477.692	7.47
478.045	7.34
478.399	7.34
478.753	7.42
479.107	7.3
479.461	7.27
479.814	7.33
480.168	7.48
480.521	7.24
480.875	7.34
481.228	7.31
481.582	7.47
481.935	7.48
482.289	7.57
482.642	7.29
482.995	7.32
483.348	7.41
483.701	7.33
484.055	7.34
484.408	7.4
484.761	7.44
485.114	7.25
485.466	7.15
485.819	7.09
486.172	7.1
486.525	7.09
486.878	7.15
487.23	7.24
487.583	7.29
487.936	7.42
488.288	7.37
488.641	7.36
488.993	7.37
489.345	7.27
489.698	7.26
490.05	7.26
490.402	7.33
490.754	7.25
491.107	7.35
491.459	7.32
491.811	7.44
492.163	7.38
492.515	7.49
492.866	7.52
493.218	7.44
493.57	7.35
493.922	7.35
494.274	7.32
494.625	7.45
494.977	7.47
495.328	7.46
495.68	7.67
496.031	7.65
496.383	7.49
496.734	7.75
497.086	7.59
497.437	7.81
497.788	7.72
498.139	7.67
498.49	7.75
498.842	7.61
499.193	7.73
499.544	7.7
499.894	7.72
500.245	7.61
500.596	7.7
500.947	7.72
501.298	7.89
501.648	7.67
501.999	7.81
502.35	7.98
502.7	7.88
503.051	7.88
503.401	7.75
503.752	7.7
504.102	7.9
504.452	7.88
504.803	7.91
505.153	7.81
505.503	7.96
505.853	7.92
506.203	7.88
506.553	7.92
506.903	7.81
507.253	7.89
507.603	7.89
507.953	7.85
508.303	8.01
508.652	7.9
509.002	7.78
509.352	8.03
509.701	7.92
510.051	7.89
510.4	7.98
510.75	7.95
511.099	8.07
511.449	7.97
511.798	7.84
512.147	8.12
512.496	7.98
512.846	7.97
513.195	8.09
513.544	8
513.893	7.99
514.242	8.06
514.591	7.87
514.939	7.93
515.288	8.06
515.637	8.08
515.986	8.04
516.334	8.06
516.683	8.08
517.032	8.21
517.38	8.19
517.729	8.14
518.077	8.24
518.426	8.14
518.774	8.25
519.122	8.31
519.47	8.07
519.819	8.16
520.167	8.09
520.515	8.09
520.863	8.05
521.211	8.11
521.559	8.09
521.907	8.27
522.255	8.12
522.602	8.05
522.95	8.18
523.298	8.16
523.645	8.19
523.993	8.36
524.341	8.31
524.688	8.41
525.036	8.43
525.383	8.35
525.73	8.56
526.078	8.45
526.425	8.41
526.772	8.34
527.119	8.35
527.466	8.37
527.814	8.33
528.161	8.39
528.508	8.3
528.854	8.35
529.201	8.35
529.548	8.23
529.895	8.26
530.242	8.19
530.588	8.16
530.935	8.08
531.282	8.06
531.628	8.15
531.975	8.25
532.321	8.35
532.667	8.43
533.014	8.53
533.36	8.51
533.706	8.58
534.052	8.35
534.399	8.55
534.745	8.47
535.091	8.39
535.437	8.46
535.783	8.44
536.129	8.49
536.474	8.58
536.82	8.52
537.166	8.61
537.512	8.81
537.857	8.77
538.203	8.73
538.549	8.76
538.894	8.73
539.239	8.77
539.585	8.78
539.93	8.67
540.276	8.71
540.621	8.81
540.966	9.04
541.311	8.93
541.656	8.99
542.001	8.84
542.346	8.84
542.691	8.8
543.036	8.81
543.381	8.72
543.726	8.79
544.071	8.76
544.415	8.81
544.76	8.93
545.105	8.82
545.449	8.97
545.794	8.99
546.138	9.02
546.483	9.02
546.827	9.15
547.171	9.12
547.516	9.18
547.86	9.11
548.204	9.13
548.548	9.11
548.892	9.18
549.236	9.26
549.58	9.28
549.924	9.27
550.268	9.21
550.612	9.39
550.956	9.26
551.3	9.33
551.643	9.21
551.987	9.48
552.33	9.52
552.674	9.68
553.017	9.42
553.361	9.33
553.704	9.72
554.048	9.41
554.391	9.61
554.734	9.66
555.077	9.64
555.42	9.63
555.764	9.52
556.107	9.79
556.45	9.62
556.793	9.67
557.135	9.54
557.478	9.59
557.821	9.92
558.164	9.66
558.507	9.84
558.849	9.91
559.192	9.71
559.534	9.69
559.877	9.89
560.219	9.93
560.562	9.91
560.904	10.08
561.246	9.74
561.589	10.03
561.931	9.68
562.273	10.02
562.615	9.96
562.957	10.09
563.299	9.98
563.641	9.97
563.983	10.08
564.325	10.16
564.667	10.04
565.008	10.18
565.35	10.34
565.692	10.18
566.033	10.18
566.375	10.34
566.716	10.23
567.058	10.23
567.399	10.43
567.741	10.32
568.082	10.44
568.423	10.47
568.764	10.63
569.105	10.24
569.447	10.6
569.788	10.5
570.129	10.4
570.47	10.65
570.811	10.51
571.151	10.88
571.492	10.56
571.833	10.7
572.174	10.49
572.514	10.69
572.855	10.71
573.195	10.83
573.536	10.65
573.876	10.71
574.217	10.77
574.557	10.95
574.898	10.85
575.238	10.82
575.578	11.02
575.918	10.95
576.258	10.8
576.598	10.78
576.938	11.1
577.278	11
577.618	11.01
577.958	10.97
578.298	11.04
578.638	11.06
578.977	11.11
579.317	11.26
579.657	11.2
579.996	11.12
580.336	11.37
580.675	11.23
581.014	11.27
581.354	11.21
581.693	11.31
582.032	11.23
582.372	11.56
582.711	11.37
583.05	11.49
583.389	11.37
583.728	10.98
584.067	11.35
584.406	11.6
584.745	11.64
585.083	11.44
585.422	11.7
585.761	11.65
586.1	11.83
586.438	11.6
586.777	11.56
587.115	11.66
587.454	11.54
587.792	11.6
588.13	11.74
588.469	11.72
588.807	11.9
589.145	11.94
589.483	12.07
589.821	11.97
590.159	12.1
590.497	11.83
590.835	12.07
591.173	12.15
591.511	12.17
591.849	12.24
592.187	12.02
592.524	12.33
592.862	12.14
593.2	12.04
593.537	12.08
593.875	12.43
594.212	12.32
594.55	12.43
594.887	12.61
595.224	12.14
595.561	12.46
595.899	12.76
596.236	12.54
596.573	12.67
596.91	12.53
597.247	12.77
597.584	12.38
597.921	12.67
598.258	12.54
598.594	12.67
598.931	12.88
599.268	12.68
599.604	12.84
599.941	12.56
600.277	12.77
600.614	12.82
600.95	12.88
601.287	12.99
601.623	13.01
601.959	12.99
602.296	12.78
602.632	13.07
602.968	13.06
603.304	12.94
603.64	13.26
603.976	13.38
604.312	13.36
604.648	13.14
604.984	13.27
605.319	13.59
605.655	13.04
605.991	13.01
606.326	13.44
606.662	13.37
606.998	13.35
607.333	13.25
607.668	13.62
608.004	13.55
608.339	13.31
608.674	13.19
609.01	13.67
609.345	13.66
609.68	13.71
610.015	13.75
610.35	13.57
610.685	13.94
611.02	13.99
611.355	13.79
611.689	13.93
612.024	13.75
612.359	13.71
612.694	13.93
613.028	13.65
613.363	14.16
613.697	14.06
614.032	13.95
614.366	13.95
614.7	13.74
615.035	14.1
615.369	13.85
615.703	14.1
616.037	14.5
616.371	14.45
616.705	14.17
617.039	14.28
617.373	14.31
617.707	14.15
618.041	14.23
618.375	14.76
618.709	14.37
619.042	14.46
619.376	13.94
619.71	14.38
620.043	14.85
620.377	14.88
620.71	14.5
621.043	14.78
621.377	14.62
621.71	14.76
622.043	14.41
622.376	14.74
622.709	14.72
623.043	14.89
623.376	14.88
623.709	14.59
624.041	14.8
624.374	14.83
624.707	14.67
625.04	15.2
625.373	15.13
625.705	15.07
626.038	15.31
626.37	14.87
626.703	15.37
627.035	15.09
627.368	14.97
627.7	15.59
628.032	15.35
628.365	15.47
628.697	15.31
629.029	15.57
629.361	15.36
629.693	15.63
630.025	15.32
630.357	15.69
630.689	15.59
631.021	15.61
631.353	15.55
631.684	15.58
632.016	15.49
632.348	15.65
632.679	15.49
633.011	16.28
633.342	15.28
633.674	15.48
634.005	16.24
634.336	15.67
634.668	16.29
634.999	15.92
635.33	16.19
635.661	15.76
635.992	15.64
636.323	16.01
636.654	16.32
636.985	16.05
637.316	15.89
637.647	16.04
637.977	16.41
638.308	16.41
638.639	16.42
638.969	16
639.3	16.61
639.63	16.48
639.961	16.45
640.291	16.47
640.622	16.66
640.952	16.05
641.282	16.75
641.612	16.81
641.943	16.68
642.273	16.81
642.603	16.59
642.933	16.64
643.263	16.85
643.592	16.97
643.922	16.95
644.252	16.48
644.582	16.41
644.911	17.02
645.241	16.73
645.571	17.07
645.9	16.47
646.23	17.21
646.559	17.34
646.888	17.47
647.218	17.17
647.547	17.06
647.876	16.96
648.205	16.76
648.534	17.06
648.863	17.71
649.192	17.44
649.521	16.96
649.85	17.48
650.179	16.54
650.508	17.21
650.837	17.27
651.165	17.52
651.494	17.67
651.822	17.35
652.151	17.74
652.479	17.41
652.808	17.57
653.136	17.27
653.465	17.15
653.793	17.02
654.121	17.43
654.449	17.57
654.777	17.72
655.105	17.81
655.433	17.61
655.761	17.78
656.089	17.72
656.417	17.45
656.745	17.96
657.073	17.63
657.4	17.91
657.728	17.91
658.056	18.43
658.383	17.82
658.711	18.27
659.038	17.91
659.365	18.13
659.693	18.34
660.02	17.91
660.347	18.48
660.674	18.42
661.001	17.74
661.329	18.5
661.656	18.35
661.982	18.15
662.309	18.88
662.636	18.62
662.963	18.27
663.29	18.45
663.616	18.74
663.943	18.59
664.27	18.96
664.596	18.44
664.923	18.82
665.249	18.54
665.576	18.68
665.902	18.71
666.228	18.91
666.554	18.9
666.881	18.63
667.207	18.88
667.533	18.73
667.859	19
668.185	19.09
668.511	18.51
668.837	19.76
669.162	18.76
669.488	18.95
669.814	19.34
670.139	18.85
670.465	19.52
670.791	19.15
671.116	19
671.442	18.87
671.767	18.96
672.092	19.15
672.418	19.35
672.743	19.12
673.068	19.29
673.393	19.54
673.718	19.8
674.043	19.21
674.368	20.31
674.693	20.06
675.018	19.53
675.343	19.88
675.667	19.44
675.992	19.76
676.317	19.53
676.641	18.66
676.966	19.84
677.29	19.66
677.615	20.62
677.939	20.37
678.264	19.91
678.588	19.15
678.912	19.56
679.236	19.99
679.56	20.48
679.885	20.13
680.209	20.26
680.532	20.69
680.856	20.73
681.18	20.49
681.504	20.57
681.828	20.35
682.152	19.86
682.475	20.54
682.799	20.55
683.122	20.78
683.446	20.7
683.769	20.98
