Data from 20-50_chest_Reflection__1__31.txt Node

Date: Thu Feb 29 22:07:23 CST 2024
User: ToomeyLab
Spectrometer: FLMS14357
Trigger mode: 0
Integration Time (sec): 1.000000E-2
Scans to average: 100
Electric dark correction enabled: true
Nonlinearity correction enabled: false
Boxcar width: 0
XAxis mode: Wavelengths
Number of Pixels in Spectrum: 2048
>>>>>Begin Spectral Data<<<<<
189.047	1.72
189.435	1.72
189.823	1.72
190.211	-242.72
190.599	17.77
190.987	101.8
191.375	-20.1
191.763	-83.41
192.151	194.51
192.538	-1528.04
192.926	338.28
193.314	-30.28
193.702	1.82
194.089	60.97
194.477	-289.74
194.864	-166.41
195.252	-43.98
195.639	3615.28
196.027	43.99
196.414	21.84
196.801	-21.05
197.189	118.87
197.576	47.11
197.963	-103.48
198.351	-62.26
198.738	53
199.125	-63.03
199.512	-46.24
199.899	-4.62
200.286	-67.36
200.673	26.42
201.06	-49.56
201.447	-71.76
201.833	-9.83
202.22	-36.31
202.607	-138.04
202.994	-39.01
203.38	5.8
203.767	9.2
204.154	4.9
204.54	-6.99
204.927	12.95
205.313	38.67
205.699	-33.01
206.086	4.8
206.472	18.19
206.858	3.23
207.245	-9.29
207.631	-20.64
208.017	-12.05
208.403	-64.86
208.789	-23.17
209.175	-25.55
209.561	19.22
209.947	-14.74
210.333	19.28
210.719	18.58
211.105	-20.04
211.491	-5.12
211.876	13.4
212.262	3.93
212.648	4.8
213.034	-14.08
213.419	-37.73
213.805	6.35
214.19	-10.19
214.576	2.15
214.961	34.95
215.346	-9.69
215.732	12.58
216.117	12.92
216.502	-20.23
216.888	-50.95
217.273	27
217.658	3.01
218.043	10.53
218.428	-30.78
218.813	-0.91
219.198	6.06
219.583	-10.07
219.968	-2.53
220.353	6.65
220.738	10.82
221.122	-27.6
221.507	7.66
221.892	11.94
222.276	8.34
222.661	5.7
223.046	-0.68
223.43	-14.29
223.815	-12.55
224.199	-2.05
224.583	3.34
224.968	3.03
225.352	5.19
225.736	0.27
226.121	-3.92
226.505	5.91
226.889	0.41
227.273	-4.51
227.657	-6.8
228.041	5.14
228.425	3.98
228.809	7.28
229.193	1.11
229.577	2.72
229.961	2.87
230.344	2.77
230.728	2.84
231.112	4.45
231.495	3.77
231.879	3
232.263	1.18
232.646	3.4
233.03	4.67
233.413	1.84
233.797	2.43
234.18	1.49
234.563	-0.07
234.946	0.01
235.33	2.93
235.713	2.59
236.096	3.83
236.479	2.76
236.862	4.08
237.245	2.44
237.628	3.87
238.011	3.79
238.394	1.83
238.777	2.58
239.16	3.72
239.543	3.39
239.925	3.32
240.308	2.05
240.691	4.44
241.073	2.62
241.456	3.81
241.838	3.79
242.221	3.96
242.603	2.9
242.986	4.05
243.368	3.5
243.75	3.73
244.133	3.15
244.515	3.39
244.897	3.63
245.279	3.68
245.661	2.55
246.043	3.04
246.425	4.62
246.807	4.2
247.189	3.14
247.571	4.22
247.953	3.73
248.335	3.48
248.717	3.49
249.098	3.66
249.48	3.71
249.862	3.38
250.243	3.32
250.625	3.65
251.006	4.29
251.388	3.61
251.769	4.28
252.151	4.04
252.532	3.39
252.913	3.78
253.295	3.79
253.676	3.58
254.057	3.27
254.438	3.97
254.819	4.02
255.2	1.94
255.581	2.28
255.962	3.59
256.343	3.51
256.724	3.27
257.105	3.05
257.486	4.08
257.867	4.33
258.247	3.88
258.628	3.82
259.009	4.05
259.389	2.46
259.77	4.61
260.15	3.62
260.531	3.55
260.911	3.45
261.292	3.43
261.672	3.67
262.052	3.58
262.432	3.49
262.813	2.82
263.193	2.92
263.573	3.59
263.953	3.13
264.333	3.04
264.713	3.46
265.093	3.74
265.473	3.61
265.853	2.94
266.233	2.88
266.612	3.88
266.992	3.24
267.372	2.47
267.752	2.59
268.131	3.81
268.511	3.31
268.89	3.82
269.27	3.36
269.649	2.75
270.029	3.5
270.408	3.51
270.787	3.17
271.167	3.19
271.546	3.8
271.925	3.59
272.304	3.23
272.683	3.54
273.062	3.11
273.441	3.6
273.82	3.48
274.199	3.35
274.578	3.29
274.957	3.55
275.336	3.97
275.715	3.35
276.093	2.48
276.472	3.86
276.851	3.19
277.229	3.88
277.608	3.42
277.986	2.62
278.365	3.36
278.743	3.03
279.122	2.82
279.5	2.89
279.878	3.24
280.257	3.59
280.635	2.86
281.013	3.57
281.391	3.15
281.769	3.68
282.147	3.67
282.525	3.47
282.903	3.11
283.281	3.03
283.659	3.52
284.037	3.15
284.415	2.6
284.792	2.84
285.17	3.1
285.548	3.31
285.925	3.11
286.303	3.12
286.68	2.61
287.058	3.23
287.435	3.26
287.813	3.03
288.19	3.11
288.567	3.43
288.945	3.44
289.322	2.69
289.699	3.16
290.076	3.47
290.453	3.31
290.83	3.04
291.207	3.14
291.584	3.29
291.961	3.08
292.338	3.65
292.715	3.31
293.092	3.52
293.469	3.63
293.845	3.38
294.222	3.05
294.599	3.24
294.975	3.46
295.352	4.01
295.728	3.55
296.105	3.56
296.481	3.09
296.858	3.81
297.234	3.15
297.61	2.99
297.986	3.64
298.363	3.38
298.739	3.2
299.115	3.57
299.491	3.21
299.867	3.44
300.243	3.45
300.619	3.57
300.995	3.85
301.371	3.33
301.746	3.42
302.122	3.81
302.498	3.88
302.874	3.81
303.249	3.49
303.625	3.88
304	3.45
304.376	3.38
304.751	3.86
305.127	3.47
305.502	3.27
305.878	3.83
306.253	3.17
306.628	2.99
307.003	3.74
307.378	3.86
307.754	4.34
308.129	3.54
308.504	3.61
308.879	3.8
309.254	3.57
309.629	3.63
310.003	3.72
310.378	3.05
310.753	2.92
311.128	3.95
311.502	4
311.877	3.36
312.252	3.82
312.626	3.53
313.001	3.74
313.375	3.73
313.75	3.78
314.124	3.82
314.498	3.66
314.873	3.13
315.247	3.34
315.621	4.08
315.995	3.66
316.369	3.38
316.743	3.21
317.117	3.87
317.491	3.09
317.865	3.49
318.239	3.75
318.613	4.32
318.987	3.93
319.361	3.39
319.734	4.22
320.108	4.1
320.482	3.85
320.855	3.44
321.229	3.9
321.602	3.61
321.976	4.1
322.349	3.49
322.723	3.73
323.096	3.84
323.469	3.57
323.843	3.55
324.216	4.31
324.589	3.88
324.962	3.64
325.335	3.62
325.708	4.15
326.081	3.72
326.454	3.78
326.827	3.48
327.2	3.79
327.573	3.79
327.945	4.22
328.318	3.43
328.691	4.14
329.063	3.63
329.436	3.24
329.809	3.61
330.181	4.47
330.553	3.58
330.926	4.02
331.298	3.88
331.671	2.84
332.043	4.56
332.415	3.83
332.787	3.49
333.159	3.48
333.532	3.65
333.904	3.88
334.276	3.77
334.648	3.45
335.02	3.55
335.391	3.52
335.763	3.77
336.135	3.4
336.507	3.69
336.879	4.01
337.25	4.04
337.622	3.69
337.993	3.78
338.365	3.61
338.736	3.49
339.108	3.9
339.479	4.55
339.851	3.84
340.222	4.1
340.593	3.84
340.964	3.8
341.336	3.61
341.707	3.76
342.078	3.45
342.449	4.05
342.82	4.06
343.191	3.94
343.562	4.15
343.933	3.77
344.303	4.09
344.674	3.95
345.045	3.85
345.416	3.6
345.786	3.93
346.157	3.81
346.527	3.81
346.898	4.32
347.268	3.98
347.639	3.88
348.009	3.72
348.38	3.99
348.75	3.93
349.12	3.84
349.49	3.58
349.861	3.61
350.231	4.03
350.601	4.2
350.971	3.93
351.341	3.88
351.711	4.21
352.081	3.71
352.45	3.46
352.82	3.54
353.19	4.39
353.56	3.98
353.929	3.63
354.299	4.05
354.669	3.82
355.038	3.84
355.408	4.32
355.777	3.81
356.147	3.58
356.516	3.99
356.885	3.71
357.254	4.1
357.624	3.55
357.993	4.05
358.362	3.68
358.731	3.83
359.1	4.14
359.469	4.03
359.838	3.9
360.207	3.9
360.576	3.99
360.945	3.48
361.314	4.24
361.682	3.69
362.051	4.17
362.42	4.05
362.788	3.72
363.157	3.83
363.525	3.84
363.894	3.9
364.262	3.78
364.631	4.12
364.999	3.49
365.367	3.85
365.735	3.94
366.104	4.27
366.472	3.42
366.84	4.23
367.208	3.65
367.576	3.8
367.944	3.76
368.312	4.07
368.68	3.91
369.048	3.96
369.416	4
369.783	4.25
370.151	4.26
370.519	4.04
370.886	3.94
371.254	4.29
371.621	3.78
371.989	3.77
372.356	4
372.724	4.23
373.091	3.68
373.458	4.03
373.826	4.17
374.193	4.24
374.56	3.88
374.927	4.01
375.294	3.45
375.661	3.9
376.028	3.9
376.395	4.03
376.762	4.22
377.129	3.94
377.496	4.06
377.863	3.87
378.229	3.67
378.596	4.03
378.963	4.01
379.329	4.08
379.696	3.52
380.062	3.89
380.429	4.14
380.795	3.92
381.161	4.25
381.528	3.92
381.894	3.92
382.26	3.58
382.626	4.13
382.993	3.94
383.359	4.09
383.725	3.88
384.091	3.95
384.457	4.1
384.823	4
385.188	3.94
385.554	4.07
385.92	4.12
386.286	3.69
386.651	3.77
387.017	3.93
387.383	3.96
387.748	3.94
388.114	3.77
388.479	4.06
388.845	3.9
389.21	4.07
389.575	3.95
389.94	3.88
390.306	3.9
390.671	3.88
391.036	4.17
391.401	3.87
391.766	3.87
392.131	3.87
392.496	3.95
392.861	3.91
393.226	4.12
393.591	4.17
393.956	4.07
394.32	4.08
394.685	4.13
395.05	4.09
395.414	4.15
395.779	3.98
396.143	4.36
396.508	4.1
396.872	4.23
397.236	3.85
397.601	3.88
397.965	4.25
398.329	3.97
398.694	3.84
399.058	4.09
399.422	3.89
399.786	4.1
400.15	3.67
400.514	3.97
400.878	3.9
401.242	3.76
401.605	3.86
401.969	4.31
402.333	4
402.697	3.72
403.06	4.19
403.424	4.24
403.787	4.01
404.151	4.05
404.514	3.95
404.878	4.09
405.241	4.29
405.604	3.89
405.968	4.03
406.331	3.83
406.694	3.94
407.057	3.93
407.42	4.09
407.783	4.1
408.146	4.04
408.509	3.92
408.872	3.94
409.235	4.37
409.598	4.22
409.961	3.96
410.323	4.21
410.686	3.92
411.049	3.76
411.411	3.78
411.774	3.82
412.136	3.85
412.499	4.1
412.861	3.85
413.223	3.99
413.586	4.01
413.948	4.21
414.31	4.2
414.672	4.08
415.035	4.16
415.397	3.96
415.759	4.06
416.121	4.39
416.483	4.19
416.845	3.98
417.206	4.11
417.568	3.94
417.93	4.21
418.292	4.1
418.653	3.88
419.015	3.99
419.377	4.06
419.738	3.98
420.1	4.01
420.461	4.13
420.822	4.11
421.184	4
421.545	4.02
421.906	4
422.267	3.96
422.629	3.96
422.99	4.01
423.351	4.05
423.712	4.05
424.073	3.84
424.434	3.93
424.795	4.11
425.155	4.02
425.516	4.09
425.877	4.05
426.238	4.08
426.598	4.02
426.959	3.9
427.32	4.03
427.68	4.22
428.041	4.01
428.401	4.1
428.761	4.17
429.122	4.14
429.482	4.29
429.842	4.28
430.202	4.09
430.563	4.25
430.923	4.09
431.283	4.06
431.643	4.01
432.003	4.34
432.363	3.94
432.722	4.34
433.082	4.04
433.442	4.25
433.802	4.22
434.161	4.35
434.521	4.08
434.881	4.24
435.24	4.1
435.6	4.12
435.959	4.15
436.319	4.25
436.678	4.13
437.037	3.99
437.396	4.03
437.756	4.22
438.115	4.03
438.474	3.97
438.833	4.31
439.192	4.27
439.551	4.12
439.91	4.19
440.269	4.35
440.628	4.25
440.987	4.18
441.345	4.13
441.704	4.22
442.063	4.27
442.421	4.2
442.78	4.1
443.138	4.2
443.497	4.23
443.855	4.08
444.214	4.27
444.572	4.29
444.93	4.18
445.288	4.24
445.647	4.14
446.005	4.47
446.363	4.2
446.721	4.16
447.079	4.14
447.437	4.14
447.795	4.13
448.153	4.16
448.51	4.25
448.868	4.13
449.226	4.26
449.584	4.22
449.941	4.09
450.299	4.25
450.656	4.13
451.014	4.29
451.371	4.28
451.729	4.31
452.086	4.12
452.443	4.21
452.801	4.22
453.158	4.43
453.515	4.36
453.872	4.4
454.229	4.11
454.586	4.31
454.943	4.23
455.3	4.38
455.657	4.22
456.014	4.42
456.371	4.27
456.727	4.27
457.084	4.27
457.441	4.32
457.797	4.18
458.154	4.48
458.51	4.36
458.867	4.54
459.223	4.37
459.58	4.26
459.936	4.49
460.292	4.09
460.648	4.21
461.005	4.31
461.361	4.22
461.717	4.24
462.073	4.15
462.429	4.29
462.785	4.29
463.141	4.37
463.496	4.45
463.852	4.36
464.208	4.27
464.564	4.34
464.919	4.58
465.275	4.32
465.631	4.34
465.986	4.55
466.342	4.29
466.697	4.34
467.052	4.19
467.408	4.32
467.763	4.58
468.118	4.28
468.473	4.51
468.829	4.5
469.184	4.38
469.539	4.4
469.894	4.32
470.249	4.5
470.603	4.27
470.958	4.45
471.313	4.31
471.668	4.33
472.023	4.45
472.377	4.25
472.732	4.42
473.086	4.43
473.441	4.42
473.795	4.45
474.15	4.24
474.504	4.44
474.859	4.34
475.213	4.33
475.567	4.5
475.921	4.62
476.275	4.43
476.63	4.35
476.984	4.49
477.338	4.46
477.692	4.35
478.045	4.38
478.399	4.36
478.753	4.44
479.107	4.48
479.461	4.48
479.814	4.47
480.168	4.28
480.521	4.42
480.875	4.42
481.228	4.38
481.582	4.6
481.935	4.49
482.289	4.47
482.642	4.47
482.995	4.31
483.348	4.43
483.701	4.46
484.055	4.34
484.408	4.33
484.761	4.39
485.114	4.23
485.466	4.14
485.819	4.22
486.172	4.19
486.525	4.3
486.878	4.37
487.23	4.37
487.583	4.38
487.936	4.41
488.288	4.4
488.641	4.28
488.993	4.38
489.345	4.28
489.698	4.26
490.05	4.32
490.402	4.36
490.754	4.42
491.107	4.47
491.459	4.47
491.811	4.55
492.163	4.44
492.515	4.37
492.866	4.4
493.218	4.36
493.57	4.4
493.922	4.41
494.274	4.41
494.625	4.42
494.977	4.53
495.328	4.5
495.68	4.61
496.031	4.5
496.383	4.38
496.734	4.52
497.086	4.46
497.437	4.79
497.788	4.5
498.139	4.42
498.49	4.69
498.842	4.57
499.193	4.67
499.544	4.65
499.894	4.5
500.245	4.54
500.596	4.5
500.947	4.53
501.298	4.6
501.648	4.55
501.999	4.67
502.35	4.7
502.7	4.76
503.051	4.69
503.401	4.54
503.752	4.63
504.102	4.68
504.452	4.75
504.803	4.65
505.153	4.62
505.503	4.8
505.853	4.8
506.203	4.76
506.553	4.7
506.903	4.59
507.253	4.68
507.603	4.68
507.953	4.65
508.303	4.77
508.652	4.71
509.002	4.68
509.352	4.62
509.701	4.7
510.051	4.68
510.4	4.71
510.75	4.58
511.099	4.67
511.449	4.66
511.798	4.64
512.147	4.79
512.496	4.75
512.846	4.63
513.195	4.67
513.544	4.79
513.893	4.7
514.242	4.72
514.591	4.66
514.939	4.73
515.288	4.83
515.637	4.78
515.986	4.75
516.334	4.75
516.683	4.81
517.032	4.85
517.38	4.75
517.729	4.87
518.077	4.86
518.426	4.72
518.774	4.78
519.122	4.81
519.47	4.81
519.819	4.77
520.167	4.72
520.515	4.68
520.863	4.69
521.211	4.76
521.559	4.85
521.907	4.82
522.255	4.71
522.602	4.78
522.95	4.73
523.298	4.79
523.645	4.83
523.993	4.99
524.341	4.83
524.688	4.85
525.036	4.99
525.383	4.9
525.73	4.97
526.078	4.98
526.425	4.87
526.772	4.8
527.119	4.83
527.466	4.9
527.814	4.91
528.161	4.88
528.508	4.91
528.854	4.82
529.201	4.89
529.548	4.8
529.895	4.73
530.242	4.64
530.588	4.7
530.935	4.74
531.282	4.79
531.628	4.78
531.975	4.85
532.321	4.79
532.667	4.9
533.014	5
533.36	4.86
533.706	4.98
534.052	5
534.399	4.98
534.745	4.88
535.091	4.79
535.437	4.91
535.783	4.89
536.129	5.07
536.474	5
536.82	5.06
537.166	4.91
537.512	5.1
537.857	5.15
538.203	5.03
538.549	5.01
538.894	5.18
539.239	5.05
539.585	5.01
539.93	5.09
540.276	5.15
540.621	5.04
540.966	5.14
541.311	5.13
541.656	5.2
542.001	5.09
542.346	5.05
542.691	5.02
543.036	5
543.381	4.94
543.726	5.05
544.071	5.1
544.415	5.07
544.76	5.11
545.105	5.07
545.449	5.17
545.794	5.32
546.138	5.25
546.483	5.2
546.827	5.38
547.171	5.27
547.516	5.27
547.86	5.21
548.204	5.14
548.548	5.21
548.892	5.21
549.236	5.36
549.58	5.42
549.924	5.38
550.268	5.32
550.612	5.45
550.956	5.46
551.3	5.56
551.643	5.39
551.987	5.44
552.33	5.48
552.674	5.56
553.017	5.36
553.361	5.47
553.704	5.38
554.048	5.54
554.391	5.49
554.734	5.55
555.077	5.36
555.42	5.5
555.764	5.47
556.107	5.78
556.45	5.66
556.793	5.63
557.135	5.52
557.478	5.65
557.821	5.81
558.164	5.65
558.507	5.59
558.849	5.68
559.192	5.68
559.534	5.65
559.877	5.89
560.219	5.74
560.562	5.61
560.904	5.7
561.246	5.59
561.589	5.72
561.931	5.67
562.273	5.99
562.615	5.73
562.957	5.75
563.299	5.83
563.641	5.7
563.983	6.05
564.325	5.78
564.667	5.8
565.008	5.99
565.35	6.09
565.692	5.9
566.033	6.05
566.375	5.94
566.716	5.9
567.058	5.88
567.399	6.06
567.741	6
568.082	6.22
568.423	5.87
568.764	5.94
569.105	5.9
569.447	6.05
569.788	6.12
570.129	6.1
570.47	5.98
570.811	5.97
571.151	6.16
571.492	6.24
571.833	6.38
572.174	6.22
572.514	6.23
572.855	6.2
573.195	6.24
573.536	6.24
573.876	6.25
574.217	6.19
574.557	6.29
574.898	6.2
575.238	6.26
575.578	6.43
575.918	6.3
576.258	6.22
576.598	6.34
576.938	6.37
577.278	6.32
577.618	6.16
577.958	6.35
578.298	6.54
578.638	6.38
578.977	6.44
579.317	6.61
579.657	6.53
579.996	6.48
580.336	6.65
580.675	6.73
581.014	6.75
581.354	6.32
581.693	6.76
582.032	6.86
582.372	6.58
582.711	6.67
583.05	6.7
583.389	6.64
583.728	6.49
584.067	6.6
584.406	6.73
584.745	6.68
585.083	6.6
585.422	6.72
585.761	6.75
586.1	6.93
586.438	6.73
586.777	6.85
587.115	6.64
587.454	6.58
587.792	6.84
588.13	6.97
588.469	6.82
588.807	7.02
589.145	7.18
589.483	6.94
589.821	6.8
590.159	6.82
590.497	6.85
590.835	7.15
591.173	7.31
591.511	7.09
591.849	7.05
592.187	7.14
592.524	6.84
592.862	6.83
593.2	7.31
593.537	7.26
593.875	7.32
594.212	7.27
594.55	7.26
594.887	7.34
595.224	7.38
595.561	7.36
595.899	7.42
596.236	7.27
596.573	7.77
596.91	7.18
597.247	7.77
597.584	7.49
597.921	7.17
598.258	7.57
598.594	7.28
598.931	7.45
599.268	7.39
599.604	7.61
599.941	7.4
600.277	7.63
600.614	7.86
600.95	7.76
601.287	7.74
601.623	7.88
601.959	7.89
602.296	7.25
602.632	7.54
602.968	7.43
603.304	7.77
603.64	8.03
603.976	8.15
604.312	8.3
604.648	7.75
604.984	7.74
605.319	7.92
605.655	7.81
605.991	7.78
606.326	7.99
606.662	7.96
606.998	7.83
607.333	7.88
607.668	7.99
608.004	8.11
608.339	8.1
608.674	7.95
609.01	8.08
609.345	8.21
609.68	8.01
610.015	8.34
610.35	8.24
610.685	8.4
611.02	8.22
611.355	8.18
611.689	8.2
612.024	8.24
612.359	8.35
612.694	8.65
613.028	8.03
613.363	8.65
613.697	8.55
614.032	8.46
614.366	8.59
614.7	8.39
615.035	8.1
615.369	8.69
615.703	8.69
616.037	8.77
616.371	8.72
616.705	8.81
617.039	8.83
617.373	9.01
617.707	8.72
618.041	8.45
618.375	8.8
618.709	8.76
619.042	8.72
619.376	8.92
619.71	8.57
620.043	8.77
620.377	8.83
620.71	9.04
621.043	9.25
621.377	8.96
621.71	9.29
622.043	9.21
622.376	9.07
622.709	9.36
623.043	9.31
623.376	9.2
623.709	9.05
624.041	9.27
624.374	8.78
624.707	9.53
625.04	9.1
625.373	9.42
625.705	9.35
626.038	9.24
626.37	8.91
626.703	9.26
627.035	9.09
627.368	9.22
627.7	9.63
628.032	9.1
628.365	9.48
628.697	8.93
629.029	9.58
629.361	9.4
629.693	9.37
630.025	9.68
630.357	9.52
630.689	9.59
631.021	9.82
631.353	9.79
631.684	9.66
632.016	9.59
632.348	10.18
632.679	9.72
633.011	10.28
633.342	9.65
633.674	9.64
634.005	10.01
634.336	9.87
634.668	10.07
634.999	9.85
635.33	9.94
635.661	9.68
635.992	9.74
636.323	9.98
636.654	9.88
636.985	9.88
637.316	9.95
637.647	9.81
637.977	10.24
638.308	10.23
638.639	10.53
638.969	10.32
639.3	10.57
639.63	9.93
639.961	10.77
640.291	9.79
640.622	10.18
640.952	9.65
641.282	10.85
641.612	10.55
641.943	10.61
642.273	10.49
642.603	10.5
642.933	9.99
643.263	10.44
643.592	10.35
643.922	10.86
644.252	10.87
644.582	10.2
644.911	10.4
645.241	10.63
645.571	10.49
645.9	10.48
646.23	10.89
646.559	10.32
646.888	11.17
647.218	10.56
647.547	10.36
647.876	10.96
648.205	10.6
648.534	10.21
648.863	10.94
649.192	11.27
649.521	11.06
649.85	11.12
650.179	10.76
650.508	11.13
650.837	10.72
651.165	11.06
651.494	11.41
651.822	10.67
652.151	11.25
652.479	11.05
652.808	10.96
653.136	10.83
653.465	11.18
653.793	10.87
654.121	11.2
654.449	11.72
654.777	11.74
655.105	11.33
655.433	10.67
655.761	11.65
656.089	11.38
656.417	10.93
656.745	11.39
657.073	11.42
657.4	11.93
657.728	11.9
658.056	11.73
658.383	11.73
658.711	11.47
659.038	11.77
659.365	11.62
659.693	11.62
660.02	11.17
660.347	11.86
660.674	11.63
661.001	11.65
661.329	11.76
661.656	12.08
661.982	11.93
662.309	12.62
662.636	12.2
662.963	11.81
663.29	12.17
663.616	11.78
663.943	11.54
664.27	11.98
664.596	12
664.923	11.88
665.249	11.82
665.576	12.1
665.902	12
666.228	12.08
666.554	12.03
666.881	13.04
667.207	12.23
667.533	11.83
667.859	12.19
668.185	11.97
668.511	12.27
668.837	13.11
669.162	11.53
669.488	11.87
669.814	12.6
670.139	11.98
670.465	12.75
670.791	12.87
671.116	12.51
671.442	12.82
671.767	12.11
672.092	12.79
672.418	12.75
672.743	12.98
673.068	12.61
673.393	13.11
673.718	12.89
674.043	12.74
674.368	13.41
674.693	13.19
675.018	13.23
675.343	13.15
675.667	12.52
675.992	13
676.317	13.44
676.641	12.01
676.966	13.6
677.29	12.79
677.615	12.63
677.939	12.37
678.264	14.01
678.588	13.37
678.912	12.45
679.236	12.84
679.56	13.88
679.885	13.5
680.209	13.1
680.532	14.26
680.856	13.73
681.18	13.23
681.504	12.99
681.828	13.97
682.152	13.03
682.475	13.8
682.799	13.4
683.122	14.11
683.446	13.77
683.769	13.85
684.093	14.01
684.416	14.13
684.739	13.61
685.062	13.22
685.386	14.21
685.709	13.89
686.032	14.74
686.355	14.15
686.678	13.54
687.001	13.41
687.324	13.03
687.646	14.48
687.969	13.79
688.292	14.49
688.614	13.61
688.937	13.69
689.26	13.97
