Data from 815652_crown_Reflection__1__51.txt Node

Date: Fri Sep 16 14:52:07 CDT 2022
User: ToomeyLab
Spectrometer: FLMS14357
Trigger mode: 0
Integration Time (sec): 1.000000E-2
Scans to average: 100
Electric dark correction enabled: true
Nonlinearity correction enabled: false
Boxcar width: 0
XAxis mode: Wavelengths
Number of Pixels in Spectrum: 2048
>>>>>Begin Spectral Data<<<<<
189.047	34.69
189.435	34.69
189.823	34.69
190.211	-654.09
190.599	-113.59
190.987	89.95
191.375	68.77
191.763	15.67
192.151	-210.36
192.538	-219.69
192.926	-131.19
193.314	58.34
193.702	87.52
194.089	0.17
194.477	65.69
194.864	81.5
195.252	1440.19
195.639	56.89
196.027	126.14
196.414	140.74
196.801	-102.12
197.189	44.19
197.576	35.8
197.963	-56.48
198.351	0.71
198.738	-0.16
199.125	37.44
199.512	-68.18
199.899	1.94
200.286	8.15
200.673	43.38
201.06	36.09
201.447	6.81
201.833	-64.62
202.22	47.68
202.607	-46.25
202.994	-10.38
203.38	12.88
203.767	-20.33
204.154	50.84
204.54	-15.13
204.927	8.2
205.313	40.4
205.699	22.03
206.086	10.42
206.472	23.18
206.858	32.79
207.245	0.84
207.631	22.92
208.017	10.41
208.403	-14.97
208.789	6.36
209.175	40.8
209.561	-13.29
209.947	-4.55
210.333	11.33
210.719	-4.81
211.105	23.21
211.491	8.82
211.876	18.08
212.262	12.29
212.648	14.21
213.034	-14.27
213.419	-17.38
213.805	0.68
214.19	4.35
214.576	-11.6
214.961	-1.57
215.346	-31.6
215.732	-102.85
216.117	15.76
216.502	-13.3
216.888	-38.27
217.273	-17.61
217.658	3
218.043	-83.19
218.428	-15.6
218.813	13.59
219.198	-4.31
219.583	-1.54
219.968	11.48
220.353	-6.07
220.738	16.09
221.122	-44.17
221.507	3.6
221.892	11.09
222.276	2.84
222.661	-0.58
223.046	7.96
223.43	5.41
223.815	-0.86
224.199	-1.36
224.583	5.7
224.968	3.59
225.352	5.57
225.736	12.62
226.121	1.95
226.505	-1.06
226.889	2.38
227.273	3.04
227.657	1.98
228.041	2.86
228.425	-3.66
228.809	3.63
229.193	2.16
229.577	1.87
229.961	1.49
230.344	2.65
230.728	1.82
231.112	2.21
231.495	1.55
231.879	2.74
232.263	1.63
232.646	0.4
233.03	2.84
233.413	3.41
233.797	0.4
234.18	3.67
234.563	0.75
234.946	1.13
235.33	2.14
235.713	2.24
236.096	1.55
236.479	2.5
236.862	2.29
237.245	2.33
237.628	2.49
238.011	2.31
238.394	1.58
238.777	3.22
239.16	3.95
239.543	2.96
239.925	2.22
240.308	1.63
240.691	3.45
241.073	1.6
241.456	2.77
241.838	1.75
242.221	2.07
242.603	1.65
242.986	1.25
243.368	1.57
243.75	1.67
244.133	2.71
244.515	1.9
244.897	2.36
245.279	2.13
245.661	1.91
246.043	1.43
246.425	1.86
246.807	2.89
247.189	1.47
247.571	1.83
247.953	1.65
248.335	1.97
248.717	2.06
249.098	2.3
249.48	1.87
249.862	2.21
250.243	2.33
250.625	2.29
251.006	2.5
251.388	2.25
251.769	1.1
252.151	2.92
252.532	2.21
252.913	1.85
253.295	1.52
253.676	2.2
254.057	1.86
254.438	1.92
254.819	1.22
255.2	1.99
255.581	1.59
255.962	1.95
256.343	2.28
256.724	0.94
257.105	1.42
257.486	2.16
257.867	1.2
258.247	2.47
258.628	3.05
259.009	2.02
259.389	1.68
259.77	2.02
260.15	2.23
260.531	1.34
260.911	1.85
261.292	1.69
261.672	2.08
262.052	1.94
262.432	1.97
262.813	2.6
263.193	1.58
263.573	1.55
263.953	2.26
264.333	2.04
264.713	2.13
265.093	1.64
265.473	1.96
265.853	2.55
266.233	1.7
266.612	2.34
266.992	1.38
267.372	2.13
267.752	1.49
268.131	1.81
268.511	2.49
268.89	1.97
269.27	1.39
269.649	2.2
270.029	1.92
270.408	2.6
270.787	2.29
271.167	1.82
271.546	2.03
271.925	1.96
272.304	1.69
272.683	1.31
273.062	1.77
273.441	1.89
273.82	1.83
274.199	2.12
274.578	2.2
274.957	2.09
275.336	1.83
275.715	1.96
276.093	2.03
276.472	1.87
276.851	2.22
277.229	1.77
277.608	2.09
277.986	2.09
278.365	1.31
278.743	1.85
279.122	1.56
279.5	1.74
279.878	1.53
280.257	2.38
280.635	2.35
281.013	1.88
281.391	1.97
281.769	2.41
282.147	2.17
282.525	1.54
282.903	1.6
283.281	1.35
283.659	1.85
284.037	2.06
284.415	2.18
284.792	2.17
285.17	1.8
285.548	2.05
285.925	1.68
286.303	2.24
286.68	1.89
287.058	1.68
287.435	1.82
287.813	2.01
288.19	1.64
288.567	1.64
288.945	1.95
289.322	1.82
289.699	1.79
290.076	1.83
290.453	1.9
290.83	1.86
291.207	1.61
291.584	1.53
291.961	1.94
292.338	2.32
292.715	2.05
293.092	1.79
293.469	2.02
293.845	2.18
294.222	1.72
294.599	1.44
294.975	1.56
295.352	2.69
295.728	1.69
296.105	1.79
296.481	2.11
296.858	1.97
297.234	2.07
297.61	2.25
297.986	2.07
298.363	1.81
298.739	1.69
299.115	2.11
299.491	2.14
299.867	2.01
300.243	1.78
300.619	2.01
300.995	2.3
301.371	2.18
301.746	1.84
302.122	2.22
302.498	2.27
302.874	2.3
303.249	2.14
303.625	1.88
304	2.4
304.376	1.5
304.751	2.12
305.127	2.23
305.502	1.99
305.878	2.24
306.253	2.42
306.628	1.93
307.003	2.38
307.378	2.46
307.754	2.47
308.129	2.79
308.504	2.42
308.879	2.72
309.254	2.17
309.629	1.75
310.003	2.01
310.378	1.55
310.753	1.93
311.128	1.82
311.502	1.79
311.877	1.91
312.252	2.29
312.626	2.21
313.001	2.09
313.375	2.65
313.75	2.15
314.124	1.97
314.498	2.08
314.873	2.19
315.247	2.2
315.621	2.05
315.995	1.94
316.369	2.48
316.743	2.37
317.117	1.95
317.491	2.13
317.865	2.23
318.239	2.36
318.613	2.26
318.987	1.6
319.361	2.34
319.734	2.03
320.108	2.09
320.482	2
320.855	2.15
321.229	1.76
321.602	2.75
321.976	2.47
322.349	2.6
322.723	2.11
323.096	2.18
323.469	2.42
323.843	2.84
324.216	2.87
324.589	2.51
324.962	1.8
325.335	2.39
325.708	2.56
326.081	2.18
326.454	2.2
326.827	1.9
327.2	1.81
327.573	2.18
327.945	2.37
328.318	2.33
328.691	2.09
329.063	2.17
329.436	1.92
329.809	1.45
330.181	2.03
330.553	2.43
330.926	2.24
331.298	2.09
331.671	1.98
332.043	1.89
332.415	2.3
332.787	2.12
333.159	2.24
333.532	2.16
333.904	2.08
334.276	2.3
334.648	2.23
335.02	2.37
335.391	2.29
335.763	1.91
336.135	1.72
336.507	2.14
336.879	2.49
337.25	1.88
337.622	2.3
337.993	2.89
338.365	2.43
338.736	2.25
339.108	2.13
339.479	2.23
339.851	2.08
340.222	1.86
340.593	2.39
340.964	2.27
341.336	2.5
341.707	2.05
342.078	2.47
342.449	2.32
342.82	1.88
343.191	2.04
343.562	2.66
343.933	2.42
344.303	2.33
344.674	1.66
345.045	2.58
345.416	2.18
345.786	2.18
346.157	2.23
346.527	1.99
346.898	1.82
347.268	2.17
347.639	1.74
348.009	2.24
348.38	2.17
348.75	2.19
349.12	2.34
349.49	2.63
349.861	2.44
350.231	1.87
350.601	2.09
350.971	1.82
351.341	2.55
351.711	2.42
352.081	2.1
352.45	2.5
352.82	2.53
353.19	1.98
353.56	2.51
353.929	2.11
354.299	1.99
354.669	2.31
355.038	2.12
355.408	2.32
355.777	2.15
356.147	2.02
356.516	2.19
356.885	2.35
357.254	2.25
357.624	1.89
357.993	2.24
358.362	1.84
358.731	2.34
359.1	2.1
359.469	2.23
359.838	2.07
360.207	2.26
360.576	2.28
360.945	2.09
361.314	2
361.682	1.92
362.051	2.18
362.42	2.28
362.788	2.37
363.157	2.13
363.525	2.08
363.894	2.32
364.262	2.14
364.631	2.29
364.999	2.02
365.367	2.09
365.735	2.36
366.104	2.15
366.472	2.54
366.84	2.21
367.208	2.26
367.576	2.21
367.944	2.07
368.312	2.12
368.68	2.53
369.048	2.37
369.416	2.21
369.783	2.29
370.151	2.36
370.519	1.9
370.886	2.16
371.254	1.9
371.621	2.31
371.989	2.32
372.356	2.37
372.724	2.33
373.091	2.2
373.458	2.17
373.826	1.98
374.193	2.57
374.56	2.1
374.927	2.23
375.294	2.19
375.661	2.08
376.028	2.5
376.395	2.06
376.762	2.54
377.129	2.04
377.496	2.31
377.863	2.4
378.229	2.55
378.596	1.98
378.963	2.27
379.329	2.14
379.696	2.54
380.062	2.56
380.429	2.35
380.795	2.08
381.161	2.49
381.528	2.51
381.894	2.41
382.26	2.22
382.626	1.98
382.993	2.08
383.359	2.33
383.725	2.18
384.091	2.67
384.457	1.79
384.823	2.24
385.188	2.15
385.554	2.14
385.92	2.29
386.286	2.39
386.651	2.09
387.017	2.43
387.383	1.89
387.748	1.81
388.114	1.96
388.479	2.44
388.845	2.24
389.21	2.53
389.575	2.37
389.94	2.37
390.306	2.14
390.671	2.24
391.036	2.32
391.401	2.39
391.766	2.26
392.131	2.25
392.496	2.24
392.861	2.13
393.226	2.4
393.591	2.45
393.956	2.34
394.32	2.64
394.685	2.18
395.05	2.6
395.414	2.16
395.779	2.29
396.143	2.4
396.508	2.05
396.872	2.49
397.236	2.12
397.601	2.21
397.965	2
398.329	2.35
398.694	2.4
399.058	2.42
399.422	2.21
399.786	2.3
400.15	2.31
400.514	2.23
400.878	2.58
401.242	2.4
401.605	2.3
401.969	2.25
402.333	2.28
402.697	2.37
403.06	2.51
403.424	2.39
403.787	2.14
404.151	2.4
404.514	2.19
404.878	2.24
405.241	2.21
405.604	2.52
405.968	2.58
406.331	2.19
406.694	2.45
407.057	2.35
407.42	2.17
407.783	2.44
408.146	2.51
408.509	2.41
408.872	2.54
409.235	2.51
409.598	2.11
409.961	2.33
410.323	2.37
410.686	2.67
411.049	2.38
411.411	2.21
411.774	2.41
412.136	2.48
412.499	2.51
412.861	2.36
413.223	2.16
413.586	2.43
413.948	2.24
414.31	2.4
414.672	2.27
415.035	2.42
415.397	2.12
415.759	2.49
416.121	2.36
416.483	2.61
416.845	2.55
417.206	2.56
417.568	2.48
417.93	2.46
418.292	2.56
418.653	2.24
419.015	2.24
419.377	2.41
419.738	2.27
420.1	2.43
420.461	2.47
420.822	2.28
421.184	2.34
421.545	2.36
421.906	2.39
422.267	2.44
422.629	2.33
422.99	2.34
423.351	2.35
423.712	2.37
424.073	2.42
424.434	2.41
424.795	2.37
425.155	2.39
425.516	2.45
425.877	2.35
426.238	2.41
426.598	2.31
426.959	2.41
427.32	2.38
427.68	2.54
428.041	2.41
428.401	2.42
428.761	2.56
429.122	2.54
429.482	2.4
429.842	2.46
430.202	2.4
430.563	2.44
430.923	2.53
431.283	2.63
431.643	2.52
432.003	2.51
432.363	2.57
432.722	2.6
433.082	2.54
433.442	2.52
433.802	2.47
434.161	2.38
434.521	2.48
434.881	2.48
435.24	2.48
435.6	2.59
435.959	2.58
436.319	2.44
436.678	2.62
437.037	2.46
437.396	2.59
437.756	2.55
438.115	2.54
438.474	2.5
438.833	2.42
439.192	2.45
439.551	2.52
439.91	2.48
440.269	2.68
440.628	2.43
440.987	2.52
441.345	2.41
441.704	2.55
442.063	2.46
442.421	2.46
442.78	2.43
443.138	2.56
443.497	2.57
443.855	2.59
444.214	2.53
444.572	2.63
444.93	2.46
445.288	2.53
445.647	2.47
446.005	2.54
446.363	2.69
446.721	2.59
447.079	2.5
447.437	2.54
447.795	2.54
448.153	2.53
448.51	2.54
448.868	2.49
449.226	2.59
449.584	2.71
449.941	2.53
450.299	2.56
450.656	2.6
451.014	2.68
451.371	2.69
451.729	2.53
452.086	2.62
452.443	2.56
452.801	2.6
453.158	2.56
453.515	2.67
453.872	2.57
454.229	2.63
454.586	2.55
454.943	2.5
455.3	2.68
455.657	2.53
456.014	2.64
456.371	2.56
456.727	2.7
457.084	2.88
457.441	2.73
457.797	2.77
458.154	2.6
458.51	2.69
458.867	2.65
459.223	2.62
459.58	2.62
459.936	2.66
460.292	2.75
460.648	2.56
461.005	2.6
461.361	2.57
461.717	2.6
462.073	2.51
462.429	2.72
462.785	2.73
463.141	2.71
463.496	2.7
463.852	2.75
464.208	2.7
464.564	2.9
464.919	2.71
465.275	2.89
465.631	2.76
465.986	2.68
466.342	2.73
466.697	2.72
467.052	2.68
467.408	2.79
467.763	2.77
468.118	2.83
468.473	2.73
468.829	2.73
469.184	2.67
469.539	2.84
469.894	2.91
470.249	2.84
470.603	2.87
470.958	2.78
471.313	2.85
471.668	2.83
472.023	2.84
472.377	2.83
472.732	2.58
473.086	2.73
473.441	2.59
473.795	2.76
474.15	2.59
474.504	2.82
474.859	2.77
475.213	2.72
475.567	2.52
475.921	2.9
476.275	2.9
476.63	2.79
476.984	2.85
477.338	2.82
477.692	2.78
478.045	2.84
478.399	2.88
478.753	2.83
479.107	2.83
479.461	2.82
479.814	2.74
480.168	2.78
480.521	2.91
480.875	2.89
481.228	2.86
481.582	2.78
481.935	2.86
482.289	2.85
482.642	2.78
482.995	2.8
483.348	2.88
483.701	2.79
484.055	2.72
484.408	2.83
484.761	2.69
485.114	2.61
485.466	2.56
485.819	2.59
486.172	2.68
486.525	2.78
486.878	2.78
487.23	2.85
487.583	2.84
487.936	2.82
488.288	2.73
488.641	2.7
488.993	2.74
489.345	2.66
489.698	2.73
490.05	2.74
490.402	2.74
490.754	2.9
491.107	2.8
491.459	2.89
491.811	2.84
492.163	2.82
492.515	2.81
492.866	2.76
493.218	2.71
493.57	2.72
493.922	2.79
494.274	2.91
494.625	2.88
494.977	2.93
495.328	2.92
495.68	2.99
496.031	2.93
496.383	2.98
496.734	2.93
497.086	2.91
497.437	2.95
497.788	2.9
498.139	2.97
498.49	2.96
498.842	2.97
499.193	3
499.544	2.99
499.894	2.87
500.245	2.99
500.596	2.92
500.947	2.99
501.298	3
501.648	3.09
501.999	3
502.35	3.08
502.7	3.26
503.051	3.1
503.401	2.94
503.752	3.06
504.102	3.11
504.452	3.06
504.803	3.08
505.153	3.02
505.503	3.06
505.853	3.1
506.203	3.09
506.553	2.96
506.903	3
507.253	2.96
507.603	3.05
507.953	2.99
508.303	3.12
508.652	3.02
509.002	3.14
509.352	3.15
509.701	3.12
510.051	3.09
510.4	3.01
510.75	3
511.099	3.09
511.449	2.95
511.798	3.02
512.147	2.99
512.496	3.08
512.846	3.11
513.195	3.2
513.544	3.08
513.893	3.05
514.242	3.06
514.591	3.07
514.939	3.17
515.288	3.26
515.637	3.22
515.986	3.1
516.334	3.03
516.683	3.22
517.032	3.23
517.38	3.28
517.729	3.24
518.077	3.27
518.426	3.22
518.774	3.23
519.122	3.2
519.47	3.14
519.819	3.08
520.167	3.03
520.515	2.98
520.863	3.16
521.211	3.14
521.559	3.19
521.907	3.19
522.255	3.19
522.602	3.12
522.95	3.24
523.298	3.27
523.645	3.21
523.993	3.29
524.341	3.21
524.688	3.32
525.036	3.37
525.383	3.26
525.73	3.27
526.078	3.22
526.425	3.14
526.772	3.16
527.119	3.08
527.466	3.15
527.814	3.21
528.161	3.18
528.508	3.27
528.854	3.25
529.201	3.18
529.548	3.1
529.895	3.02
530.242	3.02
530.588	3.04
530.935	3.11
531.282	3.18
531.628	3.21
531.975	3.22
532.321	3.28
532.667	3.32
533.014	3.36
533.36	3.32
533.706	3.26
534.052	3.25
534.399	3.23
534.745	3.21
535.091	3.18
535.437	3.18
535.783	3.29
536.129	3.35
536.474	3.3
536.82	3.31
537.166	3.35
537.512	3.38
537.857	3.24
538.203	3.23
538.549	3.26
538.894	3.24
539.239	3.35
539.585	3.44
539.93	3.35
540.276	3.51
540.621	3.52
540.966	3.5
541.311	3.36
541.656	3.36
542.001	3.26
542.346	3.3
542.691	3.2
543.036	3.16
543.381	3.19
543.726	3.3
544.071	3.33
544.415	3.34
544.76	3.33
545.105	3.34
545.449	3.39
545.794	3.47
546.138	3.43
546.483	3.6
546.827	3.48
547.171	3.53
547.516	3.34
547.86	3.48
548.204	3.45
548.548	3.36
548.892	3.32
549.236	3.49
549.58	3.59
549.924	3.53
550.268	3.51
550.612	3.7
550.956	3.56
551.3	3.65
551.643	3.64
551.987	3.6
552.33	3.53
552.674	3.48
553.017	3.48
553.361	3.57
553.704	3.55
554.048	3.68
554.391	3.65
554.734	3.52
555.077	3.59
555.42	3.72
555.764	3.77
556.107	3.79
556.45	3.5
556.793	3.75
557.135	3.8
557.478	3.64
557.821	3.63
558.164	3.88
558.507	3.57
558.849	3.53
559.192	3.58
559.534	3.86
559.877	3.49
560.219	3.62
560.562	3.6
560.904	3.67
561.246	3.82
561.589	3.74
561.931	3.72
562.273	3.68
562.615	3.72
562.957	3.67
563.299	3.67
563.641	3.75
563.983	3.8
564.325	3.68
564.667	3.68
565.008	3.72
565.35	3.74
565.692	3.77
566.033	3.75
566.375	3.78
566.716	3.81
567.058	3.83
567.399	3.81
567.741	3.66
568.082	3.9
568.423	3.66
568.764	3.85
569.105	3.83
569.447	3.82
569.788	3.91
570.129	3.78
570.47	3.97
570.811	3.99
571.151	3.94
571.492	3.83
571.833	3.79
572.174	3.98
572.514	3.83
572.855	3.76
573.195	3.84
573.536	3.88
573.876	3.93
574.217	3.9
574.557	3.87
574.898	3.84
575.238	4.01
575.578	3.82
575.918	3.93
576.258	3.88
576.598	3.78
576.938	3.75
577.278	3.93
577.618	3.93
577.958	3.81
578.298	3.84
578.638	3.92
578.977	3.88
579.317	3.86
579.657	3.98
579.996	4.06
580.336	4
580.675	3.82
581.014	4.01
581.354	4.01
581.693	3.85
582.032	4.05
582.372	4.13
582.711	4.34
583.05	4.24
583.389	4.03
583.728	4.09
584.067	4.16
584.406	4.22
584.745	4.09
585.083	4.16
585.422	4.14
585.761	4.22
586.1	3.89
586.438	4.27
586.777	4.01
587.115	4.32
587.454	4.1
587.792	3.9
588.13	4.13
588.469	4.25
588.807	3.94
589.145	4.25
589.483	4.45
589.821	4.34
590.159	4.13
590.497	4.09
590.835	4.26
591.173	4.15
591.511	4.18
591.849	4.35
592.187	4.2
592.524	4.06
592.862	4.21
593.2	4
593.537	4.4
593.875	4.2
594.212	4.37
594.55	3.9
594.887	4.14
595.224	4.1
595.561	4.14
595.899	4.27
596.236	4.35
596.573	4.23
596.91	4.16
597.247	4.17
597.584	4.31
597.921	4.14
598.258	4.11
598.594	4.02
598.931	4.07
599.268	4.31
599.604	4.08
599.941	4.22
600.277	4.31
600.614	4.47
600.95	4.35
601.287	4.24
601.623	4.3
601.959	4.36
602.296	4.18
602.632	4.18
602.968	4.3
603.304	4.28
603.64	4.11
603.976	4.45
604.312	4.26
604.648	4.45
604.984	4.3
605.319	4.52
605.655	4.48
605.991	4.36
606.326	4.33
606.662	4.37
606.998	4.25
607.333	4.43
607.668	4.38
608.004	4.52
608.339	4.38
608.674	4.56
609.01	4.36
609.345	4.62
609.68	4.39
610.015	4.24
610.35	4.45
610.685	4.55
611.02	4.38
611.355	4.49
611.689	4.5
612.024	4.56
612.359	4.42
612.694	4.45
613.028	4.36
613.363	4.44
613.697	4.65
614.032	4.42
614.366	4.37
614.7	4.47
615.035	4.38
615.369	4.54
615.703	4.59
616.037	4.63
616.371	4.87
616.705	4.85
617.039	4.83
617.373	4.31
617.707	4.56
618.041	4.61
618.375	4.46
618.709	4.37
619.042	4.58
619.376	4.11
619.71	4.83
620.043	4.79
620.377	4.73
620.71	4.56
621.043	4.83
621.377	4.83
621.71	4.51
622.043	4.49
622.376	4.96
622.709	4.91
623.043	4.69
623.376	4.53
623.709	4.18
624.041	5.11
624.374	4.56
624.707	4.67
625.04	4.63
625.373	4.77
625.705	5.16
626.038	5.09
626.37	4.99
626.703	4.21
627.035	4.61
627.368	4.98
627.7	4.94
628.032	4.57
628.365	4.59
628.697	4.81
629.029	4.67
629.361	4.78
629.693	4.89
630.025	4.92
630.357	4.92
630.689	4.72
631.021	4.96
631.353	5.01
631.684	4.87
632.016	4.92
632.348	5.02
632.679	5
633.011	4.92
633.342	4.92
633.674	5.07
634.005	4.95
634.336	5.13
634.668	4.98
634.999	4.73
635.33	5.23
635.661	4.83
635.992	4.56
636.323	4.52
636.654	4.7
636.985	5.03
637.316	4.95
637.647	4.96
637.977	4.89
638.308	5.11
638.639	5.26
638.969	4.74
639.3	5.12
639.63	4.7
639.961	5.2
640.291	4.9
640.622	4.69
640.952	5.14
641.282	5.07
641.612	4.4
641.943	4.93
642.273	4.79
642.603	5.13
642.933	4.97
643.263	4.99
643.592	4.61
643.922	4.77
644.252	5.08
644.582	4.79
644.911	5.32
645.241	5.7
645.571	5.23
645.9	5.39
646.23	4.81
646.559	4.79
646.888	4.97
647.218	5.3
647.547	5.31
647.876	5.49
648.205	5.27
648.534	5.19
648.863	5.02
649.192	5.14
649.521	5.06
649.85	5.37
650.179	4.97
650.508	5.31
650.837	5.02
651.165	5.15
651.494	5.57
651.822	5.1
652.151	5.07
652.479	5.31
652.808	5.61
653.136	5.24
653.465	5.21
653.793	5.09
654.121	5.15
654.449	5.64
654.777	5.65
655.105	5.46
655.433	5.14
655.761	5.61
656.089	5.19
656.417	5.06
656.745	5.27
657.073	5.32
657.4	4.98
657.728	5.59
658.056	5.12
658.383	5.2
658.711	5.08
659.038	5.21
659.365	5.53
659.693	5.26
660.02	5.55
660.347	5.25
660.674	5.27
661.001	5.36
661.329	4.79
661.656	5.34
661.982	5.29
662.309	5.28
662.636	5.41
662.963	5.12
663.29	5.77
663.616	5.53
663.943	5.71
664.27	4.78
664.596	5.74
664.923	5.29
665.249	5.77
665.576	5.7
665.902	5.64
666.228	4.68
666.554	5.41
666.881	5.63
667.207	5.54
667.533	5.52
667.859	5.68
668.185	5.5
668.511	5.52
668.837	5.47
669.162	6.28
669.488	6.02
669.814	5.93
670.139	5.61
670.465	5.61
670.791	5.9
671.116	5.47
671.442	5.57
671.767	5.85
672.092	5.47
672.418	5.79
672.743	5.84
673.068	6.48
673.393	5.68
673.718	5.85
674.043	5.83
674.368	5.32
674.693	6.5
675.018	5.89
675.343	5.85
675.667	5.27
675.992	5.82
676.317	5.47
676.641	5.16
676.966	5.84
677.29	5.71
677.615	5.98
677.939	5.28
678.264	6.18
678.588	5.09
678.912	5.04
679.236	6.07
679.56	6.54
679.885	5.57
680.209	4.9
680.532	5.72
680.856	5.52
681.18	5.94
681.504	5.65
681.828	5.66
682.152	5.84
682.475	5.57
682.799	5.83
683.122	6.02
683.446	6.08
683.769	6.13
684.093	5.86
684.416	6.02
684.739	5.61
685.062	6.57
685.386	6.11
685.709	5.88
686.032	5.92
686.355	6.06
686.678	6.26
687.001	5.51
687.324	6.26
687.646	6.46
687.969	6.29
688.292	6.08
688.614	6.1
688.937	5.95
689.26	6.64
689.582	5.44
689.904	6.2
690.227	6.81
690.549	6.44
690.871	6.28
691.194	5.91
691.516	5.66
691.838	6.46
692.16	6.27
692.482	5.95
692.804	6.08
