Data from 815652_chest_Reflection__1__41.txt Node

Date: Fri Sep 16 14:46:57 CDT 2022
User: ToomeyLab
Spectrometer: FLMS14357
Trigger mode: 0
Integration Time (sec): 1.000000E-2
Scans to average: 100
Electric dark correction enabled: true
Nonlinearity correction enabled: false
Boxcar width: 0
XAxis mode: Wavelengths
Number of Pixels in Spectrum: 2048
>>>>>Begin Spectral Data<<<<<
189.047	-1538.01
189.435	-1538.01
189.823	-1538.01
190.211	-720.89
190.599	16.04
190.987	120.88
191.375	74.89
191.763	111.51
192.151	50.03
192.538	102.87
192.926	114.99
193.314	102.37
193.702	17.07
194.089	19.11
194.477	-2.4
194.864	35.02
195.252	692.82
195.639	74.03
196.027	209.09
196.414	417.35
196.801	-9.91
197.189	307.58
197.576	104.51
197.963	-46.97
198.351	-47.09
198.738	10.32
199.125	34.65
199.512	32.73
199.899	-5.94
200.286	-13.59
200.673	12.72
201.06	-0.6
201.447	-8.57
201.833	-15.07
202.22	-0.61
202.607	-74.06
202.994	25.33
203.38	14.71
203.767	-5.25
204.154	26.93
204.54	-6.16
204.927	-27.67
205.313	27.63
205.699	38.9
206.086	26.06
206.472	7.92
206.858	1.28
207.245	5.11
207.631	16.72
208.017	2.85
208.403	-39.99
208.789	-5.07
209.175	22.49
209.561	11.04
209.947	11.77
210.333	2.38
210.719	-30
211.105	1.27
211.491	21.81
211.876	5.97
212.262	31.44
212.648	12.54
213.034	-9.59
213.419	-28.74
213.805	29.87
214.19	14.75
214.576	4.63
214.961	12.62
215.346	-34.6
215.732	-108.54
216.117	33.21
216.502	1.15
216.888	11.92
217.273	24.03
217.658	28.72
218.043	-32.02
218.428	-1.14
218.813	18.25
219.198	21.7
219.583	-7.9
219.968	30.49
220.353	-17.49
220.738	5.14
221.122	-23.63
221.507	7.85
221.892	3.69
222.276	1.12
222.661	-18.32
223.046	13.79
223.43	12.74
223.815	-8.71
224.199	2.14
224.583	-2.79
224.968	5.2
225.352	-1.27
225.736	9.94
226.121	10.82
226.505	6.72
226.889	6.7
227.273	1.69
227.657	8.71
228.041	2.57
228.425	0.21
228.809	6.32
229.193	1.96
229.577	4.55
229.961	3.71
230.344	4.63
230.728	4.12
231.112	3.76
231.495	3.74
231.879	4.79
232.263	0.98
232.646	2.87
233.03	4.12
233.413	5.3
233.797	1.3
234.18	5.32
234.563	4.25
234.946	5.67
235.33	3.5
235.713	4.27
236.096	2.63
236.479	3.32
236.862	2.85
237.245	2.89
237.628	6.16
238.011	3.89
238.394	4.44
238.777	2.97
239.16	3.41
239.543	4.95
239.925	4.58
240.308	3.68
240.691	4
241.073	3.79
241.456	4.09
241.838	3.47
242.221	3.5
242.603	3.82
242.986	3.63
243.368	3.2
243.75	3.5
244.133	3.46
244.515	3.4
244.897	3.76
245.279	2.92
245.661	4.15
246.043	3.27
246.425	2.87
246.807	2.7
247.189	2.5
247.571	3.12
247.953	3.06
248.335	3.62
248.717	3.36
249.098	3.39
249.48	2.94
249.862	3.73
250.243	3.22
250.625	3.12
251.006	3.58
251.388	4.24
251.769	1.98
252.151	3.33
252.532	2.35
252.913	3.12
253.295	3.55
253.676	3.43
254.057	2.91
254.438	2.6
254.819	1.37
255.2	1.96
255.581	1.91
255.962	3.49
256.343	3.68
256.724	2.33
257.105	1.7
257.486	2.66
257.867	2.3
258.247	3.68
258.628	3.34
259.009	3.08
259.389	3.04
259.77	2.39
260.15	3.42
260.531	2.86
260.911	3.07
261.292	2.74
261.672	3.14
262.052	2.56
262.432	2.86
262.813	3.44
263.193	3.22
263.573	2.89
263.953	3.03
264.333	2.63
264.713	2.58
265.093	1.86
265.473	2.94
265.853	3.06
266.233	2.51
266.612	3.96
266.992	2.21
267.372	3.08
267.752	2.68
268.131	3.09
268.511	3.38
268.89	3.23
269.27	2.02
269.649	2.79
270.029	2.93
270.408	2.94
270.787	2.9
271.167	2.78
271.546	3.51
271.925	2.73
272.304	2.76
272.683	2.7
273.062	2.71
273.441	2.93
273.82	2.52
274.199	3.07
274.578	3.1
274.957	3.3
275.336	3.23
275.715	3.39
276.093	3.03
276.472	2.47
276.851	3.05
277.229	3.17
277.608	3.09
277.986	3.27
278.365	2.33
278.743	2.76
279.122	3.07
279.5	2.57
279.878	2.62
280.257	3.35
280.635	3.01
281.013	2.91
281.391	3.31
281.769	3
282.147	2.8
282.525	2.34
282.903	2.86
283.281	2.26
283.659	3.57
284.037	3.04
284.415	3.45
284.792	3.52
285.17	3.4
285.548	2.81
285.925	2.81
286.303	2.96
286.68	2.71
287.058	2.76
287.435	2.78
287.813	3.24
288.19	2.49
288.567	3.07
288.945	2.74
289.322	2.92
289.699	2.85
290.076	2.37
290.453	3.16
290.83	3.38
291.207	2.98
291.584	2.42
291.961	2.73
292.338	2.75
292.715	2.87
293.092	3.05
293.469	3.17
293.845	2.73
294.222	2.76
294.599	2.81
294.975	2.87
295.352	3.34
295.728	2.82
296.105	3.32
296.481	2.76
296.858	2.39
297.234	2.81
297.61	2.81
297.986	2.55
298.363	2.78
298.739	2.41
299.115	2.9
299.491	2.94
299.867	2.42
300.243	2.72
300.619	3.21
300.995	2.66
301.371	3.15
301.746	2.44
302.122	3.09
302.498	2.65
302.874	2.82
303.249	2.7
303.625	2.27
304	2.41
304.376	2.36
304.751	2.64
305.127	2.43
305.502	2.61
305.878	2.4
306.253	2.7
306.628	2.22
307.003	2.63
307.378	3.01
307.754	3.28
308.129	2.96
308.504	3.1
308.879	2.69
309.254	2.26
309.629	2.45
310.003	2.52
310.378	2.34
310.753	2.76
311.128	2.68
311.502	2.25
311.877	2.7
312.252	2.75
312.626	2.59
313.001	2.76
313.375	3.02
313.75	3.07
314.124	2.76
314.498	2.3
314.873	2.99
315.247	2.21
315.621	2.8
315.995	2.63
316.369	2.58
316.743	2.78
317.117	2.41
317.491	2.66
317.865	2.93
318.239	2.31
318.613	2.36
318.987	2.35
319.361	2.1
319.734	2.65
320.108	2.88
320.482	2.91
320.855	2.48
321.229	2.31
321.602	3.13
321.976	2.55
322.349	2.77
322.723	1.78
323.096	2.35
323.469	2.53
323.843	3.37
324.216	2.69
324.589	2.71
324.962	2.24
325.335	2.88
325.708	2.51
326.081	2.94
326.454	2.76
326.827	2.53
327.2	2.58
327.573	2.53
327.945	2.71
328.318	2.35
328.691	2.74
329.063	2.38
329.436	2.52
329.809	2.27
330.181	2.97
330.553	2.42
330.926	2.37
331.298	2.8
331.671	2.42
332.043	2.25
332.415	2.87
332.787	2.18
333.159	2.89
333.532	2.9
333.904	2.7
334.276	2.69
334.648	2.42
335.02	2.99
335.391	3.03
335.763	2.6
336.135	1.83
336.507	2.81
336.879	2.9
337.25	2.14
337.622	2.72
337.993	3.11
338.365	2.34
338.736	3.23
339.108	2.31
339.479	2.5
339.851	2.37
340.222	2.78
340.593	2.53
340.964	2.73
341.336	2.26
341.707	2.29
342.078	2.89
342.449	2.49
342.82	2.64
343.191	2.83
343.562	2.97
343.933	2.75
344.303	2.8
344.674	2.39
345.045	2.86
345.416	2.5
345.786	2.85
346.157	2.58
346.527	2.7
346.898	2.55
347.268	2.75
347.639	2.3
348.009	2.78
348.38	2.46
348.75	2.44
349.12	2.65
349.49	2.97
349.861	3.2
350.231	2.64
350.601	2.72
350.971	2.76
351.341	2.97
351.711	2.82
352.081	2.36
352.45	2.88
352.82	2.88
353.19	2.42
353.56	3.06
353.929	2.81
354.299	2.74
354.669	2.63
355.038	2.62
355.408	2.71
355.777	2.46
356.147	2.64
356.516	2.61
356.885	3.09
357.254	2.9
357.624	2.58
357.993	2.59
358.362	2.5
358.731	2.6
359.1	2.85
359.469	2.43
359.838	2.48
360.207	3.11
360.576	2.76
360.945	2.75
361.314	2.44
361.682	2.45
362.051	2.83
362.42	2.8
362.788	2.9
363.157	2.79
363.525	2.62
363.894	2.81
364.262	2.72
364.631	2.81
364.999	2.76
365.367	2.83
365.735	2.95
366.104	2.86
366.472	3.01
366.84	2.62
367.208	2.96
367.576	2.69
367.944	2.49
368.312	2.62
368.68	2.78
369.048	2.8
369.416	2.72
369.783	2.87
370.151	2.79
370.519	2.7
370.886	2.64
371.254	2.46
371.621	2.99
371.989	2.67
372.356	2.79
372.724	2.68
373.091	2.75
373.458	2.75
373.826	2.8
374.193	3.04
374.56	2.45
374.927	2.45
375.294	2.57
375.661	2.75
376.028	2.68
376.395	2.49
376.762	3.22
377.129	2.68
377.496	2.81
377.863	2.96
378.229	3.18
378.596	2.23
378.963	2.79
379.329	2.85
379.696	2.97
380.062	2.66
380.429	2.84
380.795	3.2
381.161	2.97
381.528	3.03
381.894	2.79
382.26	2.92
382.626	2.58
382.993	2.46
383.359	2.64
383.725	2.65
384.091	2.81
384.457	2.56
384.823	2.61
385.188	2.89
385.554	2.59
385.92	2.63
386.286	3.05
386.651	2.9
387.017	2.81
387.383	2.37
387.748	2.36
388.114	2.58
388.479	2.6
388.845	2.86
389.21	3.05
389.575	2.76
389.94	2.93
390.306	2.84
390.671	2.76
391.036	2.8
391.401	2.78
391.766	2.97
392.131	2.82
392.496	2.51
392.861	2.68
393.226	3.01
393.591	2.86
393.956	2.63
394.32	2.99
394.685	2.66
395.05	3.04
395.414	2.53
395.779	2.74
396.143	2.86
396.508	2.79
396.872	2.92
397.236	2.85
397.601	2.78
397.965	2.54
398.329	2.76
398.694	2.74
399.058	3.08
399.422	2.63
399.786	2.78
400.15	2.83
400.514	2.8
400.878	2.83
401.242	2.74
401.605	2.71
401.969	2.82
402.333	2.76
402.697	2.78
403.06	2.9
403.424	2.77
403.787	2.8
404.151	2.81
404.514	2.62
404.878	2.53
405.241	2.65
405.604	3.05
405.968	3.03
406.331	2.79
406.694	2.59
407.057	2.61
407.42	2.59
407.783	2.94
408.146	2.92
408.509	2.95
408.872	2.8
409.235	3.01
409.598	2.82
409.961	3.12
410.323	3.13
410.686	3.25
411.049	2.89
411.411	2.79
411.774	2.76
412.136	2.9
412.499	2.94
412.861	2.94
413.223	2.88
413.586	2.99
413.948	2.78
414.31	2.96
414.672	2.93
415.035	3.09
415.397	2.93
415.759	3
416.121	2.9
416.483	2.93
416.845	2.88
417.206	2.92
417.568	2.94
417.93	3.05
418.292	2.77
418.653	2.77
419.015	2.75
419.377	2.97
419.738	2.96
420.1	2.85
420.461	2.92
420.822	2.8
421.184	2.86
421.545	2.68
421.906	2.86
422.267	2.95
422.629	2.75
422.99	2.71
423.351	2.84
423.712	2.69
424.073	2.91
424.434	2.81
424.795	2.82
425.155	2.83
425.516	2.93
425.877	2.82
426.238	2.83
426.598	2.84
426.959	2.9
427.32	2.85
427.68	2.95
428.041	2.66
428.401	2.96
428.761	2.99
429.122	2.98
429.482	2.89
429.842	2.97
430.202	2.98
430.563	2.78
430.923	3.09
431.283	3.07
431.643	3.1
432.003	3.04
432.363	3.23
432.722	2.99
433.082	2.93
433.442	3.12
433.802	2.94
434.161	2.92
434.521	2.93
434.881	2.91
435.24	2.98
435.6	3
435.959	3.1
436.319	2.88
436.678	3.03
437.037	2.95
437.396	2.92
437.756	2.97
438.115	3.05
438.474	2.89
438.833	2.96
439.192	3.02
439.551	2.93
439.91	2.91
440.269	3.09
440.628	2.98
440.987	2.98
441.345	2.89
441.704	3.03
442.063	2.98
442.421	2.95
442.78	2.97
443.138	3.01
443.497	2.96
443.855	2.9
444.214	2.94
444.572	3.17
444.93	3.03
445.288	2.94
445.647	2.95
446.005	2.87
446.363	2.98
446.721	3.03
447.079	2.98
447.437	3.01
447.795	2.89
448.153	3.03
448.51	2.88
448.868	3.03
449.226	3
449.584	3
449.941	2.96
450.299	2.98
450.656	3.06
451.014	2.98
451.371	3.03
451.729	3.01
452.086	2.98
452.443	3.01
452.801	3.07
453.158	3.06
453.515	2.88
453.872	2.92
454.229	2.92
454.586	3.07
454.943	2.9
455.3	3.05
455.657	2.94
456.014	2.99
456.371	2.92
456.727	3.1
457.084	3.06
457.441	2.99
457.797	3.07
458.154	3.13
458.51	3.08
458.867	3.01
459.223	3.06
459.58	3.14
459.936	2.98
460.292	3.13
460.648	2.94
461.005	3.12
461.361	2.89
461.717	3
462.073	2.99
462.429	3.05
462.785	2.96
463.141	3.08
463.496	3.08
463.852	3.04
464.208	3.09
464.564	3.21
464.919	3.07
465.275	3.09
465.631	3.1
465.986	3.13
466.342	3.01
466.697	3.19
467.052	3.2
467.408	3.18
467.763	3.15
468.118	3.23
468.473	3.16
468.829	3.06
469.184	3.07
469.539	3.22
469.894	3.16
470.249	3.2
470.603	3.17
470.958	3.08
471.313	3.23
471.668	3.1
472.023	3.07
472.377	3.19
472.732	3.09
473.086	3.11
473.441	3.04
473.795	3.18
474.15	3.13
474.504	3.19
474.859	3.09
475.213	3.2
475.567	2.84
475.921	3.17
476.275	3.14
476.63	3.09
476.984	3.12
477.338	3.14
477.692	3.12
478.045	3.05
478.399	3.14
478.753	3.08
479.107	3.12
479.461	3.1
479.814	3.15
480.168	3.11
480.521	3.09
480.875	3.17
481.228	3.07
481.582	3.16
481.935	3.16
482.289	3.18
482.642	3.13
482.995	3.19
483.348	3.17
483.701	3.05
484.055	3.06
484.408	3.1
484.761	3.02
485.114	2.96
485.466	2.96
485.819	2.96
486.172	2.95
486.525	2.99
486.878	2.99
487.23	3.03
487.583	3.05
487.936	3.03
488.288	3.08
488.641	3.01
488.993	3.04
489.345	3.03
489.698	3
490.05	3.01
490.402	3
490.754	3.08
491.107	3.11
491.459	3.16
491.811	3.03
492.163	3.09
492.515	3.11
492.866	3
493.218	3.03
493.57	3.02
493.922	3.05
494.274	3.1
494.625	3.05
494.977	3.11
495.328	3.19
495.68	3.2
496.031	3.11
496.383	3.21
496.734	3.22
497.086	3.2
497.437	3.23
497.788	3.26
498.139	3.28
498.49	3.22
498.842	3.26
499.193	3.21
499.544	3.27
499.894	3.08
500.245	3.26
500.596	3.2
500.947	3.26
501.298	3.26
501.648	3.17
501.999	3.2
502.35	3.34
502.7	3.3
503.051	3.35
503.401	3.27
503.752	3.31
504.102	3.38
504.452	3.23
504.803	3.32
505.153	3.31
505.503	3.36
505.853	3.23
506.203	3.38
506.553	3.25
506.903	3.31
507.253	3.2
507.603	3.28
507.953	3.34
508.303	3.42
508.652	3.25
509.002	3.29
509.352	3.33
509.701	3.33
510.051	3.45
510.4	3.2
510.75	3.33
511.099	3.33
511.449	3.2
511.798	3.33
512.147	3.33
512.496	3.41
512.846	3.31
513.195	3.28
513.544	3.31
513.893	3.35
514.242	3.34
514.591	3.4
514.939	3.39
515.288	3.57
515.637	3.38
515.986	3.32
516.334	3.35
516.683	3.31
517.032	3.53
517.38	3.55
517.729	3.52
518.077	3.46
518.426	3.46
518.774	3.39
519.122	3.41
519.47	3.44
519.819	3.34
520.167	3.34
520.515	3.36
520.863	3.43
521.211	3.43
521.559	3.45
521.907	3.36
522.255	3.43
522.602	3.42
522.95	3.54
523.298	3.56
523.645	3.5
523.993	3.47
524.341	3.57
524.688	3.55
525.036	3.56
525.383	3.57
525.73	3.63
526.078	3.53
526.425	3.45
526.772	3.45
527.119	3.39
527.466	3.47
527.814	3.43
528.161	3.42
528.508	3.48
528.854	3.53
529.201	3.42
529.548	3.43
529.895	3.44
530.242	3.39
530.588	3.4
530.935	3.37
531.282	3.45
531.628	3.46
531.975	3.49
532.321	3.48
532.667	3.6
533.014	3.57
533.36	3.5
533.706	3.61
534.052	3.6
534.399	3.58
534.745	3.55
535.091	3.52
535.437	3.5
535.783	3.49
536.129	3.64
536.474	3.53
536.82	3.5
537.166	3.68
537.512	3.71
537.857	3.66
538.203	3.63
538.549	3.58
538.894	3.53
539.239	3.64
539.585	3.64
539.93	3.6
540.276	3.82
540.621	3.77
540.966	3.7
541.311	3.69
541.656	3.81
542.001	3.77
542.346	3.68
542.691	3.62
543.036	3.69
543.381	3.6
543.726	3.64
544.071	3.67
544.415	3.73
544.76	3.7
545.105	3.78
545.449	3.8
545.794	3.73
546.138	3.8
546.483	3.96
546.827	3.87
547.171	3.83
547.516	3.7
547.86	3.89
548.204	3.97
548.548	3.9
548.892	3.77
549.236	3.93
549.58	4.03
549.924	4.06
550.268	3.99
550.612	4.08
550.956	3.96
551.3	4.09
551.643	4.11
551.987	4.09
552.33	4.01
552.674	3.98
553.017	4.11
553.361	4.01
553.704	4.08
554.048	4.17
554.391	4.14
554.734	4.16
555.077	4.06
555.42	4.25
555.764	4.22
556.107	4.32
556.45	4.13
556.793	4.4
557.135	4.18
557.478	4.2
557.821	4.2
558.164	4.44
558.507	4.31
558.849	4.12
559.192	4.24
559.534	4.31
559.877	4.23
560.219	4.36
560.562	4.33
560.904	4.35
561.246	4.29
561.589	4.29
561.931	4.44
562.273	4.52
562.615	4.44
562.957	4.43
563.299	4.45
563.641	4.29
563.983	4.57
564.325	4.35
564.667	4.33
565.008	4.54
565.35	4.38
565.692	4.47
566.033	4.43
566.375	4.61
566.716	4.69
567.058	4.45
567.399	4.64
567.741	4.45
568.082	4.61
568.423	4.26
568.764	4.51
569.105	4.66
569.447	4.63
569.788	4.71
570.129	4.72
570.47	4.77
570.811	4.74
571.151	4.71
571.492	4.77
571.833	4.84
572.174	4.88
572.514	4.81
572.855	4.73
573.195	4.75
573.536	4.71
573.876	4.68
574.217	4.73
574.557	4.75
574.898	4.76
575.238	4.87
575.578	4.77
575.918	4.92
576.258	4.82
576.598	4.85
576.938	4.92
577.278	4.9
577.618	4.93
577.958	4.92
578.298	4.94
578.638	4.94
578.977	5
579.317	4.92
579.657	5
579.996	5.05
580.336	5.19
580.675	5.1
581.014	5.14
581.354	5.13
581.693	5.16
582.032	5.19
582.372	5.12
582.711	5.29
583.05	5.25
583.389	5.32
583.728	5.38
584.067	5.35
584.406	5.45
584.745	5.34
585.083	5.37
585.422	5.37
585.761	5.4
586.1	5.25
586.438	5.48
586.777	5.26
587.115	5.39
587.454	5.55
587.792	5.44
588.13	5.52
588.469	5.4
588.807	5.43
589.145	5.34
589.483	5.64
589.821	5.51
590.159	5.46
590.497	5.37
590.835	5.68
591.173	5.7
591.511	5.51
591.849	5.66
592.187	5.67
592.524	5.64
592.862	5.53
593.2	5.47
593.537	5.84
593.875	5.82
594.212	6.08
594.55	5.77
594.887	5.96
595.224	5.8
595.561	5.98
595.899	5.78
596.236	5.82
596.573	5.86
596.91	5.86
597.247	5.92
597.584	5.81
597.921	5.87
598.258	5.65
598.594	5.73
598.931	5.81
599.268	5.9
599.604	5.8
599.941	5.95
600.277	5.98
600.614	6.07
600.95	6.14
601.287	6.16
601.623	6.11
601.959	6.12
602.296	6.1
602.632	6.08
602.968	6.03
603.304	6.27
603.64	6.17
603.976	6.47
604.312	6.28
604.648	6.43
604.984	6.43
605.319	6.3
605.655	6.65
605.991	6.58
606.326	6.29
606.662	6.35
606.998	6.29
607.333	6.43
607.668	6.53
608.004	6.36
608.339	6.38
608.674	6.52
609.01	6.52
609.345	6.8
609.68	6.6
610.015	6.66
610.35	6.61
610.685	6.73
611.02	6.63
611.355	6.69
611.689	6.7
612.024	6.73
612.359	6.72
612.694	6.62
613.028	6.66
613.363	6.44
613.697	6.81
614.032	6.86
614.366	6.71
614.7	6.95
615.035	6.97
615.369	6.86
615.703	6.87
616.037	7.16
616.371	7.1
616.705	6.91
617.039	7.03
617.373	6.74
617.707	6.89
618.041	7.06
618.375	7.3
618.709	6.91
619.042	6.95
619.376	7.24
619.71	7.32
620.043	7.07
620.377	7.32
620.71	7.16
621.043	7.36
621.377	7.38
621.71	7.14
622.043	7.02
622.376	7.06
622.709	7.47
623.043	7.47
623.376	7.02
623.709	7.34
624.041	7.72
624.374	7.66
624.707	7.33
625.04	7.66
625.373	7.24
625.705	7.5
626.038	7.93
626.37	7.91
626.703	7.51
627.035	7.56
627.368	8.16
627.7	7.67
628.032	7.43
628.365	7.52
628.697	7.66
629.029	7.53
629.361	7.43
629.693	7.86
630.025	7.79
630.357	7.72
630.689	7.76
631.021	7.79
631.353	7.96
631.684	7.79
632.016	8.04
632.348	7.89
632.679	7.49
633.011	7.7
633.342	7.78
633.674	8.12
634.005	8.09
634.336	8.11
634.668	7.86
634.999	7.78
635.33	8.26
635.661	8.11
635.992	8.19
636.323	8.12
636.654	8.2
636.985	8.4
637.316	8.3
637.647	8.16
637.977	8.42
638.308	8.31
638.639	8.65
638.969	8.43
639.3	8.67
639.63	8.17
639.961	8.54
640.291	8.12
640.622	8.64
640.952	8.85
641.282	8.71
641.612	8.36
641.943	8.46
642.273	8.47
642.603	8.98
642.933	8.5
643.263	8.6
643.592	8.44
643.922	8.32
644.252	8.74
644.582	8.45
644.911	9.01
645.241	8.76
645.571	9.03
645.9	8.76
646.23	8.88
646.559	8.44
646.888	8.76
647.218	9.37
647.547	8.77
647.876	9.64
648.205	9.16
648.534	8.78
648.863	8.75
649.192	9
649.521	9.07
649.85	9.29
650.179	8.64
650.508	8.86
650.837	9.19
651.165	8.99
651.494	9.21
651.822	9.1
652.151	9.11
652.479	9.41
652.808	9.78
653.136	8.86
653.465	9.21
653.793	9.29
654.121	9.57
654.449	9.34
654.777	9.49
655.105	9.68
655.433	9.56
655.761	9.96
656.089	9.52
656.417	9.37
656.745	9.85
657.073	9.8
657.4	8.88
657.728	9.55
658.056	9.45
658.383	9.67
658.711	10.18
659.038	9.38
659.365	10.05
659.693	9.28
660.02	9.74
660.347	9.82
660.674	9.71
661.001	9.88
661.329	9.7
661.656	9.77
661.982	9.95
662.309	10.02
662.636	9.67
662.963	10.02
663.29	9.88
663.616	10.3
663.943	10.2
664.27	9.82
664.596	10.26
664.923	9.78
665.249	10.21
665.576	10.47
665.902	10.09
666.228	9.9
666.554	10.47
666.881	10.49
667.207	10.45
667.533	10.61
667.859	10.63
668.185	10.5
668.511	10.11
668.837	10.44
669.162	10.36
669.488	10.5
669.814	10.32
670.139	10.62
670.465	10.36
670.791	10.08
671.116	10.4
671.442	10.51
671.767	10.56
672.092	10.5
672.418	11.07
672.743	10.61
673.068	11.02
673.393	10.38
673.718	10.71
674.043	11.04
674.368	10.29
674.693	11.37
675.018	10.64
675.343	10.8
675.667	10.59
675.992	10.87
676.317	11.05
676.641	10.41
676.966	11.12
677.29	10.62
677.615	11.18
677.939	10.91
678.264	11.05
678.588	10.57
678.912	10.95
679.236	10.97
679.56	10.9
679.885	11.12
680.209	10.68
680.532	11.84
680.856	11.04
681.18	11.1
681.504	10.97
681.828	11.13
682.152	11.01
682.475	10.97
682.799	11.07
683.122	11.26
683.446	11.35
683.769	11.2
684.093	11.03
684.416	11.34
684.739	11.61
685.062	11.68
685.386	11.39
685.709	11.57
686.032	11.77
686.355	11.22
686.678	11.96
687.001	11.13
687.324	11.77
687.646	11.83
687.969	12.02
688.292	11.36
688.614	11.25
688.937	11.67
689.26	12.06
689.582	11.55
689.904	12.13
690.227	12.02
690.549	12.11
690.871	11.64
691.194	12.1
