Data from 815652_chest_Reflection__0__40.txt Node

Date: Fri Sep 16 14:46:42 CDT 2022
User: ToomeyLab
Spectrometer: FLMS14357
Trigger mode: 0
Integration Time (sec): 1.000000E-2
Scans to average: 100
Electric dark correction enabled: true
Nonlinearity correction enabled: false
Boxcar width: 0
XAxis mode: Wavelengths
Number of Pixels in Spectrum: 2048
>>>>>Begin Spectral Data<<<<<
189.047	676.38
189.435	676.38
189.823	676.38
190.211	-16.85
190.599	-525.84
190.987	64.37
191.375	69.22
191.763	37.54
192.151	31.9
192.538	-112.34
192.926	-47.54
193.314	143.06
193.702	9.06
194.089	64.67
194.477	92.76
194.864	23.59
195.252	-1091.39
195.639	-7.64
196.027	131.86
196.414	98.94
196.801	6.8
197.189	192.15
197.576	-45.5
197.963	-100.75
198.351	-45.34
198.738	-24.89
199.125	26.54
199.512	-134.44
199.899	-9.85
200.286	-37.03
200.673	-13.66
201.06	41.96
201.447	34.76
201.833	-26.82
202.22	-4.14
202.607	-39.59
202.994	14.64
203.38	12.38
203.767	18.29
204.154	-7.75
204.54	23.88
204.927	-70.77
205.313	48.27
205.699	33.22
206.086	15.18
206.472	16.35
206.858	-13.25
207.245	10.84
207.631	20.19
208.017	6.83
208.403	4.77
208.789	-5.74
209.175	18.43
209.561	-6.27
209.947	-7.55
210.333	-3.85
210.719	-20.17
211.105	19.53
211.491	-30.5
211.876	9.73
212.262	9.43
212.648	-21.21
213.034	-0.15
213.419	22.15
213.805	-0.26
214.19	21.22
214.576	-10.42
214.961	-2.95
215.346	-14.56
215.732	-82.59
216.117	25.58
216.502	10.01
216.888	-17.73
217.273	5.24
217.658	2.56
218.043	-102.9
218.428	-2.06
218.813	-2.54
219.198	-5.34
219.583	-21
219.968	2.81
220.353	-8.6
220.738	2.5
221.122	-30.62
221.507	15.27
221.892	1.45
222.276	7.48
222.661	6.35
223.046	11.46
223.43	6.09
223.815	-14.93
224.199	4.17
224.583	-4.06
224.968	8.09
225.352	-1.5
225.736	7.25
226.121	2.43
226.505	-0.81
226.889	1.64
227.273	3.37
227.657	3.4
228.041	-1.98
228.425	-1.78
228.809	5.45
229.193	1.94
229.577	1.59
229.961	0.31
230.344	2.41
230.728	2.8
231.112	3.14
231.495	1.92
231.879	2.09
232.263	0.49
232.646	1.01
233.03	2.51
233.413	3.36
233.797	2.89
234.18	1.21
234.563	1.25
234.946	2.68
235.33	2.07
235.713	1.86
236.096	2.01
236.479	2.49
236.862	0.78
237.245	1.7
237.628	2.68
238.011	2.51
238.394	1.27
238.777	1.98
239.16	1.53
239.543	2.87
239.925	2.96
240.308	1.35
240.691	1.99
241.073	2.46
241.456	1.37
241.838	1.18
242.221	2.11
242.603	2.55
242.986	1.39
243.368	1.72
243.75	1.58
244.133	2.25
244.515	1.91
244.897	2.8
245.279	1.77
245.661	1.8
246.043	0.79
246.425	1.37
246.807	3.14
247.189	1.89
247.571	1.28
247.953	2.22
248.335	2.1
248.717	2.31
249.098	2.18
249.48	2.07
249.862	1.9
250.243	2.03
250.625	2.6
251.006	2.75
251.388	3.06
251.769	0.64
252.151	1.94
252.532	1.77
252.913	2.28
253.295	2.21
253.676	2
254.057	1.77
254.438	1.91
254.819	0.9
255.2	2.36
255.581	1.76
255.962	1.7
256.343	1.8
256.724	1.46
257.105	1.83
257.486	2.28
257.867	2.19
258.247	2.56
258.628	2.36
259.009	1.58
259.389	1.57
259.77	2.05
260.15	1.75
260.531	1.23
260.911	1.54
261.292	1.58
261.672	2.05
262.052	1.74
262.432	1.86
262.813	2.5
263.193	2.28
263.573	2.36
263.953	2.18
264.333	2.21
264.713	1.52
265.093	1.49
265.473	0.9
265.853	2.08
266.233	1.75
266.612	2.43
266.992	0.89
267.372	1.74
267.752	0.94
268.131	2.1
268.511	2.17
268.89	2.06
269.27	1.6
269.649	1.88
270.029	2.07
270.408	2.46
270.787	2.2
271.167	1.9
271.546	2.36
271.925	1.6
272.304	1.83
272.683	1.35
273.062	2.02
273.441	2.12
273.82	1.62
274.199	1.87
274.578	1.89
274.957	2.18
275.336	2.14
275.715	2.23
276.093	1.83
276.472	1.58
276.851	2.14
277.229	2.07
277.608	1.9
277.986	1.91
278.365	1.38
278.743	1.97
279.122	2.15
279.5	1.86
279.878	1.7
280.257	1.85
280.635	2.26
281.013	1.9
281.391	2.22
281.769	2.28
282.147	2.19
282.525	1.51
282.903	2.04
283.281	1.76
283.659	2.14
284.037	1.92
284.415	2.09
284.792	2.35
285.17	2
285.548	1.78
285.925	1.71
286.303	1.93
286.68	2.1
287.058	1.71
287.435	1.91
287.813	2.21
288.19	1.48
288.567	1.61
288.945	2.03
289.322	2
289.699	1.95
290.076	1.76
290.453	1.8
290.83	2.01
291.207	1.99
291.584	1.6
291.961	1.71
292.338	1.77
292.715	1.95
293.092	2.01
293.469	2.3
293.845	1.45
294.222	1.89
294.599	1.69
294.975	1.6
295.352	2.23
295.728	1.45
296.105	2.29
296.481	1.58
296.858	2.25
297.234	1.68
297.61	2.43
297.986	2.18
298.363	1.65
298.739	1.48
299.115	2.1
299.491	2.23
299.867	1.65
300.243	1.86
300.619	1.89
300.995	2.01
301.371	1.67
301.746	1.48
302.122	2.02
302.498	2
302.874	1.8
303.249	2.1
303.625	1.79
304	1.65
304.376	1.75
304.751	2.34
305.127	1.87
305.502	2.09
305.878	1.79
306.253	2.44
306.628	1.59
307.003	1.86
307.378	1.9
307.754	2.31
308.129	2.36
308.504	2.35
308.879	2.11
309.254	1.78
309.629	1.86
310.003	2.12
310.378	1.77
310.753	2.01
311.128	2.23
311.502	1.79
311.877	2.12
312.252	2.18
312.626	2.12
313.001	2.03
313.375	2.19
313.75	2.15
314.124	2.25
314.498	1.91
314.873	2.19
315.247	1.32
315.621	2
315.995	1.76
316.369	2.21
316.743	2.41
317.117	2.03
317.491	1.99
317.865	2.36
318.239	2.18
318.613	1.35
318.987	1.43
319.361	1.72
319.734	2
320.108	2.01
320.482	1.99
320.855	2.15
321.229	1.58
321.602	2.79
321.976	2.18
322.349	2.36
322.723	1.99
323.096	1.54
323.469	1.84
323.843	2.67
324.216	2.54
324.589	2.68
324.962	1.76
325.335	2.02
325.708	1.7
326.081	2.08
326.454	2.25
326.827	2.33
327.2	2.36
327.573	2.02
327.945	2.11
328.318	1.88
328.691	1.89
329.063	1.68
329.436	1.84
329.809	1.53
330.181	2.53
330.553	2.03
330.926	2.15
331.298	2.08
331.671	1.95
332.043	1.78
332.415	2.28
332.787	2.1
333.159	2.12
333.532	2.45
333.904	2.3
334.276	2.37
334.648	2.1
335.02	2.42
335.391	2.47
335.763	2.17
336.135	1.95
336.507	2.12
336.879	2.11
337.25	1.64
337.622	2.03
337.993	2.35
338.365	2.01
338.736	3.03
339.108	2.13
339.479	2.33
339.851	2.24
340.222	2.1
340.593	2.52
340.964	2.42
341.336	2.15
341.707	1.77
342.078	3.02
342.449	2.39
342.82	2.33
343.191	1.78
343.562	2.34
343.933	2.12
344.303	2.69
344.674	1.82
345.045	2.47
345.416	1.99
345.786	2.3
346.157	2.05
346.527	2.42
346.898	2.21
347.268	2.32
347.639	2.16
348.009	2.11
348.38	2.47
348.75	2.03
349.12	2.03
349.49	2.2
349.861	2.53
350.231	2.38
350.601	1.81
350.971	2.27
351.341	2.51
351.711	2.25
352.081	2.15
352.45	2.74
352.82	2.59
353.19	2.03
353.56	2.45
353.929	1.96
354.299	2.25
354.669	2.56
355.038	2.27
355.408	2.39
355.777	2.53
356.147	2.12
356.516	2.43
356.885	2.48
357.254	2.34
357.624	2.29
357.993	1.95
358.362	1.85
358.731	2.51
359.1	2.12
359.469	2.21
359.838	2.15
360.207	2.53
360.576	2.37
360.945	2.05
361.314	1.94
361.682	2.02
362.051	2.33
362.42	2.45
362.788	2.51
363.157	2.27
363.525	2.25
363.894	2.33
364.262	2.22
364.631	2.38
364.999	2.2
365.367	2.22
365.735	2.28
366.104	2.39
366.472	2.5
366.84	2.28
367.208	2.27
367.576	2.21
367.944	2.06
368.312	2.23
368.68	2.4
369.048	2.4
369.416	2.41
369.783	2.28
370.151	2.47
370.519	2.45
370.886	2.04
371.254	2.28
371.621	2.33
371.989	2.08
372.356	2.52
372.724	2.3
373.091	2.23
373.458	2.18
373.826	2.24
374.193	2.57
374.56	2.11
374.927	2.24
375.294	2.58
375.661	2.35
376.028	2.85
376.395	2.23
376.762	2.66
377.129	2.03
377.496	2.45
377.863	2.24
378.229	2.59
378.596	2.16
378.963	2.2
379.329	2.43
379.696	2.62
380.062	2.19
380.429	2.38
380.795	2.58
381.161	2.43
381.528	2.63
381.894	2.61
382.26	2.53
382.626	2.4
382.993	2.31
383.359	2.46
383.725	2.33
384.091	2.74
384.457	2.01
384.823	2.2
385.188	2.37
385.554	2.06
385.92	2.48
386.286	2.59
386.651	2.45
387.017	2.34
387.383	2.16
387.748	2.38
388.114	2.2
388.479	2.39
388.845	2.49
389.21	2.6
389.575	2.47
389.94	2.64
390.306	2.58
390.671	2.52
391.036	2.26
391.401	2.54
391.766	2.62
392.131	2.7
392.496	2.34
392.861	2.48
393.226	2.65
393.591	2.44
393.956	2.48
394.32	2.88
394.685	2.28
395.05	2.74
395.414	2.24
395.779	2.5
396.143	2.59
396.508	2.43
396.872	2.49
397.236	2.46
397.601	2.48
397.965	2.29
398.329	2.37
398.694	2.39
399.058	2.64
399.422	2.59
399.786	2.88
400.15	2.78
400.514	2.56
400.878	2.6
401.242	2.5
401.605	2.47
401.969	2.43
402.333	2.68
402.697	2.32
403.06	2.75
403.424	2.52
403.787	2.51
404.151	2.4
404.514	2.46
404.878	2.39
405.241	2.48
405.604	2.61
405.968	2.57
406.331	2.62
406.694	2.43
407.057	2.6
407.42	2.48
407.783	2.78
408.146	2.83
408.509	2.71
408.872	2.75
409.235	2.71
409.598	2.57
409.961	2.83
410.323	2.65
410.686	2.73
411.049	2.73
411.411	2.65
411.774	2.51
412.136	2.52
412.499	2.64
412.861	2.78
413.223	2.67
413.586	2.63
413.948	2.69
414.31	2.87
414.672	2.5
415.035	2.8
415.397	2.44
415.759	2.75
416.121	2.68
416.483	2.66
416.845	2.81
417.206	2.82
417.568	2.73
417.93	2.75
418.292	2.59
418.653	2.51
419.015	2.57
419.377	2.71
419.738	2.59
420.1	2.71
420.461	2.7
420.822	2.58
421.184	2.55
421.545	2.62
421.906	2.6
422.267	2.59
422.629	2.46
422.99	2.51
423.351	2.65
423.712	2.47
424.073	2.71
424.434	2.59
424.795	2.52
425.155	2.62
425.516	2.65
425.877	2.63
426.238	2.6
426.598	2.64
426.959	2.69
427.32	2.63
427.68	2.73
428.041	2.64
428.401	2.76
428.761	2.83
429.122	2.83
429.482	2.54
429.842	2.7
430.202	2.72
430.563	2.76
430.923	2.78
431.283	2.88
431.643	2.92
432.003	2.71
432.363	2.8
432.722	2.9
433.082	2.84
433.442	2.85
433.802	2.73
434.161	2.58
434.521	2.72
434.881	2.66
435.24	2.76
435.6	2.7
435.959	2.82
436.319	2.63
436.678	2.79
437.037	2.67
437.396	2.72
437.756	2.79
438.115	2.68
438.474	2.68
438.833	2.68
439.192	2.65
439.551	2.8
439.91	2.65
440.269	2.9
440.628	2.77
440.987	2.74
441.345	2.77
441.704	2.84
442.063	2.82
442.421	2.75
442.78	2.71
443.138	2.88
443.497	2.84
443.855	2.84
444.214	2.8
444.572	3.01
444.93	2.8
445.288	2.64
445.647	2.77
446.005	2.75
446.363	2.72
446.721	2.83
447.079	2.72
447.437	2.68
447.795	2.75
448.153	2.78
448.51	2.71
448.868	2.74
449.226	2.83
449.584	2.87
449.941	2.83
450.299	2.79
450.656	2.89
451.014	2.87
451.371	3
451.729	2.9
452.086	2.82
452.443	2.93
452.801	2.87
453.158	2.96
453.515	2.83
453.872	2.86
454.229	2.82
454.586	2.95
454.943	2.69
455.3	2.9
455.657	2.75
456.014	2.97
456.371	2.87
456.727	2.82
457.084	3.06
457.441	3.07
457.797	3.06
458.154	2.95
458.51	3.07
458.867	3.07
459.223	2.84
459.58	2.98
459.936	3.01
460.292	2.97
460.648	2.84
461.005	2.85
461.361	2.75
461.717	2.92
462.073	2.93
462.429	2.98
462.785	2.97
463.141	3.08
463.496	2.96
463.852	3.07
464.208	3.04
464.564	3.18
464.919	3.04
465.275	3.2
465.631	3.09
465.986	3.1
466.342	2.93
466.697	3.05
467.052	3.01
467.408	3.08
467.763	3.03
468.118	2.99
468.473	3.06
468.829	3.16
469.184	3.05
469.539	3.26
469.894	3.18
470.249	3.33
470.603	3.06
470.958	2.95
471.313	3.17
471.668	3.06
472.023	2.96
472.377	3.14
472.732	3.13
473.086	3.05
473.441	2.98
473.795	3.14
474.15	3.01
474.504	3.22
474.859	3.03
475.213	3.06
475.567	2.98
475.921	3.12
476.275	3.04
476.63	3.3
476.984	3.28
477.338	3.23
477.692	3.09
478.045	3.05
478.399	3.25
478.753	3.2
479.107	3.12
479.461	3.18
479.814	3.15
480.168	3.11
480.521	3.17
480.875	3.21
481.228	3.27
481.582	3.13
481.935	3.2
482.289	3.26
482.642	3.19
482.995	3.08
483.348	3.1
483.701	3.11
484.055	3.07
484.408	3.08
484.761	2.98
485.114	2.85
485.466	2.82
485.819	2.88
486.172	2.99
486.525	3.12
486.878	3.16
487.23	3.19
487.583	3.22
487.936	3.16
488.288	3.12
488.641	3
488.993	3.03
489.345	2.96
489.698	3
490.05	3.09
490.402	3.15
490.754	3.29
491.107	3.19
491.459	3.3
491.811	3.21
492.163	3.19
492.515	3.19
492.866	3.09
493.218	2.98
493.57	3.02
493.922	3.13
494.274	3.3
494.625	3.3
494.977	3.32
495.328	3.33
495.68	3.35
496.031	3.4
496.383	3.42
496.734	3.42
497.086	3.31
497.437	3.34
497.788	3.36
498.139	3.3
498.49	3.38
498.842	3.3
499.193	3.36
499.544	3.42
499.894	3.3
500.245	3.32
500.596	3.38
500.947	3.46
501.298	3.35
501.648	3.46
501.999	3.49
502.35	3.42
502.7	3.52
503.051	3.42
503.401	3.42
503.752	3.56
504.102	3.47
504.452	3.44
504.803	3.6
505.153	3.51
505.503	3.51
505.853	3.43
506.203	3.52
506.553	3.41
506.903	3.45
507.253	3.47
507.603	3.59
507.953	3.45
508.303	3.56
508.652	3.58
509.002	3.55
509.352	3.46
509.701	3.46
510.051	3.64
510.4	3.56
510.75	3.53
511.099	3.51
511.449	3.5
511.798	3.54
512.147	3.59
512.496	3.62
512.846	3.52
513.195	3.57
513.544	3.64
513.893	3.6
514.242	3.57
514.591	3.67
514.939	3.69
515.288	3.74
515.637	3.82
515.986	3.6
516.334	3.64
516.683	3.75
517.032	3.89
517.38	3.84
517.729	3.81
518.077	3.74
518.426	3.71
518.774	3.78
519.122	3.68
519.47	3.71
519.819	3.67
520.167	3.58
520.515	3.61
520.863	3.74
521.211	3.69
521.559	3.82
521.907	3.81
522.255	3.81
522.602	3.8
522.95	3.81
523.298	3.92
523.645	4
523.993	3.86
524.341	3.88
524.688	3.94
525.036	3.98
525.383	3.96
525.73	3.85
526.078	3.94
526.425	3.83
526.772	3.82
527.119	3.77
527.466	3.77
527.814	3.8
528.161	3.83
528.508	3.92
528.854	3.86
529.201	3.81
529.548	3.83
529.895	3.67
530.242	3.66
530.588	3.68
530.935	3.82
531.282	3.89
531.628	3.96
531.975	4.04
532.321	4.07
532.667	4.08
533.014	4.14
533.36	4.02
533.706	4
534.052	3.93
534.399	3.95
534.745	3.9
535.091	3.85
535.437	3.94
535.783	4.08
536.129	4.17
536.474	4.13
536.82	4.08
537.166	4.2
537.512	4.19
537.857	4.18
538.203	4.05
538.549	4.01
538.894	4.08
539.239	4.26
539.585	4.3
539.93	4.27
540.276	4.42
540.621	4.45
540.966	4.39
541.311	4.31
541.656	4.35
542.001	4.19
542.346	4.22
542.691	4.13
543.036	4.04
543.381	4.1
543.726	4.24
544.071	4.32
544.415	4.35
544.76	4.35
545.105	4.46
545.449	4.34
545.794	4.51
546.138	4.39
546.483	4.58
546.827	4.67
547.171	4.52
547.516	4.47
547.86	4.53
548.204	4.54
548.548	4.41
548.892	4.41
549.236	4.59
549.58	4.62
549.924	4.75
550.268	4.65
550.612	4.71
550.956	4.7
551.3	4.87
551.643	4.96
551.987	4.95
552.33	4.78
552.674	4.72
553.017	4.94
553.361	4.92
553.704	4.92
554.048	4.91
554.391	4.75
554.734	4.89
555.077	4.87
555.42	5.07
555.764	5.03
556.107	5.08
556.45	5
556.793	5.16
557.135	5
557.478	5.07
557.821	5.02
558.164	5.19
558.507	5.18
558.849	5.01
559.192	5
559.534	5.2
559.877	4.92
560.219	5.18
560.562	5.13
560.904	5.22
561.246	5.16
561.589	5.37
561.931	5.28
562.273	5.27
562.615	5.21
562.957	5.28
563.299	5.26
563.641	5.18
563.983	5.36
564.325	5.2
564.667	5.39
565.008	5.46
565.35	5.49
565.692	5.52
566.033	5.44
566.375	5.2
566.716	5.33
567.058	5.5
567.399	5.5
567.741	5.28
568.082	5.45
568.423	5.36
568.764	5.49
569.105	5.56
569.447	5.6
569.788	5.63
570.129	5.67
570.47	5.77
570.811	5.71
571.151	5.72
571.492	5.61
571.833	5.67
572.174	5.76
572.514	5.73
572.855	5.79
573.195	5.77
573.536	5.65
573.876	5.88
574.217	5.89
574.557	5.83
574.898	5.97
575.238	5.98
575.578	5.94
575.918	6.11
576.258	5.8
576.598	5.75
576.938	5.84
577.278	5.99
577.618	6.07
577.958	6.07
578.298	5.82
578.638	6.04
578.977	6.14
579.317	6.34
579.657	6.11
579.996	6.2
580.336	6.36
580.675	6.2
581.014	6.62
581.354	6.4
581.693	6.44
582.032	6.59
582.372	6.34
582.711	6.48
583.05	6.65
583.389	6.34
583.728	6.35
584.067	6.51
584.406	6.58
584.745	6.58
585.083	6.57
585.422	6.74
585.761	6.8
586.1	6.46
586.438	6.79
586.777	6.36
587.115	6.66
587.454	6.73
587.792	6.56
588.13	7.02
588.469	6.84
588.807	6.68
589.145	6.76
589.483	7.02
589.821	6.94
590.159	6.74
590.497	6.74
590.835	7.06
591.173	6.99
591.511	6.92
591.849	7.05
592.187	6.97
592.524	7.01
592.862	7.1
593.2	6.78
593.537	7.19
593.875	6.97
594.212	7.12
594.55	7.09
594.887	7.2
595.224	7.09
595.561	7.04
595.899	7.2
596.236	7.11
596.573	7.37
596.91	7.12
597.247	7.29
597.584	7.26
597.921	7.4
598.258	7.09
598.594	7.11
598.931	7.03
599.268	7.38
599.604	7.27
599.941	7.49
600.277	7.58
600.614	7.79
600.95	7.36
601.287	7.57
601.623	7.58
601.959	7.63
602.296	7.66
602.632	7.44
602.968	7.57
603.304	7.6
603.64	7.59
603.976	7.76
604.312	7.58
604.648	7.66
604.984	7.72
605.319	7.79
605.655	8.08
605.991	7.83
606.326	7.69
606.662	7.79
606.998	7.77
607.333	7.94
607.668	8.02
608.004	7.97
608.339	7.96
608.674	8.08
609.01	7.88
609.345	8.14
609.68	8.07
610.015	8.09
610.35	8.02
610.685	8.17
611.02	8.12
611.355	8.08
611.689	8.29
612.024	8.42
612.359	8.35
612.694	8.34
613.028	8.29
613.363	8.28
613.697	8.32
614.032	8.58
614.366	8.23
614.7	8.52
615.035	8.56
615.369	8.53
615.703	8.43
616.037	8.85
616.371	8.48
616.705	8.33
617.039	8.74
617.373	8.48
617.707	8.6
618.041	8.98
618.375	8.64
618.709	8.63
619.042	8.76
619.376	8.81
619.71	8.92
620.043	8.98
620.377	9.13
620.71	8.94
621.043	9.1
621.377	9.06
621.71	8.85
622.043	8.71
622.376	9.04
622.709	8.81
623.043	8.91
623.376	8.97
623.709	8.55
624.041	9.26
624.374	9.21
624.707	9.02
625.04	9.35
625.373	9.14
625.705	9.4
626.038	9.49
626.37	9.38
626.703	8.98
627.035	9.06
627.368	9.43
627.7	9.49
628.032	9.13
628.365	9.13
628.697	9.08
629.029	9.5
629.361	9.4
629.693	9.53
630.025	9.61
630.357	9.57
630.689	9.61
631.021	9.5
631.353	9.61
631.684	9.47
632.016	9.65
632.348	10.14
632.679	9.67
633.011	9.59
633.342	9.64
633.674	9.85
634.005	9.81
634.336	9.7
634.668	9.73
634.999	9.53
635.33	10.07
635.661	9.92
635.992	9.94
636.323	10.09
636.654	9.8
636.985	10.34
637.316	9.97
637.647	10.17
637.977	9.79
638.308	10.32
638.639	10.48
638.969	10.37
639.3	10.43
639.63	9.93
639.961	10.25
640.291	10.33
640.622	10.47
640.952	10.36
641.282	10.36
641.612	10.14
641.943	10.12
642.273	10.16
642.603	10.85
642.933	10.53
643.263	10.47
643.592	10.13
643.922	10.34
644.252	10.31
644.582	10.36
644.911	10.74
645.241	11.04
645.571	11.09
645.9	11.05
646.23	10.61
646.559	10.61
646.888	10.26
647.218	10.74
647.547	10.96
647.876	11.19
648.205	10.78
648.534	10.7
648.863	10.81
649.192	11.19
649.521	11.26
649.85	10.93
650.179	10.61
650.508	11.03
650.837	11.26
651.165	10.64
651.494	11.23
651.822	11.11
652.151	10.89
652.479	11.22
652.808	11.72
653.136	11.16
653.465	11.04
653.793	11.31
654.121	11.3
654.449	11.38
654.777	10.96
655.105	11.74
655.433	11.49
655.761	11.84
656.089	11.09
656.417	11.34
656.745	11.67
657.073	11.33
657.4	11.71
657.728	11.81
658.056	11.09
658.383	11.63
658.711	11.7
659.038	11.03
659.365	11.86
659.693	11.59
660.02	11.59
660.347	11.61
660.674	11.53
661.001	12
661.329	11.25
661.656	11.25
661.982	11.74
662.309	11.68
662.636	11.97
662.963	12.23
663.29	12.36
663.616	12.32
663.943	12.22
664.27	11.85
664.596	12.46
664.923	12.02
665.249	11.86
665.576	11.8
665.902	12.26
666.228	12.09
666.554	12.67
666.881	12.28
667.207	12.52
667.533	12.5
667.859	12.55
668.185	12.39
668.511	12
668.837	11.84
669.162	13.06
669.488	12.52
669.814	12.53
670.139	12.47
670.465	12.5
670.791	12.31
671.116	12.29
671.442	12.8
671.767	12.9
672.092	12.53
672.418	12.52
672.743	12.34
673.068	12.31
673.393	12.4
673.718	12.83
674.043	12.74
674.368	12.93
674.693	13.29
675.018	12.67
675.343	13.08
675.667	12.94
675.992	12.84
676.317	12.71
676.641	12.05
676.966	12.63
677.29	12.76
677.615	13.34
677.939	12.52
678.264	12.59
678.588	12.69
678.912	12.77
679.236	12.72
679.56	13.68
679.885	12.94
680.209	12.77
680.532	13.24
680.856	12.85
681.18	12.88
681.504	13.04
681.828	12.96
682.152	12.8
682.475	13.31
682.799	12.74
683.122	12.9
683.446	13.25
683.769	14
684.093	13.44
684.416	13.32
684.739	13.4
685.062	13.64
685.386	13.13
685.709	13.69
686.032	13.13
686.355	14.14
686.678	13.47
687.001	12.89
687.324	13.82
687.646	14.37
687.969	13.92
688.292	13.67
688.614	13.58
688.937	14.45
689.26	14.07
689.582	13.47
