Data from 815652_forehead_Reflection__3__48.txt Node

Date: Fri Sep 16 14:50:44 CDT 2022
User: ToomeyLab
Spectrometer: FLMS14357
Trigger mode: 0
Integration Time (sec): 1.000000E-2
Scans to average: 100
Electric dark correction enabled: true
Nonlinearity correction enabled: false
Boxcar width: 0
XAxis mode: Wavelengths
Number of Pixels in Spectrum: 2048
>>>>>Begin Spectral Data<<<<<
189.047	-2031.37
189.435	-2031.37
189.823	-2031.37
190.211	-126.03
190.599	-623.39
190.987	33.44
191.375	53.13
191.763	28.33
192.151	-170.88
192.538	31.81
192.926	40.76
193.314	15.59
193.702	-28.95
194.089	85.54
194.477	31.13
194.864	69.14
195.252	-405.26
195.639	120.3
196.027	117.22
196.414	-120.11
196.801	-34.76
197.189	72.81
197.576	107.08
197.963	40.35
198.351	46.72
198.738	46.32
199.125	51.06
199.512	-21.34
199.899	44.77
200.286	50.62
200.673	29.82
201.06	56.37
201.447	47.49
201.833	4.05
202.22	27.17
202.607	-30.27
202.994	15.83
203.38	4.8
203.767	58.82
204.154	70.92
204.54	27.77
204.927	19.32
205.313	36.16
205.699	46.8
206.086	9.18
206.472	17.23
206.858	30.05
207.245	35.87
207.631	39.59
208.017	45.22
208.403	-10.02
208.789	43.39
209.175	43.89
209.561	40.69
209.947	9.49
210.333	17.22
210.719	8.98
211.105	-10.55
211.491	35.05
211.876	27.71
212.262	74.38
212.648	54.1
213.034	35.37
213.419	-30.92
213.805	23.46
214.19	36.78
214.576	21.74
214.961	41.22
215.346	25.28
215.732	-22.68
216.117	26.74
216.502	8.77
216.888	12.44
217.273	13.79
217.658	6.85
218.043	-34.75
218.428	25.35
218.813	11.39
219.198	30.56
219.583	14.54
219.968	10.52
220.353	11.3
220.738	15.86
221.122	-8.1
221.507	18.9
221.892	-2.41
222.276	12.65
222.661	12.91
223.046	18.36
223.43	14.45
223.815	-0.26
224.199	9.74
224.583	7.76
224.968	10.33
225.352	7.06
225.736	15.67
226.121	2.98
226.505	5.52
226.889	10.73
227.273	8.33
227.657	6.95
228.041	4.76
228.425	-0.91
228.809	7.96
229.193	3.64
229.577	5.38
229.961	3.56
230.344	4.01
230.728	3.95
231.112	3.85
231.495	2.94
231.879	4.18
232.263	2.93
232.646	3.61
233.03	4.29
233.413	4.34
233.797	3.23
234.18	7.35
234.563	1.58
234.946	4.47
235.33	3.26
235.713	4.11
236.096	1.94
236.479	4.67
236.862	3.71
237.245	4.46
237.628	6.29
238.011	4.59
238.394	4.33
238.777	5.48
239.16	5.46
239.543	3.46
239.925	5.4
240.308	3.08
240.691	6.04
241.073	2.72
241.456	3.73
241.838	3.43
242.221	2.72
242.603	2.83
242.986	3.67
243.368	3
243.75	3.19
244.133	3.36
244.515	3.02
244.897	3.32
245.279	3.21
245.661	3.46
246.043	4.45
246.425	4.46
246.807	3.65
247.189	2.96
247.571	2.7
247.953	2.78
248.335	3.18
248.717	3.13
249.098	2.94
249.48	3
249.862	2.81
250.243	3.32
250.625	3.39
251.006	3.19
251.388	4.86
251.769	2.91
252.151	3.42
252.532	3.23
252.913	3.56
253.295	3.52
253.676	3.34
254.057	3.12
254.438	2.85
254.819	2.58
255.2	2.23
255.581	3.54
255.962	3.44
256.343	3.1
256.724	3.3
257.105	2.24
257.486	3.96
257.867	3.33
258.247	3.72
258.628	3.36
259.009	3.69
259.389	3.05
259.77	1.96
260.15	3.46
260.531	2.64
260.911	3.12
261.292	2.65
261.672	2.92
262.052	2.77
262.432	2.89
262.813	3.61
263.193	3.28
263.573	3.55
263.953	3.51
264.333	3.19
264.713	2.82
265.093	3.02
265.473	3.49
265.853	4.52
266.233	3.68
266.612	4.22
266.992	2.07
267.372	3.72
267.752	2.29
268.131	2.88
268.511	3.48
268.89	4.17
269.27	3.26
269.649	3.04
270.029	3.18
270.408	3.22
270.787	3.28
271.167	2.92
271.546	3.88
271.925	3.43
272.304	3.29
272.683	2.85
273.062	3.01
273.441	2.79
273.82	3.13
274.199	2.76
274.578	3.04
274.957	2.97
275.336	3.32
275.715	3.61
276.093	3.27
276.472	3.03
276.851	3.43
277.229	3.25
277.608	3.63
277.986	3.2
278.365	2.72
278.743	3.07
279.122	3.06
279.5	2.73
279.878	2.65
280.257	3.13
280.635	3.12
281.013	2.56
281.391	3.41
281.769	3.39
282.147	3.47
282.525	2.63
282.903	3.22
283.281	2.97
283.659	3.25
284.037	3.23
284.415	3.46
284.792	3.37
285.17	3.42
285.548	3.04
285.925	2.85
286.303	3.49
286.68	3.04
287.058	2.92
287.435	2.78
287.813	3.32
288.19	2.77
288.567	3.02
288.945	2.7
289.322	3.32
289.699	3.04
290.076	2.81
290.453	3.04
290.83	3.28
291.207	2.86
291.584	2.73
291.961	3.02
292.338	3.5
292.715	3.13
293.092	3.49
293.469	3.42
293.845	3.38
294.222	3.09
294.599	3.14
294.975	2.9
295.352	3.77
295.728	3.32
296.105	3.71
296.481	2.97
296.858	3.16
297.234	3.32
297.61	3.41
297.986	3.54
298.363	3.22
298.739	3.08
299.115	3.61
299.491	3.64
299.867	3.27
300.243	3.37
300.619	3.76
300.995	3.5
301.371	3.42
301.746	3.08
302.122	3.58
302.498	3.26
302.874	3.72
303.249	3.89
303.625	4.09
304	3.4
304.376	3.6
304.751	3.63
305.127	3.37
305.502	3.57
305.878	3.72
306.253	3.74
306.628	3.59
307.003	3.89
307.378	4.11
307.754	3.79
308.129	4.33
308.504	4.02
308.879	4.33
309.254	4.11
309.629	3.85
310.003	3.97
310.378	3.79
310.753	4.02
311.128	4.13
311.502	3.78
311.877	4.04
312.252	4.16
312.626	3.94
313.001	3.75
313.375	4.24
313.75	4.04
314.124	3.98
314.498	4.06
314.873	4.63
315.247	4.59
315.621	4.4
315.995	3.87
316.369	4.72
316.743	5
317.117	4.46
317.491	4.53
317.865	4.95
318.239	5.03
318.613	4.17
318.987	4.27
319.361	4.43
319.734	4.76
320.108	4.89
320.482	4.56
320.855	4.68
321.229	4.67
321.602	5.12
321.976	4.78
322.349	4.87
322.723	5.09
323.096	4.7
323.469	4.8
323.843	5.66
324.216	5.51
324.589	5.12
324.962	4.9
325.335	5.17
325.708	4.98
326.081	4.85
326.454	5.09
326.827	5.56
327.2	5.43
327.573	4.84
327.945	5.47
328.318	5.25
328.691	5.43
329.063	5.19
329.436	5.16
329.809	4.99
330.181	5.16
330.553	5.62
330.926	5.71
331.298	6
331.671	5.49
332.043	5.52
332.415	5.74
332.787	6
333.159	5.96
333.532	6.16
333.904	5.8
334.276	5.27
334.648	5.67
335.02	6.18
335.391	6.3
335.763	5.58
336.135	5.84
336.507	6.01
336.879	5.88
337.25	5.27
337.622	5.66
337.993	6.34
338.365	6.28
338.736	6.63
339.108	6.44
339.479	6.35
339.851	6.12
340.222	6.25
340.593	6.28
340.964	6.62
341.336	6.17
341.707	6.38
342.078	6.47
342.449	6.63
342.82	5.73
343.191	6.19
343.562	6.49
343.933	6.62
344.303	6.8
344.674	6.23
345.045	6.77
345.416	6.56
345.786	6.66
346.157	6.86
346.527	6.63
346.898	6.27
347.268	6.86
347.639	6.59
348.009	6.81
348.38	6.92
348.75	6.8
349.12	7.17
349.49	7.37
349.861	7.13
350.231	6.98
350.601	6.8
350.971	7.28
351.341	7.03
351.711	7.19
352.081	6.91
352.45	7.67
352.82	7.1
353.19	7.34
353.56	7.28
353.929	7.32
354.299	7.59
354.669	7.31
355.038	7.59
355.408	7.71
355.777	7.21
356.147	7.74
356.516	7.62
356.885	7.61
357.254	7.62
357.624	7.47
357.993	7.36
358.362	7.61
358.731	7.75
359.1	7.58
359.469	7.6
359.838	7.85
360.207	7.91
360.576	7.99
360.945	7.58
361.314	7.92
361.682	7.5
362.051	8.04
362.42	7.98
362.788	8.13
363.157	7.78
363.525	7.92
363.894	8.04
364.262	8.08
364.631	8.13
364.999	8.06
365.367	8.16
365.735	8.38
366.104	8.33
366.472	8.39
366.84	8.41
367.208	8.65
367.576	8.2
367.944	8.43
368.312	8.26
368.68	8.8
369.048	8.85
369.416	8.66
369.783	8.7
370.151	8.64
370.519	8.66
370.886	8.42
371.254	8.27
371.621	8.78
371.989	9
372.356	8.82
372.724	8.94
373.091	8.71
373.458	8.78
373.826	9
374.193	9
374.56	8.77
374.927	9.06
375.294	8.76
375.661	9.17
376.028	9.4
376.395	9.22
376.762	9.59
377.129	9.07
377.496	9.28
377.863	9.34
378.229	9.73
378.596	9.25
378.963	9.5
379.329	9.37
379.696	9.85
380.062	9.36
380.429	9.57
380.795	9.75
381.161	9.8
381.528	9.79
381.894	9.92
382.26	9.82
382.626	9.66
382.993	9.9
383.359	9.88
383.725	9.83
384.091	9.96
384.457	9.71
384.823	9.8
385.188	9.84
385.554	9.99
385.92	9.98
386.286	10
386.651	10.31
387.017	9.93
387.383	9.91
387.748	10.01
388.114	9.86
388.479	10.3
388.845	10.3
389.21	10.37
389.575	10.33
389.94	10.7
390.306	10.43
390.671	10.49
391.036	10.67
391.401	10.64
391.766	10.79
392.131	10.67
392.496	10.53
392.861	10.62
393.226	10.57
393.591	10.64
393.956	10.72
394.32	10.88
394.685	10.71
395.05	11.09
395.414	10.77
395.779	10.69
396.143	10.96
396.508	10.6
396.872	11.03
397.236	10.9
397.601	11.19
397.965	10.9
398.329	11
398.694	11.1
399.058	11.35
399.422	11.23
399.786	11.43
400.15	11.23
400.514	11.5
400.878	11.49
401.242	11.44
401.605	11.45
401.969	11.31
402.333	11.45
402.697	11.51
403.06	11.66
403.424	11.54
403.787	11.61
404.151	11.51
404.514	11.87
404.878	11.66
405.241	11.48
405.604	11.54
405.968	11.8
406.331	11.63
406.694	11.62
407.057	11.89
407.42	11.8
407.783	12.08
408.146	12.09
408.509	12.01
408.872	11.94
409.235	11.97
409.598	11.99
409.961	12.15
410.323	12.1
410.686	12.1
411.049	12
411.411	11.97
411.774	12.31
412.136	12.11
412.499	12.31
412.861	12.34
413.223	12.43
413.586	12.45
413.948	12.37
414.31	12.68
414.672	12.53
415.035	12.41
415.397	12.68
415.759	12.65
416.121	12.6
416.483	12.94
416.845	12.77
417.206	12.65
417.568	12.7
417.93	12.93
418.292	12.72
418.653	12.7
419.015	12.62
419.377	12.66
419.738	12.73
420.1	12.89
420.461	12.85
420.822	12.76
421.184	12.87
421.545	12.71
421.906	12.91
422.267	12.8
422.629	12.76
422.99	12.77
423.351	12.94
423.712	12.86
424.073	13
424.434	13.17
424.795	13.17
425.155	13.11
425.516	13.24
425.877	13.02
426.238	13.16
426.598	13.23
426.959	13.5
427.32	13.3
427.68	13.48
428.041	13.31
428.401	13.35
428.761	13.72
429.122	13.7
429.482	13.82
429.842	13.73
430.202	13.92
430.563	13.86
430.923	14
431.283	14.06
431.643	13.93
432.003	14.15
432.363	14.04
432.722	14.08
433.082	14.23
433.442	14.21
433.802	14.2
434.161	14.08
434.521	14.22
434.881	13.93
435.24	14.12
435.6	14.32
435.959	14.41
436.319	14.31
436.678	14.44
437.037	14.28
437.396	14.67
437.756	14.59
438.115	14.46
438.474	14.36
438.833	14.58
439.192	14.6
439.551	14.59
439.91	14.67
440.269	14.68
440.628	14.75
440.987	14.73
441.345	14.57
441.704	14.7
442.063	14.85
442.421	14.78
442.78	14.65
443.138	14.87
443.497	14.85
443.855	14.96
444.214	14.82
444.572	15.17
444.93	14.98
445.288	15.06
445.647	15.01
446.005	14.98
446.363	15.23
446.721	15.19
447.079	14.93
447.437	15.03
447.795	15.07
448.153	15.11
448.51	15.06
448.868	15.13
449.226	15.28
449.584	15.38
449.941	15.47
450.299	15.43
450.656	15.65
451.014	15.59
451.371	15.7
451.729	15.63
452.086	15.71
452.443	15.76
452.801	15.79
453.158	15.9
453.515	15.81
453.872	15.67
454.229	15.72
454.586	15.83
454.943	15.76
455.3	16.09
455.657	16.03
456.014	16.15
456.371	16.02
456.727	16.16
457.084	16.23
457.441	16.3
457.797	16.16
458.154	16.29
458.51	16.31
458.867	16.52
459.223	16.31
459.58	16.41
459.936	16.58
460.292	16.47
460.648	16.36
461.005	16.25
461.361	16
461.717	16.13
462.073	16.2
462.429	16.39
462.785	16.44
463.141	16.54
463.496	16.78
463.852	16.92
464.208	16.87
464.564	16.83
464.919	16.91
465.275	17.12
465.631	17.21
465.986	16.94
466.342	17.08
466.697	17.22
467.052	17.04
467.408	17.2
467.763	17.17
468.118	17.11
468.473	17.24
468.829	17.05
469.184	17.05
469.539	17.36
469.894	17.17
470.249	17.57
470.603	17.52
470.958	17.18
471.313	17.62
471.668	17.39
472.023	17.52
472.377	17.52
472.732	17.46
473.086	17.55
473.441	17.56
473.795	17.65
474.15	17.78
474.504	17.75
474.859	17.72
475.213	17.75
475.567	17.67
475.921	17.95
476.275	17.9
476.63	17.85
476.984	17.81
477.338	17.93
477.692	18.04
478.045	17.88
478.399	18.13
478.753	18.15
479.107	18
479.461	17.92
479.814	18.09
480.168	18.01
480.521	18.08
480.875	18.13
481.228	18.13
481.582	18.28
481.935	18.04
482.289	18.07
482.642	18.13
482.995	18.01
483.348	18.06
483.701	18.01
484.055	17.94
484.408	17.96
484.761	17.58
485.114	17.32
485.466	17.27
485.819	17.39
486.172	17.58
486.525	17.78
486.878	17.92
487.23	18
487.583	18.08
487.936	18.12
488.288	18.01
488.641	17.88
488.993	17.85
489.345	17.79
489.698	17.88
490.05	18.07
490.402	18.05
490.754	18.27
491.107	18.47
491.459	18.54
491.811	18.58
492.163	18.57
492.515	18.46
492.866	18.31
493.218	18.08
493.57	18.1
493.922	18.37
494.274	18.65
494.625	18.71
494.977	18.99
495.328	19.13
495.68	19.24
496.031	19.33
496.383	19.23
496.734	19.4
497.086	19.28
497.437	19.42
497.788	19.37
498.139	19.2
498.49	19.22
498.842	19.37
499.193	19.35
499.544	19.38
499.894	19.36
500.245	19.46
500.596	19.62
500.947	19.65
501.298	19.8
501.648	19.83
501.999	19.77
502.35	20.03
502.7	20.07
503.051	20.04
503.401	19.91
503.752	19.96
504.102	19.97
504.452	20.05
504.803	20.01
505.153	20.1
505.503	20.06
505.853	20.11
506.203	20.17
506.553	20.14
506.903	20.01
507.253	20.15
507.603	20.42
507.953	20.29
508.303	20.46
508.652	20.45
509.002	20.31
509.352	20.46
509.701	20.38
510.051	20.45
510.4	20.3
510.75	20.29
511.099	20.29
511.449	20.24
511.798	20.36
512.147	20.18
512.496	20.45
512.846	20.53
513.195	20.53
513.544	20.55
513.893	20.56
514.242	20.5
514.591	20.74
514.939	20.8
515.288	20.77
515.637	20.76
515.986	20.94
516.334	20.85
516.683	21.08
517.032	21.04
517.38	20.94
517.729	21.08
518.077	21.22
518.426	21.06
518.774	21.07
519.122	20.88
519.47	20.87
519.819	20.66
520.167	20.66
520.515	20.67
520.863	20.86
521.211	21
521.559	21.02
521.907	21.05
522.255	21.01
522.602	21.19
522.95	21.45
523.298	21.39
523.645	21.57
523.993	21.51
524.341	21.63
524.688	21.49
525.036	21.57
525.383	21.66
525.73	21.56
526.078	21.42
526.425	21.43
526.772	21.29
527.119	21.15
527.466	21.24
527.814	21.22
528.161	21.22
528.508	21.32
528.854	21.4
529.201	21.3
529.548	21.08
529.895	20.81
530.242	20.76
530.588	20.89
530.935	21.07
531.282	21.19
531.628	21.39
531.975	21.44
532.321	21.49
532.667	21.72
533.014	21.79
533.36	21.85
533.706	21.76
534.052	21.7
534.399	21.63
534.745	21.43
535.091	21.45
535.437	21.57
535.783	21.72
536.129	21.88
536.474	21.98
536.82	22.07
537.166	22.21
537.512	22.2
537.857	22.03
538.203	21.93
538.549	21.96
538.894	21.98
539.239	22.33
539.585	22.5
539.93	22.5
540.276	22.71
540.621	22.78
540.966	22.62
541.311	22.61
541.656	22.56
542.001	22.55
542.346	22.28
542.691	22.02
543.036	21.89
543.381	21.9
543.726	22.22
544.071	22.33
544.415	22.41
544.76	22.51
545.105	22.55
545.449	22.64
545.794	22.84
546.138	22.86
546.483	23.08
546.827	23.08
547.171	22.92
547.516	22.94
547.86	23.11
548.204	22.97
548.548	22.91
548.892	22.96
549.236	23.17
549.58	23.33
549.924	23.42
550.268	23.48
550.612	23.44
550.956	23.58
551.3	23.61
551.643	23.82
551.987	23.86
552.33	23.57
552.674	23.73
553.017	23.86
553.361	23.76
553.704	23.87
554.048	23.85
554.391	23.74
554.734	23.91
555.077	23.85
555.42	23.88
555.764	23.92
556.107	24.07
556.45	24.25
556.793	24.14
557.135	24.01
557.478	24.21
557.821	24.11
558.164	24.29
558.507	24.13
558.849	24.37
559.192	24.19
559.534	24.47
559.877	24.28
560.219	24.29
560.562	24.6
560.904	24.47
561.246	24.54
561.589	24.5
561.931	24.55
562.273	24.65
562.615	24.56
562.957	24.63
563.299	24.69
563.641	24.58
563.983	24.73
564.325	24.74
564.667	24.69
565.008	24.74
565.35	24.68
565.692	24.83
566.033	24.86
566.375	24.89
566.716	24.81
567.058	24.73
567.399	24.85
567.741	24.66
568.082	24.95
568.423	24.75
568.764	24.96
569.105	24.88
569.447	25.04
569.788	25.06
570.129	25.02
570.47	25.11
570.811	25.26
571.151	25.05
571.492	25.01
571.833	25.1
572.174	25.19
572.514	25.19
572.855	25.23
573.195	25.21
573.536	25.07
573.876	25.15
574.217	25.17
574.557	25.27
574.898	25.23
575.238	25.24
575.578	25.42
575.918	25.47
576.258	25.26
576.598	25.33
576.938	25.56
577.278	25.45
577.618	25.42
577.958	25.6
578.298	25.47
578.638	25.64
578.977	25.67
579.317	25.75
579.657	26
579.996	25.84
580.336	26.11
580.675	25.85
581.014	26.06
581.354	25.92
581.693	26.05
582.032	25.86
582.372	26.01
582.711	26.31
583.05	26.24
583.389	26.38
583.728	26.17
584.067	26.37
584.406	26.41
584.745	26.6
585.083	26.34
585.422	26.52
585.761	26.35
586.1	26.41
586.438	26.39
586.777	26.12
587.115	26.36
587.454	26.62
587.792	26.33
588.13	26.53
588.469	26.58
588.807	26.51
589.145	26.25
589.483	26.71
589.821	26.57
590.159	26.57
590.497	26.76
590.835	26.68
591.173	26.77
591.511	26.5
591.849	26.74
592.187	26.8
592.524	26.8
592.862	26.74
593.2	26.53
593.537	26.91
593.875	26.7
594.212	27.05
594.55	26.84
594.887	26.98
595.224	26.57
595.561	26.9
595.899	26.97
596.236	26.9
596.573	26.69
596.91	26.91
597.247	26.96
597.584	27.13
597.921	27.01
598.258	26.69
598.594	26.67
598.931	26.71
599.268	26.99
599.604	26.96
599.941	27.21
600.277	27.33
600.614	27.45
600.95	27.33
601.287	27.36
601.623	27.54
601.959	27.58
602.296	27.32
602.632	27.63
602.968	27.7
603.304	27.35
603.64	27.63
603.976	27.61
604.312	27.4
604.648	27.73
604.984	27.52
605.319	27.45
605.655	27.69
605.991	27.44
606.326	27.3
606.662	27.34
606.998	27.44
607.333	27.47
607.668	27.69
608.004	27.51
608.339	27.79
608.674	27.93
609.01	28.2
609.345	28.11
609.68	27.81
610.015	27.94
610.35	27.99
610.685	27.79
611.02	27.63
611.355	28.01
611.689	27.71
612.024	27.8
612.359	27.98
612.694	27.84
613.028	27.9
613.363	28.09
613.697	28.08
614.032	28.2
614.366	28.03
614.7	28.08
615.035	28.06
615.369	27.99
615.703	28.23
616.037	28.7
616.371	28.49
616.705	28.59
617.039	28.58
617.373	28.19
617.707	28.23
618.041	28.53
618.375	28.85
618.709	28.58
619.042	28.45
619.376	28.67
619.71	28.7
620.043	28.43
620.377	28.67
620.71	28.65
621.043	28.81
621.377	28.54
621.71	28.8
622.043	28.75
622.376	28.99
622.709	28.72
623.043	28.86
623.376	28.66
623.709	28.99
624.041	29.19
624.374	28.86
624.707	28.98
625.04	28.95
625.373	28.58
625.705	28.83
626.038	29.08
626.37	29.3
626.703	28.84
627.035	28.81
627.368	29.05
627.7	28.93
628.032	28.92
628.365	29.02
628.697	29.05
629.029	29.14
629.361	28.97
629.693	29.1
630.025	29.07
630.357	29.18
630.689	29.08
631.021	29.52
631.353	29.29
631.684	29.33
632.016	29.14
632.348	29.62
632.679	29.3
633.011	29.15
633.342	29.26
633.674	29.49
634.005	29.6
634.336	29.29
634.668	29.61
634.999	29.66
635.33	29.62
635.661	29.42
635.992	29.19
636.323	29.53
636.654	29.6
636.985	29.69
637.316	29.31
637.647	29.6
637.977	29.4
638.308	29.63
638.639	29.93
638.969	29.83
639.3	29.91
639.63	29.89
639.961	30.1
640.291	30.07
640.622	29.56
640.952	29.69
641.282	29.87
641.612	29.9
641.943	29.78
642.273	29.9
642.603	30.01
642.933	29.89
643.263	29.96
643.592	29.83
643.922	29.72
644.252	29.91
644.582	29.87
644.911	30.11
645.241	30.17
645.571	30.4
645.9	30.29
646.23	30.13
646.559	30.2
646.888	30.11
647.218	30.58
647.547	30.31
647.876	30.7
648.205	30.23
648.534	29.73
648.863	30.14
649.192	30.69
649.521	30.8
649.85	30.73
650.179	30.24
650.508	30.64
650.837	30.35
651.165	30.21
651.494	30.58
651.822	30.47
652.151	30.39
652.479	30.41
652.808	30.62
653.136	31.08
653.465	30.25
653.793	30.34
654.121	30.36
654.449	29.86
654.777	30.61
655.105	31.08
655.433	30.47
655.761	31.44
656.089	30.85
656.417	30.6
656.745	30.51
657.073	30.76
657.4	30.84
657.728	31.37
658.056	30.76
658.383	30.55
658.711	30.87
659.038	31.12
659.365	31.12
659.693	30.9
660.02	30.81
660.347	30.95
660.674	31.16
661.001	30.9
661.329	30.77
661.656	31.13
661.982	31.09
662.309	31.1
662.636	31.07
662.963	31.32
663.29	31.26
663.616	31.66
663.943	31.52
664.27	30.94
664.596	31.4
664.923	31.23
665.249	31.75
665.576	31.32
665.902	31.39
666.228	30.88
666.554	31.03
666.881	31.52
667.207	31.88
667.533	31.3
667.859	31.7
668.185	31.77
668.511	31.59
668.837	31.56
669.162	32.1
669.488	31.74
669.814	31.52
670.139	31.69
670.465	32.15
670.791	31.62
671.116	31.17
671.442	31.87
671.767	31.44
672.092	31.73
672.418	32.06
672.743	31.3
673.068	32.35
673.393	31.46
673.718	32.43
