Data from 815652_crown_Reflection__2__52.txt Node

Date: Fri Sep 16 14:52:18 CDT 2022
User: ToomeyLab
Spectrometer: FLMS14357
Trigger mode: 0
Integration Time (sec): 1.000000E-2
Scans to average: 100
Electric dark correction enabled: true
Nonlinearity correction enabled: false
Boxcar width: 0
XAxis mode: Wavelengths
Number of Pixels in Spectrum: 2048
>>>>>Begin Spectral Data<<<<<
189.047	-980.07
189.435	-980.07
189.823	-980.07
190.211	-142.08
190.599	-794.65
190.987	90.15
191.375	98.62
191.763	1.07
192.151	-48.52
192.538	-166.94
192.926	69.12
193.314	341.54
193.702	163.49
194.089	45.15
194.477	-25.4
194.864	3.39
195.252	581.82
195.639	5.94
196.027	-49.43
196.414	33.86
196.801	144.01
197.189	-36.75
197.576	17.46
197.963	32.81
198.351	-40.03
198.738	-26.26
199.125	48.57
199.512	-9.32
199.899	0.13
200.286	-5.15
200.673	19.51
201.06	22.42
201.447	13.09
201.833	17.57
202.22	-26.77
202.607	-50.85
202.994	17.17
203.38	5.39
203.767	21.85
204.154	-7.95
204.54	20.49
204.927	-1.78
205.313	40.41
205.699	44.63
206.086	10.89
206.472	13.99
206.858	35.56
207.245	10.92
207.631	-1.64
208.017	-20.3
208.403	22.08
208.789	32.8
209.175	14.3
209.561	-18.76
209.947	-3.22
210.333	0.69
210.719	-27.07
211.105	-19.88
211.491	21.61
211.876	21.09
212.262	18.51
212.648	-17.57
213.034	27.87
213.419	-8.68
213.805	17.79
214.19	-3.75
214.576	-23.1
214.961	20.98
215.346	-14.89
215.732	-35.99
216.117	42.28
216.502	-11.41
216.888	-22.33
217.273	14.35
217.658	-3.26
218.043	-76.68
218.428	0.25
218.813	-12.6
219.198	-7.89
219.583	2.01
219.968	18.2
220.353	-8.97
220.738	2.41
221.122	-27.67
221.507	26.83
221.892	6.34
222.276	12.49
222.661	18.24
223.046	17.38
223.43	8.5
223.815	-22.45
224.199	-0.46
224.583	8.1
224.968	-0.3
225.352	10.7
225.736	11.75
226.121	-8.04
226.505	4.31
226.889	7.18
227.273	3.06
227.657	3.98
228.041	-0.29
228.425	-0.8
228.809	3.89
229.193	1.84
229.577	3.8
229.961	1.33
230.344	2.53
230.728	2.21
231.112	2
231.495	0.76
231.879	1.47
232.263	0.72
232.646	1
233.03	2.17
233.413	3.88
233.797	0.29
234.18	3.01
234.563	0.95
234.946	2.76
235.33	1.8
235.713	1.26
236.096	0.97
236.479	1.34
236.862	3.02
237.245	3.94
237.628	2.84
238.011	2.45
238.394	1.12
238.777	1.88
239.16	1.58
239.543	3.68
239.925	1.5
240.308	1.5
240.691	1.36
241.073	2.64
241.456	0.77
241.838	1.16
242.221	1.24
242.603	1.21
242.986	0.53
243.368	1.11
243.75	1.2
244.133	2.24
244.515	1.68
244.897	2
245.279	2.01
245.661	1.97
246.043	1.81
246.425	1.56
246.807	1.82
247.189	1.25
247.571	1.26
247.953	1.14
248.335	1.38
248.717	1.65
249.098	1.64
249.48	1.41
249.862	1.38
250.243	2.01
250.625	1.68
251.006	1.82
251.388	2.2
251.769	1.16
252.151	1.34
252.532	1.41
252.913	1.69
253.295	1.63
253.676	1.87
254.057	1.28
254.438	0.57
254.819	0.83
255.2	1.4
255.581	1.44
255.962	0.62
256.343	1.88
256.724	1.62
257.105	0.65
257.486	1.62
257.867	0.99
258.247	1.51
258.628	1.81
259.009	1.41
259.389	1.82
259.77	1.85
260.15	1.32
260.531	0.83
260.911	1.5
261.292	1.22
261.672	1.51
262.052	1.16
262.432	1.24
262.813	2.02
263.193	1.33
263.573	1.82
263.953	1.98
264.333	1.45
264.713	0.98
265.093	1.11
265.473	0.97
265.853	1.79
266.233	1.23
266.612	2.24
266.992	0.59
267.372	1.51
267.752	1.37
268.131	1.76
268.511	1.87
268.89	1.43
269.27	1.13
269.649	1.19
270.029	1.2
270.408	2.1
270.787	1.15
271.167	1.4
271.546	1.87
271.925	1.31
272.304	1.11
272.683	0.95
273.062	1.28
273.441	1.63
273.82	1.08
274.199	1.18
274.578	1.51
274.957	1.68
275.336	1.5
275.715	1.88
276.093	1.22
276.472	1.4
276.851	1.53
277.229	1.51
277.608	1.47
277.986	1
278.365	0.78
278.743	1.58
279.122	1.13
279.5	0.95
279.878	1.63
280.257	1.64
280.635	1.35
281.013	0.77
281.391	1.46
281.769	1.59
282.147	1.48
282.525	1.13
282.903	1.46
283.281	1.3
283.659	1.55
284.037	1.2
284.415	1.32
284.792	1.65
285.17	1.69
285.548	1.17
285.925	0.86
286.303	1.8
286.68	1.17
287.058	1.04
287.435	1.59
287.813	1.55
288.19	1.04
288.567	1.33
288.945	1.44
289.322	1.32
289.699	1.59
290.076	1.24
290.453	1.94
290.83	1.66
291.207	1.34
291.584	0.96
291.961	1.39
292.338	1.22
292.715	1.04
293.092	1.57
293.469	1.56
293.845	1.42
294.222	1.02
294.599	1.64
294.975	0.59
295.352	1.64
295.728	1.32
296.105	1.23
296.481	0.82
296.858	1.04
297.234	1.43
297.61	1.71
297.986	1.38
298.363	1.08
298.739	1.21
299.115	1.29
299.491	1.62
299.867	1.27
300.243	1.62
300.619	1.68
300.995	1.17
301.371	1.32
301.746	1.2
302.122	1.51
302.498	1.79
302.874	1.08
303.249	1.83
303.625	1.57
304	1.53
304.376	1.02
304.751	1.69
305.127	1.37
305.502	1.23
305.878	1.23
306.253	1.74
306.628	1.43
307.003	1.65
307.378	2.22
307.754	1.49
308.129	1.85
308.504	1.87
308.879	2.05
309.254	1.15
309.629	0.85
310.003	1.48
310.378	1.03
310.753	1.43
311.128	1.2
311.502	0.85
311.877	1.55
312.252	1.46
312.626	1.6
313.001	1.52
313.375	1.58
313.75	1.51
314.124	1.32
314.498	1.57
314.873	1.94
315.247	1.31
315.621	1.35
315.995	1.15
316.369	1.25
316.743	1.94
317.117	1.25
317.491	1.37
317.865	1.74
318.239	1.85
318.613	1.55
318.987	0.89
319.361	1.2
319.734	1.67
320.108	1.56
320.482	1.7
320.855	1.82
321.229	1.64
321.602	1.88
321.976	1.72
322.349	1.37
322.723	0.96
323.096	1.48
323.469	1.15
323.843	2.05
324.216	1.59
324.589	1.32
324.962	1.25
325.335	1.63
325.708	1.71
326.081	1.83
326.454	1.5
326.827	1.63
327.2	1.6
327.573	1.02
327.945	1.94
328.318	1.37
328.691	1.65
329.063	1.17
329.436	1.55
329.809	1.05
330.181	1.74
330.553	1.65
330.926	1.57
331.298	1.34
331.671	1.33
332.043	1.41
332.415	1.44
332.787	1.5
333.159	1.37
333.532	1.63
333.904	1.72
334.276	1.32
334.648	1.58
335.02	1.52
335.391	1.79
335.763	1.02
336.135	1.08
336.507	1.98
336.879	2.15
337.25	0.37
337.622	1.67
337.993	2.13
338.365	1.75
338.736	1.77
339.108	1.41
339.479	1.61
339.851	1.36
340.222	1.62
340.593	1.52
340.964	1.48
341.336	1.44
341.707	1.43
342.078	1.81
342.449	1.26
342.82	1.47
343.191	1.22
343.562	1.77
343.933	1.74
344.303	2.03
344.674	0.99
345.045	2.18
345.416	1.67
345.786	1.44
346.157	1.54
346.527	1.44
346.898	1.45
347.268	1.65
347.639	1.52
348.009	1.42
348.38	1.66
348.75	1.22
349.12	1.64
349.49	1.88
349.861	1.95
350.231	1.63
350.601	1.34
350.971	1.57
351.341	1.74
351.711	1.45
352.081	1.48
352.45	1.46
352.82	1.95
353.19	1.31
353.56	1.58
353.929	1.7
354.299	1.84
354.669	1.66
355.038	1.13
355.408	1.83
355.777	1.35
356.147	1.62
356.516	1.66
356.885	1.54
357.254	1.55
357.624	1.24
357.993	1.22
358.362	1.32
358.731	1.85
359.1	1.42
359.469	1.24
359.838	1.3
360.207	1.59
360.576	1.45
360.945	1.34
361.314	1.6
361.682	0.97
362.051	1.57
362.42	1.81
362.788	1.76
363.157	1.43
363.525	1.38
363.894	1.54
364.262	1.45
364.631	1.63
364.999	1.73
365.367	1.15
365.735	1.75
366.104	1.46
366.472	1.66
366.84	1.54
367.208	1.75
367.576	1.41
367.944	1.49
368.312	1.53
368.68	1.76
369.048	1.82
369.416	1.36
369.783	1.57
370.151	1.68
370.519	1.5
370.886	1.45
371.254	1.44
371.621	1.77
371.989	1.68
372.356	1.65
372.724	1.57
373.091	1.49
373.458	1.56
373.826	1.43
374.193	1.88
374.56	1.44
374.927	1.32
375.294	1.56
375.661	1.38
376.028	1.86
376.395	1.42
376.762	2.12
377.129	1.45
377.496	1.69
377.863	1.48
378.229	1.72
378.596	1.27
378.963	1.71
379.329	1.49
379.696	1.75
380.062	1.6
380.429	1.78
380.795	1.84
381.161	1.84
381.528	1.73
381.894	1.5
382.26	1.79
382.626	1.62
382.993	1.43
383.359	1.59
383.725	1.74
384.091	1.86
384.457	1.16
384.823	1.51
385.188	1.49
385.554	1.39
385.92	1.64
386.286	1.71
386.651	1.58
387.017	1.59
387.383	1.26
387.748	1.44
388.114	1.37
388.479	1.61
388.845	1.69
389.21	1.83
389.575	1.79
389.94	1.6
390.306	1.57
390.671	1.56
391.036	1.58
391.401	1.62
391.766	1.46
392.131	1.53
392.496	1.39
392.861	1.56
393.226	1.58
393.591	1.64
393.956	1.72
394.32	1.77
394.685	1.49
395.05	2
395.414	1.57
395.779	1.65
396.143	1.59
396.508	1.34
396.872	1.54
397.236	1.64
397.601	1.4
397.965	1.28
398.329	1.45
398.694	1.76
399.058	1.75
399.422	1.62
399.786	1.83
400.15	1.58
400.514	1.56
400.878	1.75
401.242	1.63
401.605	1.49
401.969	1.59
402.333	1.74
402.697	1.59
403.06	1.92
403.424	1.71
403.787	1.45
404.151	1.91
404.514	1.63
404.878	1.64
405.241	1.56
405.604	1.8
405.968	1.67
406.331	1.58
406.694	1.57
407.057	1.67
407.42	1.66
407.783	1.78
408.146	1.84
408.509	1.63
408.872	1.7
409.235	1.61
409.598	1.49
409.961	1.67
410.323	1.67
410.686	1.98
411.049	1.54
411.411	1.28
411.774	1.68
412.136	1.33
412.499	1.77
412.861	1.72
413.223	1.63
413.586	1.72
413.948	1.69
414.31	1.66
414.672	1.65
415.035	1.93
415.397	1.5
415.759	1.77
416.121	1.74
416.483	1.82
416.845	1.71
417.206	1.97
417.568	1.77
417.93	1.88
418.292	1.64
418.653	1.65
419.015	1.57
419.377	1.7
419.738	1.46
420.1	1.69
420.461	1.72
420.822	1.57
421.184	1.62
421.545	1.69
421.906	1.66
422.267	1.7
422.629	1.62
422.99	1.63
423.351	1.67
423.712	1.59
424.073	1.67
424.434	1.63
424.795	1.71
425.155	1.66
425.516	1.67
425.877	1.62
426.238	1.66
426.598	1.61
426.959	1.63
427.32	1.56
427.68	1.76
428.041	1.59
428.401	1.73
428.761	1.91
429.122	1.78
429.482	1.57
429.842	1.82
430.202	1.85
430.563	1.82
430.923	1.81
431.283	1.84
431.643	1.81
432.003	1.82
432.363	1.75
432.722	1.83
433.082	1.66
433.442	1.81
433.802	1.65
434.161	1.61
434.521	1.73
434.881	1.68
435.24	1.73
435.6	1.83
435.959	1.94
436.319	1.66
436.678	1.77
437.037	1.68
437.396	1.81
437.756	1.9
438.115	1.83
438.474	1.74
438.833	1.69
439.192	1.69
439.551	1.75
439.91	1.63
440.269	1.77
440.628	1.61
440.987	1.7
441.345	1.64
441.704	1.78
442.063	1.71
442.421	1.8
442.78	1.73
443.138	1.83
443.497	1.78
443.855	1.82
444.214	1.78
444.572	1.83
444.93	1.79
445.288	1.77
445.647	1.94
446.005	1.7
446.363	1.81
446.721	1.7
447.079	1.71
447.437	1.78
447.795	1.7
448.153	1.77
448.51	1.7
448.868	1.73
449.226	1.74
449.584	1.78
449.941	1.7
450.299	1.75
450.656	1.83
451.014	1.86
451.371	1.86
451.729	1.87
452.086	1.74
452.443	1.91
452.801	1.75
453.158	1.67
453.515	1.72
453.872	1.74
454.229	1.77
454.586	1.74
454.943	1.68
455.3	1.94
455.657	1.83
456.014	1.87
456.371	1.85
456.727	1.76
457.084	1.94
457.441	1.85
457.797	1.95
458.154	1.84
458.51	1.82
458.867	1.76
459.223	1.8
459.58	1.83
459.936	1.82
460.292	1.84
460.648	1.75
461.005	1.84
461.361	1.73
461.717	1.78
462.073	1.82
462.429	1.87
462.785	1.95
463.141	1.95
463.496	1.86
463.852	1.87
464.208	1.94
464.564	1.87
464.919	1.94
465.275	2.03
465.631	1.91
465.986	1.91
466.342	1.94
466.697	1.88
467.052	1.85
467.408	1.88
467.763	1.89
468.118	1.97
468.473	1.78
468.829	1.95
469.184	1.8
469.539	1.86
469.894	1.91
470.249	2.08
470.603	1.95
470.958	1.8
471.313	2.08
471.668	1.79
472.023	1.92
472.377	1.96
472.732	1.89
473.086	1.85
473.441	1.81
473.795	1.96
474.15	1.79
474.504	2.06
474.859	1.94
475.213	1.97
475.567	1.65
475.921	2.06
476.275	1.96
476.63	2.04
476.984	2.14
477.338	2.06
477.692	1.95
478.045	1.9
478.399	1.95
478.753	1.96
479.107	1.98
479.461	1.94
479.814	1.94
480.168	1.86
480.521	1.89
480.875	2
481.228	1.88
481.582	1.97
481.935	1.96
482.289	2.03
482.642	2.01
482.995	1.93
483.348	1.89
483.701	1.91
484.055	1.85
484.408	1.99
484.761	1.84
485.114	1.74
485.466	1.7
485.819	1.76
486.172	1.82
486.525	1.87
486.878	1.92
487.23	1.97
487.583	1.95
487.936	1.95
488.288	1.89
488.641	1.79
488.993	1.86
489.345	1.82
489.698	1.8
490.05	1.86
490.402	1.89
490.754	2
491.107	1.94
491.459	1.97
491.811	1.91
492.163	1.88
492.515	1.91
492.866	1.84
493.218	1.78
493.57	1.83
493.922	1.9
494.274	1.98
494.625	1.97
494.977	2.03
495.328	2.01
495.68	2.05
496.031	2.04
496.383	2.04
496.734	1.99
497.086	2.03
497.437	2.01
497.788	2.14
498.139	2.03
498.49	2.02
498.842	2.11
499.193	1.97
499.544	2.07
499.894	1.99
500.245	2.06
500.596	2.01
500.947	2.07
501.298	2.08
501.648	2.03
501.999	2.02
502.35	2.16
502.7	2.08
503.051	2.03
503.401	2.02
503.752	2.19
504.102	2.16
504.452	1.99
504.803	2.04
505.153	2.03
505.503	2.14
505.853	2.04
506.203	2.1
506.553	2
506.903	2.14
507.253	2.04
507.603	2.12
507.953	2.15
508.303	2.15
508.652	2.07
509.002	2.08
509.352	2.12
509.701	2.14
510.051	2.09
510.4	2
510.75	2.08
511.099	2.03
511.449	2.03
511.798	1.95
512.147	2.01
512.496	2.06
512.846	2.1
513.195	2.08
513.544	2.08
513.893	2.03
514.242	2.06
514.591	2.17
514.939	2.11
515.288	2.17
515.637	2.14
515.986	2.09
516.334	2.13
516.683	2.09
517.032	2.16
517.38	2.26
517.729	2.15
518.077	2.21
518.426	2.08
518.774	2.2
519.122	2.19
519.47	2.08
519.819	2.03
520.167	2.07
520.515	2.02
520.863	2.11
521.211	2.12
521.559	2.15
521.907	2.12
522.255	2.06
522.602	2.17
522.95	2.16
523.298	2.15
523.645	2.25
523.993	2.29
524.341	2.17
524.688	2.16
525.036	2.2
525.383	2.21
525.73	2.28
526.078	2.1
526.425	2.15
526.772	2.09
527.119	2.02
527.466	2.11
527.814	2.09
528.161	2.15
528.508	2.17
528.854	2.19
529.201	2.11
529.548	2.07
529.895	2.03
530.242	2.01
530.588	2.03
530.935	2.06
531.282	2.13
531.628	2.13
531.975	2.18
532.321	2.2
532.667	2.25
533.014	2.27
533.36	2.16
533.706	2.21
534.052	2.16
534.399	2.21
534.745	2.1
535.091	2.05
535.437	2.09
535.783	2.17
536.129	2.28
536.474	2.23
536.82	2.24
537.166	2.2
537.512	2.2
537.857	2.23
538.203	2.04
538.549	2.13
538.894	2.1
539.239	2.32
539.585	2.29
539.93	2.09
540.276	2.39
540.621	2.35
540.966	2.35
541.311	2.21
541.656	2.2
542.001	2.19
542.346	2.15
542.691	2.16
543.036	2.06
543.381	2.07
543.726	2.12
544.071	2.21
544.415	2.2
544.76	2.23
545.105	2.26
545.449	2.26
545.794	2.25
546.138	2.28
546.483	2.3
546.827	2.31
547.171	2.28
547.516	2.17
547.86	2.27
548.204	2.31
548.548	2.21
548.892	2.16
549.236	2.24
549.58	2.42
549.924	2.37
550.268	2.38
550.612	2.37
550.956	2.29
551.3	2.39
551.643	2.47
551.987	2.46
552.33	2.45
552.674	2.32
553.017	2.46
553.361	2.38
553.704	2.53
554.048	2.3
554.391	2.47
554.734	2.35
555.077	2.37
555.42	2.57
555.764	2.41
556.107	2.65
556.45	2.36
556.793	2.53
557.135	2.39
557.478	2.38
557.821	2.48
558.164	2.51
558.507	2.53
558.849	2.42
559.192	2.38
559.534	2.65
559.877	2.28
560.219	2.4
560.562	2.44
560.904	2.41
561.246	2.33
561.589	2.46
561.931	2.52
562.273	2.46
562.615	2.42
562.957	2.35
563.299	2.58
563.641	2.54
563.983	2.66
564.325	2.42
564.667	2.42
565.008	2.67
565.35	2.33
565.692	2.49
566.033	2.58
566.375	2.46
566.716	2.39
567.058	2.53
567.399	2.59
567.741	2.35
568.082	2.59
568.423	2.35
568.764	2.43
569.105	2.51
569.447	2.5
569.788	2.65
570.129	2.56
570.47	2.5
570.811	2.56
571.151	2.74
571.492	2.56
571.833	2.48
572.174	2.69
572.514	2.61
572.855	2.4
573.195	2.55
573.536	2.42
573.876	2.59
574.217	2.58
574.557	2.44
574.898	2.48
575.238	2.49
575.578	2.54
575.918	2.59
576.258	2.52
576.598	2.66
576.938	2.52
577.278	2.48
577.618	2.57
577.958	2.58
578.298	2.6
578.638	2.52
578.977	2.49
579.317	2.5
579.657	2.66
579.996	2.44
580.336	2.71
580.675	2.66
581.014	2.78
581.354	2.49
581.693	2.6
582.032	2.6
582.372	2.62
582.711	2.86
583.05	2.63
583.389	2.7
583.728	2.71
584.067	2.94
584.406	2.79
584.745	2.81
585.083	2.77
585.422	2.73
585.761	2.6
586.1	2.37
586.438	2.93
586.777	2.41
587.115	2.61
587.454	2.72
587.792	2.55
588.13	2.66
588.469	2.72
588.807	2.66
589.145	2.75
589.483	2.54
589.821	2.8
590.159	2.76
590.497	2.57
590.835	2.65
591.173	2.74
591.511	2.66
591.849	2.7
592.187	2.61
592.524	2.69
592.862	2.83
593.2	2.61
593.537	2.78
593.875	2.83
594.212	2.79
594.55	2.56
594.887	2.91
595.224	2.85
595.561	2.8
595.899	2.89
596.236	2.79
596.573	2.55
596.91	2.73
597.247	2.75
597.584	2.87
597.921	2.77
598.258	2.58
598.594	2.53
598.931	2.63
599.268	2.7
599.604	2.57
599.941	2.85
600.277	2.8
600.614	3.15
600.95	2.68
601.287	2.67
601.623	2.61
601.959	3.02
602.296	2.77
602.632	2.54
602.968	2.9
603.304	2.84
603.64	2.75
603.976	2.73
604.312	3.06
604.648	2.91
604.984	2.85
605.319	2.91
605.655	2.83
605.991	2.86
606.326	2.86
606.662	2.72
606.998	2.79
607.333	2.83
607.668	3
608.004	2.76
608.339	2.7
608.674	2.85
609.01	2.84
609.345	3.08
609.68	2.86
610.015	2.98
610.35	2.78
610.685	3.22
611.02	2.9
611.355	2.97
611.689	2.9
612.024	2.94
612.359	3.01
612.694	2.92
613.028	2.72
613.363	2.87
613.697	2.92
614.032	2.92
614.366	2.62
614.7	2.83
615.035	2.78
615.369	3.04
615.703	2.8
616.037	2.86
616.371	3.02
616.705	2.88
617.039	3.19
617.373	2.57
617.707	2.97
618.041	3.05
618.375	3.09
618.709	2.81
619.042	2.93
619.376	2.89
619.71	3.36
620.043	2.79
620.377	2.99
620.71	3.06
621.043	3.22
621.377	3.1
621.71	2.95
622.043	2.72
622.376	3.25
622.709	2.99
623.043	3.2
623.376	3.02
623.709	2.89
624.041	3.31
624.374	3.09
624.707	3.11
625.04	3.41
625.373	3.14
625.705	3.26
626.038	3.43
626.37	3.15
626.703	2.87
627.035	3.06
627.368	3.38
627.7	3.26
628.032	2.74
628.365	3.05
628.697	3.12
629.029	3.06
629.361	3.07
629.693	3.15
630.025	2.96
630.357	3.12
630.689	2.82
631.021	2.96
631.353	3.03
631.684	3.12
632.016	2.97
632.348	3.56
632.679	3.06
633.011	3.14
633.342	3.01
633.674	3.36
634.005	3.46
634.336	3.21
634.668	2.97
634.999	2.93
635.33	3.34
635.661	2.99
635.992	2.8
636.323	2.87
636.654	3.25
636.985	3.03
637.316	3.13
637.647	3.11
637.977	3.04
638.308	3.34
638.639	3.32
638.969	3.32
639.3	3.05
639.63	3.05
639.961	3.55
640.291	3.31
640.622	3.22
640.952	3.5
641.282	2.98
641.612	2.96
641.943	3.27
642.273	2.57
642.603	3.16
642.933	3
643.263	3.31
643.592	2.94
643.922	2.78
644.252	3.24
644.582	2.84
644.911	3.28
645.241	3.41
645.571	3.42
645.9	3.7
646.23	3
646.559	3.1
646.888	3.1
647.218	3.74
647.547	3.65
647.876	3.53
648.205	3.39
648.534	3.33
648.863	3.47
649.192	3.59
649.521	3.26
649.85	3.66
650.179	3.31
650.508	3.68
650.837	3.78
651.165	3.48
651.494	3.62
651.822	3.42
652.151	3.23
652.479	3.65
652.808	3.67
653.136	3.34
653.465	3.42
653.793	3.12
654.121	3.53
654.449	3.15
654.777	3.46
655.105	3.67
655.433	3.16
655.761	3.3
656.089	3.2
656.417	3.63
656.745	3.16
657.073	3.23
657.4	3.15
657.728	3.75
658.056	3.33
658.383	3.52
658.711	3.12
659.038	3.38
659.365	3.62
659.693	3.23
660.02	3.63
660.347	3.29
660.674	3.12
661.001	3.47
661.329	3.16
661.656	3.3
661.982	3.33
662.309	3.16
662.636	3.36
662.963	3.94
663.29	3.65
663.616	3.79
663.943	3.59
664.27	3.4
664.596	3.47
664.923	3.55
665.249	3.81
665.576	3.5
665.902	3.68
666.228	3.53
666.554	3.82
666.881	3.68
667.207	3.65
667.533	3.68
667.859	3.47
668.185	4.06
668.511	3.75
668.837	3.76
669.162	3.74
669.488	4.12
669.814	3.61
670.139	3.34
670.465	3.9
670.791	3.49
671.116	3.48
671.442	4.03
671.767	3.71
672.092	3.14
672.418	3.74
672.743	3.74
673.068	4.19
673.393	2.82
673.718	4.14
674.043	3.43
674.368	3.95
674.693	4.11
675.018	3.54
675.343	4.11
675.667	3.06
675.992	3.83
676.317	3.69
676.641	3.54
676.966	3.45
677.29	3.56
677.615	4.27
677.939	3.22
678.264	3.92
678.588	3.41
678.912	3.03
679.236	3.79
679.56	4.16
679.885	3.53
680.209	3.59
680.532	4.35
680.856	3.39
681.18	3.9
681.504	3.63
681.828	3.71
682.152	3.19
682.475	3.78
682.799	3.66
683.122	3.39
683.446	3.78
683.769	4.11
684.093	3.57
684.416	3.78
684.739	3.63
685.062	4.14
685.386	3.51
685.709	3.41
686.032	4.38
686.355	3.43
686.678	4.1
687.001	3.67
687.324	3.59
687.646	3.84
687.969	4.51
688.292	3.63
688.614	3.67
688.937	3.82
689.26	3.98
689.582	3.58
689.904	3.68
690.227	3.82
690.549	4.29
690.871	3.74
691.194	3.65
691.516	3.6
691.838	4.32
692.16	4.1
