Data from 815652_crown_Reflection__3__53.txt Node

Date: Fri Sep 16 14:52:23 CDT 2022
User: ToomeyLab
Spectrometer: FLMS14357
Trigger mode: 0
Integration Time (sec): 1.000000E-2
Scans to average: 100
Electric dark correction enabled: true
Nonlinearity correction enabled: false
Boxcar width: 0
XAxis mode: Wavelengths
Number of Pixels in Spectrum: 2048
>>>>>Begin Spectral Data<<<<<
189.047	-943.54
189.435	-943.54
189.823	-943.54
190.211	37.44
190.599	166.82
190.987	114.31
191.375	67.73
191.763	47.1
192.151	-27.1
192.538	37.4
192.926	-32.99
193.314	306.43
193.702	65.55
194.089	53.51
194.477	35.19
194.864	-6.54
195.252	756.46
195.639	-17.24
196.027	92.64
196.414	196.08
196.801	69.06
197.189	132.15
197.576	-55.12
197.963	16.12
198.351	-42.19
198.738	-35.19
199.125	5.27
199.512	-94.82
199.899	26.53
200.286	-15.6
200.673	-5.89
201.06	15.87
201.447	31.64
201.833	1.38
202.22	16.33
202.607	-74.13
202.994	18.51
203.38	-8.3
203.767	12.63
204.154	25.58
204.54	-24.45
204.927	-35.52
205.313	38.3
205.699	53.6
206.086	4.18
206.472	19.41
206.858	-26.88
207.245	17.02
207.631	25.65
208.017	6.25
208.403	-31.58
208.789	4.24
209.175	1.11
209.561	-15.85
209.947	5.3
210.333	40.19
210.719	6.37
211.105	8.23
211.491	28.56
211.876	19.26
212.262	28.24
212.648	21.76
213.034	4.84
213.419	13.05
213.805	25.48
214.19	22.08
214.576	12.58
214.961	-6.11
215.346	-27.71
215.732	-45.52
216.117	26.52
216.502	1.89
216.888	-45.45
217.273	0.94
217.658	-12.86
218.043	-64.71
218.428	34.05
218.813	-9.38
219.198	1.74
219.583	-15.87
219.968	-13.9
220.353	-0.63
220.738	-8.5
221.122	-53.23
221.507	19.78
221.892	5.37
222.276	7.41
222.661	1.47
223.046	8.21
223.43	8.67
223.815	-14.18
224.199	6.31
224.583	0.44
224.968	2.23
225.352	-3.57
225.736	18.43
226.121	3.34
226.505	2.92
226.889	5.34
227.273	2.72
227.657	2.82
228.041	1.78
228.425	-3.8
228.809	6.85
229.193	2.91
229.577	3.91
229.961	4.21
230.344	4.95
230.728	4.1
231.112	4.46
231.495	3.72
231.879	4.3
232.263	3.53
232.646	3.95
233.03	4.47
233.413	6.1
233.797	3.77
234.18	4.77
234.563	5.2
234.946	4.8
235.33	3.37
235.713	3.73
236.096	4.29
236.479	4.49
236.862	3.36
237.245	3.26
237.628	5.72
238.011	3.39
238.394	4.07
238.777	4.76
239.16	3.71
239.543	4.3
239.925	4.01
240.308	1.65
240.691	4.71
241.073	4.29
241.456	3.87
241.838	3.62
242.221	4.06
242.603	4.41
242.986	3.12
243.368	3.46
243.75	4.11
244.133	4.61
244.515	3.64
244.897	4.35
245.279	3.66
245.661	4.22
246.043	4.16
246.425	3.51
246.807	3.34
247.189	3.69
247.571	4.07
247.953	3.99
248.335	4.04
248.717	4.01
249.098	4.16
249.48	3.85
249.862	3.9
250.243	4.45
250.625	4.34
251.006	4.4
251.388	4.54
251.769	2.76
252.151	4.72
252.532	3.62
252.913	3.72
253.295	3.92
253.676	4.27
254.057	3.76
254.438	3.55
254.819	3.05
255.2	2.73
255.581	3.92
255.962	4.18
256.343	4.96
256.724	2.63
257.105	3.47
257.486	3.61
257.867	3.25
258.247	3.54
258.628	3.85
259.009	3.78
259.389	3.83
259.77	3.06
260.15	3.68
260.531	3.57
260.911	3.37
261.292	3.52
261.672	3.68
262.052	3.5
262.432	3.68
262.813	4.11
263.193	3.55
263.573	3.68
263.953	3.73
264.333	3.5
264.713	3.37
265.093	3.32
265.473	3.44
265.853	4.26
266.233	3.23
266.612	4.59
266.992	1.65
267.372	3.58
267.752	2.6
268.131	3.74
268.511	4.06
268.89	3.92
269.27	2.91
269.649	3.65
270.029	3.57
270.408	3.82
270.787	3.43
271.167	3.46
271.546	3.67
271.925	3.77
272.304	3.73
272.683	3.06
273.062	2.94
273.441	3.77
273.82	3.39
274.199	3.46
274.578	3.29
274.957	3.55
275.336	3.74
275.715	4.12
276.093	3.65
276.472	3.2
276.851	3.44
277.229	4
277.608	3.46
277.986	3.08
278.365	2.85
278.743	3.21
279.122	3.29
279.5	2.99
279.878	3.66
280.257	4.21
280.635	3.54
281.013	3.21
281.391	3.79
281.769	3.68
282.147	3.76
282.525	3.68
282.903	3.4
283.281	3.3
283.659	3.63
284.037	3.54
284.415	3.69
284.792	4.25
285.17	3.38
285.548	3.24
285.925	3.31
286.303	3.97
286.68	3.25
287.058	3.18
287.435	3.24
287.813	3.64
288.19	2.94
288.567	3.31
288.945	3.53
289.322	3.85
289.699	3.19
290.076	3.33
290.453	3.52
290.83	3.78
291.207	3.22
291.584	2.98
291.961	3.61
292.338	3.6
292.715	3.06
293.092	3.19
293.469	3.48
293.845	3.38
294.222	3.29
294.599	2.94
294.975	3.3
295.352	3.49
295.728	3.02
296.105	3.56
296.481	3.14
296.858	3.18
297.234	3.43
297.61	3.71
297.986	3.51
298.363	3.31
298.739	2.93
299.115	3.66
299.491	3.52
299.867	3.22
300.243	3.14
300.619	3.26
300.995	3.04
301.371	3.33
301.746	2.91
302.122	3.68
302.498	3.3
302.874	3.22
303.249	3.23
303.625	2.92
304	3.16
304.376	2.79
304.751	3.44
305.127	3.12
305.502	2.82
305.878	3.21
306.253	3.17
306.628	2.71
307.003	3.14
307.378	3.16
307.754	3.3
308.129	3.55
308.504	3.4
308.879	3.38
309.254	3.6
309.629	2.63
310.003	3
310.378	2.68
310.753	3.11
311.128	3.24
311.502	2.61
311.877	3.11
312.252	3.04
312.626	2.93
313.001	2.89
313.375	3.35
313.75	3.35
314.124	2.92
314.498	2.9
314.873	3.51
315.247	2.89
315.621	3.63
315.995	2.9
316.369	3.42
316.743	3.42
317.117	2.52
317.491	3.04
317.865	3.51
318.239	3.24
318.613	2.98
318.987	2.6
319.361	2.28
319.734	3.2
320.108	3.17
320.482	3.33
320.855	2.34
321.229	2.09
321.602	3.6
321.976	3.07
322.349	3.56
322.723	2.63
323.096	2.82
323.469	3.07
323.843	3.35
324.216	3.02
324.589	2.99
324.962	2.84
325.335	3.24
325.708	2.98
326.081	2.82
326.454	3.05
326.827	3.02
327.2	3.03
327.573	2.77
327.945	3.14
328.318	2.88
328.691	3.05
329.063	2.69
329.436	3.06
329.809	2.21
330.181	2.78
330.553	3.3
330.926	2.5
331.298	3.12
331.671	2.69
332.043	2.99
332.415	2.81
332.787	2.91
333.159	2.6
333.532	3.17
333.904	3.01
334.276	2.77
334.648	3.01
335.02	2.91
335.391	3.27
335.763	2.37
336.135	2.83
336.507	3.25
336.879	3.14
337.25	2.4
337.622	3.09
337.993	3.38
338.365	3.11
338.736	3.3
339.108	3.14
339.479	3.54
339.851	2.53
340.222	2.99
340.593	2.88
340.964	2.86
341.336	3.03
341.707	2.97
342.078	3.34
342.449	2.9
342.82	2.89
343.191	3.25
343.562	3.16
343.933	3.21
344.303	3.23
344.674	2.52
345.045	2.9
345.416	2.74
345.786	2.63
346.157	2.99
346.527	2.82
346.898	2.79
347.268	2.92
347.639	2.64
348.009	2.78
348.38	3.21
348.75	2.57
349.12	3.1
349.49	3.06
349.861	3.18
350.231	2.75
350.601	2.98
350.971	3.17
351.341	2.93
351.711	2.61
352.081	2.71
352.45	3.29
352.82	3.03
353.19	2.9
353.56	3.13
353.929	2.95
354.299	3.2
354.669	2.95
355.038	2.67
355.408	2.93
355.777	2.78
356.147	2.97
356.516	3.06
356.885	2.94
357.254	2.9
357.624	2.53
357.993	2.99
358.362	2.72
358.731	3.38
359.1	2.79
359.469	2.71
359.838	2.65
360.207	3.07
360.576	2.87
360.945	2.82
361.314	2.9
361.682	2.33
362.051	2.71
362.42	3.09
362.788	3.29
363.157	3.06
363.525	2.84
363.894	2.96
364.262	2.8
364.631	3.19
364.999	2.82
365.367	2.83
365.735	3.07
366.104	3.07
366.472	2.98
366.84	2.86
367.208	3.27
367.576	2.88
367.944	2.47
368.312	2.99
368.68	3.16
369.048	3.1
369.416	2.92
369.783	3.11
370.151	3
370.519	3.29
370.886	2.88
371.254	2.89
371.621	3.05
371.989	3.02
372.356	3.11
372.724	3.21
373.091	2.89
373.458	3.01
373.826	2.86
374.193	3.36
374.56	2.74
374.927	3.03
375.294	3.15
375.661	2.77
376.028	3.18
376.395	2.57
376.762	3.31
377.129	2.67
377.496	3.13
377.863	3.03
378.229	3
378.596	2.92
378.963	2.83
379.329	2.99
379.696	3.24
380.062	2.98
380.429	3.16
380.795	3.11
381.161	3.37
381.528	3.65
381.894	2.95
382.26	2.98
382.626	3.04
382.993	2.84
383.359	2.99
383.725	3.03
384.091	3.17
384.457	2.6
384.823	2.75
385.188	3
385.554	2.85
385.92	2.91
386.286	3.03
386.651	3.04
387.017	2.96
387.383	2.92
387.748	2.78
388.114	2.63
388.479	3.04
388.845	3.19
389.21	3
389.575	3.07
389.94	2.95
390.306	2.99
390.671	3
391.036	3
391.401	3.22
391.766	2.97
392.131	3.11
392.496	2.81
392.861	3.06
393.226	3.22
393.591	3.05
393.956	3.07
394.32	3.43
394.685	3.02
395.05	3.35
395.414	2.69
395.779	3.18
396.143	3.13
396.508	2.92
396.872	3.19
397.236	3.01
397.601	3.17
397.965	2.95
398.329	2.99
398.694	3
399.058	3.51
399.422	3.19
399.786	3.08
400.15	3.32
400.514	3.2
400.878	3.15
401.242	3.16
401.605	2.87
401.969	3.11
402.333	3.1
402.697	2.9
403.06	3.24
403.424	3.18
403.787	3.03
404.151	3.1
404.514	2.89
404.878	2.74
405.241	3.12
405.604	3.07
405.968	3.26
406.331	3.13
406.694	3.25
407.057	3.04
407.42	2.9
407.783	3.3
408.146	3.17
408.509	3.32
408.872	3.21
409.235	3.23
409.598	3.02
409.961	3.06
410.323	3.28
410.686	3.43
411.049	3.22
411.411	2.99
411.774	3.32
412.136	3.03
412.499	3.07
412.861	3.2
413.223	3.09
413.586	3.17
413.948	3.21
414.31	3.16
414.672	3.02
415.035	3.28
415.397	3.12
415.759	3.29
416.121	2.91
416.483	3.12
416.845	3.34
417.206	3.24
417.568	3.17
417.93	3.4
418.292	3.11
418.653	3
419.015	3.16
419.377	3.18
419.738	3.01
420.1	3.26
420.461	3.21
420.822	3.07
421.184	3.17
421.545	3.13
421.906	3.19
422.267	3.14
422.629	2.99
422.99	3.1
423.351	3.21
423.712	3.1
424.073	3.24
424.434	3.19
424.795	3.18
425.155	3.07
425.516	3.13
425.877	3.1
426.238	3.14
426.598	3.07
426.959	3.2
427.32	3.1
427.68	3.26
428.041	3.13
428.401	3.18
428.761	3.38
429.122	3.29
429.482	3.13
429.842	3.14
430.202	3.34
430.563	3.31
430.923	3.28
431.283	3.4
431.643	3.36
432.003	3.15
432.363	3.31
432.722	3.39
433.082	3.33
433.442	3.33
433.802	3.22
434.161	3.17
434.521	3.22
434.881	3.2
435.24	3.16
435.6	3.27
435.959	3.26
436.319	3.14
436.678	3.27
437.037	3.21
437.396	3.37
437.756	3.4
438.115	3.34
438.474	3.25
438.833	3.22
439.192	3.2
439.551	3.29
439.91	3.19
440.269	3.36
440.628	3.24
440.987	3.26
441.345	3.27
441.704	3.28
442.063	3.27
442.421	3.23
442.78	3.21
443.138	3.31
443.497	3.33
443.855	3.26
444.214	3.26
444.572	3.31
444.93	3.27
445.288	3.31
445.647	3.24
446.005	3.12
446.363	3.23
446.721	3.25
447.079	3.28
447.437	3.26
447.795	3.16
448.153	3.33
448.51	3.21
448.868	3.3
449.226	3.27
449.584	3.27
449.941	3.28
450.299	3.26
450.656	3.33
451.014	3.38
451.371	3.42
451.729	3.34
452.086	3.32
452.443	3.35
452.801	3.37
453.158	3.41
453.515	3.23
453.872	3.18
454.229	3.16
454.586	3.24
454.943	3.25
455.3	3.48
455.657	3.27
456.014	3.42
456.371	3.28
456.727	3.39
457.084	3.45
457.441	3.36
457.797	3.43
458.154	3.34
458.51	3.32
458.867	3.3
459.223	3.33
459.58	3.28
459.936	3.22
460.292	3.31
460.648	3.3
461.005	3.35
461.361	3.17
461.717	3.25
462.073	3.31
462.429	3.37
462.785	3.38
463.141	3.39
463.496	3.39
463.852	3.4
464.208	3.39
464.564	3.41
464.919	3.43
465.275	3.4
465.631	3.54
465.986	3.53
466.342	3.47
466.697	3.49
467.052	3.37
467.408	3.47
467.763	3.51
468.118	3.44
468.473	3.43
468.829	3.48
469.184	3.39
469.539	3.46
469.894	3.54
470.249	3.59
470.603	3.46
470.958	3.39
471.313	3.4
471.668	3.48
472.023	3.49
472.377	3.33
472.732	3.4
473.086	3.47
473.441	3.39
473.795	3.5
474.15	3.41
474.504	3.49
474.859	3.36
475.213	3.43
475.567	3.24
475.921	3.43
476.275	3.53
476.63	3.52
476.984	3.57
477.338	3.52
477.692	3.42
478.045	3.33
478.399	3.57
478.753	3.44
479.107	3.46
479.461	3.38
479.814	3.47
480.168	3.43
480.521	3.5
480.875	3.54
481.228	3.44
481.582	3.52
481.935	3.41
482.289	3.5
482.642	3.44
482.995	3.41
483.348	3.48
483.701	3.48
484.055	3.44
484.408	3.43
484.761	3.27
485.114	3.16
485.466	3.11
485.819	3.18
486.172	3.29
486.525	3.38
486.878	3.43
487.23	3.44
487.583	3.47
487.936	3.37
488.288	3.35
488.641	3.27
488.993	3.3
489.345	3.25
489.698	3.27
490.05	3.4
490.402	3.38
490.754	3.45
491.107	3.45
491.459	3.49
491.811	3.4
492.163	3.44
492.515	3.36
492.866	3.31
493.218	3.25
493.57	3.32
493.922	3.4
494.274	3.5
494.625	3.52
494.977	3.53
495.328	3.51
495.68	3.48
496.031	3.6
496.383	3.61
496.734	3.63
497.086	3.47
497.437	3.51
497.788	3.48
498.139	3.52
498.49	3.64
498.842	3.51
499.193	3.58
499.544	3.57
499.894	3.47
500.245	3.6
500.596	3.59
500.947	3.58
501.298	3.54
501.648	3.61
501.999	3.62
502.35	3.67
502.7	3.72
503.051	3.6
503.401	3.56
503.752	3.6
504.102	3.66
504.452	3.63
504.803	3.7
505.153	3.7
505.503	3.52
505.853	3.61
506.203	3.59
506.553	3.56
506.903	3.58
507.253	3.55
507.603	3.67
507.953	3.58
508.303	3.67
508.652	3.59
509.002	3.59
509.352	3.64
509.701	3.52
510.051	3.61
510.4	3.56
510.75	3.59
511.099	3.53
511.449	3.47
511.798	3.48
512.147	3.53
512.496	3.63
512.846	3.57
513.195	3.65
513.544	3.68
513.893	3.6
514.242	3.71
514.591	3.66
514.939	3.63
515.288	3.75
515.637	3.71
515.986	3.64
516.334	3.66
516.683	3.69
517.032	3.69
517.38	3.69
517.729	3.79
518.077	3.64
518.426	3.7
518.774	3.65
519.122	3.64
519.47	3.63
519.819	3.57
520.167	3.55
520.515	3.51
520.863	3.67
521.211	3.7
521.559	3.74
521.907	3.66
522.255	3.61
522.602	3.71
522.95	3.72
523.298	3.73
523.645	3.85
523.993	3.83
524.341	3.73
524.688	3.8
525.036	3.78
525.383	3.84
525.73	3.83
526.078	3.69
526.425	3.63
526.772	3.59
527.119	3.59
527.466	3.63
527.814	3.61
528.161	3.73
528.508	3.65
528.854	3.75
529.201	3.69
529.548	3.6
529.895	3.5
530.242	3.48
530.588	3.51
530.935	3.6
531.282	3.66
531.628	3.73
531.975	3.69
532.321	3.72
532.667	3.76
533.014	3.86
533.36	3.76
533.706	3.67
534.052	3.72
534.399	3.64
534.745	3.63
535.091	3.56
535.437	3.57
535.783	3.71
536.129	3.83
536.474	3.8
536.82	3.73
537.166	3.78
537.512	3.8
537.857	3.65
538.203	3.65
538.549	3.65
538.894	3.64
539.239	3.78
539.585	3.8
539.93	3.76
540.276	3.93
540.621	4
540.966	3.88
541.311	3.89
541.656	3.79
542.001	3.67
542.346	3.72
542.691	3.65
543.036	3.59
543.381	3.56
543.726	3.69
544.071	3.77
544.415	3.78
544.76	3.86
545.105	3.77
545.449	3.88
545.794	3.83
546.138	3.83
546.483	3.93
546.827	3.95
547.171	3.88
547.516	3.77
547.86	3.82
548.204	3.86
548.548	3.74
548.892	3.75
549.236	3.83
549.58	3.95
549.924	3.99
550.268	3.95
550.612	4.06
550.956	3.92
551.3	4.03
551.643	4.02
551.987	4.02
552.33	3.79
552.674	3.76
553.017	3.93
553.361	3.96
553.704	3.99
554.048	3.95
554.391	3.97
554.734	3.9
555.077	3.86
555.42	4.06
555.764	4.05
556.107	4.12
556.45	3.96
556.793	4.18
557.135	3.87
557.478	4.01
557.821	3.91
558.164	4.1
558.507	3.98
558.849	3.93
559.192	3.96
559.534	4.2
559.877	3.88
560.219	3.93
560.562	3.98
560.904	4.23
561.246	3.93
561.589	4.07
561.931	3.99
562.273	4.08
562.615	3.99
562.957	4.01
563.299	4.15
563.641	4.16
563.983	4.13
564.325	4.06
564.667	3.94
565.008	4.08
565.35	4.01
565.692	4.01
566.033	4.12
566.375	4.01
566.716	3.94
567.058	3.98
567.399	4.06
567.741	3.92
568.082	4.22
568.423	3.94
568.764	4.04
569.105	4.02
569.447	4.12
569.788	4.06
570.129	4.03
570.47	4.01
570.811	4.12
571.151	4.05
571.492	4.06
571.833	4.07
572.174	4.18
572.514	4.14
572.855	3.98
573.195	4.23
573.536	4.07
573.876	4.02
574.217	4.06
574.557	3.97
574.898	3.98
575.238	4.3
575.578	4.01
575.918	4.08
576.258	4.1
576.598	4
576.938	4.13
577.278	4.15
577.618	4.09
577.958	4.15
578.298	4.03
578.638	4.11
578.977	4.1
579.317	4.03
579.657	4.02
579.996	4.31
580.336	4.32
580.675	4.22
581.014	4.23
581.354	4.3
581.693	4.04
582.032	4.08
582.372	4.29
582.711	4.42
583.05	4.14
583.389	4.21
583.728	4.24
584.067	4.34
584.406	4.27
584.745	4.18
585.083	4.46
585.422	4.32
585.761	4.25
586.1	4.01
586.438	4.4
586.777	4.03
587.115	4.31
587.454	4.19
587.792	4.23
588.13	4.32
588.469	4.16
588.807	4.03
589.145	4.17
589.483	4.49
589.821	4.28
590.159	4.27
590.497	4.1
590.835	4.34
591.173	4.45
591.511	4.27
591.849	4.34
592.187	4.4
592.524	4.01
592.862	4.38
593.2	4.13
593.537	4.27
593.875	4.22
594.212	4.33
594.55	4.06
594.887	4.31
595.224	4.14
595.561	4.35
595.899	4.25
596.236	4.38
596.573	4.16
596.91	4.36
597.247	4.32
597.584	4.17
597.921	4.31
598.258	4.12
598.594	4.06
598.931	4.1
599.268	4.24
599.604	4.27
599.941	4.35
600.277	4.27
600.614	4.54
600.95	4.21
601.287	4.32
601.623	4.32
601.959	4.38
602.296	4.11
602.632	4.4
602.968	4.15
603.304	4.3
603.64	4.2
603.976	4.58
604.312	4.23
604.648	4.46
604.984	4.47
605.319	4.35
605.655	4.37
605.991	4.29
606.326	4.15
606.662	4.29
606.998	4.39
607.333	4.38
607.668	4.61
608.004	4.37
608.339	4.44
608.674	4.58
609.01	4.17
609.345	4.72
609.68	4.56
610.015	4.5
610.35	4.32
610.685	4.58
611.02	4.45
611.355	4.47
611.689	4.42
612.024	4.51
612.359	4.46
612.694	4.33
613.028	4.4
613.363	4.36
613.697	4.42
614.032	4.37
614.366	4.49
614.7	4.47
615.035	4.46
615.369	4.35
615.703	4.32
616.037	4.36
616.371	4.56
616.705	4.46
617.039	4.66
617.373	4.09
617.707	4.53
618.041	4.27
618.375	4.51
618.709	4.28
619.042	4.53
619.376	4.58
619.71	4.65
620.043	4.43
620.377	4.52
620.71	4.63
621.043	4.55
621.377	4.53
621.71	4.26
622.043	4.44
622.376	4.6
622.709	4.57
623.043	4.64
623.376	4.01
623.709	4.22
624.041	4.54
624.374	4.49
624.707	4.57
625.04	4.37
625.373	4.49
625.705	4.49
626.038	5.05
626.37	4.82
626.703	4.03
627.035	4.52
627.368	4.91
627.7	4.62
628.032	4.42
628.365	4.47
628.697	4.42
629.029	4.55
629.361	4.53
629.693	4.73
630.025	4.67
630.357	4.55
630.689	4.43
631.021	4.68
631.353	4.73
631.684	4.41
632.016	4.69
632.348	4.76
632.679	4.61
633.011	4.54
633.342	4.42
633.674	4.77
634.005	4.83
634.336	4.46
634.668	4.69
634.999	4.35
635.33	4.5
635.661	4.61
635.992	4.74
636.323	4.59
636.654	4.48
636.985	4.84
637.316	4.57
637.647	4.56
637.977	4.61
638.308	4.67
638.639	4.71
638.969	4.57
639.3	5.08
639.63	4.52
639.961	4.94
640.291	4.58
640.622	4.23
640.952	4.86
641.282	4.68
641.612	4.76
641.943	4.77
642.273	4.8
642.603	4.67
642.933	4.47
643.263	4.83
643.592	4.1
643.922	4.4
644.252	4.82
644.582	4.52
644.911	4.92
645.241	4.7
645.571	4.98
645.9	5.29
646.23	4.64
646.559	4.49
646.888	4.49
647.218	4.44
647.547	5.05
647.876	5.08
648.205	4.74
648.534	4.48
648.863	4.57
649.192	4.78
649.521	4.85
649.85	4.79
650.179	4.66
650.508	4.97
650.837	4.89
651.165	4.4
651.494	4.99
651.822	4.48
652.151	4.87
652.479	4.91
652.808	4.91
653.136	4.8
653.465	4.79
653.793	4.68
654.121	5.16
654.449	4.46
654.777	4.69
655.105	5.13
655.433	4.75
655.761	5.07
656.089	4.67
656.417	4.89
656.745	4.68
657.073	4.82
657.4	5.08
657.728	5.26
658.056	4.8
658.383	4.95
658.711	5.08
659.038	5.04
659.365	5.08
659.693	4.66
660.02	5.07
660.347	4.96
660.674	5.04
661.001	4.76
661.329	4.41
661.656	4.87
661.982	5.11
662.309	4.76
662.636	4.95
662.963	5.16
663.29	5.3
663.616	5.09
663.943	5.14
664.27	4.89
664.596	4.79
664.923	4.41
665.249	4.81
665.576	5.11
665.902	5.2
666.228	4.64
666.554	5.33
666.881	5.12
667.207	4.78
667.533	5.12
667.859	5.17
668.185	4.87
668.511	5.01
668.837	5.01
669.162	5.54
669.488	5.61
669.814	4.76
670.139	4.76
670.465	4.89
670.791	5.2
671.116	4.94
671.442	4.84
671.767	5.3
672.092	4.9
672.418	4.69
672.743	4.69
673.068	5.19
673.393	4.63
673.718	5.31
674.043	5.35
674.368	4.99
674.693	5.54
675.018	4.78
675.343	5.18
675.667	4.88
675.992	5.1
676.317	4.79
676.641	4.73
676.966	5.2
677.29	5.37
677.615	5.27
677.939	4.74
678.264	5.04
678.588	4.3
678.912	4.97
679.236	5.54
679.56	5.14
679.885	5.01
680.209	4.79
680.532	5.13
680.856	4.98
681.18	4.77
681.504	4.83
681.828	5.12
682.152	4.91
682.475	5.19
682.799	4.62
683.122	4.8
683.446	5.47
683.769	5.33
684.093	4.86
684.416	5.2
684.739	5.01
685.062	5.7
685.386	5.24
685.709	5.04
686.032	5.7
686.355	5.02
686.678	5.64
687.001	4.79
687.324	5.13
687.646	6.13
687.969	5.21
688.292	5.27
688.614	4.79
688.937	5.65
689.26	5.42
689.582	5.05
689.904	4.94
690.227	5.32
690.549	5.45
690.871	5.49
691.194	4.9
691.516	4.92
691.838	5.67
692.16	5.54
692.482	5.09
692.804	5.33
693.126	6.38
