Data from 815652_crown_Reflection__0__50.txt Node

Date: Fri Sep 16 14:51:54 CDT 2022
User: ToomeyLab
Spectrometer: FLMS14357
Trigger mode: 0
Integration Time (sec): 1.000000E-2
Scans to average: 100
Electric dark correction enabled: true
Nonlinearity correction enabled: false
Boxcar width: 0
XAxis mode: Wavelengths
Number of Pixels in Spectrum: 2048
>>>>>Begin Spectral Data<<<<<
189.047	-636.9
189.435	-636.9
189.823	-636.9
190.211	-500.3
190.599	509.13
190.987	80.31
191.375	117.34
191.763	47.26
192.151	-83.77
192.538	59.81
192.926	-17.74
193.314	330.75
193.702	17.73
194.089	63.2
194.477	16.45
194.864	-37.07
195.252	-161.72
195.639	243.7
196.027	236.52
196.414	157.25
196.801	41.78
197.189	56.5
197.576	47.24
197.963	211.56
198.351	-15.12
198.738	0.16
199.125	53.33
199.512	-116.41
199.899	-0.77
200.286	-1.93
200.673	-18.72
201.06	26.19
201.447	-28.82
201.833	-3.36
202.22	19.31
202.607	-45.57
202.994	15.77
203.38	-35.28
203.767	-11.89
204.154	18.14
204.54	0.89
204.927	-31.31
205.313	41.87
205.699	41.29
206.086	17.46
206.472	12.99
206.858	12.99
207.245	-0.32
207.631	24.87
208.017	5.17
208.403	-39.79
208.789	14.25
209.175	12.33
209.561	51.68
209.947	-7.17
210.333	0.7
210.719	11.51
211.105	6.4
211.491	-5.96
211.876	24.04
212.262	15.93
212.648	-16.17
213.034	-5.02
213.419	-22.72
213.805	2.31
214.19	17.58
214.576	-7.52
214.961	17.15
215.346	-18.09
215.732	-68.91
216.117	22.04
216.502	4.87
216.888	-45.92
217.273	-11.29
217.658	-13.45
218.043	-21.56
218.428	1.11
218.813	11.71
219.198	-1.35
219.583	2.02
219.968	4.09
220.353	-12.35
220.738	-8.79
221.122	9.9
221.507	17.41
221.892	17.44
222.276	21.87
222.661	6.18
223.046	14.53
223.43	7.12
223.815	1.71
224.199	0.56
224.583	17.11
224.968	17.59
225.352	7.32
225.736	15.82
226.121	14.28
226.505	1.32
226.889	4.51
227.273	8.88
227.657	8.2
228.041	9.28
228.425	2.16
228.809	12.43
229.193	7.43
229.577	8.54
229.961	8.45
230.344	9.75
230.728	8.85
231.112	8.53
231.495	7.73
231.879	9.42
232.263	8.01
232.646	7.53
233.03	8.18
233.413	10.61
233.797	7.52
234.18	9.16
234.563	6.06
234.946	7.98
235.33	9.54
235.713	6.86
236.096	8.04
236.479	6.94
236.862	8.57
237.245	8.11
237.628	10.4
238.011	8.08
238.394	7.12
238.777	7.59
239.16	7.63
239.543	8.17
239.925	7.34
240.308	7.13
240.691	7.04
241.073	6.15
241.456	7.82
241.838	6.59
242.221	7.07
242.603	7.58
242.986	7.01
243.368	7.08
243.75	7.36
244.133	7.57
244.515	7.52
244.897	7.85
245.279	7
245.661	6.96
246.043	7.22
246.425	7
246.807	7.33
247.189	6.57
247.571	7.27
247.953	7.09
248.335	7.36
248.717	7.45
249.098	7.21
249.48	7.34
249.862	7.01
250.243	7.36
250.625	7.63
251.006	7.61
251.388	7.61
251.769	6.43
252.151	6.15
252.532	7.84
252.913	6.67
253.295	7.24
253.676	7.44
254.057	7.06
254.438	6.37
254.819	5.7
255.2	6.53
255.581	7.36
255.962	6.27
256.343	8.02
256.724	6.68
257.105	4.96
257.486	6.62
257.867	7.05
258.247	6.75
258.628	7.49
259.009	7.08
259.389	6.96
259.77	6.63
260.15	7.13
260.531	6.91
260.911	6.88
261.292	6.59
261.672	6.72
262.052	6.48
262.432	6.69
262.813	6.91
263.193	6.66
263.573	7.67
263.953	6.75
264.333	6.63
264.713	6.35
265.093	5.7
265.473	5.52
265.853	6.58
266.233	6.14
266.612	7.18
266.992	6.37
267.372	6.18
267.752	6.48
268.131	6.4
268.511	6.83
268.89	7.08
269.27	6.34
269.649	6.57
270.029	6.68
270.408	7.24
270.787	6.23
271.167	6.21
271.546	6.54
271.925	6.39
272.304	6.78
272.683	6.61
273.062	6.58
273.441	6.4
273.82	6.14
274.199	6.66
274.578	6.55
274.957	6.35
275.336	6.48
275.715	6.73
276.093	6.22
276.472	6.24
276.851	6.07
277.229	6.53
277.608	6.68
277.986	6.88
278.365	6.81
278.743	6.88
279.122	6.14
279.5	6.08
279.878	6.4
280.257	6.62
280.635	6.57
281.013	6.1
281.391	6.26
281.769	6.48
282.147	6.28
282.525	5.94
282.903	6.31
283.281	5.94
283.659	6.39
284.037	6.33
284.415	7.05
284.792	6.89
285.17	6.16
285.548	6.01
285.925	5.76
286.303	6.8
286.68	5.94
287.058	5.96
287.435	6.2
287.813	6.66
288.19	6
288.567	5.94
288.945	5.96
289.322	6.3
289.699	6.16
290.076	6.02
290.453	6.58
290.83	6.34
291.207	5.68
291.584	5.63
291.961	6.12
292.338	5.93
292.715	5.7
293.092	5.78
293.469	5.78
293.845	6.15
294.222	5.68
294.599	5.57
294.975	5.52
295.352	5.78
295.728	5.55
296.105	6.06
296.481	5.66
296.858	5.42
297.234	5.96
297.61	6.07
297.986	6.05
298.363	5.78
298.739	5.56
299.115	5.7
299.491	5.88
299.867	5.73
300.243	5.39
300.619	5.88
300.995	5.34
301.371	5.67
301.746	5.63
302.122	5.66
302.498	5.42
302.874	5.86
303.249	6.28
303.625	6.03
304	5.64
304.376	5.09
304.751	5.4
305.127	5.75
305.502	5.35
305.878	5.41
306.253	5.66
306.628	5.19
307.003	6.14
307.378	5.38
307.754	5.92
308.129	6.32
308.504	5.74
308.879	5.81
309.254	5.65
309.629	4.95
310.003	5.25
310.378	5.07
310.753	5.18
311.128	5.2
311.502	4.62
311.877	5.3
312.252	5.49
312.626	5.25
313.001	5.45
313.375	5.54
313.75	5.26
314.124	5.23
314.498	4.96
314.873	5.47
315.247	4.83
315.621	4.9
315.995	4.7
316.369	5.06
316.743	5.23
317.117	4.71
317.491	5.33
317.865	5.49
318.239	5.22
318.613	4.32
318.987	4.46
319.361	4.85
319.734	5.26
320.108	4.99
320.482	5.63
320.855	4.96
321.229	4.72
321.602	5.23
321.976	4.51
322.349	4.68
322.723	4.69
323.096	4.88
323.469	4.91
323.843	5.37
324.216	5.32
324.589	5.36
324.962	5.25
325.335	4.8
325.708	5.04
326.081	5.01
326.454	5.18
326.827	4.92
327.2	4.85
327.573	4.45
327.945	5.16
328.318	4.85
328.691	4.99
329.063	4.81
329.436	4.62
329.809	3.92
330.181	5.27
330.553	5.13
330.926	5
331.298	5.06
331.671	4.81
332.043	4.82
332.415	5.21
332.787	4.87
333.159	4.82
333.532	5.09
333.904	4.63
334.276	4.71
334.648	4.85
335.02	4.91
335.391	5.1
335.763	4.5
336.135	4.44
336.507	4.85
336.879	4.92
337.25	4.52
337.622	4.58
337.993	4.85
338.365	4.67
338.736	5.25
339.108	5.07
339.479	4.86
339.851	4.43
340.222	4.82
340.593	4.75
340.964	5.06
341.336	4.73
341.707	4.89
342.078	5.06
342.449	4.81
342.82	4.73
343.191	4.76
343.562	4.85
343.933	4.9
344.303	5.12
344.674	4.74
345.045	4.92
345.416	4.41
345.786	4.85
346.157	4.86
346.527	4.74
346.898	4.38
347.268	4.98
347.639	4.55
348.009	4.6
348.38	4.85
348.75	4.32
349.12	4.74
349.49	5.1
349.861	5.29
350.231	4.92
350.601	4.81
350.971	4.79
351.341	4.88
351.711	4.77
352.081	4.73
352.45	4.78
352.82	5.33
353.19	4.35
353.56	5.07
353.929	4.94
354.299	4.81
354.669	4.91
355.038	4.75
355.408	4.85
355.777	4.7
356.147	4.92
356.516	4.96
356.885	4.83
357.254	4.65
357.624	4.89
357.993	4.61
358.362	4.91
358.731	5.03
359.1	4.65
359.469	4.61
359.838	4.48
360.207	4.87
360.576	4.81
360.945	4.71
361.314	4.44
361.682	4.24
362.051	4.9
362.42	4.88
362.788	5.06
363.157	4.69
363.525	4.89
363.894	4.96
364.262	4.7
364.631	4.66
364.999	4.8
365.367	4.82
365.735	4.8
366.104	5.16
366.472	4.96
366.84	4.89
367.208	5.07
367.576	4.81
367.944	4.8
368.312	4.87
368.68	4.9
369.048	5.04
369.416	4.68
369.783	4.72
370.151	5.01
370.519	4.9
370.886	4.85
371.254	4.7
371.621	4.93
371.989	5.09
372.356	5.02
372.724	5.11
373.091	4.81
373.458	5.01
373.826	4.7
374.193	5.18
374.56	4.57
374.927	4.66
375.294	5.1
375.661	4.52
376.028	5.34
376.395	4.73
376.762	5.2
377.129	4.77
377.496	5.17
377.863	4.88
378.229	5.08
378.596	4.76
378.963	4.97
379.329	5.13
379.696	5.21
380.062	5
380.429	5.02
380.795	5.04
381.161	5.27
381.528	5.11
381.894	4.98
382.26	5.17
382.626	5.1
382.993	4.78
383.359	5.04
383.725	4.75
384.091	5.23
384.457	4.81
384.823	5.05
385.188	4.94
385.554	4.72
385.92	4.82
386.286	4.89
386.651	5.13
387.017	4.91
387.383	4.86
387.748	4.73
388.114	4.62
388.479	5.03
388.845	4.97
389.21	5.26
389.575	4.98
389.94	5.09
390.306	4.84
390.671	5
391.036	4.95
391.401	4.98
391.766	5.06
392.131	5.32
392.496	4.97
392.861	5.04
393.226	5.01
393.591	5.01
393.956	5.05
394.32	5.19
394.685	4.85
395.05	5.2
395.414	4.79
395.779	5.08
396.143	4.98
396.508	4.89
396.872	5.25
397.236	5.04
397.601	5.14
397.965	4.85
398.329	5.2
398.694	5.07
399.058	5.13
399.422	4.97
399.786	5.2
400.15	5.16
400.514	5.08
400.878	5.19
401.242	5.06
401.605	5.2
401.969	4.9
402.333	5.02
402.697	5.01
403.06	5.34
403.424	5.15
403.787	4.97
404.151	5.16
404.514	4.93
404.878	5.1
405.241	5.09
405.604	5.13
405.968	5.05
406.331	5.1
406.694	5.08
407.057	5.04
407.42	5.03
407.783	5.1
408.146	5.16
408.509	5
408.872	5.2
409.235	5.45
409.598	5
409.961	5.23
410.323	5.36
410.686	5.31
411.049	5.03
411.411	4.97
411.774	5.11
412.136	5.07
412.499	5.19
412.861	5.27
413.223	5.26
413.586	5.04
413.948	5.11
414.31	5.38
414.672	4.9
415.035	5.33
415.397	5.06
415.759	5.19
416.121	5.09
416.483	5.3
416.845	5.31
417.206	5.19
417.568	5.26
417.93	5.38
418.292	5.24
418.653	5.17
419.015	5.11
419.377	5.22
419.738	5.05
420.1	5.27
420.461	5.23
420.822	5.14
421.184	5.08
421.545	5.18
421.906	5.1
422.267	5.06
422.629	5.07
422.99	5.12
423.351	5.19
423.712	5.1
424.073	5.24
424.434	5.18
424.795	5.21
425.155	5.32
425.516	5.24
425.877	5.1
426.238	5.2
426.598	5.14
426.959	5.11
427.32	5.13
427.68	5.31
428.041	5.17
428.401	5.28
428.761	5.33
429.122	5.38
429.482	5.15
429.842	5.18
430.202	5.29
430.563	5.43
430.923	5.22
431.283	5.48
431.643	5.36
432.003	5.19
432.363	5.38
432.722	5.53
433.082	5.31
433.442	5.34
433.802	5.21
434.161	5.33
434.521	5.46
434.881	5.37
435.24	5.17
435.6	5.3
435.959	5.38
436.319	5.26
436.678	5.32
437.037	5.24
437.396	5.33
437.756	5.51
438.115	5.23
438.474	5.29
438.833	5.28
439.192	5.2
439.551	5.25
439.91	5.18
440.269	5.43
440.628	5.37
440.987	5.36
441.345	5.25
441.704	5.26
442.063	5.33
442.421	5.36
442.78	5.31
443.138	5.23
443.497	5.26
443.855	5.28
444.214	5.11
444.572	5.41
444.93	5.28
445.288	5.26
445.647	5.33
446.005	5.17
446.363	5.32
446.721	5.25
447.079	5.21
447.437	5.27
447.795	5.25
448.153	5.32
448.51	5.29
448.868	5.27
449.226	5.35
449.584	5.33
449.941	5.33
450.299	5.35
450.656	5.37
451.014	5.32
451.371	5.44
451.729	5.38
452.086	5.24
452.443	5.38
452.801	5.39
453.158	5.47
453.515	5.28
453.872	5.41
454.229	5.39
454.586	5.33
454.943	5.33
455.3	5.57
455.657	5.41
456.014	5.51
456.371	5.35
456.727	5.37
457.084	5.53
457.441	5.36
457.797	5.45
458.154	5.41
458.51	5.44
458.867	5.26
459.223	5.33
459.58	5.38
459.936	5.31
460.292	5.53
460.648	5.39
461.005	5.4
461.361	5.17
461.717	5.27
462.073	5.31
462.429	5.4
462.785	5.43
463.141	5.42
463.496	5.37
463.852	5.41
464.208	5.37
464.564	5.61
464.919	5.3
465.275	5.51
465.631	5.49
465.986	5.36
466.342	5.54
466.697	5.44
467.052	5.28
467.408	5.49
467.763	5.39
468.118	5.34
468.473	5.54
468.829	5.44
469.184	5.27
469.539	5.55
469.894	5.51
470.249	5.58
470.603	5.5
470.958	5.39
471.313	5.64
471.668	5.49
472.023	5.33
472.377	5.56
472.732	5.49
473.086	5.41
473.441	5.2
473.795	5.42
474.15	5.5
474.504	5.54
474.859	5.48
475.213	5.58
475.567	5.27
475.921	5.47
476.275	5.57
476.63	5.43
476.984	5.53
477.338	5.52
477.692	5.55
478.045	5.55
478.399	5.52
478.753	5.4
479.107	5.49
479.461	5.48
479.814	5.52
480.168	5.45
480.521	5.46
480.875	5.41
481.228	5.48
481.582	5.43
481.935	5.54
482.289	5.48
482.642	5.53
482.995	5.45
483.348	5.47
483.701	5.47
484.055	5.4
484.408	5.48
484.761	5.26
485.114	5.21
485.466	5.17
485.819	5.2
486.172	5.19
486.525	5.26
486.878	5.25
487.23	5.28
487.583	5.37
487.936	5.35
488.288	5.33
488.641	5.3
488.993	5.3
489.345	5.25
489.698	5.24
490.05	5.3
490.402	5.24
490.754	5.35
491.107	5.36
491.459	5.39
491.811	5.41
492.163	5.41
492.515	5.39
492.866	5.26
493.218	5.31
493.57	5.28
493.922	5.33
494.274	5.4
494.625	5.4
494.977	5.39
495.328	5.39
495.68	5.48
496.031	5.54
496.383	5.63
496.734	5.55
497.086	5.52
497.437	5.41
497.788	5.5
498.139	5.48
498.49	5.55
498.842	5.49
499.193	5.49
499.544	5.46
499.894	5.39
500.245	5.43
500.596	5.42
500.947	5.6
501.298	5.46
501.648	5.5
501.999	5.41
502.35	5.52
502.7	5.57
503.051	5.66
503.401	5.38
503.752	5.65
504.102	5.59
504.452	5.4
504.803	5.74
505.153	5.54
505.503	5.64
505.853	5.6
506.203	5.54
506.553	5.4
506.903	5.42
507.253	5.43
507.603	5.65
507.953	5.68
508.303	5.58
508.652	5.52
509.002	5.6
509.352	5.61
509.701	5.42
510.051	5.56
510.4	5.5
510.75	5.54
511.099	5.45
511.449	5.44
511.798	5.5
512.147	5.46
512.496	5.61
512.846	5.5
513.195	5.47
513.544	5.48
513.893	5.59
514.242	5.43
514.591	5.57
514.939	5.49
515.288	5.64
515.637	5.65
515.986	5.45
516.334	5.54
516.683	5.62
517.032	5.5
517.38	5.66
517.729	5.62
518.077	5.62
518.426	5.63
518.774	5.6
519.122	5.57
519.47	5.58
519.819	5.55
520.167	5.5
520.515	5.5
520.863	5.56
521.211	5.54
521.559	5.53
521.907	5.55
522.255	5.56
522.602	5.49
522.95	5.56
523.298	5.59
523.645	5.64
523.993	5.64
524.341	5.57
524.688	5.79
525.036	5.73
525.383	5.62
525.73	5.6
526.078	5.61
526.425	5.47
526.772	5.54
527.119	5.46
527.466	5.54
527.814	5.55
528.161	5.53
528.508	5.54
528.854	5.59
529.201	5.51
529.548	5.46
529.895	5.37
530.242	5.44
530.588	5.42
530.935	5.4
531.282	5.41
531.628	5.48
531.975	5.46
532.321	5.51
532.667	5.6
533.014	5.7
533.36	5.58
533.706	5.51
534.052	5.53
534.399	5.61
534.745	5.52
535.091	5.44
535.437	5.47
535.783	5.55
536.129	5.6
536.474	5.53
536.82	5.54
537.166	5.65
537.512	5.6
537.857	5.61
538.203	5.54
538.549	5.57
538.894	5.47
539.239	5.57
539.585	5.64
539.93	5.56
540.276	5.74
540.621	5.79
540.966	5.67
541.311	5.79
541.656	5.61
542.001	5.64
542.346	5.59
542.691	5.55
543.036	5.5
543.381	5.42
543.726	5.47
544.071	5.5
544.415	5.54
544.76	5.62
545.105	5.59
545.449	5.67
545.794	5.64
546.138	5.58
546.483	5.74
546.827	5.74
547.171	5.71
547.516	5.59
547.86	5.65
548.204	5.66
548.548	5.59
548.892	5.57
549.236	5.67
549.58	5.8
549.924	5.77
550.268	5.71
550.612	5.75
550.956	5.67
551.3	5.8
551.643	5.78
551.987	5.87
552.33	5.71
552.674	5.7
553.017	5.84
553.361	5.82
553.704	5.82
554.048	5.68
554.391	5.77
554.734	5.79
555.077	5.68
555.42	5.85
555.764	5.76
556.107	5.9
556.45	5.59
556.793	5.8
557.135	5.89
557.478	5.72
557.821	5.7
558.164	5.84
558.507	5.91
558.849	5.65
559.192	5.77
559.534	5.95
559.877	5.63
560.219	5.76
560.562	5.72
560.904	5.88
561.246	5.69
561.589	5.8
561.931	5.94
562.273	5.94
562.615	5.76
562.957	5.82
563.299	5.75
563.641	5.72
563.983	5.84
564.325	5.79
564.667	5.65
565.008	5.87
565.35	5.78
565.692	5.86
566.033	5.85
566.375	5.75
566.716	5.72
567.058	5.88
567.399	5.98
567.741	5.69
568.082	5.92
568.423	5.61
568.764	5.74
569.105	5.82
569.447	5.77
569.788	5.81
570.129	5.88
570.47	6.01
570.811	5.87
571.151	5.86
571.492	5.8
571.833	5.9
572.174	5.79
572.514	5.89
572.855	5.83
573.195	5.85
573.536	5.7
573.876	5.86
574.217	5.76
574.557	5.9
574.898	5.82
575.238	5.81
575.578	5.84
575.918	5.88
576.258	5.9
576.598	5.72
576.938	5.89
577.278	5.77
577.618	5.81
577.958	5.85
578.298	5.81
578.638	5.85
578.977	5.83
579.317	5.78
579.657	5.85
579.996	5.96
580.336	5.94
580.675	5.9
581.014	6.01
581.354	6.01
581.693	5.78
582.032	5.98
582.372	5.84
582.711	6.03
583.05	5.94
583.389	5.93
583.728	5.78
584.067	5.93
584.406	6.14
584.745	6.01
585.083	5.87
585.422	5.92
585.761	5.96
586.1	5.68
586.438	6.03
586.777	5.66
587.115	5.8
587.454	6.1
587.792	5.74
588.13	5.93
588.469	5.85
588.807	5.8
589.145	5.79
589.483	5.87
589.821	6.03
590.159	5.72
590.497	5.72
590.835	6.07
591.173	6.07
591.511	5.97
591.849	5.96
592.187	5.86
592.524	5.91
592.862	6.01
593.2	5.54
593.537	5.7
593.875	5.94
594.212	6.07
594.55	5.69
594.887	6.07
595.224	6.01
595.561	5.82
595.899	5.88
596.236	6
596.573	5.77
596.91	5.82
597.247	5.96
597.584	5.87
597.921	5.97
598.258	5.76
598.594	5.84
598.931	5.79
599.268	5.87
599.604	5.89
599.941	5.78
600.277	5.95
600.614	5.91
600.95	5.89
601.287	5.74
601.623	5.98
601.959	6.17
602.296	5.79
602.632	5.96
602.968	5.92
603.304	5.84
603.64	5.91
603.976	6
604.312	6.12
604.648	6.06
604.984	5.82
605.319	5.9
605.655	6.08
605.991	5.97
606.326	5.85
606.662	5.97
606.998	5.84
607.333	5.86
607.668	6.01
608.004	5.87
608.339	5.9
608.674	5.99
609.01	5.84
609.345	6.03
609.68	5.9
610.015	5.91
610.35	6.01
610.685	6.22
611.02	5.94
611.355	6
611.689	5.9
612.024	6.11
612.359	6.19
612.694	5.79
613.028	5.83
613.363	5.89
613.697	5.88
614.032	5.78
614.366	5.97
614.7	5.79
615.035	5.96
615.369	5.82
615.703	5.85
616.037	5.88
616.371	6.07
616.705	5.96
617.039	5.77
617.373	5.4
617.707	5.84
618.041	5.77
618.375	5.97
618.709	6.02
619.042	5.75
619.376	6.04
619.71	6.01
620.043	5.93
620.377	6.23
620.71	6.01
621.043	5.87
621.377	6.09
621.71	6.09
622.043	5.63
622.376	5.74
622.709	6.17
623.043	5.98
623.376	5.76
623.709	5.47
624.041	6.37
624.374	5.83
624.707	6.09
625.04	5.81
625.373	5.56
625.705	5.94
626.038	6.15
626.37	6.26
626.703	5.67
627.035	5.76
627.368	6.26
627.7	6.19
628.032	5.79
628.365	5.86
628.697	5.9
629.029	6.06
629.361	5.76
629.693	5.93
630.025	5.86
630.357	5.97
630.689	5.91
631.021	6.05
631.353	6.21
631.684	5.82
632.016	6.34
632.348	6.19
632.679	5.65
633.011	5.88
633.342	5.71
633.674	6.39
634.005	6.04
634.336	6.18
634.668	6.07
634.999	5.67
635.33	5.72
635.661	5.83
635.992	5.69
636.323	5.75
636.654	5.98
636.985	6.05
637.316	5.84
637.647	5.88
637.977	5.97
638.308	6.14
638.639	5.93
638.969	5.97
639.3	6.1
639.63	5.58
639.961	6.08
640.291	5.93
640.622	6.05
640.952	6.42
641.282	6.11
641.612	5.91
641.943	5.96
642.273	5.83
642.603	6.15
642.933	5.95
643.263	5.98
643.592	5.53
643.922	5.9
644.252	5.65
644.582	6.04
644.911	5.99
645.241	5.98
645.571	6.1
645.9	6.21
646.23	5.92
646.559	5.46
646.888	5.84
647.218	6.11
647.547	6.09
647.876	6.42
648.205	5.81
648.534	6.1
648.863	6.01
649.192	5.95
649.521	6.03
649.85	6.02
650.179	5.78
650.508	6.32
650.837	5.93
651.165	5.57
651.494	5.99
651.822	5.75
652.151	5.88
652.479	6.29
652.808	6.23
653.136	5.82
653.465	6.03
653.793	5.73
654.121	6.24
654.449	5.88
654.777	5.79
655.105	6
655.433	5.89
655.761	6.13
656.089	5.86
656.417	5.74
656.745	5.98
657.073	6.17
657.4	6.21
657.728	6.08
658.056	5.6
658.383	5.96
658.711	6.03
659.038	5.76
659.365	6.09
659.693	5.17
660.02	5.89
660.347	6.26
660.674	6.18
661.001	6.2
661.329	5.62
661.656	5.84
661.982	5.86
662.309	5.89
662.636	6.18
662.963	6.07
663.29	6.16
663.616	5.79
663.943	6.15
664.27	5.59
664.596	6.3
664.923	5.88
665.249	5.78
665.576	6.09
665.902	6.23
666.228	5.71
666.554	6.3
666.881	5.98
667.207	6.12
667.533	5.92
667.859	5.97
668.185	5.96
668.511	5.41
668.837	5.91
669.162	6.4
669.488	6.14
669.814	5.41
670.139	6.03
670.465	6.06
670.791	5.88
671.116	6.4
671.442	5.93
671.767	6.36
672.092	6.07
672.418	5.9
672.743	6.15
673.068	6.54
673.393	5.47
673.718	6.36
674.043	5.92
674.368	6.36
674.693	6.78
675.018	6.16
675.343	6.23
675.667	5.23
675.992	6.2
676.317	5.71
676.641	5.64
676.966	6.08
677.29	5.86
677.615	6.62
677.939	6.2
678.264	6.23
678.588	5.65
678.912	5.53
679.236	5.86
679.56	6.59
679.885	6.48
680.209	6.05
680.532	6.7
680.856	5.69
681.18	6.11
681.504	6.02
681.828	6.11
682.152	5.93
682.475	6.05
682.799	5.93
683.122	5.67
683.446	6.14
683.769	6.37
684.093	5.79
684.416	6.07
684.739	5.74
685.062	6.22
685.386	6.18
685.709	6.27
686.032	5.94
686.355	5.97
686.678	6.04
687.001	6.11
687.324	6.33
687.646	6.76
687.969	6.3
688.292	5.85
688.614	5.29
688.937	6.48
689.26	6.48
689.582	5.81
689.904	5.93
690.227	6.89
690.549	6.59
690.871	6.27
691.194	5.98
691.516	5.91
691.838	6.3
692.16	6.16
692.482	5.61
692.804	6.05
