Data from 815652_forehead_Reflection__4__49.txt Node

Date: Fri Sep 16 14:50:56 CDT 2022
User: ToomeyLab
Spectrometer: FLMS14357
Trigger mode: 0
Integration Time (sec): 1.000000E-2
Scans to average: 100
Electric dark correction enabled: true
Nonlinearity correction enabled: false
Boxcar width: 0
XAxis mode: Wavelengths
Number of Pixels in Spectrum: 2048
>>>>>Begin Spectral Data<<<<<
189.047	-212.92
189.435	-212.92
189.823	-212.92
190.211	67.71
190.599	363.7
190.987	63.02
191.375	78.52
191.763	50.08
192.151	-38.47
192.538	21.23
192.926	6.61
193.314	79.62
193.702	16.85
194.089	46.73
194.477	42.8
194.864	58.65
195.252	-282.78
195.639	105.94
196.027	5.03
196.414	286.24
196.801	24.69
197.189	150.71
197.576	-14.66
197.963	164.12
198.351	-2.92
198.738	16.88
199.125	80.4
199.512	-65.71
199.899	33.55
200.286	-22.39
200.673	72.85
201.06	43.35
201.447	28.13
201.833	80.13
202.22	53.39
202.607	2.72
202.994	27.36
203.38	11.6
203.767	70.03
204.154	48.24
204.54	60.07
204.927	77.55
205.313	11.08
205.699	46.8
206.086	29.42
206.472	24.8
206.858	12.56
207.245	2.94
207.631	56.16
208.017	38.99
208.403	-1.09
208.789	30.41
209.175	26.21
209.561	31.6
209.947	7.67
210.333	7.87
210.719	14.72
211.105	30.83
211.491	36.95
211.876	21.77
212.262	-14.23
212.648	49.59
213.034	13.07
213.419	8.32
213.805	34.51
214.19	18.66
214.576	4.59
214.961	17.75
215.346	18.22
215.732	2.56
216.117	54.55
216.502	11.41
216.888	6.62
217.273	32.68
217.658	12.87
218.043	-39.14
218.428	3.79
218.813	8.79
219.198	18.43
219.583	4.97
219.968	22
220.353	-9.78
220.738	15.8
221.122	-2.4
221.507	28.22
221.892	13.82
222.276	10.74
222.661	3.92
223.046	17.52
223.43	14.22
223.815	-0.47
224.199	8.82
224.583	18.29
224.968	13.26
225.352	12.54
225.736	16.8
226.121	11.83
226.505	11.85
226.889	9.08
227.273	5.17
227.657	13.8
228.041	4.82
228.425	1.83
228.809	11.17
229.193	5.48
229.577	9.07
229.961	5.76
230.344	6.99
230.728	5.24
231.112	5.45
231.495	5.61
231.879	6.88
232.263	5.89
232.646	4.99
233.03	5.94
233.413	6.2
233.797	4.25
234.18	8.95
234.563	4.44
234.946	6.7
235.33	6.74
235.713	5.37
236.096	5.94
236.479	6.75
236.862	6.32
237.245	4.56
237.628	8.2
238.011	6.8
238.394	6.97
238.777	5.56
239.16	5.77
239.543	7.81
239.925	6.3
240.308	5.18
240.691	5.19
241.073	5.38
241.456	5.14
241.838	5.47
242.221	5.68
242.603	6.02
242.986	4.27
243.368	5.13
243.75	5.19
244.133	5.54
244.515	5.18
244.897	5.43
245.279	5.36
245.661	5.03
246.043	5.69
246.425	5.66
246.807	6.12
247.189	5.2
247.571	5.58
247.953	5.22
248.335	5.47
248.717	5.25
249.098	5.16
249.48	5.03
249.862	5.24
250.243	5.47
250.625	5.48
251.006	5.56
251.388	6.39
251.769	5.46
252.151	6
252.532	5.16
252.913	5.88
253.295	5.95
253.676	6.03
254.057	5.23
254.438	4.43
254.819	3.61
255.2	4.69
255.581	5.53
255.962	6.58
256.343	6.25
256.724	5.41
257.105	4.58
257.486	5.69
257.867	5.26
258.247	6.61
258.628	5.51
259.009	5.9
259.389	4.92
259.77	5.21
260.15	5.19
260.531	5.02
260.911	5.15
261.292	4.96
261.672	5.04
262.052	4.57
262.432	4.5
262.813	5.69
263.193	5.58
263.573	5.27
263.953	5.31
264.333	5.3
264.713	4.62
265.093	4.89
265.473	5.26
265.853	5.7
266.233	4.87
266.612	6.32
266.992	4.64
267.372	5.27
267.752	4.6
268.131	5.45
268.511	5.37
268.89	5.33
269.27	4.59
269.649	4.51
270.029	5.29
270.408	5.27
270.787	5.36
271.167	5.15
271.546	5.42
271.925	5.75
272.304	5.42
272.683	4.64
273.062	5.19
273.441	4.85
273.82	4.54
274.199	5.15
274.578	4.88
274.957	5.02
275.336	5.09
275.715	5.49
276.093	5.37
276.472	5.1
276.851	4.87
277.229	5.25
277.608	5.45
277.986	4.95
278.365	3.9
278.743	5.17
279.122	4.55
279.5	4.78
279.878	5.29
280.257	5.55
280.635	5.81
281.013	4.95
281.391	5.1
281.769	5.4
282.147	4.73
282.525	4.85
282.903	5.26
283.281	4.92
283.659	5.41
284.037	5.04
284.415	5.04
284.792	5.27
285.17	5.25
285.548	4.96
285.925	4.91
286.303	5.32
286.68	4.91
287.058	4.79
287.435	5.05
287.813	4.98
288.19	4.89
288.567	4.79
288.945	5.17
289.322	5.25
289.699	5.33
290.076	5
290.453	5.25
290.83	5.28
291.207	5.26
291.584	4.83
291.961	5.43
292.338	5.33
292.715	5.31
293.092	5.57
293.469	5.58
293.845	5.62
294.222	5.22
294.599	5.84
294.975	5.53
295.352	5.59
295.728	5.49
296.105	5.89
296.481	5.4
296.858	5.55
297.234	5.55
297.61	5.97
297.986	5.66
298.363	5.79
298.739	5.57
299.115	5.97
299.491	5.84
299.867	5.8
300.243	5.98
300.619	6.43
300.995	5.97
301.371	5.97
301.746	6.03
302.122	6.51
302.498	5.97
302.874	6.07
303.249	6.27
303.625	6.48
304	6.24
304.376	6.05
304.751	6.84
305.127	6.31
305.502	6.56
305.878	6.36
306.253	6.49
306.628	6.18
307.003	6.96
307.378	7.06
307.754	7.07
308.129	7.59
308.504	6.97
308.879	7.13
309.254	6.95
309.629	6.5
310.003	6.64
310.378	6.38
310.753	7.09
311.128	6.91
311.502	6.59
311.877	7.38
312.252	6.98
312.626	6.81
313.001	7.22
313.375	7.22
313.75	6.98
314.124	7.16
314.498	7.1
314.873	7.51
315.247	7.13
315.621	7.51
315.995	7.42
316.369	7.31
316.743	7.91
317.117	7.41
317.491	7.5
317.865	8.08
318.239	7.52
318.613	7.88
318.987	7.48
319.361	7.29
319.734	7.75
320.108	8.08
320.482	7.76
320.855	8.33
321.229	8.24
321.602	8.33
321.976	8.12
322.349	8.54
322.723	8
323.096	8.64
323.469	8.44
323.843	9.01
324.216	8.84
324.589	8.28
324.962	8.62
325.335	8.92
325.708	8.66
326.081	8.58
326.454	8.68
326.827	8.65
327.2	8.55
327.573	8.19
327.945	8.91
328.318	8.63
328.691	8.72
329.063	8.74
329.436	8.72
329.809	8.46
330.181	9.09
330.553	8.68
330.926	9.15
331.298	9.62
331.671	9.54
332.043	9.17
332.415	9.62
332.787	9.39
333.159	9.64
333.532	9.71
333.904	9.38
334.276	9.02
334.648	9.3
335.02	9.76
335.391	10.05
335.763	9.61
336.135	9.28
336.507	9.71
336.879	10.23
337.25	9.43
337.622	9.64
337.993	10.06
338.365	9.76
338.736	10.12
339.108	9.56
339.479	10.3
339.851	9.92
340.222	10.18
340.593	10.01
340.964	10.44
341.336	10.07
341.707	10.05
342.078	11.06
342.449	10.39
342.82	10.36
343.191	10.25
343.562	10.65
343.933	10.38
344.303	10.91
344.674	10.08
345.045	10.65
345.416	10.62
345.786	10.99
346.157	10.74
346.527	10.6
346.898	10.57
347.268	10.87
347.639	10.74
348.009	10.76
348.38	10.95
348.75	10.89
349.12	11.07
349.49	11.5
349.861	11.1
350.231	10.96
350.601	11.29
350.971	11.4
351.341	11.68
351.711	11.27
352.081	11.45
352.45	11.42
352.82	11.59
353.19	11.38
353.56	11.7
353.929	11.74
354.299	11.58
354.669	11.69
355.038	11.45
355.408	11.79
355.777	11.84
356.147	11.76
356.516	11.87
356.885	11.77
357.254	11.73
357.624	11.93
357.993	12.11
358.362	11.74
358.731	12.07
359.1	12.06
359.469	11.95
359.838	11.75
360.207	12.39
360.576	12.51
360.945	12.01
361.314	12.05
361.682	12.05
362.051	12.48
362.42	12.58
362.788	12.31
363.157	12.64
363.525	12.42
363.894	12.46
364.262	12.21
364.631	12.34
364.999	12.75
365.367	12.6
365.735	13.07
366.104	12.64
366.472	13.23
366.84	12.87
367.208	12.93
367.576	13.12
367.944	12.84
368.312	12.63
368.68	13.09
369.048	13.11
369.416	13.02
369.783	13.31
370.151	13.07
370.519	13.23
370.886	13.2
371.254	13.22
371.621	13.44
371.989	13.27
372.356	13.49
372.724	13.48
373.091	13.47
373.458	13.4
373.826	13.37
374.193	13.55
374.56	13.33
374.927	13.86
375.294	13.52
375.661	13.75
376.028	14.24
376.395	13.81
376.762	14.09
377.129	13.91
377.496	14.03
377.863	13.98
378.229	14.22
378.596	13.88
378.963	14.22
379.329	14.25
379.696	14.26
380.062	14.04
380.429	14.27
380.795	14.33
381.161	14.33
381.528	14.5
381.894	14.37
382.26	14.49
382.626	14.63
382.993	14.45
383.359	14.67
383.725	14.6
384.091	15.12
384.457	14.56
384.823	14.58
385.188	14.64
385.554	14.66
385.92	14.85
386.286	15.13
386.651	14.84
387.017	14.77
387.383	14.78
387.748	14.72
388.114	14.82
388.479	14.98
388.845	14.98
389.21	15.42
389.575	15.07
389.94	15.44
390.306	15.35
390.671	15.09
391.036	15.06
391.401	15.4
391.766	15.22
392.131	15.19
392.496	15.23
392.861	15.4
393.226	15.73
393.591	15.55
393.956	15.54
394.32	15.54
394.685	15.58
395.05	15.82
395.414	15.77
395.779	15.6
396.143	15.92
396.508	15.87
396.872	16.03
397.236	15.69
397.601	15.83
397.965	15.85
398.329	16.1
398.694	16.24
399.058	16.32
399.422	16.17
399.786	16.32
400.15	16.18
400.514	16.13
400.878	16.18
401.242	16.3
401.605	16.12
401.969	16.39
402.333	16.33
402.697	16.43
403.06	16.62
403.424	16.48
403.787	16.57
404.151	16.7
404.514	16.7
404.878	16.38
405.241	16.73
405.604	16.72
405.968	16.83
406.331	16.58
406.694	16.66
407.057	16.89
407.42	16.92
407.783	16.76
408.146	17.18
408.509	16.87
408.872	17.23
409.235	17.15
409.598	17.06
409.961	17.2
410.323	17.1
410.686	17.45
411.049	17.29
411.411	17.41
411.774	17.44
412.136	17.28
412.499	17.44
412.861	17.37
413.223	17.4
413.586	17.48
413.948	17.53
414.31	17.66
414.672	17.71
415.035	17.83
415.397	17.7
415.759	17.54
416.121	17.79
416.483	18.01
416.845	17.71
417.206	17.9
417.568	18.16
417.93	17.88
418.292	17.86
418.653	17.78
419.015	17.89
419.377	17.85
419.738	17.89
420.1	17.94
420.461	17.99
420.822	17.8
421.184	18.02
421.545	17.77
421.906	17.89
422.267	17.96
422.629	17.8
422.99	17.92
423.351	17.96
423.712	17.85
424.073	18.07
424.434	18.17
424.795	18.14
425.155	18.16
425.516	18.23
425.877	18.04
426.238	18.18
426.598	18.21
426.959	18.3
427.32	18.34
427.68	18.56
428.041	18.51
428.401	18.57
428.761	18.81
429.122	18.79
429.482	18.86
429.842	18.87
430.202	19
430.563	19.09
430.923	19.22
431.283	19.26
431.643	19.2
432.003	18.95
432.363	19.21
432.722	19.18
433.082	19.49
433.442	19.41
433.802	19.39
434.161	19.28
434.521	19.45
434.881	19.33
435.24	19.3
435.6	19.39
435.959	19.44
436.319	19.41
436.678	19.47
437.037	19.47
437.396	19.5
437.756	19.69
438.115	19.75
438.474	19.56
438.833	19.61
439.192	19.74
439.551	19.88
439.91	19.93
440.269	19.96
440.628	19.96
440.987	19.81
441.345	20.01
441.704	19.83
442.063	19.87
442.421	19.81
442.78	19.74
443.138	19.92
443.497	19.86
443.855	20.01
444.214	20.02
444.572	20.07
444.93	20.19
445.288	20.26
445.647	20.53
446.005	20.26
446.363	20.29
446.721	20.38
447.079	20.31
447.437	20.33
447.795	20.2
448.153	20.2
448.51	20.12
448.868	20.22
449.226	20.3
449.584	20.33
449.941	20.44
450.299	20.47
450.656	20.62
451.014	20.73
451.371	20.89
451.729	20.83
452.086	20.97
452.443	20.86
452.801	20.93
453.158	20.97
453.515	21.09
453.872	21.09
454.229	20.97
454.586	21.02
454.943	20.95
455.3	21.42
455.657	21.16
456.014	21.44
456.371	21.28
456.727	21.39
457.084	21.52
457.441	21.51
457.797	21.51
458.154	21.39
458.51	21.61
458.867	21.54
459.223	21.61
459.58	21.55
459.936	21.75
460.292	21.53
460.648	21.64
461.005	21.62
461.361	21.39
461.717	21.39
462.073	21.32
462.429	21.33
462.785	21.57
463.141	21.74
463.496	21.69
463.852	21.81
464.208	22.07
464.564	22.12
464.919	22.13
465.275	22.3
465.631	22.44
465.986	22.12
466.342	22.3
466.697	22.32
467.052	22.29
467.408	22.3
467.763	22.32
468.118	22.5
468.473	22.45
468.829	22.46
469.184	22.42
469.539	22.72
469.894	22.65
470.249	22.67
470.603	22.65
470.958	22.65
471.313	22.8
471.668	22.71
472.023	22.93
472.377	22.85
472.732	22.88
473.086	22.78
473.441	22.88
473.795	23.15
474.15	23.01
474.504	22.93
474.859	23.1
475.213	22.97
475.567	22.83
475.921	23.22
476.275	23.11
476.63	23.34
476.984	23.11
477.338	23.26
477.692	23.24
478.045	23.32
478.399	23.41
478.753	23.32
479.107	23.27
479.461	23.32
479.814	23.32
480.168	23.25
480.521	23.49
480.875	23.45
481.228	23.48
481.582	23.44
481.935	23.45
482.289	23.4
482.642	23.49
482.995	23.47
483.348	23.46
483.701	23.4
484.055	23.27
484.408	23.33
484.761	23.11
485.114	23.02
485.466	22.96
485.819	22.91
486.172	22.76
486.525	22.74
486.878	22.78
487.23	22.94
487.583	23.15
487.936	23.38
488.288	23.34
488.641	23.35
488.993	23.23
489.345	23.21
489.698	23.14
490.05	23.2
490.402	23.2
490.754	23.3
491.107	23.45
491.459	23.64
491.811	23.75
492.163	23.82
492.515	23.88
492.866	23.85
493.218	23.67
493.57	23.69
493.922	23.51
494.274	23.6
494.625	23.76
494.977	24.01
495.328	24.14
495.68	24.29
496.031	24.47
496.383	24.64
496.734	24.67
497.086	24.75
497.437	24.81
497.788	24.84
498.139	24.74
498.49	24.7
498.842	24.77
499.193	24.87
499.544	24.68
499.894	24.79
500.245	24.9
500.596	24.85
500.947	24.94
501.298	24.91
501.648	25.18
501.999	25.19
502.35	25.29
502.7	25.27
503.051	25.2
503.401	25.2
503.752	25.36
504.102	25.47
504.452	25.3
504.803	25.6
505.153	25.32
505.503	25.5
505.853	25.52
506.203	25.5
506.553	25.42
506.903	25.41
507.253	25.49
507.603	25.62
507.953	25.57
508.303	25.69
508.652	25.73
509.002	25.8
509.352	25.73
509.701	25.69
510.051	25.87
510.4	25.73
510.75	25.6
511.099	25.65
511.449	25.69
511.798	25.74
512.147	25.75
512.496	25.85
512.846	26
513.195	25.76
513.544	25.89
513.893	26.03
514.242	25.92
514.591	26.08
514.939	26.08
515.288	26.32
515.637	26.16
515.986	26.41
516.334	26.39
516.683	26.38
517.032	26.72
517.38	26.5
517.729	26.63
518.077	26.59
518.426	26.57
518.774	26.6
519.122	26.43
519.47	26.44
519.819	26.34
520.167	26.31
520.515	26.26
520.863	26.28
521.211	26.39
521.559	26.25
521.907	26.37
522.255	26.56
522.602	26.5
522.95	26.75
523.298	26.86
523.645	27.05
523.993	26.94
524.341	27.23
524.688	27.07
525.036	27.19
525.383	27.2
525.73	27.13
526.078	27.2
526.425	26.99
526.772	26.96
527.119	26.97
527.466	26.92
527.814	26.79
528.161	26.85
528.508	26.81
528.854	27.04
529.201	26.88
529.548	26.85
529.895	26.75
530.242	26.8
530.588	26.71
530.935	26.58
531.282	26.51
531.628	26.59
531.975	26.85
532.321	26.93
532.667	27.05
533.014	27.18
533.36	27.35
533.706	27.29
534.052	27.38
534.399	27.38
534.745	27.34
535.091	27.23
535.437	27.22
535.783	27.1
536.129	27.26
536.474	27.22
536.82	27.48
537.166	27.6
537.512	27.88
537.857	27.75
538.203	27.79
538.549	27.7
538.894	27.6
539.239	27.7
539.585	27.84
539.93	27.82
540.276	28.25
540.621	28.15
540.966	28.38
541.311	28.28
541.656	28.45
542.001	28.28
542.346	28.21
542.691	28.08
543.036	27.81
543.381	27.72
543.726	27.75
544.071	27.74
544.415	27.8
544.76	27.97
545.105	28.2
545.449	28.33
545.794	28.26
546.138	28.19
546.483	28.54
546.827	28.5
547.171	28.7
547.516	28.6
547.86	28.73
548.204	28.7
548.548	28.8
548.892	28.72
549.236	28.8
549.58	28.76
549.924	28.9
550.268	29.18
550.612	29.35
550.956	29.19
551.3	29.25
551.643	29.45
551.987	29.62
552.33	29.47
552.674	29.39
553.017	29.64
553.361	29.54
553.704	29.84
554.048	29.52
554.391	29.68
554.734	29.7
555.077	29.6
555.42	29.77
555.764	29.55
556.107	29.86
556.45	29.77
556.793	30.02
557.135	29.89
557.478	29.89
557.821	29.91
558.164	30.02
558.507	29.9
558.849	30.05
559.192	30.06
559.534	30.37
559.877	29.94
560.219	30.16
560.562	30.43
560.904	30.44
561.246	30.38
561.589	30.36
561.931	30.35
562.273	30.6
562.615	30.43
562.957	30.31
563.299	30.22
563.641	30.34
563.983	30.68
564.325	30.39
564.667	30.38
565.008	30.57
565.35	30.58
565.692	30.48
566.033	30.43
566.375	30.85
566.716	30.68
567.058	30.8
567.399	30.95
567.741	30.5
568.082	30.7
568.423	30.54
568.764	30.67
569.105	30.36
569.447	30.89
569.788	30.62
570.129	30.71
570.47	31.05
570.811	31.06
571.151	31.19
571.492	31.11
571.833	31.03
572.174	31.08
572.514	31.09
572.855	31.11
573.195	31
573.536	31.28
573.876	31.18
574.217	31.07
574.557	31.03
574.898	31.14
575.238	31.27
575.578	31.23
575.918	31.32
576.258	31.3
576.598	31.3
576.938	31.39
577.278	31.35
577.618	31.47
577.958	31.5
578.298	31.43
578.638	31.43
578.977	31.5
579.317	31.72
579.657	31.64
579.996	31.98
580.336	31.93
580.675	31.55
581.014	31.99
581.354	31.94
581.693	31.99
582.032	32.01
582.372	32.04
582.711	32.5
583.05	32.36
583.389	32.33
583.728	32.23
584.067	32.52
584.406	32.51
584.745	32.31
585.083	32.51
585.422	32.36
585.761	32.37
586.1	32.21
586.438	32.6
586.777	32.29
587.115	32.73
587.454	32.54
587.792	32.6
588.13	32.71
588.469	32.62
588.807	32.6
589.145	32.75
589.483	32.83
589.821	32.84
590.159	32.81
590.497	32.8
590.835	32.79
591.173	32.72
591.511	32.46
591.849	32.81
592.187	32.96
592.524	32.65
592.862	32.86
593.2	32.89
593.537	32.82
593.875	32.82
594.212	33.21
594.55	32.95
594.887	33.07
595.224	32.95
595.561	33.3
595.899	33.25
596.236	33.11
596.573	33.22
596.91	33.14
597.247	33.15
597.584	33.55
597.921	33.12
598.258	33.15
598.594	33.05
598.931	33.08
599.268	33.28
599.604	33.16
599.941	33.07
600.277	32.9
600.614	33.26
600.95	33.3
601.287	33.51
601.623	33.65
601.959	33.74
602.296	33.81
602.632	33.65
602.968	33.52
603.304	33.64
603.64	33.68
603.976	34.23
604.312	33.41
604.648	33.9
604.984	33.7
605.319	33.84
605.655	33.86
605.991	33.61
606.326	33.68
606.662	33.47
606.998	33.52
607.333	33.54
607.668	33.44
608.004	33.78
608.339	33.92
608.674	33.56
609.01	34.07
609.345	34.21
609.68	33.7
610.015	34.15
610.35	34.42
610.685	34.52
611.02	33.8
611.355	34.27
611.689	33.97
612.024	34.19
612.359	34.15
612.694	34.05
613.028	34.22
613.363	34.17
613.697	34.17
614.032	34.63
614.366	34.57
614.7	34.46
615.035	34.58
615.369	34.59
615.703	34.65
616.037	34.57
616.371	34.33
616.705	34.69
617.039	34.66
617.373	34.45
617.707	34.58
618.041	34.59
618.375	34.87
618.709	34.92
619.042	34.85
619.376	35.13
619.71	34.85
620.043	34.9
620.377	34.69
620.71	34.88
621.043	35.36
621.377	34.94
621.71	34.84
622.043	34.68
622.376	35.34
622.709	35.07
623.043	35.29
623.376	35.18
623.709	34.62
624.041	35.23
624.374	35.32
624.707	35.2
625.04	35.38
625.373	35.55
625.705	35.08
626.038	35.83
626.37	35.15
626.703	34.84
627.035	35.4
627.368	35.64
627.7	35.31
628.032	35.39
628.365	35.5
628.697	35.46
629.029	35.53
629.361	35.43
629.693	35.44
630.025	35.63
630.357	35.51
630.689	35.32
631.021	35.38
631.353	35.65
631.684	35.64
632.016	35.75
632.348	35.99
632.679	35.59
633.011	35.56
633.342	35.72
633.674	36.04
634.005	36.24
634.336	35.63
634.668	35.66
634.999	36.03
635.33	36.09
635.661	35.69
635.992	36.02
636.323	35.63
636.654	36.28
636.985	35.84
637.316	35.97
637.647	36.13
637.977	36.02
638.308	36.13
638.639	36.21
638.969	36.29
639.3	36.14
639.63	36.12
639.961	36.52
640.291	36.26
640.622	36.61
640.952	36.33
641.282	36.34
641.612	36.32
641.943	35.87
642.273	36.07
642.603	36.56
642.933	36.49
643.263	35.96
643.592	36.38
643.922	36.63
644.252	36.46
644.582	36.46
644.911	37
645.241	36.76
645.571	36.57
645.9	36.58
646.23	37
646.559	36.4
646.888	36.29
647.218	37.08
647.547	37.06
647.876	37.49
648.205	37.17
648.534	37.02
648.863	36.96
649.192	37.03
649.521	36.91
649.85	37.02
650.179	36.42
650.508	36.56
650.837	37.11
651.165	37.21
651.494	37.03
651.822	37.01
652.151	36.92
652.479	37.12
652.808	37.53
653.136	36.89
653.465	37.12
653.793	37.22
654.121	37.15
654.449	37.19
654.777	37.07
655.105	37.35
655.433	37.06
655.761	37.64
656.089	37.33
656.417	37.17
656.745	37.52
657.073	37.33
657.4	37.73
657.728	37.25
658.056	37.24
658.383	37.44
658.711	37.3
659.038	37.84
659.365	37.7
659.693	37.45
660.02	37.54
660.347	37.57
660.674	37.66
661.001	37.45
661.329	37.5
661.656	37.42
661.982	37.55
662.309	37.36
662.636	37.86
662.963	37.63
663.29	37.77
663.616	37.67
663.943	37.83
664.27	37.58
664.596	37.58
664.923	37.74
665.249	38.5
665.576	38.35
665.902	38.04
666.228	38
666.554	37.96
666.881	38.26
667.207	38.25
667.533	37.68
667.859	38.36
668.185	37.86
668.511	37.97
668.837	38.01
669.162	38.08
669.488	37.93
669.814	38.35
670.139	38.52
670.465	38.19
670.791	38.08
