Data from 815652_chest_Reflection__3__43.txt Node

Date: Fri Sep 16 14:47:23 CDT 2022
User: ToomeyLab
Spectrometer: FLMS14357
Trigger mode: 0
Integration Time (sec): 1.000000E-2
Scans to average: 100
Electric dark correction enabled: true
Nonlinearity correction enabled: false
Boxcar width: 0
XAxis mode: Wavelengths
Number of Pixels in Spectrum: 2048
>>>>>Begin Spectral Data<<<<<
189.047	-190.04
189.435	-190.04
189.823	-190.04
190.211	-349.04
190.599	-170.38
190.987	88.71
191.375	96.9
191.763	-4.13
192.151	-104.3
192.538	-80.9
192.926	16.12
193.314	-141.48
193.702	259.43
194.089	67.1
194.477	32.76
194.864	5
195.252	1211
195.639	42.99
196.027	226.69
196.414	445.61
196.801	61.3
197.189	52.32
197.576	152.79
197.963	361.14
198.351	-52.72
198.738	40.38
199.125	48.79
199.512	-94.42
199.899	8.33
200.286	-8.03
200.673	21.96
201.06	29.91
201.447	39.25
201.833	48.22
202.22	37.34
202.607	-5.5
202.994	4.88
203.38	27.65
203.767	-3.25
204.154	39.61
204.54	-12.88
204.927	-77.61
205.313	25.06
205.699	23.74
206.086	6.4
206.472	-9.37
206.858	28.06
207.245	27.7
207.631	31.87
208.017	24.15
208.403	5.29
208.789	10
209.175	26.99
209.561	30.71
209.947	-2.25
210.333	15.57
210.719	11.48
211.105	-3.26
211.491	13.29
211.876	13.16
212.262	18.38
212.648	0.09
213.034	37.28
213.419	18.02
213.805	1.21
214.19	9.73
214.576	-6.94
214.961	12.34
215.346	-5.93
215.732	-66.64
216.117	22.42
216.502	7.65
216.888	-52.58
217.273	15.08
217.658	6.92
218.043	-60.57
218.428	1.92
218.813	14.18
219.198	10.82
219.583	18.07
219.968	8.57
220.353	-3.81
220.738	-2.6
221.122	-18.3
221.507	26.3
221.892	7.48
222.276	13.09
222.661	17.29
223.046	2.15
223.43	11.01
223.815	7.53
224.199	5.93
224.583	6.51
224.968	9.38
225.352	6.28
225.736	10.68
226.121	12.05
226.505	5.96
226.889	7.45
227.273	3.41
227.657	7.32
228.041	6.11
228.425	0.08
228.809	9.15
229.193	4.62
229.577	3.44
229.961	5.84
230.344	4.71
230.728	5.04
231.112	5.16
231.495	5.33
231.879	6.77
232.263	4.85
232.646	3.16
233.03	3.79
233.413	5.85
233.797	2.77
234.18	6.41
234.563	3.44
234.946	4.06
235.33	5.54
235.713	4.08
236.096	4.29
236.479	5.09
236.862	5.31
237.245	3.81
237.628	7.46
238.011	4.35
238.394	4.62
238.777	6.55
239.16	5.33
239.543	6.41
239.925	4.87
240.308	2.32
240.691	3.67
241.073	3.75
241.456	4.23
241.838	4.25
242.221	4.04
242.603	4.14
242.986	3.93
243.368	4.15
243.75	4.14
244.133	4.66
244.515	4.32
244.897	5.17
245.279	3.9
245.661	4.25
246.043	4.11
246.425	4.2
246.807	4.58
247.189	4.74
247.571	4.1
247.953	4.57
248.335	4.41
248.717	4.42
249.098	4.35
249.48	4.15
249.862	4.57
250.243	4.54
250.625	4.77
251.006	4.65
251.388	4.72
251.769	4.54
252.151	4.25
252.532	4.29
252.913	4.06
253.295	4.42
253.676	4.68
254.057	4.05
254.438	3.55
254.819	3.37
255.2	3.87
255.581	5.1
255.962	4.66
256.343	5.64
256.724	4.24
257.105	2.95
257.486	3.8
257.867	4.06
258.247	5.19
258.628	4.76
259.009	4.37
259.389	4.56
259.77	4.43
260.15	4.3
260.531	3.93
260.911	4.3
261.292	4.03
261.672	4.1
262.052	3.72
262.432	3.98
262.813	4.3
263.193	3.68
263.573	4.03
263.953	3.52
264.333	4.21
264.713	3.51
265.093	3.59
265.473	4.21
265.853	5.03
266.233	3.95
266.612	4.77
266.992	3.85
267.372	4.1
267.752	3.36
268.131	3.84
268.511	4.86
268.89	4.32
269.27	3.56
269.649	4.12
270.029	3.76
270.408	3.72
270.787	4.47
271.167	3.68
271.546	3.75
271.925	4.18
272.304	3.85
272.683	3.4
273.062	3.77
273.441	4.02
273.82	3.72
274.199	3.96
274.578	3.74
274.957	4.23
275.336	3.98
275.715	4.26
276.093	3.86
276.472	3.52
276.851	3.86
277.229	3.92
277.608	3.92
277.986	4.33
278.365	3.18
278.743	4.58
279.122	4.02
279.5	3.73
279.878	3.77
280.257	4.25
280.635	3.95
281.013	3.89
281.391	3.43
281.769	3.62
282.147	3.81
282.525	3.18
282.903	4.2
283.281	3.76
283.659	4
284.037	3.77
284.415	4.06
284.792	4.23
285.17	3.91
285.548	3.45
285.925	3.5
286.303	4.05
286.68	3.43
287.058	3.84
287.435	3.77
287.813	4.2
288.19	3.82
288.567	3.93
288.945	4.06
289.322	3.95
289.699	4.2
290.076	3.53
290.453	4.13
290.83	4.05
291.207	3.49
291.584	3.56
291.961	4.05
292.338	4.34
292.715	3.41
293.092	4.17
293.469	4.17
293.845	4.1
294.222	4.04
294.599	3.68
294.975	3.52
295.352	4.03
295.728	3.92
296.105	4.26
296.481	3.55
296.858	3.77
297.234	4.21
297.61	4.25
297.986	4.17
298.363	3.94
298.739	3.72
299.115	4.01
299.491	4.1
299.867	4.12
300.243	3.86
300.619	4.09
300.995	3.97
301.371	4.19
301.746	3.86
302.122	4.64
302.498	4.1
302.874	4.04
303.249	4.47
303.625	3.99
304	3.7
304.376	3.69
304.751	3.78
305.127	3.72
305.502	3.97
305.878	4.3
306.253	4.43
306.628	3.63
307.003	3.8
307.378	4.15
307.754	4.47
308.129	4.5
308.504	4.54
308.879	4.39
309.254	3.96
309.629	4.01
310.003	4.12
310.378	3.73
310.753	4.08
311.128	4.23
311.502	3.9
311.877	4.1
312.252	4.53
312.626	3.95
313.001	4.19
313.375	4.41
313.75	3.98
314.124	3.81
314.498	4.29
314.873	4.76
315.247	3.98
315.621	4.24
315.995	3.59
316.369	3.96
316.743	4.43
317.117	4.44
317.491	4.04
317.865	4.2
318.239	4.65
318.613	4.24
318.987	4.12
319.361	3.82
319.734	4.39
320.108	4.29
320.482	4.56
320.855	4.48
321.229	4.12
321.602	4.29
321.976	3.87
322.349	4.43
322.723	4.08
323.096	4.41
323.469	4.55
323.843	4.65
324.216	4.67
324.589	4.72
324.962	4.07
325.335	4.8
325.708	4.65
326.081	4.57
326.454	4.51
326.827	4.12
327.2	3.86
327.573	3.91
327.945	4.42
328.318	4.02
328.691	3.8
329.063	3.5
329.436	3.87
329.809	3.45
330.181	4.59
330.553	4.74
330.926	4.34
331.298	4.45
331.671	4.01
332.043	3.97
332.415	4.34
332.787	4.23
333.159	4.27
333.532	4.62
333.904	4.11
334.276	4.34
334.648	3.94
335.02	4.4
335.391	4.12
335.763	3.83
336.135	3.71
336.507	4.44
336.879	4.25
337.25	3.78
337.622	4.14
337.993	4.43
338.365	4.27
338.736	4.79
339.108	4.46
339.479	4.13
339.851	4.2
340.222	4.51
340.593	4.24
340.964	4.17
341.336	4.27
341.707	4.18
342.078	4.6
342.449	4.67
342.82	4.6
343.191	3.89
343.562	4.46
343.933	4.54
344.303	4.54
344.674	3.71
345.045	4.59
345.416	4.64
345.786	4.49
346.157	4.62
346.527	4.58
346.898	4.19
347.268	4.55
347.639	4.06
348.009	4.27
348.38	4.75
348.75	3.77
349.12	4.39
349.49	4.58
349.861	4.25
350.231	4.46
350.601	4.5
350.971	4.29
351.341	4.46
351.711	4.49
352.081	4.12
352.45	4.48
352.82	4.35
353.19	4.28
353.56	4.26
353.929	4.59
354.299	4.5
354.669	4.36
355.038	4.22
355.408	4.41
355.777	4.3
356.147	4.45
356.516	4.59
356.885	4.32
357.254	4.58
357.624	4.27
357.993	4.52
358.362	4.25
358.731	4.55
359.1	4.48
359.469	4.42
359.838	4.4
360.207	4.96
360.576	4.55
360.945	4.4
361.314	4.15
361.682	4.28
362.051	4.51
362.42	4.72
362.788	4.62
363.157	4.39
363.525	4.17
363.894	4.52
364.262	4.38
364.631	4.27
364.999	4.38
365.367	4.33
365.735	4.41
366.104	4.51
366.472	4.71
366.84	4.47
367.208	4.92
367.576	4.27
367.944	4.14
368.312	4.18
368.68	4.52
369.048	4.43
369.416	4.3
369.783	4.37
370.151	4.55
370.519	4.52
370.886	4.56
371.254	4.21
371.621	4.45
371.989	4.67
372.356	4.7
372.724	4.52
373.091	4.45
373.458	4.53
373.826	4.45
374.193	4.98
374.56	4.06
374.927	4.56
375.294	4.5
375.661	4.16
376.028	4.67
376.395	4.23
376.762	5.09
377.129	4.36
377.496	4.67
377.863	4.52
378.229	4.98
378.596	4.34
378.963	4.43
379.329	4.56
379.696	4.83
380.062	4.41
380.429	4.39
380.795	4.6
381.161	4.71
381.528	4.71
381.894	4.8
382.26	4.62
382.626	4.34
382.993	4.26
383.359	4.42
383.725	4.5
384.091	4.75
384.457	4.26
384.823	4.42
385.188	4.4
385.554	4.43
385.92	4.53
386.286	4.81
386.651	4.49
387.017	4.71
387.383	4.32
387.748	4.19
388.114	4.32
388.479	4.79
388.845	4.56
389.21	4.8
389.575	4.59
389.94	4.79
390.306	4.33
390.671	4.61
391.036	4.62
391.401	4.75
391.766	4.84
392.131	4.76
392.496	4.51
392.861	4.6
393.226	4.57
393.591	4.66
393.956	4.66
394.32	4.97
394.685	4.4
395.05	4.82
395.414	4.56
395.779	4.64
396.143	4.84
396.508	4.43
396.872	4.75
397.236	4.74
397.601	4.65
397.965	4.58
398.329	4.58
398.694	4.73
399.058	4.66
399.422	4.62
399.786	4.74
400.15	4.89
400.514	4.59
400.878	4.83
401.242	4.71
401.605	4.51
401.969	4.63
402.333	4.86
402.697	4.66
403.06	4.76
403.424	4.67
403.787	4.56
404.151	4.64
404.514	4.76
404.878	4.52
405.241	4.52
405.604	4.88
405.968	4.8
406.331	4.6
406.694	4.58
407.057	4.6
407.42	4.66
407.783	4.8
408.146	4.93
408.509	4.89
408.872	4.88
409.235	4.95
409.598	4.67
409.961	4.73
410.323	4.94
410.686	4.91
411.049	4.63
411.411	4.67
411.774	4.85
412.136	4.7
412.499	4.81
412.861	4.7
413.223	4.77
413.586	5.01
413.948	4.69
414.31	4.95
414.672	4.82
415.035	5.01
415.397	4.69
415.759	4.76
416.121	4.88
416.483	4.98
416.845	4.93
417.206	4.97
417.568	4.97
417.93	4.78
418.292	4.77
418.653	4.86
419.015	4.73
419.377	4.86
419.738	4.79
420.1	4.9
420.461	4.89
420.822	4.72
421.184	4.75
421.545	4.81
421.906	4.73
422.267	4.84
422.629	4.67
422.99	4.69
423.351	4.74
423.712	4.58
424.073	4.81
424.434	4.86
424.795	4.72
425.155	4.78
425.516	4.82
425.877	4.71
426.238	4.68
426.598	4.76
426.959	4.76
427.32	4.71
427.68	4.95
428.041	4.75
428.401	4.86
428.761	4.93
429.122	4.82
429.482	4.88
429.842	4.87
430.202	5.1
430.563	4.92
430.923	4.79
431.283	5.2
431.643	5.18
432.003	4.94
432.363	4.89
432.722	5.03
433.082	5.04
433.442	5.08
433.802	5.02
434.161	4.89
434.521	4.93
434.881	4.91
435.24	4.79
435.6	4.98
435.959	4.93
436.319	5.03
436.678	5
437.037	4.78
437.396	4.95
437.756	5.07
438.115	4.9
438.474	4.94
438.833	5.08
439.192	4.94
439.551	4.97
439.91	5
440.269	5.09
440.628	4.88
440.987	4.85
441.345	4.97
441.704	5.16
442.063	4.97
442.421	4.81
442.78	4.96
443.138	4.94
443.497	4.91
443.855	4.99
444.214	4.97
444.572	5.01
444.93	5.09
445.288	5.05
445.647	4.98
446.005	5.01
446.363	5.08
446.721	5.11
447.079	4.91
447.437	5.05
447.795	5.01
448.153	5.09
448.51	4.97
448.868	4.95
449.226	5.09
449.584	5.01
449.941	5.1
450.299	4.93
450.656	5.06
451.014	5.06
451.371	5.02
451.729	5.11
452.086	5.07
452.443	5.12
452.801	5.3
453.158	5.06
453.515	5.06
453.872	5.01
454.229	5.08
454.586	5.1
454.943	5.09
455.3	5.27
455.657	5.08
456.014	5.13
456.371	5.18
456.727	5.2
457.084	5.25
457.441	5.14
457.797	5.15
458.154	5.17
458.51	5.2
458.867	5.03
459.223	5.13
459.58	5.24
459.936	5.3
460.292	5.25
460.648	5.23
461.005	5.19
461.361	5.07
461.717	5.17
462.073	5.12
462.429	5.2
462.785	5.26
463.141	5.19
463.496	5.11
463.852	5.34
464.208	5.25
464.564	5.28
464.919	5.24
465.275	5.37
465.631	5.39
465.986	5.11
466.342	5.36
466.697	5.36
467.052	5.16
467.408	5.36
467.763	5.37
468.118	5.29
468.473	5.4
468.829	5.32
469.184	5.29
469.539	5.46
469.894	5.48
470.249	5.54
470.603	5.45
470.958	5.34
471.313	5.46
471.668	5.3
472.023	5.38
472.377	5.4
472.732	5.4
473.086	5.33
473.441	5.31
473.795	5.47
474.15	5.34
474.504	5.43
474.859	5.38
475.213	5.49
475.567	5.12
475.921	5.4
476.275	5.36
476.63	5.54
476.984	5.43
477.338	5.55
477.692	5.48
478.045	5.41
478.399	5.46
478.753	5.51
479.107	5.36
479.461	5.4
479.814	5.46
480.168	5.41
480.521	5.41
480.875	5.45
481.228	5.31
481.582	5.47
481.935	5.36
482.289	5.53
482.642	5.5
482.995	5.44
483.348	5.45
483.701	5.56
484.055	5.4
484.408	5.45
484.761	5.37
485.114	5.32
485.466	5.3
485.819	5.25
486.172	5.22
486.525	5.22
486.878	5.25
487.23	5.3
487.583	5.42
487.936	5.39
488.288	5.44
488.641	5.41
488.993	5.41
489.345	5.34
489.698	5.27
490.05	5.41
490.402	5.34
490.754	5.42
491.107	5.39
491.459	5.51
491.811	5.42
492.163	5.48
492.515	5.5
492.866	5.48
493.218	5.47
493.57	5.45
493.922	5.44
494.274	5.41
494.625	5.45
494.977	5.45
495.328	5.55
495.68	5.62
496.031	5.65
496.383	5.69
496.734	5.73
497.086	5.71
497.437	5.82
497.788	5.79
498.139	5.78
498.49	5.8
498.842	5.72
499.193	5.75
499.544	5.77
499.894	5.73
500.245	5.73
500.596	5.79
500.947	5.75
501.298	5.86
501.648	5.8
501.999	5.88
502.35	5.86
502.7	5.84
503.051	5.89
503.401	5.86
503.752	5.91
504.102	5.98
504.452	5.93
504.803	5.98
505.153	5.94
505.503	5.99
505.853	5.89
506.203	5.96
506.553	5.9
506.903	5.85
507.253	5.88
507.603	5.99
507.953	5.89
508.303	6.02
508.652	5.87
509.002	5.92
509.352	6.01
509.701	6.05
510.051	6.01
510.4	5.87
510.75	5.91
511.099	6
511.449	5.84
511.798	6
512.147	6.03
512.496	6.03
512.846	6.02
513.195	5.96
513.544	6
513.893	6.12
514.242	6.08
514.591	6.1
514.939	6.11
515.288	6.18
515.637	6.19
515.986	6.09
516.334	6.1
516.683	6.23
517.032	6.24
517.38	6.3
517.729	6.35
518.077	6.27
518.426	6.29
518.774	6.3
519.122	6.27
519.47	6.21
519.819	6.21
520.167	6.21
520.515	6.18
520.863	6.15
521.211	6.23
521.559	6.28
521.907	6.23
522.255	6.17
522.602	6.23
522.95	6.39
523.298	6.4
523.645	6.48
523.993	6.36
524.341	6.48
524.688	6.48
525.036	6.51
525.383	6.55
525.73	6.47
526.078	6.49
526.425	6.46
526.772	6.49
527.119	6.39
527.466	6.44
527.814	6.42
528.161	6.45
528.508	6.46
528.854	6.52
529.201	6.39
529.548	6.45
529.895	6.44
530.242	6.44
530.588	6.39
530.935	6.41
531.282	6.34
531.628	6.37
531.975	6.48
532.321	6.47
532.667	6.57
533.014	6.63
533.36	6.69
533.706	6.75
534.052	6.67
534.399	6.69
534.745	6.6
535.091	6.62
535.437	6.64
535.783	6.6
536.129	6.67
536.474	6.59
536.82	6.65
537.166	6.75
537.512	6.9
537.857	6.88
538.203	6.83
538.549	6.88
538.894	6.76
539.239	6.87
539.585	6.85
539.93	6.72
540.276	7.01
540.621	7.05
540.966	7.01
541.311	7.02
541.656	7.1
542.001	7.1
542.346	7.11
542.691	7.08
543.036	6.98
543.381	6.95
543.726	6.91
544.071	6.96
544.415	7.03
544.76	6.99
545.105	7.13
545.449	7.2
545.794	7.16
546.138	7.25
546.483	7.3
546.827	7.31
547.171	7.38
547.516	7.24
547.86	7.34
548.204	7.37
548.548	7.36
548.892	7.34
549.236	7.35
549.58	7.42
549.924	7.51
550.268	7.56
550.612	7.58
550.956	7.44
551.3	7.48
551.643	7.65
551.987	7.68
552.33	7.58
552.674	7.77
553.017	7.75
553.361	7.77
553.704	7.76
554.048	7.83
554.391	7.78
554.734	7.8
555.077	7.77
555.42	7.85
555.764	7.83
556.107	8
556.45	7.78
556.793	8.2
557.135	7.78
557.478	7.78
557.821	7.86
558.164	8.08
558.507	7.98
558.849	7.79
559.192	7.96
559.534	8.09
559.877	8
560.219	8.11
560.562	8.27
560.904	8.13
561.246	8.04
561.589	8.31
561.931	8.23
562.273	8.29
562.615	8.24
562.957	8.37
563.299	8.44
563.641	8.41
563.983	8.44
564.325	8.28
564.667	8.21
565.008	8.43
565.35	8.55
565.692	8.47
566.033	8.63
566.375	8.46
566.716	8.62
567.058	8.63
567.399	8.74
567.741	8.42
568.082	8.67
568.423	8.52
568.764	8.71
569.105	8.63
569.447	8.76
569.788	8.76
570.129	8.89
570.47	8.92
570.811	8.89
571.151	8.83
571.492	8.95
571.833	8.9
572.174	9.07
572.514	9.07
572.855	9.04
573.195	9.06
573.536	9.12
573.876	9.03
574.217	9.14
574.557	9.07
574.898	9.12
575.238	9.1
575.578	9.25
575.918	9.4
576.258	9.27
576.598	9.34
576.938	9.32
577.278	9.34
577.618	9.41
577.958	9.42
578.298	9.36
578.638	9.32
578.977	9.33
579.317	9.38
579.657	9.38
579.996	9.61
580.336	9.64
580.675	9.64
581.014	9.83
581.354	9.9
581.693	9.63
582.032	9.76
582.372	9.92
582.711	10.12
583.05	9.86
583.389	9.97
583.728	9.87
584.067	9.92
584.406	10.17
584.745	10.14
585.083	10.13
585.422	10.07
585.761	10.22
586.1	9.94
586.438	10.36
586.777	10.09
587.115	10.25
587.454	10.27
587.792	10.39
588.13	10.46
588.469	10.3
588.807	10.19
589.145	10.32
589.483	10.37
589.821	10.46
590.159	10.5
590.497	10.55
590.835	10.53
591.173	10.66
591.511	10.59
591.849	10.66
592.187	10.6
592.524	10.26
592.862	10.78
593.2	10.52
593.537	10.77
593.875	10.91
594.212	11.01
594.55	10.67
594.887	11.06
595.224	10.73
595.561	10.73
595.899	11.04
596.236	11.08
596.573	10.9
596.91	11.07
597.247	11.11
597.584	11.2
597.921	11.08
598.258	11.2
598.594	11.06
598.931	11.13
599.268	11.21
599.604	11.11
599.941	11.23
600.277	11.31
600.614	11.43
600.95	11.38
601.287	11.24
601.623	11.64
601.959	11.85
602.296	11.49
602.632	11.7
602.968	11.54
603.304	11.64
603.64	11.84
603.976	11.77
604.312	11.84
604.648	11.92
604.984	11.98
605.319	11.94
605.655	12.12
605.991	11.95
606.326	11.66
606.662	11.76
606.998	12.07
607.333	12.05
607.668	12.18
608.004	11.92
608.339	11.98
608.674	12.16
609.01	12.22
609.345	12.59
609.68	12.25
610.015	12.05
610.35	12.25
610.685	12.65
611.02	12.36
611.355	12.5
611.689	12.52
612.024	12.38
612.359	12.41
612.694	12.24
613.028	12.52
613.363	12.68
613.697	12.52
614.032	12.55
614.366	12.36
614.7	12.6
615.035	12.63
615.369	12.65
615.703	13.11
616.037	12.73
616.371	12.93
616.705	12.99
617.039	13.02
617.373	12.92
617.707	13.06
618.041	13.12
618.375	12.99
618.709	13.07
619.042	13.14
619.376	12.96
619.71	13.2
620.043	13.26
620.377	13.5
620.71	13.31
621.043	13.63
621.377	13.72
621.71	13.43
622.043	13.07
622.376	13.35
622.709	13.19
623.043	13.52
623.376	13.11
623.709	13.22
624.041	14.15
624.374	13.89
624.707	13.74
625.04	14
625.373	13.76
625.705	13.89
626.038	14.16
626.37	13.93
626.703	13.64
627.035	13.85
627.368	14.36
627.7	14.23
628.032	13.91
628.365	13.95
628.697	14.22
629.029	14.1
629.361	13.8
629.693	14.31
630.025	14.24
630.357	14.28
630.689	14.41
631.021	14.19
631.353	14.5
631.684	14.52
632.016	14.36
632.348	14.56
632.679	14.4
633.011	14.45
633.342	14.48
633.674	14.95
634.005	14.77
634.336	14.33
634.668	14.56
634.999	14.84
635.33	14.83
635.661	14.95
635.992	14.95
636.323	14.78
636.654	15.08
636.985	15.2
637.316	14.93
637.647	15.04
637.977	15.11
638.308	14.95
638.639	15.22
638.969	15.11
639.3	15.12
639.63	14.7
639.961	15.48
640.291	15.56
640.622	15.26
640.952	15.55
641.282	15.51
641.612	15.46
641.943	15.36
642.273	15.34
642.603	15.8
642.933	15.45
643.263	15.54
643.592	15.14
643.922	15.27
644.252	15.94
644.582	15.56
644.911	16
645.241	15.55
645.571	16.05
645.9	16.23
646.23	15.49
646.559	15.99
646.888	16.05
647.218	16.35
647.547	15.99
647.876	16.43
648.205	16.52
648.534	16.07
648.863	16.11
649.192	16.52
649.521	16.53
649.85	16.22
650.179	16.08
650.508	16.5
650.837	16.32
651.165	16.17
651.494	16.86
651.822	16.35
652.151	16.27
652.479	16.67
652.808	16.89
653.136	16.48
653.465	16.47
653.793	16.54
654.121	16.71
654.449	16.59
654.777	16.44
655.105	17.07
655.433	16.47
655.761	17.26
656.089	16.61
656.417	16.84
656.745	16.56
657.073	16.86
657.4	16.7
657.728	17.25
658.056	16.62
658.383	17.1
658.711	17.17
659.038	17.1
659.365	17.44
659.693	16.88
660.02	17.27
660.347	17.67
660.674	17.73
661.001	17.49
661.329	17.53
661.656	17.52
661.982	17.52
662.309	17.74
662.636	17.42
662.963	17.59
663.29	17.49
663.616	17.67
663.943	17.71
664.27	17.47
664.596	17.7
664.923	17.39
665.249	17.99
665.576	17.62
665.902	17.54
666.228	17.3
666.554	17.95
666.881	18.31
667.207	18.11
667.533	17.95
667.859	17.68
668.185	18.2
668.511	17.93
668.837	18.15
669.162	18.49
669.488	18.31
669.814	18.53
670.139	17.87
670.465	18.12
670.791	18.38
671.116	18.25
671.442	18.87
671.767	18.26
672.092	18.64
672.418	18.45
672.743	18.76
673.068	19.07
673.393	18.18
673.718	19.24
674.043	18.71
674.368	19.1
674.693	19.11
675.018	19.17
675.343	18.94
675.667	18.67
675.992	18.9
676.317	18.63
676.641	18.7
676.966	18.97
677.29	18.51
677.615	19.47
677.939	18.83
678.264	19
678.588	18.92
678.912	18.66
679.236	19.47
679.56	19.25
679.885	19.52
680.209	19.08
680.532	19.38
680.856	19.32
681.18	19.52
681.504	19.06
681.828	19.28
682.152	19.18
682.475	19.85
682.799	19.59
683.122	19.53
683.446	19.68
683.769	19.62
684.093	19.86
684.416	19.84
684.739	19.76
685.062	20.44
685.386	20.21
685.709	19.54
686.032	20.77
