Data from 815652_crown_Reflection__4__54.txt Node

Date: Fri Sep 16 14:52:37 CDT 2022
User: ToomeyLab
Spectrometer: FLMS14357
Trigger mode: 0
Integration Time (sec): 1.000000E-2
Scans to average: 100
Electric dark correction enabled: true
Nonlinearity correction enabled: false
Boxcar width: 0
XAxis mode: Wavelengths
Number of Pixels in Spectrum: 2048
>>>>>Begin Spectral Data<<<<<
189.047	-420.66
189.435	-420.66
189.823	-420.66
190.211	-216.75
190.599	54.34
190.987	76.2
191.375	23.48
191.763	57
192.151	-129.63
192.538	-83.17
192.926	21.91
193.314	-38.57
193.702	63.77
194.089	47.68
194.477	28.2
194.864	10.88
195.252	2673.68
195.639	219.25
196.027	132.32
196.414	647.2
196.801	121.22
197.189	89.11
197.576	9.32
197.963	200.19
198.351	-26.97
198.738	51.2
199.125	57.9
199.512	-56.69
199.899	4.93
200.286	-1.29
200.673	-4.45
201.06	41.71
201.447	4.84
201.833	-24.36
202.22	3.23
202.607	-52.58
202.994	31.9
203.38	3.96
203.767	19.57
204.154	7.79
204.54	-46.06
204.927	-50.95
205.313	4.41
205.699	58.78
206.086	20.52
206.472	1.45
206.858	-20.48
207.245	41.04
207.631	-14.86
208.017	13.08
208.403	-7.15
208.789	1.91
209.175	41.69
209.561	17.14
209.947	-1.84
210.333	26.91
210.719	17.34
211.105	9
211.491	-20.28
211.876	20.46
212.262	6.07
212.648	20.67
213.034	13.16
213.419	-2.65
213.805	25.44
214.19	12.65
214.576	-14.84
214.961	-18.82
215.346	4.97
215.732	-65.25
216.117	17.46
216.502	-1.9
216.888	-35.85
217.273	9.88
217.658	-3.2
218.043	-34.43
218.428	10.34
218.813	-1.93
219.198	5.72
219.583	-4.52
219.968	-5.42
220.353	-14.16
220.738	4.87
221.122	-21.21
221.507	27.43
221.892	2.34
222.276	7.71
222.661	12.69
223.046	10.48
223.43	9.46
223.815	-11.05
224.199	10.81
224.583	-0.38
224.968	10.81
225.352	7.05
225.736	12.61
226.121	4.87
226.505	9.29
226.889	3.7
227.273	7.39
227.657	7.29
228.041	1.03
228.425	-5.61
228.809	4.29
229.193	2.5
229.577	3.19
229.961	3.05
230.344	4.73
230.728	4.94
231.112	4.02
231.495	4.14
231.879	5.38
232.263	3.86
232.646	4.83
233.03	3.8
233.413	4.81
233.797	2.09
234.18	5.43
234.563	3.65
234.946	2.94
235.33	4.73
235.713	3.5
236.096	2.97
236.479	4.02
236.862	3.53
237.245	4.74
237.628	5.14
238.011	4.42
238.394	5.24
238.777	4.54
239.16	3.92
239.543	5
239.925	4.3
240.308	2.72
240.691	3.76
241.073	3.38
241.456	4.7
241.838	2.83
242.221	4.13
242.603	3.67
242.986	4
243.368	3.82
243.75	3.58
244.133	4.6
244.515	4.02
244.897	4.39
245.279	4.37
245.661	4.34
246.043	3.69
246.425	3.65
246.807	3.47
247.189	3.74
247.571	3.44
247.953	3.73
248.335	3.99
248.717	3.83
249.098	3.99
249.48	3.86
249.862	3.86
250.243	4.18
250.625	4.05
251.006	4.49
251.388	4.26
251.769	3.33
252.151	3.58
252.532	3.55
252.913	3.86
253.295	3.67
253.676	4.1
254.057	3.49
254.438	3.34
254.819	2.34
255.2	3.84
255.581	3.8
255.962	3.75
256.343	4.57
256.724	2.6
257.105	4.06
257.486	2.9
257.867	2.99
258.247	3.84
258.628	4.49
259.009	3.71
259.389	3.29
259.77	2.96
260.15	4.19
260.531	3.24
260.911	3.72
261.292	3.33
261.672	3.77
262.052	3.61
262.432	3.77
262.813	4.33
263.193	3.65
263.573	3.85
263.953	4.13
264.333	4.03
264.713	2.69
265.093	3.21
265.473	3.09
265.853	4.22
266.233	2.97
266.612	4.31
266.992	2.68
267.372	3.25
267.752	3.27
268.131	3.89
268.511	3.67
268.89	3.86
269.27	3.44
269.649	3.25
270.029	3.6
270.408	3.82
270.787	3.29
271.167	4.04
271.546	4.17
271.925	3.66
272.304	3.65
272.683	2.96
273.062	3.1
273.441	3.43
273.82	3.54
274.199	2.89
274.578	3.73
274.957	3.75
275.336	3.42
275.715	3.8
276.093	2.94
276.472	3.13
276.851	3.02
277.229	3.13
277.608	3.69
277.986	3.95
278.365	2.96
278.743	3.45
279.122	3.18
279.5	3
279.878	3.49
280.257	3.57
280.635	3.36
281.013	3.49
281.391	3.78
281.769	3.69
282.147	3.44
282.525	3.09
282.903	3.37
283.281	3.21
283.659	3.91
284.037	3.57
284.415	3.7
284.792	3.88
285.17	3.28
285.548	3.09
285.925	3.57
286.303	3.32
286.68	3.22
287.058	3.17
287.435	3.13
287.813	3.69
288.19	3.01
288.567	3.14
288.945	3.21
289.322	3.55
289.699	3.46
290.076	3.08
290.453	3.46
290.83	3.73
291.207	3.1
291.584	3.11
291.961	3.53
292.338	3.27
292.715	3.14
293.092	3.04
293.469	3.06
293.845	3.24
294.222	3.07
294.599	3.48
294.975	2.96
295.352	3.05
295.728	2.5
296.105	2.99
296.481	2.72
296.858	3.03
297.234	3
297.61	3.53
297.986	3.14
298.363	2.8
298.739	2.74
299.115	3.36
299.491	3.49
299.867	3.13
300.243	3.08
300.619	3.41
300.995	2.69
301.371	3.43
301.746	2.85
302.122	3.38
302.498	3.06
302.874	2.95
303.249	3.44
303.625	3.12
304	3.04
304.376	2.24
304.751	3.45
305.127	2.8
305.502	3.24
305.878	2.91
306.253	3.19
306.628	2.64
307.003	3.16
307.378	3.37
307.754	3.11
308.129	3.6
308.504	2.95
308.879	3.18
309.254	2.98
309.629	2.83
310.003	3.3
310.378	2.56
310.753	3.06
311.128	2.95
311.502	2.61
311.877	2.6
312.252	3.18
312.626	2.69
313.001	2.92
313.375	3.06
313.75	3.09
314.124	2.85
314.498	2.72
314.873	3.41
315.247	2.76
315.621	2.49
315.995	2.83
316.369	3.02
316.743	3.1
317.117	2.68
317.491	2.79
317.865	3.34
318.239	3.27
318.613	2.42
318.987	2.71
319.361	2.62
319.734	3.28
320.108	2.33
320.482	3.04
320.855	2.92
321.229	2.36
321.602	3.69
321.976	3.18
322.349	2.52
322.723	2.81
323.096	2.36
323.469	2.68
323.843	2.74
324.216	3.51
324.589	2.78
324.962	2.77
325.335	3.3
325.708	2.77
326.081	2.84
326.454	2.86
326.827	2.67
327.2	2.62
327.573	2.64
327.945	2.65
328.318	2.74
328.691	2.49
329.063	2.73
329.436	2.56
329.809	2.43
330.181	2.59
330.553	3.07
330.926	2.78
331.298	2.97
331.671	2.41
332.043	2.39
332.415	2.85
332.787	2.95
333.159	2.8
333.532	3.17
333.904	3
334.276	2.93
334.648	2.88
335.02	2.9
335.391	3.18
335.763	2.45
336.135	2.05
336.507	3.18
336.879	3.19
337.25	1.94
337.622	3.03
337.993	3.06
338.365	2.58
338.736	3.3
339.108	2.58
339.479	3.02
339.851	2.55
340.222	2.22
340.593	2.7
340.964	2.67
341.336	2.79
341.707	2.37
342.078	3.01
342.449	2.87
342.82	2.81
343.191	2.6
343.562	2.68
343.933	3.25
344.303	3.37
344.674	2.29
345.045	2.98
345.416	2.48
345.786	2.37
346.157	2.88
346.527	2.85
346.898	2.83
347.268	2.62
347.639	2.75
348.009	2.83
348.38	2.89
348.75	2.6
349.12	2.7
349.49	2.79
349.861	2.8
350.231	2.6
350.601	2.43
350.971	2.92
351.341	3.15
351.711	2.62
352.081	2.34
352.45	2.92
352.82	2.96
353.19	2.74
353.56	2.93
353.929	3.02
354.299	2.9
354.669	3
355.038	2.2
355.408	2.69
355.777	2.67
356.147	2.65
356.516	2.99
356.885	2.69
357.254	2.83
357.624	2.97
357.993	2.86
358.362	3.01
358.731	2.95
359.1	2.88
359.469	2.61
359.838	2.62
360.207	3.06
360.576	2.75
360.945	2.49
361.314	2.71
361.682	2.38
362.051	2.58
362.42	3
362.788	3.04
363.157	2.82
363.525	2.7
363.894	2.79
364.262	2.83
364.631	2.8
364.999	2.77
365.367	2.8
365.735	2.85
366.104	2.84
366.472	3.01
366.84	3.06
367.208	2.99
367.576	2.88
367.944	2.78
368.312	2.88
368.68	2.88
369.048	2.96
369.416	2.85
369.783	3.14
370.151	3.1
370.519	2.79
370.886	2.97
371.254	2.76
371.621	3.05
371.989	2.83
372.356	3.03
372.724	2.85
373.091	2.79
373.458	3.03
373.826	2.75
374.193	3.08
374.56	2.6
374.927	2.71
375.294	2.8
375.661	2.88
376.028	3.23
376.395	2.57
376.762	3.36
377.129	2.81
377.496	2.95
377.863	2.91
378.229	3.12
378.596	2.85
378.963	3.03
379.329	2.77
379.696	3.17
380.062	2.9
380.429	3.06
380.795	3.08
381.161	3.21
381.528	3.3
381.894	2.96
382.26	2.93
382.626	3.02
382.993	2.85
383.359	2.96
383.725	2.78
384.091	2.91
384.457	2.57
384.823	2.73
385.188	2.93
385.554	2.88
385.92	2.94
386.286	2.83
386.651	3.12
387.017	3.03
387.383	2.88
387.748	2.69
388.114	2.65
388.479	2.99
388.845	2.89
389.21	3.05
389.575	2.91
389.94	2.78
390.306	2.88
390.671	3.01
391.036	3.01
391.401	3.02
391.766	2.92
392.131	3.03
392.496	2.89
392.861	3.04
393.226	2.91
393.591	2.91
393.956	2.88
394.32	3.29
394.685	2.82
395.05	3.01
395.414	2.85
395.779	2.98
396.143	3.15
396.508	2.71
396.872	3.08
397.236	3.17
397.601	2.96
397.965	2.91
398.329	2.98
398.694	2.9
399.058	3.15
399.422	2.98
399.786	2.97
400.15	3.06
400.514	2.93
400.878	3.11
401.242	3.17
401.605	3.1
401.969	2.88
402.333	3.02
402.697	2.59
403.06	3.22
403.424	2.89
403.787	3.14
404.151	3.04
404.514	3.09
404.878	2.87
405.241	2.75
405.604	3.08
405.968	3.19
406.331	3.02
406.694	3.06
407.057	3.17
407.42	2.94
407.783	3.06
408.146	3.36
408.509	3.29
408.872	3.16
409.235	3.05
409.598	2.93
409.961	3.06
410.323	3.2
410.686	3.2
411.049	2.94
411.411	2.85
411.774	3.28
412.136	2.99
412.499	3.11
412.861	3.25
413.223	3.15
413.586	3.33
413.948	3.15
414.31	3.19
414.672	3.21
415.035	3.07
415.397	2.97
415.759	3.22
416.121	3.09
416.483	3.21
416.845	3.21
417.206	3.07
417.568	3.13
417.93	3.19
418.292	3.13
418.653	3.02
419.015	3.05
419.377	3.13
419.738	3.1
420.1	3.11
420.461	3.15
420.822	3.22
421.184	3.12
421.545	2.97
421.906	3.07
422.267	3.07
422.629	3.01
422.99	3.04
423.351	3.15
423.712	2.99
424.073	3.16
424.434	3.14
424.795	3.07
425.155	3.12
425.516	3.14
425.877	3.05
426.238	3.05
426.598	3.04
426.959	3.06
427.32	3.03
427.68	3.26
428.041	3.02
428.401	3.16
428.761	3.35
429.122	3.34
429.482	3.11
429.842	3.23
430.202	3.26
430.563	3.19
430.923	3.31
431.283	3.4
431.643	3.34
432.003	3.22
432.363	3.24
432.722	3.29
433.082	3.19
433.442	3.25
433.802	3.32
434.161	3.13
434.521	3.13
434.881	3.09
435.24	3.14
435.6	3.18
435.959	3.26
436.319	3.13
436.678	3.28
437.037	3.23
437.396	3.14
437.756	3.31
438.115	3.17
438.474	3.21
438.833	3.16
439.192	3.15
439.551	3.15
439.91	3.07
440.269	3.38
440.628	3.19
440.987	3.19
441.345	3.05
441.704	3.18
442.063	3.27
442.421	3.18
442.78	3.09
443.138	3.26
443.497	3.3
443.855	3.23
444.214	3.21
444.572	3.35
444.93	3.32
445.288	3.17
445.647	3.3
446.005	3.05
446.363	3.14
446.721	3.25
447.079	3.11
447.437	3.3
447.795	3.16
448.153	3.17
448.51	3.16
448.868	3.21
449.226	3.25
449.584	3.35
449.941	3.22
450.299	3.24
450.656	3.2
451.014	3.26
451.371	3.32
451.729	3.32
452.086	3.3
452.443	3.31
452.801	3.27
453.158	3.24
453.515	3.09
453.872	3.07
454.229	3.33
454.586	3.29
454.943	3.27
455.3	3.4
455.657	3.24
456.014	3.31
456.371	3.28
456.727	3.32
457.084	3.35
457.441	3.17
457.797	3.37
458.154	3.28
458.51	3.4
458.867	3.21
459.223	3.34
459.58	3.29
459.936	3.34
460.292	3.22
460.648	3.12
461.005	3.35
461.361	3.09
461.717	3.18
462.073	3.3
462.429	3.38
462.785	3.37
463.141	3.43
463.496	3.42
463.852	3.37
464.208	3.36
464.564	3.4
464.919	3.39
465.275	3.4
465.631	3.49
465.986	3.29
466.342	3.44
466.697	3.45
467.052	3.31
467.408	3.29
467.763	3.37
468.118	3.33
468.473	3.44
468.829	3.27
469.184	3.35
469.539	3.41
469.894	3.54
470.249	3.57
470.603	3.4
470.958	3.42
471.313	3.32
471.668	3.47
472.023	3.43
472.377	3.59
472.732	3.39
473.086	3.31
473.441	3.3
473.795	3.47
474.15	3.3
474.504	3.49
474.859	3.36
475.213	3.25
475.567	3.26
475.921	3.5
476.275	3.45
476.63	3.55
476.984	3.46
477.338	3.31
477.692	3.32
478.045	3.31
478.399	3.36
478.753	3.34
479.107	3.38
479.461	3.39
479.814	3.43
480.168	3.32
480.521	3.36
480.875	3.43
481.228	3.4
481.582	3.34
481.935	3.34
482.289	3.34
482.642	3.36
482.995	3.28
483.348	3.26
483.701	3.3
484.055	3.3
484.408	3.4
484.761	3.15
485.114	3.09
485.466	3.03
485.819	3.08
486.172	3.16
486.525	3.32
486.878	3.34
487.23	3.37
487.583	3.37
487.936	3.32
488.288	3.27
488.641	3.2
488.993	3.2
489.345	3.18
489.698	3.17
490.05	3.28
490.402	3.3
490.754	3.4
491.107	3.41
491.459	3.38
491.811	3.38
492.163	3.33
492.515	3.34
492.866	3.19
493.218	3.14
493.57	3.2
493.922	3.35
494.274	3.4
494.625	3.46
494.977	3.5
495.328	3.46
495.68	3.46
496.031	3.42
496.383	3.41
496.734	3.42
497.086	3.42
497.437	3.53
497.788	3.56
498.139	3.41
498.49	3.38
498.842	3.47
499.193	3.46
499.544	3.5
499.894	3.3
500.245	3.5
500.596	3.42
500.947	3.46
501.298	3.39
501.648	3.49
501.999	3.53
502.35	3.49
502.7	3.56
503.051	3.49
503.401	3.43
503.752	3.45
504.102	3.54
504.452	3.48
504.803	3.5
505.153	3.54
505.503	3.51
505.853	3.41
506.203	3.58
506.553	3.46
506.903	3.46
507.253	3.54
507.603	3.55
507.953	3.62
508.303	3.55
508.652	3.52
509.002	3.52
509.352	3.44
509.701	3.43
510.051	3.5
510.4	3.43
510.75	3.5
511.099	3.5
511.449	3.47
511.798	3.44
512.147	3.41
512.496	3.58
512.846	3.54
513.195	3.41
513.544	3.49
513.893	3.52
514.242	3.52
514.591	3.55
514.939	3.59
515.288	3.59
515.637	3.51
515.986	3.5
516.334	3.48
516.683	3.5
517.032	3.57
517.38	3.63
517.729	3.61
518.077	3.52
518.426	3.52
518.774	3.56
519.122	3.55
519.47	3.5
519.819	3.39
520.167	3.41
520.515	3.36
520.863	3.56
521.211	3.57
521.559	3.57
521.907	3.56
522.255	3.48
522.602	3.56
522.95	3.58
523.298	3.52
523.645	3.61
523.993	3.59
524.341	3.65
524.688	3.55
525.036	3.64
525.383	3.63
525.73	3.48
526.078	3.58
526.425	3.63
526.772	3.4
527.119	3.4
527.466	3.47
527.814	3.48
528.161	3.56
528.508	3.51
528.854	3.61
529.201	3.44
529.548	3.47
529.895	3.35
530.242	3.28
530.588	3.35
530.935	3.41
531.282	3.49
531.628	3.6
531.975	3.63
532.321	3.58
532.667	3.58
533.014	3.66
533.36	3.52
533.706	3.62
534.052	3.55
534.399	3.58
534.745	3.47
535.091	3.4
535.437	3.48
535.783	3.58
536.129	3.66
536.474	3.64
536.82	3.58
537.166	3.66
537.512	3.61
537.857	3.57
538.203	3.47
538.549	3.51
538.894	3.47
539.239	3.63
539.585	3.67
539.93	3.56
540.276	3.75
540.621	3.73
540.966	3.63
541.311	3.66
541.656	3.56
542.001	3.51
542.346	3.53
542.691	3.48
543.036	3.37
543.381	3.4
543.726	3.53
544.071	3.59
544.415	3.6
544.76	3.65
545.105	3.67
545.449	3.63
545.794	3.59
546.138	3.58
546.483	3.73
546.827	3.69
547.171	3.69
547.516	3.51
547.86	3.62
548.204	3.72
548.548	3.64
548.892	3.58
549.236	3.72
549.58	3.79
549.924	3.76
550.268	3.78
550.612	3.74
550.956	3.56
551.3	3.74
551.643	3.85
551.987	3.76
552.33	3.79
552.674	3.64
553.017	3.7
553.361	3.64
553.704	3.79
554.048	3.67
554.391	3.76
554.734	3.75
555.077	3.76
555.42	3.78
555.764	3.81
556.107	3.87
556.45	3.74
556.793	3.92
557.135	3.8
557.478	3.73
557.821	3.84
558.164	3.99
558.507	3.94
558.849	3.6
559.192	3.72
559.534	3.94
559.877	3.61
560.219	3.82
560.562	3.8
560.904	3.88
561.246	3.76
561.589	3.84
561.931	3.92
562.273	3.81
562.615	3.84
562.957	3.92
563.299	3.83
563.641	3.82
563.983	3.89
564.325	3.86
564.667	3.88
565.008	4.03
565.35	3.84
565.692	3.82
566.033	3.7
566.375	3.78
566.716	3.78
567.058	3.77
567.399	3.89
567.741	3.7
568.082	3.86
568.423	3.62
568.764	3.79
569.105	3.87
569.447	3.84
569.788	3.92
570.129	3.94
570.47	3.78
570.811	3.89
571.151	3.96
571.492	3.83
571.833	3.75
572.174	3.83
572.514	3.78
572.855	3.72
573.195	3.79
573.536	3.87
573.876	3.78
574.217	3.86
574.557	3.87
574.898	3.87
575.238	3.84
575.578	3.96
575.918	3.96
576.258	3.98
576.598	3.8
576.938	3.85
577.278	3.79
577.618	3.91
577.958	4.01
578.298	3.77
578.638	3.82
578.977	3.78
579.317	3.87
579.657	3.87
579.996	3.88
580.336	4.18
580.675	3.97
581.014	3.99
581.354	3.86
581.693	3.81
582.032	3.95
582.372	4.04
582.711	4.11
583.05	3.93
583.389	3.98
583.728	3.71
584.067	4.16
584.406	4.19
584.745	3.95
585.083	4
585.422	3.9
585.761	4.03
586.1	3.82
586.438	4.05
586.777	3.81
587.115	3.97
587.454	3.99
587.792	3.72
588.13	4.09
588.469	3.95
588.807	3.96
589.145	3.78
589.483	4
589.821	3.98
590.159	3.84
590.497	3.84
590.835	3.88
591.173	4
591.511	3.98
591.849	3.94
592.187	3.97
592.524	3.79
592.862	4.15
593.2	3.8
593.537	3.98
593.875	4.02
594.212	3.96
594.55	3.77
594.887	4.08
595.224	3.8
595.561	3.84
595.899	3.93
596.236	4
596.573	3.8
596.91	3.93
597.247	4.12
597.584	3.93
597.921	4.01
598.258	3.86
598.594	3.75
598.931	3.72
599.268	4
599.604	3.92
599.941	3.93
600.277	3.89
600.614	3.91
600.95	4
601.287	3.95
601.623	4.16
601.959	4.07
602.296	3.95
602.632	3.92
602.968	4.09
603.304	3.72
603.64	3.9
603.976	4.1
604.312	4.15
604.648	4.14
604.984	4.02
605.319	4.06
605.655	4.32
605.991	3.98
606.326	3.98
606.662	4.01
606.998	3.94
607.333	4.08
607.668	4.12
608.004	4
608.339	3.86
608.674	4.08
609.01	4.14
609.345	4.08
609.68	4.02
610.015	3.9
610.35	3.99
610.685	4.17
611.02	4.06
611.355	4.16
611.689	4.05
612.024	4.04
612.359	3.97
612.694	4.08
613.028	3.82
613.363	3.94
613.697	4.06
614.032	4.31
614.366	3.76
614.7	4.12
615.035	4.16
615.369	4.08
615.703	4.1
616.037	4.19
616.371	4.08
616.705	3.91
617.039	4.02
617.373	3.93
617.707	4.15
618.041	4.13
618.375	3.99
618.709	3.97
619.042	4.11
619.376	3.93
619.71	4.46
620.043	3.94
620.377	4.22
620.71	4.29
621.043	4.28
621.377	4.24
621.71	3.91
622.043	3.85
622.376	3.95
622.709	4.2
623.043	4.06
623.376	3.55
623.709	3.57
624.041	4.34
624.374	4.04
624.707	4.05
625.04	4.22
625.373	3.76
625.705	4.29
626.038	4.11
626.37	4.28
626.703	4
627.035	4.01
627.368	4.56
627.7	4.31
628.032	3.99
628.365	4.15
628.697	3.94
629.029	4.12
629.361	3.87
629.693	4.22
630.025	4.37
630.357	4.18
630.689	3.86
631.021	4.04
631.353	4.39
631.684	3.73
632.016	4
632.348	4.23
632.679	4.04
633.011	4.04
633.342	3.92
633.674	4.29
634.005	4.41
634.336	3.96
634.668	3.92
634.999	3.7
635.33	4.2
635.661	4.13
635.992	4.13
636.323	3.91
636.654	4.14
636.985	4.3
637.316	3.99
637.647	4.1
637.977	4.05
638.308	4.43
638.639	4.35
638.969	3.94
639.3	4.27
639.63	3.95
639.961	4.23
640.291	4.07
640.622	4.11
640.952	4.05
641.282	4.29
641.612	4.25
641.943	3.79
642.273	4.17
642.603	3.99
642.933	4.25
643.263	4.28
643.592	3.76
643.922	3.79
644.252	4.05
644.582	3.89
644.911	4.36
645.241	4.26
645.571	4
645.9	4.14
646.23	4.19
646.559	4.13
646.888	4.04
647.218	4.29
647.547	4.35
647.876	3.95
648.205	4.26
648.534	4.23
648.863	4.35
649.192	4.35
649.521	4.01
649.85	4.24
650.179	4.08
650.508	4.39
650.837	4.28
651.165	4.04
651.494	4.38
651.822	3.81
652.151	4.22
652.479	4.19
652.808	4.5
653.136	4.23
653.465	4.33
653.793	3.91
654.121	4.48
654.449	4.19
654.777	4.33
655.105	4.09
655.433	4.19
655.761	4.71
656.089	3.79
656.417	4.51
656.745	4.19
657.073	4.54
657.4	4.16
657.728	4.64
658.056	3.69
658.383	3.9
658.711	3.97
659.038	4.43
659.365	4.3
659.693	3.97
660.02	4.47
660.347	4.43
660.674	3.92
661.001	4.25
661.329	4.06
661.656	4.11
661.982	4.57
662.309	4.38
662.636	4.32
662.963	4.47
663.29	4.77
663.616	4.38
663.943	4.41
664.27	3.82
664.596	4.27
664.923	4.12
665.249	4.36
665.576	4.11
665.902	4.64
666.228	3.6
666.554	4.76
666.881	4.56
667.207	4.6
667.533	4.57
667.859	4.54
668.185	4.71
668.511	4.26
668.837	4.86
669.162	4.75
669.488	4.79
669.814	4.78
670.139	4.21
670.465	4.41
670.791	4.41
671.116	4
671.442	4.8
671.767	4.64
672.092	4.16
672.418	4.27
672.743	4.45
673.068	5.04
673.393	3.92
673.718	4.93
674.043	4.37
674.368	4.55
674.693	4.99
675.018	4.68
675.343	4.66
675.667	4.31
675.992	4.57
676.317	4.07
676.641	4.19
676.966	4.52
677.29	4.61
677.615	4.82
677.939	4.37
678.264	4.56
678.588	3.88
678.912	4.29
679.236	4.71
679.56	5.05
679.885	4.22
680.209	4.61
680.532	5.19
680.856	3.9
681.18	4.82
681.504	4.11
681.828	4.67
682.152	4.4
682.475	4.62
682.799	4.61
683.122	4.42
683.446	4.62
683.769	4.46
684.093	4.29
684.416	4.23
684.739	4.43
685.062	4.58
685.386	4.73
685.709	4.52
686.032	4.59
686.355	4.37
686.678	5.6
687.001	4.28
687.324	4.2
687.646	4.57
687.969	4.88
688.292	4.59
688.614	4.31
688.937	4.92
689.26	5.09
689.582	3.95
689.904	4.08
690.227	4.67
690.549	4.46
690.871	4.37
691.194	4.47
691.516	4.47
691.838	4.42
692.16	4.06
692.482	3.88
692.804	4.6
693.126	5.09
693.448	4.77
