Data from 815652_chest_Reflection__4__44.txt Node

Date: Fri Sep 16 14:47:54 CDT 2022
User: ToomeyLab
Spectrometer: FLMS14357
Trigger mode: 0
Integration Time (sec): 1.000000E-2
Scans to average: 100
Electric dark correction enabled: true
Nonlinearity correction enabled: false
Boxcar width: 0
XAxis mode: Wavelengths
Number of Pixels in Spectrum: 2048
>>>>>Begin Spectral Data<<<<<
189.047	125.83
189.435	125.83
189.823	125.83
190.211	-5.95
190.599	-514.25
190.987	104.64
191.375	85.28
191.763	45.52
192.151	30.64
192.538	72.52
192.926	108.49
193.314	237.42
193.702	64.8
194.089	23.83
194.477	-0.76
194.864	37.55
195.252	-239.71
195.639	92.76
196.027	83.13
196.414	383.81
196.801	-53.43
197.189	18.14
197.576	21.85
197.963	317.15
198.351	-8.54
198.738	9.28
199.125	25.63
199.512	3.26
199.899	25.63
200.286	65.43
200.673	77.89
201.06	53.74
201.447	-3.3
201.833	48.42
202.22	26.95
202.607	4.48
202.994	47.71
203.38	16.45
203.767	81.28
204.154	40.33
204.54	25.23
204.927	-52.16
205.313	46.61
205.699	51.12
206.086	16.7
206.472	8.91
206.858	63.13
207.245	10.28
207.631	27.1
208.017	43.97
208.403	13.91
208.789	0.49
209.175	18.8
209.561	7.41
209.947	21.91
210.333	24.27
210.719	3.03
211.105	26.4
211.491	32.93
211.876	18.11
212.262	31.87
212.648	-12.57
213.034	-31.48
213.419	3.18
213.805	10.38
214.19	17.6
214.576	12.82
214.961	2.63
215.346	-11.51
215.732	-56.48
216.117	38.81
216.502	-13.86
216.888	-40.78
217.273	12.99
217.658	21.35
218.043	-40.48
218.428	25.98
218.813	6.83
219.198	22.05
219.583	-2.84
219.968	11.16
220.353	-6.19
220.738	11.8
221.122	-32.14
221.507	15.77
221.892	7.5
222.276	7.74
222.661	11.15
223.046	6.43
223.43	10.02
223.815	-15.45
224.199	4.9
224.583	5.15
224.968	2.02
225.352	-1.15
225.736	12.52
226.121	9.03
226.505	3.29
226.889	8.42
227.273	0.44
227.657	7.12
228.041	0.31
228.425	-1.35
228.809	8.06
229.193	0.4
229.577	2.82
229.961	1.9
230.344	2.29
230.728	1.78
231.112	1.3
231.495	1.12
231.879	2.53
232.263	0.13
232.646	1.2
233.03	2.51
233.413	2.22
233.797	1.14
234.18	2.54
234.563	2.71
234.946	1.26
235.33	2.25
235.713	1.99
236.096	0.47
236.479	1.85
236.862	1.9
237.245	2.15
237.628	2.22
238.011	1.95
238.394	1.88
238.777	4.9
239.16	1.95
239.543	4.49
239.925	1.48
240.308	0.75
240.691	2.42
241.073	0.96
241.456	1.27
241.838	2.2
242.221	2.31
242.603	1.75
242.986	0.67
243.368	1
243.75	1.26
244.133	1.76
244.515	1.23
244.897	1.94
245.279	1.76
245.661	1.42
246.043	2.65
246.425	1.39
246.807	1.77
247.189	2.06
247.571	1.13
247.953	1.6
248.335	1.41
248.717	1.49
249.098	1.41
249.48	1.2
249.862	1.56
250.243	1.51
250.625	1.5
251.006	1.95
251.388	2.36
251.769	0.71
252.151	1.55
252.532	1.18
252.913	2.04
253.295	1.48
253.676	2.09
254.057	1.49
254.438	1.09
254.819	0.38
255.2	1.21
255.581	1.79
255.962	1.3
256.343	2.77
256.724	0.89
257.105	0.7
257.486	1.99
257.867	1.31
258.247	1.95
258.628	1.79
259.009	0.9
259.389	1.67
259.77	1.21
260.15	1.87
260.531	1.49
260.911	1.4
261.292	1.2
261.672	1.34
262.052	1.06
262.432	1.36
262.813	1.63
263.193	1.5
263.573	1.28
263.953	1.54
264.333	1.62
264.713	0.92
265.093	0.75
265.473	1.51
265.853	1.3
266.233	1.26
266.612	2.51
266.992	0.95
267.372	1.9
267.752	1.1
268.131	1.65
268.511	1.52
268.89	1.91
269.27	1.44
269.649	1.48
270.029	1.24
270.408	1.64
270.787	1.24
271.167	1.34
271.546	2.11
271.925	1.46
272.304	1.66
272.683	1.02
273.062	1.24
273.441	1.58
273.82	1.02
274.199	1.29
274.578	1.03
274.957	1.28
275.336	1.55
275.715	1.76
276.093	1.01
276.472	1.23
276.851	0.92
277.229	1.43
277.608	1.8
277.986	1.7
278.365	0.24
278.743	0.83
279.122	1.17
279.5	1.17
279.878	1.3
280.257	1.71
280.635	1.62
281.013	1
281.391	1.45
281.769	1.44
282.147	1.48
282.525	1.11
282.903	1.64
283.281	0.94
283.659	1.57
284.037	1.02
284.415	1.44
284.792	1.6
285.17	1.77
285.548	1.49
285.925	0.8
286.303	1.74
286.68	1.11
287.058	1.25
287.435	1.02
287.813	1.47
288.19	0.98
288.567	1.09
288.945	1.42
289.322	1.65
289.699	1.45
290.076	1.06
290.453	1.33
290.83	1.38
291.207	1.32
291.584	0.84
291.961	1.41
292.338	1.57
292.715	1.46
293.092	1.67
293.469	1.2
293.845	1.48
294.222	1.14
294.599	1.06
294.975	1
295.352	1.23
295.728	0.87
296.105	1.34
296.481	1.01
296.858	1.21
297.234	1.36
297.61	1.59
297.986	1.39
298.363	1.11
298.739	1.06
299.115	1.66
299.491	1.42
299.867	1.28
300.243	1.07
300.619	0.94
300.995	1.26
301.371	1.19
301.746	1.22
302.122	2.02
302.498	1.39
302.874	1.31
303.249	1.46
303.625	1.09
304	1.39
304.376	1.09
304.751	1.62
305.127	1
305.502	1.42
305.878	0.92
306.253	1.35
306.628	1.49
307.003	1.4
307.378	1.48
307.754	1.47
308.129	1.9
308.504	1.89
308.879	1.64
309.254	1.74
309.629	1.18
310.003	1.5
310.378	1.18
310.753	1.38
311.128	1.44
311.502	0.86
311.877	1.61
312.252	1.42
312.626	1.39
313.001	1.37
313.375	1.4
313.75	1.2
314.124	1.7
314.498	1.33
314.873	1.64
315.247	1.1
315.621	1.31
315.995	1.06
316.369	1.66
316.743	1.47
317.117	1.43
317.491	1.12
317.865	1.49
318.239	1.59
318.613	1.32
318.987	1.01
319.361	1.44
319.734	1.51
320.108	1.68
320.482	2.06
320.855	1.57
321.229	1.44
321.602	1.67
321.976	1.98
322.349	1.37
322.723	1.44
323.096	1.71
323.469	1.32
323.843	1.45
324.216	1.91
324.589	1.33
324.962	1.16
325.335	1.69
325.708	1.69
326.081	1.6
326.454	1.51
326.827	1.21
327.2	1.2
327.573	1.37
327.945	1.86
328.318	1.66
328.691	1.53
329.063	1.69
329.436	0.71
329.809	0.88
330.181	1.86
330.553	1.53
330.926	1.67
331.298	1.63
331.671	1.01
332.043	1.12
332.415	1.43
332.787	1.27
333.159	1.28
333.532	1.84
333.904	1.37
334.276	1.25
334.648	1.5
335.02	1.87
335.391	1.98
335.763	1.24
336.135	1.04
336.507	1.28
336.879	1.8
337.25	0.97
337.622	2.19
337.993	1.8
338.365	1.93
338.736	1.78
339.108	1.65
339.479	1.84
339.851	1.83
340.222	1.47
340.593	1.33
340.964	1.44
341.336	1.7
341.707	1.43
342.078	1.99
342.449	1.67
342.82	1.24
343.191	1.17
343.562	1.43
343.933	1.41
344.303	1.41
344.674	1.06
345.045	1.76
345.416	1.06
345.786	1.48
346.157	1.44
346.527	1.41
346.898	1.45
347.268	1.79
347.639	1.2
348.009	1.55
348.38	1.51
348.75	1.22
349.12	1.55
349.49	2.14
349.861	1.56
350.231	1.31
350.601	1.54
350.971	1.4
351.341	1.73
351.711	1.25
352.081	1.24
352.45	1.84
352.82	1.66
353.19	1.42
353.56	1.92
353.929	1.61
354.299	1.43
354.669	1.51
355.038	1.21
355.408	1.52
355.777	1.33
356.147	1.7
356.516	1.62
356.885	1.35
357.254	1.48
357.624	1.62
357.993	1.44
358.362	1.13
358.731	1.75
359.1	1.53
359.469	1.29
359.838	1.32
360.207	1.67
360.576	1.73
360.945	1.3
361.314	1.35
361.682	1.21
362.051	1.89
362.42	1.75
362.788	1.42
363.157	1.53
363.525	1.35
363.894	1.54
364.262	1.61
364.631	1.61
364.999	1.5
365.367	1.44
365.735	1.85
366.104	1.58
366.472	1.55
366.84	1.5
367.208	1.88
367.576	1.52
367.944	1.21
368.312	1.42
368.68	1.83
369.048	1.62
369.416	1.84
369.783	1.63
370.151	1.66
370.519	1.29
370.886	1.56
371.254	1.34
371.621	1.63
371.989	1.42
372.356	1.69
372.724	1.72
373.091	1.71
373.458	1.65
373.826	1.75
374.193	1.8
374.56	1.28
374.927	1.49
375.294	1.8
375.661	1.53
376.028	2.02
376.395	1.38
376.762	1.94
377.129	1.7
377.496	1.78
377.863	1.55
378.229	1.96
378.596	1.24
378.963	1.92
379.329	1.46
379.696	2
380.062	1.67
380.429	1.58
380.795	1.69
381.161	1.66
381.528	1.69
381.894	1.61
382.26	1.81
382.626	1.64
382.993	1.65
383.359	1.47
383.725	1.81
384.091	1.6
384.457	1.4
384.823	1.52
385.188	1.58
385.554	1.54
385.92	1.64
386.286	1.68
386.651	1.64
387.017	1.8
387.383	1.41
387.748	1.31
388.114	1.36
388.479	1.46
388.845	1.44
389.21	1.62
389.575	1.71
389.94	1.7
390.306	1.63
390.671	1.52
391.036	1.34
391.401	1.76
391.766	1.53
392.131	1.71
392.496	1.63
392.861	1.61
393.226	1.68
393.591	1.45
393.956	1.56
394.32	1.84
394.685	1.43
395.05	1.91
395.414	1.3
395.779	1.6
396.143	1.72
396.508	1.38
396.872	1.55
397.236	1.66
397.601	1.74
397.965	1.5
398.329	1.45
398.694	1.58
399.058	1.71
399.422	1.52
399.786	1.42
400.15	1.69
400.514	1.54
400.878	1.85
401.242	1.66
401.605	1.7
401.969	1.53
402.333	1.58
402.697	1.5
403.06	1.83
403.424	1.93
403.787	1.62
404.151	1.55
404.514	1.63
404.878	1.6
405.241	1.47
405.604	1.66
405.968	1.84
406.331	1.69
406.694	1.66
407.057	1.69
407.42	1.52
407.783	1.71
408.146	1.76
408.509	1.74
408.872	1.9
409.235	1.72
409.598	1.69
409.961	1.89
410.323	1.81
410.686	1.92
411.049	1.61
411.411	1.64
411.774	1.58
412.136	1.6
412.499	1.84
412.861	1.63
413.223	1.8
413.586	1.83
413.948	1.75
414.31	1.94
414.672	1.65
415.035	1.94
415.397	1.51
415.759	1.79
416.121	1.9
416.483	1.79
416.845	1.78
417.206	1.78
417.568	1.88
417.93	1.85
418.292	1.75
418.653	1.7
419.015	1.65
419.377	1.92
419.738	1.62
420.1	1.73
420.461	1.73
420.822	1.67
421.184	1.78
421.545	1.67
421.906	1.76
422.267	1.71
422.629	1.62
422.99	1.63
423.351	1.8
423.712	1.61
424.073	1.73
424.434	1.69
424.795	1.65
425.155	1.69
425.516	1.73
425.877	1.63
426.238	1.8
426.598	1.7
426.959	1.73
427.32	1.67
427.68	1.75
428.041	1.72
428.401	1.68
428.761	1.91
429.122	1.86
429.482	1.69
429.842	1.81
430.202	1.89
430.563	1.8
430.923	1.81
431.283	1.93
431.643	1.83
432.003	1.9
432.363	1.73
432.722	1.95
433.082	1.68
433.442	1.96
433.802	1.75
434.161	1.71
434.521	1.86
434.881	1.77
435.24	1.79
435.6	1.84
435.959	1.9
436.319	1.93
436.678	1.82
437.037	1.72
437.396	1.86
437.756	2
438.115	1.79
438.474	1.79
438.833	1.83
439.192	1.75
439.551	1.85
439.91	1.73
440.269	1.93
440.628	1.75
440.987	1.78
441.345	1.78
441.704	1.85
442.063	1.86
442.421	1.8
442.78	1.81
443.138	1.91
443.497	1.82
443.855	1.85
444.214	1.79
444.572	1.89
444.93	1.79
445.288	1.74
445.647	1.84
446.005	1.81
446.363	1.9
446.721	1.8
447.079	1.73
447.437	1.78
447.795	1.8
448.153	1.88
448.51	1.8
448.868	1.8
449.226	1.79
449.584	1.94
449.941	1.84
450.299	1.76
450.656	1.74
451.014	1.9
451.371	1.9
451.729	1.86
452.086	1.78
452.443	1.88
452.801	1.93
453.158	1.83
453.515	1.8
453.872	1.85
454.229	1.81
454.586	1.81
454.943	1.68
455.3	1.97
455.657	1.7
456.014	1.99
456.371	1.78
456.727	1.9
457.084	2.14
457.441	1.78
457.797	2
458.154	1.97
458.51	1.94
458.867	1.79
459.223	1.81
459.58	1.95
459.936	1.84
460.292	2.01
460.648	1.82
461.005	1.86
461.361	1.76
461.717	1.87
462.073	1.88
462.429	2
462.785	1.97
463.141	1.96
463.496	1.95
463.852	1.99
464.208	2.04
464.564	2.07
464.919	2.04
465.275	2.08
465.631	2.02
465.986	1.9
466.342	2
466.697	2
467.052	2.03
467.408	2.06
467.763	2.16
468.118	1.97
468.473	1.92
468.829	2.03
469.184	1.96
469.539	2.01
469.894	2.07
470.249	2.22
470.603	2
470.958	1.91
471.313	2.12
471.668	1.99
472.023	1.98
472.377	1.86
472.732	1.85
473.086	2.01
473.441	1.93
473.795	2.16
474.15	1.95
474.504	2.04
474.859	1.97
475.213	2.13
475.567	1.73
475.921	2.1
476.275	2.01
476.63	2.21
476.984	2.18
477.338	2.12
477.692	2.03
478.045	1.92
478.399	1.98
478.753	2.06
479.107	2.08
479.461	2.06
479.814	1.94
480.168	1.95
480.521	2.14
480.875	2.09
481.228	1.97
481.582	2
481.935	2.09
482.289	2.12
482.642	2.07
482.995	2.03
483.348	1.99
483.701	2.02
484.055	1.99
484.408	2.03
484.761	1.91
485.114	1.9
485.466	1.85
485.819	1.88
486.172	1.88
486.525	1.95
486.878	1.96
487.23	2.01
487.583	2.03
487.936	1.98
488.288	1.99
488.641	1.95
488.993	2
489.345	1.95
489.698	1.96
490.05	2.01
490.402	2.01
490.754	2.06
491.107	2.03
491.459	2.11
491.811	2.01
492.163	1.99
492.515	2
492.866	1.99
493.218	1.97
493.57	1.93
493.922	2.01
494.274	2.06
494.625	2.05
494.977	2.08
495.328	2.09
495.68	2.09
496.031	2.17
496.383	2.11
496.734	2.15
497.086	2.22
497.437	2.31
497.788	2.18
498.139	2.19
498.49	2.17
498.842	2.15
499.193	2.26
499.544	2.27
499.894	2.09
500.245	2.22
500.596	2.13
500.947	2.16
501.298	2.26
501.648	2.19
501.999	2.21
502.35	2.26
502.7	2.28
503.051	2.26
503.401	2.22
503.752	2.21
504.102	2.3
504.452	2.31
504.803	2.24
505.153	2.36
505.503	2.37
505.853	2.24
506.203	2.29
506.553	2.22
506.903	2.25
507.253	2.15
507.603	2.32
507.953	2.26
508.303	2.28
508.652	2.31
509.002	2.32
509.352	2.26
509.701	2.32
510.051	2.29
510.4	2.22
510.75	2.32
511.099	2.28
511.449	2.24
511.798	2.24
512.147	2.31
512.496	2.27
512.846	2.36
513.195	2.36
513.544	2.34
513.893	2.3
514.242	2.31
514.591	2.41
514.939	2.39
515.288	2.39
515.637	2.36
515.986	2.31
516.334	2.44
516.683	2.4
517.032	2.54
517.38	2.48
517.729	2.48
518.077	2.4
518.426	2.46
518.774	2.41
519.122	2.4
519.47	2.48
519.819	2.35
520.167	2.31
520.515	2.33
520.863	2.39
521.211	2.38
521.559	2.46
521.907	2.47
522.255	2.34
522.602	2.43
522.95	2.52
523.298	2.43
523.645	2.5
523.993	2.56
524.341	2.47
524.688	2.57
525.036	2.6
525.383	2.47
525.73	2.58
526.078	2.46
526.425	2.44
526.772	2.37
527.119	2.39
527.466	2.49
527.814	2.49
528.161	2.53
528.508	2.51
528.854	2.51
529.201	2.45
529.548	2.44
529.895	2.42
530.242	2.4
530.588	2.42
530.935	2.4
531.282	2.49
531.628	2.52
531.975	2.51
532.321	2.56
532.667	2.61
533.014	2.64
533.36	2.57
533.706	2.61
534.052	2.55
534.399	2.61
534.745	2.56
535.091	2.54
535.437	2.54
535.783	2.6
536.129	2.64
536.474	2.65
536.82	2.57
537.166	2.73
537.512	2.71
537.857	2.71
538.203	2.6
538.549	2.6
538.894	2.64
539.239	2.73
539.585	2.78
539.93	2.65
540.276	2.91
540.621	2.86
540.966	2.7
541.311	2.9
541.656	2.82
542.001	2.73
542.346	2.69
542.691	2.76
543.036	2.65
543.381	2.61
543.726	2.69
544.071	2.67
544.415	2.77
544.76	2.82
545.105	2.84
545.449	2.79
545.794	2.85
546.138	2.85
546.483	2.85
546.827	2.94
547.171	2.95
547.516	2.83
547.86	2.94
548.204	2.98
548.548	2.84
548.892	2.81
549.236	2.92
549.58	3.05
549.924	3.05
550.268	3.12
550.612	3.16
550.956	2.88
551.3	3.05
551.643	3.22
551.987	3.16
552.33	3.09
552.674	3.03
553.017	3.09
553.361	3.18
553.704	3.14
554.048	3.09
554.391	3.36
554.734	3.06
555.077	3.19
555.42	3.27
555.764	3.17
556.107	3.3
556.45	3.17
556.793	3.29
557.135	3.28
557.478	3.1
557.821	3.09
558.164	3.34
558.507	3.31
558.849	3.17
559.192	3.32
559.534	3.42
559.877	3.27
560.219	3.2
560.562	3.46
560.904	3.5
561.246	3.38
561.589	3.39
561.931	3.63
562.273	3.55
562.615	3.56
562.957	3.39
563.299	3.55
563.641	3.32
563.983	3.69
564.325	3.5
564.667	3.43
565.008	3.54
565.35	3.53
565.692	3.61
566.033	3.46
566.375	3.46
566.716	3.39
567.058	3.61
567.399	3.79
567.741	3.52
568.082	3.68
568.423	3.5
568.764	3.61
569.105	3.67
569.447	3.74
569.788	3.7
570.129	3.76
570.47	3.63
570.811	3.89
571.151	3.78
571.492	3.77
571.833	3.63
572.174	3.81
572.514	3.69
572.855	3.73
573.195	3.94
573.536	3.78
573.876	3.78
574.217	3.76
574.557	3.77
574.898	3.95
575.238	3.85
575.578	3.78
575.918	3.91
576.258	3.98
576.598	3.67
576.938	3.96
577.278	3.92
577.618	3.94
577.958	3.99
578.298	3.99
578.638	3.92
578.977	4.03
579.317	4.16
579.657	4.11
579.996	4.15
580.336	4.01
580.675	4.02
581.014	4
581.354	4.12
581.693	4.02
582.032	4.23
582.372	4.24
582.711	4.38
583.05	4.33
583.389	4.23
583.728	4.34
584.067	4.31
584.406	4.47
584.745	4.37
585.083	4.52
585.422	4.54
585.761	4.41
586.1	4.16
586.438	4.42
586.777	4.11
587.115	4.48
587.454	4.38
587.792	4.39
588.13	4.48
588.469	4.41
588.807	4.34
589.145	4.33
589.483	4.59
589.821	4.68
590.159	4.46
590.497	4.52
590.835	4.72
591.173	4.69
591.511	4.59
591.849	4.65
592.187	4.69
592.524	4.66
592.862	4.83
593.2	4.52
593.537	4.7
593.875	4.58
594.212	4.84
594.55	4.64
594.887	4.96
595.224	4.63
595.561	4.83
595.899	4.98
596.236	4.98
596.573	4.79
596.91	4.9
597.247	4.97
597.584	5.04
597.921	4.89
598.258	4.66
598.594	4.58
598.931	4.79
599.268	4.93
599.604	4.87
599.941	4.95
600.277	5.11
600.614	5.09
600.95	5.02
601.287	4.89
601.623	5.23
601.959	5.17
602.296	5.07
602.632	5
602.968	5.02
603.304	5.12
603.64	5.15
603.976	5.36
604.312	5.28
604.648	5.42
604.984	5.17
605.319	5.35
605.655	5.41
605.991	5.26
606.326	5.2
606.662	5.06
606.998	5.32
607.333	5.22
607.668	5.56
608.004	5.41
608.339	5.34
608.674	5.35
609.01	5.52
609.345	5.77
609.68	5.44
610.015	5.4
610.35	5.53
610.685	5.77
611.02	5.35
611.355	5.6
611.689	5.62
612.024	5.52
612.359	5.78
612.694	5.68
613.028	5.65
613.363	5.63
613.697	5.81
614.032	5.66
614.366	5.38
614.7	5.79
615.035	5.77
615.369	5.5
615.703	5.76
616.037	5.59
616.371	5.98
616.705	5.85
617.039	6.2
617.373	5.58
617.707	5.7
618.041	5.74
618.375	5.95
618.709	5.8
619.042	6.1
619.376	5.97
619.71	6.1
620.043	5.88
620.377	6.06
620.71	6.36
621.043	6.14
621.377	5.94
621.71	6.13
622.043	5.89
622.376	6.23
622.709	6.32
623.043	6.35
623.376	6.17
623.709	6.17
624.041	6.4
624.374	6.31
624.707	6.12
625.04	6.43
625.373	6.27
625.705	6.16
626.038	6.61
626.37	6.68
626.703	6.13
627.035	6.34
627.368	6.43
627.7	6.67
628.032	6.25
628.365	6.33
628.697	6.47
629.029	6.48
629.361	6.64
629.693	6.48
630.025	6.64
630.357	6.45
630.689	6.53
631.021	6.67
631.353	6.76
631.684	6.43
632.016	6.41
632.348	6.85
632.679	6.69
633.011	6.62
633.342	6.66
633.674	7.05
634.005	6.73
634.336	7.03
634.668	6.83
634.999	6.62
635.33	6.94
635.661	6.82
635.992	6.38
636.323	6.9
636.654	6.82
636.985	7.06
637.316	6.94
637.647	6.99
637.977	6.91
638.308	7.33
638.639	7.01
638.969	7.19
639.3	7.19
639.63	6.73
639.961	7.44
640.291	6.97
640.622	7.08
640.952	7.3
641.282	7.14
641.612	6.96
641.943	7.36
642.273	6.86
642.603	7.53
642.933	7.31
643.263	7.14
643.592	7.12
643.922	6.9
644.252	7.11
644.582	7.43
644.911	7.36
645.241	7.42
645.571	7.98
645.9	7.35
646.23	7.16
646.559	7.41
646.888	7.67
647.218	7.7
647.547	8.02
647.876	7.77
648.205	7.74
648.534	7.55
648.863	7.57
649.192	7.89
649.521	7.94
649.85	7.76
650.179	7.6
650.508	7.73
650.837	7.86
651.165	7.58
651.494	8.09
651.822	7.76
652.151	7.54
652.479	7.74
652.808	8.13
653.136	7.73
653.465	7.84
653.793	7.92
654.121	7.98
654.449	7.89
654.777	8.1
655.105	7.87
655.433	7.97
655.761	8.22
656.089	7.92
656.417	8.32
656.745	8.14
657.073	7.76
657.4	7.84
657.728	8.62
658.056	7.88
658.383	8.16
658.711	8.01
659.038	8
659.365	8.57
659.693	7.87
660.02	8.52
660.347	8.28
660.674	8.29
661.001	8.24
661.329	8.03
661.656	8.08
661.982	8.3
662.309	8.41
662.636	8.52
662.963	8.51
663.29	8.25
663.616	8.73
663.943	8.46
664.27	8.4
664.596	8.18
664.923	8.29
665.249	8.41
665.576	8.8
665.902	8.66
666.228	8.2
666.554	8.97
666.881	8.84
667.207	8.84
667.533	8.73
667.859	8.48
668.185	9.14
668.511	8.99
668.837	9.01
669.162	8.36
669.488	9.39
669.814	9.21
670.139	8.95
670.465	8.9
670.791	8.62
671.116	8.87
671.442	9.27
671.767	8.72
672.092	8.85
672.418	9.04
672.743	9.16
673.068	9.05
673.393	8.58
673.718	9.23
674.043	8.89
674.368	9.13
674.693	10.09
675.018	9.38
675.343	9
675.667	9.8
675.992	9.51
676.317	8.84
676.641	8.89
676.966	8.98
677.29	8.73
677.615	9.62
677.939	9.36
678.264	9.77
678.588	9.04
678.912	8.85
679.236	9.35
679.56	9.72
679.885	9.54
680.209	8.65
680.532	9.48
680.856	8.83
681.18	9.34
681.504	9.71
681.828	9.14
682.152	9.39
682.475	9.47
682.799	9.11
683.122	9.55
683.446	9.7
683.769	9.76
684.093	9.57
684.416	9.86
684.739	9.69
685.062	9.53
685.386	9.14
685.709	9.24
686.032	10.19
686.355	9.55
686.678	10.12
687.001	9.6
687.324	9.97
687.646	10.49
687.969	10.09
688.292	9.69
688.614	9.5
688.937	10.07
689.26	9.95
689.582	9.3
689.904	10.13
690.227	9.56
690.549	10.52
690.871	10.13
691.194	9.47
691.516	9.47
691.838	10.2
692.16	9.94
692.482	9.45
692.804	9.89
693.126	10.54
693.448	9.86
