Data from 815652_forehead_Reflection__0__45.txt Node

Date: Fri Sep 16 14:49:55 CDT 2022
User: ToomeyLab
Spectrometer: FLMS14357
Trigger mode: 0
Integration Time (sec): 1.000000E-2
Scans to average: 100
Electric dark correction enabled: true
Nonlinearity correction enabled: false
Boxcar width: 0
XAxis mode: Wavelengths
Number of Pixels in Spectrum: 2048
>>>>>Begin Spectral Data<<<<<
189.047	392.25
189.435	392.25
189.823	392.25
190.211	-430.37
190.599	336.97
190.987	59.06
191.375	77.05
191.763	14.16
192.151	151.04
192.538	32.4
192.926	-36.38
193.314	270.29
193.702	96.18
194.089	90.99
194.477	47.03
194.864	31.34
195.252	-1656.94
195.639	42.31
196.027	105.83
196.414	280.32
196.801	127.53
197.189	248.09
197.576	33.71
197.963	336.35
198.351	4.87
198.738	4.39
199.125	33.39
199.512	-162.66
199.899	48.49
200.286	50.35
200.673	25.52
201.06	2.48
201.447	55.5
201.833	25.87
202.22	43.54
202.607	-12.51
202.994	1.2
203.38	13.89
203.767	39.56
204.154	56.65
204.54	45.22
204.927	-37.91
205.313	27.04
205.699	51.44
206.086	17.95
206.472	22.52
206.858	8.73
207.245	32.66
207.631	19.31
208.017	32.7
208.403	-14.18
208.789	-5.3
209.175	47.71
209.561	47.98
209.947	-0.95
210.333	1.86
210.719	6.4
211.105	0.15
211.491	8.48
211.876	3.37
212.262	36.28
212.648	26.99
213.034	12.16
213.419	2.16
213.805	37.84
214.19	20.4
214.576	28.18
214.961	-30.07
215.346	5.06
215.732	-12.75
216.117	35.81
216.502	36.92
216.888	-10.76
217.273	17.26
217.658	5.64
218.043	-99.41
218.428	-2.15
218.813	16.64
219.198	23.27
219.583	23.97
219.968	21.48
220.353	-1.82
220.738	14.11
221.122	-25.93
221.507	17.07
221.892	10.19
222.276	14.44
222.661	7.6
223.046	3.07
223.43	2.57
223.815	6.71
224.199	4.32
224.583	15.25
224.968	7.91
225.352	7.27
225.736	9.57
226.121	1.93
226.505	9.48
226.889	8.33
227.273	7.74
227.657	6.21
228.041	2.9
228.425	1.16
228.809	9.11
229.193	3.33
229.577	3.83
229.961	2.18
230.344	3.73
230.728	3.13
231.112	3.09
231.495	2.68
231.879	3.37
232.263	2.43
232.646	2.23
233.03	3.33
233.413	4.18
233.797	2.93
234.18	3.79
234.563	2.65
234.946	3.68
235.33	4.15
235.713	0.92
236.096	2.23
236.479	2.03
236.862	5.45
237.245	4.28
237.628	4.92
238.011	3.14
238.394	2.4
238.777	5.96
239.16	2.73
239.543	3.78
239.925	2.98
240.308	1.63
240.691	5.32
241.073	3.35
241.456	1.97
241.838	1.9
242.221	2.85
242.603	2.93
242.986	2.21
243.368	2.46
243.75	2.43
244.133	2.88
244.515	2.1
244.897	3.03
245.279	2.75
245.661	2.49
246.043	3.29
246.425	2.46
246.807	3.56
247.189	2.63
247.571	1.83
247.953	2.43
248.335	2.54
248.717	2.54
249.098	2.63
249.48	2.65
249.862	2.42
250.243	3.06
250.625	2.98
251.006	3.13
251.388	3.15
251.769	1.74
252.151	2.77
252.532	1.93
252.913	2.64
253.295	2.6
253.676	3.06
254.057	2.19
254.438	1.88
254.819	1.59
255.2	2.62
255.581	2.56
255.962	3.85
256.343	3.93
256.724	2.25
257.105	2.42
257.486	2.43
257.867	2.29
258.247	3.11
258.628	3.31
259.009	2.97
259.389	2.92
259.77	2.46
260.15	2.83
260.531	2.51
260.911	2.51
261.292	2.32
261.672	2.41
262.052	2.41
262.432	2.31
262.813	3.1
263.193	2.19
263.573	3.16
263.953	3.07
264.333	2.4
264.713	2.12
265.093	1.98
265.473	3.02
265.853	2.99
266.233	2.32
266.612	3.22
266.992	1.92
267.372	2.77
267.752	2.17
268.131	2.78
268.511	2.77
268.89	2.83
269.27	2.4
269.649	2.58
270.029	2.12
270.408	2.64
270.787	2.58
271.167	2.53
271.546	2.82
271.925	2.51
272.304	2.66
272.683	2.54
273.062	2.43
273.441	2.68
273.82	2.63
274.199	2.63
274.578	2.52
274.957	2.72
275.336	2.42
275.715	2.62
276.093	2.67
276.472	2.44
276.851	2.28
277.229	2.79
277.608	2.97
277.986	2.83
278.365	1.79
278.743	3.06
279.122	2.87
279.5	1.88
279.878	2.88
280.257	2.82
280.635	2.59
281.013	2.64
281.391	2.64
281.769	2.54
282.147	2.72
282.525	1.99
282.903	2.29
283.281	2.53
283.659	2.84
284.037	2.56
284.415	2.32
284.792	2.85
285.17	2.95
285.548	2.07
285.925	2.4
286.303	2.82
286.68	2.43
287.058	2.51
287.435	2.48
287.813	2.84
288.19	2.41
288.567	2.45
288.945	2.56
289.322	2.52
289.699	2.68
290.076	2.17
290.453	2.81
290.83	2.98
291.207	2.66
291.584	2.04
291.961	2.51
292.338	2.71
292.715	2.66
293.092	2.85
293.469	2.94
293.845	3.05
294.222	3.09
294.599	3.17
294.975	2.79
295.352	2.94
295.728	2.67
296.105	2.8
296.481	2.53
296.858	2.57
297.234	2.84
297.61	3.13
297.986	2.74
298.363	2.95
298.739	2.64
299.115	3.05
299.491	3.04
299.867	2.74
300.243	3.15
300.619	3.25
300.995	2.89
301.371	3.23
301.746	3
302.122	3.45
302.498	3.44
302.874	3.29
303.249	3.41
303.625	2.92
304	3.09
304.376	2.53
304.751	3.47
305.127	3.47
305.502	3.29
305.878	3.1
306.253	3.51
306.628	2.99
307.003	3.33
307.378	3.94
307.754	3.62
308.129	4.06
308.504	3.75
308.879	3.77
309.254	3.82
309.629	3.46
310.003	3.61
310.378	3.49
310.753	3.5
311.128	3.75
311.502	3.46
311.877	3.75
312.252	3.93
312.626	3.93
313.001	3.8
313.375	4.11
313.75	4.07
314.124	4.09
314.498	3.86
314.873	4.39
315.247	3.96
315.621	3.92
315.995	3.7
316.369	4.44
316.743	4.16
317.117	4.45
317.491	4.12
317.865	3.96
318.239	4.46
318.613	4.34
318.987	4.06
319.361	3.75
319.734	4.22
320.108	3.99
320.482	4.45
320.855	4.52
321.229	4.46
321.602	4.61
321.976	4.52
322.349	4.11
322.723	4.62
323.096	4.05
323.469	4.66
323.843	4.75
324.216	5.05
324.589	5.05
324.962	4.2
325.335	4.83
325.708	4.82
326.081	4.69
326.454	5.02
326.827	4.67
327.2	4.53
327.573	4.16
327.945	4.76
328.318	4.91
328.691	4.7
329.063	4.98
329.436	4.72
329.809	4.93
330.181	4.97
330.553	5.32
330.926	5.16
331.298	4.95
331.671	4.68
332.043	5.05
332.415	5.2
332.787	5.25
333.159	5.19
333.532	5.51
333.904	5.02
334.276	5.6
334.648	5.28
335.02	5.66
335.391	5.57
335.763	5.17
336.135	5.01
336.507	5.43
336.879	5.5
337.25	5.01
337.622	5.98
337.993	5.86
338.365	5.62
338.736	5.84
339.108	5.3
339.479	5.95
339.851	5.43
340.222	5.68
340.593	5.9
340.964	5.83
341.336	5.82
341.707	5.17
342.078	6.1
342.449	5.68
342.82	5.83
343.191	5.93
343.562	6.11
343.933	5.93
344.303	6.45
344.674	5.28
345.045	6.43
345.416	5.8
345.786	6.01
346.157	5.95
346.527	6.02
346.898	5.97
347.268	6.22
347.639	6.07
348.009	6.08
348.38	6.26
348.75	6.06
349.12	6.32
349.49	6.84
349.861	6.4
350.231	6.15
350.601	6.37
350.971	6.41
351.341	6.5
351.711	6.37
352.081	6.42
352.45	7.11
352.82	6.94
353.19	6.53
353.56	6.44
353.929	6.7
354.299	6.62
354.669	6.56
355.038	6.49
355.408	6.77
355.777	6.73
356.147	6.71
356.516	6.56
356.885	6.63
357.254	7.09
357.624	6.66
357.993	6.79
358.362	6.56
358.731	7.15
359.1	7.09
359.469	6.85
359.838	6.47
360.207	7.09
360.576	7.29
360.945	6.85
361.314	6.76
361.682	6.74
362.051	7.04
362.42	7.42
362.788	7.3
363.157	7.03
363.525	7.29
363.894	7.35
364.262	7.05
364.631	7.35
364.999	7.3
365.367	7.35
365.735	7.52
366.104	7.6
366.472	7.42
366.84	7.77
367.208	7.59
367.576	7.61
367.944	7.53
368.312	7.55
368.68	7.66
369.048	8.04
369.416	7.9
369.783	7.94
370.151	7.8
370.519	7.78
370.886	7.64
371.254	7.64
371.621	8
371.989	7.86
372.356	7.96
372.724	8.07
373.091	7.93
373.458	7.87
373.826	7.64
374.193	8.29
374.56	7.66
374.927	7.94
375.294	8.02
375.661	8.07
376.028	8.4
376.395	8.02
376.762	8.49
377.129	8.24
377.496	8.41
377.863	8.55
378.229	8.58
378.596	8.32
378.963	8.08
379.329	8.22
379.696	8.71
380.062	8.31
380.429	8.55
380.795	8.56
381.161	8.67
381.528	8.73
381.894	8.7
382.26	8.69
382.626	8.59
382.993	8.69
383.359	8.57
383.725	9.14
384.091	9
384.457	8.43
384.823	8.76
385.188	9.01
385.554	8.77
385.92	8.86
386.286	8.86
386.651	9.16
387.017	9.04
387.383	8.55
387.748	8.7
388.114	8.83
388.479	9.11
388.845	9.04
389.21	9.42
389.575	9.19
389.94	9.26
390.306	9.29
390.671	9.15
391.036	9.29
391.401	9.43
391.766	9.47
392.131	9.29
392.496	9.46
392.861	9.49
393.226	9.52
393.591	9.41
393.956	9.32
394.32	9.58
394.685	9.51
395.05	9.86
395.414	9.41
395.779	9.74
396.143	9.87
396.508	9.55
396.872	9.75
397.236	9.54
397.601	9.52
397.965	9.7
398.329	9.76
398.694	9.83
399.058	10.13
399.422	9.82
399.786	10.03
400.15	9.86
400.514	9.87
400.878	9.95
401.242	9.9
401.605	10.03
401.969	9.72
402.333	10.28
402.697	10.05
403.06	10.09
403.424	10.03
403.787	10.14
404.151	10.24
404.514	10.2
404.878	10.04
405.241	10.12
405.604	10.46
405.968	10.43
406.331	10.12
406.694	10.35
407.057	10.23
407.42	10.43
407.783	10.6
408.146	10.55
408.509	10.6
408.872	10.68
409.235	10.5
409.598	10.54
409.961	10.82
410.323	10.78
410.686	10.86
411.049	10.7
411.411	10.7
411.774	10.99
412.136	10.64
412.499	10.75
412.861	10.91
413.223	10.91
413.586	11.12
413.948	10.88
414.31	10.9
414.672	10.92
415.035	11.07
415.397	10.88
415.759	11.18
416.121	10.97
416.483	11.09
416.845	11.24
417.206	11.04
417.568	11.19
417.93	11.13
418.292	11.26
418.653	11.11
419.015	11.12
419.377	11.11
419.738	10.98
420.1	11.15
420.461	11.19
420.822	11.12
421.184	11.22
421.545	11.12
421.906	11.18
422.267	11.23
422.629	11.03
422.99	11.11
423.351	11.23
423.712	11.13
424.073	11.34
424.434	11.43
424.795	11.38
425.155	11.44
425.516	11.36
425.877	11.44
426.238	11.42
426.598	11.37
426.959	11.47
427.32	11.43
427.68	11.65
428.041	11.71
428.401	11.75
428.761	11.74
429.122	11.97
429.482	11.83
429.842	11.9
430.202	12.14
430.563	11.99
430.923	12.16
431.283	12.35
431.643	12.21
432.003	12.19
432.363	12.22
432.722	12.31
433.082	12.35
433.442	12.41
433.802	12.23
434.161	12.27
434.521	12.19
434.881	12.14
435.24	12.17
435.6	12.28
435.959	12.43
436.319	12.4
436.678	12.49
437.037	12.38
437.396	12.44
437.756	12.48
438.115	12.63
438.474	12.35
438.833	12.44
439.192	12.58
439.551	12.55
439.91	12.61
440.269	12.72
440.628	12.63
440.987	12.58
441.345	12.61
441.704	12.66
442.063	12.68
442.421	12.65
442.78	12.61
443.138	12.67
443.497	12.73
443.855	12.85
444.214	12.86
444.572	12.92
444.93	13.02
445.288	12.97
445.647	12.84
446.005	12.74
446.363	12.93
446.721	12.99
447.079	12.8
447.437	12.93
447.795	12.93
448.153	12.97
448.51	12.91
448.868	12.94
449.226	13.07
449.584	13.19
449.941	13.23
450.299	13.26
450.656	13.4
451.014	13.38
451.371	13.35
451.729	13.53
452.086	13.52
452.443	13.55
452.801	13.59
453.158	13.75
453.515	13.41
453.872	13.46
454.229	13.71
454.586	13.66
454.943	13.53
455.3	13.85
455.657	13.63
456.014	13.72
456.371	13.8
456.727	13.82
457.084	14.1
457.441	13.87
457.797	14.06
458.154	14.03
458.51	14
458.867	13.91
459.223	14.01
459.58	13.96
459.936	14.12
460.292	13.99
460.648	13.98
461.005	13.91
461.361	13.7
461.717	13.81
462.073	13.85
462.429	14.04
462.785	14.2
463.141	14.17
463.496	14.27
463.852	14.21
464.208	14.43
464.564	14.48
464.919	14.43
465.275	14.61
465.631	14.48
465.986	14.46
466.342	14.67
466.697	14.57
467.052	14.54
467.408	14.61
467.763	14.5
468.118	14.6
468.473	14.73
468.829	14.63
469.184	14.78
469.539	14.77
469.894	14.82
470.249	14.92
470.603	15
470.958	14.64
471.313	14.99
471.668	14.98
472.023	15
472.377	14.93
472.732	14.92
473.086	14.83
473.441	15.05
473.795	15.27
474.15	15.03
474.504	15.03
474.859	14.89
475.213	15.2
475.567	14.93
475.921	15.35
476.275	15.29
476.63	15.29
476.984	15.26
477.338	15.4
477.692	15.31
478.045	15.26
478.399	15.35
478.753	15.38
479.107	15.25
479.461	15.24
479.814	15.35
480.168	15.35
480.521	15.36
480.875	15.44
481.228	15.52
481.582	15.5
481.935	15.52
482.289	15.48
482.642	15.48
482.995	15.4
483.348	15.46
483.701	15.38
484.055	15.28
484.408	15.32
484.761	15.02
485.114	14.83
485.466	14.72
485.819	14.75
486.172	14.92
486.525	15.1
486.878	15.21
487.23	15.3
487.583	15.42
487.936	15.52
488.288	15.37
488.641	15.3
488.993	15.22
489.345	15.18
489.698	15.24
490.05	15.29
490.402	15.35
490.754	15.61
491.107	15.63
491.459	15.85
491.811	15.86
492.163	15.83
492.515	15.86
492.866	15.64
493.218	15.5
493.57	15.53
493.922	15.59
494.274	15.81
494.625	15.94
494.977	16.01
495.328	16.26
495.68	16.29
496.031	16.5
496.383	16.54
496.734	16.53
497.086	16.49
497.437	16.7
497.788	16.56
498.139	16.43
498.49	16.51
498.842	16.49
499.193	16.47
499.544	16.63
499.894	16.55
500.245	16.57
500.596	16.66
500.947	16.74
501.298	16.71
501.648	16.88
501.999	16.92
502.35	17.09
502.7	16.99
503.051	17.01
503.401	16.97
503.752	17.06
504.102	17.16
504.452	17.05
504.803	17.13
505.153	17.02
505.503	17.1
505.853	17.19
506.203	17.15
506.553	17.07
506.903	17.08
507.253	17.3
507.603	17.29
507.953	17.33
508.303	17.3
508.652	17.25
509.002	17.37
509.352	17.32
509.701	17.39
510.051	17.41
510.4	17.29
510.75	17.21
511.099	17.27
511.449	17.27
511.798	17.33
512.147	17.39
512.496	17.5
512.846	17.52
513.195	17.45
513.544	17.53
513.893	17.5
514.242	17.44
514.591	17.65
514.939	17.7
515.288	17.85
515.637	17.84
515.986	17.76
516.334	17.65
516.683	18.01
517.032	18.06
517.38	17.98
517.729	18.17
518.077	18.1
518.426	18.02
518.774	17.97
519.122	17.79
519.47	17.84
519.819	17.81
520.167	17.65
520.515	17.7
520.863	17.86
521.211	17.86
521.559	17.88
521.907	17.96
522.255	17.96
522.602	18.03
522.95	18.16
523.298	18.23
523.645	18.39
523.993	18.36
524.341	18.37
524.688	18.37
525.036	18.42
525.383	18.48
525.73	18.56
526.078	18.4
526.425	18.34
526.772	18.3
527.119	18.17
527.466	18.18
527.814	18.19
528.161	18.21
528.508	18.35
528.854	18.29
529.201	18.19
529.548	18.13
529.895	17.86
530.242	17.75
530.588	17.81
530.935	17.99
531.282	18.07
531.628	18.22
531.975	18.34
532.321	18.46
532.667	18.54
533.014	18.65
533.36	18.71
533.706	18.63
534.052	18.73
534.399	18.45
534.745	18.32
535.091	18.33
535.437	18.38
535.783	18.57
536.129	18.71
536.474	18.78
536.82	18.93
537.166	19.07
537.512	19.05
537.857	18.9
538.203	18.98
538.549	18.8
538.894	18.81
539.239	19.09
539.585	19.19
539.93	19.25
540.276	19.34
540.621	19.43
540.966	19.44
541.311	19.35
541.656	19.46
542.001	19.26
542.346	19.12
542.691	19.02
543.036	18.76
543.381	18.75
543.726	19.02
544.071	19.08
544.415	19.12
544.76	19.31
545.105	19.35
545.449	19.42
545.794	19.55
546.138	19.59
546.483	19.73
546.827	19.81
547.171	19.69
547.516	19.68
547.86	19.8
548.204	19.67
548.548	19.72
548.892	19.72
549.236	19.82
549.58	20.07
549.924	20
550.268	20.16
550.612	20.35
550.956	20.29
551.3	20.39
551.643	20.57
551.987	20.48
552.33	20.49
552.674	20.35
553.017	20.66
553.361	20.4
553.704	20.54
554.048	20.27
554.391	20.44
554.734	20.47
555.077	20.52
555.42	20.64
555.764	20.65
556.107	20.8
556.45	20.58
556.793	20.77
557.135	20.67
557.478	20.8
557.821	20.81
558.164	21.09
558.507	20.88
558.849	20.98
559.192	20.83
559.534	21.05
559.877	20.89
560.219	21.04
560.562	21.21
560.904	21.06
561.246	21.09
561.589	21.34
561.931	21.2
562.273	21.15
562.615	21.18
562.957	21.04
563.299	21.3
563.641	21.14
563.983	21.35
564.325	21.21
564.667	21.43
565.008	21.57
565.35	21.46
565.692	21.41
566.033	21.56
566.375	21.49
566.716	21.55
567.058	21.43
567.399	21.52
567.741	21.28
568.082	21.47
568.423	21.42
568.764	21.39
569.105	21.38
569.447	21.58
569.788	21.59
570.129	21.85
570.47	21.72
570.811	21.63
571.151	21.8
571.492	21.66
571.833	21.83
572.174	21.97
572.514	21.71
572.855	21.56
573.195	21.53
573.536	21.54
573.876	21.8
574.217	21.72
574.557	21.78
574.898	21.72
575.238	21.9
575.578	21.82
575.918	21.93
576.258	21.87
576.598	21.89
576.938	22.09
577.278	21.94
577.618	22.05
577.958	22.14
578.298	21.94
578.638	22.12
578.977	22.25
579.317	22.32
579.657	22.35
579.996	22.25
580.336	22.35
580.675	22.36
581.014	22.61
581.354	22.67
581.693	22.48
582.032	22.57
582.372	22.44
582.711	22.74
583.05	22.77
583.389	22.62
583.728	22.69
584.067	22.93
584.406	22.8
584.745	22.78
585.083	22.81
585.422	23.05
585.761	22.96
586.1	22.65
586.438	23.1
586.777	22.7
587.115	22.72
587.454	22.9
587.792	22.77
588.13	23.1
588.469	22.9
588.807	22.99
589.145	23.03
589.483	23.3
589.821	23.23
590.159	22.97
590.497	22.98
590.835	22.96
591.173	23.12
591.511	23.08
591.849	23.07
592.187	23.17
592.524	23.12
592.862	23.13
593.2	22.98
593.537	23.38
593.875	23.33
594.212	23.45
594.55	23.19
594.887	23.51
595.224	23.37
595.561	23.31
595.899	23.44
596.236	23.61
596.573	23.34
596.91	23.22
597.247	23.61
597.584	23.59
597.921	23.51
598.258	23.55
598.594	23.2
598.931	23.17
599.268	23.43
599.604	23.46
599.941	23.4
600.277	23.43
600.614	23.85
600.95	23.75
601.287	23.79
601.623	24.05
601.959	24.03
602.296	23.72
602.632	23.9
602.968	23.67
603.304	23.96
603.64	23.92
603.976	24.18
604.312	23.74
604.648	24.12
604.984	23.84
605.319	23.91
605.655	23.96
605.991	23.91
606.326	23.69
606.662	23.57
606.998	23.91
607.333	23.96
607.668	24.07
608.004	24.15
608.339	24.1
608.674	24.36
609.01	24.43
609.345	24.07
609.68	24.25
610.015	24.4
610.35	24.21
610.685	24.36
611.02	24.29
611.355	24.41
611.689	24.3
612.024	24.34
612.359	24.27
612.694	24.31
613.028	24.36
613.363	24.51
613.697	24.39
614.032	24.48
614.366	24.22
614.7	24.39
615.035	24.44
615.369	24.45
615.703	24.35
616.037	24.99
616.371	24.81
616.705	24.81
617.039	25.03
617.373	24.45
617.707	25.01
618.041	24.73
618.375	24.84
618.709	24.95
619.042	24.89
619.376	24.86
619.71	25.26
620.043	24.44
620.377	25.01
620.71	25.05
621.043	25.35
621.377	25.21
621.71	25.18
622.043	24.72
622.376	24.9
622.709	25.35
623.043	25.41
623.376	24.86
623.709	24.8
624.041	25.31
624.374	25.4
624.707	25.74
625.04	25.32
625.373	25.43
625.705	25.28
626.038	25.51
626.37	25.15
626.703	24.85
627.035	25.04
627.368	25.3
627.7	25.39
628.032	24.99
628.365	25.18
628.697	25.42
629.029	25.03
629.361	25.2
629.693	25.49
630.025	25.51
630.357	25.15
630.689	25.77
631.021	25.7
631.353	25.46
631.684	25.26
632.016	25.66
632.348	25.71
632.679	25.5
633.011	25.59
633.342	25.57
633.674	25.78
634.005	25.88
634.336	25.72
634.668	25.83
634.999	25.69
635.33	25.86
635.661	26
635.992	25.66
636.323	25.62
636.654	25.89
636.985	25.74
637.316	25.86
637.647	26.05
637.977	25.73
638.308	25.96
638.639	26.27
638.969	25.93
639.3	26.14
639.63	25.65
639.961	25.89
640.291	25.97
640.622	25.97
640.952	26.18
641.282	26
641.612	26.14
641.943	25.92
642.273	26.09
642.603	26.18
642.933	25.96
643.263	26.34
643.592	25.96
643.922	25.67
644.252	26.04
644.582	25.96
644.911	26.72
645.241	26.61
645.571	26.68
645.9	26.46
646.23	26.49
646.559	26.18
646.888	26.34
647.218	26.72
647.547	26.65
647.876	26.96
648.205	26.66
648.534	26.8
648.863	26.84
649.192	26.82
649.521	26.64
649.85	26.96
650.179	26.15
650.508	27.03
650.837	26.84
651.165	26.96
651.494	27.05
651.822	26.34
652.151	26.43
652.479	26.79
652.808	26.77
653.136	26.76
653.465	26.52
653.793	27.12
654.121	26.64
654.449	26.81
654.777	26.62
655.105	27.15
655.433	26.82
655.761	26.99
656.089	27.01
656.417	26.81
656.745	26.73
657.073	26.79
657.4	26.91
657.728	27.43
658.056	26.87
658.383	27.11
658.711	27.47
659.038	27.16
659.365	27.65
659.693	27.09
660.02	27.24
660.347	27.24
660.674	26.89
661.001	26.88
661.329	26.98
661.656	26.79
661.982	27.03
662.309	27.49
662.636	27.53
662.963	27.38
663.29	27.57
663.616	27.28
663.943	27.03
664.27	26.96
664.596	27.54
664.923	27.56
665.249	27.81
665.576	27.51
665.902	27.37
666.228	27.25
666.554	27.67
666.881	27.51
667.207	27.88
667.533	27.7
667.859	28.13
668.185	27.64
668.511	27.43
668.837	27.56
669.162	28.21
669.488	27.47
669.814	27.92
670.139	27.88
670.465	27.65
670.791	27.55
671.116	27.65
671.442	28.04
671.767	27.64
672.092	28.11
672.418	27.74
672.743	28.33
673.068	27.88
673.393	27.93
673.718	28.2
674.043	27.79
