Data from 815652_forehead_Reflection__2__47.txt Node

Date: Fri Sep 16 14:50:33 CDT 2022
User: ToomeyLab
Spectrometer: FLMS14357
Trigger mode: 0
Integration Time (sec): 1.000000E-2
Scans to average: 100
Electric dark correction enabled: true
Nonlinearity correction enabled: false
Boxcar width: 0
XAxis mode: Wavelengths
Number of Pixels in Spectrum: 2048
>>>>>Begin Spectral Data<<<<<
189.047	-156.09
189.435	-156.09
189.823	-156.09
190.211	-225.13
190.599	-247.88
190.987	92.71
191.375	82.89
191.763	75.87
192.151	-140.93
192.538	41.66
192.926	22.81
193.314	150.82
193.702	44.01
194.089	47.44
194.477	21.38
194.864	63.7
195.252	-195.69
195.639	81.99
196.027	-1.42
196.414	402.01
196.801	64.93
197.189	105.42
197.576	25.74
197.963	-42.59
198.351	-16.37
198.738	25.34
199.125	53.88
199.512	19.5
199.899	3.34
200.286	11.11
200.673	31.85
201.06	29.74
201.447	61.78
201.833	22.51
202.22	49.67
202.607	-48.84
202.994	33.88
203.38	13.43
203.767	14.65
204.154	59.4
204.54	44.37
204.927	-2.32
205.313	44.7
205.699	40.54
206.086	31.4
206.472	34.98
206.858	21.13
207.245	29.74
207.631	13.25
208.017	23.05
208.403	-2.34
208.789	-8.25
209.175	47.23
209.561	11.34
209.947	14.5
210.333	9.75
210.719	27.37
211.105	57.87
211.491	32.69
211.876	24.13
212.262	-3.66
212.648	31.4
213.034	32.97
213.419	-13.62
213.805	36.09
214.19	31.58
214.576	19.38
214.961	15.32
215.346	-24.19
215.732	-82.36
216.117	22.89
216.502	28.24
216.888	-29.12
217.273	27.09
217.658	1.47
218.043	-47.27
218.428	20.44
218.813	-5.24
219.198	31.18
219.583	30.96
219.968	23.02
220.353	19.84
220.738	34.34
221.122	-0.84
221.507	35.77
221.892	23.75
222.276	23.76
222.661	21.88
223.046	20.64
223.43	4.7
223.815	-3.21
224.199	1.98
224.583	10.68
224.968	10.01
225.352	2.86
225.736	11.6
226.121	3.21
226.505	5.72
226.889	11.7
227.273	3.68
227.657	6.56
228.041	7.61
228.425	-2.94
228.809	8.81
229.193	4.73
229.577	3.76
229.961	3.51
230.344	4.77
230.728	3.75
231.112	3.9
231.495	2.77
231.879	5.02
232.263	4.05
232.646	2.74
233.03	4.04
233.413	4.5
233.797	2.54
234.18	4.05
234.563	3.16
234.946	4.08
235.33	5
235.713	2.79
236.096	3.67
236.479	3.6
236.862	2.4
237.245	4.39
237.628	6.54
238.011	3.33
238.394	5.19
238.777	4.86
239.16	4.94
239.543	4.47
239.925	5.74
240.308	2.66
240.691	4.4
241.073	4.85
241.456	3.88
241.838	2.01
242.221	2.94
242.603	3.3
242.986	2.6
243.368	3.59
243.75	3.44
244.133	3.59
244.515	3.59
244.897	3.84
245.279	3.78
245.661	4.01
246.043	4.79
246.425	3.36
246.807	3.42
247.189	3.48
247.571	2.97
247.953	3.25
248.335	3.07
248.717	3.23
249.098	3.19
249.48	3.06
249.862	3.12
250.243	3.38
250.625	3.69
251.006	3.61
251.388	3.76
251.769	2.81
252.151	3.79
252.532	3.04
252.913	3.33
253.295	2.97
253.676	3.98
254.057	3.02
254.438	2.62
254.819	2.4
255.2	2.63
255.581	4.15
255.962	3.8
256.343	5.74
256.724	3.14
257.105	2.59
257.486	3.8
257.867	3.72
258.247	3.97
258.628	4.32
259.009	2.92
259.389	3.3
259.77	2.7
260.15	3.72
260.531	3.12
260.911	3.21
261.292	2.95
261.672	3.08
262.052	2.8
262.432	3.19
262.813	3.84
263.193	3.51
263.573	3.45
263.953	3.39
264.333	3.01
264.713	2.43
265.093	3.1
265.473	3.4
265.853	3.24
266.233	3.1
266.612	4.27
266.992	2.62
267.372	3.08
267.752	2.35
268.131	3.26
268.511	3.54
268.89	3.56
269.27	2.83
269.649	2.75
270.029	3.08
270.408	3.56
270.787	3.31
271.167	3.36
271.546	3.91
271.925	3.4
272.304	3.32
272.683	2.83
273.062	2.78
273.441	3.17
273.82	2.75
274.199	3.13
274.578	3.18
274.957	3.39
275.336	3.61
275.715	3.5
276.093	3.13
276.472	2.77
276.851	3.19
277.229	3.13
277.608	3.29
277.986	3.72
278.365	2.67
278.743	3.2
279.122	3.59
279.5	3.2
279.878	3.63
280.257	3.63
280.635	3.33
281.013	2.85
281.391	3.17
281.769	3.38
282.147	3.59
282.525	2.79
282.903	2.81
283.281	3.04
283.659	3.24
284.037	3.18
284.415	3.3
284.792	3.72
285.17	3.66
285.548	3.13
285.925	3.03
286.303	3.74
286.68	2.98
287.058	3.15
287.435	3.03
287.813	3.62
288.19	2.96
288.567	3
288.945	3.28
289.322	3.74
289.699	3.02
290.076	2.82
290.453	3.11
290.83	3.48
291.207	3.36
291.584	3.06
291.961	3.13
292.338	3.27
292.715	3.26
293.092	3.34
293.469	3.49
293.845	3.47
294.222	3.16
294.599	3.32
294.975	3.43
295.352	3.34
295.728	3.17
296.105	3.52
296.481	3.12
296.858	3.76
297.234	3.65
297.61	4.27
297.986	3.57
298.363	3.23
298.739	3.4
299.115	3.5
299.491	3.56
299.867	3.27
300.243	3.68
300.619	3.85
300.995	3.56
301.371	3.71
301.746	3.83
302.122	4.39
302.498	3.77
302.874	3.91
303.249	4.17
303.625	3.45
304	3.68
304.376	3.5
304.751	4.06
305.127	3.97
305.502	3.8
305.878	4.13
306.253	3.84
306.628	3.72
307.003	4.25
307.378	4.21
307.754	4.44
308.129	4.68
308.504	4.17
308.879	4.57
309.254	4.56
309.629	4.4
310.003	4.05
310.378	4.21
310.753	4.9
311.128	4.14
311.502	4.31
311.877	4.45
312.252	4.37
312.626	4.33
313.001	4.64
313.375	4.77
313.75	4.74
314.124	4.48
314.498	4.57
314.873	5.17
315.247	5.3
315.621	4.79
315.995	4.73
316.369	4.84
316.743	5.49
317.117	4.69
317.491	4.79
317.865	5.43
318.239	5.26
318.613	4.47
318.987	4.58
319.361	5
319.734	5.21
320.108	4.52
320.482	5.82
320.855	5.14
321.229	5.24
321.602	5.97
321.976	5.62
322.349	5.76
322.723	5.21
323.096	5.3
323.469	5.36
323.843	6.29
324.216	5.88
324.589	5.55
324.962	5.54
325.335	5.79
325.708	5.6
326.081	5.6
326.454	5.77
326.827	5.27
327.2	5.52
327.573	5.59
327.945	5.5
328.318	6.07
328.691	5.77
329.063	5.85
329.436	5.74
329.809	5.83
330.181	6.35
330.553	5.76
330.926	6
331.298	6.27
331.671	6.18
332.043	6.15
332.415	6.15
332.787	5.87
333.159	6.16
333.532	6.5
333.904	6.13
334.276	6.16
334.648	6.25
335.02	6.67
335.391	6.74
335.763	6.21
336.135	6.32
336.507	6.36
336.879	6.76
337.25	6.18
337.622	6.51
337.993	6.96
338.365	7.08
338.736	7.18
339.108	7
339.479	6.98
339.851	6.96
340.222	6.69
340.593	6.71
340.964	6.77
341.336	7.18
341.707	7.22
342.078	7.43
342.449	7.36
342.82	7.1
343.191	7.11
343.562	7.2
343.933	7.55
344.303	7.88
344.674	7.25
345.045	7.91
345.416	7.45
345.786	7.44
346.157	7.23
346.527	7.56
346.898	7.43
347.268	7.69
347.639	7.05
348.009	7.61
348.38	8.1
348.75	7.4
349.12	7.65
349.49	7.77
349.861	7.88
350.231	7.57
350.601	7.53
350.971	7.93
351.341	8.39
351.711	7.85
352.081	7.87
352.45	7.91
352.82	8.76
353.19	7.88
353.56	8.39
353.929	8.51
354.299	8.18
354.669	8.23
355.038	8.25
355.408	8.25
355.777	8.3
356.147	8.24
356.516	8.49
356.885	8.56
357.254	8.51
357.624	8.29
357.993	8.4
358.362	8.42
358.731	8.86
359.1	8.81
359.469	8.68
359.838	8.69
360.207	9.1
360.576	8.58
360.945	8.67
361.314	8.6
361.682	8.67
362.051	9.08
362.42	9.06
362.788	9.02
363.157	9.13
363.525	8.88
363.894	8.8
364.262	8.87
364.631	9.21
364.999	9.05
365.367	8.82
365.735	9.24
366.104	9.36
366.472	9.36
366.84	9.25
367.208	9.4
367.576	9.52
367.944	9.46
368.312	9.66
368.68	9.69
369.048	9.78
369.416	9.82
369.783	9.76
370.151	9.96
370.519	9.43
370.886	9.8
371.254	9.71
371.621	10.24
371.989	9.84
372.356	10.04
372.724	10.21
373.091	9.91
373.458	9.73
373.826	9.9
374.193	10.38
374.56	9.99
374.927	9.76
375.294	10.15
375.661	10.3
376.028	10.8
376.395	9.91
376.762	10.64
377.129	10.41
377.496	10.69
377.863	10.77
378.229	10.71
378.596	10.19
378.963	10.58
379.329	10.39
379.696	10.59
380.062	10.72
380.429	10.6
380.795	10.67
381.161	11.01
381.528	11.03
381.894	10.66
382.26	11.21
382.626	10.9
382.993	10.84
383.359	11.04
383.725	10.84
384.091	11.28
384.457	11.1
384.823	10.95
385.188	11.14
385.554	10.85
385.92	11.28
386.286	11.21
386.651	11.08
387.017	11.22
387.383	11.09
387.748	10.94
388.114	11.33
388.479	11.58
388.845	11.7
389.21	11.8
389.575	11.68
389.94	11.81
390.306	11.67
390.671	11.67
391.036	11.75
391.401	11.9
391.766	12.03
392.131	11.91
392.496	11.91
392.861	11.98
393.226	11.83
393.591	11.76
393.956	11.78
394.32	12.33
394.685	12.2
395.05	12.29
395.414	11.94
395.779	12.3
396.143	12.24
396.508	12.19
396.872	12.53
397.236	12.35
397.601	12.47
397.965	12.3
398.329	12.55
398.694	12.57
399.058	12.85
399.422	12.78
399.786	12.85
400.15	12.81
400.514	12.69
400.878	12.63
401.242	12.57
401.605	12.52
401.969	12.77
402.333	12.79
402.697	12.87
403.06	12.8
403.424	13.19
403.787	13.01
404.151	13
404.514	12.98
404.878	13
405.241	13.38
405.604	13.18
405.968	13.12
406.331	13.12
406.694	13.15
407.057	13.17
407.42	13.18
407.783	13.41
408.146	13.51
408.509	13.56
408.872	13.65
409.235	13.62
409.598	13.53
409.961	13.5
410.323	13.74
410.686	13.88
411.049	13.58
411.411	13.62
411.774	13.78
412.136	13.61
412.499	13.81
412.861	13.9
413.223	14.15
413.586	13.94
413.948	14.04
414.31	14.21
414.672	14.26
415.035	14.05
415.397	13.99
415.759	14.17
416.121	13.99
416.483	14.28
416.845	14.34
417.206	14.42
417.568	14.15
417.93	14.34
418.292	14.34
418.653	14.18
419.015	14.23
419.377	14.26
419.738	14.15
420.1	14.28
420.461	14.44
420.822	14.3
421.184	14.34
421.545	14.36
421.906	14.42
422.267	14.5
422.629	14.3
422.99	14.28
423.351	14.44
423.712	14.35
424.073	14.57
424.434	14.7
424.795	14.64
425.155	14.67
425.516	14.65
425.877	14.58
426.238	14.58
426.598	14.74
426.959	15.01
427.32	14.76
427.68	15
428.041	15.01
428.401	15.06
428.761	15.25
429.122	15.36
429.482	15.12
429.842	15.24
430.202	15.65
430.563	15.56
430.923	15.56
431.283	15.46
431.643	15.67
432.003	15.64
432.363	15.43
432.722	15.78
433.082	15.71
433.442	15.68
433.802	15.77
434.161	15.74
434.521	15.76
434.881	15.67
435.24	15.76
435.6	15.89
435.959	15.96
436.319	15.84
436.678	15.91
437.037	16.07
437.396	16.14
437.756	16.2
438.115	16.16
438.474	16.07
438.833	16.31
439.192	16.12
439.551	16.35
439.91	16.39
440.269	16.43
440.628	16.23
440.987	16.48
441.345	16.38
441.704	16.31
442.063	16.35
442.421	16.39
442.78	16.32
443.138	16.46
443.497	16.49
443.855	16.55
444.214	16.65
444.572	16.8
444.93	16.67
445.288	16.65
445.647	16.8
446.005	16.64
446.363	16.84
446.721	16.74
447.079	16.67
447.437	16.65
447.795	16.74
448.153	16.7
448.51	16.62
448.868	16.78
449.226	16.9
449.584	16.92
449.941	17.09
450.299	16.95
450.656	17.19
451.014	17.14
451.371	17.32
451.729	17.36
452.086	17.39
452.443	17.56
452.801	17.52
453.158	17.46
453.515	17.31
453.872	17.46
454.229	17.68
454.586	17.48
454.943	17.51
455.3	17.73
455.657	17.53
456.014	17.63
456.371	17.76
456.727	17.84
457.084	17.97
457.441	17.98
457.797	18.23
458.154	18
458.51	17.92
458.867	18.06
459.223	18.08
459.58	18.14
459.936	18.06
460.292	18.21
460.648	18.11
461.005	18.2
461.361	17.88
461.717	17.84
462.073	17.86
462.429	17.97
462.785	18.06
463.141	18.35
463.496	18.36
463.852	18.42
464.208	18.44
464.564	18.77
464.919	18.64
465.275	18.8
465.631	18.71
465.986	18.68
466.342	18.85
466.697	18.67
467.052	18.86
467.408	18.93
467.763	18.85
468.118	18.9
468.473	18.83
468.829	19.06
469.184	18.94
469.539	19.22
469.894	19.08
470.249	19.2
470.603	19.3
470.958	19.06
471.313	19.07
471.668	19.14
472.023	19.21
472.377	19.26
472.732	19.48
473.086	19.3
473.441	19.25
473.795	19.46
474.15	19.44
474.504	19.7
474.859	19.43
475.213	19.61
475.567	19.48
475.921	19.66
476.275	19.67
476.63	19.69
476.984	19.91
477.338	19.87
477.692	19.79
478.045	19.78
478.399	19.86
478.753	19.9
479.107	19.74
479.461	19.66
479.814	20
480.168	19.86
480.521	19.97
480.875	20.13
481.228	19.97
481.582	20.09
481.935	20
482.289	20.01
482.642	20.1
482.995	19.95
483.348	19.89
483.701	19.84
484.055	19.79
484.408	19.89
484.761	19.45
485.114	19.2
485.466	19.17
485.819	19.22
486.172	19.35
486.525	19.51
486.878	19.6
487.23	19.73
487.583	19.92
487.936	19.97
488.288	19.86
488.641	19.73
488.993	19.7
489.345	19.65
489.698	19.67
490.05	19.83
490.402	19.87
490.754	20.12
491.107	20.19
491.459	20.3
491.811	20.5
492.163	20.48
492.515	20.44
492.866	20.2
493.218	19.97
493.57	20.06
493.922	20.18
494.274	20.39
494.625	20.48
494.977	20.74
495.328	20.87
495.68	20.96
496.031	21.18
496.383	21.08
496.734	21.34
497.086	21.26
497.437	21.28
497.788	21.28
498.139	21.26
498.49	21.04
498.842	21.16
499.193	21.23
499.544	21.31
499.894	21.19
500.245	21.4
500.596	21.55
500.947	21.52
501.298	21.6
501.648	21.76
501.999	21.8
502.35	21.73
502.7	22
503.051	21.81
503.401	21.67
503.752	21.9
504.102	21.85
504.452	21.87
504.803	22.07
505.153	22.14
505.503	22.02
505.853	21.84
506.203	22.02
506.553	21.96
506.903	22
507.253	22.08
507.603	22.32
507.953	22.21
508.303	22.37
508.652	22.28
509.002	22.31
509.352	22.34
509.701	22.32
510.051	22.35
510.4	22.22
510.75	22.28
511.099	22.18
511.449	22.08
511.798	22.34
512.147	22.28
512.496	22.54
512.846	22.6
513.195	22.5
513.544	22.47
513.893	22.52
514.242	22.49
514.591	22.5
514.939	22.68
515.288	22.81
515.637	22.95
515.986	22.89
516.334	22.82
516.683	22.84
517.032	23.13
517.38	22.96
517.729	23.09
518.077	23.16
518.426	23.05
518.774	22.97
519.122	23
519.47	22.93
519.819	22.83
520.167	22.71
520.515	22.71
520.863	22.79
521.211	22.95
521.559	23.01
521.907	23.1
522.255	23.15
522.602	23.13
522.95	23.44
523.298	23.41
523.645	23.5
523.993	23.5
524.341	23.64
524.688	23.7
525.036	23.66
525.383	23.65
525.73	23.57
526.078	23.57
526.425	23.59
526.772	23.41
527.119	23.21
527.466	23.29
527.814	23.29
528.161	23.42
528.508	23.44
528.854	23.49
529.201	23.42
529.548	23.2
529.895	23
530.242	22.92
530.588	22.99
530.935	23.03
531.282	23.22
531.628	23.23
531.975	23.4
532.321	23.5
532.667	23.67
533.014	23.83
533.36	23.83
533.706	23.89
534.052	23.93
534.399	23.67
534.745	23.59
535.091	23.49
535.437	23.66
535.783	23.74
536.129	23.93
536.474	24.02
536.82	24.07
537.166	24.29
537.512	24.38
537.857	24.14
538.203	24.21
538.549	24.07
538.894	24.18
539.239	24.46
539.585	24.47
539.93	24.59
540.276	24.83
540.621	24.79
540.966	24.86
541.311	24.72
541.656	24.75
542.001	24.67
542.346	24.4
542.691	24.2
543.036	24.09
543.381	24.1
543.726	24.21
544.071	24.35
544.415	24.41
544.76	24.51
545.105	24.74
545.449	24.72
545.794	24.9
546.138	24.97
546.483	25.34
546.827	25.23
547.171	25.03
547.516	25.07
547.86	25.24
548.204	25.15
548.548	25.13
548.892	25.14
549.236	25.35
549.58	25.54
549.924	25.59
550.268	25.71
550.612	25.7
550.956	25.64
551.3	25.87
551.643	25.92
551.987	26.21
552.33	26
552.674	26.07
553.017	26.16
553.361	26.07
553.704	26.11
554.048	25.84
554.391	26.13
554.734	25.99
555.077	26.11
555.42	26.01
555.764	26.26
556.107	26.6
556.45	26.35
556.793	26.48
557.135	26.2
557.478	26.38
557.821	26.43
558.164	26.63
558.507	26.41
558.849	26.48
559.192	26.64
559.534	26.67
559.877	26.59
560.219	26.49
560.562	26.83
560.904	26.87
561.246	26.78
561.589	26.91
561.931	26.87
562.273	26.85
562.615	26.85
562.957	26.63
563.299	26.85
563.641	26.8
563.983	27.1
564.325	26.99
564.667	26.97
565.008	27.3
565.35	27.06
565.692	27.04
566.033	27.36
566.375	27.32
566.716	27.09
567.058	26.96
567.399	27.14
567.741	27.03
568.082	27.06
568.423	26.95
568.764	27
569.105	27.08
569.447	27.26
569.788	27.34
570.129	27.18
570.47	27.51
570.811	27.49
571.151	27.38
571.492	27.58
571.833	27.4
572.174	27.63
572.514	27.48
572.855	27.39
573.195	27.47
573.536	27.41
573.876	27.49
574.217	27.39
574.557	27.55
574.898	27.65
575.238	27.57
575.578	27.57
575.918	27.72
576.258	27.73
576.598	27.74
576.938	27.7
577.278	27.7
577.618	27.74
577.958	27.74
578.298	27.94
578.638	28.05
578.977	27.89
579.317	28.13
579.657	28.21
579.996	28.19
580.336	28.05
580.675	28.05
581.014	28.41
581.354	28.48
581.693	28.37
582.032	28.43
582.372	28.36
582.711	28.66
583.05	28.56
583.389	28.6
583.728	28.7
584.067	28.86
584.406	28.79
584.745	28.89
585.083	28.87
585.422	28.84
585.761	28.86
586.1	28.42
586.438	29.04
586.777	28.52
587.115	28.65
587.454	28.97
587.792	28.91
588.13	28.85
588.469	29.18
588.807	28.82
589.145	28.97
589.483	29.2
589.821	29.27
590.159	29.14
590.497	29.18
590.835	29.19
591.173	29.18
591.511	28.87
591.849	29.1
592.187	29.01
592.524	29.12
592.862	29.09
593.2	29.04
593.537	29.17
593.875	29.28
594.212	29.46
594.55	29.32
594.887	29.4
595.224	29.3
595.561	29.43
595.899	29.63
596.236	29.49
596.573	29.34
596.91	29.17
597.247	29.45
597.584	29.43
597.921	29.49
598.258	29.36
598.594	29.09
598.931	29.29
599.268	29.4
599.604	29.24
599.941	29.45
600.277	29.54
600.614	29.77
600.95	29.88
601.287	29.85
601.623	30.09
601.959	29.8
602.296	29.78
602.632	29.89
602.968	29.9
603.304	29.75
603.64	30.08
603.976	30.18
604.312	30.14
604.648	29.91
604.984	29.84
605.319	30.04
605.655	30.09
605.991	29.8
606.326	29.8
606.662	29.93
606.998	30.03
607.333	29.78
607.668	30.11
608.004	30.26
608.339	30.17
608.674	30.12
609.01	30.71
609.345	30.21
609.68	30.3
610.015	30.15
610.35	30.36
610.685	30.69
611.02	30.25
611.355	30.41
611.689	30.37
612.024	30.28
612.359	30.39
612.694	30.26
613.028	30.49
613.363	30.61
613.697	30.48
614.032	30.53
614.366	30.46
614.7	30.47
615.035	30.83
615.369	30.49
615.703	30.91
616.037	30.76
616.371	31.1
616.705	30.78
617.039	30.77
617.373	30.72
617.707	31.05
618.041	30.8
618.375	31.08
618.709	31
619.042	31.24
619.376	30.89
619.71	31.09
620.043	30.91
620.377	31.23
620.71	31.04
621.043	31.33
621.377	31.17
621.71	31.24
622.043	30.87
622.376	31.42
622.709	31.34
623.043	31.43
623.376	31
623.709	31.13
624.041	31.47
624.374	31.19
624.707	31.51
625.04	31.62
625.373	31.36
625.705	31.47
626.038	31.99
626.37	31.27
626.703	31.37
627.035	31.29
627.368	31.82
627.7	31.8
628.032	30.92
628.365	31.45
628.697	31.62
629.029	31.54
629.361	31.6
629.693	31.56
630.025	31.72
630.357	31.78
630.689	31.64
631.021	31.73
631.353	31.93
631.684	31.8
632.016	31.71
632.348	32.3
632.679	32.13
633.011	31.94
633.342	31.99
633.674	32.11
634.005	32.03
634.336	31.95
634.668	32.16
634.999	32.14
635.33	32.27
635.661	32.33
635.992	31.81
636.323	31.8
636.654	32.23
636.985	32.27
637.316	32.36
637.647	32.09
637.977	32
638.308	32.15
638.639	32.65
638.969	32.16
639.3	32.26
639.63	32.03
639.961	32.41
640.291	32.37
640.622	32.1
640.952	32.6
641.282	32.37
641.612	32.49
641.943	32.63
642.273	32.6
642.603	32.91
642.933	32.4
643.263	32.42
643.592	32.47
643.922	32.23
644.252	32.98
644.582	32.75
644.911	32.74
645.241	32.63
645.571	32.8
645.9	32.93
646.23	32.61
646.559	32.6
646.888	32.5
647.218	33.33
647.547	33.01
647.876	33.37
648.205	33.08
648.534	32.9
648.863	33.05
649.192	33.13
649.521	33.34
649.85	33.04
650.179	32.78
650.508	32.97
650.837	32.62
651.165	32.89
651.494	33.5
651.822	32.83
652.151	32.79
652.479	33.39
652.808	32.92
653.136	32.84
653.465	33.01
653.793	32.79
654.121	33.07
654.449	33.23
654.777	33.05
655.105	33.57
655.433	33.21
655.761	33.52
656.089	33.73
656.417	34.31
656.745	33.15
657.073	33.22
657.4	33.56
657.728	33.69
658.056	33.03
658.383	33.61
658.711	33.37
659.038	33.11
659.365	33.06
659.693	33.11
660.02	33.75
660.347	33.63
660.674	33.41
661.001	33.5
661.329	33.11
661.656	33.4
661.982	33.39
662.309	33.63
662.636	33.67
662.963	33.49
663.29	33.62
663.616	34.2
663.943	34.21
664.27	33.46
664.596	33.61
664.923	34.01
665.249	34.12
665.576	33.68
665.902	34.45
666.228	33.65
666.554	34.17
666.881	33.75
667.207	34.36
667.533	33.85
667.859	33.99
668.185	34.01
668.511	33.98
668.837	34.48
669.162	33.98
669.488	34.31
669.814	33.87
670.139	34.36
670.465	34.22
670.791	34.23
671.116	34.51
671.442	33.96
671.767	34.1
672.092	34.29
672.418	34.16
672.743	34.45
673.068	34.66
673.393	34.1
673.718	34.38
